06/29/2022	23:12:46	Ver.	4.1	UNKNOWN
Optical Delay	630.002507	Delta X		0.078125	Sweeps	1	Scan Rate	0/0
Coordinates	Axis 1	NaN	Axis 2	NaN	Axis 3	NaN	Axis 4	NaN	Axis 5	NaN	Axis 6	0.000000
TX Power	0.000000	RX Power	0.000000

630.003	0.0162401
630.081	0.0162374
630.159	0.0162031
630.237	0.0162853
630.315	0.0163263
630.393	0.0163034
630.471	0.0164161
630.549	0.0162906
630.628	0.0162830
630.706	0.0164686
630.784	0.0164807
630.862	0.0162579
630.940	0.0162700
631.018	0.0164689
631.096	0.0163643
631.174	0.0162394
631.253	0.0163744
631.331	0.0163541
631.409	0.0163738
631.487	0.0165102
631.565	0.0163219
631.643	0.0164202
631.721	0.0163884
631.799	0.0162917
631.878	0.0162976
631.956	0.0163837
632.034	0.0166034
632.112	0.0164927
632.190	0.0163907
632.268	0.0164763
632.346	0.0163462
632.424	0.0164305
632.503	0.0164811
632.581	0.0163456
632.659	0.0163434
632.737	0.0165951
632.815	0.0165038
632.893	0.0165795
632.971	0.0165618
633.049	0.0164687
633.128	0.0164485
633.206	0.0164665
633.284	0.0164954
633.362	0.0164445
633.440	0.0163906
633.518	0.0164523
633.596	0.0163763
633.674	0.0163798
633.753	0.0163421
633.831	0.0163422
633.909	0.0164296
633.987	0.0163866
634.065	0.0163020
634.143	0.0164351
634.221	0.0164546
634.299	0.0163760
634.378	0.0164407
634.456	0.0164573
634.534	0.0163569
634.612	0.0164581
634.690	0.0163160
634.768	0.0164375
634.846	0.0164685
634.924	0.0163087
635.003	0.0164483
635.081	0.0165230
635.159	0.0163766
635.237	0.0164304
635.315	0.0164921
635.393	0.0162262
635.471	0.0162922
635.549	0.0163296
635.628	0.0164280
635.706	0.0163188
635.784	0.0163076
635.862	0.0163734
635.940	0.0164990
636.018	0.0165302
636.096	0.0164172
636.174	0.0164398
636.253	0.0165420
636.331	0.0164411
636.409	0.0162716
636.487	0.0164030
636.565	0.0163998
636.643	0.0163331
636.721	0.0164622
636.799	0.0163171
636.878	0.0161786
636.956	0.0163240
637.034	0.0162394
637.112	0.0163850
637.190	0.0163133
637.268	0.0164587
637.346	0.0163013
637.424	0.0163360
637.503	0.0162970
637.581	0.0163435
637.659	0.0163226
637.737	0.0162156
637.815	0.0160929
637.893	0.0162533
637.971	0.0163189
638.049	0.0163846
638.128	0.0163393
638.206	0.0162978
638.284	0.0163507
638.362	0.0164159
638.440	0.0161498
638.518	0.0162772
638.596	0.0162797
638.674	0.0164243
638.753	0.0162673
638.831	0.0162724
638.909	0.0162663
638.987	0.0163683
639.065	0.0162289
639.143	0.0163839
639.221	0.0163741
639.299	0.0162638
639.378	0.0162829
639.456	0.0162579
639.534	0.0162588
639.612	0.0163303
639.690	0.0162527
639.768	0.0163602
639.846	0.0162986
639.924	0.0162672
640.003	0.0162486
640.081	0.0164116
640.159	0.0161391
640.237	0.0162610
640.315	0.0163344
640.393	0.0161823
640.471	0.0162379
640.549	0.0163213
640.628	0.0162524
640.706	0.0163982
640.784	0.0161863
640.862	0.0163065
640.940	0.0163572
641.018	0.0163938
641.096	0.0163836
641.174	0.0162567
641.253	0.0163361
641.331	0.0162109
641.409	0.0162647
641.487	0.0163542
641.565	0.0162952
641.643	0.0163941
641.721	0.0163451
641.799	0.0163598
641.878	0.0163058
641.956	0.0162992
642.034	0.0163580
642.112	0.0164259
642.190	0.0162859
642.268	0.0162264
642.346	0.0162974
642.424	0.0163661
642.503	0.0164433
642.581	0.0163120
642.659	0.0163283
642.737	0.0164941
642.815	0.0163078
642.893	0.0164268
642.971	0.0164207
643.049	0.0164536
643.128	0.0164040
643.206	0.0164263
643.284	0.0164554
643.362	0.0163187
643.440	0.0164583
643.518	0.0163883
643.596	0.0164106
643.674	0.0163471
643.753	0.0164317
643.831	0.0164243
643.909	0.0163328
643.987	0.0162191
644.065	0.0163221
644.143	0.0163224
644.221	0.0164050
644.299	0.0163545
644.378	0.0163644
644.456	0.0164806
644.534	0.0164549
644.612	0.0162465
644.690	0.0162811
644.768	0.0164700
644.846	0.0164268
644.924	0.0164745
645.003	0.0163510
645.081	0.0163279
645.159	0.0163136
645.237	0.0163570
645.315	0.0162325
645.393	0.0162788
645.471	0.0163430
645.549	0.0162715
645.628	0.0163433
645.706	0.0162263
645.784	0.0163626
645.862	0.0164147
645.940	0.0161719
646.018	0.0162628
646.096	0.0162222
646.174	0.0163591
646.253	0.0164205
646.331	0.0163817
646.409	0.0161586
646.487	0.0163742
646.565	0.0162780
646.643	0.0162125
646.721	0.0163239
646.799	0.0163388
646.878	0.0163950
646.956	0.0162108
647.034	0.0162731
647.112	0.0162477
647.190	0.0163995
647.268	0.0162840
647.346	0.0162897
647.424	0.0163828
647.503	0.0161928
647.581	0.0162567
647.659	0.0162527
647.737	0.0163370
647.815	0.0163751
647.893	0.0163063
647.971	0.0162141
648.049	0.0162268
648.128	0.0162178
648.206	0.0164259
648.284	0.0164722
648.362	0.0163450
648.440	0.0162876
648.518	0.0161755
648.596	0.0164993
648.674	0.0163577
648.753	0.0161929
648.831	0.0160816
648.909	0.0161208
648.987	0.0162670
649.065	0.0162833
649.143	0.0161929
649.221	0.0163072
649.299	0.0161723
649.378	0.0163147
649.456	0.0163580
649.534	0.0163696
649.612	0.0161875
649.690	0.0161126
649.768	0.0161847
649.846	0.0161697
649.924	0.0161422
650.003	0.0161604
650.081	0.0162357
650.159	0.0160049
650.237	0.0162874
650.315	0.0163470
650.393	0.0162683
650.471	0.0162365
650.549	0.0163117
650.628	0.0162897
650.706	0.0163495
650.784	0.0163661
650.862	0.0162130
650.940	0.0162760
651.018	0.0162906
651.096	0.0163599
651.174	0.0161684
651.253	0.0162418
651.331	0.0164235
651.409	0.0164022
651.487	0.0163287
651.565	0.0162922
651.643	0.0164329
651.721	0.0161906
651.799	0.0162962
651.878	0.0164486
651.956	0.0162804
652.034	0.0164008
652.112	0.0163666
652.190	0.0162958
652.268	0.0164093
652.346	0.0164323
652.424	0.0163975
652.503	0.0163084
652.581	0.0163241
652.659	0.0162557
652.737	0.0162986
652.815	0.0163689
652.893	0.0163712
652.971	0.0163167
653.049	0.0162483
653.128	0.0162493
653.206	0.0162864
653.284	0.0163960
653.362	0.0163496
653.440	0.0162556
653.518	0.0162848
653.596	0.0162739
653.674	0.0161974
653.753	0.0165037
653.831	0.0163279
653.909	0.0163689
653.987	0.0163250
654.065	0.0162125
654.143	0.0162476
654.221	0.0164598
654.299	0.0163869
654.378	0.0163947
654.456	0.0163365
654.534	0.0162677
654.612	0.0164063
654.690	0.0164884
654.768	0.0162971
654.846	0.0162784
654.924	0.0163725
655.003	0.0163296
655.081	0.0163295
655.159	0.0163973
655.237	0.0163215
655.315	0.0163029
655.393	0.0162678
655.471	0.0162453
655.549	0.0162175
655.628	0.0163651
655.706	0.0163026
655.784	0.0163401
655.862	0.0162746
655.940	0.0162176
656.018	0.0162974
656.096	0.0163469
656.174	0.0163169
656.253	0.0162124
656.331	0.0162976
656.409	0.0163489
656.487	0.0163953
656.565	0.0162169
656.643	0.0162784
656.721	0.0163903
656.799	0.0162598
656.878	0.0164050
656.956	0.0163205
657.034	0.0161541
657.112	0.0163010
657.190	0.0162270
657.268	0.0160497
657.346	0.0162264
657.424	0.0161938
657.503	0.0163732
657.581	0.0162634
657.659	0.0161565
657.737	0.0161969
657.815	0.0161678
657.893	0.0161844
657.971	0.0162956
658.049	0.0161160
658.128	0.0162903
658.206	0.0163567
658.284	0.0163033
658.362	0.0162353
658.440	0.0161897
658.518	0.0163294
658.596	0.0165115
658.674	0.0162688
658.753	0.0161673
658.831	0.0162886
658.909	0.0162463
658.987	0.0161985
659.065	0.0161458
659.143	0.0163005
659.221	0.0162038
659.299	0.0161713
659.378	0.0162864
659.456	0.0162526
659.534	0.0161284
659.612	0.0161456
659.690	0.0161936
659.768	0.0161657
659.846	0.0162951
659.924	0.0162610
660.003	0.0163066
660.081	0.0161855
660.159	0.0162205
660.237	0.0161897
660.315	0.0161674
660.393	0.0160448
660.471	0.0160543
660.549	0.0162090
660.628	0.0162708
660.706	0.0161093
660.784	0.0162192
660.862	0.0162914
660.940	0.0161823
661.018	0.0162009
661.096	0.0161407
661.174	0.0161042
661.253	0.0161562
661.331	0.0161277
661.409	0.0161950
661.487	0.0162823
661.565	0.0162458
661.643	0.0161819
661.721	0.0162530
661.799	0.0162334
661.878	0.0161507
661.956	0.0162715
662.034	0.0162290
662.112	0.0162359
662.190	0.0162389
662.268	0.0162825
662.346	0.0161729
662.424	0.0161182
662.503	0.0161479
662.581	0.0162972
662.659	0.0162502
662.737	0.0162402
662.815	0.0162900
662.893	0.0162492
662.971	0.0161423
663.049	0.0161774
663.128	0.0162264
663.206	0.0162823
663.284	0.0164122
663.362	0.0162959
663.440	0.0162150
663.518	0.0161621
663.596	0.0163101
663.674	0.0162829
663.753	0.0162826
663.831	0.0162558
663.909	0.0161879
663.987	0.0164310
664.065	0.0163260
664.143	0.0162920
664.221	0.0162281
664.299	0.0162253
664.378	0.0164258
664.456	0.0162949
664.534	0.0161835
664.612	0.0162073
664.690	0.0162320
664.768	0.0163166
664.846	0.0161698
664.924	0.0161942
665.003	0.0161602
665.081	0.0162421
665.159	0.0162390
665.237	0.0163142
665.315	0.0162356
665.393	0.0162812
665.471	0.0162103
665.549	0.0162088
665.628	0.0163599
665.706	0.0163574
665.784	0.0164245
665.862	0.0163155
665.940	0.0162083
666.018	0.0161765
666.096	0.0162628
666.174	0.0163760
666.253	0.0162605
666.331	0.0162699
666.409	0.0164117
666.487	0.0164156
666.565	0.0162855
666.643	0.0164400
666.721	0.0162367
666.799	0.0161729
666.878	0.0162945
666.956	0.0162744
667.034	0.0162828
667.112	0.0163952
667.190	0.0163483
667.268	0.0163449
667.346	0.0163155
667.424	0.0162466
667.503	0.0163303
667.581	0.0163228
667.659	0.0163029
667.737	0.0161301
667.815	0.0163645
667.893	0.0161842
667.971	0.0161589
668.049	0.0162270
668.128	0.0164275
668.206	0.0161974
668.284	0.0162267
668.362	0.0162804
668.440	0.0162642
668.518	0.0162695
668.596	0.0163502
668.674	0.0163158
668.753	0.0163071
668.831	0.0163244
668.909	0.0162719
668.987	0.0162885
669.065	0.0162348
669.143	0.0161499
669.221	0.0163879
669.299	0.0163046
669.378	0.0162949
669.456	0.0161873
669.534	0.0161861
669.612	0.0162299
669.690	0.0161749
669.768	0.0162890
669.846	0.0162593
669.924	0.0162609
670.003	0.0161735
670.081	0.0162585
670.159	0.0163705
670.237	0.0162504
670.315	0.0164406
670.393	0.0161266
670.471	0.0162096
670.549	0.0163044
670.628	0.0162926
670.706	0.0162723
670.784	0.0162299
670.862	0.0162568
670.940	0.0162171
671.018	0.0162559
671.096	0.0163386
671.174	0.0163728
671.253	0.0162737
671.331	0.0161823
671.409	0.0162693
671.487	0.0164492
671.565	0.0162017
671.643	0.0161878
671.721	0.0164119
671.799	0.0161884
671.878	0.0161639
671.956	0.0161849
672.034	0.0163587
672.112	0.0162422
672.190	0.0163175
672.268	0.0162744
672.346	0.0162440
672.424	0.0162222
672.503	0.0162770
672.581	0.0163599
672.659	0.0162836
672.737	0.0162374
672.815	0.0162589
672.893	0.0163361
672.971	0.0163243
673.049	0.0162892
673.128	0.0161571
673.206	0.0162446
673.284	0.0161582
673.362	0.0162460
673.440	0.0162085
673.518	0.0161278
673.596	0.0163571
673.674	0.0163481
673.753	0.0161259
673.831	0.0161815
673.909	0.0161631
673.987	0.0162541
674.065	0.0161855
674.143	0.0162249
674.221	0.0162897
674.299	0.0162344
674.378	0.0162364
674.456	0.0161986
674.534	0.0161880
674.612	0.0161397
674.690	0.0161912
674.768	0.0160918
674.846	0.0162714
674.924	0.0162758
675.003	0.0162210
675.081	0.0161454
675.159	0.0161453
675.237	0.0162823
675.315	0.0162073
675.393	0.0163744
675.471	0.0161815
675.549	0.0161315
675.628	0.0163895
675.706	0.0162643
675.784	0.0163139
675.862	0.0162751
675.940	0.0162949
676.018	0.0162064
676.096	0.0162850
676.174	0.0163246
676.253	0.0163113
676.331	0.0163104
676.409	0.0162980
676.487	0.0161629
676.565	0.0164728
676.643	0.0162103
676.721	0.0162860
676.799	0.0163136
676.878	0.0163412
676.956	0.0161672
677.034	0.0161239
677.112	0.0162177
677.190	0.0162757
677.268	0.0162895
677.346	0.0162819
677.424	0.0162574
677.503	0.0163358
677.581	0.0162134
677.659	0.0161350
677.737	0.0164015
677.815	0.0163743
677.893	0.0162385
677.971	0.0163496
678.049	0.0162544
678.128	0.0163068
678.206	0.0163854
678.284	0.0164145
678.362	0.0163873
678.440	0.0163358
678.518	0.0162256
678.596	0.0162394
678.674	0.0164624
678.753	0.0163783
678.831	0.0163209
678.909	0.0163198
678.987	0.0162611
679.065	0.0165046
679.143	0.0164216
679.221	0.0163095
679.299	0.0163268
679.378	0.0164071
679.456	0.0163913
679.534	0.0164642
679.612	0.0163161
679.690	0.0163417
679.768	0.0162770
679.846	0.0162919
679.924	0.0162780
680.003	0.0164315
680.081	0.0162676
680.159	0.0163901
680.237	0.0163936
680.315	0.0162905
680.393	0.0161694
680.471	0.0164144
680.549	0.0163924
680.628	0.0163697
680.706	0.0163248
680.784	0.0162680
680.862	0.0163387
680.940	0.0164462
681.018	0.0164110
681.096	0.0161360
681.174	0.0162070
681.253	0.0163254
681.331	0.0162826
681.409	0.0163985
681.487	0.0162847
681.565	0.0162160
681.643	0.0164316
681.721	0.0163136
681.799	0.0164111
681.878	0.0162656
681.956	0.0162391
682.034	0.0162715
682.112	0.0162525
682.190	0.0163568
682.268	0.0162577
682.346	0.0162055
682.424	0.0162075
682.503	0.0163670
682.581	0.0162834
682.659	0.0161481
682.737	0.0163148
682.815	0.0162012
682.893	0.0162175
682.971	0.0163174
683.049	0.0162333
683.128	0.0162637
683.206	0.0162716
683.284	0.0162655
683.362	0.0161029
683.440	0.0162085
683.518	0.0162753
683.596	0.0161011
683.674	0.0161531
683.753	0.0162915
683.831	0.0161927
683.909	0.0161766
683.987	0.0161555
684.065	0.0160455
684.143	0.0160857
684.221	0.0162052
684.299	0.0162701
684.378	0.0161884
684.456	0.0161395
684.534	0.0161477
684.612	0.0161803
684.690	0.0162383
684.768	0.0162139
684.846	0.0160683
684.924	0.0161189
685.003	0.0163539
685.081	0.0162303
685.159	0.0161592
685.237	0.0161475
685.315	0.0161396
685.393	0.0162874
685.471	0.0163597
685.549	0.0162666
685.628	0.0161547
685.706	0.0161063
685.784	0.0162769
685.862	0.0162558
685.940	0.0162455
686.018	0.0161501
686.096	0.0162611
686.174	0.0160725
686.253	0.0162373
686.331	0.0162852
686.409	0.0161968
686.487	0.0162308
686.565	0.0162865
686.643	0.0163528
686.721	0.0161321
686.799	0.0162008
686.878	0.0161876
686.956	0.0162489
687.034	0.0162570
687.112	0.0162560
687.190	0.0161562
687.268	0.0162249
687.346	0.0164626
687.424	0.0164048
687.503	0.0162045
687.581	0.0161052
687.659	0.0163176
687.737	0.0163357
687.815	0.0163548
687.893	0.0163710
687.971	0.0162144
688.049	0.0162911
688.128	0.0164744
688.206	0.0163259
688.284	0.0163322
688.362	0.0163116
688.440	0.0162524
688.518	0.0164637
688.596	0.0164733
688.674	0.0163371
688.753	0.0162814
688.831	0.0163088
688.909	0.0163786
688.987	0.0163757
689.065	0.0162904
689.143	0.0161868
689.221	0.0164166
689.299	0.0163551
689.378	0.0163538
689.456	0.0163896
689.534	0.0162680
689.612	0.0164670
689.690	0.0162502
689.768	0.0165379
689.846	0.0162790
689.924	0.0163908
690.003	0.0164637
690.081	0.0163599
690.159	0.0162077
690.237	0.0163569
690.315	0.0164754
690.393	0.0163410
690.471	0.0163274
690.549	0.0163226
690.628	0.0164600
690.706	0.0163683
690.784	0.0162703
690.862	0.0164114
690.940	0.0162629
691.018	0.0162238
691.096	0.0163963
691.174	0.0163791
691.253	0.0163679
691.331	0.0162863
691.409	0.0163463
691.487	0.0163843
691.565	0.0163211
691.643	0.0162250
691.721	0.0163193
691.799	0.0163030
691.878	0.0163982
691.956	0.0163306
692.034	0.0162817
692.112	0.0163763
692.190	0.0164309
692.268	0.0163558
692.346	0.0162980
692.424	0.0163553
692.503	0.0163132
692.581	0.0164258
692.659	0.0164259
692.737	0.0164229
692.815	0.0163754
692.893	0.0164926
692.971	0.0165610
693.049	0.0164456
693.128	0.0163919
693.206	0.0164012
693.284	0.0163928
693.362	0.0163335
693.440	0.0164452
693.518	0.0164684
693.596	0.0163052
693.674	0.0162001
693.753	0.0163801
693.831	0.0163707
693.909	0.0164493
693.987	0.0162862
694.065	0.0163200
694.143	0.0163186
694.221	0.0162932
694.299	0.0163102
694.378	0.0162274
694.456	0.0163398
694.534	0.0163814
694.612	0.0163529
694.690	0.0161503
694.768	0.0162711
694.846	0.0163005
694.924	0.0163200
695.003	0.0162881
695.081	0.0162973
695.159	0.0164422
695.237	0.0164217
695.315	0.0162306
695.393	0.0164273
695.471	0.0163673
695.549	0.0165618
695.628	0.0163981
695.706	0.0163938
695.784	0.0164726
695.862	0.0163639
695.940	0.0164204
696.018	0.0165147
696.096	0.0164568
696.174	0.0164725
696.253	0.0165961
696.331	0.0164462
696.409	0.0164344
696.487	0.0163534
696.565	0.0163921
696.643	0.0164612
696.721	0.0163484
696.799	0.0163431
696.878	0.0163062
696.956	0.0164245
697.034	0.0163107
697.112	0.0163384
697.190	0.0163451
697.268	0.0162710
697.346	0.0163193
697.424	0.0164252
697.503	0.0163417
697.581	0.0163001
697.659	0.0163150
697.737	0.0164025
697.815	0.0163245
697.893	0.0162620
697.971	0.0164029
698.049	0.0165514
698.128	0.0166420
698.206	0.0164803
698.284	0.0164807
698.362	0.0165005
698.440	0.0163702
698.518	0.0164418
698.596	0.0165240
698.674	0.0163983
698.753	0.0163538
698.831	0.0163136
698.909	0.0163387
698.987	0.0162815
699.065	0.0162954
699.143	0.0163653
699.221	0.0162575
699.299	0.0162737
699.378	0.0162168
699.456	0.0161654
699.534	0.0161093
699.612	0.0161178
699.690	0.0163051
699.768	0.0162757
699.846	0.0162386
699.924	0.0162004
700.003	0.0163725
700.081	0.0164394
700.159	0.0163531
700.237	0.0164262
700.315	0.0164818
700.393	0.0165260
700.471	0.0165234
700.549	0.0164042
700.628	0.0164053
700.706	0.0166135
700.784	0.0165216
700.862	0.0164246
700.940	0.0163972
701.018	0.0164951
701.096	0.0165309
701.174	0.0163004
701.253	0.0163936
701.331	0.0164410
701.409	0.0162530
701.487	0.0163467
701.565	0.0163161
701.643	0.0162057
701.721	0.0163017
701.799	0.0162547
701.878	0.0162813
701.956	0.0163506
702.034	0.0163049
702.112	0.0162716
702.190	0.0163174
702.268	0.0161548
702.346	0.0162873
702.424	0.0162701
702.503	0.0162825
702.581	0.0162582
702.659	0.0163415
702.737	0.0163290
702.815	0.0161497
702.893	0.0163766
702.971	0.0163824
703.049	0.0163025
703.128	0.0164491
703.206	0.0163724
703.284	0.0162495
703.362	0.0162920
703.440	0.0163734
703.518	0.0163637
703.596	0.0163345
703.674	0.0163811
703.753	0.0163387
703.831	0.0161752
703.909	0.0162836
703.987	0.0162746
704.065	0.0162649
704.143	0.0162920
704.221	0.0162205
704.299	0.0163618
704.378	0.0163113
704.456	0.0162635
704.534	0.0162000
704.612	0.0161533
704.690	0.0162562
704.768	0.0163345
704.846	0.0161930
704.924	0.0161566
705.003	0.0161475
705.081	0.0161465
705.159	0.0162605
705.237	0.0161528
705.315	0.0160822
705.393	0.0163233
705.471	0.0163027
705.549	0.0163509
705.628	0.0163152
705.706	0.0163107
705.784	0.0163379
705.862	0.0162492
705.940	0.0163950
706.018	0.0164184
706.096	0.0164413
706.174	0.0164709
706.253	0.0164236
706.331	0.0164043
706.409	0.0165820
706.487	0.0164548
706.565	0.0164070
706.643	0.0164988
706.721	0.0164542
706.799	0.0164388
706.878	0.0164761
706.956	0.0162977
707.034	0.0163860
707.112	0.0162447
707.190	0.0162477
707.268	0.0162037
707.346	0.0161443
707.424	0.0161889
707.503	0.0162702
707.581	0.0162368
707.659	0.0161706
707.737	0.0163762
707.815	0.0164302
707.893	0.0163831
707.971	0.0162780
708.049	0.0162776
708.128	0.0162988
708.206	0.0164624
708.284	0.0164019
708.362	0.0163274
708.440	0.0164409
708.518	0.0164809
708.596	0.0164947
708.674	0.0164776
708.753	0.0164526
708.831	0.0164368
708.909	0.0165807
708.987	0.0163992
709.065	0.0163560
709.143	0.0164973
709.221	0.0162829
709.299	0.0161800
709.378	0.0163685
709.456	0.0164104
709.534	0.0164108
709.612	0.0162402
709.690	0.0163921
709.768	0.0162798
709.846	0.0164024
709.924	0.0162613
710.003	0.0163966
710.081	0.0164258
710.159	0.0163518
710.237	0.0164118
710.315	0.0164093
710.393	0.0164225
710.471	0.0164895
710.549	0.0163730
710.628	0.0164466
710.706	0.0164793
710.784	0.0164812
710.862	0.0164665
710.940	0.0165436
711.018	0.0163635
711.096	0.0164026
711.174	0.0165064
711.253	0.0164411
711.331	0.0163137
711.409	0.0164201
711.487	0.0163956
711.565	0.0163835
711.643	0.0162952
711.721	0.0164453
711.799	0.0163184
711.878	0.0159657
711.956	0.0161803
712.034	0.0163503
712.112	0.0162141
712.190	0.0163092
712.268	0.0162999
712.346	0.0164123
712.424	0.0162574
712.503	0.0162949
712.581	0.0161935
712.659	0.0162389
712.737	0.0162737
712.815	0.0162411
712.893	0.0163164
712.971	0.0162285
713.049	0.0162108
713.128	0.0162913
713.206	0.0163518
713.284	0.0164075
713.362	0.0164347
713.440	0.0162612
713.518	0.0163385
713.596	0.0163891
713.674	0.0164547
713.753	0.0165187
713.831	0.0166886
713.909	0.0164968
713.987	0.0165794
714.065	0.0166357
714.143	0.0164861
714.221	0.0165253
714.299	0.0166360
714.378	0.0166315
714.456	0.0166815
714.534	0.0163240
714.612	0.0165431
714.690	0.0164047
714.768	0.0164098
714.846	0.0163351
714.924	0.0163603
715.003	0.0162949
715.081	0.0163911
715.159	0.0162759
715.237	0.0162172
715.315	0.0162344
715.393	0.0161391
715.471	0.0162251
715.549	0.0162911
715.628	0.0161269
715.706	0.0162800
715.784	0.0161810
715.862	0.0162821
715.940	0.0162734
716.018	0.0162843
716.096	0.0164630
716.174	0.0163797
716.253	0.0163956
716.331	0.0163457
716.409	0.0163802
716.487	0.0163789
716.565	0.0164649
716.643	0.0165900
716.721	0.0166404
716.799	0.0166327
716.878	0.0166344
716.956	0.0165804
717.034	0.0166541
717.112	0.0167015
717.190	0.0166193
717.268	0.0164357
717.346	0.0165676
717.424	0.0165575
717.503	0.0164111
717.581	0.0164664
717.659	0.0165074
717.737	0.0164197
717.815	0.0162186
717.893	0.0162816
717.971	0.0162437
718.049	0.0161313
718.128	0.0161617
718.206	0.0161881
718.284	0.0162118
718.362	0.0160884
718.440	0.0161703
718.518	0.0161924
718.596	0.0163426
718.674	0.0163724
718.753	0.0164185
718.831	0.0165750
718.909	0.0165051
718.987	0.0165795
719.065	0.0167554
719.143	0.0167861
719.221	0.0168261
719.299	0.0166640
719.378	0.0169103
719.456	0.0168890
719.534	0.0168779
719.612	0.0169362
719.690	0.0168806
719.768	0.0168429
719.846	0.0169013
719.924	0.0168505
720.003	0.0165929
720.081	0.0167201
720.159	0.0165896
720.237	0.0167268
720.315	0.0164594
720.393	0.0163444
720.471	0.0162719
720.549	0.0161332
720.628	0.0162215
720.706	0.0162356
720.784	0.0160783
720.862	0.0158598
720.940	0.0159694
721.018	0.0158187
721.096	0.0157491
721.174	0.0157646
721.253	0.0156937
721.331	0.0156159
721.409	0.0157852
721.487	0.0157346
721.565	0.0156770
721.643	0.0158504
721.721	0.0158642
721.799	0.0159786
721.878	0.0158915
721.956	0.0160367
722.034	0.0162214
722.112	0.0162092
722.190	0.0163822
722.268	0.0165347
722.346	0.0165816
722.424	0.0166425
722.503	0.0166328
722.581	0.0167362
722.659	0.0168511
722.737	0.0169576
722.815	0.0168917
722.893	0.0170331
722.971	0.0168545
723.049	0.0168149
723.128	0.0167583
723.206	0.0170142
723.284	0.0168896
723.362	0.0167617
723.440	0.0167215
723.518	0.0166901
723.596	0.0164897
723.674	0.0165004
723.753	0.0163559
723.831	0.0162991
723.909	0.0162032
723.987	0.0160236
724.065	0.0161149
724.143	0.0161221
724.221	0.0160434
724.299	0.0161263
724.378	0.0161166
724.456	0.0158517
724.534	0.0159514
724.612	0.0161823
724.690	0.0162018
724.768	0.0160774
724.846	0.0162446
724.924	0.0163210
725.003	0.0161207
725.081	0.0161688
725.159	0.0161795
725.237	0.0161861
725.315	0.0161964
725.393	0.0162139
725.471	0.0161809
725.549	0.0163007
725.628	0.0161730
725.706	0.0161975
725.784	0.0161196
725.862	0.0163326
725.940	0.0161641
726.018	0.0162007
726.096	0.0161697
726.174	0.0161642
726.253	0.0162303
726.331	0.0163151
726.409	0.0162553
726.487	0.0161581
726.565	0.0163084
726.643	0.0162443
726.721	0.0162387
726.799	0.0164314
726.878	0.0163525
726.956	0.0163940
727.034	0.0164017
727.112	0.0162707
727.190	0.0164577
727.268	0.0166099
727.346	0.0166683
727.424	0.0165704
727.503	0.0164851
727.581	0.0166273
727.659	0.0166609
727.737	0.0166769
727.815	0.0166328
727.893	0.0165378
727.971	0.0167638
728.049	0.0166451
728.128	0.0167422
728.206	0.0165230
728.284	0.0166410
728.362	0.0165993
728.440	0.0163122
728.518	0.0165067
728.596	0.0163530
728.674	0.0162434
728.753	0.0161632
728.831	0.0163287
728.909	0.0160784
728.987	0.0160670
729.065	0.0160301
729.143	0.0158642
729.221	0.0157650
729.299	0.0155923
729.378	0.0154724
729.456	0.0154530
729.534	0.0152409
729.612	0.0153089
729.690	0.0153674
729.768	0.0153553
729.846	0.0154170
729.924	0.0153362
730.003	0.0154412
730.081	0.0154729
730.159	0.0156246
730.237	0.0157606
730.315	0.0158121
730.393	0.0160020
730.471	0.0160912
730.549	0.0161497
730.628	0.0165559
730.706	0.0167489
730.784	0.0169541
730.862	0.0170625
730.940	0.0172561
731.018	0.0172581
731.096	0.0175378
731.174	0.0175104
731.253	0.0177516
731.331	0.0176093
731.409	0.0176163
731.487	0.0175541
731.565	0.0175974
731.643	0.0175311
731.721	0.0172923
731.799	0.0173540
731.878	0.0171115
731.956	0.0168809
732.034	0.0168478
732.112	0.0165672
732.190	0.0165186
732.268	0.0163287
732.346	0.0163642
732.424	0.0160191
732.503	0.0158749
732.581	0.0158092
732.659	0.0158610
732.737	0.0156807
732.815	0.0154641
732.893	0.0154967
732.971	0.0154227
733.049	0.0152913
733.128	0.0152247
733.206	0.0153583
733.284	0.0152927
733.362	0.0152550
733.440	0.0151999
733.518	0.0151241
733.596	0.0153794
733.674	0.0153835
733.753	0.0152356
733.831	0.0154237
733.909	0.0155460
733.987	0.0156094
734.065	0.0156865
734.143	0.0155833
734.221	0.0157686
734.299	0.0159238
734.378	0.0159962
734.456	0.0161248
734.534	0.0163616
734.612	0.0164983
734.690	0.0164615
734.768	0.0166993
734.846	0.0166850
734.924	0.0167947
735.003	0.0170435
735.081	0.0171340
735.159	0.0171622
735.237	0.0173212
735.315	0.0174094
735.393	0.0172923
735.471	0.0174118
735.549	0.0174925
735.628	0.0174895
735.706	0.0174503
735.784	0.0174414
735.862	0.0172664
735.940	0.0173058
736.018	0.0171484
736.096	0.0169765
736.174	0.0170183
736.253	0.0169970
736.331	0.0166803
736.409	0.0167899
736.487	0.0167090
736.565	0.0166130
736.643	0.0165004
736.721	0.0162898
736.799	0.0162933
736.878	0.0159727
736.956	0.0160070
737.034	0.0157751
737.112	0.0158593
737.190	0.0157986
737.268	0.0156679
737.346	0.0155020
737.424	0.0154625
737.503	0.0153498
737.581	0.0154182
737.659	0.0153773
737.737	0.0153335
737.815	0.0153897
737.893	0.0155219
737.971	0.0153340
738.049	0.0154247
738.128	0.0155477
738.206	0.0155392
738.284	0.0154843
738.362	0.0155772
738.440	0.0155035
738.518	0.0156352
738.596	0.0158261
738.674	0.0157509
738.753	0.0157938
738.831	0.0158756
738.909	0.0159207
738.987	0.0160274
739.065	0.0159773
739.143	0.0159936
739.221	0.0160751
739.299	0.0162562
739.378	0.0163371
739.456	0.0164149
739.534	0.0165373
739.612	0.0165952
739.690	0.0167009
739.768	0.0167779
739.846	0.0169604
739.924	0.0169475
740.003	0.0171206
740.081	0.0171841
740.159	0.0171198
740.237	0.0170736
740.315	0.0171612
740.393	0.0174142
740.471	0.0173472
740.549	0.0174913
740.628	0.0173752
740.706	0.0173711
740.784	0.0171417
740.862	0.0171708
740.940	0.0170428
741.018	0.0169851
741.096	0.0168410
741.174	0.0166220
741.253	0.0165133
741.331	0.0162939
741.409	0.0162659
741.487	0.0161705
741.565	0.0160300
741.643	0.0159589
741.721	0.0159243
741.799	0.0157719
741.878	0.0158052
741.956	0.0157801
742.034	0.0157603
742.112	0.0157028
742.190	0.0157171
742.268	0.0157862
742.346	0.0157832
742.424	0.0158848
742.503	0.0157978
742.581	0.0159547
742.659	0.0158482
742.737	0.0160326
742.815	0.0161060
742.893	0.0162526
742.971	0.0161178
743.049	0.0161100
743.128	0.0161456
743.206	0.0161763
743.284	0.0160871
743.362	0.0160445
743.440	0.0158342
743.518	0.0158947
743.596	0.0160039
743.674	0.0158195
743.753	0.0158681
743.831	0.0157443
743.909	0.0157552
743.987	0.0157992
744.065	0.0159153
744.143	0.0158345
744.221	0.0158830
744.299	0.0159473
744.378	0.0158268
744.456	0.0159564
744.534	0.0160064
744.612	0.0161654
744.690	0.0161263
744.768	0.0161867
744.846	0.0163517
744.924	0.0162621
745.003	0.0165747
745.081	0.0165469
745.159	0.0167595
745.237	0.0168882
745.315	0.0168319
745.393	0.0167752
745.471	0.0167825
745.549	0.0169305
745.628	0.0170901
745.706	0.0170354
745.784	0.0170062
745.862	0.0170643
745.940	0.0169601
746.018	0.0167059
746.096	0.0168077
746.174	0.0167896
746.253	0.0168027
746.331	0.0165686
746.409	0.0164104
746.487	0.0164329
746.565	0.0163571
746.643	0.0161794
746.721	0.0161596
746.799	0.0162312
746.878	0.0161121
746.956	0.0159605
747.034	0.0160434
747.112	0.0160204
747.190	0.0158777
747.268	0.0160091
747.346	0.0159898
747.424	0.0159123
747.503	0.0160162
747.581	0.0159908
747.659	0.0159354
747.737	0.0158993
747.815	0.0160912
747.893	0.0161009
747.971	0.0161714
748.049	0.0160423
748.128	0.0162052
748.206	0.0162481
748.284	0.0163105
748.362	0.0161644
748.440	0.0160792
748.518	0.0159975
748.596	0.0160324
748.674	0.0160971
748.753	0.0160697
748.831	0.0159818
748.909	0.0158675
748.987	0.0160833
749.065	0.0160298
749.143	0.0160564
749.221	0.0160627
749.299	0.0159240
749.378	0.0160674
749.456	0.0161169
749.534	0.0162115
749.612	0.0162537
749.690	0.0162765
749.768	0.0162790
749.846	0.0162686
749.924	0.0164877
750.003	0.0164823
750.081	0.0164220
750.159	0.0164436
750.237	0.0165736
750.315	0.0165295
750.393	0.0166536
750.471	0.0165662
750.549	0.0165520
750.628	0.0165448
750.706	0.0165697
750.784	0.0165442
750.862	0.0163230
750.940	0.0164457
751.018	0.0164018
751.096	0.0164483
751.174	0.0164983
751.253	0.0164317
751.331	0.0162238
751.409	0.0162748
751.487	0.0162790
751.565	0.0162477
751.643	0.0162310
751.721	0.0161819
751.799	0.0161172
751.878	0.0160157
751.956	0.0161248
752.034	0.0160489
752.112	0.0160552
752.190	0.0159391
752.268	0.0161581
752.346	0.0160497
752.424	0.0161406
752.503	0.0159553
752.581	0.0160242
752.659	0.0162444
752.737	0.0160341
752.815	0.0160879
752.893	0.0162176
752.971	0.0161065
753.049	0.0161558
753.128	0.0163478
753.206	0.0163202
753.284	0.0162680
753.362	0.0164502
753.440	0.0163406
753.518	0.0163679
753.596	0.0162518
753.674	0.0163984
753.753	0.0164272
753.831	0.0164168
753.909	0.0162679
753.987	0.0162255
754.065	0.0163144
754.143	0.0162195
754.221	0.0161706
754.299	0.0160746
754.378	0.0160793
754.456	0.0160390
754.534	0.0160722
754.612	0.0160050
754.690	0.0158622
754.768	0.0158314
754.846	0.0159817
754.924	0.0160828
755.003	0.0160326
755.081	0.0158798
755.159	0.0158604
755.237	0.0159049
755.315	0.0159242
755.393	0.0160315
755.471	0.0158669
755.549	0.0158840
755.628	0.0158870
755.706	0.0161063
755.784	0.0160609
755.862	0.0159021
755.940	0.0160648
756.018	0.0160830
756.096	0.0160075
756.174	0.0159109
756.253	0.0160957
756.331	0.0163548
756.409	0.0164488
756.487	0.0166072
756.565	0.0167054
756.643	0.0166768
756.721	0.0167915
756.799	0.0168203
756.878	0.0168281
756.956	0.0170609
757.034	0.0170692
757.112	0.0167732
757.190	0.0169407
757.268	0.0169775
757.346	0.0170522
757.424	0.0168333
757.503	0.0167544
757.581	0.0167097
757.659	0.0163561
757.737	0.0165213
757.815	0.0164799
757.893	0.0162203
757.971	0.0160352
758.049	0.0161118
758.128	0.0158607
758.206	0.0160121
758.284	0.0156847
758.362	0.0157627
758.440	0.0156701
758.518	0.0155339
758.596	0.0154507
758.674	0.0156467
758.753	0.0156708
758.831	0.0156391
758.909	0.0157398
758.987	0.0158860
759.065	0.0157539
759.143	0.0157966
759.221	0.0159662
759.299	0.0160469
759.378	0.0161087
759.456	0.0160543
759.534	0.0161869
759.612	0.0163000
759.690	0.0160516
759.768	0.0162679
759.846	0.0162983
759.924	0.0162688
760.003	0.0162173
760.081	0.0162582
760.159	0.0162608
760.237	0.0161917
760.315	0.0162837
760.393	0.0162113
760.471	0.0162235
760.549	0.0164608
760.628	0.0164073
760.706	0.0164188
760.784	0.0164144
760.862	0.0164241
760.940	0.0163443
761.018	0.0163342
761.096	0.0162392
761.174	0.0163676
761.253	0.0162788
761.331	0.0162466
761.409	0.0161785
761.487	0.0161205
761.565	0.0160336
761.643	0.0160840
761.721	0.0160358
761.799	0.0158935
761.878	0.0160354
761.956	0.0159493
762.034	0.0159441
762.112	0.0159649
762.190	0.0159372
762.268	0.0159708
762.346	0.0159245
762.424	0.0161008
762.503	0.0162437
762.581	0.0164330
762.659	0.0163767
762.737	0.0164208
762.815	0.0164285
762.893	0.0167005
762.971	0.0167239
763.049	0.0165320
763.128	0.0166751
763.206	0.0166449
763.284	0.0166145
763.362	0.0164514
763.440	0.0164034
763.518	0.0163766
763.596	0.0162162
763.674	0.0164046
763.753	0.0163298
763.831	0.0162304
763.909	0.0161711
763.987	0.0161134
764.065	0.0160934
764.143	0.0161587
764.221	0.0161110
764.299	0.0159356
764.378	0.0160155
764.456	0.0161835
764.534	0.0160616
764.612	0.0159250
764.690	0.0160718
764.768	0.0159389
764.846	0.0159852
764.924	0.0160382
765.003	0.0160676
765.081	0.0160858
765.159	0.0161327
765.237	0.0161459
765.315	0.0160978
765.393	0.0161924
765.471	0.0161117
765.549	0.0161883
765.628	0.0162409
765.706	0.0162238
765.784	0.0164539
765.862	0.0162901
765.940	0.0164381
766.018	0.0163651
766.096	0.0165626
766.174	0.0164613
766.253	0.0164289
766.331	0.0166139
766.409	0.0165234
766.487	0.0164692
766.565	0.0165845
766.643	0.0164360
766.721	0.0164274
766.799	0.0165092
766.878	0.0163969
766.956	0.0162097
767.034	0.0162512
767.112	0.0160715
767.190	0.0160287
767.268	0.0161169
767.346	0.0159331
767.424	0.0159839
767.503	0.0159344
767.581	0.0159313
767.659	0.0158957
767.737	0.0160497
767.815	0.0161604
767.893	0.0162231
767.971	0.0162867
768.049	0.0163310
768.128	0.0163005
768.206	0.0165598
768.284	0.0165960
768.362	0.0168062
768.440	0.0169084
768.518	0.0169875
768.596	0.0169116
768.674	0.0170422
768.753	0.0170969
768.831	0.0168026
768.909	0.0169022
768.987	0.0167715
769.065	0.0167788
769.143	0.0165605
769.221	0.0164274
769.299	0.0164848
769.378	0.0161868
769.456	0.0159896
769.534	0.0161386
769.612	0.0159808
769.690	0.0157348
769.768	0.0156983
769.846	0.0156652
769.924	0.0157143
770.003	0.0156137
770.081	0.0157385
770.159	0.0156834
770.237	0.0156638
770.315	0.0156437
770.393	0.0156620
770.471	0.0159112
770.549	0.0160168
770.628	0.0159279
770.706	0.0159827
770.784	0.0161025
770.862	0.0163219
770.940	0.0163054
771.018	0.0162972
771.096	0.0164606
771.174	0.0163744
771.253	0.0162856
771.331	0.0164842
771.409	0.0166180
771.487	0.0166279
771.565	0.0168026
771.643	0.0167766
771.721	0.0167061
771.799	0.0168578
771.878	0.0169411
771.956	0.0167823
772.034	0.0168481
772.112	0.0168900
772.190	0.0167718
772.268	0.0166222
772.346	0.0165541
772.424	0.0165594
772.503	0.0164691
772.581	0.0163596
772.659	0.0164083
772.737	0.0163033
772.815	0.0162736
772.893	0.0162089
772.971	0.0160640
773.049	0.0162045
773.128	0.0161144
773.206	0.0159916
773.284	0.0160500
773.362	0.0160785
773.440	0.0159841
773.518	0.0159682
773.596	0.0159981
773.674	0.0160511
773.753	0.0160269
773.831	0.0161846
773.909	0.0162172
773.987	0.0163176
774.065	0.0164216
774.143	0.0165231
774.221	0.0164602
774.299	0.0166101
774.378	0.0165165
774.456	0.0166733
774.534	0.0167126
774.612	0.0167902
774.690	0.0167805
774.768	0.0167224
774.846	0.0166376
774.924	0.0165191
775.003	0.0166774
775.081	0.0166212
775.159	0.0163708
775.237	0.0162496
775.315	0.0162590
775.393	0.0162639
775.471	0.0161900
775.549	0.0161856
775.628	0.0161836
775.706	0.0160056
775.784	0.0158576
775.862	0.0159887
775.940	0.0159843
776.018	0.0159337
776.096	0.0161281
776.174	0.0159441
776.253	0.0160544
776.331	0.0160376
776.409	0.0160777
776.487	0.0162914
776.565	0.0162166
776.643	0.0163542
776.721	0.0165288
776.799	0.0164681
776.878	0.0165893
776.956	0.0165929
777.034	0.0165400
777.112	0.0165711
777.190	0.0166885
777.268	0.0166132
777.346	0.0166575
777.424	0.0167347
777.503	0.0166257
777.581	0.0166946
777.659	0.0167374
777.737	0.0165575
777.815	0.0165875
777.893	0.0165940
777.971	0.0166047
778.049	0.0163892
778.128	0.0163747
778.206	0.0163713
778.284	0.0163760
778.362	0.0162644
778.440	0.0162288
778.518	0.0161100
778.596	0.0161667
778.674	0.0158602
778.753	0.0161398
778.831	0.0161388
778.909	0.0160579
778.987	0.0160672
779.065	0.0160165
779.143	0.0160342
779.221	0.0160514
779.299	0.0160109
779.378	0.0159843
779.456	0.0161662
779.534	0.0162022
779.612	0.0161150
779.690	0.0162499
779.768	0.0162470
779.846	0.0164053
779.924	0.0163530
780.003	0.0164608
780.081	0.0166106
780.159	0.0164318
780.237	0.0165942
780.315	0.0166624
780.393	0.0166077
780.471	0.0167371
780.549	0.0168941
780.628	0.0167017
780.706	0.0167652
780.784	0.0166430
780.862	0.0164987
780.940	0.0166080
781.018	0.0166495
781.096	0.0165107
781.174	0.0164516
781.253	0.0163613
781.331	0.0165701
781.409	0.0164578
781.487	0.0162748
781.565	0.0162757
781.643	0.0161814
781.721	0.0161769
781.799	0.0160490
781.878	0.0159695
781.956	0.0160545
782.034	0.0158980
782.112	0.0159698
782.190	0.0160753
782.268	0.0158650
782.346	0.0158619
782.424	0.0159763
782.503	0.0159176
782.581	0.0159708
782.659	0.0161237
782.737	0.0160840
782.815	0.0159641
782.893	0.0161626
782.971	0.0161951
783.049	0.0162025
783.128	0.0163321
783.206	0.0163977
783.284	0.0163844
783.362	0.0163166
783.440	0.0164177
783.518	0.0163965
783.596	0.0166336
783.674	0.0168301
783.753	0.0166106
783.831	0.0167056
783.909	0.0165769
783.987	0.0166536
784.065	0.0166520
784.143	0.0166107
784.221	0.0164272
784.299	0.0164805
784.378	0.0165020
784.456	0.0164977
784.534	0.0163790
784.612	0.0162238
784.690	0.0162887
784.768	0.0163125
784.846	0.0160754
784.924	0.0161805
785.003	0.0162048
785.081	0.0161214
785.159	0.0159581
785.237	0.0161134
785.315	0.0160973
785.393	0.0161055
785.471	0.0160942
785.549	0.0162496
785.628	0.0161919
785.706	0.0162317
785.784	0.0162391
785.862	0.0161912
785.940	0.0161825
786.018	0.0162656
786.096	0.0163425
786.174	0.0163345
786.253	0.0163904
786.331	0.0163781
786.409	0.0164742
786.487	0.0165179
786.565	0.0165814
786.643	0.0165777
786.721	0.0166244
786.799	0.0166325
786.878	0.0164563
786.956	0.0166691
787.034	0.0165425
787.112	0.0165318
787.190	0.0167123
787.268	0.0165269
787.346	0.0166116
787.424	0.0163888
787.503	0.0164580
787.581	0.0163688
787.659	0.0162859
787.737	0.0161723
787.815	0.0162167
787.893	0.0161172
787.971	0.0162019
788.049	0.0159702
788.128	0.0159531
788.206	0.0160294
788.284	0.0161413
788.362	0.0158913
788.440	0.0159477
788.518	0.0160985
788.596	0.0160051
788.674	0.0160986
788.753	0.0161345
788.831	0.0162126
788.909	0.0162897
788.987	0.0162616
789.065	0.0162888
789.143	0.0163959
789.221	0.0164847
789.299	0.0161822
789.378	0.0164526
789.456	0.0164487
789.534	0.0164481
789.612	0.0163320
789.690	0.0163573
789.768	0.0164160
789.846	0.0162962
789.924	0.0163651
790.003	0.0163997
790.081	0.0163622
790.159	0.0163361
790.237	0.0162289
790.315	0.0163737
790.393	0.0163354
790.471	0.0163335
790.549	0.0163535
790.628	0.0162574
790.706	0.0162861
790.784	0.0162254
790.862	0.0162298
790.940	0.0163057
791.018	0.0162018
791.096	0.0162514
791.174	0.0162391
791.253	0.0162501
791.331	0.0162514
791.409	0.0162921
791.487	0.0162800
791.565	0.0163363
791.643	0.0162056
791.721	0.0161884
791.799	0.0164368
791.878	0.0164272
791.956	0.0164531
792.034	0.0163717
792.112	0.0165088
792.190	0.0164220
792.268	0.0166241
792.346	0.0165401
792.424	0.0165533
792.503	0.0165340
792.581	0.0164989
792.659	0.0165244
792.737	0.0165140
792.815	0.0165522
792.893	0.0164524
792.971	0.0164147
793.049	0.0164165
793.128	0.0164513
793.206	0.0163532
793.284	0.0162418
793.362	0.0162379
793.440	0.0161372
793.518	0.0160777
793.596	0.0163306
793.674	0.0161904
793.753	0.0160915
793.831	0.0160856
793.909	0.0161060
793.987	0.0160784
794.065	0.0161948
794.143	0.0160062
794.221	0.0159474
794.299	0.0159790
794.378	0.0159359
794.456	0.0159426
794.534	0.0160074
794.612	0.0160171
794.690	0.0158752
794.768	0.0159460
794.846	0.0159564
794.924	0.0160371
795.003	0.0160543
795.081	0.0160792
795.159	0.0160922
795.237	0.0160517
795.315	0.0162653
795.393	0.0163262
795.471	0.0162811
795.549	0.0163400
795.628	0.0164169
795.706	0.0163839
795.784	0.0163893
795.862	0.0163174
795.940	0.0165399
796.018	0.0165013
796.096	0.0164448
796.174	0.0164496
796.253	0.0165220
796.331	0.0165316
796.409	0.0165203
796.487	0.0163137
796.565	0.0165226
796.643	0.0164040
796.721	0.0163489
796.799	0.0163953
796.878	0.0164566
796.956	0.0163936
797.034	0.0163698
797.112	0.0163403
797.190	0.0162411
797.268	0.0163152
797.346	0.0161980
797.424	0.0161495
797.503	0.0162654
797.581	0.0161059
797.659	0.0163064
797.737	0.0161490
797.815	0.0162261
797.893	0.0161824
797.971	0.0161737
798.049	0.0162206
798.128	0.0160689
798.206	0.0160738
798.284	0.0162954
798.362	0.0163572
798.440	0.0163569
798.518	0.0162901
798.596	0.0161971
798.674	0.0163025
798.753	0.0162873
798.831	0.0162602
798.909	0.0163500
798.987	0.0162619
799.065	0.0164108
799.143	0.0166151
799.221	0.0164766
799.299	0.0164109
799.378	0.0165135
799.456	0.0164689
799.534	0.0162456
799.612	0.0164931
799.690	0.0164860
799.768	0.0165714
799.846	0.0164359
799.924	0.0165074
800.003	0.0164418
800.081	0.0164675
800.159	0.0164908
800.237	0.0165649
800.315	0.0164757
800.393	0.0164072
800.471	0.0164455
800.549	0.0164962
800.628	0.0163481
800.706	0.0164040
800.784	0.0164543
800.862	0.0163808
800.940	0.0164307
801.018	0.0163636
801.096	0.0162997
801.174	0.0161926
801.253	0.0162211
801.331	0.0164102
801.409	0.0163219
801.487	0.0163195
801.565	0.0163831
801.643	0.0163533
801.721	0.0163869
801.799	0.0163403
801.878	0.0165243
801.956	0.0164471
802.034	0.0163733
802.112	0.0164252
802.190	0.0164328
802.268	0.0165031
802.346	0.0165324
802.424	0.0164141
802.503	0.0163612
802.581	0.0166128
802.659	0.0164753
802.737	0.0164694
802.815	0.0165103
802.893	0.0164877
802.971	0.0164772
803.049	0.0164822
803.128	0.0165549
803.206	0.0166022
803.284	0.0165688
803.362	0.0164065
803.440	0.0164986
803.518	0.0164284
803.596	0.0165063
803.674	0.0163166
803.753	0.0162621
803.831	0.0163754
803.909	0.0162132
803.987	0.0165475
804.065	0.0163483
804.143	0.0164238
804.221	0.0163982
804.299	0.0164509
804.378	0.0165251
804.456	0.0164053
804.534	0.0164158
804.612	0.0163607
804.690	0.0164454
804.768	0.0165047
804.846	0.0165012
804.924	0.0163254
805.003	0.0164108
805.081	0.0165632
805.159	0.0165576
805.237	0.0163911
805.315	0.0164178
805.393	0.0164597
805.471	0.0165352
805.549	0.0164219
805.628	0.0164058
805.706	0.0164164
805.784	0.0164954
805.862	0.0164861
805.940	0.0165143
806.018	0.0164675
806.096	0.0163590
806.174	0.0164382
806.253	0.0164133
806.331	0.0162582
806.409	0.0164236
806.487	0.0163349
806.565	0.0163995
806.643	0.0163291
806.721	0.0163461
806.799	0.0164113
806.878	0.0164163
806.956	0.0163980
807.034	0.0163237
807.112	0.0162415
807.190	0.0163564
807.268	0.0164154
807.346	0.0162839
807.424	0.0163763
807.503	0.0163614
807.581	0.0162658
807.659	0.0163223
807.737	0.0165108
807.815	0.0163054
807.893	0.0162122
807.971	0.0164609
808.049	0.0163986
808.128	0.0162428
808.206	0.0163683
808.284	0.0165436
808.362	0.0165201
808.440	0.0163303
808.518	0.0163834
808.596	0.0163818
808.674	0.0164447
808.753	0.0164817
808.831	0.0163435
808.909	0.0163345
808.987	0.0164058
809.065	0.0163295
809.143	0.0164676
809.221	0.0164266
809.299	0.0163739
809.378	0.0164261
809.456	0.0162786
809.534	0.0162758
809.612	0.0163628
809.690	0.0162423
809.768	0.0162418
809.846	0.0160356
809.924	0.0162292
810.003	0.0162432
810.081	0.0162593
810.159	0.0163416
810.237	0.0161572
810.315	0.0162325
810.393	0.0162273
810.471	0.0162297
810.549	0.0162557
810.628	0.0163400
810.706	0.0163461
810.784	0.0161472
810.862	0.0161874
810.940	0.0161449
811.018	0.0161392
811.096	0.0162682
811.174	0.0162411
811.253	0.0162992
811.331	0.0162817
811.409	0.0162856
811.487	0.0163068
811.565	0.0164306
811.643	0.0162965
811.721	0.0160965
811.799	0.0162485
811.878	0.0163535
811.956	0.0163806
812.034	0.0162553
812.112	0.0162406
812.190	0.0162102
812.268	0.0162990
812.346	0.0162997
812.424	0.0163023
812.503	0.0163327
812.581	0.0162711
812.659	0.0161884
812.737	0.0162824
812.815	0.0162537
812.893	0.0162871
812.971	0.0163760
813.049	0.0163264
813.128	0.0162773
813.206	0.0162830
813.284	0.0161469
813.362	0.0162985
813.440	0.0162709
813.518	0.0162104
813.596	0.0161627
813.674	0.0162073
813.753	0.0163355
813.831	0.0163306
813.909	0.0162844
813.987	0.0161575
814.065	0.0161679
814.143	0.0162537
814.221	0.0161402
814.299	0.0161447
814.378	0.0161734
814.456	0.0162156
814.534	0.0162012
814.612	0.0162309
814.690	0.0162368
814.768	0.0161068
814.846	0.0163708
814.924	0.0162131
815.003	0.0162100
815.081	0.0161945
815.159	0.0162798
815.237	0.0163689
815.315	0.0163172
815.393	0.0163720
815.471	0.0163012
815.549	0.0163175
815.628	0.0162718
815.706	0.0162803
815.784	0.0164792
815.862	0.0164857
815.940	0.0163840
816.018	0.0162823
816.096	0.0165547
816.174	0.0164130
816.253	0.0162996
816.331	0.0162440
816.409	0.0163341
816.487	0.0163602
816.565	0.0162372
816.643	0.0161388
816.721	0.0162299
816.799	0.0161742
816.878	0.0162331
816.956	0.0161080
817.034	0.0161812
817.112	0.0161868
817.190	0.0160204
817.268	0.0160038
817.346	0.0160236
817.424	0.0160021
817.503	0.0159843
817.581	0.0160083
817.659	0.0160368
817.737	0.0159966
817.815	0.0159880
817.893	0.0159015
817.971	0.0160521
818.049	0.0158946
818.128	0.0159682
818.206	0.0160183
818.284	0.0160680
818.362	0.0160927
818.440	0.0160431
818.518	0.0159172
818.596	0.0160920
818.674	0.0161723
818.753	0.0163612
818.831	0.0162962
818.909	0.0161677
818.987	0.0163038
819.065	0.0163848
819.143	0.0163350
819.221	0.0164104
819.299	0.0164356
819.378	0.0165173
819.456	0.0164445
819.534	0.0165697
819.612	0.0165048
819.690	0.0165765
819.768	0.0165070
819.846	0.0163920
819.924	0.0163173
820.003	0.0163934
820.081	0.0162115
820.159	0.0164301
820.237	0.0163428
820.315	0.0163375
820.393	0.0163138
820.471	0.0162423
820.549	0.0163328
820.628	0.0161362
820.706	0.0162743
820.784	0.0163187
820.862	0.0161870
820.940	0.0162041
821.018	0.0162117
821.096	0.0161858
821.174	0.0161369
821.253	0.0161700
821.331	0.0161291
821.409	0.0162110
821.487	0.0162100
821.565	0.0162551
821.643	0.0162350
821.721	0.0162634
821.799	0.0163762
821.878	0.0162167
821.956	0.0162729
822.034	0.0162416
822.112	0.0163368
822.190	0.0161376
822.268	0.0161604
822.346	0.0163741
822.424	0.0164284
822.503	0.0162758
822.581	0.0163735
822.659	0.0164272
822.737	0.0162779
822.815	0.0162136
822.893	0.0162887
822.971	0.0164494
823.049	0.0162948
823.128	0.0163778
823.206	0.0164587
823.284	0.0164333
823.362	0.0163223
823.440	0.0162640
823.518	0.0163576
823.596	0.0162958
823.674	0.0164348
823.753	0.0164563
823.831	0.0162835
823.909	0.0164664
823.987	0.0164891
824.065	0.0165114
824.143	0.0164095
824.221	0.0163391
824.299	0.0164394
824.378	0.0164034
824.456	0.0164314
824.534	0.0163563
824.612	0.0165161
824.690	0.0163154
824.768	0.0164233
824.846	0.0164049
824.924	0.0162608
825.003	0.0163627
825.081	0.0163181
825.159	0.0163592
825.237	0.0162885
825.315	0.0161222
825.393	0.0162388
825.471	0.0161478
825.549	0.0161329
825.628	0.0161135
825.706	0.0160960
825.784	0.0161857
825.862	0.0161853
825.940	0.0160576
826.018	0.0160006
826.096	0.0161058
826.174	0.0161785
826.253	0.0160481
826.331	0.0160735
826.409	0.0160298
826.487	0.0160916
826.565	0.0160463
826.643	0.0161572
826.721	0.0161557
826.799	0.0161214
826.878	0.0160754
826.956	0.0160485
827.034	0.0162068
827.112	0.0163135
827.190	0.0161420
827.268	0.0163594
827.346	0.0162808
827.424	0.0163348
827.503	0.0164662
827.581	0.0165087
827.659	0.0162965
827.737	0.0164155
827.815	0.0163801
827.893	0.0166099
827.971	0.0164951
828.049	0.0165543
828.128	0.0167044
828.206	0.0165723
828.284	0.0165522
828.362	0.0165274
828.440	0.0166172
828.518	0.0166330
828.596	0.0166472
828.674	0.0164865
828.753	0.0164116
828.831	0.0164971
828.909	0.0163969
828.987	0.0163390
829.065	0.0163690
829.143	0.0163686
829.221	0.0163528
829.299	0.0162617
829.378	0.0162376
829.456	0.0161185
829.534	0.0162608
829.612	0.0161618
829.690	0.0161813
829.768	0.0160226
829.846	0.0160651
829.924	0.0161550
830.003	0.0161876
830.081	0.0160870
830.159	0.0162355
830.237	0.0161063
830.315	0.0162277
830.393	0.0161577
830.471	0.0162093
830.549	0.0161906
830.628	0.0162861
830.706	0.0162164
830.784	0.0161842
830.862	0.0162656
830.940	0.0162041
831.018	0.0162526
831.096	0.0162585
831.174	0.0162345
831.253	0.0162235
831.331	0.0164661
831.409	0.0162571
831.487	0.0163015
831.565	0.0163841
831.643	0.0164532
831.721	0.0163363
831.799	0.0165199
831.878	0.0165047
831.956	0.0164989
832.034	0.0163551
832.112	0.0163765
832.190	0.0164350
832.268	0.0165086
832.346	0.0165454
832.424	0.0164672
832.503	0.0164899
832.581	0.0164674
832.659	0.0165478
832.737	0.0164517
832.815	0.0162723
832.893	0.0163834
832.971	0.0161578
833.049	0.0163791
833.128	0.0163384
833.206	0.0162775
833.284	0.0162088
833.362	0.0162584
833.440	0.0162363
833.518	0.0160507
833.596	0.0161432
833.674	0.0161250
833.753	0.0160927
833.831	0.0162211
833.909	0.0160576
833.987	0.0161179
834.065	0.0161172
834.143	0.0161326
834.221	0.0159953
834.299	0.0160373
834.378	0.0161393
834.456	0.0161543
834.534	0.0160362
834.612	0.0162276
834.690	0.0160801
834.768	0.0161648
834.846	0.0161133
834.924	0.0160812
835.003	0.0162215
835.081	0.0161115
835.159	0.0160652
835.237	0.0160925
835.315	0.0161491
835.393	0.0162562
835.471	0.0162002
835.549	0.0161899
835.628	0.0162116
835.706	0.0162332
835.784	0.0162847
835.862	0.0163406
835.940	0.0162168
836.018	0.0163599
836.096	0.0163758
836.174	0.0163616
836.253	0.0164468
836.331	0.0164154
836.409	0.0163741
836.487	0.0163744
836.565	0.0163420
836.643	0.0165105
836.721	0.0164448
836.799	0.0163052
836.878	0.0164948
836.956	0.0164317
837.034	0.0164097
837.112	0.0162821
837.190	0.0164112
837.268	0.0164359
837.346	0.0162769
837.424	0.0162924
837.503	0.0163015
837.581	0.0163130
837.659	0.0163046
837.737	0.0163391
837.815	0.0161603
837.893	0.0162402
837.971	0.0162771
838.049	0.0163254
838.128	0.0160528
838.206	0.0160866
838.284	0.0161582
838.362	0.0162173
838.440	0.0160257
838.518	0.0160114
838.596	0.0160439
838.674	0.0160886
838.753	0.0161145
838.831	0.0161035
838.909	0.0160496
838.987	0.0161355
839.065	0.0159573
839.143	0.0160220
839.221	0.0162042
839.299	0.0162586
839.378	0.0162247
839.456	0.0160652
839.534	0.0161327
839.612	0.0162468
839.690	0.0162179
839.768	0.0161065
839.846	0.0162784
839.924	0.0162701
840.003	0.0163912
840.081	0.0162324
840.159	0.0163321
840.237	0.0163483
840.315	0.0163099
840.393	0.0162565
840.471	0.0162775
840.549	0.0163742
840.628	0.0163457
840.706	0.0163963
840.784	0.0162270
840.862	0.0163673
840.940	0.0163739
841.018	0.0162402
841.096	0.0163361
841.174	0.0162524
841.253	0.0162588
841.331	0.0164322
841.409	0.0163159
841.487	0.0163110
841.565	0.0163612
841.643	0.0162634
841.721	0.0163725
841.799	0.0162357
841.878	0.0164137
841.956	0.0166113
842.034	0.0165219
842.112	0.0163254
842.190	0.0164176
842.268	0.0165079
842.346	0.0165300
842.424	0.0164634
842.503	0.0165610
842.581	0.0165259
842.659	0.0163500
842.737	0.0165432
842.815	0.0165111
842.893	0.0165864
842.971	0.0163760
843.049	0.0164137
843.128	0.0164490
843.206	0.0163228
843.284	0.0163499
843.362	0.0163366
843.440	0.0163508
843.518	0.0162518
843.596	0.0164497
843.674	0.0162577
843.753	0.0163437
843.831	0.0164288
843.909	0.0164233
843.987	0.0163509
844.065	0.0163683
844.143	0.0162332
844.221	0.0163711
844.299	0.0163018
844.378	0.0162399
844.456	0.0161515
844.534	0.0162238
844.612	0.0161631
844.690	0.0161103
844.768	0.0162025
844.846	0.0162305
844.924	0.0162563
845.003	0.0162377
845.081	0.0162962
845.159	0.0161828
845.237	0.0160805
845.315	0.0160590
845.393	0.0161765
845.471	0.0161447
845.549	0.0162818
845.628	0.0162697
845.706	0.0163417
845.784	0.0164362
845.862	0.0163641
845.940	0.0162429
846.018	0.0163703
846.096	0.0163214
846.174	0.0163394
846.253	0.0164248
846.331	0.0164835
846.409	0.0163057
846.487	0.0163225
846.565	0.0165596
846.643	0.0165523
846.721	0.0164272
846.799	0.0162738
846.878	0.0163296
846.956	0.0164514
847.034	0.0164901
847.112	0.0164536
847.190	0.0164616
847.268	0.0164738
847.346	0.0164522
847.424	0.0164148
847.503	0.0163860
847.581	0.0164130
847.659	0.0163823
847.737	0.0165113
847.815	0.0165294
847.893	0.0165637
847.971	0.0164447
848.049	0.0163671
848.128	0.0164568
848.206	0.0163890
848.284	0.0163178
848.362	0.0164439
848.440	0.0162451
848.518	0.0164204
848.596	0.0163762
848.674	0.0164125
848.753	0.0163252
848.831	0.0163618
848.909	0.0163567
848.987	0.0163806
849.065	0.0163023
849.143	0.0162850
849.221	0.0162835
849.299	0.0162833
849.378	0.0162315
849.456	0.0163463
849.534	0.0164676
849.612	0.0163475
849.690	0.0163352
849.768	0.0163396
849.846	0.0163611
849.924	0.0164715
850.003	0.0163006
850.081	0.0161776
850.159	0.0162677
850.237	0.0162891
850.315	0.0162768
850.393	0.0163882
850.471	0.0161898
850.549	0.0161938
850.628	0.0163326
850.706	0.0162876
850.784	0.0163838
850.862	0.0163378
850.940	0.0163007
851.018	0.0163881
851.096	0.0162889
851.174	0.0160334
851.253	0.0162719
851.331	0.0163374
851.409	0.0162282
851.487	0.0163428
851.565	0.0162810
851.643	0.0163651
851.721	0.0162343
851.799	0.0162296
851.878	0.0163104
851.956	0.0163702
852.034	0.0164285
852.112	0.0163945
852.190	0.0162094
852.268	0.0163885
852.346	0.0162129
852.424	0.0163170
852.503	0.0162581
852.581	0.0162794
852.659	0.0164380
852.737	0.0163186
852.815	0.0163271
852.893	0.0163065
852.971	0.0164050
853.049	0.0163433
853.128	0.0164304
853.206	0.0165384
853.284	0.0164854
853.362	0.0163091
853.440	0.0163601
853.518	0.0164000
853.596	0.0163200
853.674	0.0162791
853.753	0.0163959
853.831	0.0165505
853.909	0.0164278
853.987	0.0164059
854.065	0.0163208
854.143	0.0162917
854.221	0.0161864
854.299	0.0163458
854.378	0.0162231
854.456	0.0162843
854.534	0.0164790
854.612	0.0162653
854.690	0.0163026
854.768	0.0162363
854.846	0.0161781
854.924	0.0162463
855.003	0.0163251
855.081	0.0161325
855.159	0.0162746
855.237	0.0161634
855.315	0.0161044
855.393	0.0162218
855.471	0.0162084
855.549	0.0162729
855.628	0.0162871
855.706	0.0161556
855.784	0.0162603
855.862	0.0161940
855.940	0.0161588
856.018	0.0162545
856.096	0.0162429
856.174	0.0160724
856.253	0.0162202
856.331	0.0162003
856.409	0.0162385
856.487	0.0162638
856.565	0.0163254
856.643	0.0163293
856.721	0.0162521
856.799	0.0162944
856.878	0.0161357
856.956	0.0162498
857.034	0.0162713
857.112	0.0162858
857.190	0.0162115
857.268	0.0161948
857.346	0.0162144
857.424	0.0162852
857.503	0.0162820
857.581	0.0162307
857.659	0.0161951
857.737	0.0162187
857.815	0.0162558
857.893	0.0162049
857.971	0.0162762
858.049	0.0161764
858.128	0.0162258
858.206	0.0162285
858.284	0.0163100
858.362	0.0162514
858.440	0.0162513
858.518	0.0162145
858.596	0.0163084
858.674	0.0162834
858.753	0.0162673
858.831	0.0162534
858.909	0.0163910
858.987	0.0164862
859.065	0.0163723
859.143	0.0164433
859.221	0.0164223
859.299	0.0163533
859.378	0.0163087
859.456	0.0162617
859.534	0.0162816
859.612	0.0162800
859.690	0.0163006
859.768	0.0162782
859.846	0.0162910
859.924	0.0162540
860.003	0.0161662
860.081	0.0162325
860.159	0.0163530
860.237	0.0162771
860.315	0.0162785
860.393	0.0161812
860.471	0.0161166
860.549	0.0162643
860.628	0.0162814
860.706	0.0161709
860.784	0.0160903
860.862	0.0161491
860.940	0.0163804
861.018	0.0162991
861.096	0.0163321
861.174	0.0163703
861.253	0.0162291
861.331	0.0161531
861.409	0.0161546
861.487	0.0162531
861.565	0.0162332
861.643	0.0164366
861.721	0.0164226
861.799	0.0162387
861.878	0.0161889
861.956	0.0163506
862.034	0.0163230
862.112	0.0163565
862.190	0.0162644
862.268	0.0164490
862.346	0.0163689
862.424	0.0163102
862.503	0.0163539
862.581	0.0161892
862.659	0.0162351
862.737	0.0163810
862.815	0.0163397
862.893	0.0163113
862.971	0.0161473
863.049	0.0163882
863.128	0.0164150
863.206	0.0163856
863.284	0.0163462
863.362	0.0162091
863.440	0.0165031
863.518	0.0164601
863.596	0.0163956
863.674	0.0164382
863.753	0.0163952
863.831	0.0165053
863.909	0.0164973
863.987	0.0165846
864.065	0.0164910
864.143	0.0162330
864.221	0.0164067
864.299	0.0163374
864.378	0.0163233
864.456	0.0164837
864.534	0.0164673
864.612	0.0164382
864.690	0.0164643
864.768	0.0163485
864.846	0.0161882
864.924	0.0163103
865.003	0.0163842
865.081	0.0163371
865.159	0.0162234
865.237	0.0164770
865.315	0.0163378
865.393	0.0163029
865.471	0.0162954
865.549	0.0163170
865.628	0.0162153
865.706	0.0164123
865.784	0.0163725
865.862	0.0162759
865.940	0.0163439
866.018	0.0162041
866.096	0.0161768
866.174	0.0162126
866.253	0.0162428
866.331	0.0162786
866.409	0.0161408
866.487	0.0162794
866.565	0.0162170
866.643	0.0161480
866.721	0.0161761
866.799	0.0162555
866.878	0.0162432
866.956	0.0163353
867.034	0.0163048
867.112	0.0163020
867.190	0.0162215
867.268	0.0161915
867.346	0.0163412
867.424	0.0163080
867.503	0.0163097
867.581	0.0163879
867.659	0.0163713
867.737	0.0165818
867.815	0.0163105
867.893	0.0163705
867.971	0.0163598
868.049	0.0162848
868.128	0.0164406
868.206	0.0166206
868.284	0.0164948
868.362	0.0165185
868.440	0.0164466
868.518	0.0164884
868.596	0.0165640
868.674	0.0165218
868.753	0.0165395
868.831	0.0163869
868.909	0.0164472
868.987	0.0163181
869.065	0.0164657
869.143	0.0165013
869.221	0.0164257
869.299	0.0163498
869.378	0.0165424
869.456	0.0163737
869.534	0.0163206
869.612	0.0164421
869.690	0.0164520
869.768	0.0164093
869.846	0.0165692
869.924	0.0163654
870.003	0.0164232
870.081	0.0163573
870.159	0.0163474
870.237	0.0163343
870.315	0.0162660
870.393	0.0164457
870.471	0.0162650
870.549	0.0164210
870.628	0.0164429
870.706	0.0162991
870.784	0.0162673
870.862	0.0164024
870.940	0.0163765
871.018	0.0163599
871.096	0.0164008
871.174	0.0164180
871.253	0.0163383
871.331	0.0163285
871.409	0.0163630
871.487	0.0162689
871.565	0.0165370
871.643	0.0162622
871.721	0.0162816
871.799	0.0162923
871.878	0.0163213
871.956	0.0163733
872.034	0.0163461
872.112	0.0162940
872.190	0.0163617
872.268	0.0163746
872.346	0.0164639
872.424	0.0165121
872.503	0.0164708
872.581	0.0164394
872.659	0.0165128
872.737	0.0164337
872.815	0.0164723
872.893	0.0165739
872.971	0.0165195
873.049	0.0164775
873.128	0.0163842
873.206	0.0164220
873.284	0.0165924
873.362	0.0165004
873.440	0.0164799
873.518	0.0164261
873.596	0.0165270
873.674	0.0162918
873.753	0.0164069
873.831	0.0165348
873.909	0.0163605
873.987	0.0163300
874.065	0.0163234
874.143	0.0164752
874.221	0.0163742
874.299	0.0163914
874.378	0.0163974
874.456	0.0164296
874.534	0.0163620
874.612	0.0163880
874.690	0.0164703
874.768	0.0164946
874.846	0.0164680
874.924	0.0163337
875.003	0.0161591
875.081	0.0163805
875.159	0.0163412
875.237	0.0162787
875.315	0.0162618
875.393	0.0162651
875.471	0.0162727
875.549	0.0162321
875.628	0.0162916
875.706	0.0162254
875.784	0.0162661
875.862	0.0161004
875.940	0.0161857
876.018	0.0162942
876.096	0.0162684
876.174	0.0162985
876.253	0.0162366
876.331	0.0163241
876.409	0.0162899
876.487	0.0161665
876.565	0.0162717
876.643	0.0163596
876.721	0.0162482
876.799	0.0162228
876.878	0.0162283
876.956	0.0162277
877.034	0.0164979
877.112	0.0162769
877.190	0.0163627
877.268	0.0163511
877.346	0.0162543
877.424	0.0165561
877.503	0.0164855
877.581	0.0163669
877.659	0.0164833
877.737	0.0165780
877.815	0.0165742
877.893	0.0165076
877.971	0.0164438
878.049	0.0164844
878.128	0.0164149
878.206	0.0163550
878.284	0.0163743
878.362	0.0166119
878.440	0.0163955
878.518	0.0165496
878.596	0.0162875
878.674	0.0164415
878.753	0.0162669
878.831	0.0164845
878.909	0.0162584
878.987	0.0163902
879.065	0.0164060
879.143	0.0164446
879.221	0.0162930
879.299	0.0163394
879.378	0.0162015
879.456	0.0163885
879.534	0.0162729
879.612	0.0162902
879.690	0.0162739
879.768	0.0163964
879.846	0.0163535
879.924	0.0163122
880.003	0.0163113
880.081	0.0163208
880.159	0.0164764
880.237	0.0162978
880.315	0.0162437
880.393	0.0163888
880.471	0.0163256
880.549	0.0164394
880.628	0.0163660
880.706	0.0163332
880.784	0.0163179
880.862	0.0165706
880.940	0.0162168
881.018	0.0163644
881.096	0.0164022
881.174	0.0162720
881.253	0.0161050
881.331	0.0162356
881.409	0.0162752
881.487	0.0163499
881.565	0.0163210
881.643	0.0162106
881.721	0.0163097
881.799	0.0164162
881.878	0.0162127
881.956	0.0161386
882.034	0.0161906
882.112	0.0162772
882.190	0.0162212
882.268	0.0163264
882.346	0.0162005
882.424	0.0162503
882.503	0.0163737
882.581	0.0164049
882.659	0.0162942
882.737	0.0162797
882.815	0.0164964
882.893	0.0162930
882.971	0.0162679
883.049	0.0163757
883.128	0.0165492
883.206	0.0162537
883.284	0.0164083
883.362	0.0165663
883.440	0.0164482
883.518	0.0163448
883.596	0.0162564
883.674	0.0164595
883.753	0.0163567
883.831	0.0163245
883.909	0.0163931
883.987	0.0164031
884.065	0.0163966
884.143	0.0164447
884.221	0.0163990
884.299	0.0163198
884.378	0.0163397
884.456	0.0162514
884.534	0.0162217
884.612	0.0163718
884.690	0.0163472
884.768	0.0162176
884.846	0.0162012
884.924	0.0162759
885.003	0.0161456
885.081	0.0161655
885.159	0.0163277
885.237	0.0161345
885.315	0.0162917
885.393	0.0161335
885.471	0.0161975
885.549	0.0160732
885.628	0.0161726
885.706	0.0161850
885.784	0.0162044
885.862	0.0162616
885.940	0.0161629
886.018	0.0164375
886.096	0.0163026
886.174	0.0162579
886.253	0.0163206
886.331	0.0162635
886.409	0.0163020
886.487	0.0163499
886.565	0.0162611
886.643	0.0163761
886.721	0.0164791
886.799	0.0162016
886.878	0.0162785
886.956	0.0164021
887.034	0.0162592
887.112	0.0162986
887.190	0.0163712
887.268	0.0163512
887.346	0.0163672
887.424	0.0163029
887.503	0.0162664
887.581	0.0163037
887.659	0.0163036
887.737	0.0163303
887.815	0.0163302
887.893	0.0164429
887.971	0.0163879
888.049	0.0162448
888.128	0.0164288
888.206	0.0163680
888.284	0.0163142
888.362	0.0162740
888.440	0.0163777
888.518	0.0162645
888.596	0.0162251
888.674	0.0163952
888.753	0.0164837
888.831	0.0162142
888.909	0.0163558
888.987	0.0163011
889.065	0.0163564
889.143	0.0164139
889.221	0.0164284
889.299	0.0163621
889.378	0.0163034
889.456	0.0164503
889.534	0.0164037
889.612	0.0163267
889.690	0.0163155
889.768	0.0163325
889.846	0.0163658
889.924	0.0162754
890.003	0.0164352
890.081	0.0163880
890.159	0.0164143
890.237	0.0163966
890.315	0.0163956
890.393	0.0162246
890.471	0.0164539
890.549	0.0163563
890.628	0.0162149
890.706	0.0163152
890.784	0.0164739
890.862	0.0163511
890.940	0.0163239
891.018	0.0161227
891.096	0.0163361
891.174	0.0162312
891.253	0.0162715
891.331	0.0161377
891.409	0.0163265
891.487	0.0162995
891.565	0.0162805
891.643	0.0161517
891.721	0.0161124
891.799	0.0161764
891.878	0.0161798
891.956	0.0162762
892.034	0.0162247
892.112	0.0161708
892.190	0.0161332
892.268	0.0163329
892.346	0.0161835
892.424	0.0161430
892.503	0.0162037
892.581	0.0164561
892.659	0.0162659
892.737	0.0162086
892.815	0.0162728
892.893	0.0162681
892.971	0.0161996
893.049	0.0161633
893.128	0.0162252
893.206	0.0162766
893.284	0.0163276
893.362	0.0163544
893.440	0.0162512
893.518	0.0161446
893.596	0.0163109
893.674	0.0163953
893.753	0.0162357
893.831	0.0164268
893.909	0.0163300
893.987	0.0162463
894.065	0.0162405
894.143	0.0162839
894.221	0.0163765
894.299	0.0162828
894.378	0.0163932
894.456	0.0163912
894.534	0.0164135
894.612	0.0163737
894.690	0.0163248
894.768	0.0164095
894.846	0.0163682
894.924	0.0163078
895.003	0.0162497
895.081	0.0163762
895.159	0.0164616
895.237	0.0163321
895.315	0.0164727
895.393	0.0165316
895.471	0.0162511
895.549	0.0163663
895.628	0.0163251
895.706	0.0163772
895.784	0.0164265
895.862	0.0163503
895.940	0.0164497
896.018	0.0164374
896.096	0.0163494
896.174	0.0165313
896.253	0.0163869
896.331	0.0163979
896.409	0.0163634
896.487	0.0164085
896.565	0.0164241
896.643	0.0164552
896.721	0.0164454
896.799	0.0162928
896.878	0.0164174
896.956	0.0163676
897.034	0.0162582
897.112	0.0164595
897.190	0.0162509
897.268	0.0162510
897.346	0.0164104
897.424	0.0163248
897.503	0.0163954
897.581	0.0163496
897.659	0.0163149
897.737	0.0164589
897.815	0.0164437
897.893	0.0163811
897.971	0.0163316
898.049	0.0164400
898.128	0.0163120
898.206	0.0163504
898.284	0.0163818
898.362	0.0162798
898.440	0.0162700
898.518	0.0163779
898.596	0.0163183
898.674	0.0163558
898.753	0.0163292
898.831	0.0164199
898.909	0.0163200
898.987	0.0162901
899.065	0.0163264
899.143	0.0163053
899.221	0.0164680
899.299	0.0164009
899.378	0.0162633
899.456	0.0163613
899.534	0.0164323
899.612	0.0163519
899.690	0.0164152
899.768	0.0164236
899.846	0.0163583
899.924	0.0163490
900.003	0.0164287
900.081	0.0164017
900.159	0.0163943
900.237	0.0163467
900.315	0.0163562
900.393	0.0163619
900.471	0.0163644
900.549	0.0163721
900.628	0.0162586
900.706	0.0162765
900.784	0.0163971
900.862	0.0162965
900.940	0.0161911
901.018	0.0163412
901.096	0.0162907
901.174	0.0163865
901.253	0.0164442
901.331	0.0162717
901.409	0.0163754
901.487	0.0163271
901.565	0.0162969
901.643	0.0163396
901.721	0.0162260
901.799	0.0162868
901.878	0.0163850
901.956	0.0163522
902.034	0.0163390
902.112	0.0164491
902.190	0.0164345
902.268	0.0163256
902.346	0.0163885
902.424	0.0163837
902.503	0.0163107
902.581	0.0164133
902.659	0.0162402
902.737	0.0163740
902.815	0.0164033
902.893	0.0164695
902.971	0.0164079
903.049	0.0163797
903.128	0.0164059
903.206	0.0163989
903.284	0.0164281
903.362	0.0163679
903.440	0.0164291
903.518	0.0162304
903.596	0.0162227
903.674	0.0162462
903.753	0.0162816
903.831	0.0163437
903.909	0.0163536
903.987	0.0163538
904.065	0.0162435
904.143	0.0163964
904.221	0.0163002
904.299	0.0163660
904.378	0.0163097
904.456	0.0162488
904.534	0.0163496
904.612	0.0163828
904.690	0.0163173
904.768	0.0163030
904.846	0.0162508
904.924	0.0163178
905.003	0.0163161
905.081	0.0163567
905.159	0.0162789
905.237	0.0162594
905.315	0.0162962
905.393	0.0163400
905.471	0.0164285
905.549	0.0164880
905.628	0.0165166
905.706	0.0164314
905.784	0.0165116
905.862	0.0163628
905.940	0.0164563
906.018	0.0164867
906.096	0.0162231
906.174	0.0163097
906.253	0.0166021
906.331	0.0163745
906.409	0.0163656
906.487	0.0162763
906.565	0.0163776
906.643	0.0163818
906.721	0.0163530
906.799	0.0165633
906.878	0.0163966
906.956	0.0163705
907.034	0.0163567
907.112	0.0162991
907.190	0.0164150
907.268	0.0164600
907.346	0.0162551
907.424	0.0163744
907.503	0.0162901
907.581	0.0163486
907.659	0.0163909
907.737	0.0162867
907.815	0.0163259
907.893	0.0163807
907.971	0.0162354
908.049	0.0164169
908.128	0.0163660
908.206	0.0163341
908.284	0.0162557
908.362	0.0161712
908.440	0.0164269
908.518	0.0163137
908.596	0.0162092
908.674	0.0163028
908.753	0.0163127
908.831	0.0164058
908.909	0.0163168
908.987	0.0162800
909.065	0.0162067
909.143	0.0162537
909.221	0.0163117
909.299	0.0163212
909.378	0.0162617
909.456	0.0160971
909.534	0.0161884
909.612	0.0161529
909.690	0.0162067
909.768	0.0163568
909.846	0.0162267
909.924	0.0162167
910.003	0.0163136
910.081	0.0162882
910.159	0.0161979
910.237	0.0161897
910.315	0.0163094
910.393	0.0162045
910.471	0.0162341
910.549	0.0161975
910.628	0.0163349
910.706	0.0163172
910.784	0.0162040
910.862	0.0163607
910.940	0.0164776
911.018	0.0162801
911.096	0.0163090
911.174	0.0163606
911.253	0.0163335
911.331	0.0162232
911.409	0.0163194
911.487	0.0162360
911.565	0.0162323
911.643	0.0163468
911.721	0.0162230
911.799	0.0162697
911.878	0.0162581
911.956	0.0162604
912.034	0.0162048
912.112	0.0161945
912.190	0.0161763
912.268	0.0162899
912.346	0.0161943
912.424	0.0161989
912.503	0.0163007
912.581	0.0162218
912.659	0.0162163
912.737	0.0162559
912.815	0.0160529
912.893	0.0162302
912.971	0.0161716
913.049	0.0161411
913.128	0.0163035
913.206	0.0161691
913.284	0.0162690
913.362	0.0163638
913.440	0.0162980
913.518	0.0162640
913.596	0.0162943
913.674	0.0163303
913.753	0.0163446
913.831	0.0163227
913.909	0.0162855
913.987	0.0164020
914.065	0.0163206
914.143	0.0163785
914.221	0.0164272
914.299	0.0164632
914.378	0.0161737
914.456	0.0162969
914.534	0.0162026
914.612	0.0163264
914.690	0.0161533
914.768	0.0163023
914.846	0.0162489
914.924	0.0163817
915.003	0.0162396
915.081	0.0162662
915.159	0.0162487
915.237	0.0164019
915.315	0.0162883
915.393	0.0162471
915.471	0.0161951
915.549	0.0162846
915.628	0.0162611
915.706	0.0162125
915.784	0.0161771
915.862	0.0163682
915.940	0.0163911
916.018	0.0163966
916.096	0.0161552
916.174	0.0163321
916.253	0.0163646
916.331	0.0163190
916.409	0.0162799
916.487	0.0164670
916.565	0.0163352
916.643	0.0163385
916.721	0.0162738
916.799	0.0164102
916.878	0.0163096
916.956	0.0162376
917.034	0.0164414
917.112	0.0164032
917.190	0.0163353
917.268	0.0163184
917.346	0.0163873
917.424	0.0162213
917.503	0.0163111
917.581	0.0163570
917.659	0.0162771
917.737	0.0161511
917.815	0.0162466
917.893	0.0162582
917.971	0.0163395
918.049	0.0163892
918.128	0.0162911
918.206	0.0163410
918.284	0.0162576
918.362	0.0162458
918.440	0.0163300
918.518	0.0163725
918.596	0.0162026
918.674	0.0162836
918.753	0.0162833
918.831	0.0163792
918.909	0.0161909
918.987	0.0163357
919.065	0.0162536
919.143	0.0163092
919.221	0.0162893
919.299	0.0163271
919.378	0.0162024
919.456	0.0163369
919.534	0.0163155
919.612	0.0163885
919.690	0.0163209
919.768	0.0163038
919.846	0.0163354
919.924	0.0161945
920.003	0.0162754
920.081	0.0162502
920.159	0.0162907
920.237	0.0163062
920.315	0.0163528
920.393	0.0162806
920.471	0.0162537
920.549	0.0163177
920.628	0.0164515
920.706	0.0162540
920.784	0.0162123
920.862	0.0163529
920.940	0.0163760
921.018	0.0164079
921.096	0.0163786
921.174	0.0163126
921.253	0.0163661
921.331	0.0163138
921.409	0.0163700
921.487	0.0165208
921.565	0.0165395
921.643	0.0164962
921.721	0.0164249
921.799	0.0163500
921.878	0.0165086
921.956	0.0164191
922.034	0.0163892
922.112	0.0165714
922.190	0.0164133
922.268	0.0163490
922.346	0.0165710
922.424	0.0165600
922.503	0.0164120
922.581	0.0164169
922.659	0.0164671
922.737	0.0164879
922.815	0.0165749
922.893	0.0164583
922.971	0.0165777
923.049	0.0164419
923.128	0.0163828
923.206	0.0164417
923.284	0.0164194
923.362	0.0164981
923.440	0.0164066
923.518	0.0163731
923.596	0.0162344
923.674	0.0162572
923.753	0.0163855
923.831	0.0162713
923.909	0.0161960
923.987	0.0163012
924.065	0.0163200
924.143	0.0164427
924.221	0.0163027
924.299	0.0164017
924.378	0.0163495
924.456	0.0163647
924.534	0.0163578
924.612	0.0163470
924.690	0.0162836
924.768	0.0162981
924.846	0.0162291
924.924	0.0163422
925.003	0.0163406
925.081	0.0164648
925.159	0.0162128
925.237	0.0163863
925.315	0.0163177
925.393	0.0163750
925.471	0.0163496
925.549	0.0164711
925.628	0.0164302
925.706	0.0166577
925.784	0.0164790
925.862	0.0163739
925.940	0.0163284
926.018	0.0162790
926.096	0.0163844
926.174	0.0163920
926.253	0.0163477
926.331	0.0163624
926.409	0.0163711
926.487	0.0165018
926.565	0.0164581
926.643	0.0163992
926.721	0.0163368
926.799	0.0161969
926.878	0.0162395
926.956	0.0163191
927.034	0.0162407
927.112	0.0163499
927.190	0.0162446
927.268	0.0162698
927.346	0.0163329
927.424	0.0162875
927.503	0.0162858
927.581	0.0163895
927.659	0.0161685
927.737	0.0161613
927.815	0.0161659
927.893	0.0162861
927.971	0.0162109
928.049	0.0162879
928.128	0.0162054
928.206	0.0162754
928.284	0.0162374
928.362	0.0161988
928.440	0.0161441
928.518	0.0161475
928.596	0.0162374
928.674	0.0163053
928.753	0.0162517
928.831	0.0161623
928.909	0.0161983
928.987	0.0161846
929.065	0.0163580
929.143	0.0162584
929.221	0.0162534
929.299	0.0161298
929.378	0.0162943
929.456	0.0162642
929.534	0.0161852
929.612	0.0160915
929.690	0.0161452
929.768	0.0162191
929.846	0.0162180
929.924	0.0162643
930.003	0.0162424
930.081	0.0161820
930.159	0.0161175
930.237	0.0162177
930.315	0.0163602
930.393	0.0162183
930.471	0.0161700
930.549	0.0161717
930.628	0.0161296
930.706	0.0161686
930.784	0.0162164
930.862	0.0162444
930.940	0.0161382
931.018	0.0161119
931.096	0.0161821
931.174	0.0163470
931.253	0.0162502
931.331	0.0162659
931.409	0.0161794
931.487	0.0163521
931.565	0.0163062
931.643	0.0161669
931.721	0.0162641
931.799	0.0162415
931.878	0.0162444
931.956	0.0162549
932.034	0.0162521
932.112	0.0163927
932.190	0.0161909
932.268	0.0162277
932.346	0.0162924
932.424	0.0162972
932.503	0.0161971
932.581	0.0160791
932.659	0.0161647
932.737	0.0161820
932.815	0.0162063
932.893	0.0162451
932.971	0.0160366
933.049	0.0161745
933.128	0.0161629
933.206	0.0161405
933.284	0.0162162
933.362	0.0161335
933.440	0.0161060
933.518	0.0161555
933.596	0.0161542
933.674	0.0161868
933.753	0.0161285
933.831	0.0162363
933.909	0.0162141
933.987	0.0161208
934.065	0.0160885
934.143	0.0161206
934.221	0.0163084
934.299	0.0162109
934.378	0.0160802
934.456	0.0161285
934.534	0.0162448
934.612	0.0161203
934.690	0.0161874
934.768	0.0160246
934.846	0.0161804
934.924	0.0161526
935.003	0.0162586
935.081	0.0162823
935.159	0.0163126
935.237	0.0161896
935.315	0.0161305
935.393	0.0162964
935.471	0.0163601
935.549	0.0162013
935.628	0.0162239
935.706	0.0162460
935.784	0.0161620
935.862	0.0163583
935.940	0.0162774
936.018	0.0162273
936.096	0.0163432
936.174	0.0162161
936.253	0.0163135
936.331	0.0163799
936.409	0.0163542
936.487	0.0163839
936.565	0.0163371
936.643	0.0162054
936.721	0.0163217
936.799	0.0162396
936.878	0.0161109
936.956	0.0161860
937.034	0.0163280
937.112	0.0163796
937.190	0.0162699
937.268	0.0163707
937.346	0.0162224
937.424	0.0162867
937.503	0.0163136
937.581	0.0163053
937.659	0.0163936
937.737	0.0162518
937.815	0.0163062
937.893	0.0161876
937.971	0.0163595
938.049	0.0163300
938.128	0.0161539
938.206	0.0163591
938.284	0.0162930
938.362	0.0163467
938.440	0.0163173
938.518	0.0162484
938.596	0.0162390
938.674	0.0161991
938.753	0.0161523
938.831	0.0162189
938.909	0.0163834
938.987	0.0163634
939.065	0.0161799
939.143	0.0161765
939.221	0.0161125
939.299	0.0161227
939.378	0.0161510
939.456	0.0162864
939.534	0.0163007
939.612	0.0162636
939.690	0.0163259
939.768	0.0164371
939.846	0.0162212
939.924	0.0162216
940.003	0.0162216
940.081	0.0164352
940.159	0.0163240
940.237	0.0163180
940.315	0.0162894
940.393	0.0163350
940.471	0.0161549
940.549	0.0162481
940.628	0.0163132
940.706	0.0162437
940.784	0.0164215
940.862	0.0162611
940.940	0.0163556
941.018	0.0163013
941.096	0.0162960
941.174	0.0163340
941.253	0.0163430
941.331	0.0162392
941.409	0.0162674
941.487	0.0163828
941.565	0.0163469
941.643	0.0162810
941.721	0.0162543
941.799	0.0163459
941.878	0.0163798
941.956	0.0162842
942.034	0.0163081
942.112	0.0164274
942.190	0.0163011
942.268	0.0163866
942.346	0.0163464
942.424	0.0163642
942.503	0.0163520
942.581	0.0162994
942.659	0.0163489
942.737	0.0162996
942.815	0.0163783
942.893	0.0163599
942.971	0.0162837
943.049	0.0164077
943.128	0.0164074
943.206	0.0163737
943.284	0.0163628
943.362	0.0165611
943.440	0.0164946
943.518	0.0164390
943.596	0.0165463
943.674	0.0163731
943.753	0.0164799
943.831	0.0164687
943.909	0.0164426
943.987	0.0165666
944.065	0.0165520
944.143	0.0163863
944.221	0.0164040
944.299	0.0165182
944.378	0.0166120
944.456	0.0165161
944.534	0.0164662
944.612	0.0165155
944.690	0.0164700
944.768	0.0165858
944.846	0.0166030
944.924	0.0165694
945.003	0.0165566
945.081	0.0166157
945.159	0.0166262
945.237	0.0166137
945.315	0.0165870
945.393	0.0166034
945.471	0.0163889
945.549	0.0164724
945.628	0.0165012
945.706	0.0164870
945.784	0.0166293
945.862	0.0165202
945.940	0.0163639
946.018	0.0165548
946.096	0.0165182
946.174	0.0165402
946.253	0.0165518
946.331	0.0165782
946.409	0.0165441
946.487	0.0164845
946.565	0.0165465
946.643	0.0165058
946.721	0.0165658
946.799	0.0165285
946.878	0.0164765
946.956	0.0164516
947.034	0.0166053
947.112	0.0165059
947.190	0.0165031
947.268	0.0165050
947.346	0.0164387
947.424	0.0164708
947.503	0.0163979
947.581	0.0164861
947.659	0.0165141
947.737	0.0165023
947.815	0.0163374
947.893	0.0164019
947.971	0.0164616
948.049	0.0164412
948.128	0.0164275
948.206	0.0164687
948.284	0.0164606
948.362	0.0163642
948.440	0.0164587
948.518	0.0164544
948.596	0.0163612
948.674	0.0163663
948.753	0.0164830
948.831	0.0164332
948.909	0.0163223
948.987	0.0164694
949.065	0.0163105
949.143	0.0163637
949.221	0.0163834
949.299	0.0163452
949.378	0.0163199
949.456	0.0162174
949.534	0.0161423
949.612	0.0162693
949.690	0.0162025
949.768	0.0163175
949.846	0.0162206
949.924	0.0162781
