06/29/2022	23:16:06	Ver.	4.1	UNKNOWN
Optical Delay	630.002507	Delta X		0.078125	Sweeps	1	Scan Rate	0/0
Coordinates	Axis 1	NaN	Axis 2	NaN	Axis 3	NaN	Axis 4	NaN	Axis 5	NaN	Axis 6	0.000000
TX Power	0.000000	RX Power	0.000000

630.003	0.0159941
630.081	0.0160646
630.159	0.0159839
630.237	0.0160178
630.315	0.0160659
630.393	0.0160889
630.471	0.0160713
630.549	0.0160477
630.628	0.0159092
630.706	0.0161170
630.784	0.0160733
630.862	0.0159687
630.940	0.0158671
631.018	0.0160151
631.096	0.0159834
631.174	0.0159115
631.253	0.0160168
631.331	0.0161166
631.409	0.0160118
631.487	0.0160131
631.565	0.0160304
631.643	0.0160623
631.721	0.0160551
631.799	0.0160774
631.878	0.0160150
631.956	0.0159985
632.034	0.0161047
632.112	0.0160439
632.190	0.0160299
632.268	0.0159383
632.346	0.0159611
632.424	0.0161713
632.503	0.0161353
632.581	0.0160421
632.659	0.0159732
632.737	0.0160743
632.815	0.0158595
632.893	0.0159602
632.971	0.0160436
633.049	0.0160686
633.128	0.0161380
633.206	0.0159306
633.284	0.0159486
633.362	0.0161127
633.440	0.0160134
633.518	0.0159683
633.596	0.0159969
633.674	0.0159473
633.753	0.0161066
633.831	0.0160763
633.909	0.0161134
633.987	0.0159911
634.065	0.0161774
634.143	0.0159409
634.221	0.0160036
634.299	0.0161689
634.378	0.0160748
634.456	0.0160275
634.534	0.0161163
634.612	0.0159965
634.690	0.0159201
634.768	0.0160361
634.846	0.0159975
634.924	0.0161197
635.003	0.0160842
635.081	0.0158540
635.159	0.0160215
635.237	0.0160497
635.315	0.0159941
635.393	0.0160014
635.471	0.0159961
635.549	0.0160062
635.628	0.0158445
635.706	0.0159888
635.784	0.0160954
635.862	0.0158739
635.940	0.0160094
636.018	0.0161334
636.096	0.0160868
636.174	0.0159009
636.253	0.0160472
636.331	0.0159212
636.409	0.0158957
636.487	0.0162017
636.565	0.0159307
636.643	0.0158955
636.721	0.0159516
636.799	0.0159033
636.878	0.0159421
636.956	0.0161950
637.034	0.0159890
637.112	0.0159356
637.190	0.0159278
637.268	0.0161205
637.346	0.0159092
637.424	0.0160173
637.503	0.0158891
637.581	0.0158746
637.659	0.0159203
637.737	0.0159579
637.815	0.0159019
637.893	0.0159068
637.971	0.0159328
638.049	0.0158787
638.128	0.0159033
638.206	0.0159653
638.284	0.0159033
638.362	0.0161041
638.440	0.0158757
638.518	0.0157922
638.596	0.0159544
638.674	0.0161845
638.753	0.0160523
638.831	0.0159493
638.909	0.0158389
638.987	0.0159505
639.065	0.0159829
639.143	0.0158109
639.221	0.0158661
639.299	0.0159242
639.378	0.0158570
639.456	0.0157752
639.534	0.0158812
639.612	0.0158270
639.690	0.0158099
639.768	0.0158238
639.846	0.0157632
639.924	0.0161295
640.003	0.0160813
640.081	0.0158829
640.159	0.0158817
640.237	0.0158943
640.315	0.0158787
640.393	0.0159667
640.471	0.0159333
640.549	0.0159167
640.628	0.0159296
640.706	0.0159206
640.784	0.0159807
640.862	0.0160164
640.940	0.0159560
641.018	0.0159473
641.096	0.0157168
641.174	0.0160098
641.253	0.0159234
641.331	0.0159093
641.409	0.0160098
641.487	0.0160330
641.565	0.0160290
641.643	0.0161268
641.721	0.0160100
641.799	0.0158527
641.878	0.0158871
641.956	0.0159797
642.034	0.0160417
642.112	0.0158249
642.190	0.0159091
642.268	0.0160219
642.346	0.0159704
642.424	0.0158842
642.503	0.0161288
642.581	0.0158777
642.659	0.0159351
642.737	0.0160966
642.815	0.0159470
642.893	0.0159848
642.971	0.0159686
643.049	0.0159206
643.128	0.0159250
643.206	0.0158683
643.284	0.0158556
643.362	0.0158263
643.440	0.0159922
643.518	0.0160601
643.596	0.0159233
643.674	0.0158314
643.753	0.0159849
643.831	0.0159755
643.909	0.0158937
643.987	0.0158122
644.065	0.0160086
644.143	0.0158850
644.221	0.0159881
644.299	0.0159692
644.378	0.0159959
644.456	0.0158207
644.534	0.0158444
644.612	0.0158926
644.690	0.0159057
644.768	0.0158868
644.846	0.0157704
644.924	0.0159529
645.003	0.0160437
645.081	0.0159796
645.159	0.0159579
645.237	0.0159683
645.315	0.0159514
645.393	0.0159350
645.471	0.0158613
645.549	0.0158710
645.628	0.0159319
645.706	0.0159464
645.784	0.0159784
645.862	0.0159401
645.940	0.0159013
646.018	0.0160245
646.096	0.0160072
646.174	0.0160123
646.253	0.0161719
646.331	0.0161196
646.409	0.0160157
646.487	0.0160175
646.565	0.0158714
646.643	0.0160629
646.721	0.0161041
646.799	0.0159079
646.878	0.0158797
646.956	0.0160384
647.034	0.0159518
647.112	0.0159766
647.190	0.0159455
647.268	0.0159540
647.346	0.0159441
647.424	0.0159007
647.503	0.0159525
647.581	0.0160204
647.659	0.0160568
647.737	0.0159406
647.815	0.0158459
647.893	0.0159120
647.971	0.0159809
648.049	0.0159430
648.128	0.0159727
648.206	0.0159172
648.284	0.0159913
648.362	0.0159655
648.440	0.0158835
648.518	0.0158849
648.596	0.0159349
648.674	0.0160045
648.753	0.0158613
648.831	0.0160396
648.909	0.0160295
648.987	0.0158524
649.065	0.0161121
649.143	0.0159019
649.221	0.0159609
649.299	0.0159511
649.378	0.0159768
649.456	0.0160258
649.534	0.0158586
649.612	0.0157690
649.690	0.0158429
649.768	0.0158065
649.846	0.0158087
649.924	0.0159444
650.003	0.0158549
650.081	0.0157344
650.159	0.0158145
650.237	0.0158462
650.315	0.0159994
650.393	0.0159763
650.471	0.0158066
650.549	0.0159627
650.628	0.0158488
650.706	0.0158601
650.784	0.0156950
650.862	0.0159209
650.940	0.0158532
651.018	0.0158231
651.096	0.0159165
651.174	0.0158496
651.253	0.0159081
651.331	0.0160236
651.409	0.0161021
651.487	0.0158288
651.565	0.0159024
651.643	0.0159485
651.721	0.0159395
651.799	0.0159831
651.878	0.0160522
651.956	0.0159938
652.034	0.0160797
652.112	0.0159426
652.190	0.0159628
652.268	0.0160521
652.346	0.0159961
652.424	0.0159365
652.503	0.0159928
652.581	0.0159797
652.659	0.0160269
652.737	0.0160726
652.815	0.0160485
652.893	0.0160931
652.971	0.0158073
653.049	0.0159492
653.128	0.0160139
653.206	0.0159839
653.284	0.0159953
653.362	0.0159557
653.440	0.0160056
653.518	0.0159635
653.596	0.0159581
653.674	0.0160041
653.753	0.0161231
653.831	0.0161209
653.909	0.0159660
653.987	0.0159057
654.065	0.0159559
654.143	0.0158730
654.221	0.0159753
654.299	0.0161137
654.378	0.0161847
654.456	0.0159454
654.534	0.0160322
654.612	0.0159898
654.690	0.0160571
654.768	0.0161488
654.846	0.0160596
654.924	0.0159400
655.003	0.0160962
655.081	0.0161912
655.159	0.0160973
655.237	0.0160323
655.315	0.0160851
655.393	0.0160577
655.471	0.0159989
655.549	0.0160796
655.628	0.0160435
655.706	0.0160216
655.784	0.0160715
655.862	0.0159633
655.940	0.0159820
656.018	0.0160389
656.096	0.0159461
656.174	0.0160674
656.253	0.0160610
656.331	0.0158410
656.409	0.0158845
656.487	0.0159319
656.565	0.0160542
656.643	0.0160374
656.721	0.0160904
656.799	0.0159190
656.878	0.0160208
656.956	0.0160012
657.034	0.0159460
657.112	0.0160437
657.190	0.0159328
657.268	0.0158492
657.346	0.0159143
657.424	0.0160120
657.503	0.0159743
657.581	0.0159058
657.659	0.0159329
657.737	0.0158672
657.815	0.0159294
657.893	0.0159492
657.971	0.0159904
658.049	0.0159771
658.128	0.0158311
658.206	0.0158521
658.284	0.0159050
658.362	0.0160141
658.440	0.0159652
658.518	0.0158977
658.596	0.0159944
658.674	0.0159516
658.753	0.0160344
658.831	0.0158903
658.909	0.0159177
658.987	0.0159340
659.065	0.0158238
659.143	0.0159655
659.221	0.0160429
659.299	0.0159583
659.378	0.0159540
659.456	0.0159925
659.534	0.0159676
659.612	0.0159456
659.690	0.0158376
659.768	0.0159423
659.846	0.0159734
659.924	0.0158908
660.003	0.0159237
660.081	0.0159366
660.159	0.0158554
660.237	0.0159104
660.315	0.0160027
660.393	0.0159136
660.471	0.0159680
660.549	0.0158891
660.628	0.0159135
660.706	0.0159107
660.784	0.0159984
660.862	0.0159113
660.940	0.0160162
661.018	0.0158939
661.096	0.0159819
661.174	0.0159504
661.253	0.0159058
661.331	0.0159010
661.409	0.0159595
661.487	0.0160117
661.565	0.0157644
661.643	0.0158909
661.721	0.0158814
661.799	0.0159412
661.878	0.0158102
661.956	0.0158029
662.034	0.0158807
662.112	0.0158875
662.190	0.0159373
662.268	0.0160480
662.346	0.0157966
662.424	0.0159396
662.503	0.0159857
662.581	0.0158362
662.659	0.0158225
662.737	0.0158096
662.815	0.0158020
662.893	0.0158197
662.971	0.0158360
663.049	0.0156449
663.128	0.0158453
663.206	0.0159478
663.284	0.0158356
663.362	0.0157964
663.440	0.0158511
663.518	0.0157909
663.596	0.0157935
663.674	0.0158678
663.753	0.0158581
663.831	0.0158088
663.909	0.0160535
663.987	0.0158865
664.065	0.0157851
664.143	0.0160105
664.221	0.0158809
664.299	0.0158309
664.378	0.0159811
664.456	0.0158618
664.534	0.0159607
664.612	0.0158621
664.690	0.0160101
664.768	0.0159177
664.846	0.0158139
664.924	0.0158530
665.003	0.0159405
665.081	0.0159619
665.159	0.0158807
665.237	0.0158442
665.315	0.0158349
665.393	0.0159801
665.471	0.0159174
665.549	0.0159692
665.628	0.0158815
665.706	0.0159826
665.784	0.0160529
665.862	0.0160085
665.940	0.0158738
666.018	0.0158482
666.096	0.0159362
666.174	0.0158604
666.253	0.0159631
666.331	0.0158573
666.409	0.0158508
666.487	0.0158652
666.565	0.0159134
666.643	0.0159739
666.721	0.0159318
666.799	0.0159267
666.878	0.0158613
666.956	0.0158270
667.034	0.0158879
667.112	0.0159550
667.190	0.0158678
667.268	0.0158472
667.346	0.0158952
667.424	0.0159801
667.503	0.0157689
667.581	0.0158092
667.659	0.0158566
667.737	0.0157911
667.815	0.0158265
667.893	0.0158962
667.971	0.0159192
668.049	0.0158074
668.128	0.0158311
668.206	0.0159402
668.284	0.0158676
668.362	0.0158560
668.440	0.0158605
668.518	0.0158359
668.596	0.0159600
668.674	0.0158380
668.753	0.0157583
668.831	0.0159043
668.909	0.0159758
668.987	0.0159643
669.065	0.0159352
669.143	0.0158589
669.221	0.0158966
669.299	0.0159309
669.378	0.0159102
669.456	0.0159109
669.534	0.0159203
669.612	0.0158533
669.690	0.0159200
669.768	0.0159265
669.846	0.0158845
669.924	0.0161861
670.003	0.0160397
670.081	0.0157681
670.159	0.0159029
670.237	0.0159142
670.315	0.0159505
670.393	0.0159445
670.471	0.0159084
670.549	0.0159850
670.628	0.0159822
670.706	0.0159216
670.784	0.0159184
670.862	0.0159200
670.940	0.0159321
671.018	0.0160211
671.096	0.0159833
671.174	0.0159923
671.253	0.0160326
671.331	0.0160143
671.409	0.0161079
671.487	0.0161251
671.565	0.0160546
671.643	0.0159100
671.721	0.0159414
671.799	0.0160450
671.878	0.0160364
671.956	0.0159006
672.034	0.0160194
672.112	0.0162150
672.190	0.0161871
672.268	0.0159424
672.346	0.0159821
672.424	0.0159200
672.503	0.0159296
672.581	0.0160586
672.659	0.0160500
672.737	0.0160417
672.815	0.0160186
672.893	0.0161233
672.971	0.0161153
673.049	0.0159664
673.128	0.0159734
673.206	0.0159595
673.284	0.0160044
673.362	0.0160353
673.440	0.0160284
673.518	0.0159580
673.596	0.0161131
673.674	0.0159892
673.753	0.0160478
673.831	0.0160792
673.909	0.0159639
673.987	0.0159726
674.065	0.0159704
674.143	0.0159485
674.221	0.0159671
674.299	0.0160611
674.378	0.0160608
674.456	0.0159630
674.534	0.0159944
674.612	0.0158798
674.690	0.0159824
674.768	0.0160287
674.846	0.0159600
674.924	0.0160945
675.003	0.0159197
675.081	0.0160002
675.159	0.0160703
675.237	0.0161437
675.315	0.0159399
675.393	0.0159641
675.471	0.0159234
675.549	0.0159792
675.628	0.0159772
675.706	0.0158839
675.784	0.0160226
675.862	0.0159187
675.940	0.0158939
676.018	0.0158778
676.096	0.0158695
676.174	0.0159085
676.253	0.0159496
676.331	0.0159890
676.409	0.0159567
676.487	0.0159047
676.565	0.0159929
676.643	0.0157484
676.721	0.0159054
676.799	0.0160845
676.878	0.0159306
676.956	0.0158770
677.034	0.0158852
677.112	0.0156828
677.190	0.0158252
677.268	0.0159106
677.346	0.0158664
677.424	0.0158737
677.503	0.0158684
677.581	0.0157402
677.659	0.0158338
677.737	0.0158697
677.815	0.0159168
677.893	0.0158504
677.971	0.0157817
678.049	0.0158757
678.128	0.0159016
678.206	0.0158630
678.284	0.0158675
678.362	0.0158302
678.440	0.0158524
678.518	0.0159103
678.596	0.0159605
678.674	0.0158089
678.753	0.0158263
678.831	0.0158045
678.909	0.0157619
678.987	0.0158342
679.065	0.0159196
679.143	0.0158773
679.221	0.0158675
679.299	0.0157108
679.378	0.0157589
679.456	0.0158337
679.534	0.0158251
679.612	0.0159735
679.690	0.0160456
679.768	0.0157408
679.846	0.0157265
679.924	0.0159136
680.003	0.0158974
680.081	0.0157843
680.159	0.0159040
680.237	0.0159868
680.315	0.0159675
680.393	0.0159766
680.471	0.0159585
680.549	0.0158039
680.628	0.0158237
680.706	0.0159609
680.784	0.0159377
680.862	0.0159382
680.940	0.0158727
681.018	0.0159617
681.096	0.0158867
681.174	0.0159725
681.253	0.0158611
681.331	0.0157880
681.409	0.0158943
681.487	0.0158631
681.565	0.0159960
681.643	0.0159847
681.721	0.0160507
681.799	0.0160114
681.878	0.0159364
681.956	0.0159748
682.034	0.0159626
682.112	0.0159925
682.190	0.0159507
682.268	0.0159750
682.346	0.0159962
682.424	0.0160254
682.503	0.0160620
682.581	0.0160287
682.659	0.0158726
682.737	0.0159217
682.815	0.0158792
682.893	0.0159719
682.971	0.0158363
683.049	0.0159262
683.128	0.0158920
683.206	0.0158614
683.284	0.0159016
683.362	0.0159300
683.440	0.0158918
683.518	0.0158697
683.596	0.0158802
683.674	0.0159046
683.753	0.0159377
683.831	0.0158992
683.909	0.0158704
683.987	0.0159351
684.065	0.0159316
684.143	0.0157742
684.221	0.0158147
684.299	0.0158729
684.378	0.0158774
684.456	0.0159441
684.534	0.0158958
684.612	0.0158907
684.690	0.0160797
684.768	0.0159756
684.846	0.0160093
684.924	0.0159034
685.003	0.0159685
685.081	0.0160170
685.159	0.0159148
685.237	0.0158344
685.315	0.0160137
685.393	0.0159877
685.471	0.0160835
685.549	0.0159881
685.628	0.0158810
685.706	0.0159191
685.784	0.0159695
685.862	0.0158501
685.940	0.0159644
686.018	0.0159422
686.096	0.0160378
686.174	0.0158897
686.253	0.0160059
686.331	0.0158798
686.409	0.0160873
686.487	0.0159511
686.565	0.0158791
686.643	0.0159756
686.721	0.0160061
686.799	0.0159359
686.878	0.0160706
686.956	0.0159678
687.034	0.0158898
687.112	0.0160682
687.190	0.0158767
687.268	0.0159669
687.346	0.0158736
687.424	0.0160223
687.503	0.0159275
687.581	0.0157741
687.659	0.0159978
687.737	0.0159191
687.815	0.0159065
687.893	0.0159558
687.971	0.0158217
688.049	0.0159644
688.128	0.0160718
688.206	0.0160207
688.284	0.0159106
688.362	0.0159049
688.440	0.0159406
688.518	0.0159795
688.596	0.0158836
688.674	0.0160101
688.753	0.0159875
688.831	0.0160220
688.909	0.0159756
688.987	0.0159193
689.065	0.0160902
689.143	0.0159499
689.221	0.0158292
689.299	0.0160115
689.378	0.0158752
689.456	0.0158869
689.534	0.0160260
689.612	0.0161919
689.690	0.0160201
689.768	0.0160414
689.846	0.0160442
689.924	0.0158607
690.003	0.0160421
690.081	0.0160601
690.159	0.0160014
690.237	0.0159904
690.315	0.0158952
690.393	0.0161565
690.471	0.0160059
690.549	0.0159112
690.628	0.0159571
690.706	0.0158938
690.784	0.0162022
690.862	0.0160260
690.940	0.0159008
691.018	0.0160247
691.096	0.0159508
691.174	0.0159633
691.253	0.0159695
691.331	0.0158343
691.409	0.0160310
691.487	0.0160050
691.565	0.0159900
691.643	0.0159528
691.721	0.0160767
691.799	0.0160407
691.878	0.0161033
691.956	0.0159097
692.034	0.0159588
692.112	0.0159240
692.190	0.0158716
692.268	0.0161059
692.346	0.0161632
692.424	0.0159222
692.503	0.0160133
692.581	0.0161189
692.659	0.0160805
692.737	0.0161291
692.815	0.0160124
692.893	0.0160735
692.971	0.0161095
693.049	0.0160788
693.128	0.0160361
693.206	0.0158659
693.284	0.0159432
693.362	0.0160175
693.440	0.0160204
693.518	0.0159010
693.596	0.0161100
693.674	0.0159921
693.753	0.0159240
693.831	0.0160030
693.909	0.0160229
693.987	0.0159044
694.065	0.0158761
694.143	0.0159647
694.221	0.0159097
694.299	0.0158086
694.378	0.0158129
694.456	0.0159333
694.534	0.0159370
694.612	0.0159297
694.690	0.0159779
694.768	0.0159958
694.846	0.0160796
694.924	0.0159329
695.003	0.0158550
695.081	0.0159491
695.159	0.0160519
695.237	0.0159486
695.315	0.0160518
695.393	0.0160361
695.471	0.0159577
695.549	0.0160445
695.628	0.0160613
695.706	0.0159607
695.784	0.0160466
695.862	0.0160358
695.940	0.0160212
696.018	0.0160045
696.096	0.0159715
696.174	0.0160511
696.253	0.0159445
696.331	0.0157782
696.409	0.0159804
696.487	0.0159702
696.565	0.0158669
696.643	0.0158076
696.721	0.0157366
696.799	0.0158441
696.878	0.0158600
696.956	0.0157008
697.034	0.0157063
697.112	0.0157579
697.190	0.0158041
697.268	0.0158585
697.346	0.0158456
697.424	0.0159349
697.503	0.0159404
697.581	0.0158942
697.659	0.0158271
697.737	0.0158636
697.815	0.0160015
697.893	0.0159000
697.971	0.0158693
698.049	0.0158891
698.128	0.0161761
698.206	0.0159167
698.284	0.0158976
698.362	0.0159237
698.440	0.0158289
698.518	0.0157553
698.596	0.0157748
698.674	0.0158172
698.753	0.0159119
698.831	0.0158590
698.909	0.0157352
698.987	0.0157165
699.065	0.0157191
699.143	0.0156937
699.221	0.0158303
699.299	0.0157478
699.378	0.0156538
699.456	0.0157358
699.534	0.0157987
699.612	0.0157397
699.690	0.0157483
699.768	0.0159496
699.846	0.0158578
699.924	0.0158652
700.003	0.0158467
700.081	0.0159984
700.159	0.0159744
700.237	0.0159114
700.315	0.0159804
700.393	0.0159187
700.471	0.0160168
700.549	0.0160330
700.628	0.0158188
700.706	0.0157971
700.784	0.0158767
700.862	0.0158657
700.940	0.0159834
701.018	0.0158746
701.096	0.0158872
701.174	0.0159356
701.253	0.0158418
701.331	0.0158428
701.409	0.0159091
701.487	0.0158520
701.565	0.0157526
701.643	0.0157559
701.721	0.0159315
701.799	0.0158777
701.878	0.0157626
701.956	0.0158823
702.034	0.0156879
702.112	0.0155707
702.190	0.0157760
702.268	0.0158521
702.346	0.0157897
702.424	0.0157005
702.503	0.0156268
702.581	0.0156622
702.659	0.0157756
702.737	0.0158173
702.815	0.0157242
702.893	0.0158533
702.971	0.0158636
703.049	0.0158588
703.128	0.0157339
703.206	0.0159274
703.284	0.0158485
703.362	0.0158540
703.440	0.0158897
703.518	0.0160361
703.596	0.0160378
703.674	0.0161575
703.753	0.0160314
703.831	0.0160250
703.909	0.0160901
703.987	0.0161164
704.065	0.0159527
704.143	0.0160689
704.221	0.0160449
704.299	0.0159902
704.378	0.0160165
704.456	0.0158952
704.534	0.0158109
704.612	0.0158582
704.690	0.0159192
704.768	0.0159879
704.846	0.0160122
704.924	0.0157873
705.003	0.0157780
705.081	0.0159131
705.159	0.0159286
705.237	0.0157825
705.315	0.0159777
705.393	0.0158451
705.471	0.0158961
705.549	0.0159330
705.628	0.0158598
705.706	0.0158916
705.784	0.0159475
705.862	0.0159636
705.940	0.0160336
706.018	0.0160294
706.096	0.0160415
706.174	0.0159575
706.253	0.0159569
706.331	0.0158364
706.409	0.0158583
706.487	0.0159180
706.565	0.0160924
706.643	0.0159946
706.721	0.0160767
706.799	0.0159437
706.878	0.0160504
706.956	0.0160513
707.034	0.0159738
707.112	0.0161275
707.190	0.0160854
707.268	0.0160564
707.346	0.0161676
707.424	0.0162465
707.503	0.0162742
707.581	0.0162644
707.659	0.0161623
707.737	0.0162213
707.815	0.0163311
707.893	0.0162276
707.971	0.0162422
708.049	0.0161890
708.128	0.0161758
708.206	0.0161650
708.284	0.0160775
708.362	0.0161474
708.440	0.0162544
708.518	0.0160851
708.596	0.0159543
708.674	0.0159906
708.753	0.0159854
708.831	0.0158244
708.909	0.0159068
708.987	0.0159352
709.065	0.0159109
709.143	0.0157758
709.221	0.0157262
709.299	0.0160105
709.378	0.0158668
709.456	0.0158292
709.534	0.0158524
709.612	0.0159751
709.690	0.0159381
709.768	0.0159487
709.846	0.0159782
709.924	0.0159335
710.003	0.0160497
710.081	0.0160106
710.159	0.0160108
710.237	0.0159180
710.315	0.0160159
710.393	0.0160091
710.471	0.0160452
710.549	0.0161127
710.628	0.0159779
710.706	0.0161179
710.784	0.0160618
710.862	0.0160696
710.940	0.0160315
711.018	0.0160126
711.096	0.0160386
711.174	0.0160581
711.253	0.0161150
711.331	0.0161417
711.409	0.0161664
711.487	0.0162460
711.565	0.0161397
711.643	0.0158858
711.721	0.0161048
711.799	0.0161211
711.878	0.0160571
711.956	0.0160497
712.034	0.0160932
712.112	0.0159750
712.190	0.0159818
712.268	0.0160233
712.346	0.0159691
712.424	0.0160724
712.503	0.0161310
712.581	0.0160054
712.659	0.0159572
712.737	0.0159258
712.815	0.0161283
712.893	0.0162172
712.971	0.0160020
713.049	0.0159449
713.128	0.0160285
713.206	0.0160146
713.284	0.0159524
713.362	0.0158806
713.440	0.0160918
713.518	0.0160771
713.596	0.0160230
713.674	0.0160165
713.753	0.0160263
713.831	0.0158770
713.909	0.0158621
713.987	0.0157603
714.065	0.0158358
714.143	0.0159019
714.221	0.0158388
714.299	0.0157296
714.378	0.0158095
714.456	0.0158683
714.534	0.0158470
714.612	0.0158027
714.690	0.0158569
714.768	0.0157564
714.846	0.0160766
714.924	0.0161054
715.003	0.0159193
715.081	0.0160214
715.159	0.0159245
715.237	0.0158070
715.315	0.0159547
715.393	0.0159039
715.471	0.0158649
715.549	0.0159689
715.628	0.0158736
715.706	0.0159781
715.784	0.0158965
715.862	0.0159428
715.940	0.0158182
716.018	0.0159708
716.096	0.0160787
716.174	0.0160703
716.253	0.0162772
716.331	0.0162167
716.409	0.0161803
716.487	0.0162564
716.565	0.0163862
716.643	0.0162526
716.721	0.0163805
716.799	0.0163911
716.878	0.0162799
716.956	0.0162468
717.034	0.0163493
717.112	0.0162686
717.190	0.0162308
717.268	0.0159093
717.346	0.0159396
717.424	0.0160304
717.503	0.0159175
717.581	0.0158199
717.659	0.0158440
717.737	0.0158030
717.815	0.0156681
717.893	0.0156303
717.971	0.0155094
718.049	0.0154746
718.128	0.0155028
718.206	0.0155390
718.284	0.0156291
718.362	0.0157214
718.440	0.0156330
718.518	0.0156625
718.596	0.0157013
718.674	0.0157130
718.753	0.0156655
718.831	0.0158949
718.909	0.0159358
718.987	0.0160033
719.065	0.0160252
719.143	0.0160207
719.221	0.0159724
719.299	0.0161109
719.378	0.0162431
719.456	0.0162382
719.534	0.0161275
719.612	0.0160670
719.690	0.0161472
719.768	0.0162003
719.846	0.0162560
719.924	0.0160580
720.003	0.0159421
720.081	0.0160793
720.159	0.0160194
720.237	0.0159557
720.315	0.0159344
720.393	0.0158558
720.471	0.0158474
720.549	0.0156532
720.628	0.0159347
720.706	0.0157121
720.784	0.0158064
720.862	0.0155726
720.940	0.0156666
721.018	0.0156065
721.096	0.0156358
721.174	0.0156481
721.253	0.0156877
721.331	0.0155656
721.409	0.0156574
721.487	0.0157509
721.565	0.0157760
721.643	0.0158047
721.721	0.0158640
721.799	0.0158529
721.878	0.0158621
721.956	0.0158640
722.034	0.0159896
722.112	0.0161137
722.190	0.0160958
722.268	0.0162003
722.346	0.0162616
722.424	0.0162479
722.503	0.0162071
722.581	0.0163106
722.659	0.0163013
722.737	0.0164593
722.815	0.0162643
722.893	0.0163056
722.971	0.0163085
723.049	0.0163794
723.128	0.0163509
723.206	0.0162623
723.284	0.0162125
723.362	0.0163006
723.440	0.0161776
723.518	0.0162889
723.596	0.0160325
723.674	0.0159881
723.753	0.0159635
723.831	0.0158966
723.909	0.0158105
723.987	0.0156144
724.065	0.0155704
724.143	0.0155312
724.221	0.0154626
724.299	0.0154359
724.378	0.0154301
724.456	0.0152227
724.534	0.0151646
724.612	0.0152444
724.690	0.0152785
724.768	0.0151904
724.846	0.0151175
724.924	0.0151742
725.003	0.0152799
725.081	0.0154689
725.159	0.0155918
725.237	0.0156109
725.315	0.0156158
725.393	0.0156355
725.471	0.0157445
725.549	0.0160053
725.628	0.0159660
725.706	0.0161309
725.784	0.0161880
725.862	0.0163068
725.940	0.0164438
726.018	0.0163512
726.096	0.0164574
726.174	0.0166496
726.253	0.0167169
726.331	0.0166843
726.409	0.0167547
726.487	0.0167507
726.565	0.0166749
726.643	0.0164738
726.721	0.0165929
726.799	0.0165138
726.878	0.0165336
726.956	0.0163962
727.034	0.0161499
727.112	0.0160699
727.190	0.0161021
727.268	0.0159959
727.346	0.0157437
727.424	0.0157767
727.503	0.0157257
727.581	0.0157169
727.659	0.0156632
727.737	0.0157311
727.815	0.0155437
727.893	0.0156188
727.971	0.0156086
728.049	0.0155188
728.128	0.0156478
728.206	0.0154749
728.284	0.0155575
728.362	0.0154462
728.440	0.0155561
728.518	0.0155474
728.596	0.0154646
728.674	0.0154344
728.753	0.0155002
728.831	0.0154408
728.909	0.0156139
728.987	0.0155443
729.065	0.0156361
729.143	0.0157236
729.221	0.0155092
729.299	0.0157503
729.378	0.0157738
729.456	0.0158545
729.534	0.0158128
729.612	0.0160310
729.690	0.0159911
729.768	0.0159779
729.846	0.0161057
729.924	0.0162152
730.003	0.0162278
730.081	0.0163634
730.159	0.0164402
730.237	0.0163331
730.315	0.0163618
730.393	0.0163465
730.471	0.0163171
730.549	0.0162609
730.628	0.0161949
730.706	0.0162918
730.784	0.0161177
730.862	0.0162057
730.940	0.0162466
731.018	0.0161357
731.096	0.0161869
731.174	0.0162056
731.253	0.0162095
731.331	0.0161714
731.409	0.0162653
731.487	0.0161633
731.565	0.0160453
731.643	0.0162475
731.721	0.0161257
731.799	0.0162959
731.878	0.0162557
731.956	0.0162695
732.034	0.0163565
732.112	0.0163363
732.190	0.0162192
732.268	0.0162550
732.346	0.0163074
732.424	0.0163822
732.503	0.0162570
732.581	0.0160941
732.659	0.0162295
732.737	0.0161275
732.815	0.0162479
732.893	0.0161166
732.971	0.0162534
733.049	0.0160014
733.128	0.0159985
733.206	0.0160452
733.284	0.0160380
733.362	0.0157922
733.440	0.0158601
733.518	0.0159695
733.596	0.0157166
733.674	0.0157195
733.753	0.0155963
733.831	0.0157316
733.909	0.0155116
733.987	0.0154204
734.065	0.0156372
734.143	0.0154648
734.221	0.0153760
734.299	0.0154203
734.378	0.0152834
734.456	0.0153204
734.534	0.0154212
734.612	0.0154755
734.690	0.0155254
734.768	0.0154755
734.846	0.0155473
734.924	0.0157557
735.003	0.0157492
735.081	0.0159525
735.159	0.0159946
735.237	0.0160189
735.315	0.0161112
735.393	0.0163195
735.471	0.0163703
735.549	0.0163891
735.628	0.0165646
735.706	0.0165730
735.784	0.0166089
735.862	0.0167561
735.940	0.0168822
736.018	0.0168721
736.096	0.0168252
736.174	0.0168501
736.253	0.0167291
736.331	0.0166875
736.409	0.0166177
736.487	0.0167960
736.565	0.0166811
736.643	0.0165419
736.721	0.0164103
736.799	0.0164473
736.878	0.0164355
736.956	0.0163004
737.034	0.0162761
737.112	0.0160297
737.190	0.0160386
737.268	0.0158445
737.346	0.0157681
737.424	0.0156629
737.503	0.0154946
737.581	0.0156089
737.659	0.0154946
737.737	0.0153629
737.815	0.0151008
737.893	0.0150673
737.971	0.0150692
738.049	0.0150324
738.128	0.0148190
738.206	0.0149192
738.284	0.0149548
738.362	0.0147722
738.440	0.0147746
738.518	0.0146975
738.596	0.0148511
738.674	0.0148319
738.753	0.0149088
738.831	0.0149973
738.909	0.0150574
738.987	0.0151897
739.065	0.0153995
739.143	0.0155662
739.221	0.0158064
739.299	0.0158280
739.378	0.0159882
739.456	0.0161703
739.534	0.0164239
739.612	0.0166017
739.690	0.0166252
739.768	0.0168245
739.846	0.0169727
739.924	0.0170982
740.003	0.0170290
740.081	0.0171828
740.159	0.0172410
740.237	0.0172319
740.315	0.0171207
740.393	0.0171885
740.471	0.0170747
740.549	0.0170686
740.628	0.0170356
740.706	0.0170283
740.784	0.0169595
740.862	0.0167078
740.940	0.0167214
741.018	0.0165392
741.096	0.0164738
741.174	0.0163132
741.253	0.0160347
741.331	0.0159818
741.409	0.0159007
741.487	0.0157676
741.565	0.0155549
741.643	0.0154601
741.721	0.0153789
741.799	0.0153648
741.878	0.0152540
741.956	0.0149850
742.034	0.0151383
742.112	0.0150356
742.190	0.0150872
742.268	0.0149284
742.346	0.0148555
742.424	0.0149187
742.503	0.0149553
742.581	0.0148598
742.659	0.0151774
742.737	0.0150370
742.815	0.0151637
742.893	0.0153374
742.971	0.0153060
743.049	0.0154089
743.128	0.0154603
743.206	0.0156574
743.284	0.0156108
743.362	0.0157236
743.440	0.0159885
743.518	0.0159103
743.596	0.0158739
743.674	0.0160092
743.753	0.0160059
743.831	0.0161177
743.909	0.0162737
743.987	0.0162262
744.065	0.0163409
744.143	0.0164398
744.221	0.0162872
744.299	0.0162985
744.378	0.0162987
744.456	0.0163506
744.534	0.0164492
744.612	0.0163842
744.690	0.0163321
744.768	0.0163746
744.846	0.0164534
744.924	0.0165405
745.003	0.0164000
745.081	0.0164102
745.159	0.0164587
745.237	0.0164845
745.315	0.0164878
745.393	0.0164920
745.471	0.0165809
745.549	0.0163227
745.628	0.0163637
745.706	0.0162194
745.784	0.0162542
745.862	0.0162676
745.940	0.0160889
746.018	0.0162108
746.096	0.0161227
746.174	0.0161866
746.253	0.0161749
746.331	0.0159315
746.409	0.0159304
746.487	0.0158713
746.565	0.0156995
746.643	0.0157196
746.721	0.0155720
746.799	0.0155492
746.878	0.0157041
746.956	0.0156477
747.034	0.0152390
747.112	0.0154970
747.190	0.0155619
747.268	0.0155753
747.346	0.0155177
747.424	0.0156783
747.503	0.0155197
747.581	0.0154951
747.659	0.0156754
747.737	0.0156957
747.815	0.0155712
747.893	0.0155887
747.971	0.0157616
748.049	0.0157367
748.128	0.0157489
748.206	0.0157622
748.284	0.0157693
748.362	0.0158528
748.440	0.0159475
748.518	0.0158858
748.596	0.0159364
748.674	0.0159297
748.753	0.0159483
748.831	0.0159706
748.909	0.0158911
748.987	0.0160253
749.065	0.0160442
749.143	0.0159138
749.221	0.0159398
749.299	0.0158786
749.378	0.0158262
749.456	0.0159046
749.534	0.0158369
749.612	0.0156673
749.690	0.0157426
749.768	0.0158279
749.846	0.0158949
749.924	0.0160269
750.003	0.0159515
750.081	0.0162368
750.159	0.0162310
750.237	0.0161940
750.315	0.0163607
750.393	0.0163943
750.471	0.0165844
750.549	0.0166782
750.628	0.0167481
750.706	0.0166926
750.784	0.0167014
750.862	0.0169413
750.940	0.0168413
751.018	0.0168877
751.096	0.0168301
751.174	0.0166633
751.253	0.0168330
751.331	0.0165964
751.409	0.0164381
751.487	0.0165029
751.565	0.0164019
751.643	0.0163055
751.721	0.0161585
751.799	0.0160443
751.878	0.0159267
751.956	0.0158434
752.034	0.0157242
752.112	0.0156865
752.190	0.0157168
752.268	0.0155841
752.346	0.0154742
752.424	0.0152972
752.503	0.0153938
752.581	0.0154302
752.659	0.0154839
752.737	0.0154186
752.815	0.0153956
752.893	0.0153944
752.971	0.0154364
753.049	0.0154617
753.128	0.0154391
753.206	0.0154394
753.284	0.0156318
753.362	0.0156778
753.440	0.0158218
753.518	0.0156760
753.596	0.0157879
753.674	0.0160596
753.753	0.0158060
753.831	0.0158898
753.909	0.0159811
753.987	0.0161331
754.065	0.0160071
754.143	0.0160648
754.221	0.0159464
754.299	0.0161095
754.378	0.0161919
754.456	0.0162061
754.534	0.0162644
754.612	0.0161584
754.690	0.0160796
754.768	0.0162592
754.846	0.0161929
754.924	0.0162475
755.003	0.0162760
755.081	0.0163412
755.159	0.0162347
755.237	0.0161757
755.315	0.0163918
755.393	0.0161559
755.471	0.0162183
755.549	0.0162862
755.628	0.0163290
755.706	0.0164102
755.784	0.0163065
755.862	0.0162106
755.940	0.0163689
756.018	0.0162976
756.096	0.0164399
756.174	0.0165948
756.253	0.0165804
756.331	0.0164986
756.409	0.0163289
756.487	0.0165139
756.565	0.0164170
756.643	0.0162293
756.721	0.0165002
756.799	0.0163826
756.878	0.0162762
756.956	0.0162360
757.034	0.0161716
757.112	0.0160814
757.190	0.0159639
757.268	0.0157892
757.346	0.0158255
757.424	0.0156758
757.503	0.0156806
757.581	0.0157365
757.659	0.0155922
757.737	0.0156729
757.815	0.0156030
757.893	0.0157189
757.971	0.0156905
758.049	0.0156258
758.128	0.0156976
758.206	0.0159135
758.284	0.0158819
758.362	0.0158929
758.440	0.0160658
758.518	0.0161567
758.596	0.0161704
758.674	0.0164080
758.753	0.0162916
758.831	0.0163193
758.909	0.0163768
758.987	0.0164704
759.065	0.0163179
759.143	0.0164554
759.221	0.0165709
759.299	0.0163174
759.378	0.0162631
759.456	0.0163542
759.534	0.0162861
759.612	0.0161115
759.690	0.0159657
759.768	0.0159514
759.846	0.0158304
759.924	0.0157810
760.003	0.0157099
760.081	0.0157557
760.159	0.0156705
760.237	0.0157347
760.315	0.0157133
760.393	0.0156734
760.471	0.0156502
760.549	0.0157375
760.628	0.0156490
760.706	0.0156883
760.784	0.0157516
760.862	0.0159123
760.940	0.0156639
761.018	0.0159481
761.096	0.0159763
761.174	0.0159528
761.253	0.0159606
761.331	0.0160855
761.409	0.0160702
761.487	0.0162583
761.565	0.0160834
761.643	0.0161993
761.721	0.0161987
761.799	0.0162942
761.878	0.0163316
761.956	0.0163901
762.034	0.0163603
762.112	0.0161948
762.190	0.0164647
762.268	0.0163509
762.346	0.0164413
762.424	0.0163391
762.503	0.0161826
762.581	0.0161639
762.659	0.0160616
762.737	0.0160784
762.815	0.0159045
762.893	0.0158989
762.971	0.0158660
763.049	0.0157899
763.128	0.0156202
763.206	0.0156995
763.284	0.0157814
763.362	0.0154969
763.440	0.0154861
763.518	0.0156501
763.596	0.0156170
763.674	0.0157653
763.753	0.0160514
763.831	0.0158786
763.909	0.0157288
763.987	0.0158775
764.065	0.0158974
764.143	0.0157278
764.221	0.0158564
764.299	0.0158633
764.378	0.0158775
764.456	0.0160191
764.534	0.0156312
764.612	0.0159320
764.690	0.0158075
764.768	0.0157415
764.846	0.0158258
764.924	0.0157258
765.003	0.0158433
765.081	0.0159357
765.159	0.0158991
765.237	0.0157014
765.315	0.0159180
765.393	0.0158511
765.471	0.0156748
765.549	0.0156451
765.628	0.0158417
765.706	0.0158524
765.784	0.0157993
765.862	0.0158400
765.940	0.0157064
766.018	0.0157610
766.096	0.0158862
766.174	0.0157811
766.253	0.0156598
766.331	0.0156041
766.409	0.0156827
766.487	0.0156788
766.565	0.0156419
766.643	0.0157201
766.721	0.0157557
766.799	0.0157885
766.878	0.0156118
766.956	0.0156595
767.034	0.0157925
767.112	0.0157820
767.190	0.0157847
767.268	0.0158767
767.346	0.0157741
767.424	0.0158461
767.503	0.0156806
767.581	0.0158171
767.659	0.0160381
767.737	0.0160006
767.815	0.0160610
767.893	0.0161199
767.971	0.0162246
768.049	0.0162069
768.128	0.0164184
768.206	0.0162774
768.284	0.0163596
768.362	0.0163334
768.440	0.0163592
768.518	0.0162920
768.596	0.0163317
768.674	0.0163345
768.753	0.0163297
768.831	0.0163007
768.909	0.0161517
768.987	0.0160940
769.065	0.0160542
769.143	0.0161606
769.221	0.0160876
769.299	0.0160200
769.378	0.0159360
769.456	0.0157715
769.534	0.0159731
769.612	0.0159074
769.690	0.0159456
769.768	0.0156908
769.846	0.0157101
769.924	0.0157066
770.003	0.0156183
770.081	0.0155653
770.159	0.0156499
770.237	0.0157096
770.315	0.0155682
770.393	0.0155037
770.471	0.0154494
770.549	0.0157049
770.628	0.0155889
770.706	0.0156445
770.784	0.0155621
770.862	0.0155141
770.940	0.0155529
771.018	0.0157898
771.096	0.0156457
771.174	0.0157780
771.253	0.0157643
771.331	0.0158122
771.409	0.0159707
771.487	0.0158793
771.565	0.0158566
771.643	0.0158971
771.721	0.0159659
771.799	0.0161227
771.878	0.0160462
771.956	0.0161453
772.034	0.0161292
772.112	0.0160462
772.190	0.0162411
772.268	0.0161494
772.346	0.0162402
772.424	0.0161491
772.503	0.0162238
772.581	0.0162616
772.659	0.0163117
772.737	0.0161578
772.815	0.0161787
772.893	0.0161816
772.971	0.0162418
773.049	0.0160480
773.128	0.0161926
773.206	0.0159703
773.284	0.0160235
773.362	0.0160995
773.440	0.0159570
773.518	0.0159566
773.596	0.0159093
773.674	0.0160986
773.753	0.0159699
773.831	0.0161320
773.909	0.0160791
773.987	0.0160809
774.065	0.0159470
774.143	0.0160165
774.221	0.0160250
774.299	0.0159461
774.378	0.0159860
774.456	0.0160672
774.534	0.0160165
774.612	0.0159569
774.690	0.0158923
774.768	0.0160216
774.846	0.0159100
774.924	0.0159021
775.003	0.0159396
775.081	0.0157867
775.159	0.0157215
775.237	0.0158159
775.315	0.0157970
775.393	0.0157776
775.471	0.0158215
775.549	0.0157634
775.628	0.0158144
775.706	0.0157974
775.784	0.0157002
775.862	0.0158581
775.940	0.0158049
776.018	0.0158927
776.096	0.0157688
776.174	0.0159526
776.253	0.0159674
776.331	0.0160320
776.409	0.0159907
776.487	0.0160534
776.565	0.0160052
776.643	0.0161446
776.721	0.0161673
776.799	0.0161830
776.878	0.0161189
776.956	0.0162479
777.034	0.0162652
777.112	0.0162101
777.190	0.0163139
777.268	0.0162343
777.346	0.0161909
777.424	0.0162286
777.503	0.0162143
777.581	0.0161250
777.659	0.0160529
777.737	0.0159933
777.815	0.0160354
777.893	0.0158958
777.971	0.0158714
778.049	0.0158360
778.128	0.0158633
778.206	0.0158115
778.284	0.0158000
778.362	0.0158083
778.440	0.0159196
778.518	0.0157822
778.596	0.0159324
778.674	0.0158447
778.753	0.0158907
778.831	0.0160313
778.909	0.0158543
778.987	0.0159100
779.065	0.0159772
779.143	0.0159947
779.221	0.0159388
779.299	0.0160844
779.378	0.0160783
779.456	0.0160374
779.534	0.0160617
779.612	0.0161108
779.690	0.0160472
779.768	0.0160515
779.846	0.0160657
779.924	0.0160139
780.003	0.0159135
780.081	0.0159518
780.159	0.0161608
780.237	0.0161868
780.315	0.0161018
780.393	0.0160728
780.471	0.0162363
780.549	0.0161646
780.628	0.0159785
780.706	0.0158986
780.784	0.0159598
780.862	0.0159632
780.940	0.0160566
781.018	0.0160394
781.096	0.0162643
781.174	0.0160772
781.253	0.0159819
781.331	0.0160609
781.409	0.0159158
781.487	0.0159975
781.565	0.0157520
781.643	0.0158315
781.721	0.0159018
781.799	0.0156525
781.878	0.0158311
781.956	0.0157982
782.034	0.0156693
782.112	0.0156271
782.190	0.0156811
782.268	0.0157884
782.346	0.0157439
782.424	0.0157471
782.503	0.0157562
782.581	0.0157749
782.659	0.0158212
782.737	0.0157425
782.815	0.0156588
782.893	0.0158822
782.971	0.0159197
783.049	0.0157976
783.128	0.0157750
783.206	0.0157867
783.284	0.0158791
783.362	0.0159129
783.440	0.0159953
783.518	0.0158971
783.596	0.0158413
783.674	0.0159460
783.753	0.0159420
783.831	0.0159196
783.909	0.0159893
783.987	0.0159471
784.065	0.0160744
784.143	0.0160847
784.221	0.0161095
784.299	0.0162084
784.378	0.0160837
784.456	0.0159892
784.534	0.0160683
784.612	0.0160921
784.690	0.0161295
784.768	0.0160609
784.846	0.0160946
784.924	0.0160081
785.003	0.0160072
785.081	0.0160109
785.159	0.0159100
785.237	0.0159608
785.315	0.0159734
785.393	0.0160254
785.471	0.0158288
785.549	0.0158286
785.628	0.0159365
785.706	0.0158007
785.784	0.0157164
785.862	0.0159325
785.940	0.0159211
786.018	0.0158498
786.096	0.0159058
786.174	0.0158247
786.253	0.0158341
786.331	0.0158846
786.409	0.0157434
786.487	0.0159473
786.565	0.0157096
786.643	0.0158556
786.721	0.0159589
786.799	0.0159113
786.878	0.0158015
786.956	0.0159218
787.034	0.0158735
787.112	0.0157940
787.190	0.0158701
787.268	0.0158604
787.346	0.0158287
787.424	0.0158179
787.503	0.0158082
787.581	0.0158426
787.659	0.0157800
787.737	0.0157677
787.815	0.0157487
787.893	0.0158217
787.971	0.0158599
788.049	0.0157059
788.128	0.0156944
788.206	0.0160088
788.284	0.0158015
788.362	0.0157538
788.440	0.0157132
788.518	0.0159575
788.596	0.0158415
788.674	0.0158015
788.753	0.0158620
788.831	0.0157790
788.909	0.0158686
788.987	0.0158810
789.065	0.0158354
789.143	0.0158995
789.221	0.0157445
789.299	0.0158927
789.378	0.0158855
789.456	0.0159720
789.534	0.0160092
789.612	0.0160538
789.690	0.0160087
789.768	0.0158906
789.846	0.0160490
789.924	0.0158709
790.003	0.0160110
790.081	0.0159325
790.159	0.0159086
790.237	0.0158312
790.315	0.0158209
790.393	0.0158563
790.471	0.0157437
790.549	0.0158494
790.628	0.0158519
790.706	0.0157711
790.784	0.0156560
790.862	0.0156981
790.940	0.0158252
791.018	0.0156368
791.096	0.0157512
791.174	0.0156865
791.253	0.0157456
791.331	0.0157373
791.409	0.0156733
791.487	0.0157425
791.565	0.0158010
791.643	0.0157912
791.721	0.0158816
791.799	0.0157877
791.878	0.0158134
791.956	0.0158099
792.034	0.0160802
792.112	0.0158895
792.190	0.0157448
792.268	0.0158783
792.346	0.0159032
792.424	0.0157975
792.503	0.0158193
792.581	0.0161140
792.659	0.0160226
792.737	0.0159864
792.815	0.0159781
792.893	0.0158815
792.971	0.0161530
793.049	0.0160327
793.128	0.0161176
793.206	0.0159578
793.284	0.0159966
793.362	0.0160410
793.440	0.0159879
793.518	0.0159999
793.596	0.0159785
793.674	0.0158580
793.753	0.0159830
793.831	0.0160983
793.909	0.0159017
793.987	0.0157603
794.065	0.0157676
794.143	0.0158163
794.221	0.0157110
794.299	0.0157281
794.378	0.0157095
794.456	0.0156975
794.534	0.0156375
794.612	0.0156267
794.690	0.0155122
794.768	0.0157056
794.846	0.0157074
794.924	0.0156627
795.003	0.0155988
795.081	0.0157642
795.159	0.0159319
795.237	0.0157736
795.315	0.0158506
795.393	0.0160374
795.471	0.0160509
795.549	0.0160552
795.628	0.0160172
795.706	0.0161347
795.784	0.0162270
795.862	0.0163023
795.940	0.0161929
796.018	0.0160814
796.096	0.0160709
796.174	0.0161578
796.253	0.0161217
796.331	0.0161555
796.409	0.0161929
796.487	0.0160388
796.565	0.0160788
796.643	0.0160537
796.721	0.0161582
796.799	0.0159639
796.878	0.0160620
796.956	0.0160770
797.034	0.0159417
797.112	0.0160204
797.190	0.0159005
797.268	0.0159727
797.346	0.0160043
797.424	0.0159984
797.503	0.0160454
797.581	0.0160024
797.659	0.0160079
797.737	0.0161134
797.815	0.0161086
797.893	0.0161117
797.971	0.0160663
798.049	0.0159489
798.128	0.0160217
798.206	0.0160262
798.284	0.0160658
798.362	0.0160186
798.440	0.0160167
798.518	0.0160048
798.596	0.0160970
798.674	0.0160439
798.753	0.0160058
798.831	0.0160647
798.909	0.0158807
798.987	0.0159672
799.065	0.0160394
799.143	0.0160448
799.221	0.0160406
799.299	0.0160200
799.378	0.0161487
799.456	0.0159854
799.534	0.0160276
799.612	0.0159813
799.690	0.0158716
799.768	0.0159812
799.846	0.0159712
799.924	0.0160528
800.003	0.0160459
800.081	0.0159904
800.159	0.0159386
800.237	0.0161123
800.315	0.0159278
800.393	0.0157556
800.471	0.0158743
800.549	0.0159206
800.628	0.0158513
800.706	0.0158891
800.784	0.0157272
800.862	0.0159382
800.940	0.0159628
801.018	0.0158631
801.096	0.0159068
801.174	0.0160525
801.253	0.0158778
801.331	0.0158590
801.409	0.0159394
801.487	0.0160729
801.565	0.0160630
801.643	0.0160407
801.721	0.0160252
801.799	0.0160563
801.878	0.0161034
801.956	0.0161251
802.034	0.0159486
802.112	0.0160172
802.190	0.0159277
802.268	0.0159998
802.346	0.0159862
802.424	0.0159382
802.503	0.0156606
802.581	0.0159661
802.659	0.0159814
802.737	0.0157859
802.815	0.0158624
802.893	0.0159034
802.971	0.0158623
803.049	0.0158902
803.128	0.0158936
803.206	0.0157760
803.284	0.0157004
803.362	0.0158716
803.440	0.0158661
803.518	0.0159301
803.596	0.0158829
803.674	0.0160846
803.753	0.0160981
803.831	0.0159222
803.909	0.0161103
803.987	0.0161028
804.065	0.0160833
804.143	0.0160268
804.221	0.0159698
804.299	0.0159113
804.378	0.0160217
804.456	0.0159367
804.534	0.0158970
804.612	0.0159923
804.690	0.0160886
804.768	0.0160046
804.846	0.0158930
804.924	0.0158955
805.003	0.0159549
805.081	0.0159241
805.159	0.0158768
805.237	0.0159489
805.315	0.0159886
805.393	0.0159993
805.471	0.0159294
805.549	0.0159412
805.628	0.0159317
805.706	0.0161636
805.784	0.0159546
805.862	0.0159605
805.940	0.0160094
806.018	0.0158976
806.096	0.0160503
806.174	0.0159907
806.253	0.0159930
806.331	0.0159956
806.409	0.0159421
806.487	0.0160754
806.565	0.0158902
806.643	0.0160945
806.721	0.0160288
806.799	0.0159288
806.878	0.0158446
806.956	0.0157499
807.034	0.0159758
807.112	0.0160546
807.190	0.0159733
807.268	0.0158642
807.346	0.0158159
807.424	0.0159223
807.503	0.0159459
807.581	0.0159293
807.659	0.0160763
807.737	0.0158963
807.815	0.0159520
807.893	0.0158331
807.971	0.0159364
808.049	0.0159055
808.128	0.0159016
808.206	0.0158347
808.284	0.0159024
808.362	0.0158376
808.440	0.0157825
808.518	0.0159041
808.596	0.0159032
808.674	0.0159590
808.753	0.0159917
808.831	0.0160683
808.909	0.0159754
808.987	0.0158760
809.065	0.0160262
809.143	0.0159686
809.221	0.0160838
809.299	0.0159570
809.378	0.0159933
809.456	0.0160944
809.534	0.0159981
809.612	0.0160007
809.690	0.0162117
809.768	0.0160435
809.846	0.0160188
809.924	0.0159242
810.003	0.0159900
810.081	0.0158979
810.159	0.0159798
810.237	0.0160522
810.315	0.0157909
810.393	0.0159486
810.471	0.0159873
810.549	0.0160473
810.628	0.0158779
810.706	0.0159937
810.784	0.0159812
810.862	0.0158520
810.940	0.0159225
811.018	0.0159779
811.096	0.0160204
811.174	0.0157142
811.253	0.0158730
811.331	0.0158432
811.409	0.0158241
811.487	0.0159979
811.565	0.0156769
811.643	0.0158302
811.721	0.0157917
811.799	0.0158595
811.878	0.0158308
811.956	0.0159037
812.034	0.0159592
812.112	0.0158582
812.190	0.0159266
812.268	0.0160364
812.346	0.0159145
812.424	0.0159820
812.503	0.0160352
812.581	0.0160165
812.659	0.0159792
812.737	0.0160198
812.815	0.0160110
812.893	0.0160789
812.971	0.0160764
813.049	0.0158992
813.128	0.0158823
813.206	0.0158437
813.284	0.0159850
813.362	0.0158955
813.440	0.0158804
813.518	0.0159966
813.596	0.0158229
813.674	0.0156628
813.753	0.0157789
813.831	0.0157191
813.909	0.0156940
813.987	0.0157448
814.065	0.0157841
814.143	0.0157681
814.221	0.0156311
814.299	0.0157097
814.378	0.0158199
814.456	0.0157690
814.534	0.0158248
814.612	0.0158011
814.690	0.0156954
814.768	0.0158637
814.846	0.0157943
814.924	0.0157115
815.003	0.0159066
815.081	0.0159565
815.159	0.0160457
815.237	0.0161119
815.315	0.0159795
815.393	0.0162027
815.471	0.0159752
815.549	0.0160085
815.628	0.0160461
815.706	0.0161958
815.784	0.0161007
815.862	0.0161055
815.940	0.0161368
816.018	0.0161166
816.096	0.0161246
816.174	0.0161851
816.253	0.0160634
816.331	0.0160761
816.409	0.0160661
816.487	0.0161812
816.565	0.0160948
816.643	0.0160605
816.721	0.0159658
816.799	0.0159983
816.878	0.0160870
816.956	0.0159894
817.034	0.0160391
817.112	0.0159545
817.190	0.0159613
817.268	0.0159334
817.346	0.0159807
817.424	0.0157957
817.503	0.0157620
817.581	0.0157858
817.659	0.0159200
817.737	0.0158928
817.815	0.0158249
817.893	0.0160487
817.971	0.0159309
818.049	0.0160010
818.128	0.0159142
818.206	0.0159128
818.284	0.0161456
818.362	0.0162154
818.440	0.0161031
818.518	0.0160756
818.596	0.0161533
818.674	0.0162356
818.753	0.0162831
818.831	0.0162672
818.909	0.0162550
818.987	0.0162743
819.065	0.0163833
819.143	0.0162306
819.221	0.0163219
819.299	0.0163573
819.378	0.0161700
819.456	0.0162920
819.534	0.0161530
819.612	0.0162625
819.690	0.0161066
819.768	0.0161811
819.846	0.0161689
819.924	0.0162305
820.003	0.0161407
820.081	0.0159055
820.159	0.0161692
820.237	0.0161954
820.315	0.0159932
820.393	0.0160155
820.471	0.0160331
820.549	0.0160037
820.628	0.0158661
820.706	0.0159656
820.784	0.0160428
820.862	0.0159366
820.940	0.0158042
821.018	0.0157909
821.096	0.0157772
821.174	0.0158234
821.253	0.0157571
821.331	0.0157458
821.409	0.0159212
821.487	0.0157462
821.565	0.0157581
821.643	0.0158195
821.721	0.0157043
821.799	0.0160069
821.878	0.0158165
821.956	0.0159940
822.034	0.0159719
822.112	0.0159441
822.190	0.0160030
822.268	0.0159973
822.346	0.0160752
822.424	0.0160639
822.503	0.0160185
822.581	0.0160323
822.659	0.0160237
822.737	0.0161286
822.815	0.0160624
822.893	0.0161372
822.971	0.0160809
823.049	0.0161150
823.128	0.0159860
823.206	0.0160852
823.284	0.0160760
823.362	0.0161364
823.440	0.0160953
823.518	0.0161340
823.596	0.0160783
823.674	0.0159889
823.753	0.0161162
823.831	0.0159741
823.909	0.0160588
823.987	0.0159400
824.065	0.0160828
824.143	0.0161647
824.221	0.0160249
824.299	0.0159421
824.378	0.0159652
824.456	0.0160587
824.534	0.0159520
824.612	0.0160296
824.690	0.0160207
824.768	0.0160812
824.846	0.0160374
824.924	0.0159655
825.003	0.0160137
825.081	0.0160725
825.159	0.0161675
825.237	0.0159335
825.315	0.0159024
825.393	0.0160493
825.471	0.0160809
825.549	0.0160175
825.628	0.0159137
825.706	0.0159567
825.784	0.0160064
825.862	0.0158894
825.940	0.0159475
826.018	0.0159609
826.096	0.0159674
826.174	0.0157848
826.253	0.0159601
826.331	0.0158350
826.409	0.0158100
826.487	0.0158387
826.565	0.0160200
826.643	0.0159898
826.721	0.0159296
826.799	0.0158736
826.878	0.0159239
826.956	0.0159229
827.034	0.0158827
827.112	0.0159987
827.190	0.0159180
827.268	0.0160386
827.346	0.0161333
827.424	0.0159942
827.503	0.0160845
827.581	0.0161510
827.659	0.0159586
827.737	0.0159843
827.815	0.0161232
827.893	0.0161282
827.971	0.0161188
828.049	0.0162524
828.128	0.0161024
828.206	0.0160453
828.284	0.0162286
828.362	0.0161304
828.440	0.0160110
828.518	0.0159869
828.596	0.0160482
828.674	0.0161614
828.753	0.0159387
828.831	0.0158855
828.909	0.0160191
828.987	0.0160107
829.065	0.0160367
829.143	0.0159595
829.221	0.0159640
829.299	0.0159682
829.378	0.0159998
829.456	0.0159048
829.534	0.0159093
829.612	0.0158733
829.690	0.0160437
829.768	0.0160061
829.846	0.0160455
829.924	0.0159824
830.003	0.0156966
830.081	0.0159325
830.159	0.0159859
830.237	0.0158488
830.315	0.0159086
830.393	0.0158917
830.471	0.0158459
830.549	0.0158354
830.628	0.0158261
830.706	0.0158300
830.784	0.0157213
830.862	0.0158273
830.940	0.0160381
831.018	0.0157528
831.096	0.0158028
831.174	0.0159762
831.253	0.0161304
831.331	0.0160542
831.409	0.0158884
831.487	0.0157777
831.565	0.0159995
831.643	0.0159728
831.721	0.0160314
831.799	0.0160332
831.878	0.0161788
831.956	0.0161182
832.034	0.0160638
832.112	0.0160822
832.190	0.0160503
832.268	0.0162996
832.346	0.0161650
832.424	0.0159785
832.503	0.0159982
832.581	0.0161787
832.659	0.0162083
832.737	0.0159972
832.815	0.0161447
832.893	0.0160330
832.971	0.0159367
833.049	0.0159863
833.128	0.0161585
833.206	0.0161819
833.284	0.0159468
833.362	0.0160872
833.440	0.0160340
833.518	0.0159308
833.596	0.0159330
833.674	0.0159565
833.753	0.0160632
833.831	0.0159325
833.909	0.0159300
833.987	0.0160123
834.065	0.0158309
834.143	0.0158601
834.221	0.0158002
834.299	0.0158291
834.378	0.0158352
834.456	0.0158529
834.534	0.0156670
834.612	0.0157523
834.690	0.0157418
834.768	0.0156804
834.846	0.0157213
834.924	0.0158425
835.003	0.0157687
835.081	0.0157066
835.159	0.0156363
835.237	0.0157910
835.315	0.0157705
835.393	0.0157606
835.471	0.0158847
835.549	0.0158722
835.628	0.0158164
835.706	0.0159731
835.784	0.0160449
835.862	0.0162312
835.940	0.0161114
836.018	0.0161356
836.096	0.0161227
836.174	0.0161598
836.253	0.0161355
836.331	0.0159777
836.409	0.0161878
836.487	0.0161686
836.565	0.0162616
836.643	0.0161491
836.721	0.0161910
836.799	0.0162328
836.878	0.0162222
836.956	0.0161762
837.034	0.0162343
837.112	0.0161198
837.190	0.0161641
837.268	0.0162193
837.346	0.0160945
837.424	0.0161320
837.503	0.0160325
837.581	0.0161751
837.659	0.0161741
837.737	0.0161188
837.815	0.0161431
837.893	0.0161084
837.971	0.0161189
838.049	0.0160464
838.128	0.0159530
838.206	0.0158492
838.284	0.0159755
838.362	0.0160206
838.440	0.0159565
838.518	0.0158279
838.596	0.0158186
838.674	0.0158326
838.753	0.0157895
838.831	0.0157941
838.909	0.0157549
838.987	0.0158818
839.065	0.0158569
839.143	0.0157035
839.221	0.0159090
839.299	0.0158475
839.378	0.0158775
839.456	0.0159233
839.534	0.0158437
839.612	0.0156601
839.690	0.0158390
839.768	0.0158371
839.846	0.0158687
839.924	0.0159354
840.003	0.0159066
840.081	0.0160273
840.159	0.0158552
840.237	0.0160226
840.315	0.0160004
840.393	0.0159100
840.471	0.0160041
840.549	0.0158990
840.628	0.0160182
840.706	0.0159249
840.784	0.0160887
840.862	0.0160506
840.940	0.0159141
841.018	0.0160777
841.096	0.0160291
841.174	0.0160631
841.253	0.0160562
841.331	0.0161604
841.409	0.0160097
841.487	0.0160513
841.565	0.0161079
841.643	0.0161267
841.721	0.0161372
841.799	0.0161652
841.878	0.0160582
841.956	0.0160246
842.034	0.0160509
842.112	0.0160828
842.190	0.0160612
842.268	0.0159892
842.346	0.0160255
842.424	0.0159837
842.503	0.0157961
842.581	0.0160249
842.659	0.0160240
842.737	0.0159785
842.815	0.0159891
842.893	0.0158222
842.971	0.0158653
843.049	0.0158372
843.128	0.0157068
843.206	0.0157301
843.284	0.0157766
843.362	0.0157584
843.440	0.0158166
843.518	0.0157471
843.596	0.0156704
843.674	0.0158886
843.753	0.0157926
843.831	0.0156554
843.909	0.0158543
843.987	0.0157295
844.065	0.0156821
844.143	0.0157507
844.221	0.0159426
844.299	0.0158512
844.378	0.0158970
844.456	0.0158743
844.534	0.0159241
844.612	0.0159016
844.690	0.0159303
844.768	0.0159033
844.846	0.0159373
844.924	0.0159746
845.003	0.0160167
845.081	0.0159581
845.159	0.0160002
845.237	0.0162123
845.315	0.0160613
845.393	0.0160931
845.471	0.0161119
845.549	0.0159870
845.628	0.0159370
845.706	0.0160326
845.784	0.0159780
845.862	0.0160376
845.940	0.0161729
846.018	0.0159654
846.096	0.0159359
846.174	0.0160757
846.253	0.0160613
846.331	0.0159172
846.409	0.0160269
846.487	0.0160873
846.565	0.0160574
846.643	0.0160882
846.721	0.0161118
846.799	0.0162125
846.878	0.0160484
846.956	0.0160670
847.034	0.0161879
847.112	0.0163342
847.190	0.0161576
847.268	0.0161893
847.346	0.0161253
847.424	0.0160663
847.503	0.0161803
847.581	0.0161671
847.659	0.0160892
847.737	0.0161846
847.815	0.0162601
847.893	0.0161948
847.971	0.0162233
848.049	0.0163440
848.128	0.0162644
848.206	0.0162218
848.284	0.0161356
848.362	0.0161188
848.440	0.0160056
848.518	0.0160722
848.596	0.0161451
848.674	0.0161046
848.753	0.0160809
848.831	0.0158951
848.909	0.0159230
848.987	0.0160659
849.065	0.0160874
849.143	0.0160085
849.221	0.0158915
849.299	0.0159923
849.378	0.0158381
849.456	0.0158894
849.534	0.0158926
849.612	0.0158352
849.690	0.0157706
849.768	0.0159092
849.846	0.0158556
849.924	0.0159192
850.003	0.0158595
850.081	0.0159399
850.159	0.0159475
850.237	0.0160239
850.315	0.0157594
850.393	0.0159562
850.471	0.0159882
850.549	0.0160012
850.628	0.0158836
850.706	0.0159836
850.784	0.0160156
850.862	0.0159396
850.940	0.0160587
851.018	0.0159473
851.096	0.0161028
851.174	0.0160881
851.253	0.0160123
851.331	0.0161486
851.409	0.0160365
851.487	0.0161472
851.565	0.0161347
851.643	0.0160995
851.721	0.0162620
851.799	0.0160484
851.878	0.0161868
851.956	0.0161288
852.034	0.0160711
852.112	0.0160748
852.190	0.0159647
852.268	0.0161216
852.346	0.0160388
852.424	0.0161592
852.503	0.0160653
852.581	0.0159082
852.659	0.0158807
852.737	0.0159935
852.815	0.0160183
852.893	0.0158515
852.971	0.0159196
853.049	0.0158917
853.128	0.0157788
853.206	0.0157583
853.284	0.0158619
853.362	0.0157681
853.440	0.0158788
853.518	0.0158484
853.596	0.0157011
853.674	0.0157610
853.753	0.0158060
853.831	0.0157767
853.909	0.0158294
853.987	0.0159172
854.065	0.0157735
854.143	0.0159083
854.221	0.0159110
854.299	0.0158620
854.378	0.0159144
854.456	0.0158211
854.534	0.0159708
854.612	0.0160579
854.690	0.0159700
854.768	0.0159542
854.846	0.0158946
854.924	0.0159118
855.003	0.0161518
855.081	0.0160858
855.159	0.0159944
855.237	0.0160763
855.315	0.0159640
855.393	0.0159908
855.471	0.0158730
855.549	0.0158746
855.628	0.0159715
855.706	0.0160071
855.784	0.0160724
855.862	0.0159914
855.940	0.0159490
856.018	0.0160550
856.096	0.0159870
856.174	0.0159302
856.253	0.0161437
856.331	0.0160255
856.409	0.0159389
856.487	0.0159252
856.565	0.0159151
856.643	0.0159205
856.721	0.0159471
856.799	0.0158813
856.878	0.0159413
856.956	0.0159178
857.034	0.0159547
857.112	0.0159384
857.190	0.0159965
857.268	0.0158380
857.346	0.0160931
857.424	0.0160669
857.503	0.0160466
857.581	0.0159692
857.659	0.0158798
857.737	0.0159822
857.815	0.0161743
857.893	0.0161139
857.971	0.0159766
858.049	0.0160058
858.128	0.0161411
858.206	0.0160348
858.284	0.0160893
858.362	0.0160640
858.440	0.0160920
858.518	0.0160949
858.596	0.0160558
858.674	0.0161836
858.753	0.0162916
858.831	0.0162817
858.909	0.0160221
858.987	0.0159768
859.065	0.0161961
859.143	0.0160977
859.221	0.0160292
859.299	0.0160760
859.378	0.0160970
859.456	0.0159621
859.534	0.0160419
859.612	0.0160011
859.690	0.0160569
859.768	0.0161076
859.846	0.0161415
859.924	0.0160008
860.003	0.0161311
860.081	0.0160012
860.159	0.0160030
860.237	0.0160185
860.315	0.0160165
860.393	0.0159000
860.471	0.0159121
860.549	0.0159487
860.628	0.0158884
860.706	0.0160674
860.784	0.0159912
860.862	0.0158653
860.940	0.0159631
861.018	0.0159719
861.096	0.0158887
861.174	0.0160265
861.253	0.0160149
861.331	0.0159174
861.409	0.0158326
861.487	0.0159718
861.565	0.0159362
861.643	0.0158732
861.721	0.0159104
861.799	0.0159306
861.878	0.0160358
861.956	0.0160122
862.034	0.0158279
862.112	0.0158016
862.190	0.0158534
862.268	0.0157847
862.346	0.0158686
862.424	0.0159615
862.503	0.0159646
862.581	0.0159275
862.659	0.0158797
862.737	0.0158674
862.815	0.0158955
862.893	0.0158810
862.971	0.0158804
863.049	0.0159963
863.128	0.0159573
863.206	0.0158338
863.284	0.0159161
863.362	0.0159020
863.440	0.0157843
863.518	0.0158462
863.596	0.0159526
863.674	0.0159010
863.753	0.0160184
863.831	0.0158784
863.909	0.0157368
863.987	0.0159683
864.065	0.0160084
864.143	0.0157965
864.221	0.0158031
864.299	0.0160265
864.378	0.0160500
864.456	0.0159830
864.534	0.0159491
864.612	0.0160188
864.690	0.0160947
864.768	0.0158639
864.846	0.0159933
864.924	0.0160290
865.003	0.0159675
865.081	0.0158878
865.159	0.0159628
865.237	0.0160032
865.315	0.0159895
865.393	0.0159557
865.471	0.0160382
865.549	0.0158942
865.628	0.0158801
865.706	0.0157375
865.784	0.0160168
865.862	0.0158907
865.940	0.0160286
866.018	0.0158430
866.096	0.0157268
866.174	0.0158466
866.253	0.0158266
866.331	0.0158643
866.409	0.0157702
866.487	0.0157597
866.565	0.0157819
866.643	0.0159668
866.721	0.0157771
866.799	0.0158252
866.878	0.0157784
866.956	0.0157880
867.034	0.0157379
867.112	0.0158363
867.190	0.0158273
867.268	0.0159189
867.346	0.0159141
867.424	0.0158324
867.503	0.0159425
867.581	0.0157953
867.659	0.0159635
867.737	0.0158175
867.815	0.0156963
867.893	0.0158804
867.971	0.0159456
868.049	0.0159417
868.128	0.0159756
868.206	0.0157696
868.284	0.0159015
868.362	0.0159576
868.440	0.0160564
868.518	0.0159763
868.596	0.0159502
868.674	0.0159738
868.753	0.0159933
868.831	0.0159664
868.909	0.0159409
868.987	0.0160255
869.065	0.0160670
869.143	0.0158694
869.221	0.0160258
869.299	0.0160278
869.378	0.0160919
869.456	0.0159637
869.534	0.0159386
869.612	0.0158856
869.690	0.0158939
869.768	0.0159362
869.846	0.0159261
869.924	0.0159631
870.003	0.0159119
870.081	0.0159333
870.159	0.0159023
870.237	0.0159206
870.315	0.0159007
870.393	0.0158391
870.471	0.0158709
870.549	0.0159600
870.628	0.0160052
870.706	0.0158614
870.784	0.0159568
870.862	0.0159888
870.940	0.0158253
871.018	0.0159086
871.096	0.0158495
871.174	0.0158971
871.253	0.0160157
871.331	0.0159663
871.409	0.0159284
871.487	0.0160118
871.565	0.0159544
871.643	0.0159506
871.721	0.0159538
871.799	0.0159345
871.878	0.0160390
871.956	0.0158855
872.034	0.0158379
872.112	0.0158315
872.190	0.0158509
872.268	0.0157915
872.346	0.0159538
872.424	0.0159425
872.503	0.0157850
872.581	0.0158678
872.659	0.0158157
872.737	0.0158971
872.815	0.0158714
872.893	0.0158507
872.971	0.0161065
873.049	0.0159367
873.128	0.0159375
873.206	0.0159680
873.284	0.0159238
873.362	0.0160110
873.440	0.0158645
873.518	0.0158707
873.596	0.0159245
873.674	0.0158059
873.753	0.0158459
873.831	0.0160819
873.909	0.0159677
873.987	0.0158572
874.065	0.0159364
874.143	0.0160048
874.221	0.0158121
874.299	0.0158863
874.378	0.0159222
874.456	0.0158036
874.534	0.0158678
874.612	0.0157929
874.690	0.0158839
874.768	0.0159784
874.846	0.0159242
874.924	0.0159658
875.003	0.0160420
875.081	0.0159361
875.159	0.0160459
875.237	0.0160184
875.315	0.0159081
875.393	0.0160050
875.471	0.0159607
875.549	0.0158620
875.628	0.0159821
875.706	0.0159056
875.784	0.0159010
875.862	0.0160147
875.940	0.0159898
876.018	0.0160453
876.096	0.0161384
876.174	0.0160543
876.253	0.0159753
876.331	0.0160479
876.409	0.0159145
876.487	0.0160628
876.565	0.0160526
876.643	0.0161289
876.721	0.0161082
876.799	0.0159232
876.878	0.0160095
876.956	0.0161567
877.034	0.0160079
877.112	0.0160422
877.190	0.0160365
877.268	0.0161040
877.346	0.0160696
877.424	0.0160620
877.503	0.0160338
877.581	0.0161121
877.659	0.0160357
877.737	0.0160665
877.815	0.0160262
877.893	0.0159673
877.971	0.0159116
878.049	0.0159977
878.128	0.0161371
878.206	0.0158715
878.284	0.0158594
878.362	0.0159640
878.440	0.0160220
878.518	0.0159918
878.596	0.0159412
878.674	0.0159554
878.753	0.0160024
878.831	0.0161407
878.909	0.0161201
878.987	0.0159890
879.065	0.0160068
879.143	0.0160027
879.221	0.0160181
879.299	0.0160286
879.378	0.0160707
879.456	0.0162261
879.534	0.0161000
879.612	0.0159441
879.690	0.0162053
879.768	0.0161245
879.846	0.0159666
879.924	0.0160860
880.003	0.0161060
880.081	0.0160509
880.159	0.0161419
880.237	0.0160686
880.315	0.0160411
880.393	0.0160491
880.471	0.0161768
880.549	0.0160039
880.628	0.0159651
880.706	0.0161079
880.784	0.0160870
880.862	0.0159370
880.940	0.0160477
881.018	0.0161019
881.096	0.0161057
881.174	0.0159343
881.253	0.0160531
881.331	0.0160430
881.409	0.0160957
881.487	0.0159689
881.565	0.0159118
881.643	0.0160284
881.721	0.0160324
881.799	0.0161159
881.878	0.0161496
881.956	0.0160296
882.034	0.0158682
882.112	0.0160902
882.190	0.0161668
882.268	0.0160704
882.346	0.0160621
882.424	0.0161451
882.503	0.0160342
882.581	0.0160094
882.659	0.0159532
882.737	0.0160841
882.815	0.0160429
882.893	0.0159641
882.971	0.0160447
883.049	0.0160915
883.128	0.0160028
883.206	0.0159492
883.284	0.0159795
883.362	0.0160043
883.440	0.0159677
883.518	0.0159718
883.596	0.0160623
883.674	0.0160214
883.753	0.0160487
883.831	0.0161028
883.909	0.0159044
883.987	0.0160715
884.065	0.0159927
884.143	0.0160178
884.221	0.0159438
884.299	0.0159293
884.378	0.0160034
884.456	0.0159602
884.534	0.0159396
884.612	0.0159199
884.690	0.0158871
884.768	0.0158218
884.846	0.0157855
884.924	0.0158269
885.003	0.0158889
885.081	0.0158639
885.159	0.0158393
885.237	0.0158822
885.315	0.0158356
885.393	0.0157521
885.471	0.0159055
885.549	0.0158454
885.628	0.0160307
885.706	0.0160052
885.784	0.0159038
885.862	0.0158628
885.940	0.0160280
886.018	0.0159990
886.096	0.0160541
886.174	0.0159949
886.253	0.0160406
886.331	0.0160605
886.409	0.0160670
886.487	0.0159097
886.565	0.0160959
886.643	0.0159689
886.721	0.0160208
886.799	0.0159169
886.878	0.0157832
886.956	0.0158781
887.034	0.0160506
887.112	0.0158594
887.190	0.0158858
887.268	0.0158821
887.346	0.0157992
887.424	0.0157123
887.503	0.0159347
887.581	0.0158645
887.659	0.0158302
887.737	0.0157269
887.815	0.0159243
887.893	0.0159843
887.971	0.0158623
888.049	0.0157476
888.128	0.0157991
888.206	0.0157433
888.284	0.0159919
888.362	0.0159130
888.440	0.0158601
888.518	0.0159573
888.596	0.0158907
888.674	0.0159827
888.753	0.0160210
888.831	0.0158775
888.909	0.0159193
888.987	0.0158961
889.065	0.0158886
889.143	0.0158562
889.221	0.0159203
889.299	0.0160291
889.378	0.0158956
889.456	0.0158689
889.534	0.0160368
889.612	0.0158862
889.690	0.0157948
889.768	0.0159032
889.846	0.0158578
889.924	0.0157944
890.003	0.0158421
890.081	0.0158720
890.159	0.0158206
890.237	0.0158324
890.315	0.0158019
890.393	0.0158491
890.471	0.0159115
890.549	0.0157994
890.628	0.0156847
890.706	0.0157826
890.784	0.0158440
890.862	0.0158034
890.940	0.0159171
891.018	0.0157726
891.096	0.0157388
891.174	0.0158218
891.253	0.0158147
891.331	0.0157916
891.409	0.0158668
891.487	0.0159917
891.565	0.0158696
891.643	0.0157770
891.721	0.0160075
891.799	0.0159904
891.878	0.0159546
891.956	0.0158652
892.034	0.0158353
892.112	0.0159337
892.190	0.0159251
892.268	0.0159650
892.346	0.0159100
892.424	0.0159572
892.503	0.0159251
892.581	0.0159866
892.659	0.0158810
892.737	0.0158268
892.815	0.0158875
892.893	0.0159922
892.971	0.0160842
893.049	0.0158975
893.128	0.0158187
893.206	0.0159415
893.284	0.0159163
893.362	0.0158041
893.440	0.0160679
893.518	0.0158988
893.596	0.0158949
893.674	0.0159087
893.753	0.0157677
893.831	0.0160213
893.909	0.0159404
893.987	0.0159891
894.065	0.0158743
894.143	0.0158996
894.221	0.0159039
894.299	0.0158698
894.378	0.0159359
894.456	0.0159712
894.534	0.0159543
894.612	0.0160381
894.690	0.0159935
894.768	0.0160555
894.846	0.0160281
894.924	0.0161274
895.003	0.0162220
895.081	0.0159847
895.159	0.0160999
895.237	0.0161652
895.315	0.0160068
895.393	0.0160896
895.471	0.0161097
895.549	0.0161452
895.628	0.0160043
895.706	0.0159659
895.784	0.0159977
895.862	0.0159861
895.940	0.0159408
896.018	0.0159873
896.096	0.0159824
896.174	0.0159764
896.253	0.0158901
896.331	0.0159402
896.409	0.0159840
896.487	0.0158427
896.565	0.0158129
896.643	0.0160251
896.721	0.0159404
896.799	0.0160141
896.878	0.0158807
896.956	0.0159734
897.034	0.0160083
897.112	0.0160413
897.190	0.0160014
897.268	0.0160602
897.346	0.0159900
897.424	0.0160435
897.503	0.0160391
897.581	0.0161313
897.659	0.0161378
897.737	0.0159580
897.815	0.0160021
897.893	0.0159698
897.971	0.0160893
898.049	0.0160563
898.128	0.0159905
898.206	0.0160315
898.284	0.0159690
898.362	0.0160522
898.440	0.0160741
898.518	0.0160876
898.596	0.0159303
898.674	0.0159917
898.753	0.0160509
898.831	0.0161078
898.909	0.0159884
898.987	0.0160223
899.065	0.0159688
899.143	0.0158826
899.221	0.0161145
899.299	0.0161112
899.378	0.0160402
899.456	0.0160610
899.534	0.0160738
899.612	0.0160171
899.690	0.0159056
899.768	0.0160662
899.846	0.0160060
899.924	0.0160358
900.003	0.0159293
900.081	0.0159690
900.159	0.0159255
900.237	0.0159481
900.315	0.0160669
900.393	0.0159769
900.471	0.0159940
900.549	0.0159750
900.628	0.0160102
900.706	0.0160807
900.784	0.0159765
900.862	0.0158900
900.940	0.0159125
901.018	0.0159637
901.096	0.0159364
901.174	0.0159776
901.253	0.0158981
901.331	0.0160251
901.409	0.0158299
901.487	0.0160548
901.565	0.0159236
901.643	0.0158579
901.721	0.0159225
901.799	0.0159010
901.878	0.0159521
901.956	0.0159644
902.034	0.0158992
902.112	0.0158909
902.190	0.0157903
902.268	0.0158273
902.346	0.0160178
902.424	0.0157310
902.503	0.0158804
902.581	0.0157947
902.659	0.0158492
902.737	0.0158511
902.815	0.0157656
902.893	0.0158607
902.971	0.0158166
903.049	0.0158652
903.128	0.0158190
903.206	0.0159294
903.284	0.0158550
903.362	0.0158253
903.440	0.0159077
903.518	0.0159445
903.596	0.0159023
903.674	0.0159202
903.753	0.0159195
903.831	0.0158408
903.909	0.0158911
903.987	0.0159292
904.065	0.0158854
904.143	0.0159034
904.221	0.0158451
904.299	0.0159196
904.378	0.0160822
904.456	0.0160861
904.534	0.0159017
904.612	0.0158527
904.690	0.0157863
904.768	0.0157899
904.846	0.0158411
904.924	0.0158936
905.003	0.0160562
905.081	0.0159309
905.159	0.0159747
905.237	0.0159708
905.315	0.0159118
905.393	0.0159181
905.471	0.0160969
905.549	0.0160003
905.628	0.0159466
905.706	0.0159399
905.784	0.0159148
905.862	0.0159147
905.940	0.0159216
906.018	0.0160683
906.096	0.0159242
906.174	0.0159558
906.253	0.0158656
906.331	0.0159737
906.409	0.0159036
906.487	0.0159485
906.565	0.0159725
906.643	0.0158607
906.721	0.0159979
906.799	0.0160097
906.878	0.0159604
906.956	0.0159912
907.034	0.0160856
907.112	0.0158244
907.190	0.0159141
907.268	0.0160603
907.346	0.0159581
907.424	0.0159225
907.503	0.0159668
907.581	0.0159859
907.659	0.0157537
907.737	0.0158576
907.815	0.0159168
907.893	0.0160136
907.971	0.0158036
908.049	0.0158267
908.128	0.0159436
908.206	0.0158925
908.284	0.0159681
908.362	0.0160146
908.440	0.0159017
908.518	0.0157787
908.596	0.0158443
908.674	0.0159347
908.753	0.0159217
908.831	0.0160116
908.909	0.0158778
908.987	0.0158618
909.065	0.0158853
909.143	0.0157816
909.221	0.0158163
909.299	0.0159975
909.378	0.0158893
909.456	0.0157939
909.534	0.0158495
909.612	0.0159287
909.690	0.0157776
909.768	0.0158355
909.846	0.0159660
909.924	0.0159298
910.003	0.0160316
910.081	0.0159666
910.159	0.0159404
910.237	0.0159425
910.315	0.0159866
910.393	0.0159449
910.471	0.0160831
910.549	0.0158633
910.628	0.0160484
910.706	0.0160055
910.784	0.0158576
910.862	0.0159067
910.940	0.0158959
911.018	0.0159608
911.096	0.0159259
911.174	0.0158243
911.253	0.0159261
911.331	0.0158182
911.409	0.0158400
911.487	0.0158515
911.565	0.0159464
911.643	0.0159558
911.721	0.0158359
911.799	0.0159052
911.878	0.0158597
911.956	0.0158413
912.034	0.0158422
912.112	0.0159468
912.190	0.0158747
912.268	0.0158488
912.346	0.0158488
912.424	0.0159733
912.503	0.0159657
912.581	0.0157674
912.659	0.0158785
912.737	0.0159173
912.815	0.0160228
912.893	0.0158997
912.971	0.0158750
913.049	0.0160570
913.128	0.0159531
913.206	0.0159545
913.284	0.0159182
913.362	0.0159167
913.440	0.0159180
913.518	0.0161520
913.596	0.0160725
913.674	0.0159930
913.753	0.0160222
913.831	0.0159529
913.909	0.0158980
913.987	0.0161013
914.065	0.0159937
914.143	0.0158937
914.221	0.0160579
914.299	0.0160281
914.378	0.0160154
914.456	0.0160491
914.534	0.0159128
914.612	0.0161084
914.690	0.0160542
914.768	0.0160145
914.846	0.0158685
914.924	0.0159510
915.003	0.0159845
915.081	0.0159583
915.159	0.0158657
915.237	0.0160343
915.315	0.0159730
915.393	0.0158991
915.471	0.0160478
915.549	0.0160085
915.628	0.0160287
915.706	0.0159717
915.784	0.0159119
915.862	0.0159167
915.940	0.0159255
916.018	0.0159309
916.096	0.0158701
916.174	0.0158422
916.253	0.0159630
916.331	0.0161027
916.409	0.0158786
916.487	0.0159094
916.565	0.0159151
916.643	0.0160931
916.721	0.0160374
916.799	0.0160410
916.878	0.0159823
916.956	0.0159705
917.034	0.0159462
917.112	0.0161700
917.190	0.0160110
917.268	0.0160271
917.346	0.0159536
917.424	0.0160262
917.503	0.0160403
917.581	0.0160252
917.659	0.0161134
917.737	0.0160085
917.815	0.0162042
917.893	0.0160502
917.971	0.0159598
918.049	0.0159778
918.128	0.0161394
918.206	0.0160289
918.284	0.0160790
918.362	0.0160592
918.440	0.0160273
918.518	0.0159527
918.596	0.0159963
918.674	0.0160619
918.753	0.0160223
918.831	0.0160741
918.909	0.0160738
918.987	0.0159380
919.065	0.0161225
919.143	0.0160917
919.221	0.0160558
919.299	0.0159930
919.378	0.0159798
919.456	0.0159323
919.534	0.0160100
919.612	0.0159335
919.690	0.0160079
919.768	0.0160582
919.846	0.0159646
919.924	0.0159346
920.003	0.0160218
920.081	0.0161362
920.159	0.0160132
920.237	0.0161702
920.315	0.0160974
920.393	0.0161381
920.471	0.0160403
920.549	0.0162912
920.628	0.0161706
920.706	0.0161477
920.784	0.0161851
920.862	0.0160606
920.940	0.0161489
921.018	0.0161037
921.096	0.0161417
921.174	0.0161736
921.253	0.0160993
921.331	0.0161377
921.409	0.0161490
921.487	0.0160799
921.565	0.0162022
921.643	0.0159976
921.721	0.0161986
921.799	0.0161646
921.878	0.0162299
921.956	0.0162060
922.034	0.0160897
922.112	0.0161604
922.190	0.0160519
922.268	0.0160770
922.346	0.0161295
922.424	0.0159767
922.503	0.0159142
922.581	0.0161330
922.659	0.0160584
922.737	0.0161472
922.815	0.0160792
922.893	0.0160590
922.971	0.0158211
923.049	0.0158861
923.128	0.0160044
923.206	0.0159132
923.284	0.0158109
923.362	0.0158652
923.440	0.0158883
923.518	0.0158627
923.596	0.0158879
923.674	0.0158173
923.753	0.0158133
923.831	0.0158125
923.909	0.0158675
923.987	0.0159384
924.065	0.0157182
924.143	0.0158391
924.221	0.0157471
924.299	0.0159551
924.378	0.0158915
924.456	0.0158466
924.534	0.0159341
924.612	0.0160155
924.690	0.0159278
924.768	0.0158871
924.846	0.0159634
924.924	0.0157777
925.003	0.0159071
925.081	0.0159148
925.159	0.0159124
925.237	0.0158763
925.315	0.0160652
925.393	0.0159184
925.471	0.0158094
925.549	0.0159575
925.628	0.0157551
925.706	0.0159943
925.784	0.0159136
925.862	0.0159505
925.940	0.0159437
926.018	0.0159093
926.096	0.0160072
926.174	0.0158800
926.253	0.0160474
926.331	0.0159763
926.409	0.0160172
926.487	0.0159309
926.565	0.0159801
926.643	0.0160719
926.721	0.0160835
926.799	0.0160783
926.878	0.0160938
926.956	0.0160779
927.034	0.0160445
927.112	0.0160767
927.190	0.0160404
927.268	0.0160373
927.346	0.0159574
927.424	0.0161452
927.503	0.0160372
927.581	0.0160220
927.659	0.0160263
927.737	0.0160281
927.815	0.0160535
927.893	0.0160503
927.971	0.0158960
928.049	0.0159134
928.128	0.0158421
928.206	0.0159898
928.284	0.0159089
928.362	0.0160444
928.440	0.0160315
928.518	0.0158514
928.596	0.0157549
928.674	0.0159857
928.753	0.0158672
928.831	0.0158488
928.909	0.0159676
928.987	0.0157753
929.065	0.0158219
929.143	0.0158714
929.221	0.0157977
929.299	0.0159474
929.378	0.0159811
929.456	0.0158746
929.534	0.0158637
929.612	0.0159820
929.690	0.0159040
929.768	0.0159362
929.846	0.0157646
929.924	0.0158849
930.003	0.0160104
930.081	0.0158680
930.159	0.0159546
930.237	0.0160475
930.315	0.0160442
930.393	0.0160930
930.471	0.0159641
930.549	0.0159633
930.628	0.0160820
930.706	0.0157687
930.784	0.0159853
930.862	0.0160983
930.940	0.0159801
931.018	0.0160815
931.096	0.0160002
931.174	0.0159530
931.253	0.0159223
931.331	0.0158935
931.409	0.0159154
931.487	0.0157381
931.565	0.0159512
931.643	0.0158362
931.721	0.0157554
931.799	0.0158205
931.878	0.0157826
931.956	0.0157036
932.034	0.0157769
932.112	0.0156528
932.190	0.0156087
932.268	0.0157059
932.346	0.0155317
932.424	0.0155782
932.503	0.0156168
932.581	0.0156532
932.659	0.0156506
932.737	0.0156667
932.815	0.0156380
932.893	0.0156819
932.971	0.0157475
933.049	0.0157268
933.128	0.0156653
933.206	0.0157622
933.284	0.0157452
933.362	0.0156536
933.440	0.0158254
933.518	0.0156878
933.596	0.0156694
933.674	0.0156726
933.753	0.0156676
933.831	0.0157328
933.909	0.0157371
933.987	0.0158649
934.065	0.0156484
934.143	0.0158126
934.221	0.0158617
934.299	0.0157568
934.378	0.0159077
934.456	0.0158602
934.534	0.0157085
934.612	0.0158208
934.690	0.0159519
934.768	0.0159732
934.846	0.0159235
934.924	0.0158309
935.003	0.0158710
935.081	0.0159830
935.159	0.0158070
935.237	0.0159996
935.315	0.0158156
935.393	0.0157415
935.471	0.0158305
935.549	0.0158338
935.628	0.0158080
935.706	0.0158961
935.784	0.0159215
935.862	0.0156391
935.940	0.0159188
936.018	0.0159105
936.096	0.0158064
936.174	0.0157948
936.253	0.0158696
936.331	0.0158129
936.409	0.0158257
936.487	0.0157513
936.565	0.0157395
936.643	0.0157646
936.721	0.0158423
936.799	0.0159608
936.878	0.0158575
936.956	0.0159768
937.034	0.0159619
937.112	0.0159221
937.190	0.0160291
937.268	0.0160922
937.346	0.0161207
937.424	0.0159898
937.503	0.0159757
937.581	0.0161175
937.659	0.0161351
937.737	0.0160799
937.815	0.0160965
937.893	0.0161507
937.971	0.0160226
938.049	0.0160954
938.128	0.0160007
938.206	0.0159534
938.284	0.0160791
938.362	0.0160900
938.440	0.0159789
938.518	0.0159216
938.596	0.0159380
938.674	0.0160792
938.753	0.0161106
938.831	0.0158988
938.909	0.0160400
938.987	0.0160618
939.065	0.0160852
939.143	0.0161433
939.221	0.0159299
939.299	0.0161166
939.378	0.0160922
939.456	0.0160845
939.534	0.0161163
939.612	0.0161604
939.690	0.0160912
939.768	0.0159806
939.846	0.0159721
939.924	0.0161200
940.003	0.0160571
940.081	0.0161214
940.159	0.0160526
940.237	0.0160055
940.315	0.0160258
940.393	0.0161205
940.471	0.0158771
940.549	0.0160510
940.628	0.0160226
940.706	0.0160590
940.784	0.0161793
940.862	0.0160101
940.940	0.0160670
941.018	0.0161061
941.096	0.0159875
941.174	0.0159683
941.253	0.0161369
941.331	0.0159330
941.409	0.0160787
941.487	0.0162054
941.565	0.0161056
941.643	0.0160186
941.721	0.0159988
941.799	0.0160964
941.878	0.0160145
941.956	0.0161545
942.034	0.0160832
942.112	0.0159921
942.190	0.0160837
942.268	0.0161995
942.346	0.0161110
942.424	0.0161388
942.503	0.0160549
942.581	0.0162017
942.659	0.0161567
942.737	0.0160732
942.815	0.0161234
942.893	0.0161182
942.971	0.0159766
943.049	0.0160844
943.128	0.0161200
943.206	0.0160391
943.284	0.0160225
943.362	0.0159425
943.440	0.0160899
943.518	0.0160042
943.596	0.0160222
943.674	0.0160889
943.753	0.0161377
943.831	0.0160852
943.909	0.0161386
943.987	0.0160455
944.065	0.0160101
944.143	0.0161725
944.221	0.0160664
944.299	0.0159825
944.378	0.0161147
944.456	0.0160584
944.534	0.0160583
944.612	0.0161448
944.690	0.0161266
944.768	0.0160422
944.846	0.0161111
944.924	0.0162288
945.003	0.0160619
945.081	0.0161790
945.159	0.0162093
945.237	0.0161001
945.315	0.0160366
945.393	0.0160746
945.471	0.0161419
945.549	0.0160691
945.628	0.0161021
945.706	0.0161692
945.784	0.0161268
945.862	0.0160905
945.940	0.0161373
946.018	0.0160722
946.096	0.0159947
946.174	0.0160701
946.253	0.0160628
946.331	0.0161443
946.409	0.0161485
946.487	0.0161577
946.565	0.0160363
946.643	0.0159903
946.721	0.0159830
946.799	0.0159802
946.878	0.0160291
946.956	0.0159808
947.034	0.0159425
947.112	0.0159951
947.190	0.0160348
947.268	0.0160058
947.346	0.0158913
947.424	0.0159293
947.503	0.0159043
947.581	0.0159633
947.659	0.0159106
947.737	0.0160007
947.815	0.0159776
947.893	0.0160248
947.971	0.0159899
948.049	0.0160226
948.128	0.0159473
948.206	0.0158447
948.284	0.0159330
948.362	0.0160454
948.440	0.0159916
948.518	0.0160815
948.596	0.0160757
948.674	0.0159558
948.753	0.0160352
948.831	0.0160155
948.909	0.0159653
948.987	0.0160429
949.065	0.0159060
949.143	0.0159170
949.221	0.0159447
949.299	0.0160778
949.378	0.0158595
949.456	0.0159350
949.534	0.0160627
949.612	0.0158321
949.690	0.0158516
949.768	0.0158624
949.846	0.0159126
949.924	0.0158655
