06/29/2022	23:21:46	Ver.	4.1	UNKNOWN
Optical Delay	630.002507	Delta X		0.078125	Sweeps	1	Scan Rate	0/0
Coordinates	Axis 1	NaN	Axis 2	NaN	Axis 3	NaN	Axis 4	NaN	Axis 5	NaN	Axis 6	0.000000
TX Power	0.000000	RX Power	0.000000

630.003	0.0161720
630.081	0.0162131
630.159	0.0162054
630.237	0.0162228
630.315	0.0162818
630.393	0.0162286
630.471	0.0162388
630.549	0.0162105
630.628	0.0161734
630.706	0.0164023
630.784	0.0164439
630.862	0.0162273
630.940	0.0161781
631.018	0.0163351
631.096	0.0162592
631.174	0.0162855
631.253	0.0163580
631.331	0.0163300
631.409	0.0163247
631.487	0.0162611
631.565	0.0162894
631.643	0.0163793
631.721	0.0162891
631.799	0.0163377
631.878	0.0163464
631.956	0.0162445
632.034	0.0163736
632.112	0.0163239
632.190	0.0163953
632.268	0.0164051
632.346	0.0164034
632.424	0.0164919
632.503	0.0164179
632.581	0.0163404
632.659	0.0164062
632.737	0.0164513
632.815	0.0164372
632.893	0.0164738
632.971	0.0164910
633.049	0.0164882
633.128	0.0165079
633.206	0.0164635
633.284	0.0164579
633.362	0.0164900
633.440	0.0163702
633.518	0.0165720
633.596	0.0164817
633.674	0.0165035
633.753	0.0164713
633.831	0.0164598
633.909	0.0163060
633.987	0.0164759
634.065	0.0164805
634.143	0.0164227
634.221	0.0164134
634.299	0.0165468
634.378	0.0165260
634.456	0.0164793
634.534	0.0165646
634.612	0.0164781
634.690	0.0163091
634.768	0.0164153
634.846	0.0164725
634.924	0.0165944
635.003	0.0163605
635.081	0.0164556
635.159	0.0164552
635.237	0.0165105
635.315	0.0164886
635.393	0.0164367
635.471	0.0164277
635.549	0.0164899
635.628	0.0164397
635.706	0.0164548
635.784	0.0163729
635.862	0.0164960
635.940	0.0163351
636.018	0.0164614
636.096	0.0164767
636.174	0.0162785
636.253	0.0162054
636.331	0.0164197
636.409	0.0163574
636.487	0.0162115
636.565	0.0162666
636.643	0.0163242
636.721	0.0163405
636.799	0.0163768
636.878	0.0163641
636.956	0.0162180
637.034	0.0162654
637.112	0.0161626
637.190	0.0161981
637.268	0.0163191
637.346	0.0162936
637.424	0.0163077
637.503	0.0163299
637.581	0.0160760
637.659	0.0161366
637.737	0.0161680
637.815	0.0162065
637.893	0.0161021
637.971	0.0160493
638.049	0.0162112
638.128	0.0161089
638.206	0.0162075
638.284	0.0160716
638.362	0.0160707
638.440	0.0160808
638.518	0.0160901
638.596	0.0159995
638.674	0.0160326
638.753	0.0162254
638.831	0.0162146
638.909	0.0160786
638.987	0.0160306
639.065	0.0160330
639.143	0.0160493
639.221	0.0161005
639.299	0.0160654
639.378	0.0160914
639.456	0.0160023
639.534	0.0160754
639.612	0.0160896
639.690	0.0159736
639.768	0.0162272
639.846	0.0161507
639.924	0.0160699
640.003	0.0160285
640.081	0.0159734
640.159	0.0160657
640.237	0.0160676
640.315	0.0160320
640.393	0.0160989
640.471	0.0159960
640.549	0.0159899
640.628	0.0159161
640.706	0.0160029
640.784	0.0161456
640.862	0.0160351
640.940	0.0159780
641.018	0.0161979
641.096	0.0160927
641.174	0.0158601
641.253	0.0160715
641.331	0.0161254
641.409	0.0161008
641.487	0.0161064
641.565	0.0161053
641.643	0.0159975
641.721	0.0161080
641.799	0.0161739
641.878	0.0161263
641.956	0.0160985
642.034	0.0161598
642.112	0.0161300
642.190	0.0162140
642.268	0.0163022
642.346	0.0162326
642.424	0.0161874
642.503	0.0162608
642.581	0.0162033
642.659	0.0163350
642.737	0.0162656
642.815	0.0162024
642.893	0.0163465
642.971	0.0165003
643.049	0.0164209
643.128	0.0164150
643.206	0.0163666
643.284	0.0163322
643.362	0.0164787
643.440	0.0163527
643.518	0.0163231
643.596	0.0163434
643.674	0.0163221
643.753	0.0164515
643.831	0.0163877
643.909	0.0162751
643.987	0.0163457
644.065	0.0163219
644.143	0.0162099
644.221	0.0163882
644.299	0.0163682
644.378	0.0164010
644.456	0.0164513
644.534	0.0163640
644.612	0.0162776
644.690	0.0164741
644.768	0.0164124
644.846	0.0163570
644.924	0.0163359
645.003	0.0164661
645.081	0.0164454
645.159	0.0162687
645.237	0.0163617
645.315	0.0163583
645.393	0.0162834
645.471	0.0162194
645.549	0.0163577
645.628	0.0163721
645.706	0.0163572
645.784	0.0162963
645.862	0.0163588
645.940	0.0164706
646.018	0.0162676
646.096	0.0161767
646.174	0.0163213
646.253	0.0163103
646.331	0.0161464
646.409	0.0162421
646.487	0.0163209
646.565	0.0162499
646.643	0.0161516
646.721	0.0162689
646.799	0.0163535
646.878	0.0163007
646.956	0.0161017
647.034	0.0163383
647.112	0.0163627
647.190	0.0163728
647.268	0.0163143
647.346	0.0161871
647.424	0.0161974
647.503	0.0162677
647.581	0.0163177
647.659	0.0161396
647.737	0.0162621
647.815	0.0164010
647.893	0.0163251
647.971	0.0162943
648.049	0.0163111
648.128	0.0162614
648.206	0.0162505
648.284	0.0162566
648.362	0.0162422
648.440	0.0161009
648.518	0.0162774
648.596	0.0162446
648.674	0.0162950
648.753	0.0163550
648.831	0.0161380
648.909	0.0162083
648.987	0.0162202
649.065	0.0162934
649.143	0.0160996
649.221	0.0161066
649.299	0.0161638
649.378	0.0162379
649.456	0.0161892
649.534	0.0160971
649.612	0.0160526
649.690	0.0161678
649.768	0.0161493
649.846	0.0161092
649.924	0.0161050
650.003	0.0161470
650.081	0.0160538
650.159	0.0160457
650.237	0.0161057
650.315	0.0162593
650.393	0.0161896
650.471	0.0161170
650.549	0.0161410
650.628	0.0161323
650.706	0.0161005
650.784	0.0160904
650.862	0.0160937
650.940	0.0161259
651.018	0.0161958
651.096	0.0160508
651.174	0.0161501
651.253	0.0160889
651.331	0.0160942
651.409	0.0160905
651.487	0.0161042
651.565	0.0163225
651.643	0.0161256
651.721	0.0160896
651.799	0.0161372
651.878	0.0161610
651.956	0.0161235
652.034	0.0161165
652.112	0.0161983
652.190	0.0162782
652.268	0.0162000
652.346	0.0161384
652.424	0.0162618
652.503	0.0161543
652.581	0.0160592
652.659	0.0162316
652.737	0.0162048
652.815	0.0162173
652.893	0.0160955
652.971	0.0162358
653.049	0.0164069
653.128	0.0162563
653.206	0.0163065
653.284	0.0161730
653.362	0.0163190
653.440	0.0162704
653.518	0.0162802
653.596	0.0162251
653.674	0.0164061
653.753	0.0163023
653.831	0.0162022
653.909	0.0162669
653.987	0.0162975
654.065	0.0163573
654.143	0.0162225
654.221	0.0163972
654.299	0.0163805
654.378	0.0162803
654.456	0.0163725
654.534	0.0163534
654.612	0.0161111
654.690	0.0163507
654.768	0.0164526
654.846	0.0163457
654.924	0.0163875
655.003	0.0163354
655.081	0.0163454
655.159	0.0164062
655.237	0.0164384
655.315	0.0162623
655.393	0.0163810
655.471	0.0163870
655.549	0.0163088
655.628	0.0164425
655.706	0.0164590
655.784	0.0164774
655.862	0.0162764
655.940	0.0163958
656.018	0.0163294
656.096	0.0163839
656.174	0.0163280
656.253	0.0162752
656.331	0.0163358
656.409	0.0162615
656.487	0.0163031
656.565	0.0162840
656.643	0.0162479
656.721	0.0162843
656.799	0.0164973
656.878	0.0162871
656.956	0.0162105
657.034	0.0161584
657.112	0.0162347
657.190	0.0163173
657.268	0.0162265
657.346	0.0162987
657.424	0.0162239
657.503	0.0162495
657.581	0.0163028
657.659	0.0162636
657.737	0.0162220
657.815	0.0163388
657.893	0.0162864
657.971	0.0161354
658.049	0.0161594
658.128	0.0163065
658.206	0.0162640
658.284	0.0160908
658.362	0.0162804
658.440	0.0162193
658.518	0.0163006
658.596	0.0162444
658.674	0.0161550
658.753	0.0163036
658.831	0.0161826
658.909	0.0161839
658.987	0.0162076
659.065	0.0162086
659.143	0.0161358
659.221	0.0161609
659.299	0.0161808
659.378	0.0162804
659.456	0.0161704
659.534	0.0161736
659.612	0.0161077
659.690	0.0161446
659.768	0.0162410
659.846	0.0162309
659.924	0.0161534
660.003	0.0161818
660.081	0.0161951
660.159	0.0161024
660.237	0.0163506
660.315	0.0163234
660.393	0.0162666
660.471	0.0163814
660.549	0.0162899
660.628	0.0162695
660.706	0.0162290
660.784	0.0163525
660.862	0.0163802
660.940	0.0164478
661.018	0.0163121
661.096	0.0162857
661.174	0.0163061
661.253	0.0162694
661.331	0.0162720
661.409	0.0163368
661.487	0.0165657
661.565	0.0162620
661.643	0.0163914
661.721	0.0164148
661.799	0.0163387
661.878	0.0163470
661.956	0.0163708
662.034	0.0164772
662.112	0.0164000
662.190	0.0163777
662.268	0.0163602
662.346	0.0162862
662.424	0.0164131
662.503	0.0163828
662.581	0.0162550
662.659	0.0161443
662.737	0.0163704
662.815	0.0163674
662.893	0.0162989
662.971	0.0163113
663.049	0.0163103
663.128	0.0161997
663.206	0.0163106
663.284	0.0163215
663.362	0.0163456
663.440	0.0161628
663.518	0.0161452
663.596	0.0162514
663.674	0.0162263
663.753	0.0164001
663.831	0.0162968
663.909	0.0163370
663.987	0.0162449
664.065	0.0162525
664.143	0.0163066
664.221	0.0161776
664.299	0.0161579
664.378	0.0163256
664.456	0.0162273
664.534	0.0161755
664.612	0.0162510
664.690	0.0163339
664.768	0.0160267
664.846	0.0161771
664.924	0.0161895
665.003	0.0160789
665.081	0.0160018
665.159	0.0162461
665.237	0.0162132
665.315	0.0161866
665.393	0.0160812
665.471	0.0161034
665.549	0.0161668
665.628	0.0162286
665.706	0.0162476
665.784	0.0160576
665.862	0.0161859
665.940	0.0161728
666.018	0.0160787
666.096	0.0161195
666.174	0.0160970
666.253	0.0161807
666.331	0.0161586
666.409	0.0161436
666.487	0.0160802
666.565	0.0161288
666.643	0.0160720
666.721	0.0161657
666.799	0.0162193
666.878	0.0161339
666.956	0.0161826
667.034	0.0161778
667.112	0.0161920
667.190	0.0160369
667.268	0.0161303
667.346	0.0160487
667.424	0.0160796
667.503	0.0161072
667.581	0.0161460
667.659	0.0161283
667.737	0.0161904
667.815	0.0162707
667.893	0.0161633
667.971	0.0162388
668.049	0.0161572
668.128	0.0161932
668.206	0.0161933
668.284	0.0162193
668.362	0.0163535
668.440	0.0162125
668.518	0.0163290
668.596	0.0163112
668.674	0.0162416
668.753	0.0162360
668.831	0.0163422
668.909	0.0161898
668.987	0.0163985
669.065	0.0163589
669.143	0.0163499
669.221	0.0165239
669.299	0.0164230
669.378	0.0163428
669.456	0.0162953
669.534	0.0161749
669.612	0.0162845
669.690	0.0163725
669.768	0.0163915
669.846	0.0164118
669.924	0.0163060
670.003	0.0162297
670.081	0.0163850
670.159	0.0164254
670.237	0.0164717
670.315	0.0164969
670.393	0.0163441
670.471	0.0163160
670.549	0.0163528
670.628	0.0163543
670.706	0.0164127
670.784	0.0163428
670.862	0.0163989
670.940	0.0163293
671.018	0.0163184
671.096	0.0163224
671.174	0.0162776
671.253	0.0161926
671.331	0.0162003
671.409	0.0162875
671.487	0.0164256
671.565	0.0164452
671.643	0.0163702
671.721	0.0161525
671.799	0.0162897
671.878	0.0163346
671.956	0.0162344
672.034	0.0162965
672.112	0.0162662
672.190	0.0161654
672.268	0.0163917
672.346	0.0164203
672.424	0.0163583
672.503	0.0162022
672.581	0.0162679
672.659	0.0160500
672.737	0.0161612
672.815	0.0162296
672.893	0.0162468
672.971	0.0160612
673.049	0.0162100
673.128	0.0161744
673.206	0.0162169
673.284	0.0160957
673.362	0.0161317
673.440	0.0161379
673.518	0.0161762
673.596	0.0161374
673.674	0.0159995
673.753	0.0162561
673.831	0.0161687
673.909	0.0161269
673.987	0.0162492
674.065	0.0161572
674.143	0.0160725
674.221	0.0162040
674.299	0.0162011
674.378	0.0160729
674.456	0.0160896
674.534	0.0161469
674.612	0.0162748
674.690	0.0162373
674.768	0.0160213
674.846	0.0160760
674.924	0.0161916
675.003	0.0160485
675.081	0.0161700
675.159	0.0160980
675.237	0.0160350
675.315	0.0161040
675.393	0.0161033
675.471	0.0160072
675.549	0.0160641
675.628	0.0160418
675.706	0.0161864
675.784	0.0159481
675.862	0.0160692
675.940	0.0159698
676.018	0.0158784
676.096	0.0160254
676.174	0.0158854
676.253	0.0159631
676.331	0.0159743
676.409	0.0161416
676.487	0.0159985
676.565	0.0159882
676.643	0.0160738
676.721	0.0160512
676.799	0.0160636
676.878	0.0159837
676.956	0.0161977
677.034	0.0161805
677.112	0.0160004
677.190	0.0160869
677.268	0.0159891
677.346	0.0161822
677.424	0.0161652
677.503	0.0160515
677.581	0.0161997
677.659	0.0162157
677.737	0.0161049
677.815	0.0161588
677.893	0.0161859
677.971	0.0161680
678.049	0.0161858
678.128	0.0160739
678.206	0.0162044
678.284	0.0161482
678.362	0.0161926
678.440	0.0162029
678.518	0.0162650
678.596	0.0161973
678.674	0.0162237
678.753	0.0162357
678.831	0.0164037
678.909	0.0162523
678.987	0.0162714
679.065	0.0163192
679.143	0.0162962
679.221	0.0163507
679.299	0.0162665
679.378	0.0163282
679.456	0.0164203
679.534	0.0163354
679.612	0.0163750
679.690	0.0163268
679.768	0.0163968
679.846	0.0163163
679.924	0.0162982
680.003	0.0162548
680.081	0.0162286
680.159	0.0162181
680.237	0.0162184
680.315	0.0163341
680.393	0.0163716
680.471	0.0163248
680.549	0.0163430
680.628	0.0163301
680.706	0.0164112
680.784	0.0164798
680.862	0.0163139
680.940	0.0161391
681.018	0.0163285
681.096	0.0164143
681.174	0.0164455
681.253	0.0163258
681.331	0.0162868
681.409	0.0163179
681.487	0.0164896
681.565	0.0163620
681.643	0.0163907
681.721	0.0162514
681.799	0.0163907
681.878	0.0163242
681.956	0.0164360
682.034	0.0162288
682.112	0.0163757
682.190	0.0163692
682.268	0.0163338
682.346	0.0163994
682.424	0.0163811
682.503	0.0164610
682.581	0.0162953
682.659	0.0163999
682.737	0.0162252
682.815	0.0163026
682.893	0.0162970
682.971	0.0162437
683.049	0.0163026
683.128	0.0162615
683.206	0.0165380
683.284	0.0163821
683.362	0.0163665
683.440	0.0163483
683.518	0.0164358
683.596	0.0163969
683.674	0.0163546
683.753	0.0164024
683.831	0.0163893
683.909	0.0163570
683.987	0.0164901
684.065	0.0164382
684.143	0.0163390
684.221	0.0162514
684.299	0.0163031
684.378	0.0164382
684.456	0.0164285
684.534	0.0163709
684.612	0.0163654
684.690	0.0163017
684.768	0.0161974
684.846	0.0163719
684.924	0.0162252
685.003	0.0161630
685.081	0.0163388
685.159	0.0162676
685.237	0.0163075
685.315	0.0161864
685.393	0.0163074
685.471	0.0163395
685.549	0.0161846
685.628	0.0161390
685.706	0.0162061
685.784	0.0162886
685.862	0.0161354
685.940	0.0160948
686.018	0.0161791
686.096	0.0161861
686.174	0.0161917
686.253	0.0162508
686.331	0.0162234
686.409	0.0161674
686.487	0.0161682
686.565	0.0162613
686.643	0.0162785
686.721	0.0163634
686.799	0.0162807
686.878	0.0161890
686.956	0.0163654
687.034	0.0162266
687.112	0.0163426
687.190	0.0163219
687.268	0.0163782
687.346	0.0164411
687.424	0.0164083
687.503	0.0163515
687.581	0.0161909
687.659	0.0162397
687.737	0.0163329
687.815	0.0162213
687.893	0.0162714
687.971	0.0163683
688.049	0.0162698
688.128	0.0162005
688.206	0.0162857
688.284	0.0162881
688.362	0.0162115
688.440	0.0161060
688.518	0.0160221
688.596	0.0161668
688.674	0.0162701
688.753	0.0160949
688.831	0.0159902
688.909	0.0160881
688.987	0.0160887
689.065	0.0161362
689.143	0.0160491
689.221	0.0161137
689.299	0.0160844
689.378	0.0160046
689.456	0.0160429
689.534	0.0159899
689.612	0.0160796
689.690	0.0159672
689.768	0.0160062
689.846	0.0160666
689.924	0.0161098
690.003	0.0162255
690.081	0.0160087
690.159	0.0160001
690.237	0.0160992
690.315	0.0160922
690.393	0.0161471
690.471	0.0161356
690.549	0.0162193
690.628	0.0162234
690.706	0.0161079
690.784	0.0163607
690.862	0.0164072
690.940	0.0162119
691.018	0.0164101
691.096	0.0164264
691.174	0.0163017
691.253	0.0165030
691.331	0.0165556
691.409	0.0164587
691.487	0.0165295
691.565	0.0163411
691.643	0.0163802
691.721	0.0165093
691.799	0.0165730
691.878	0.0165380
691.956	0.0164566
692.034	0.0163882
692.112	0.0165668
692.190	0.0164684
692.268	0.0165810
692.346	0.0165894
692.424	0.0164783
692.503	0.0164130
692.581	0.0164891
692.659	0.0164856
692.737	0.0165568
692.815	0.0164809
692.893	0.0165057
692.971	0.0165206
693.049	0.0166152
693.128	0.0164927
693.206	0.0165661
693.284	0.0165331
693.362	0.0165157
693.440	0.0165239
693.518	0.0165395
693.596	0.0165357
693.674	0.0165840
693.753	0.0165726
693.831	0.0165288
693.909	0.0165005
693.987	0.0164761
694.065	0.0164645
694.143	0.0164246
694.221	0.0163815
694.299	0.0165377
694.378	0.0163583
694.456	0.0164918
694.534	0.0165620
694.612	0.0165823
694.690	0.0165559
694.768	0.0166414
694.846	0.0165656
694.924	0.0165487
695.003	0.0165263
695.081	0.0165254
695.159	0.0166264
695.237	0.0166382
695.315	0.0166162
695.393	0.0166362
695.471	0.0166801
695.549	0.0165765
695.628	0.0167582
695.706	0.0166836
695.784	0.0166929
695.862	0.0166409
695.940	0.0166083
696.018	0.0166171
696.096	0.0166685
696.174	0.0166539
696.253	0.0166244
696.331	0.0166191
696.409	0.0164510
696.487	0.0165406
696.565	0.0164042
696.643	0.0165449
696.721	0.0165771
696.799	0.0162027
696.878	0.0163338
696.956	0.0164051
697.034	0.0163731
697.112	0.0163696
697.190	0.0162047
697.268	0.0161520
697.346	0.0162811
697.424	0.0163055
697.503	0.0161913
697.581	0.0162484
697.659	0.0162476
697.737	0.0162518
697.815	0.0162801
697.893	0.0162195
697.971	0.0162112
698.049	0.0161481
698.128	0.0162624
698.206	0.0162154
698.284	0.0162079
698.362	0.0161726
698.440	0.0162155
698.518	0.0160233
698.596	0.0160787
698.674	0.0161321
698.753	0.0161852
698.831	0.0159750
698.909	0.0161824
698.987	0.0160299
699.065	0.0160842
699.143	0.0161633
699.221	0.0160264
699.299	0.0160218
699.378	0.0161240
699.456	0.0161037
699.534	0.0160555
699.612	0.0159766
699.690	0.0161514
699.768	0.0160711
699.846	0.0159395
699.924	0.0160275
700.003	0.0160587
700.081	0.0161185
700.159	0.0162981
700.237	0.0160580
700.315	0.0159985
700.393	0.0160848
700.471	0.0162891
700.549	0.0160964
700.628	0.0160925
700.706	0.0161218
700.784	0.0160466
700.862	0.0160312
700.940	0.0162011
701.018	0.0161732
701.096	0.0161008
701.174	0.0160677
701.253	0.0161711
701.331	0.0160545
701.409	0.0160117
701.487	0.0161349
701.565	0.0162670
701.643	0.0162509
701.721	0.0161487
701.799	0.0162275
701.878	0.0162168
701.956	0.0162769
702.034	0.0163303
702.112	0.0162221
702.190	0.0162178
702.268	0.0159715
702.346	0.0161428
702.424	0.0162051
702.503	0.0162676
702.581	0.0161609
702.659	0.0161771
702.737	0.0161350
702.815	0.0162825
702.893	0.0163062
702.971	0.0162661
703.049	0.0162628
703.128	0.0163345
703.206	0.0162629
703.284	0.0162644
703.362	0.0162189
703.440	0.0163894
703.518	0.0163515
703.596	0.0162376
703.674	0.0162650
703.753	0.0163958
703.831	0.0164424
703.909	0.0163823
703.987	0.0162985
704.065	0.0163956
704.143	0.0163673
704.221	0.0162163
704.299	0.0162082
704.378	0.0163937
704.456	0.0162679
704.534	0.0162772
704.612	0.0163654
704.690	0.0163232
704.768	0.0163584
704.846	0.0162476
704.924	0.0161914
705.003	0.0161876
705.081	0.0161847
705.159	0.0161734
705.237	0.0162241
705.315	0.0163192
705.393	0.0161786
705.471	0.0162304
705.549	0.0163365
705.628	0.0164194
705.706	0.0163674
705.784	0.0162467
705.862	0.0162721
705.940	0.0164854
706.018	0.0163138
706.096	0.0162427
706.174	0.0163537
706.253	0.0164159
706.331	0.0163452
706.409	0.0162993
706.487	0.0163438
706.565	0.0164075
706.643	0.0162202
706.721	0.0163597
706.799	0.0162462
706.878	0.0162457
706.956	0.0162536
707.034	0.0162292
707.112	0.0163429
707.190	0.0162099
707.268	0.0163033
707.346	0.0163767
707.424	0.0163408
707.503	0.0164087
707.581	0.0165487
707.659	0.0165710
707.737	0.0165768
707.815	0.0164964
707.893	0.0165774
707.971	0.0166763
708.049	0.0166450
708.128	0.0166045
708.206	0.0165220
708.284	0.0166203
708.362	0.0166856
708.440	0.0165084
708.518	0.0163764
708.596	0.0163584
708.674	0.0163065
708.753	0.0162769
708.831	0.0162380
708.909	0.0162310
708.987	0.0163556
709.065	0.0162888
709.143	0.0161842
709.221	0.0163638
709.299	0.0163391
709.378	0.0161673
709.456	0.0162595
709.534	0.0163611
709.612	0.0162953
709.690	0.0164533
709.768	0.0162925
709.846	0.0163316
709.924	0.0162830
710.003	0.0163831
710.081	0.0164469
710.159	0.0162862
710.237	0.0162370
710.315	0.0162627
710.393	0.0161703
710.471	0.0162238
710.549	0.0162777
710.628	0.0161485
710.706	0.0160928
710.784	0.0162077
710.862	0.0161768
710.940	0.0160179
711.018	0.0160438
711.096	0.0162852
711.174	0.0161944
711.253	0.0161050
711.331	0.0162656
711.409	0.0162224
711.487	0.0164234
711.565	0.0164056
711.643	0.0163956
711.721	0.0164079
711.799	0.0164136
711.878	0.0163862
711.956	0.0164060
712.034	0.0164678
712.112	0.0164389
712.190	0.0164861
712.268	0.0165039
712.346	0.0164436
712.424	0.0164090
712.503	0.0163413
712.581	0.0163030
712.659	0.0162547
712.737	0.0160548
712.815	0.0160035
712.893	0.0161126
712.971	0.0161458
713.049	0.0161405
713.128	0.0160093
713.206	0.0160635
713.284	0.0160849
713.362	0.0160935
713.440	0.0160635
713.518	0.0160950
713.596	0.0160899
713.674	0.0161793
713.753	0.0161836
713.831	0.0162174
713.909	0.0162691
713.987	0.0163306
714.065	0.0163538
714.143	0.0163249
714.221	0.0163194
714.299	0.0162809
714.378	0.0162801
714.456	0.0163254
714.534	0.0162716
714.612	0.0163734
714.690	0.0162534
714.768	0.0162285
714.846	0.0163251
714.924	0.0163457
715.003	0.0163419
715.081	0.0163919
715.159	0.0164797
715.237	0.0165955
715.315	0.0165269
715.393	0.0165000
715.471	0.0164215
715.549	0.0166512
715.628	0.0166302
715.706	0.0165800
715.784	0.0165665
715.862	0.0165939
715.940	0.0167886
716.018	0.0166554
716.096	0.0165553
716.174	0.0165618
716.253	0.0166656
716.331	0.0165609
716.409	0.0165920
716.487	0.0165128
716.565	0.0164104
716.643	0.0165065
716.721	0.0166069
716.799	0.0163911
716.878	0.0164014
716.956	0.0162534
717.034	0.0161996
717.112	0.0162194
717.190	0.0162319
717.268	0.0162312
717.346	0.0161512
717.424	0.0161710
717.503	0.0161282
717.581	0.0161784
717.659	0.0162312
717.737	0.0160048
717.815	0.0161724
717.893	0.0163747
717.971	0.0162656
718.049	0.0163474
718.128	0.0165082
718.206	0.0165050
718.284	0.0165031
718.362	0.0166261
718.440	0.0165145
718.518	0.0166998
718.596	0.0168304
718.674	0.0169257
718.753	0.0169675
718.831	0.0169695
718.909	0.0168533
718.987	0.0169542
719.065	0.0169554
719.143	0.0166819
719.221	0.0166278
719.299	0.0165832
719.378	0.0166689
719.456	0.0164814
719.534	0.0163584
719.612	0.0161143
719.690	0.0161114
719.768	0.0161554
719.846	0.0160196
719.924	0.0158385
720.003	0.0159290
720.081	0.0158925
720.159	0.0157867
720.237	0.0157426
720.315	0.0157248
720.393	0.0159013
720.471	0.0158792
720.549	0.0156007
720.628	0.0157275
720.706	0.0158496
720.784	0.0158630
720.862	0.0159205
720.940	0.0159538
721.018	0.0160034
721.096	0.0159820
721.174	0.0161177
721.253	0.0163281
721.331	0.0160441
721.409	0.0161467
721.487	0.0163996
721.565	0.0162302
721.643	0.0163540
721.721	0.0162460
721.799	0.0164388
721.878	0.0165340
721.956	0.0164456
722.034	0.0164985
722.112	0.0165778
722.190	0.0165453
722.268	0.0165292
722.346	0.0164336
722.424	0.0164613
722.503	0.0164658
722.581	0.0165848
722.659	0.0165426
722.737	0.0165273
722.815	0.0163808
722.893	0.0162265
722.971	0.0162677
723.049	0.0163290
723.128	0.0162858
723.206	0.0162363
723.284	0.0159686
723.362	0.0159013
723.440	0.0157513
723.518	0.0157602
723.596	0.0159365
723.674	0.0158833
723.753	0.0155469
723.831	0.0155978
723.909	0.0154977
723.987	0.0154468
724.065	0.0155302
724.143	0.0155621
724.221	0.0156231
724.299	0.0155032
724.378	0.0155476
724.456	0.0156946
724.534	0.0155820
724.612	0.0157169
724.690	0.0158419
724.768	0.0159779
724.846	0.0158914
724.924	0.0160088
725.003	0.0160378
725.081	0.0162624
725.159	0.0163026
725.237	0.0162020
725.315	0.0161701
725.393	0.0162957
725.471	0.0164999
725.549	0.0165460
725.628	0.0163775
725.706	0.0164728
725.784	0.0165083
725.862	0.0166987
725.940	0.0168133
726.018	0.0168617
726.096	0.0168211
726.174	0.0168549
726.253	0.0167816
726.331	0.0168771
726.409	0.0168555
726.487	0.0167500
726.565	0.0167594
726.643	0.0167624
726.721	0.0166817
726.799	0.0167484
726.878	0.0164410
726.956	0.0165233
727.034	0.0163448
727.112	0.0161500
727.190	0.0161400
727.268	0.0160598
727.346	0.0157886
727.424	0.0157153
727.503	0.0156581
727.581	0.0155577
727.659	0.0154851
727.737	0.0153796
727.815	0.0151494
727.893	0.0151536
727.971	0.0152602
728.049	0.0150538
728.128	0.0151386
728.206	0.0152618
728.284	0.0151927
728.362	0.0151707
728.440	0.0151974
728.518	0.0153909
728.596	0.0155090
728.674	0.0155877
728.753	0.0158424
728.831	0.0159587
728.909	0.0160040
728.987	0.0162054
729.065	0.0162225
729.143	0.0164839
729.221	0.0164140
729.299	0.0166241
729.378	0.0166617
729.456	0.0168638
729.534	0.0169431
729.612	0.0169167
729.690	0.0171504
729.768	0.0170556
729.846	0.0171120
729.924	0.0170974
730.003	0.0170753
730.081	0.0170467
730.159	0.0169944
730.237	0.0171003
730.315	0.0169536
730.393	0.0167796
730.471	0.0167022
730.549	0.0166359
730.628	0.0166035
730.706	0.0164425
730.784	0.0164878
730.862	0.0161910
730.940	0.0162650
731.018	0.0159536
731.096	0.0158556
731.174	0.0157285
731.253	0.0157380
731.331	0.0155426
731.409	0.0153774
731.487	0.0153426
731.565	0.0151958
731.643	0.0150872
731.721	0.0151442
731.799	0.0151913
731.878	0.0149386
731.956	0.0150172
732.034	0.0150705
732.112	0.0150524
732.190	0.0152253
732.268	0.0152338
732.346	0.0152077
732.424	0.0154452
732.503	0.0155973
732.581	0.0156949
732.659	0.0158746
732.737	0.0161189
732.815	0.0161992
732.893	0.0165664
732.971	0.0167216
733.049	0.0168102
733.128	0.0170339
733.206	0.0171553
733.284	0.0173804
733.362	0.0175549
733.440	0.0175005
733.518	0.0174435
733.596	0.0176070
733.674	0.0176791
733.753	0.0174174
733.831	0.0175478
733.909	0.0173609
733.987	0.0171369
734.065	0.0171673
734.143	0.0170177
734.221	0.0167922
734.299	0.0166855
734.378	0.0164573
734.456	0.0163327
734.534	0.0162561
734.612	0.0160909
734.690	0.0159917
734.768	0.0157480
734.846	0.0157493
734.924	0.0156036
735.003	0.0156180
735.081	0.0154468
735.159	0.0155073
735.237	0.0154117
735.315	0.0153736
735.393	0.0155372
735.471	0.0153862
735.549	0.0153320
735.628	0.0153869
735.706	0.0154733
735.784	0.0155481
735.862	0.0155775
735.940	0.0157224
736.018	0.0156900
736.096	0.0158515
736.174	0.0158674
736.253	0.0160957
736.331	0.0161573
736.409	0.0161787
736.487	0.0164301
736.565	0.0164910
736.643	0.0165801
736.721	0.0165444
736.799	0.0166692
736.878	0.0167728
736.956	0.0169162
737.034	0.0169884
737.112	0.0168848
737.190	0.0168725
737.268	0.0170183
737.346	0.0170325
737.424	0.0168394
737.503	0.0167734
737.581	0.0168154
737.659	0.0166958
737.737	0.0165902
737.815	0.0165240
737.893	0.0162954
737.971	0.0161970
738.049	0.0160992
738.128	0.0161075
738.206	0.0159749
738.284	0.0157862
738.362	0.0158791
738.440	0.0156742
738.518	0.0155768
738.596	0.0157278
738.674	0.0155157
738.753	0.0155364
738.831	0.0156545
738.909	0.0154736
738.987	0.0155487
739.065	0.0158571
739.143	0.0157794
739.221	0.0158844
739.299	0.0158166
739.378	0.0159916
739.456	0.0161307
739.534	0.0160800
739.612	0.0160979
739.690	0.0162173
739.768	0.0162083
739.846	0.0164170
739.924	0.0164468
740.003	0.0164445
740.081	0.0164661
740.159	0.0165955
740.237	0.0165609
740.315	0.0164807
740.393	0.0164919
740.471	0.0165936
740.549	0.0166393
740.628	0.0165429
740.706	0.0164464
740.784	0.0164697
740.862	0.0163971
740.940	0.0164728
741.018	0.0164508
741.096	0.0165157
741.174	0.0165204
741.253	0.0164812
741.331	0.0163717
741.409	0.0163088
741.487	0.0163776
741.565	0.0163690
741.643	0.0163908
741.721	0.0161649
741.799	0.0160941
741.878	0.0161765
741.956	0.0161104
742.034	0.0160561
742.112	0.0160523
742.190	0.0160546
742.268	0.0158499
742.346	0.0159294
742.424	0.0159466
742.503	0.0157569
742.581	0.0157706
742.659	0.0157751
742.737	0.0156448
742.815	0.0156211
742.893	0.0156238
742.971	0.0157494
743.049	0.0155537
743.128	0.0155330
743.206	0.0157324
743.284	0.0156501
743.362	0.0156351
743.440	0.0158889
743.518	0.0158082
743.596	0.0157278
743.674	0.0158157
743.753	0.0159667
743.831	0.0160255
743.909	0.0161151
743.987	0.0160185
744.065	0.0161301
744.143	0.0162107
744.221	0.0163371
744.299	0.0164558
744.378	0.0165030
744.456	0.0164017
744.534	0.0165373
744.612	0.0163869
744.690	0.0165918
744.768	0.0165710
744.846	0.0165273
744.924	0.0164406
745.003	0.0163508
745.081	0.0164377
745.159	0.0163900
745.237	0.0164184
745.315	0.0164573
745.393	0.0163761
745.471	0.0164565
745.549	0.0163423
745.628	0.0163480
745.706	0.0163893
745.784	0.0163595
745.862	0.0162597
745.940	0.0162122
746.018	0.0160520
746.096	0.0162130
746.174	0.0159989
746.253	0.0160241
746.331	0.0161019
746.409	0.0161047
746.487	0.0160374
746.565	0.0159739
746.643	0.0160252
746.721	0.0159222
746.799	0.0159630
746.878	0.0160889
746.956	0.0160485
747.034	0.0159792
747.112	0.0162081
747.190	0.0160955
747.268	0.0163368
747.346	0.0162988
747.424	0.0162594
747.503	0.0163624
747.581	0.0163289
747.659	0.0163991
747.737	0.0163351
747.815	0.0162562
747.893	0.0162716
747.971	0.0163628
748.049	0.0163367
748.128	0.0163192
748.206	0.0161791
748.284	0.0161684
748.362	0.0162374
748.440	0.0161443
748.518	0.0161121
748.596	0.0160096
748.674	0.0158382
748.753	0.0159392
748.831	0.0158850
748.909	0.0157637
748.987	0.0156553
749.065	0.0155765
749.143	0.0156222
749.221	0.0156705
749.299	0.0155426
749.378	0.0156286
749.456	0.0156246
749.534	0.0157705
749.612	0.0157594
749.690	0.0159270
749.768	0.0160494
749.846	0.0160622
749.924	0.0160313
750.003	0.0161871
750.081	0.0162099
750.159	0.0164889
750.237	0.0164781
750.315	0.0166940
750.393	0.0166612
750.471	0.0167515
750.549	0.0168473
750.628	0.0170580
750.706	0.0168344
750.784	0.0170061
750.862	0.0170475
750.940	0.0169626
751.018	0.0170678
751.096	0.0168305
751.174	0.0167090
751.253	0.0168308
751.331	0.0167795
751.409	0.0167039
751.487	0.0167730
751.565	0.0166283
751.643	0.0165726
751.721	0.0164333
751.799	0.0163850
751.878	0.0164321
751.956	0.0163748
752.034	0.0163000
752.112	0.0161709
752.190	0.0160046
752.268	0.0159666
752.346	0.0159418
752.424	0.0160483
752.503	0.0159057
752.581	0.0159425
752.659	0.0158809
752.737	0.0158993
752.815	0.0157772
752.893	0.0156583
752.971	0.0157939
753.049	0.0158013
753.128	0.0158134
753.206	0.0157870
753.284	0.0157503
753.362	0.0158260
753.440	0.0159090
753.518	0.0159854
753.596	0.0159385
753.674	0.0159077
753.753	0.0159783
753.831	0.0159990
753.909	0.0160424
753.987	0.0160482
754.065	0.0161645
754.143	0.0160485
754.221	0.0160914
754.299	0.0161021
754.378	0.0160957
754.456	0.0161301
754.534	0.0162865
754.612	0.0161723
754.690	0.0162926
754.768	0.0164466
754.846	0.0164425
754.924	0.0165283
755.003	0.0164225
755.081	0.0164729
755.159	0.0166206
755.237	0.0166961
755.315	0.0167675
755.393	0.0166852
755.471	0.0167022
755.549	0.0166634
755.628	0.0168346
755.706	0.0168319
755.784	0.0167970
755.862	0.0168906
755.940	0.0169180
756.018	0.0169243
756.096	0.0168609
756.174	0.0168889
756.253	0.0167809
756.331	0.0167359
756.409	0.0167734
756.487	0.0167706
756.565	0.0167999
756.643	0.0166929
756.721	0.0166652
756.799	0.0166513
756.878	0.0165181
756.956	0.0164886
757.034	0.0165141
757.112	0.0164493
757.190	0.0163226
757.268	0.0162780
757.346	0.0161651
757.424	0.0161226
757.503	0.0160941
757.581	0.0161130
757.659	0.0159769
757.737	0.0161353
757.815	0.0160783
757.893	0.0159686
757.971	0.0158717
758.049	0.0160554
758.128	0.0159207
758.206	0.0158712
758.284	0.0159378
758.362	0.0158558
758.440	0.0158836
758.518	0.0159856
758.596	0.0160830
758.674	0.0160648
758.753	0.0159438
758.831	0.0160451
758.909	0.0159772
758.987	0.0160294
759.065	0.0163011
759.143	0.0161573
759.221	0.0162788
759.299	0.0162492
759.378	0.0162678
759.456	0.0162468
759.534	0.0162426
759.612	0.0162434
759.690	0.0161165
759.768	0.0163329
759.846	0.0163673
759.924	0.0162151
760.003	0.0160966
760.081	0.0161501
760.159	0.0160325
760.237	0.0162968
760.315	0.0162770
760.393	0.0160537
760.471	0.0160081
760.549	0.0160712
760.628	0.0160392
760.706	0.0161578
760.784	0.0160196
760.862	0.0161163
760.940	0.0160949
761.018	0.0161655
761.096	0.0160995
761.174	0.0161671
761.253	0.0161332
761.331	0.0162478
761.409	0.0162007
761.487	0.0164619
761.565	0.0162543
761.643	0.0164142
761.721	0.0164226
761.799	0.0164101
761.878	0.0165089
761.956	0.0166299
762.034	0.0165931
762.112	0.0166136
762.190	0.0166200
762.268	0.0166911
762.346	0.0166547
762.424	0.0166378
762.503	0.0167227
762.581	0.0166412
762.659	0.0165479
762.737	0.0165474
762.815	0.0165269
762.893	0.0165723
762.971	0.0163006
763.049	0.0162518
763.128	0.0162306
763.206	0.0160942
763.284	0.0160538
763.362	0.0159152
763.440	0.0158551
763.518	0.0158419
763.596	0.0156258
763.674	0.0155782
763.753	0.0154482
763.831	0.0156005
763.909	0.0155006
763.987	0.0154867
764.065	0.0155172
764.143	0.0155964
764.221	0.0155120
764.299	0.0155180
764.378	0.0156209
764.456	0.0155295
764.534	0.0155020
764.612	0.0156918
764.690	0.0156557
764.768	0.0159477
764.846	0.0159616
764.924	0.0158887
765.003	0.0160493
765.081	0.0160997
765.159	0.0160458
765.237	0.0160717
765.315	0.0161574
765.393	0.0162186
765.471	0.0161443
765.549	0.0162613
765.628	0.0162675
765.706	0.0160026
765.784	0.0161829
765.862	0.0160764
765.940	0.0162754
766.018	0.0161826
766.096	0.0160984
766.174	0.0161314
766.253	0.0162693
766.331	0.0162223
766.409	0.0162868
766.487	0.0162571
766.565	0.0163530
766.643	0.0163805
766.721	0.0163380
766.799	0.0162553
766.878	0.0162949
766.956	0.0165506
767.034	0.0164490
767.112	0.0166769
767.190	0.0166003
767.268	0.0166962
767.346	0.0166628
767.424	0.0167446
767.503	0.0167052
767.581	0.0166192
767.659	0.0168311
767.737	0.0167825
767.815	0.0167993
767.893	0.0166898
767.971	0.0166594
768.049	0.0166402
768.128	0.0166805
768.206	0.0165901
768.284	0.0166521
768.362	0.0165291
768.440	0.0165340
768.518	0.0163548
768.596	0.0164530
768.674	0.0163275
768.753	0.0162949
768.831	0.0162399
768.909	0.0163049
768.987	0.0162161
769.065	0.0162476
769.143	0.0160135
769.221	0.0160784
769.299	0.0161227
769.378	0.0159784
769.456	0.0159238
769.534	0.0158442
769.612	0.0159972
769.690	0.0159460
769.768	0.0158156
769.846	0.0159708
769.924	0.0159537
770.003	0.0158499
770.081	0.0159937
770.159	0.0161246
770.237	0.0161510
770.315	0.0162675
770.393	0.0163080
770.471	0.0163404
770.549	0.0166164
770.628	0.0164754
770.706	0.0167412
770.784	0.0166582
770.862	0.0168243
770.940	0.0168712
771.018	0.0167991
771.096	0.0168240
771.174	0.0167860
771.253	0.0167760
771.331	0.0168842
771.409	0.0167722
771.487	0.0165441
771.565	0.0165221
771.643	0.0164951
771.721	0.0164438
771.799	0.0164563
771.878	0.0163838
771.956	0.0164632
772.034	0.0162373
772.112	0.0162704
772.190	0.0163433
772.268	0.0162634
772.346	0.0161808
772.424	0.0161782
772.503	0.0161781
772.581	0.0161228
772.659	0.0162628
772.737	0.0162691
772.815	0.0162375
772.893	0.0163155
772.971	0.0164565
773.049	0.0163945
773.128	0.0164612
773.206	0.0165765
773.284	0.0166406
773.362	0.0167849
773.440	0.0167567
773.518	0.0167869
773.596	0.0169374
773.674	0.0168732
773.753	0.0168840
773.831	0.0168439
773.909	0.0168388
773.987	0.0168517
774.065	0.0167937
774.143	0.0166118
774.221	0.0165643
774.299	0.0166358
774.378	0.0164917
774.456	0.0165430
774.534	0.0163124
774.612	0.0162601
774.690	0.0162984
774.768	0.0162426
774.846	0.0162151
774.924	0.0159950
775.003	0.0160818
775.081	0.0161583
775.159	0.0161604
775.237	0.0160368
775.315	0.0160450
775.393	0.0159921
775.471	0.0159631
775.549	0.0159879
775.628	0.0159953
775.706	0.0159003
775.784	0.0159780
775.862	0.0159154
775.940	0.0161653
776.018	0.0160995
776.096	0.0160435
776.174	0.0162540
776.253	0.0161147
776.331	0.0161905
776.409	0.0162991
776.487	0.0162231
776.565	0.0163572
776.643	0.0161990
776.721	0.0163429
776.799	0.0163764
776.878	0.0163586
776.956	0.0162481
777.034	0.0163870
777.112	0.0163707
777.190	0.0163251
777.268	0.0162518
777.346	0.0162881
777.424	0.0164492
777.503	0.0162911
777.581	0.0164200
777.659	0.0163390
777.737	0.0163352
777.815	0.0162397
777.893	0.0163382
777.971	0.0162373
778.049	0.0163644
778.128	0.0162074
778.206	0.0160537
778.284	0.0162218
778.362	0.0163757
778.440	0.0162942
778.518	0.0162054
778.596	0.0162129
778.674	0.0161324
778.753	0.0163980
778.831	0.0163359
778.909	0.0163534
778.987	0.0163223
779.065	0.0164369
779.143	0.0165334
779.221	0.0165541
779.299	0.0166497
779.378	0.0166135
779.456	0.0167740
779.534	0.0168940
779.612	0.0167766
779.690	0.0167397
779.768	0.0167138
779.846	0.0168230
779.924	0.0166834
780.003	0.0166971
780.081	0.0166484
780.159	0.0167215
780.237	0.0166084
780.315	0.0164369
780.393	0.0164240
780.471	0.0165634
780.549	0.0163398
780.628	0.0163566
780.706	0.0162893
780.784	0.0162705
780.862	0.0161268
780.940	0.0161166
781.018	0.0161366
781.096	0.0159087
781.174	0.0160667
781.253	0.0160265
781.331	0.0159161
781.409	0.0159164
781.487	0.0160320
781.565	0.0159904
781.643	0.0158229
781.721	0.0159228
781.799	0.0159091
781.878	0.0158611
781.956	0.0159760
782.034	0.0161193
782.112	0.0160772
782.190	0.0160854
782.268	0.0163267
782.346	0.0161202
782.424	0.0162360
782.503	0.0163603
782.581	0.0163458
782.659	0.0162617
782.737	0.0162704
782.815	0.0164264
782.893	0.0163920
782.971	0.0163258
783.049	0.0164151
783.128	0.0165686
783.206	0.0165641
783.284	0.0164559
783.362	0.0164899
783.440	0.0164273
783.518	0.0164814
783.596	0.0162766
783.674	0.0163877
783.753	0.0164140
783.831	0.0162836
783.909	0.0163246
783.987	0.0163522
784.065	0.0163537
784.143	0.0164109
784.221	0.0162456
784.299	0.0162160
784.378	0.0161810
784.456	0.0162889
784.534	0.0163509
784.612	0.0163435
784.690	0.0162563
784.768	0.0162808
784.846	0.0161809
784.924	0.0162383
785.003	0.0162843
785.081	0.0162853
785.159	0.0163066
785.237	0.0163351
785.315	0.0162827
785.393	0.0162980
785.471	0.0161765
785.549	0.0163593
785.628	0.0164381
785.706	0.0163451
785.784	0.0165679
785.862	0.0164078
785.940	0.0164792
786.018	0.0165890
786.096	0.0164731
786.174	0.0164262
786.253	0.0164996
786.331	0.0164295
786.409	0.0165160
786.487	0.0163451
786.565	0.0162684
786.643	0.0162142
786.721	0.0161246
786.799	0.0161920
786.878	0.0160205
786.956	0.0159972
787.034	0.0160368
787.112	0.0158361
787.190	0.0160590
787.268	0.0159129
787.346	0.0158204
787.424	0.0158039
787.503	0.0157293
787.581	0.0157603
787.659	0.0158102
787.737	0.0157285
787.815	0.0159066
787.893	0.0158613
787.971	0.0158018
788.049	0.0159361
788.128	0.0160341
788.206	0.0160908
788.284	0.0161385
788.362	0.0160980
788.440	0.0162289
788.518	0.0163298
788.596	0.0163084
788.674	0.0163112
788.753	0.0163785
788.831	0.0163773
788.909	0.0163815
788.987	0.0165198
789.065	0.0166525
789.143	0.0166051
789.221	0.0165425
789.299	0.0163449
789.378	0.0164323
789.456	0.0166208
789.534	0.0165455
789.612	0.0165703
789.690	0.0163646
789.768	0.0164584
789.846	0.0165277
789.924	0.0163045
790.003	0.0164243
790.081	0.0163940
790.159	0.0163943
790.237	0.0163595
790.315	0.0163615
790.393	0.0164662
790.471	0.0163721
790.549	0.0164601
790.628	0.0163566
790.706	0.0164277
790.784	0.0163834
790.862	0.0164840
790.940	0.0165105
791.018	0.0164910
791.096	0.0166153
791.174	0.0162726
791.253	0.0164540
791.331	0.0164547
791.409	0.0164757
791.487	0.0164563
791.565	0.0165376
791.643	0.0165298
791.721	0.0163744
791.799	0.0162634
791.878	0.0163560
791.956	0.0164257
792.034	0.0163694
792.112	0.0163313
792.190	0.0164632
792.268	0.0162807
792.346	0.0162840
792.424	0.0163942
792.503	0.0163651
792.581	0.0163981
792.659	0.0163229
792.737	0.0163194
792.815	0.0163123
792.893	0.0162532
792.971	0.0164382
793.049	0.0163728
793.128	0.0164181
793.206	0.0163895
793.284	0.0163062
793.362	0.0164077
793.440	0.0162566
793.518	0.0162921
793.596	0.0162179
793.674	0.0162820
793.753	0.0162563
793.831	0.0161993
793.909	0.0162015
793.987	0.0161534
794.065	0.0162503
794.143	0.0162406
794.221	0.0162576
794.299	0.0161407
794.378	0.0162569
794.456	0.0163230
794.534	0.0163087
794.612	0.0163496
794.690	0.0163062
794.768	0.0164053
794.846	0.0164058
794.924	0.0163471
795.003	0.0162518
795.081	0.0164117
795.159	0.0162921
795.237	0.0165852
795.315	0.0164162
795.393	0.0163425
795.471	0.0164127
795.549	0.0163564
795.628	0.0163582
795.706	0.0162994
795.784	0.0162823
795.862	0.0161083
795.940	0.0162895
796.018	0.0162650
796.096	0.0162135
796.174	0.0160943
796.253	0.0161871
796.331	0.0161248
796.409	0.0161861
796.487	0.0162679
796.565	0.0162070
796.643	0.0160909
796.721	0.0162473
796.799	0.0162406
796.878	0.0162182
796.956	0.0162462
797.034	0.0162646
797.112	0.0162540
797.190	0.0161255
797.268	0.0161687
797.346	0.0162236
797.424	0.0163513
797.503	0.0163309
797.581	0.0164187
797.659	0.0163689
797.737	0.0165066
797.815	0.0163200
797.893	0.0163065
797.971	0.0164346
798.049	0.0164068
798.128	0.0163493
798.206	0.0163788
798.284	0.0163354
798.362	0.0163943
798.440	0.0163508
798.518	0.0164098
798.596	0.0165677
798.674	0.0163555
798.753	0.0163074
798.831	0.0163750
798.909	0.0164137
798.987	0.0164691
799.065	0.0162873
799.143	0.0164253
799.221	0.0162932
799.299	0.0163439
799.378	0.0164310
799.456	0.0162430
799.534	0.0162273
799.612	0.0162083
799.690	0.0162121
799.768	0.0162159
799.846	0.0162537
799.924	0.0162186
800.003	0.0160852
800.081	0.0161855
800.159	0.0159998
800.237	0.0159981
800.315	0.0159467
800.393	0.0160889
800.471	0.0160123
800.549	0.0159914
800.628	0.0161385
800.706	0.0160093
800.784	0.0159808
800.862	0.0160383
800.940	0.0160842
801.018	0.0161275
801.096	0.0162618
801.174	0.0162146
801.253	0.0162340
801.331	0.0161957
801.409	0.0162565
801.487	0.0163110
801.565	0.0163771
801.643	0.0163188
801.721	0.0163042
801.799	0.0163569
801.878	0.0162745
801.956	0.0161802
802.034	0.0162975
802.112	0.0163309
802.190	0.0163165
802.268	0.0160701
802.346	0.0161326
802.424	0.0161424
802.503	0.0160752
802.581	0.0160748
802.659	0.0160686
802.737	0.0160024
802.815	0.0159995
802.893	0.0160187
802.971	0.0160845
803.049	0.0159793
803.128	0.0159502
803.206	0.0158918
803.284	0.0159745
803.362	0.0159118
803.440	0.0158979
803.518	0.0158466
803.596	0.0158443
803.674	0.0158373
803.753	0.0159393
803.831	0.0159942
803.909	0.0158860
803.987	0.0158913
804.065	0.0160838
804.143	0.0159357
804.221	0.0159384
804.299	0.0160944
804.378	0.0160326
804.456	0.0160481
804.534	0.0162007
804.612	0.0161576
804.690	0.0162186
804.768	0.0161304
804.846	0.0161395
804.924	0.0162775
805.003	0.0163651
805.081	0.0163679
805.159	0.0164232
805.237	0.0163082
805.315	0.0162975
805.393	0.0163043
805.471	0.0165221
805.549	0.0164683
805.628	0.0164658
805.706	0.0165605
805.784	0.0164082
805.862	0.0164372
805.940	0.0164561
806.018	0.0163963
806.096	0.0163301
806.174	0.0165060
806.253	0.0163802
806.331	0.0162917
806.409	0.0164228
806.487	0.0162398
806.565	0.0161865
806.643	0.0162166
806.721	0.0162254
806.799	0.0161938
806.878	0.0160056
806.956	0.0161005
807.034	0.0160764
807.112	0.0160910
807.190	0.0160378
807.268	0.0160987
807.346	0.0161359
807.424	0.0160287
807.503	0.0161145
807.581	0.0160680
807.659	0.0162139
807.737	0.0160455
807.815	0.0161176
807.893	0.0162701
807.971	0.0163440
808.049	0.0161646
808.128	0.0161278
808.206	0.0163126
808.284	0.0161750
808.362	0.0163224
808.440	0.0163805
808.518	0.0161808
808.596	0.0163511
808.674	0.0162168
808.753	0.0162155
808.831	0.0162191
808.909	0.0161723
808.987	0.0162334
809.065	0.0162359
809.143	0.0162395
809.221	0.0161520
809.299	0.0161669
809.378	0.0160466
809.456	0.0164627
809.534	0.0163560
809.612	0.0161218
809.690	0.0163783
809.768	0.0163899
809.846	0.0162901
809.924	0.0163564
810.003	0.0163327
810.081	0.0162585
810.159	0.0161478
810.237	0.0163649
810.315	0.0164672
810.393	0.0163950
810.471	0.0162605
810.549	0.0162954
810.628	0.0163052
810.706	0.0163306
810.784	0.0160737
810.862	0.0160874
810.940	0.0160924
811.018	0.0162972
811.096	0.0162382
811.174	0.0162305
811.253	0.0163245
811.331	0.0162862
811.409	0.0163470
811.487	0.0162754
811.565	0.0162511
811.643	0.0163570
811.721	0.0162829
811.799	0.0163233
811.878	0.0162987
811.956	0.0163329
812.034	0.0162881
812.112	0.0163134
812.190	0.0163207
812.268	0.0165198
812.346	0.0164202
812.424	0.0162518
812.503	0.0165981
812.581	0.0163675
812.659	0.0163531
812.737	0.0164639
812.815	0.0163311
812.893	0.0163129
812.971	0.0162416
813.049	0.0165099
813.128	0.0162843
813.206	0.0163037
813.284	0.0161765
813.362	0.0161784
813.440	0.0161933
813.518	0.0162634
813.596	0.0161382
813.674	0.0161961
813.753	0.0162898
813.831	0.0161854
813.909	0.0161453
813.987	0.0162109
814.065	0.0161705
814.143	0.0162253
814.221	0.0163090
814.299	0.0163382
814.378	0.0164648
814.456	0.0163778
814.534	0.0164272
814.612	0.0163763
814.690	0.0164025
814.768	0.0163832
814.846	0.0165141
814.924	0.0166135
815.003	0.0164191
815.081	0.0164165
815.159	0.0164825
815.237	0.0164205
815.315	0.0164545
815.393	0.0164488
815.471	0.0164119
815.549	0.0163982
815.628	0.0162798
815.706	0.0163277
815.784	0.0163705
815.862	0.0162154
815.940	0.0161285
816.018	0.0162624
816.096	0.0162321
816.174	0.0160109
816.253	0.0161364
816.331	0.0160921
816.409	0.0160394
816.487	0.0160927
816.565	0.0159525
816.643	0.0161053
816.721	0.0160648
816.799	0.0160447
816.878	0.0159772
816.956	0.0159381
817.034	0.0161229
817.112	0.0161567
817.190	0.0160754
817.268	0.0161655
817.346	0.0160128
817.424	0.0161285
817.503	0.0161236
817.581	0.0160434
817.659	0.0161607
817.737	0.0162242
817.815	0.0160881
817.893	0.0162264
817.971	0.0162370
818.049	0.0161574
818.128	0.0161937
818.206	0.0162342
818.284	0.0162679
818.362	0.0164212
818.440	0.0163474
818.518	0.0161945
818.596	0.0163680
818.674	0.0162585
818.753	0.0162096
818.831	0.0162798
818.909	0.0163335
818.987	0.0163511
819.065	0.0162832
819.143	0.0162394
819.221	0.0162553
819.299	0.0162238
819.378	0.0162423
819.456	0.0162278
819.534	0.0161820
819.612	0.0162647
819.690	0.0161685
819.768	0.0160101
819.846	0.0160748
819.924	0.0160416
820.003	0.0160425
820.081	0.0159419
820.159	0.0160687
820.237	0.0160483
820.315	0.0158546
820.393	0.0159322
820.471	0.0158128
820.549	0.0157687
820.628	0.0159930
820.706	0.0159964
820.784	0.0159269
820.862	0.0157868
820.940	0.0159291
821.018	0.0159983
821.096	0.0159700
821.174	0.0160290
821.253	0.0159484
821.331	0.0159658
821.409	0.0158999
821.487	0.0160651
821.565	0.0160643
821.643	0.0160307
821.721	0.0160729
821.799	0.0160182
821.878	0.0162405
821.956	0.0162392
822.034	0.0161413
822.112	0.0163285
822.190	0.0161859
822.268	0.0163627
822.346	0.0163175
822.424	0.0162865
822.503	0.0162753
822.581	0.0162943
822.659	0.0162928
822.737	0.0161992
822.815	0.0162346
822.893	0.0162488
822.971	0.0161604
823.049	0.0161906
823.128	0.0161103
823.206	0.0161538
823.284	0.0161387
823.362	0.0160725
823.440	0.0160332
823.518	0.0159958
823.596	0.0161749
823.674	0.0161170
823.753	0.0158595
823.831	0.0160806
823.909	0.0159893
823.987	0.0157886
824.065	0.0158767
824.143	0.0158659
824.221	0.0160551
824.299	0.0159906
824.378	0.0157964
824.456	0.0160043
824.534	0.0160140
824.612	0.0158898
824.690	0.0160223
824.768	0.0160117
824.846	0.0160453
824.924	0.0160310
825.003	0.0159927
825.081	0.0160550
825.159	0.0162333
825.237	0.0161638
825.315	0.0162341
825.393	0.0161103
825.471	0.0161501
825.549	0.0162278
825.628	0.0161241
825.706	0.0161898
825.784	0.0163567
825.862	0.0162983
825.940	0.0162828
826.018	0.0162553
826.096	0.0164436
826.174	0.0164042
826.253	0.0163482
826.331	0.0164632
826.409	0.0163923
826.487	0.0163663
826.565	0.0164971
826.643	0.0165099
826.721	0.0162585
826.799	0.0164005
826.878	0.0162308
826.956	0.0163677
827.034	0.0162815
827.112	0.0163210
827.190	0.0163450
827.268	0.0163058
827.346	0.0163110
827.424	0.0162336
827.503	0.0161229
827.581	0.0162065
827.659	0.0160075
827.737	0.0160221
827.815	0.0159517
827.893	0.0159680
827.971	0.0160116
828.049	0.0159025
828.128	0.0159232
828.206	0.0159663
828.284	0.0157986
828.362	0.0158434
828.440	0.0157702
828.518	0.0157706
828.596	0.0158795
828.674	0.0160043
828.753	0.0161411
828.831	0.0159233
828.909	0.0159762
828.987	0.0160349
829.065	0.0161547
829.143	0.0160836
829.221	0.0161893
829.299	0.0162428
829.378	0.0161191
829.456	0.0162057
829.534	0.0163300
829.612	0.0163173
829.690	0.0164757
829.768	0.0164457
829.846	0.0163731
829.924	0.0164637
830.003	0.0163835
830.081	0.0163957
830.159	0.0165350
830.237	0.0166245
830.315	0.0164971
830.393	0.0166040
830.471	0.0164651
830.549	0.0163955
830.628	0.0165466
830.706	0.0165294
830.784	0.0163484
830.862	0.0163358
830.940	0.0162104
831.018	0.0162258
831.096	0.0162913
831.174	0.0162407
831.253	0.0161874
831.331	0.0161263
831.409	0.0161395
831.487	0.0159441
831.565	0.0160693
831.643	0.0160153
831.721	0.0160127
831.799	0.0161844
831.878	0.0161803
831.956	0.0160220
832.034	0.0160841
832.112	0.0161343
832.190	0.0162612
832.268	0.0162923
832.346	0.0162469
832.424	0.0162085
832.503	0.0162114
832.581	0.0162315
832.659	0.0162304
832.737	0.0163350
832.815	0.0163532
832.893	0.0162393
832.971	0.0162296
833.049	0.0163477
833.128	0.0163403
833.206	0.0163322
833.284	0.0163622
833.362	0.0162864
833.440	0.0163523
833.518	0.0163641
833.596	0.0164344
833.674	0.0163498
833.753	0.0162354
833.831	0.0163991
833.909	0.0164020
833.987	0.0164471
834.065	0.0164311
834.143	0.0165405
834.221	0.0164985
834.299	0.0163819
834.378	0.0163877
834.456	0.0164095
834.534	0.0163251
834.612	0.0164149
834.690	0.0163520
834.768	0.0163962
834.846	0.0164186
834.924	0.0163320
835.003	0.0162519
835.081	0.0162705
835.159	0.0161775
835.237	0.0163259
835.315	0.0162740
835.393	0.0161765
835.471	0.0162688
835.549	0.0163203
835.628	0.0163145
835.706	0.0162957
835.784	0.0162785
835.862	0.0161961
835.940	0.0162502
836.018	0.0162938
836.096	0.0163301
836.174	0.0162470
836.253	0.0162798
836.331	0.0163876
836.409	0.0162796
836.487	0.0162849
836.565	0.0163819
836.643	0.0164721
836.721	0.0163152
836.799	0.0163331
836.878	0.0163927
836.956	0.0164467
837.034	0.0164231
837.112	0.0163877
837.190	0.0164383
837.268	0.0163637
837.346	0.0163470
837.424	0.0164771
837.503	0.0162976
837.581	0.0164433
837.659	0.0163783
837.737	0.0162874
837.815	0.0162712
837.893	0.0163653
837.971	0.0162498
838.049	0.0162180
838.128	0.0163960
838.206	0.0162402
838.284	0.0163042
838.362	0.0161412
838.440	0.0162840
838.518	0.0160474
838.596	0.0161495
838.674	0.0162292
838.753	0.0161623
838.831	0.0161895
838.909	0.0163647
838.987	0.0162158
839.065	0.0162125
839.143	0.0162345
839.221	0.0161127
839.299	0.0162657
839.378	0.0161636
839.456	0.0162589
839.534	0.0160651
839.612	0.0161269
839.690	0.0161649
839.768	0.0161636
839.846	0.0161352
839.924	0.0161604
840.003	0.0161213
840.081	0.0162037
840.159	0.0160422
840.237	0.0162159
840.315	0.0161457
840.393	0.0161460
840.471	0.0161933
840.549	0.0162614
840.628	0.0162732
840.706	0.0162791
840.784	0.0162326
840.862	0.0162334
840.940	0.0163235
841.018	0.0162293
841.096	0.0162346
841.174	0.0162771
841.253	0.0162457
841.331	0.0163631
841.409	0.0161992
841.487	0.0161536
841.565	0.0162185
841.643	0.0163208
841.721	0.0163052
841.799	0.0163272
841.878	0.0161504
841.956	0.0161353
842.034	0.0161393
842.112	0.0162196
842.190	0.0163162
842.268	0.0162064
842.346	0.0160484
842.424	0.0161986
842.503	0.0161651
842.581	0.0161867
842.659	0.0159974
842.737	0.0160284
842.815	0.0161451
842.893	0.0161247
842.971	0.0162080
843.049	0.0160133
843.128	0.0160614
843.206	0.0161082
843.284	0.0159931
843.362	0.0160320
843.440	0.0160011
843.518	0.0161419
843.596	0.0161507
843.674	0.0161423
843.753	0.0161924
843.831	0.0161047
843.909	0.0161504
843.987	0.0161808
844.065	0.0161982
844.143	0.0162589
844.221	0.0160427
844.299	0.0160128
844.378	0.0161594
844.456	0.0161121
844.534	0.0160673
844.612	0.0162124
844.690	0.0162767
844.768	0.0160814
844.846	0.0160374
844.924	0.0160735
845.003	0.0161412
845.081	0.0162342
845.159	0.0163311
845.237	0.0162176
845.315	0.0161506
845.393	0.0161840
845.471	0.0162794
845.549	0.0162459
845.628	0.0161900
845.706	0.0164036
845.784	0.0161470
845.862	0.0162361
845.940	0.0163360
846.018	0.0162325
846.096	0.0163580
846.174	0.0161903
846.253	0.0163421
846.331	0.0162201
846.409	0.0162673
846.487	0.0162740
846.565	0.0162177
846.643	0.0162124
846.721	0.0163205
846.799	0.0162019
846.878	0.0162991
846.956	0.0162971
847.034	0.0160882
847.112	0.0161926
847.190	0.0162935
847.268	0.0162266
847.346	0.0163638
847.424	0.0161792
847.503	0.0162788
847.581	0.0164609
847.659	0.0162321
847.737	0.0160880
847.815	0.0162262
847.893	0.0164729
847.971	0.0162659
848.049	0.0162418
848.128	0.0163875
848.206	0.0164684
848.284	0.0163393
848.362	0.0164821
848.440	0.0164749
848.518	0.0164708
848.596	0.0164307
848.674	0.0165112
848.753	0.0164724
848.831	0.0163788
848.909	0.0165015
848.987	0.0165272
849.065	0.0164178
849.143	0.0164015
849.221	0.0164293
849.299	0.0165345
849.378	0.0162730
849.456	0.0163795
849.534	0.0164284
849.612	0.0162406
849.690	0.0162624
849.768	0.0162730
849.846	0.0162352
849.924	0.0163181
850.003	0.0162333
850.081	0.0161427
850.159	0.0161422
850.237	0.0162977
850.315	0.0163365
850.393	0.0162643
850.471	0.0164318
850.549	0.0164040
850.628	0.0163500
850.706	0.0164196
850.784	0.0164002
850.862	0.0163528
850.940	0.0164750
851.018	0.0166286
851.096	0.0164024
851.174	0.0164706
851.253	0.0165303
851.331	0.0165215
851.409	0.0166341
851.487	0.0164902
851.565	0.0165691
851.643	0.0165347
851.721	0.0165614
851.799	0.0166503
851.878	0.0166250
851.956	0.0164221
852.034	0.0165475
852.112	0.0164689
852.190	0.0164974
852.268	0.0165837
852.346	0.0164823
852.424	0.0163476
852.503	0.0164967
852.581	0.0166339
852.659	0.0165118
852.737	0.0163831
852.815	0.0164756
852.893	0.0164323
852.971	0.0165549
853.049	0.0163811
853.128	0.0162867
853.206	0.0164558
853.284	0.0163125
853.362	0.0162758
853.440	0.0163671
853.518	0.0164742
853.596	0.0164084
853.674	0.0164349
853.753	0.0162473
853.831	0.0163707
853.909	0.0162829
853.987	0.0162910
854.065	0.0162064
854.143	0.0161886
854.221	0.0161249
854.299	0.0159696
854.378	0.0161427
854.456	0.0161684
854.534	0.0161803
854.612	0.0160545
854.690	0.0159716
854.768	0.0159469
854.846	0.0159990
854.924	0.0159978
855.003	0.0161607
855.081	0.0159895
855.159	0.0160606
855.237	0.0160091
855.315	0.0160486
855.393	0.0160935
855.471	0.0161071
855.549	0.0161953
855.628	0.0160229
855.706	0.0161021
855.784	0.0163320
855.862	0.0162828
855.940	0.0160892
856.018	0.0161339
856.096	0.0163273
856.174	0.0162130
856.253	0.0162095
856.331	0.0163483
856.409	0.0162729
856.487	0.0163303
856.565	0.0162663
856.643	0.0164302
856.721	0.0163759
856.799	0.0163197
856.878	0.0162569
856.956	0.0163350
857.034	0.0164206
857.112	0.0163237
857.190	0.0162539
857.268	0.0162865
857.346	0.0162619
857.424	0.0162549
857.503	0.0162783
857.581	0.0162766
857.659	0.0163697
857.737	0.0161947
857.815	0.0162228
857.893	0.0162862
857.971	0.0162621
858.049	0.0162627
858.128	0.0162968
858.206	0.0162106
858.284	0.0163313
858.362	0.0164241
858.440	0.0163647
858.518	0.0164408
858.596	0.0163451
858.674	0.0162485
858.753	0.0162840
858.831	0.0162391
858.909	0.0162320
858.987	0.0163020
859.065	0.0161834
859.143	0.0162238
859.221	0.0161586
859.299	0.0162547
859.378	0.0161739
859.456	0.0163170
859.534	0.0162194
859.612	0.0161734
859.690	0.0162086
859.768	0.0161713
859.846	0.0161120
859.924	0.0160046
860.003	0.0161900
860.081	0.0160614
860.159	0.0160537
860.237	0.0160583
860.315	0.0161880
860.393	0.0161343
860.471	0.0160895
860.549	0.0160465
860.628	0.0161387
860.706	0.0160955
860.784	0.0161645
860.862	0.0160460
860.940	0.0160851
861.018	0.0160006
861.096	0.0160008
861.174	0.0160506
861.253	0.0161322
861.331	0.0160802
861.409	0.0160651
861.487	0.0161942
861.565	0.0161248
861.643	0.0160233
861.721	0.0160700
861.799	0.0160592
861.878	0.0160055
861.956	0.0160907
862.034	0.0159952
862.112	0.0160705
862.190	0.0161137
862.268	0.0160205
862.346	0.0161717
862.424	0.0161440
862.503	0.0160503
862.581	0.0160825
862.659	0.0161679
862.737	0.0160887
862.815	0.0162756
862.893	0.0162476
862.971	0.0161513
863.049	0.0161537
863.128	0.0162827
863.206	0.0162627
863.284	0.0163024
863.362	0.0162489
863.440	0.0161093
863.518	0.0162419
863.596	0.0162964
863.674	0.0162855
863.753	0.0161880
863.831	0.0162812
863.909	0.0163783
863.987	0.0162615
864.065	0.0163260
864.143	0.0162568
864.221	0.0162681
864.299	0.0162399
864.378	0.0163128
864.456	0.0163049
864.534	0.0162000
864.612	0.0162284
864.690	0.0162605
864.768	0.0163643
864.846	0.0162021
864.924	0.0163171
865.003	0.0162425
865.081	0.0161757
865.159	0.0162873
865.237	0.0162057
865.315	0.0161686
865.393	0.0162576
865.471	0.0161080
865.549	0.0160172
865.628	0.0161740
865.706	0.0163084
865.784	0.0161060
865.862	0.0160205
865.940	0.0161042
866.018	0.0161550
866.096	0.0160851
866.174	0.0159884
866.253	0.0160984
866.331	0.0161897
866.409	0.0160329
866.487	0.0161485
866.565	0.0161456
866.643	0.0161137
866.721	0.0160699
866.799	0.0161105
866.878	0.0160827
866.956	0.0161137
867.034	0.0162310
867.112	0.0162868
867.190	0.0161263
867.268	0.0163158
867.346	0.0163068
867.424	0.0161713
867.503	0.0162347
867.581	0.0163519
867.659	0.0162211
867.737	0.0162778
867.815	0.0163744
867.893	0.0162942
867.971	0.0161890
868.049	0.0162905
868.128	0.0164224
868.206	0.0162604
868.284	0.0162895
868.362	0.0163945
868.440	0.0163429
868.518	0.0163084
868.596	0.0163657
868.674	0.0163499
868.753	0.0162868
868.831	0.0161958
868.909	0.0162582
868.987	0.0161993
869.065	0.0163039
869.143	0.0163806
869.221	0.0163718
869.299	0.0162617
869.378	0.0163879
869.456	0.0163672
869.534	0.0163112
869.612	0.0163564
869.690	0.0163062
869.768	0.0162303
869.846	0.0162917
869.924	0.0162737
870.003	0.0164823
870.081	0.0163707
870.159	0.0161689
870.237	0.0163552
870.315	0.0162425
870.393	0.0163130
870.471	0.0164680
870.549	0.0163815
870.628	0.0163235
870.706	0.0163570
870.784	0.0164050
870.862	0.0163614
870.940	0.0163177
871.018	0.0163810
871.096	0.0164391
871.174	0.0162907
871.253	0.0163100
871.331	0.0163070
871.409	0.0163497
871.487	0.0163271
871.565	0.0165332
871.643	0.0164110
871.721	0.0163396
871.799	0.0162905
871.878	0.0162902
871.956	0.0163319
872.034	0.0164191
872.112	0.0163123
872.190	0.0163992
872.268	0.0164339
872.346	0.0163096
872.424	0.0162901
872.503	0.0163843
872.581	0.0164760
872.659	0.0164529
872.737	0.0163542
872.815	0.0163268
872.893	0.0164806
872.971	0.0163766
873.049	0.0164516
873.128	0.0164262
873.206	0.0164226
873.284	0.0162958
873.362	0.0163070
873.440	0.0165283
873.518	0.0165300
873.596	0.0162347
873.674	0.0163723
873.753	0.0164964
873.831	0.0164802
873.909	0.0164102
873.987	0.0165788
874.065	0.0165338
874.143	0.0164443
874.221	0.0164431
874.299	0.0165044
874.378	0.0163963
874.456	0.0165285
874.534	0.0165797
874.612	0.0163600
874.690	0.0163535
874.768	0.0163560
874.846	0.0163502
874.924	0.0164767
875.003	0.0163557
875.081	0.0163731
875.159	0.0164263
875.237	0.0164452
875.315	0.0162226
875.393	0.0163523
875.471	0.0162427
875.549	0.0164488
875.628	0.0164201
875.706	0.0165202
875.784	0.0163128
875.862	0.0163770
875.940	0.0165572
876.018	0.0164474
876.096	0.0164539
876.174	0.0163730
876.253	0.0164693
876.331	0.0164952
876.409	0.0164481
876.487	0.0165638
876.565	0.0164471
876.643	0.0164259
876.721	0.0164589
876.799	0.0164729
876.878	0.0164793
876.956	0.0165814
877.034	0.0165335
877.112	0.0163845
877.190	0.0162986
877.268	0.0165588
877.346	0.0164100
877.424	0.0164011
877.503	0.0163537
877.581	0.0163977
877.659	0.0162868
877.737	0.0162550
877.815	0.0162586
877.893	0.0163734
877.971	0.0163985
878.049	0.0163354
878.128	0.0162746
878.206	0.0162281
878.284	0.0163759
878.362	0.0162888
878.440	0.0163982
878.518	0.0164783
878.596	0.0163509
878.674	0.0162421
878.753	0.0163451
878.831	0.0162316
878.909	0.0161938
878.987	0.0162878
879.065	0.0163054
879.143	0.0163495
879.221	0.0162613
879.299	0.0163519
879.378	0.0163043
879.456	0.0164832
879.534	0.0164169
879.612	0.0162984
879.690	0.0163062
879.768	0.0162002
879.846	0.0162400
879.924	0.0162992
880.003	0.0164127
880.081	0.0163146
880.159	0.0163528
880.237	0.0162923
880.315	0.0163305
880.393	0.0164283
880.471	0.0163077
880.549	0.0163112
880.628	0.0163667
880.706	0.0163931
880.784	0.0162627
880.862	0.0162553
880.940	0.0164497
881.018	0.0161350
881.096	0.0162221
881.174	0.0162574
881.253	0.0163137
881.331	0.0163236
881.409	0.0162558
881.487	0.0161742
881.565	0.0162312
881.643	0.0161929
881.721	0.0160813
881.799	0.0162653
881.878	0.0162743
881.956	0.0162403
882.034	0.0162579
882.112	0.0163303
882.190	0.0162519
882.268	0.0161812
882.346	0.0161107
882.424	0.0162296
882.503	0.0163419
882.581	0.0162012
882.659	0.0163181
882.737	0.0162666
882.815	0.0162283
882.893	0.0163332
882.971	0.0162025
883.049	0.0161507
883.128	0.0162997
883.206	0.0162004
883.284	0.0161639
883.362	0.0161374
883.440	0.0161250
883.518	0.0161899
883.596	0.0163600
883.674	0.0160651
883.753	0.0162054
883.831	0.0161868
883.909	0.0162418
883.987	0.0163242
884.065	0.0162738
884.143	0.0162589
884.221	0.0162182
884.299	0.0162978
884.378	0.0163449
884.456	0.0162048
884.534	0.0162195
884.612	0.0164173
884.690	0.0162798
884.768	0.0161077
884.846	0.0163183
884.924	0.0164094
885.003	0.0162317
885.081	0.0162817
885.159	0.0162798
885.237	0.0163825
885.315	0.0163423
885.393	0.0162402
885.471	0.0164941
885.549	0.0163522
885.628	0.0162669
885.706	0.0162850
885.784	0.0162806
885.862	0.0161724
885.940	0.0162192
886.018	0.0161196
886.096	0.0162121
886.174	0.0162610
886.253	0.0161896
886.331	0.0162646
886.409	0.0160566
886.487	0.0161432
886.565	0.0160131
886.643	0.0160216
886.721	0.0160514
886.799	0.0160678
886.878	0.0159756
886.956	0.0160394
887.034	0.0160264
887.112	0.0160117
887.190	0.0158886
887.268	0.0160381
887.346	0.0158794
887.424	0.0158701
887.503	0.0157931
887.581	0.0157058
887.659	0.0157555
887.737	0.0158630
887.815	0.0157691
887.893	0.0158439
887.971	0.0157957
888.049	0.0158398
888.128	0.0158133
888.206	0.0157510
888.284	0.0157464
888.362	0.0156510
888.440	0.0160057
888.518	0.0159435
888.596	0.0158775
888.674	0.0157714
888.753	0.0158885
888.831	0.0158580
888.909	0.0159217
888.987	0.0158919
889.065	0.0159521
889.143	0.0161790
889.221	0.0160693
889.299	0.0159932
889.378	0.0160264
889.456	0.0159910
889.534	0.0160000
889.612	0.0160223
889.690	0.0160863
889.768	0.0160278
889.846	0.0161317
889.924	0.0162035
890.003	0.0160090
890.081	0.0160650
890.159	0.0160141
890.237	0.0160769
890.315	0.0160552
890.393	0.0161976
890.471	0.0160592
890.549	0.0162009
890.628	0.0161396
890.706	0.0160776
890.784	0.0160925
890.862	0.0161200
890.940	0.0162103
891.018	0.0162042
891.096	0.0161754
891.174	0.0162434
891.253	0.0161087
891.331	0.0160497
891.409	0.0161818
891.487	0.0162637
891.565	0.0162425
891.643	0.0162892
891.721	0.0162370
891.799	0.0162946
891.878	0.0162704
891.956	0.0162629
892.034	0.0162482
892.112	0.0162846
892.190	0.0163222
892.268	0.0163647
892.346	0.0163477
892.424	0.0164233
892.503	0.0164379
892.581	0.0165018
892.659	0.0163852
892.737	0.0163120
892.815	0.0163236
892.893	0.0164426
892.971	0.0164757
893.049	0.0163712
893.128	0.0164303
893.206	0.0163808
893.284	0.0164838
893.362	0.0164839
893.440	0.0163402
893.518	0.0164968
893.596	0.0163845
893.674	0.0165479
893.753	0.0165273
893.831	0.0165073
893.909	0.0165022
893.987	0.0166961
894.065	0.0165297
894.143	0.0164766
894.221	0.0165948
894.299	0.0166177
894.378	0.0166373
894.456	0.0166647
894.534	0.0165284
894.612	0.0166881
894.690	0.0164431
894.768	0.0166264
894.846	0.0166681
894.924	0.0165913
895.003	0.0165390
895.081	0.0166174
895.159	0.0164369
895.237	0.0164740
895.315	0.0165857
895.393	0.0165584
895.471	0.0164478
895.549	0.0166219
895.628	0.0165555
895.706	0.0165485
895.784	0.0165394
895.862	0.0164265
895.940	0.0165969
896.018	0.0163700
896.096	0.0163129
896.174	0.0164351
896.253	0.0162875
896.331	0.0163999
896.409	0.0162718
896.487	0.0163699
896.565	0.0163725
896.643	0.0162600
896.721	0.0162704
896.799	0.0162596
896.878	0.0162125
896.956	0.0163629
897.034	0.0163579
897.112	0.0163488
897.190	0.0163107
897.268	0.0162757
897.346	0.0162984
897.424	0.0163527
897.503	0.0163779
897.581	0.0162019
897.659	0.0162582
897.737	0.0161987
897.815	0.0162215
897.893	0.0162776
897.971	0.0162484
898.049	0.0161717
898.128	0.0163687
898.206	0.0162076
898.284	0.0161884
898.362	0.0163343
898.440	0.0163058
898.518	0.0161089
898.596	0.0162151
898.674	0.0162908
898.753	0.0162476
898.831	0.0161636
898.909	0.0161633
898.987	0.0161788
899.065	0.0161903
899.143	0.0162301
899.221	0.0160976
899.299	0.0162520
899.378	0.0161719
899.456	0.0161800
899.534	0.0162664
899.612	0.0163334
899.690	0.0162612
899.768	0.0162084
899.846	0.0162920
899.924	0.0162458
900.003	0.0162421
900.081	0.0161938
900.159	0.0162453
900.237	0.0161048
900.315	0.0162234
900.393	0.0162823
900.471	0.0163616
900.549	0.0162777
900.628	0.0162369
900.706	0.0163045
900.784	0.0162967
900.862	0.0161347
900.940	0.0162131
901.018	0.0163818
901.096	0.0162804
901.174	0.0161985
901.253	0.0163133
901.331	0.0162940
901.409	0.0163716
901.487	0.0162813
901.565	0.0162723
901.643	0.0161897
901.721	0.0161471
901.799	0.0163070
901.878	0.0163126
901.956	0.0163161
902.034	0.0161834
902.112	0.0162574
902.190	0.0161596
902.268	0.0162455
902.346	0.0162984
902.424	0.0162108
902.503	0.0162527
902.581	0.0163069
902.659	0.0162666
902.737	0.0162333
902.815	0.0161668
902.893	0.0163093
902.971	0.0163018
903.049	0.0162885
903.128	0.0163751
903.206	0.0164162
903.284	0.0163352
903.362	0.0162597
903.440	0.0162992
903.518	0.0164863
903.596	0.0164604
903.674	0.0164449
903.753	0.0164660
903.831	0.0165109
903.909	0.0164371
903.987	0.0163792
904.065	0.0162151
904.143	0.0165088
904.221	0.0163763
904.299	0.0164895
904.378	0.0163778
904.456	0.0164481
904.534	0.0164953
904.612	0.0163683
904.690	0.0164055
904.768	0.0163223
904.846	0.0164082
904.924	0.0163265
905.003	0.0164468
905.081	0.0164438
905.159	0.0164378
905.237	0.0164218
905.315	0.0163641
905.393	0.0165131
905.471	0.0165909
905.549	0.0164500
905.628	0.0164793
905.706	0.0164150
905.784	0.0164298
905.862	0.0164365
905.940	0.0163595
906.018	0.0164467
906.096	0.0165237
906.174	0.0163422
906.253	0.0165059
906.331	0.0165690
906.409	0.0164808
906.487	0.0163063
906.565	0.0164465
906.643	0.0163859
906.721	0.0163094
906.799	0.0164527
906.878	0.0163928
906.956	0.0161981
907.034	0.0161997
907.112	0.0162964
907.190	0.0161543
907.268	0.0162366
907.346	0.0161760
907.424	0.0162633
907.503	0.0162457
907.581	0.0161676
907.659	0.0162828
907.737	0.0163026
907.815	0.0162058
907.893	0.0162154
907.971	0.0163037
908.049	0.0163080
908.128	0.0162215
908.206	0.0162286
908.284	0.0161407
908.362	0.0163329
908.440	0.0163258
908.518	0.0162279
908.596	0.0161758
908.674	0.0161262
908.753	0.0162379
908.831	0.0160680
908.909	0.0162217
908.987	0.0161185
909.065	0.0164223
909.143	0.0162271
909.221	0.0160973
909.299	0.0160977
909.378	0.0163041
909.456	0.0163277
909.534	0.0160657
909.612	0.0162421
909.690	0.0161948
909.768	0.0162906
909.846	0.0162626
909.924	0.0162937
910.003	0.0161437
910.081	0.0162321
910.159	0.0162179
910.237	0.0161257
910.315	0.0160882
910.393	0.0161491
910.471	0.0161011
910.549	0.0161909
910.628	0.0161666
910.706	0.0161466
910.784	0.0160097
910.862	0.0159592
910.940	0.0160735
911.018	0.0160423
911.096	0.0159901
911.174	0.0159779
911.253	0.0160240
911.331	0.0159298
911.409	0.0159739
911.487	0.0160116
911.565	0.0160047
911.643	0.0158237
911.721	0.0159843
911.799	0.0160184
911.878	0.0158460
911.956	0.0159715
912.034	0.0159243
912.112	0.0158916
912.190	0.0159521
912.268	0.0160860
912.346	0.0161101
912.424	0.0161399
912.503	0.0161580
912.581	0.0161380
912.659	0.0161905
912.737	0.0162018
912.815	0.0163451
912.893	0.0162146
912.971	0.0162403
913.049	0.0160205
913.128	0.0162726
913.206	0.0162543
913.284	0.0162547
913.362	0.0162005
913.440	0.0162267
913.518	0.0162934
913.596	0.0160889
913.674	0.0162640
913.753	0.0162252
913.831	0.0162567
913.909	0.0161792
913.987	0.0161665
914.065	0.0162784
914.143	0.0161846
914.221	0.0161594
914.299	0.0161302
914.378	0.0162595
914.456	0.0161556
914.534	0.0162437
914.612	0.0161449
914.690	0.0163351
914.768	0.0161322
914.846	0.0162112
914.924	0.0163766
915.003	0.0161538
915.081	0.0162370
915.159	0.0162820
915.237	0.0162141
915.315	0.0162872
915.393	0.0162878
915.471	0.0162988
915.549	0.0162670
915.628	0.0162791
915.706	0.0164017
915.784	0.0162646
915.862	0.0162612
915.940	0.0163472
916.018	0.0163188
916.096	0.0163029
916.174	0.0163953
916.253	0.0164468
916.331	0.0163139
916.409	0.0162964
916.487	0.0163297
916.565	0.0161885
916.643	0.0162759
916.721	0.0162984
916.799	0.0164314
916.878	0.0164537
916.956	0.0163118
917.034	0.0162012
917.112	0.0161833
917.190	0.0161812
917.268	0.0162488
917.346	0.0162434
917.424	0.0162295
917.503	0.0161759
917.581	0.0162098
917.659	0.0162021
917.737	0.0161398
917.815	0.0161568
917.893	0.0162446
917.971	0.0160384
918.049	0.0161298
918.128	0.0163087
918.206	0.0161151
918.284	0.0161136
918.362	0.0161891
918.440	0.0160538
918.518	0.0162463
918.596	0.0162286
918.674	0.0160847
918.753	0.0160746
918.831	0.0160654
918.909	0.0162811
918.987	0.0162507
919.065	0.0162132
919.143	0.0161510
919.221	0.0162168
919.299	0.0161576
919.378	0.0161475
919.456	0.0162142
919.534	0.0161948
919.612	0.0162659
919.690	0.0162479
919.768	0.0161800
919.846	0.0162679
919.924	0.0163451
920.003	0.0162755
920.081	0.0163647
920.159	0.0162957
920.237	0.0162596
920.315	0.0162836
920.393	0.0163893
920.471	0.0165475
920.549	0.0164254
920.628	0.0164102
920.706	0.0164406
920.784	0.0164888
920.862	0.0164619
920.940	0.0165568
921.018	0.0164488
921.096	0.0163284
921.174	0.0165801
921.253	0.0164566
921.331	0.0163445
921.409	0.0164945
921.487	0.0163831
921.565	0.0165387
921.643	0.0163174
921.721	0.0163847
921.799	0.0163919
921.878	0.0163110
921.956	0.0164051
922.034	0.0162712
922.112	0.0163772
922.190	0.0162897
922.268	0.0161950
922.346	0.0163263
922.424	0.0163496
922.503	0.0162011
922.581	0.0161711
922.659	0.0163374
922.737	0.0162128
922.815	0.0162651
922.893	0.0161328
922.971	0.0162999
923.049	0.0162085
923.128	0.0161198
923.206	0.0161163
923.284	0.0162591
923.362	0.0161595
923.440	0.0162796
923.518	0.0162605
923.596	0.0163412
923.674	0.0163325
923.753	0.0161758
923.831	0.0162005
923.909	0.0163240
923.987	0.0164002
924.065	0.0163438
924.143	0.0163246
924.221	0.0163149
924.299	0.0164510
924.378	0.0162621
924.456	0.0162816
924.534	0.0164595
924.612	0.0163597
924.690	0.0162922
924.768	0.0163259
924.846	0.0162114
924.924	0.0162366
925.003	0.0163072
925.081	0.0162943
925.159	0.0164436
925.237	0.0163513
925.315	0.0163247
925.393	0.0162775
925.471	0.0162894
925.549	0.0162422
925.628	0.0162205
925.706	0.0162037
925.784	0.0162042
925.862	0.0162891
925.940	0.0162036
926.018	0.0161729
926.096	0.0161563
926.174	0.0162456
926.253	0.0162466
926.331	0.0160669
926.409	0.0161260
926.487	0.0162198
926.565	0.0161290
926.643	0.0161987
926.721	0.0162135
926.799	0.0161874
926.878	0.0162108
926.956	0.0161784
927.034	0.0161261
927.112	0.0161713
927.190	0.0162061
927.268	0.0160896
927.346	0.0161794
927.424	0.0162334
927.503	0.0162142
927.581	0.0162899
927.659	0.0161647
927.737	0.0161904
927.815	0.0163097
927.893	0.0161105
927.971	0.0161784
928.049	0.0162679
928.128	0.0162493
928.206	0.0161486
928.284	0.0164122
928.362	0.0162974
928.440	0.0161042
928.518	0.0162415
928.596	0.0162083
928.674	0.0162450
928.753	0.0161903
928.831	0.0160735
928.909	0.0161829
928.987	0.0162672
929.065	0.0160848
929.143	0.0160647
929.221	0.0161365
929.299	0.0162615
929.378	0.0162517
929.456	0.0160955
929.534	0.0162076
929.612	0.0161137
929.690	0.0161299
929.768	0.0160595
929.846	0.0161371
929.924	0.0160373
930.003	0.0161414
930.081	0.0161340
930.159	0.0160404
930.237	0.0161906
930.315	0.0162254
930.393	0.0162017
930.471	0.0161248
930.549	0.0160664
930.628	0.0161723
930.706	0.0162572
930.784	0.0161987
930.862	0.0161523
930.940	0.0161108
931.018	0.0161770
931.096	0.0161894
931.174	0.0162105
931.253	0.0161496
931.331	0.0162090
931.409	0.0162929
931.487	0.0163084
931.565	0.0162913
931.643	0.0162759
931.721	0.0162584
931.799	0.0162482
931.878	0.0162253
931.956	0.0161626
932.034	0.0162123
932.112	0.0160391
932.190	0.0160209
932.268	0.0161397
932.346	0.0163575
932.424	0.0162467
932.503	0.0159680
932.581	0.0160601
932.659	0.0159873
932.737	0.0161112
932.815	0.0159625
932.893	0.0160405
932.971	0.0159525
933.049	0.0160828
933.128	0.0161046
933.206	0.0161570
933.284	0.0161565
933.362	0.0161691
933.440	0.0161819
933.518	0.0162244
933.596	0.0162618
933.674	0.0162460
933.753	0.0161877
933.831	0.0162124
933.909	0.0162215
933.987	0.0162455
934.065	0.0162379
934.143	0.0161518
934.221	0.0162169
934.299	0.0163125
934.378	0.0161939
934.456	0.0160967
934.534	0.0162473
934.612	0.0162249
934.690	0.0161476
934.768	0.0161484
934.846	0.0161366
934.924	0.0161276
935.003	0.0161944
935.081	0.0162865
935.159	0.0162730
935.237	0.0160864
935.315	0.0162074
935.393	0.0162753
935.471	0.0161501
935.549	0.0162848
935.628	0.0161774
935.706	0.0161749
935.784	0.0161713
935.862	0.0161912
935.940	0.0161465
936.018	0.0161623
936.096	0.0162066
936.174	0.0162499
936.253	0.0160686
936.331	0.0160285
936.409	0.0160650
936.487	0.0161269
936.565	0.0160625
936.643	0.0160575
936.721	0.0160557
936.799	0.0162431
936.878	0.0162035
936.956	0.0161218
937.034	0.0161495
937.112	0.0162486
937.190	0.0162175
937.268	0.0161950
937.346	0.0163198
937.424	0.0161242
937.503	0.0162218
937.581	0.0162915
937.659	0.0163447
937.737	0.0163409
937.815	0.0165191
937.893	0.0162281
937.971	0.0162789
938.049	0.0162912
938.128	0.0163062
938.206	0.0164552
938.284	0.0163042
938.362	0.0162247
938.440	0.0162690
938.518	0.0163925
938.596	0.0163614
938.674	0.0162981
938.753	0.0164494
938.831	0.0162784
938.909	0.0162980
938.987	0.0163035
939.065	0.0162783
939.143	0.0162885
939.221	0.0163497
939.299	0.0163108
939.378	0.0162911
939.456	0.0162949
939.534	0.0162548
939.612	0.0163811
939.690	0.0162445
939.768	0.0162378
939.846	0.0162068
939.924	0.0162405
940.003	0.0161644
940.081	0.0161586
940.159	0.0161885
940.237	0.0161432
940.315	0.0161555
940.393	0.0162383
940.471	0.0161798
940.549	0.0162672
940.628	0.0162263
940.706	0.0162570
940.784	0.0161633
940.862	0.0162107
940.940	0.0162283
941.018	0.0161893
941.096	0.0162177
941.174	0.0163611
941.253	0.0162511
941.331	0.0162678
941.409	0.0163056
941.487	0.0162965
941.565	0.0161954
941.643	0.0163664
941.721	0.0161741
941.799	0.0163984
941.878	0.0162007
941.956	0.0162785
942.034	0.0163087
942.112	0.0162395
942.190	0.0162853
942.268	0.0163316
942.346	0.0163372
942.424	0.0163071
942.503	0.0162785
942.581	0.0162112
942.659	0.0162560
942.737	0.0162950
942.815	0.0163055
942.893	0.0161523
942.971	0.0164230
943.049	0.0162444
943.128	0.0164109
943.206	0.0163783
943.284	0.0162599
943.362	0.0163980
943.440	0.0164071
943.518	0.0163195
943.596	0.0164295
943.674	0.0164819
943.753	0.0163844
943.831	0.0164121
943.909	0.0165138
943.987	0.0164938
944.065	0.0164048
944.143	0.0166249
944.221	0.0165032
944.299	0.0166088
944.378	0.0164793
944.456	0.0164957
944.534	0.0165245
944.612	0.0165182
944.690	0.0164655
944.768	0.0164181
944.846	0.0166146
944.924	0.0164607
945.003	0.0165081
945.081	0.0165581
945.159	0.0165578
945.237	0.0165137
945.315	0.0165572
945.393	0.0164909
945.471	0.0165176
945.549	0.0167173
945.628	0.0166328
945.706	0.0167365
945.784	0.0165520
945.862	0.0165558
945.940	0.0165513
946.018	0.0165332
946.096	0.0165581
946.174	0.0165532
946.253	0.0164779
946.331	0.0165629
946.409	0.0165133
946.487	0.0164056
946.565	0.0163731
946.643	0.0164489
946.721	0.0165405
946.799	0.0163802
946.878	0.0164378
946.956	0.0163426
947.034	0.0164807
947.112	0.0165204
947.190	0.0164595
947.268	0.0163184
947.346	0.0165020
947.424	0.0165410
947.503	0.0164935
947.581	0.0163706
947.659	0.0164889
947.737	0.0163802
947.815	0.0163351
947.893	0.0164790
947.971	0.0163972
948.049	0.0164093
948.128	0.0162849
948.206	0.0163628
948.284	0.0165214
948.362	0.0163967
948.440	0.0163261
948.518	0.0162112
948.596	0.0161353
948.674	0.0163565
948.753	0.0162990
948.831	0.0162154
948.909	0.0162292
948.987	0.0161455
949.065	0.0160529
949.143	0.0160805
949.221	0.0160846
949.299	0.0160614
949.378	0.0160440
949.456	0.0160729
949.534	0.0160835
949.612	0.0159791
949.690	0.0160793
949.768	0.0159122
949.846	0.0160062
949.924	0.0159171
