06/29/2022	22:44:45	Ver.	4.1	UNKNOWN
Optical Delay	630.002507	Delta X		0.078125	Sweeps	1	Scan Rate	0/0
Coordinates	Axis 1	NaN	Axis 2	NaN	Axis 3	NaN	Axis 4	NaN	Axis 5	NaN	Axis 6	0.000000
TX Power	0.000000	RX Power	0.000000

630.003	0.0159818
630.081	0.0161172
630.159	0.0160323
630.237	0.0159678
630.315	0.0159478
630.393	0.0159031
630.471	0.0159228
630.549	0.0159445
630.628	0.0160921
630.706	0.0159172
630.784	0.0159840
630.862	0.0159566
630.940	0.0160015
631.018	0.0160101
631.096	0.0160011
631.174	0.0160978
631.253	0.0160474
631.331	0.0160971
631.409	0.0160163
631.487	0.0160094
631.565	0.0159885
631.643	0.0160003
631.721	0.0161757
631.799	0.0160589
631.878	0.0159276
631.956	0.0159239
632.034	0.0160915
632.112	0.0159045
632.190	0.0159979
632.268	0.0159204
632.346	0.0160341
632.424	0.0160359
632.503	0.0160097
632.581	0.0159474
632.659	0.0158458
632.737	0.0160372
632.815	0.0160177
632.893	0.0160373
632.971	0.0160127
633.049	0.0158239
633.128	0.0160017
633.206	0.0160611
633.284	0.0160191
633.362	0.0160465
633.440	0.0160987
633.518	0.0159440
633.596	0.0159697
633.674	0.0157666
633.753	0.0158288
633.831	0.0159953
633.909	0.0160633
633.987	0.0159801
634.065	0.0158584
634.143	0.0158865
634.221	0.0160282
634.299	0.0161359
634.378	0.0158125
634.456	0.0159330
634.534	0.0160506
634.612	0.0159758
634.690	0.0160219
634.768	0.0160406
634.846	0.0159927
634.924	0.0160234
635.003	0.0160913
635.081	0.0159834
635.159	0.0160877
635.237	0.0159167
635.315	0.0159338
635.393	0.0160011
635.471	0.0158643
635.549	0.0160397
635.628	0.0160616
635.706	0.0159628
635.784	0.0159444
635.862	0.0159718
635.940	0.0159429
636.018	0.0159620
636.096	0.0159721
636.174	0.0158900
636.253	0.0159404
636.331	0.0160165
636.409	0.0160499
636.487	0.0160435
636.565	0.0159532
636.643	0.0160137
636.721	0.0160360
636.799	0.0161201
636.878	0.0160526
636.956	0.0159833
637.034	0.0161040
637.112	0.0159048
637.190	0.0159165
637.268	0.0160661
637.346	0.0161229
637.424	0.0160016
637.503	0.0159951
637.581	0.0160340
637.659	0.0158784
637.737	0.0159802
637.815	0.0158875
637.893	0.0159473
637.971	0.0159558
638.049	0.0160664
638.128	0.0160099
638.206	0.0160851
638.284	0.0161510
638.362	0.0158380
638.440	0.0160277
638.518	0.0158968
638.596	0.0159146
638.674	0.0159865
638.753	0.0159725
638.831	0.0158606
638.909	0.0159971
638.987	0.0158523
639.065	0.0159538
639.143	0.0160332
639.221	0.0160062
639.299	0.0159222
639.378	0.0161201
639.456	0.0160061
639.534	0.0160078
639.612	0.0160296
639.690	0.0159514
639.768	0.0159272
639.846	0.0159571
639.924	0.0159435
640.003	0.0158829
640.081	0.0159556
640.159	0.0159689
640.237	0.0158839
640.315	0.0159973
640.393	0.0159534
640.471	0.0160152
640.549	0.0160020
640.628	0.0159497
640.706	0.0158430
640.784	0.0158827
640.862	0.0160453
640.940	0.0160054
641.018	0.0160903
641.096	0.0160623
641.174	0.0158887
641.253	0.0159450
641.331	0.0158862
641.409	0.0160631
641.487	0.0160589
641.565	0.0160695
641.643	0.0160617
641.721	0.0161104
641.799	0.0159869
641.878	0.0159516
641.956	0.0158989
642.034	0.0159576
642.112	0.0160318
642.190	0.0158901
642.268	0.0160117
642.346	0.0159534
642.424	0.0159383
642.503	0.0159772
642.581	0.0160867
642.659	0.0160385
642.737	0.0160555
642.815	0.0159435
642.893	0.0160982
642.971	0.0159673
643.049	0.0159399
643.128	0.0160129
643.206	0.0159648
643.284	0.0159923
643.362	0.0159776
643.440	0.0160037
643.518	0.0160541
643.596	0.0159512
643.674	0.0159944
643.753	0.0159231
643.831	0.0158630
643.909	0.0161175
643.987	0.0160606
644.065	0.0158847
644.143	0.0159111
644.221	0.0161295
644.299	0.0160373
644.378	0.0159594
644.456	0.0159799
644.534	0.0160683
644.612	0.0159841
644.690	0.0159982
644.768	0.0159275
644.846	0.0159960
644.924	0.0159057
645.003	0.0160542
645.081	0.0159733
645.159	0.0160304
645.237	0.0160505
645.315	0.0158334
645.393	0.0160404
645.471	0.0160117
645.549	0.0159985
645.628	0.0158010
645.706	0.0159887
645.784	0.0159748
645.862	0.0161266
645.940	0.0160371
646.018	0.0159779
646.096	0.0160426
646.174	0.0159209
646.253	0.0159882
646.331	0.0158817
646.409	0.0158762
646.487	0.0160416
646.565	0.0160192
646.643	0.0160147
646.721	0.0159077
646.799	0.0159819
646.878	0.0160097
646.956	0.0159958
647.034	0.0159879
647.112	0.0160715
647.190	0.0160538
647.268	0.0159421
647.346	0.0159924
647.424	0.0160273
647.503	0.0159057
647.581	0.0159602
647.659	0.0158990
647.737	0.0159721
647.815	0.0160327
647.893	0.0160283
647.971	0.0160651
648.049	0.0160323
648.128	0.0159283
648.206	0.0159322
648.284	0.0159141
648.362	0.0159361
648.440	0.0159973
648.518	0.0160099
648.596	0.0160310
648.674	0.0159303
648.753	0.0159716
648.831	0.0160085
648.909	0.0159667
648.987	0.0159975
649.065	0.0159724
649.143	0.0160892
649.221	0.0159620
649.299	0.0159146
649.378	0.0161031
649.456	0.0160545
649.534	0.0159060
649.612	0.0159872
649.690	0.0160116
649.768	0.0160648
649.846	0.0159084
649.924	0.0159616
650.003	0.0160927
650.081	0.0160040
650.159	0.0159395
650.237	0.0159621
650.315	0.0159751
650.393	0.0159291
650.471	0.0160794
650.549	0.0160370
650.628	0.0159389
650.706	0.0159591
650.784	0.0160781
650.862	0.0160326
650.940	0.0160531
651.018	0.0159264
651.096	0.0159811
651.174	0.0160681
651.253	0.0160292
651.331	0.0160359
651.409	0.0160537
651.487	0.0159769
651.565	0.0159079
651.643	0.0158913
651.721	0.0160622
651.799	0.0159819
651.878	0.0160493
651.956	0.0159618
652.034	0.0158568
652.112	0.0160397
652.190	0.0160624
652.268	0.0159696
652.346	0.0159024
652.424	0.0160088
652.503	0.0162054
652.581	0.0159418
652.659	0.0160035
652.737	0.0159292
652.815	0.0161043
652.893	0.0159856
652.971	0.0160847
653.049	0.0159870
653.128	0.0159736
653.206	0.0159378
653.284	0.0159695
653.362	0.0160028
653.440	0.0159300
653.518	0.0160415
653.596	0.0159697
653.674	0.0158901
653.753	0.0159932
653.831	0.0159157
653.909	0.0160680
653.987	0.0160714
654.065	0.0160223
654.143	0.0158937
654.221	0.0160878
654.299	0.0160575
654.378	0.0159680
654.456	0.0158732
654.534	0.0160498
654.612	0.0161682
654.690	0.0159246
654.768	0.0159273
654.846	0.0160333
654.924	0.0159733
655.003	0.0161367
655.081	0.0159841
655.159	0.0161085
655.237	0.0159497
655.315	0.0160252
655.393	0.0159159
655.471	0.0159334
655.549	0.0161121
655.628	0.0158994
655.706	0.0159203
655.784	0.0160529
655.862	0.0161404
655.940	0.0160487
656.018	0.0160314
656.096	0.0160995
656.174	0.0160648
656.253	0.0161346
656.331	0.0160402
656.409	0.0160846
656.487	0.0159962
656.565	0.0160889
656.643	0.0159772
656.721	0.0158634
656.799	0.0159654
656.878	0.0161013
656.956	0.0160773
657.034	0.0158681
657.112	0.0160155
657.190	0.0159877
657.268	0.0160548
657.346	0.0160643
657.424	0.0160574
657.503	0.0159364
657.581	0.0161250
657.659	0.0160393
657.737	0.0161013
657.815	0.0159473
657.893	0.0159301
657.971	0.0161407
658.049	0.0161119
658.128	0.0160331
658.206	0.0160136
658.284	0.0159830
658.362	0.0159380
658.440	0.0160415
658.518	0.0160074
658.596	0.0159090
658.674	0.0160052
658.753	0.0159148
658.831	0.0159316
658.909	0.0160309
658.987	0.0160981
659.065	0.0160557
659.143	0.0161516
659.221	0.0159909
659.299	0.0160345
659.378	0.0160452
659.456	0.0161797
659.534	0.0159802
659.612	0.0160280
659.690	0.0159716
659.768	0.0159787
659.846	0.0160870
659.924	0.0160492
660.003	0.0161319
660.081	0.0161197
660.159	0.0160392
660.237	0.0160719
660.315	0.0159817
660.393	0.0159641
660.471	0.0161102
660.549	0.0160183
660.628	0.0159619
660.706	0.0159940
660.784	0.0161359
660.862	0.0160181
660.940	0.0159447
661.018	0.0159576
661.096	0.0159926
661.174	0.0160954
661.253	0.0161626
661.331	0.0160400
661.409	0.0160516
661.487	0.0159390
661.565	0.0160261
661.643	0.0158501
661.721	0.0159466
661.799	0.0160269
661.878	0.0161181
661.956	0.0160177
662.034	0.0160737
662.112	0.0160835
662.190	0.0160770
662.268	0.0160850
662.346	0.0160181
662.424	0.0160906
662.503	0.0160187
662.581	0.0160110
662.659	0.0160786
662.737	0.0160622
662.815	0.0160090
662.893	0.0159518
662.971	0.0160402
663.049	0.0159009
663.128	0.0160781
663.206	0.0161410
663.284	0.0159966
663.362	0.0159910
663.440	0.0159287
663.518	0.0160851
663.596	0.0160945
663.674	0.0160068
663.753	0.0160407
663.831	0.0160265
663.909	0.0160521
663.987	0.0161204
664.065	0.0160507
664.143	0.0158981
664.221	0.0159926
664.299	0.0161784
664.378	0.0160721
664.456	0.0159454
664.534	0.0158797
664.612	0.0160352
664.690	0.0159567
664.768	0.0159760
664.846	0.0159529
664.924	0.0160351
665.003	0.0161344
665.081	0.0160168
665.159	0.0160137
665.237	0.0159653
665.315	0.0159883
665.393	0.0159344
665.471	0.0159895
665.549	0.0159966
665.628	0.0160342
665.706	0.0159876
665.784	0.0159901
665.862	0.0159429
665.940	0.0158717
666.018	0.0159034
666.096	0.0159251
666.174	0.0161287
666.253	0.0160047
666.331	0.0159274
666.409	0.0161111
666.487	0.0159910
666.565	0.0160976
666.643	0.0159074
666.721	0.0159505
666.799	0.0159126
666.878	0.0160137
666.956	0.0159949
667.034	0.0159142
667.112	0.0160196
667.190	0.0159581
667.268	0.0160670
667.346	0.0160223
667.424	0.0157922
667.503	0.0160220
667.581	0.0159161
667.659	0.0160914
667.737	0.0161615
667.815	0.0160260
667.893	0.0160792
667.971	0.0160429
668.049	0.0159651
668.128	0.0158551
668.206	0.0158496
668.284	0.0159907
668.362	0.0161423
668.440	0.0159983
668.518	0.0159486
668.596	0.0159219
668.674	0.0158871
668.753	0.0159413
668.831	0.0160961
668.909	0.0160020
668.987	0.0160392
669.065	0.0159127
669.143	0.0159203
669.221	0.0158938
669.299	0.0161308
669.378	0.0160361
669.456	0.0159620
669.534	0.0161323
669.612	0.0159840
669.690	0.0159544
669.768	0.0159971
669.846	0.0159684
669.924	0.0159721
670.003	0.0159784
670.081	0.0160601
670.159	0.0159995
670.237	0.0160966
670.315	0.0160404
670.393	0.0160839
670.471	0.0160905
670.549	0.0160590
670.628	0.0159765
670.706	0.0160199
670.784	0.0159814
670.862	0.0159502
670.940	0.0160824
671.018	0.0160180
671.096	0.0159883
671.174	0.0159215
671.253	0.0158821
671.331	0.0159593
671.409	0.0160918
671.487	0.0159554
671.565	0.0159709
671.643	0.0159933
671.721	0.0160007
671.799	0.0160577
671.878	0.0159594
671.956	0.0158342
672.034	0.0159920
672.112	0.0159512
672.190	0.0158918
672.268	0.0161352
672.346	0.0160618
672.424	0.0160290
672.503	0.0160225
672.581	0.0158837
672.659	0.0159312
672.737	0.0160728
672.815	0.0159937
672.893	0.0160593
672.971	0.0160574
673.049	0.0160428
673.128	0.0159692
673.206	0.0160506
673.284	0.0159628
673.362	0.0159257
673.440	0.0160811
673.518	0.0159894
673.596	0.0158815
673.674	0.0160245
673.753	0.0159763
673.831	0.0159952
673.909	0.0159580
673.987	0.0161295
674.065	0.0159736
674.143	0.0159397
674.221	0.0159840
674.299	0.0160507
674.378	0.0160104
674.456	0.0159401
674.534	0.0161195
674.612	0.0159206
674.690	0.0158932
674.768	0.0159866
674.846	0.0159998
674.924	0.0160349
675.003	0.0159273
675.081	0.0160052
675.159	0.0160788
675.237	0.0159952
675.315	0.0160538
675.393	0.0159502
675.471	0.0160684
675.549	0.0160107
675.628	0.0159068
675.706	0.0160076
675.784	0.0159930
675.862	0.0160394
675.940	0.0161497
676.018	0.0158997
676.096	0.0159358
676.174	0.0159671
676.253	0.0159338
676.331	0.0160159
676.409	0.0160488
676.487	0.0160375
676.565	0.0159798
676.643	0.0158482
676.721	0.0160569
676.799	0.0159951
676.878	0.0160252
676.956	0.0160658
677.034	0.0159333
677.112	0.0160718
677.190	0.0158250
677.268	0.0158308
677.346	0.0158681
677.424	0.0159230
677.503	0.0159945
677.581	0.0160276
677.659	0.0160452
677.737	0.0159993
677.815	0.0159482
677.893	0.0159732
677.971	0.0158799
678.049	0.0159997
678.128	0.0159438
678.206	0.0160756
678.284	0.0159449
678.362	0.0159401
678.440	0.0160088
678.518	0.0159666
678.596	0.0160737
678.674	0.0159780
678.753	0.0159818
678.831	0.0160624
678.909	0.0159792
678.987	0.0159220
679.065	0.0161332
679.143	0.0160625
679.221	0.0159155
679.299	0.0159624
679.378	0.0159238
679.456	0.0159550
679.534	0.0160844
679.612	0.0159251
679.690	0.0159849
679.768	0.0159931
679.846	0.0160461
679.924	0.0159487
680.003	0.0161490
680.081	0.0158913
680.159	0.0159985
680.237	0.0159897
680.315	0.0160267
680.393	0.0159534
680.471	0.0159503
680.549	0.0159695
680.628	0.0160778
680.706	0.0158679
680.784	0.0160390
680.862	0.0160343
680.940	0.0160214
681.018	0.0161221
681.096	0.0160143
681.174	0.0159275
681.253	0.0160687
681.331	0.0160175
681.409	0.0160723
681.487	0.0160019
681.565	0.0161057
681.643	0.0160332
681.721	0.0160465
681.799	0.0160239
681.878	0.0160961
681.956	0.0161238
682.034	0.0159972
682.112	0.0159215
682.190	0.0159901
682.268	0.0160659
682.346	0.0158794
682.424	0.0160696
682.503	0.0160072
682.581	0.0160273
682.659	0.0160293
682.737	0.0159294
682.815	0.0160493
682.893	0.0159655
682.971	0.0160647
683.049	0.0159760
683.128	0.0161725
683.206	0.0159122
683.284	0.0159139
683.362	0.0159261
683.440	0.0159364
683.518	0.0159534
683.596	0.0160999
683.674	0.0159953
683.753	0.0160223
683.831	0.0160945
683.909	0.0159107
683.987	0.0160402
684.065	0.0159837
684.143	0.0160644
684.221	0.0160769
684.299	0.0160837
684.378	0.0160241
684.456	0.0159243
684.534	0.0160321
684.612	0.0161761
684.690	0.0158993
684.768	0.0158898
684.846	0.0160258
684.924	0.0159638
685.003	0.0159733
685.081	0.0160551
685.159	0.0160565
685.237	0.0160164
685.315	0.0160636
685.393	0.0160648
685.471	0.0159579
685.549	0.0160249
685.628	0.0160767
685.706	0.0159907
685.784	0.0160759
685.862	0.0159709
685.940	0.0161335
686.018	0.0159904
686.096	0.0161140
686.174	0.0161000
686.253	0.0159895
686.331	0.0160370
686.409	0.0160680
686.487	0.0160851
686.565	0.0159325
686.643	0.0160526
686.721	0.0159372
686.799	0.0159387
686.878	0.0158750
686.956	0.0159607
687.034	0.0159556
687.112	0.0160245
687.190	0.0159221
687.268	0.0160105
687.346	0.0160297
687.424	0.0160088
687.503	0.0158453
687.581	0.0158714
687.659	0.0160929
687.737	0.0159699
687.815	0.0160150
687.893	0.0161739
687.971	0.0159473
688.049	0.0159627
688.128	0.0160172
688.206	0.0159209
688.284	0.0160944
688.362	0.0160137
688.440	0.0161044
688.518	0.0160836
688.596	0.0160088
688.674	0.0160809
688.753	0.0159676
688.831	0.0160690
688.909	0.0160056
688.987	0.0159949
689.065	0.0160625
689.143	0.0159956
689.221	0.0159944
689.299	0.0160481
689.378	0.0159630
689.456	0.0158964
689.534	0.0159261
689.612	0.0158720
689.690	0.0162227
689.768	0.0161732
689.846	0.0160641
689.924	0.0160234
690.003	0.0160632
690.081	0.0158968
690.159	0.0159446
690.237	0.0159605
690.315	0.0160812
690.393	0.0159084
690.471	0.0160355
690.549	0.0161868
690.628	0.0158379
690.706	0.0158632
690.784	0.0160416
690.862	0.0160239
690.940	0.0159892
691.018	0.0159350
691.096	0.0159566
691.174	0.0160648
691.253	0.0161337
691.331	0.0160568
691.409	0.0161677
691.487	0.0159346
691.565	0.0159573
691.643	0.0160278
691.721	0.0159754
691.799	0.0160036
691.878	0.0159676
691.956	0.0160612
692.034	0.0160905
692.112	0.0160236
692.190	0.0159766
692.268	0.0160260
692.346	0.0159509
692.424	0.0159499
692.503	0.0159830
692.581	0.0159711
692.659	0.0160261
692.737	0.0160878
692.815	0.0159542
692.893	0.0161133
692.971	0.0160964
693.049	0.0158456
693.128	0.0160519
693.206	0.0157874
693.284	0.0160349
693.362	0.0160275
693.440	0.0160503
693.518	0.0159314
693.596	0.0159667
693.674	0.0160446
693.753	0.0161154
693.831	0.0160442
693.909	0.0159909
693.987	0.0159750
694.065	0.0159335
694.143	0.0158995
694.221	0.0159502
694.299	0.0159160
694.378	0.0160223
694.456	0.0160239
694.534	0.0158963
694.612	0.0160984
694.690	0.0161457
694.768	0.0159832
694.846	0.0160030
694.924	0.0160968
695.003	0.0159340
695.081	0.0159061
695.159	0.0159904
695.237	0.0161209
695.315	0.0159579
695.393	0.0159006
695.471	0.0160802
695.549	0.0160162
695.628	0.0160179
695.706	0.0159706
695.784	0.0159525
695.862	0.0160516
695.940	0.0160355
696.018	0.0160402
696.096	0.0160244
696.174	0.0160311
696.253	0.0160096
696.331	0.0160192
696.409	0.0161905
696.487	0.0161314
696.565	0.0158561
696.643	0.0158906
696.721	0.0160085
696.799	0.0159732
696.878	0.0159207
696.956	0.0159672
697.034	0.0160429
697.112	0.0158724
697.190	0.0159780
697.268	0.0161458
697.346	0.0159000
697.424	0.0158650
697.503	0.0161064
697.581	0.0160143
697.659	0.0159484
697.737	0.0157899
697.815	0.0159618
697.893	0.0160571
697.971	0.0160445
698.049	0.0159569
698.128	0.0159588
698.206	0.0159846
698.284	0.0161045
698.362	0.0159821
698.440	0.0160684
698.518	0.0159856
698.596	0.0160501
698.674	0.0160299
698.753	0.0159204
698.831	0.0158953
698.909	0.0160381
698.987	0.0160195
699.065	0.0159752
699.143	0.0160913
699.221	0.0159525
699.299	0.0160600
699.378	0.0161461
699.456	0.0160841
699.534	0.0160128
699.612	0.0158783
699.690	0.0159754
699.768	0.0160942
699.846	0.0159626
699.924	0.0160102
700.003	0.0160708
700.081	0.0159597
700.159	0.0159932
700.237	0.0160311
700.315	0.0159627
700.393	0.0160764
700.471	0.0159359
700.549	0.0160018
700.628	0.0160593
700.706	0.0159138
700.784	0.0160679
700.862	0.0160496
700.940	0.0161655
701.018	0.0159436
701.096	0.0160245
701.174	0.0161111
701.253	0.0159596
701.331	0.0160444
701.409	0.0159655
701.487	0.0159961
701.565	0.0161504
701.643	0.0160066
701.721	0.0160691
701.799	0.0160317
701.878	0.0160935
701.956	0.0162066
702.034	0.0159174
702.112	0.0161661
702.190	0.0160379
702.268	0.0161220
702.346	0.0161020
702.424	0.0160292
702.503	0.0159602
702.581	0.0159598
702.659	0.0160283
702.737	0.0159880
702.815	0.0160101
702.893	0.0161484
702.971	0.0160802
703.049	0.0160292
703.128	0.0160325
703.206	0.0161095
703.284	0.0159741
703.362	0.0160802
703.440	0.0158986
703.518	0.0160580
703.596	0.0161048
703.674	0.0159908
703.753	0.0161118
703.831	0.0160590
703.909	0.0160587
703.987	0.0159203
704.065	0.0160949
704.143	0.0159734
704.221	0.0159655
704.299	0.0158664
704.378	0.0161029
704.456	0.0159935
704.534	0.0159525
704.612	0.0159280
704.690	0.0160217
704.768	0.0158022
704.846	0.0158752
704.924	0.0159849
705.003	0.0160199
705.081	0.0160085
705.159	0.0159050
705.237	0.0159608
705.315	0.0159386
705.393	0.0158696
705.471	0.0158511
705.549	0.0161108
705.628	0.0158736
705.706	0.0160506
705.784	0.0159688
705.862	0.0159937
705.940	0.0159316
706.018	0.0160023
706.096	0.0160402
706.174	0.0160655
706.253	0.0160741
706.331	0.0159347
706.409	0.0158233
706.487	0.0161037
706.565	0.0158781
706.643	0.0161179
706.721	0.0159724
706.799	0.0159918
706.878	0.0158991
706.956	0.0159472
707.034	0.0158641
707.112	0.0159535
707.190	0.0160063
707.268	0.0158244
707.346	0.0158411
707.424	0.0159647
707.503	0.0158640
707.581	0.0158859
707.659	0.0159219
707.737	0.0159451
707.815	0.0159443
707.893	0.0160574
707.971	0.0158594
708.049	0.0157681
708.128	0.0158567
708.206	0.0158177
708.284	0.0158942
708.362	0.0159737
708.440	0.0160247
708.518	0.0159944
708.596	0.0158633
708.674	0.0160155
708.753	0.0158347
708.831	0.0159297
708.909	0.0160085
708.987	0.0159419
709.065	0.0160559
709.143	0.0159254
709.221	0.0160118
709.299	0.0159451
709.378	0.0157822
709.456	0.0158875
709.534	0.0160227
709.612	0.0158797
709.690	0.0159799
709.768	0.0160393
709.846	0.0159651
709.924	0.0160267
710.003	0.0158415
710.081	0.0159369
710.159	0.0157542
710.237	0.0159001
710.315	0.0160542
710.393	0.0160323
710.471	0.0157281
710.549	0.0158810
710.628	0.0159081
710.706	0.0159086
710.784	0.0160757
710.862	0.0159958
710.940	0.0161358
711.018	0.0160083
711.096	0.0159483
711.174	0.0160336
711.253	0.0160040
711.331	0.0159401
711.409	0.0159415
711.487	0.0158732
711.565	0.0159895
711.643	0.0160387
711.721	0.0160521
711.799	0.0158414
711.878	0.0159948
711.956	0.0159535
712.034	0.0159780
712.112	0.0159703
712.190	0.0160248
712.268	0.0160139
712.346	0.0160015
712.424	0.0159626
712.503	0.0159934
712.581	0.0159927
712.659	0.0159792
712.737	0.0159193
712.815	0.0159980
712.893	0.0158925
712.971	0.0159418
713.049	0.0160709
713.128	0.0160725
713.206	0.0160610
713.284	0.0160651
713.362	0.0159754
713.440	0.0160567
713.518	0.0160471
713.596	0.0160886
713.674	0.0160213
713.753	0.0160663
713.831	0.0160819
713.909	0.0161172
713.987	0.0160976
714.065	0.0159757
714.143	0.0159319
714.221	0.0160763
714.299	0.0160867
714.378	0.0159430
714.456	0.0159741
714.534	0.0160305
714.612	0.0159753
714.690	0.0158766
714.768	0.0159505
714.846	0.0158926
714.924	0.0158077
715.003	0.0158335
715.081	0.0159554
715.159	0.0159158
715.237	0.0158176
715.315	0.0158839
715.393	0.0158297
715.471	0.0158029
715.549	0.0157835
715.628	0.0156380
715.706	0.0158297
715.784	0.0156749
715.862	0.0156886
715.940	0.0155714
716.018	0.0157568
716.096	0.0157313
716.174	0.0157546
716.253	0.0157232
716.331	0.0158551
716.409	0.0159529
716.487	0.0161233
716.565	0.0160243
716.643	0.0162784
716.721	0.0163965
716.799	0.0163475
716.878	0.0164780
716.956	0.0165208
717.034	0.0164899
717.112	0.0163692
717.190	0.0162286
717.268	0.0161750
717.346	0.0161690
717.424	0.0159410
717.503	0.0158019
717.581	0.0157121
717.659	0.0155526
717.737	0.0154788
717.815	0.0154902
717.893	0.0154820
717.971	0.0154312
718.049	0.0156528
718.128	0.0156214
718.206	0.0156668
718.284	0.0159237
718.362	0.0160677
718.440	0.0161976
718.518	0.0163373
718.596	0.0165615
718.674	0.0166722
718.753	0.0169281
718.831	0.0169250
718.909	0.0169859
718.987	0.0169955
719.065	0.0167580
719.143	0.0163095
719.221	0.0163048
719.299	0.0160658
719.378	0.0156437
719.456	0.0153611
719.534	0.0151285
719.612	0.0147517
719.690	0.0145327
719.768	0.0143584
719.846	0.0143215
719.924	0.0143487
720.003	0.0144169
720.081	0.0145475
720.159	0.0147720
720.237	0.0150064
720.315	0.0152821
720.393	0.0157160
720.471	0.0161081
720.549	0.0166382
720.628	0.0169904
720.706	0.0172406
720.784	0.0173447
720.862	0.0175753
720.940	0.0176956
721.018	0.0177271
721.096	0.0176273
721.174	0.0173770
721.253	0.0171091
721.331	0.0168422
721.409	0.0165694
721.487	0.0161720
721.565	0.0158312
721.643	0.0153385
721.721	0.0150095
721.799	0.0149238
721.878	0.0147586
721.956	0.0146055
722.034	0.0144460
722.112	0.0144485
722.190	0.0146386
722.268	0.0147962
722.346	0.0149879
722.424	0.0151255
722.503	0.0153195
722.581	0.0157697
722.659	0.0159284
722.737	0.0161320
722.815	0.0163579
722.893	0.0167013
722.971	0.0167899
723.049	0.0168941
723.128	0.0169431
723.206	0.0170329
723.284	0.0170645
723.362	0.0169879
723.440	0.0167957
723.518	0.0168661
723.596	0.0167166
723.674	0.0166821
723.753	0.0165800
723.831	0.0164801
723.909	0.0163473
723.987	0.0162172
724.065	0.0162328
724.143	0.0160739
724.221	0.0158725
724.299	0.0157623
724.378	0.0157230
724.456	0.0154546
724.534	0.0153313
724.612	0.0152940
724.690	0.0151311
724.768	0.0150134
724.846	0.0151381
724.924	0.0150138
725.003	0.0150935
725.081	0.0150453
725.159	0.0151928
725.237	0.0154823
725.315	0.0156590
725.393	0.0156762
725.471	0.0158725
725.549	0.0162045
725.628	0.0164351
725.706	0.0165515
725.784	0.0166784
725.862	0.0166590
725.940	0.0170409
726.018	0.0169410
726.096	0.0169578
726.174	0.0168370
726.253	0.0167336
726.331	0.0167258
726.409	0.0165446
726.487	0.0162724
726.565	0.0160874
726.643	0.0160405
726.721	0.0159512
726.799	0.0158401
726.878	0.0158668
726.956	0.0158172
727.034	0.0157150
727.112	0.0158718
727.190	0.0159065
727.268	0.0159186
727.346	0.0159185
727.424	0.0158083
727.503	0.0159076
727.581	0.0159148
727.659	0.0159547
727.737	0.0158148
727.815	0.0159389
727.893	0.0159516
727.971	0.0159151
728.049	0.0158994
728.128	0.0157938
728.206	0.0157597
728.284	0.0157062
728.362	0.0156298
728.440	0.0157277
728.518	0.0155093
728.596	0.0155770
728.674	0.0156308
728.753	0.0155412
728.831	0.0155802
728.909	0.0157140
728.987	0.0156813
729.065	0.0158656
729.143	0.0157957
729.221	0.0157656
729.299	0.0159776
729.378	0.0160880
729.456	0.0160407
729.534	0.0160622
729.612	0.0161494
729.690	0.0161427
729.768	0.0161280
729.846	0.0161520
729.924	0.0160321
730.003	0.0159812
730.081	0.0159961
730.159	0.0160818
730.237	0.0159141
730.315	0.0160207
730.393	0.0160860
730.471	0.0159066
730.549	0.0161017
730.628	0.0161086
730.706	0.0162081
730.784	0.0163283
730.862	0.0164644
730.940	0.0164375
731.018	0.0166277
731.096	0.0165586
731.174	0.0166235
731.253	0.0164100
731.331	0.0163460
731.409	0.0163090
731.487	0.0162390
731.565	0.0161142
731.643	0.0158659
731.721	0.0156591
731.799	0.0156000
731.878	0.0156100
731.956	0.0154540
732.034	0.0153965
732.112	0.0154710
732.190	0.0153195
732.268	0.0152859
732.346	0.0153701
732.424	0.0154571
732.503	0.0153467
732.581	0.0154698
732.659	0.0156861
732.737	0.0156347
732.815	0.0156609
732.893	0.0159147
732.971	0.0158427
733.049	0.0159607
733.128	0.0159827
733.206	0.0160499
733.284	0.0159662
733.362	0.0160654
733.440	0.0162908
733.518	0.0161812
733.596	0.0161451
733.674	0.0161917
733.753	0.0160629
733.831	0.0157662
733.909	0.0157793
733.987	0.0158865
734.065	0.0158333
734.143	0.0157558
734.221	0.0157333
734.299	0.0157486
734.378	0.0156608
734.456	0.0158154
734.534	0.0159267
734.612	0.0159119
734.690	0.0160107
734.768	0.0160498
734.846	0.0162368
734.924	0.0163047
735.003	0.0166289
735.081	0.0167326
735.159	0.0167507
735.237	0.0169324
735.315	0.0168674
735.393	0.0168011
735.471	0.0167863
735.549	0.0167963
735.628	0.0165333
735.706	0.0163689
735.784	0.0161198
735.862	0.0159821
735.940	0.0158962
736.018	0.0157353
736.096	0.0155412
736.174	0.0154220
736.253	0.0153563
736.331	0.0152257
736.409	0.0151334
736.487	0.0153275
736.565	0.0152379
736.643	0.0153378
736.721	0.0153181
736.799	0.0153860
736.878	0.0156494
736.956	0.0156991
737.034	0.0158212
737.112	0.0159272
737.190	0.0160162
737.268	0.0160615
737.346	0.0160725
737.424	0.0162305
737.503	0.0163791
737.581	0.0161614
737.659	0.0162267
737.737	0.0161344
737.815	0.0161293
737.893	0.0160736
737.971	0.0159062
738.049	0.0159404
738.128	0.0158862
738.206	0.0156929
738.284	0.0156736
738.362	0.0157079
738.440	0.0156556
738.518	0.0158160
738.596	0.0158311
738.674	0.0157644
738.753	0.0158053
738.831	0.0159535
738.909	0.0160715
738.987	0.0159699
739.065	0.0159281
739.143	0.0160268
739.221	0.0163278
739.299	0.0162517
739.378	0.0164275
739.456	0.0165691
739.534	0.0165817
739.612	0.0166428
739.690	0.0166578
739.768	0.0165012
739.846	0.0165134
739.924	0.0164350
740.003	0.0163470
740.081	0.0161945
740.159	0.0161241
740.237	0.0160362
740.315	0.0159058
740.393	0.0156738
740.471	0.0155730
740.549	0.0155228
740.628	0.0155633
740.706	0.0154871
740.784	0.0155289
740.862	0.0154647
740.940	0.0155981
741.018	0.0156779
741.096	0.0158089
741.174	0.0160461
741.253	0.0158801
741.331	0.0160894
741.409	0.0162115
741.487	0.0162968
741.565	0.0163623
741.643	0.0163530
741.721	0.0162742
741.799	0.0160822
741.878	0.0162344
741.956	0.0161941
742.034	0.0160127
742.112	0.0159828
742.190	0.0158391
742.268	0.0156477
742.346	0.0154737
742.424	0.0153761
742.503	0.0153444
742.581	0.0152975
742.659	0.0152934
742.737	0.0153217
742.815	0.0153300
742.893	0.0153823
742.971	0.0153897
743.049	0.0155406
743.128	0.0156584
743.206	0.0157166
743.284	0.0159030
743.362	0.0159645
743.440	0.0161034
743.518	0.0162546
743.596	0.0163206
743.674	0.0162643
743.753	0.0164457
743.831	0.0163776
743.909	0.0164478
743.987	0.0163950
744.065	0.0162327
744.143	0.0163235
744.221	0.0162603
744.299	0.0161172
744.378	0.0159590
744.456	0.0158614
744.534	0.0158497
744.612	0.0158348
744.690	0.0155720
744.768	0.0156759
744.846	0.0156977
744.924	0.0159899
745.003	0.0157333
745.081	0.0159391
745.159	0.0159323
745.237	0.0161700
745.315	0.0160759
745.393	0.0162779
745.471	0.0162054
745.549	0.0163484
745.628	0.0162690
745.706	0.0163391
745.784	0.0163399
745.862	0.0162039
745.940	0.0162145
746.018	0.0161887
746.096	0.0159635
746.174	0.0159522
746.253	0.0161047
746.331	0.0159812
746.409	0.0160841
746.487	0.0159753
746.565	0.0159864
746.643	0.0159997
746.721	0.0160077
746.799	0.0158708
746.878	0.0159890
746.956	0.0161406
747.034	0.0160539
747.112	0.0160219
747.190	0.0160577
747.268	0.0159542
747.346	0.0158607
747.424	0.0158624
747.503	0.0157726
747.581	0.0157693
747.659	0.0158428
747.737	0.0157722
747.815	0.0157812
747.893	0.0159558
747.971	0.0158958
748.049	0.0159250
748.128	0.0158918
748.206	0.0159827
748.284	0.0160109
748.362	0.0159042
748.440	0.0159750
748.518	0.0158879
748.596	0.0158947
748.674	0.0160033
748.753	0.0161221
748.831	0.0160793
748.909	0.0160893
748.987	0.0161648
749.065	0.0162373
749.143	0.0162025
749.221	0.0159547
749.299	0.0159628
749.378	0.0160690
749.456	0.0160326
749.534	0.0159277
749.612	0.0160725
749.690	0.0160606
749.768	0.0160980
749.846	0.0159758
749.924	0.0161084
750.003	0.0161499
750.081	0.0159949
750.159	0.0159538
750.237	0.0158532
750.315	0.0160201
750.393	0.0160809
750.471	0.0161062
750.549	0.0158707
750.628	0.0157032
750.706	0.0157519
750.784	0.0156676
750.862	0.0156347
750.940	0.0157413
751.018	0.0157520
751.096	0.0157720
751.174	0.0156306
751.253	0.0156762
751.331	0.0157735
751.409	0.0156815
751.487	0.0158017
751.565	0.0158304
751.643	0.0159848
751.721	0.0158321
751.799	0.0159103
751.878	0.0160516
751.956	0.0161542
752.034	0.0162675
752.112	0.0163396
752.190	0.0163517
752.268	0.0164108
752.346	0.0163305
752.424	0.0164669
752.503	0.0163528
752.581	0.0162221
752.659	0.0162984
752.737	0.0160157
752.815	0.0161370
752.893	0.0159202
752.971	0.0159315
753.049	0.0158854
753.128	0.0158446
753.206	0.0157105
753.284	0.0155782
753.362	0.0157491
753.440	0.0156671
753.518	0.0157338
753.596	0.0158578
753.674	0.0158574
753.753	0.0157986
753.831	0.0157878
753.909	0.0158664
753.987	0.0159621
754.065	0.0161274
754.143	0.0161180
754.221	0.0161572
754.299	0.0160952
754.378	0.0162833
754.456	0.0163230
754.534	0.0162785
754.612	0.0161962
754.690	0.0160950
754.768	0.0159672
754.846	0.0162012
754.924	0.0158335
755.003	0.0158793
755.081	0.0158914
755.159	0.0158800
755.237	0.0158499
755.315	0.0158775
755.393	0.0159257
755.471	0.0159566
755.549	0.0159695
755.628	0.0159797
755.706	0.0158877
755.784	0.0158975
755.862	0.0159618
755.940	0.0159758
756.018	0.0158797
756.096	0.0158989
756.174	0.0157694
756.253	0.0158077
756.331	0.0158643
756.409	0.0157623
756.487	0.0159875
756.565	0.0159155
756.643	0.0160001
756.721	0.0157876
756.799	0.0158929
756.878	0.0157049
756.956	0.0157910
757.034	0.0158358
757.112	0.0158617
757.190	0.0159180
757.268	0.0160497
757.346	0.0159985
757.424	0.0159475
757.503	0.0159246
757.581	0.0159743
757.659	0.0161216
757.737	0.0160876
757.815	0.0160196
757.893	0.0160556
757.971	0.0160712
758.049	0.0160016
758.128	0.0160239
758.206	0.0160107
758.284	0.0158749
758.362	0.0159095
758.440	0.0158780
758.518	0.0157809
758.596	0.0158800
758.674	0.0158833
758.753	0.0158511
758.831	0.0158386
758.909	0.0158567
758.987	0.0158605
759.065	0.0158530
759.143	0.0158514
759.221	0.0158051
759.299	0.0159055
759.378	0.0159029
759.456	0.0158778
759.534	0.0158769
759.612	0.0159184
759.690	0.0160333
759.768	0.0159459
759.846	0.0158968
759.924	0.0161111
760.003	0.0160178
760.081	0.0161205
760.159	0.0160764
760.237	0.0161308
760.315	0.0160915
760.393	0.0161050
760.471	0.0160146
760.549	0.0160147
760.628	0.0161932
760.706	0.0161357
760.784	0.0160536
760.862	0.0161626
760.940	0.0159864
761.018	0.0158569
761.096	0.0159525
761.174	0.0157675
761.253	0.0157083
761.331	0.0156992
761.409	0.0155006
761.487	0.0155984
761.565	0.0157825
761.643	0.0157534
761.721	0.0156957
761.799	0.0156456
761.878	0.0156745
761.956	0.0157153
762.034	0.0158788
762.112	0.0158856
762.190	0.0160568
762.268	0.0160237
762.346	0.0160308
762.424	0.0160892
762.503	0.0160999
762.581	0.0162981
762.659	0.0161262
762.737	0.0162631
762.815	0.0162772
762.893	0.0162716
762.971	0.0160959
763.049	0.0162230
763.128	0.0162404
763.206	0.0160132
763.284	0.0161474
763.362	0.0160320
763.440	0.0160159
763.518	0.0160549
763.596	0.0160257
763.674	0.0159557
763.753	0.0157362
763.831	0.0160002
763.909	0.0160177
763.987	0.0158353
764.065	0.0159830
764.143	0.0161213
764.221	0.0159413
764.299	0.0158275
764.378	0.0160170
764.456	0.0161177
764.534	0.0160330
764.612	0.0159360
764.690	0.0159999
764.768	0.0159604
764.846	0.0157907
764.924	0.0159532
765.003	0.0158727
765.081	0.0157394
765.159	0.0157970
765.237	0.0158952
765.315	0.0156345
765.393	0.0157365
765.471	0.0157660
765.549	0.0158269
765.628	0.0158317
765.706	0.0159260
765.784	0.0159458
765.862	0.0158285
765.940	0.0159615
766.018	0.0161673
766.096	0.0160473
766.174	0.0160935
766.253	0.0160990
766.331	0.0160895
766.409	0.0160985
766.487	0.0161101
766.565	0.0160680
766.643	0.0161318
766.721	0.0160150
766.799	0.0160404
766.878	0.0161478
766.956	0.0159648
767.034	0.0161530
767.112	0.0161585
767.190	0.0159267
767.268	0.0157724
767.346	0.0158200
767.424	0.0159314
767.503	0.0157652
767.581	0.0158501
767.659	0.0159600
767.737	0.0158761
767.815	0.0159464
767.893	0.0158544
767.971	0.0158644
768.049	0.0159470
768.128	0.0159496
768.206	0.0158752
768.284	0.0160379
768.362	0.0159520
768.440	0.0158526
768.518	0.0159502
768.596	0.0159296
768.674	0.0158547
768.753	0.0159663
768.831	0.0158877
768.909	0.0158199
768.987	0.0158739
769.065	0.0158039
769.143	0.0158179
769.221	0.0158237
769.299	0.0157699
769.378	0.0159209
769.456	0.0159794
769.534	0.0160137
769.612	0.0158884
769.690	0.0159473
769.768	0.0160804
769.846	0.0160147
769.924	0.0160362
770.003	0.0160831
770.081	0.0161835
770.159	0.0161311
770.237	0.0161406
770.315	0.0161153
770.393	0.0160658
770.471	0.0160524
770.549	0.0160207
770.628	0.0158776
770.706	0.0160706
770.784	0.0158355
770.862	0.0158551
770.940	0.0158967
771.018	0.0157796
771.096	0.0159143
771.174	0.0160482
771.253	0.0158839
771.331	0.0160054
771.409	0.0161378
771.487	0.0160248
771.565	0.0161452
771.643	0.0161922
771.721	0.0161550
771.799	0.0160398
771.878	0.0161001
771.956	0.0161666
772.034	0.0159797
772.112	0.0159563
772.190	0.0160217
772.268	0.0160040
772.346	0.0158887
772.424	0.0157893
772.503	0.0158111
772.581	0.0157241
772.659	0.0157601
772.737	0.0156446
772.815	0.0155551
772.893	0.0157014
772.971	0.0156830
773.049	0.0156598
773.128	0.0155732
773.206	0.0158038
773.284	0.0158738
773.362	0.0159045
773.440	0.0157035
773.518	0.0157436
773.596	0.0157417
773.674	0.0160597
773.753	0.0160649
773.831	0.0159782
773.909	0.0159883
773.987	0.0160618
774.065	0.0161362
774.143	0.0161295
774.221	0.0161014
774.299	0.0161490
774.378	0.0161529
774.456	0.0160609
774.534	0.0162241
774.612	0.0163155
774.690	0.0161372
774.768	0.0161530
774.846	0.0162305
774.924	0.0161385
775.003	0.0161183
775.081	0.0160432
775.159	0.0161246
775.237	0.0162930
775.315	0.0162332
775.393	0.0160558
775.471	0.0160823
775.549	0.0161100
775.628	0.0161372
775.706	0.0161091
775.784	0.0158476
775.862	0.0160639
775.940	0.0160698
776.018	0.0160339
776.096	0.0158590
776.174	0.0158844
776.253	0.0159017
776.331	0.0160410
776.409	0.0159120
776.487	0.0158210
776.565	0.0159010
776.643	0.0158160
776.721	0.0156248
776.799	0.0157540
776.878	0.0158183
776.956	0.0158876
777.034	0.0159019
777.112	0.0158982
777.190	0.0160220
777.268	0.0159016
777.346	0.0159037
777.424	0.0159901
777.503	0.0159122
777.581	0.0158752
777.659	0.0158810
777.737	0.0159756
777.815	0.0159158
777.893	0.0158998
777.971	0.0160352
778.049	0.0160886
778.128	0.0159550
778.206	0.0159435
778.284	0.0159983
778.362	0.0159063
778.440	0.0161159
778.518	0.0160306
778.596	0.0160867
778.674	0.0162105
778.753	0.0160857
778.831	0.0160929
778.909	0.0160213
778.987	0.0160676
779.065	0.0162358
779.143	0.0161855
779.221	0.0162389
779.299	0.0161590
779.378	0.0161176
779.456	0.0162466
779.534	0.0162779
779.612	0.0162257
779.690	0.0163770
779.768	0.0161504
779.846	0.0162338
779.924	0.0162210
780.003	0.0161795
780.081	0.0163172
780.159	0.0161751
780.237	0.0162053
780.315	0.0161965
780.393	0.0161837
780.471	0.0160706
780.549	0.0159452
780.628	0.0159294
780.706	0.0157917
780.784	0.0157909
780.862	0.0157978
780.940	0.0157639
781.018	0.0156937
781.096	0.0155968
781.174	0.0156511
781.253	0.0155650
781.331	0.0155163
781.409	0.0155583
781.487	0.0156742
781.565	0.0156123
781.643	0.0156145
781.721	0.0156786
781.799	0.0157735
781.878	0.0159293
781.956	0.0158545
782.034	0.0159388
782.112	0.0160339
782.190	0.0160214
782.268	0.0162205
782.346	0.0160970
782.424	0.0161497
782.503	0.0161857
782.581	0.0160115
782.659	0.0160489
782.737	0.0161241
782.815	0.0160642
782.893	0.0160268
782.971	0.0161269
783.049	0.0160381
783.128	0.0159740
783.206	0.0160296
783.284	0.0159731
783.362	0.0159823
783.440	0.0160529
783.518	0.0160022
783.596	0.0160433
783.674	0.0161664
783.753	0.0162709
783.831	0.0160789
783.909	0.0162557
783.987	0.0162312
784.065	0.0161755
784.143	0.0161942
784.221	0.0161526
784.299	0.0161311
784.378	0.0160327
784.456	0.0160270
784.534	0.0161210
784.612	0.0159796
784.690	0.0159301
784.768	0.0159359
784.846	0.0158058
784.924	0.0158329
785.003	0.0158403
785.081	0.0157822
785.159	0.0155930
785.237	0.0158218
785.315	0.0158339
785.393	0.0155856
785.471	0.0155466
785.549	0.0157845
785.628	0.0157586
785.706	0.0158883
785.784	0.0158466
785.862	0.0160268
785.940	0.0159670
786.018	0.0161376
786.096	0.0161076
786.174	0.0160356
786.253	0.0160528
786.331	0.0161271
786.409	0.0162032
786.487	0.0162130
786.565	0.0161489
786.643	0.0160383
786.721	0.0161069
786.799	0.0160934
786.878	0.0158942
786.956	0.0160371
787.034	0.0160175
787.112	0.0159760
787.190	0.0157696
787.268	0.0159586
787.346	0.0159062
787.424	0.0159438
787.503	0.0160608
787.581	0.0160934
787.659	0.0160936
787.737	0.0161320
787.815	0.0160970
787.893	0.0160549
787.971	0.0161781
788.049	0.0161849
788.128	0.0162049
788.206	0.0161709
788.284	0.0161365
788.362	0.0161821
788.440	0.0160735
788.518	0.0161945
788.596	0.0161344
788.674	0.0161086
788.753	0.0160574
788.831	0.0160267
788.909	0.0159933
788.987	0.0161142
789.065	0.0159970
789.143	0.0158112
789.221	0.0159007
789.299	0.0159186
789.378	0.0158988
789.456	0.0159486
789.534	0.0159306
789.612	0.0157272
789.690	0.0159649
789.768	0.0158538
789.846	0.0160088
789.924	0.0159339
790.003	0.0160182
790.081	0.0160550
790.159	0.0159288
790.237	0.0159966
790.315	0.0160674
790.393	0.0160353
790.471	0.0160318
790.549	0.0161320
790.628	0.0160374
790.706	0.0160320
790.784	0.0159796
790.862	0.0160455
790.940	0.0160482
791.018	0.0159646
791.096	0.0159306
791.174	0.0158475
791.253	0.0159878
791.331	0.0159678
791.409	0.0159137
791.487	0.0157658
791.565	0.0159816
791.643	0.0159432
791.721	0.0159294
791.799	0.0159173
791.878	0.0158977
791.956	0.0160941
792.034	0.0159806
792.112	0.0161572
792.190	0.0161526
792.268	0.0162457
792.346	0.0162952
792.424	0.0161758
792.503	0.0162284
792.581	0.0161687
792.659	0.0162209
792.737	0.0161243
792.815	0.0162087
792.893	0.0160601
792.971	0.0161514
793.049	0.0159978
793.128	0.0159853
793.206	0.0160049
793.284	0.0159756
793.362	0.0159515
793.440	0.0159499
793.518	0.0160461
793.596	0.0157268
793.674	0.0158381
793.753	0.0157983
793.831	0.0156902
793.909	0.0157418
793.987	0.0159486
794.065	0.0158235
794.143	0.0157408
794.221	0.0157698
794.299	0.0158092
794.378	0.0157227
794.456	0.0157936
794.534	0.0158282
794.612	0.0158672
794.690	0.0159457
794.768	0.0159544
794.846	0.0159060
794.924	0.0159294
795.003	0.0160529
795.081	0.0159401
795.159	0.0159982
795.237	0.0159357
795.315	0.0160595
795.393	0.0160798
795.471	0.0161038
795.549	0.0160088
795.628	0.0160229
795.706	0.0159370
795.784	0.0160926
795.862	0.0158189
795.940	0.0157840
796.018	0.0160167
796.096	0.0159615
796.174	0.0160066
796.253	0.0160624
796.331	0.0159682
796.409	0.0160677
796.487	0.0160831
796.565	0.0159487
796.643	0.0160053
796.721	0.0160677
796.799	0.0160297
796.878	0.0159770
796.956	0.0162074
797.034	0.0160117
797.112	0.0160482
797.190	0.0159343
797.268	0.0159369
797.346	0.0160168
797.424	0.0159555
797.503	0.0159141
797.581	0.0158782
797.659	0.0159212
797.737	0.0158281
797.815	0.0158396
797.893	0.0157423
797.971	0.0158619
798.049	0.0158874
798.128	0.0157813
798.206	0.0157899
798.284	0.0160487
798.362	0.0160188
798.440	0.0159499
798.518	0.0158653
798.596	0.0159539
798.674	0.0157394
798.753	0.0158510
798.831	0.0158359
798.909	0.0158886
798.987	0.0158747
799.065	0.0159368
799.143	0.0160327
799.221	0.0158078
799.299	0.0159670
799.378	0.0160488
799.456	0.0160017
799.534	0.0158924
799.612	0.0160314
799.690	0.0159623
799.768	0.0160327
799.846	0.0160024
799.924	0.0157672
800.003	0.0160179
800.081	0.0159172
800.159	0.0157749
800.237	0.0159350
800.315	0.0160698
800.393	0.0159956
800.471	0.0160374
800.549	0.0158659
800.628	0.0160339
800.706	0.0160455
800.784	0.0158644
800.862	0.0159943
800.940	0.0160661
801.018	0.0160915
801.096	0.0159708
801.174	0.0160566
801.253	0.0160177
801.331	0.0159975
801.409	0.0160895
801.487	0.0161209
801.565	0.0159972
801.643	0.0161263
801.721	0.0160011
801.799	0.0158810
801.878	0.0161604
801.956	0.0160421
802.034	0.0159003
802.112	0.0159782
802.190	0.0159177
802.268	0.0159420
802.346	0.0160139
802.424	0.0158730
802.503	0.0159061
802.581	0.0159007
802.659	0.0158517
802.737	0.0158643
802.815	0.0159736
802.893	0.0160434
802.971	0.0159546
803.049	0.0159048
803.128	0.0160014
803.206	0.0160018
803.284	0.0159573
803.362	0.0158588
803.440	0.0158554
803.518	0.0159382
803.596	0.0160062
803.674	0.0158846
803.753	0.0160090
803.831	0.0158929
803.909	0.0158537
803.987	0.0159523
804.065	0.0159787
804.143	0.0158932
804.221	0.0158736
804.299	0.0158884
804.378	0.0159702
804.456	0.0159163
804.534	0.0159338
804.612	0.0157996
804.690	0.0157569
804.768	0.0158868
804.846	0.0158995
804.924	0.0159463
805.003	0.0159327
805.081	0.0159389
805.159	0.0159243
805.237	0.0159818
805.315	0.0159523
805.393	0.0159664
805.471	0.0158559
805.549	0.0160739
805.628	0.0160717
805.706	0.0159875
805.784	0.0160212
805.862	0.0160960
805.940	0.0160583
806.018	0.0159371
806.096	0.0160671
806.174	0.0159544
806.253	0.0159855
806.331	0.0160610
806.409	0.0159740
806.487	0.0160828
806.565	0.0159947
806.643	0.0160595
806.721	0.0159688
806.799	0.0159974
806.878	0.0160554
806.956	0.0159425
807.034	0.0160519
807.112	0.0160491
807.190	0.0159135
807.268	0.0160408
807.346	0.0159970
807.424	0.0159624
807.503	0.0160260
807.581	0.0159924
807.659	0.0159819
807.737	0.0161779
807.815	0.0159112
807.893	0.0160920
807.971	0.0159927
808.049	0.0159621
808.128	0.0159711
808.206	0.0159414
808.284	0.0160465
808.362	0.0160763
808.440	0.0161684
808.518	0.0161159
808.596	0.0160320
808.674	0.0160651
808.753	0.0162005
808.831	0.0161481
808.909	0.0161697
808.987	0.0160609
809.065	0.0162507
809.143	0.0161655
809.221	0.0160275
809.299	0.0159289
809.378	0.0159676
809.456	0.0158998
809.534	0.0158345
809.612	0.0159832
809.690	0.0159468
809.768	0.0159029
809.846	0.0158418
809.924	0.0158272
810.003	0.0157404
810.081	0.0156924
810.159	0.0158463
810.237	0.0157626
810.315	0.0157262
810.393	0.0158905
810.471	0.0157787
810.549	0.0158437
810.628	0.0158680
810.706	0.0159113
810.784	0.0160126
810.862	0.0160384
810.940	0.0159086
811.018	0.0158711
811.096	0.0160095
811.174	0.0160069
811.253	0.0161147
811.331	0.0161388
811.409	0.0161504
811.487	0.0161139
811.565	0.0159788
811.643	0.0160209
811.721	0.0159903
811.799	0.0160773
811.878	0.0161328
811.956	0.0160152
812.034	0.0159282
812.112	0.0160189
812.190	0.0159597
812.268	0.0159508
812.346	0.0160094
812.424	0.0160193
812.503	0.0160113
812.581	0.0160228
812.659	0.0161684
812.737	0.0160749
812.815	0.0159601
812.893	0.0159824
812.971	0.0159678
813.049	0.0160912
813.128	0.0160031
813.206	0.0160182
813.284	0.0158985
813.362	0.0160313
813.440	0.0158427
813.518	0.0159960
813.596	0.0159010
813.674	0.0159787
813.753	0.0159474
813.831	0.0157278
813.909	0.0158107
813.987	0.0157603
814.065	0.0159155
814.143	0.0158221
814.221	0.0157024
814.299	0.0157619
814.378	0.0159270
814.456	0.0159190
814.534	0.0160081
814.612	0.0160528
814.690	0.0160129
814.768	0.0161068
814.846	0.0160835
814.924	0.0160833
815.003	0.0161411
815.081	0.0161511
815.159	0.0161427
815.237	0.0160440
815.315	0.0160897
815.393	0.0162183
815.471	0.0160745
815.549	0.0159766
815.628	0.0160583
815.706	0.0161292
815.784	0.0158839
815.862	0.0158887
815.940	0.0158601
816.018	0.0157305
816.096	0.0157742
816.174	0.0158372
816.253	0.0159766
816.331	0.0158270
816.409	0.0157347
816.487	0.0157484
816.565	0.0156674
816.643	0.0156673
816.721	0.0158983
816.799	0.0160705
816.878	0.0158778
816.956	0.0159276
817.034	0.0159569
817.112	0.0158856
817.190	0.0158916
817.268	0.0160532
817.346	0.0160713
817.424	0.0161274
817.503	0.0159615
817.581	0.0158940
817.659	0.0160722
817.737	0.0160886
817.815	0.0160289
817.893	0.0159396
817.971	0.0158754
818.049	0.0159325
818.128	0.0159243
818.206	0.0158681
818.284	0.0159731
818.362	0.0158941
818.440	0.0158636
818.518	0.0158309
818.596	0.0160130
818.674	0.0160206
818.753	0.0158891
818.831	0.0159951
818.909	0.0159757
818.987	0.0159753
819.065	0.0160186
819.143	0.0160022
819.221	0.0160661
819.299	0.0158984
819.378	0.0160199
819.456	0.0159566
819.534	0.0158815
819.612	0.0160968
819.690	0.0158540
819.768	0.0158276
819.846	0.0159216
819.924	0.0159534
820.003	0.0159224
820.081	0.0159266
820.159	0.0158978
820.237	0.0158643
820.315	0.0160585
820.393	0.0160075
820.471	0.0158122
820.549	0.0158509
820.628	0.0158448
820.706	0.0158462
820.784	0.0159143
820.862	0.0157585
820.940	0.0157690
821.018	0.0159670
821.096	0.0158962
821.174	0.0159358
821.253	0.0159464
821.331	0.0159054
821.409	0.0158833
821.487	0.0157590
821.565	0.0158279
821.643	0.0159349
821.721	0.0159451
821.799	0.0159823
821.878	0.0158888
821.956	0.0158953
822.034	0.0160157
822.112	0.0160358
822.190	0.0161017
822.268	0.0159468
822.346	0.0160619
822.424	0.0160593
822.503	0.0161030
822.581	0.0159536
822.659	0.0158606
822.737	0.0159618
822.815	0.0160731
822.893	0.0161337
822.971	0.0160157
823.049	0.0160638
823.128	0.0161340
823.206	0.0159566
823.284	0.0160009
823.362	0.0161172
823.440	0.0161632
823.518	0.0160744
823.596	0.0159953
823.674	0.0159035
823.753	0.0160255
823.831	0.0160612
823.909	0.0159013
823.987	0.0160564
824.065	0.0160882
824.143	0.0160082
824.221	0.0159822
824.299	0.0160809
824.378	0.0160616
824.456	0.0159809
824.534	0.0159586
824.612	0.0159684
824.690	0.0160206
824.768	0.0158914
824.846	0.0159307
824.924	0.0160883
825.003	0.0159010
825.081	0.0160623
825.159	0.0159341
825.237	0.0159174
825.315	0.0160013
825.393	0.0160121
825.471	0.0158344
825.549	0.0159651
825.628	0.0159331
825.706	0.0159329
825.784	0.0159772
825.862	0.0157305
825.940	0.0160307
826.018	0.0159898
826.096	0.0160875
826.174	0.0159400
826.253	0.0159881
826.331	0.0160026
826.409	0.0158512
826.487	0.0159140
826.565	0.0160756
826.643	0.0160249
826.721	0.0159938
826.799	0.0159399
826.878	0.0160941
826.956	0.0159673
827.034	0.0158988
827.112	0.0159059
827.190	0.0161251
827.268	0.0158564
827.346	0.0159515
827.424	0.0158808
827.503	0.0159520
827.581	0.0160356
827.659	0.0160152
827.737	0.0160252
827.815	0.0158681
827.893	0.0157430
827.971	0.0159589
828.049	0.0158907
828.128	0.0159809
828.206	0.0160947
828.284	0.0160461
828.362	0.0159806
828.440	0.0159400
828.518	0.0160139
828.596	0.0160048
828.674	0.0161903
828.753	0.0159885
828.831	0.0160332
828.909	0.0160633
828.987	0.0159370
829.065	0.0160526
829.143	0.0161610
829.221	0.0160335
829.299	0.0160538
829.378	0.0160448
829.456	0.0159827
829.534	0.0159081
829.612	0.0159682
829.690	0.0161331
829.768	0.0160109
829.846	0.0159978
829.924	0.0159019
830.003	0.0158962
830.081	0.0159280
830.159	0.0158314
830.237	0.0158157
830.315	0.0160806
830.393	0.0158254
830.471	0.0159649
830.549	0.0159148
830.628	0.0158524
830.706	0.0159183
830.784	0.0158599
830.862	0.0160262
830.940	0.0159243
831.018	0.0160291
831.096	0.0159364
831.174	0.0158113
831.253	0.0159866
831.331	0.0159489
831.409	0.0160559
831.487	0.0160151
831.565	0.0159702
831.643	0.0160468
831.721	0.0159435
831.799	0.0159691
831.878	0.0161214
831.956	0.0160018
832.034	0.0158815
832.112	0.0159867
832.190	0.0159460
832.268	0.0160011
832.346	0.0160426
832.424	0.0161150
832.503	0.0159518
832.581	0.0160148
832.659	0.0159432
832.737	0.0158925
832.815	0.0159015
832.893	0.0160411
832.971	0.0158976
833.049	0.0159598
833.128	0.0159345
833.206	0.0160905
833.284	0.0159914
833.362	0.0159460
833.440	0.0159399
833.518	0.0159017
833.596	0.0160531
833.674	0.0159551
833.753	0.0160445
833.831	0.0160487
833.909	0.0160308
833.987	0.0160044
834.065	0.0159019
834.143	0.0160558
834.221	0.0160327
834.299	0.0158813
834.378	0.0159686
834.456	0.0160017
834.534	0.0159106
834.612	0.0160439
834.690	0.0158930
834.768	0.0160166
834.846	0.0158612
834.924	0.0159697
835.003	0.0160664
835.081	0.0159724
835.159	0.0160384
835.237	0.0159644
835.315	0.0159592
835.393	0.0159136
835.471	0.0159185
835.549	0.0157519
835.628	0.0158723
835.706	0.0159298
835.784	0.0159326
835.862	0.0158886
835.940	0.0159904
836.018	0.0157259
836.096	0.0158558
836.174	0.0157697
836.253	0.0158821
836.331	0.0158655
836.409	0.0158016
836.487	0.0158051
836.565	0.0159269
836.643	0.0159560
836.721	0.0160319
836.799	0.0160318
836.878	0.0159679
836.956	0.0160400
837.034	0.0160009
837.112	0.0159435
837.190	0.0160888
837.268	0.0162157
837.346	0.0162573
837.424	0.0161008
837.503	0.0162144
837.581	0.0162344
837.659	0.0160652
837.737	0.0161031
837.815	0.0160927
837.893	0.0161423
837.971	0.0161206
838.049	0.0161705
838.128	0.0161625
838.206	0.0160395
838.284	0.0161798
838.362	0.0160197
838.440	0.0160659
838.518	0.0161046
838.596	0.0160184
838.674	0.0158729
838.753	0.0158727
838.831	0.0159328
838.909	0.0157801
838.987	0.0158910
839.065	0.0158438
839.143	0.0159108
839.221	0.0157098
839.299	0.0159457
839.378	0.0159734
839.456	0.0157547
839.534	0.0159215
839.612	0.0158895
839.690	0.0159122
839.768	0.0158964
839.846	0.0158921
839.924	0.0159514
840.003	0.0158710
840.081	0.0160184
840.159	0.0160099
840.237	0.0159998
840.315	0.0158868
840.393	0.0160316
840.471	0.0159281
840.549	0.0160195
840.628	0.0159743
840.706	0.0159527
840.784	0.0160590
840.862	0.0158427
840.940	0.0159562
841.018	0.0158751
841.096	0.0160437
841.174	0.0160699
841.253	0.0160300
841.331	0.0160455
841.409	0.0161260
841.487	0.0160770
841.565	0.0161353
841.643	0.0160459
841.721	0.0161587
841.799	0.0162035
841.878	0.0161641
841.956	0.0160571
842.034	0.0161982
842.112	0.0161839
842.190	0.0161348
842.268	0.0161593
842.346	0.0160838
842.424	0.0159431
842.503	0.0160538
842.581	0.0161802
842.659	0.0159672
842.737	0.0158376
842.815	0.0159917
842.893	0.0159664
842.971	0.0158778
843.049	0.0158667
843.128	0.0158132
843.206	0.0159821
843.284	0.0158902
843.362	0.0159720
843.440	0.0157964
843.518	0.0157790
843.596	0.0158437
843.674	0.0158613
843.753	0.0158074
843.831	0.0159386
843.909	0.0158288
843.987	0.0157664
844.065	0.0158147
844.143	0.0157674
844.221	0.0160779
844.299	0.0160133
844.378	0.0158658
844.456	0.0158881
844.534	0.0158466
844.612	0.0158801
844.690	0.0157520
844.768	0.0159726
844.846	0.0160835
844.924	0.0159163
845.003	0.0159242
845.081	0.0159283
845.159	0.0161160
845.237	0.0160760
845.315	0.0160424
845.393	0.0160377
845.471	0.0161380
845.549	0.0162071
845.628	0.0160367
845.706	0.0159837
845.784	0.0160858
845.862	0.0161716
845.940	0.0162841
846.018	0.0162128
846.096	0.0162332
846.174	0.0161298
846.253	0.0160553
846.331	0.0161375
846.409	0.0159817
846.487	0.0159818
846.565	0.0160559
846.643	0.0160246
846.721	0.0160098
846.799	0.0160655
846.878	0.0159814
846.956	0.0160219
847.034	0.0159451
847.112	0.0158959
847.190	0.0159483
847.268	0.0160284
847.346	0.0158942
847.424	0.0158109
847.503	0.0158987
847.581	0.0160853
847.659	0.0159754
847.737	0.0159048
847.815	0.0160365
847.893	0.0158432
847.971	0.0158224
848.049	0.0159970
848.128	0.0159185
848.206	0.0159543
848.284	0.0159249
848.362	0.0158578
848.440	0.0158629
848.518	0.0158830
848.596	0.0159360
848.674	0.0159634
848.753	0.0159361
848.831	0.0158623
848.909	0.0159861
848.987	0.0159898
849.065	0.0158862
849.143	0.0158321
849.221	0.0160213
849.299	0.0160085
849.378	0.0160503
849.456	0.0158944
849.534	0.0160272
849.612	0.0160027
849.690	0.0160032
849.768	0.0161239
849.846	0.0158609
849.924	0.0161009
850.003	0.0160206
850.081	0.0161420
850.159	0.0160373
850.237	0.0161128
850.315	0.0161279
850.393	0.0159187
850.471	0.0159731
850.549	0.0160356
850.628	0.0159630
850.706	0.0160961
850.784	0.0160870
850.862	0.0160288
850.940	0.0160943
851.018	0.0159309
851.096	0.0162088
851.174	0.0160452
851.253	0.0161954
851.331	0.0160661
851.409	0.0159086
851.487	0.0160411
851.565	0.0160288
851.643	0.0160020
851.721	0.0158409
851.799	0.0158607
851.878	0.0161085
851.956	0.0160272
852.034	0.0158702
852.112	0.0159998
852.190	0.0160011
852.268	0.0159078
852.346	0.0159135
852.424	0.0161097
852.503	0.0157674
852.581	0.0158976
852.659	0.0159782
852.737	0.0159239
852.815	0.0159764
852.893	0.0158294
852.971	0.0158513
853.049	0.0158617
853.128	0.0159077
853.206	0.0159454
853.284	0.0159254
853.362	0.0159296
853.440	0.0158520
853.518	0.0159340
853.596	0.0158922
853.674	0.0159158
853.753	0.0158501
853.831	0.0160529
853.909	0.0159389
853.987	0.0159834
854.065	0.0159337
854.143	0.0160159
854.221	0.0159570
854.299	0.0159230
854.378	0.0160899
854.456	0.0159731
854.534	0.0159910
854.612	0.0159368
854.690	0.0160267
854.768	0.0160917
854.846	0.0159734
854.924	0.0158875
855.003	0.0160352
855.081	0.0159703
855.159	0.0158139
855.237	0.0159848
855.315	0.0158782
855.393	0.0158978
855.471	0.0159960
855.549	0.0160735
855.628	0.0159617
855.706	0.0158021
855.784	0.0159082
855.862	0.0159612
855.940	0.0159145
856.018	0.0160381
856.096	0.0160421
856.174	0.0160790
856.253	0.0161120
856.331	0.0159931
856.409	0.0160793
856.487	0.0159586
856.565	0.0160093
856.643	0.0159353
856.721	0.0159560
856.799	0.0159680
856.878	0.0160514
856.956	0.0160303
857.034	0.0161786
857.112	0.0160048
857.190	0.0159042
857.268	0.0159808
857.346	0.0160409
857.424	0.0159672
857.503	0.0159929
857.581	0.0159000
857.659	0.0159341
857.737	0.0158068
857.815	0.0159489
857.893	0.0159562
857.971	0.0160597
858.049	0.0159262
858.128	0.0158416
858.206	0.0159338
858.284	0.0159519
858.362	0.0159734
858.440	0.0158463
858.518	0.0159663
858.596	0.0162096
858.674	0.0160586
858.753	0.0159061
858.831	0.0160368
858.909	0.0160276
858.987	0.0160134
859.065	0.0160963
859.143	0.0161499
859.221	0.0160709
859.299	0.0161420
859.378	0.0161445
859.456	0.0162179
859.534	0.0160425
859.612	0.0162099
859.690	0.0160010
859.768	0.0161545
859.846	0.0161288
859.924	0.0160836
860.003	0.0158883
860.081	0.0160833
860.159	0.0160781
860.237	0.0160192
860.315	0.0160824
860.393	0.0158548
860.471	0.0158440
860.549	0.0159230
860.628	0.0159497
860.706	0.0159197
860.784	0.0158418
860.862	0.0158195
860.940	0.0157503
861.018	0.0158269
861.096	0.0158286
861.174	0.0158131
861.253	0.0158593
861.331	0.0158437
861.409	0.0157644
861.487	0.0158081
861.565	0.0159151
861.643	0.0158178
861.721	0.0159367
861.799	0.0159071
861.878	0.0159437
861.956	0.0159714
862.034	0.0159604
862.112	0.0159227
862.190	0.0160194
862.268	0.0160760
862.346	0.0159873
862.424	0.0160092
862.503	0.0159652
862.581	0.0159827
862.659	0.0159892
862.737	0.0159033
862.815	0.0160103
862.893	0.0160313
862.971	0.0160277
863.049	0.0160522
863.128	0.0160680
863.206	0.0161304
863.284	0.0160964
863.362	0.0159735
863.440	0.0160731
863.518	0.0159834
863.596	0.0160207
863.674	0.0159933
863.753	0.0160262
863.831	0.0160340
863.909	0.0159137
863.987	0.0159934
864.065	0.0159855
864.143	0.0159372
864.221	0.0159942
864.299	0.0159140
864.378	0.0159026
864.456	0.0159092
864.534	0.0159715
864.612	0.0159732
864.690	0.0159883
864.768	0.0158047
864.846	0.0157440
864.924	0.0157915
865.003	0.0158146
865.081	0.0158494
865.159	0.0158891
865.237	0.0159890
865.315	0.0159443
865.393	0.0159215
865.471	0.0159159
865.549	0.0159291
865.628	0.0160629
865.706	0.0160273
865.784	0.0160976
865.862	0.0159518
865.940	0.0158776
866.018	0.0160414
866.096	0.0161265
866.174	0.0159581
866.253	0.0159830
866.331	0.0160192
866.409	0.0160548
866.487	0.0160875
866.565	0.0158829
866.643	0.0159613
866.721	0.0161008
866.799	0.0160719
866.878	0.0159592
866.956	0.0159589
867.034	0.0160939
867.112	0.0160023
867.190	0.0159965
867.268	0.0160635
867.346	0.0158728
867.424	0.0159795
867.503	0.0161562
867.581	0.0160333
867.659	0.0159695
867.737	0.0158366
867.815	0.0158845
867.893	0.0160860
867.971	0.0160458
868.049	0.0158194
868.128	0.0158898
868.206	0.0160770
868.284	0.0159595
868.362	0.0158465
868.440	0.0159871
868.518	0.0160767
868.596	0.0159937
868.674	0.0159349
868.753	0.0159019
868.831	0.0158952
868.909	0.0159295
868.987	0.0158080
869.065	0.0160782
869.143	0.0159581
869.221	0.0159358
869.299	0.0159408
869.378	0.0160181
869.456	0.0159663
869.534	0.0159873
869.612	0.0159957
869.690	0.0159483
869.768	0.0160790
869.846	0.0160893
869.924	0.0160213
870.003	0.0159381
870.081	0.0160651
870.159	0.0160243
870.237	0.0159862
870.315	0.0160382
870.393	0.0161111
870.471	0.0161437
870.549	0.0160503
870.628	0.0160763
870.706	0.0161098
870.784	0.0161530
870.862	0.0160963
870.940	0.0160468
871.018	0.0160665
871.096	0.0161685
871.174	0.0160678
871.253	0.0159457
871.331	0.0160133
871.409	0.0159863
871.487	0.0159312
871.565	0.0161450
871.643	0.0160614
871.721	0.0160651
871.799	0.0159987
871.878	0.0160946
871.956	0.0159471
872.034	0.0159571
872.112	0.0160429
872.190	0.0160714
872.268	0.0159777
872.346	0.0160214
872.424	0.0159615
872.503	0.0160035
872.581	0.0160875
872.659	0.0158035
872.737	0.0158742
872.815	0.0158138
872.893	0.0158476
872.971	0.0159676
873.049	0.0159204
873.128	0.0158755
873.206	0.0159789
873.284	0.0158728
873.362	0.0160408
873.440	0.0160802
873.518	0.0159441
873.596	0.0159032
873.674	0.0159153
873.753	0.0158127
873.831	0.0159944
873.909	0.0159492
873.987	0.0160740
874.065	0.0159538
874.143	0.0159557
874.221	0.0159428
874.299	0.0161511
874.378	0.0161069
874.456	0.0160049
874.534	0.0161466
874.612	0.0161640
874.690	0.0160231
874.768	0.0159782
874.846	0.0160014
874.924	0.0161465
875.003	0.0159200
875.081	0.0159920
875.159	0.0160891
875.237	0.0161262
875.315	0.0160241
875.393	0.0159431
875.471	0.0159032
875.549	0.0160381
875.628	0.0160069
875.706	0.0159309
875.784	0.0159466
875.862	0.0159024
875.940	0.0160409
876.018	0.0159483
876.096	0.0159940
876.174	0.0160056
876.253	0.0158662
876.331	0.0159122
876.409	0.0159753
876.487	0.0160838
876.565	0.0160083
876.643	0.0158486
876.721	0.0159300
876.799	0.0159296
876.878	0.0159055
876.956	0.0158207
877.034	0.0161170
877.112	0.0160769
877.190	0.0159367
877.268	0.0159209
877.346	0.0161564
877.424	0.0158743
877.503	0.0159731
877.581	0.0158633
877.659	0.0159309
877.737	0.0158955
877.815	0.0159305
877.893	0.0160174
877.971	0.0160077
878.049	0.0158743
878.128	0.0158802
878.206	0.0158443
878.284	0.0158315
878.362	0.0159637
878.440	0.0159866
878.518	0.0159090
878.596	0.0160136
878.674	0.0158611
878.753	0.0158846
878.831	0.0158743
878.909	0.0160300
878.987	0.0159972
879.065	0.0162177
879.143	0.0161307
879.221	0.0160770
879.299	0.0160797
879.378	0.0161472
879.456	0.0161281
879.534	0.0161710
879.612	0.0161266
879.690	0.0161877
879.768	0.0161320
879.846	0.0160041
879.924	0.0161317
880.003	0.0161460
880.081	0.0160823
880.159	0.0159956
880.237	0.0160127
880.315	0.0160574
880.393	0.0160226
880.471	0.0160812
880.549	0.0160074
880.628	0.0160296
880.706	0.0161327
880.784	0.0160452
880.862	0.0161284
880.940	0.0159850
881.018	0.0160976
881.096	0.0161010
881.174	0.0161130
881.253	0.0160947
881.331	0.0160764
881.409	0.0160903
881.487	0.0160655
881.565	0.0160760
881.643	0.0158707
881.721	0.0159890
881.799	0.0160660
881.878	0.0159232
881.956	0.0159379
882.034	0.0159530
882.112	0.0159696
882.190	0.0159592
882.268	0.0159994
882.346	0.0159201
882.424	0.0159703
882.503	0.0159204
882.581	0.0158868
882.659	0.0158559
882.737	0.0158485
882.815	0.0158160
882.893	0.0158807
882.971	0.0159015
883.049	0.0159159
883.128	0.0161214
883.206	0.0161512
883.284	0.0160948
883.362	0.0160432
883.440	0.0158681
883.518	0.0160492
883.596	0.0161988
883.674	0.0160816
883.753	0.0159621
883.831	0.0159898
883.909	0.0159969
883.987	0.0160038
884.065	0.0161052
884.143	0.0158528
884.221	0.0158801
884.299	0.0161779
884.378	0.0160901
884.456	0.0159814
884.534	0.0159998
884.612	0.0159117
884.690	0.0160432
884.768	0.0160651
884.846	0.0158842
884.924	0.0159016
885.003	0.0159436
885.081	0.0160641
885.159	0.0160004
885.237	0.0159664
885.315	0.0160139
885.393	0.0158669
885.471	0.0159380
885.549	0.0159282
885.628	0.0160302
885.706	0.0160349
885.784	0.0160601
885.862	0.0159293
885.940	0.0159370
886.018	0.0159825
886.096	0.0161172
886.174	0.0161085
886.253	0.0159971
886.331	0.0161977
886.409	0.0160397
886.487	0.0161063
886.565	0.0160741
886.643	0.0161037
886.721	0.0160561
886.799	0.0160177
886.878	0.0160448
886.956	0.0160471
887.034	0.0160143
887.112	0.0161273
887.190	0.0159887
887.268	0.0159568
887.346	0.0160921
887.424	0.0159153
887.503	0.0159576
887.581	0.0158833
887.659	0.0159423
887.737	0.0158801
887.815	0.0159483
887.893	0.0158490
887.971	0.0159464
888.049	0.0158681
888.128	0.0158733
888.206	0.0159839
888.284	0.0156776
888.362	0.0158047
888.440	0.0159480
888.518	0.0158554
888.596	0.0158115
888.674	0.0159467
888.753	0.0159178
888.831	0.0159324
888.909	0.0159077
888.987	0.0158654
889.065	0.0157777
889.143	0.0159255
889.221	0.0159869
889.299	0.0160174
889.378	0.0157967
889.456	0.0158598
889.534	0.0158891
889.612	0.0159725
889.690	0.0159778
889.768	0.0160479
889.846	0.0161508
889.924	0.0159569
890.003	0.0159899
890.081	0.0160973
890.159	0.0159587
890.237	0.0160574
890.315	0.0160309
890.393	0.0160482
890.471	0.0161262
890.549	0.0161317
890.628	0.0160145
890.706	0.0159029
890.784	0.0160222
890.862	0.0159524
890.940	0.0160751
891.018	0.0161889
891.096	0.0160194
891.174	0.0160114
891.253	0.0160265
891.331	0.0159748
891.409	0.0160255
891.487	0.0159719
891.565	0.0159098
891.643	0.0159532
891.721	0.0160088
891.799	0.0159416
891.878	0.0158853
891.956	0.0158648
892.034	0.0159457
892.112	0.0159554
892.190	0.0157584
892.268	0.0159373
892.346	0.0160107
892.424	0.0158070
892.503	0.0159857
892.581	0.0159133
892.659	0.0159412
892.737	0.0159550
892.815	0.0158458
892.893	0.0158837
892.971	0.0159108
893.049	0.0159539
893.128	0.0158292
893.206	0.0158273
893.284	0.0158638
893.362	0.0159415
893.440	0.0159999
893.518	0.0160089
893.596	0.0160062
893.674	0.0159628
893.753	0.0160817
893.831	0.0159785
893.909	0.0159914
893.987	0.0160110
894.065	0.0159487
894.143	0.0159565
894.221	0.0159907
894.299	0.0160392
894.378	0.0161455
894.456	0.0160648
894.534	0.0159451
894.612	0.0160253
894.690	0.0159375
894.768	0.0159550
894.846	0.0160484
894.924	0.0159725
895.003	0.0159068
895.081	0.0159071
895.159	0.0159677
895.237	0.0160066
895.315	0.0158495
895.393	0.0159634
895.471	0.0158061
895.549	0.0158786
895.628	0.0159512
895.706	0.0159324
895.784	0.0159402
895.862	0.0158168
895.940	0.0159398
896.018	0.0159049
896.096	0.0158424
896.174	0.0158990
896.253	0.0159940
896.331	0.0159389
896.409	0.0160046
896.487	0.0160261
896.565	0.0158603
896.643	0.0159624
896.721	0.0160474
896.799	0.0159875
896.878	0.0158793
896.956	0.0160970
897.034	0.0160764
897.112	0.0159919
897.190	0.0160973
897.268	0.0160062
897.346	0.0160108
897.424	0.0159212
897.503	0.0160576
897.581	0.0160191
897.659	0.0159649
897.737	0.0159480
897.815	0.0158743
897.893	0.0160783
897.971	0.0161178
898.049	0.0159347
898.128	0.0160189
898.206	0.0160548
898.284	0.0159087
898.362	0.0159952
898.440	0.0159463
898.518	0.0160442
898.596	0.0160384
898.674	0.0159824
898.753	0.0159785
898.831	0.0161061
898.909	0.0160490
898.987	0.0160030
899.065	0.0160135
899.143	0.0159114
899.221	0.0159158
899.299	0.0159507
899.378	0.0159831
899.456	0.0160297
899.534	0.0159148
899.612	0.0159017
899.690	0.0159117
899.768	0.0159269
899.846	0.0159608
899.924	0.0159714
900.003	0.0158372
900.081	0.0157010
900.159	0.0158491
900.237	0.0159914
900.315	0.0158838
900.393	0.0160240
900.471	0.0159042
900.549	0.0159187
900.628	0.0159478
900.706	0.0161211
900.784	0.0159273
900.862	0.0158315
900.940	0.0159141
901.018	0.0160829
901.096	0.0158851
901.174	0.0158508
901.253	0.0160209
901.331	0.0160997
901.409	0.0159568
901.487	0.0158025
901.565	0.0159615
901.643	0.0158628
901.721	0.0159760
901.799	0.0159605
901.878	0.0159499
901.956	0.0158673
902.034	0.0159712
902.112	0.0160342
902.190	0.0159954
902.268	0.0159129
902.346	0.0158910
902.424	0.0160791
902.503	0.0159755
902.581	0.0160696
902.659	0.0158195
902.737	0.0159949
902.815	0.0161104
902.893	0.0160916
902.971	0.0159222
903.049	0.0159967
903.128	0.0160056
903.206	0.0159418
903.284	0.0160291
903.362	0.0160226
903.440	0.0159763
903.518	0.0158324
903.596	0.0159800
903.674	0.0158420
903.753	0.0159470
903.831	0.0159523
903.909	0.0159727
903.987	0.0159505
904.065	0.0158746
904.143	0.0158374
904.221	0.0158531
904.299	0.0158566
904.378	0.0159708
904.456	0.0159589
904.534	0.0159290
904.612	0.0159969
904.690	0.0160556
904.768	0.0160079
904.846	0.0160536
904.924	0.0160695
905.003	0.0161090
905.081	0.0160087
905.159	0.0160270
905.237	0.0159357
905.315	0.0161285
905.393	0.0159499
905.471	0.0159624
905.549	0.0160586
905.628	0.0159283
905.706	0.0161271
905.784	0.0160184
905.862	0.0160748
905.940	0.0160339
906.018	0.0159909
906.096	0.0160630
906.174	0.0159074
906.253	0.0159274
906.331	0.0160275
906.409	0.0160873
906.487	0.0160464
906.565	0.0160828
906.643	0.0160448
906.721	0.0160297
906.799	0.0159673
906.878	0.0159702
906.956	0.0160266
907.034	0.0159370
907.112	0.0160484
907.190	0.0160615
907.268	0.0160062
907.346	0.0160191
907.424	0.0159630
907.503	0.0159888
907.581	0.0159821
907.659	0.0160137
907.737	0.0160656
907.815	0.0159510
907.893	0.0159988
907.971	0.0159257
908.049	0.0161587
908.128	0.0161072
908.206	0.0161350
908.284	0.0160872
908.362	0.0159153
908.440	0.0160593
908.518	0.0160129
908.596	0.0160632
908.674	0.0159794
908.753	0.0159970
908.831	0.0160358
908.909	0.0161770
908.987	0.0158662
909.065	0.0160662
909.143	0.0160754
909.221	0.0159979
909.299	0.0159459
909.378	0.0159178
909.456	0.0159883
909.534	0.0160446
909.612	0.0160775
909.690	0.0160239
909.768	0.0159823
909.846	0.0160016
909.924	0.0160088
910.003	0.0160020
910.081	0.0160077
910.159	0.0159369
910.237	0.0160690
910.315	0.0160786
910.393	0.0158495
910.471	0.0160005
910.549	0.0159901
910.628	0.0159246
910.706	0.0159320
910.784	0.0159313
910.862	0.0158218
910.940	0.0156822
911.018	0.0158815
911.096	0.0157901
911.174	0.0157660
911.253	0.0158718
911.331	0.0158501
911.409	0.0158049
911.487	0.0158681
911.565	0.0158596
911.643	0.0159212
911.721	0.0160103
911.799	0.0159213
911.878	0.0161175
911.956	0.0160291
912.034	0.0161200
912.112	0.0161540
912.190	0.0162011
912.268	0.0161608
912.346	0.0161897
912.424	0.0160872
912.503	0.0160859
912.581	0.0161529
912.659	0.0161111
912.737	0.0160207
912.815	0.0161251
912.893	0.0159321
912.971	0.0159346
913.049	0.0158617
913.128	0.0158540
913.206	0.0158224
913.284	0.0157727
913.362	0.0157312
913.440	0.0156937
913.518	0.0158356
913.596	0.0158562
913.674	0.0158235
913.753	0.0158829
913.831	0.0157945
913.909	0.0158565
913.987	0.0161098
914.065	0.0159969
914.143	0.0160664
914.221	0.0161486
914.299	0.0161494
914.378	0.0162657
914.456	0.0162927
914.534	0.0161377
914.612	0.0161982
914.690	0.0162517
914.768	0.0161565
914.846	0.0160213
914.924	0.0159604
915.003	0.0160085
915.081	0.0159275
915.159	0.0160389
915.237	0.0159724
915.315	0.0159216
915.393	0.0159487
915.471	0.0158411
915.549	0.0157428
915.628	0.0158115
915.706	0.0158556
915.784	0.0159488
915.862	0.0159180
915.940	0.0160249
916.018	0.0158695
916.096	0.0157427
916.174	0.0159642
916.253	0.0159601
916.331	0.0158739
916.409	0.0158468
916.487	0.0160233
916.565	0.0160332
916.643	0.0159692
916.721	0.0159100
916.799	0.0159413
916.878	0.0159378
916.956	0.0159947
917.034	0.0159239
917.112	0.0158391
917.190	0.0158804
917.268	0.0160041
917.346	0.0161182
917.424	0.0159464
917.503	0.0159902
917.581	0.0158643
917.659	0.0161301
917.737	0.0159798
917.815	0.0161407
917.893	0.0159827
917.971	0.0159585
918.049	0.0159672
918.128	0.0160763
918.206	0.0160635
918.284	0.0161740
918.362	0.0159666
918.440	0.0160300
918.518	0.0158669
918.596	0.0160748
918.674	0.0160589
918.753	0.0160641
918.831	0.0158624
918.909	0.0159409
918.987	0.0161351
919.065	0.0161175
919.143	0.0161829
919.221	0.0160818
919.299	0.0160461
919.378	0.0160027
919.456	0.0160835
919.534	0.0160659
919.612	0.0160733
919.690	0.0160308
919.768	0.0159614
919.846	0.0160015
919.924	0.0160778
920.003	0.0159957
920.081	0.0159384
920.159	0.0159188
920.237	0.0159846
920.315	0.0159084
920.393	0.0158875
920.471	0.0159661
920.549	0.0160166
920.628	0.0159373
920.706	0.0158501
920.784	0.0159566
920.862	0.0161427
920.940	0.0159559
921.018	0.0159570
921.096	0.0159903
921.174	0.0161083
921.253	0.0161815
921.331	0.0160793
921.409	0.0161895
921.487	0.0161040
921.565	0.0159652
921.643	0.0161460
921.721	0.0160988
921.799	0.0160452
921.878	0.0161793
921.956	0.0161095
922.034	0.0160069
922.112	0.0159368
922.190	0.0159375
922.268	0.0160438
922.346	0.0160191
922.424	0.0158867
922.503	0.0159450
922.581	0.0159828
922.659	0.0159670
922.737	0.0159569
922.815	0.0159966
922.893	0.0158994
922.971	0.0157925
923.049	0.0159245
923.128	0.0159385
923.206	0.0159440
923.284	0.0158132
923.362	0.0158818
923.440	0.0159143
923.518	0.0160025
923.596	0.0159948
923.674	0.0159835
923.753	0.0159106
923.831	0.0158797
923.909	0.0159789
923.987	0.0158837
924.065	0.0158897
924.143	0.0159261
924.221	0.0158459
924.299	0.0159434
924.378	0.0158537
924.456	0.0159262
924.534	0.0158403
924.612	0.0158601
924.690	0.0158545
924.768	0.0160320
924.846	0.0159782
924.924	0.0159169
925.003	0.0159905
925.081	0.0160052
925.159	0.0159502
925.237	0.0160840
925.315	0.0160085
925.393	0.0159763
925.471	0.0160159
925.549	0.0159740
925.628	0.0159648
925.706	0.0160252
925.784	0.0160739
925.862	0.0160216
925.940	0.0160471
926.018	0.0160047
926.096	0.0160332
926.174	0.0160605
926.253	0.0161143
926.331	0.0160924
926.409	0.0160452
926.487	0.0159516
926.565	0.0161079
926.643	0.0161407
926.721	0.0158947
926.799	0.0160332
926.878	0.0160699
926.956	0.0159212
927.034	0.0160381
927.112	0.0160345
927.190	0.0161243
927.268	0.0159700
927.346	0.0159201
927.424	0.0159541
927.503	0.0159595
927.581	0.0159218
927.659	0.0157275
927.737	0.0157075
927.815	0.0156644
927.893	0.0157690
927.971	0.0158483
928.049	0.0156750
928.128	0.0155839
928.206	0.0158217
928.284	0.0159084
928.362	0.0159391
928.440	0.0158498
928.518	0.0159855
928.596	0.0160224
928.674	0.0158512
928.753	0.0160438
928.831	0.0160513
928.909	0.0160616
928.987	0.0160544
929.065	0.0160908
929.143	0.0160941
929.221	0.0160623
929.299	0.0159208
929.378	0.0161421
929.456	0.0160670
929.534	0.0160626
929.612	0.0160580
929.690	0.0160303
929.768	0.0159629
929.846	0.0159984
929.924	0.0159634
930.003	0.0160735
930.081	0.0159855
930.159	0.0159338
930.237	0.0159596
930.315	0.0158891
930.393	0.0159654
930.471	0.0158530
930.549	0.0157934
930.628	0.0158875
930.706	0.0160280
930.784	0.0158974
930.862	0.0159718
930.940	0.0160139
931.018	0.0159713
931.096	0.0159594
931.174	0.0161530
931.253	0.0160480
931.331	0.0159962
931.409	0.0161422
931.487	0.0159018
931.565	0.0160416
931.643	0.0160400
931.721	0.0161070
931.799	0.0161391
931.878	0.0159703
931.956	0.0158183
932.034	0.0160072
932.112	0.0160149
932.190	0.0160046
932.268	0.0158823
932.346	0.0159535
932.424	0.0159261
932.503	0.0160400
932.581	0.0159718
932.659	0.0159793
932.737	0.0160063
932.815	0.0159750
932.893	0.0161127
932.971	0.0160474
933.049	0.0159665
933.128	0.0160996
933.206	0.0160919
933.284	0.0161372
933.362	0.0160755
933.440	0.0160792
933.518	0.0161344
933.596	0.0161912
933.674	0.0158689
933.753	0.0161781
933.831	0.0160896
933.909	0.0159605
933.987	0.0160761
934.065	0.0160074
934.143	0.0159698
934.221	0.0160712
934.299	0.0160023
934.378	0.0157529
934.456	0.0159241
934.534	0.0159603
934.612	0.0158813
934.690	0.0158502
934.768	0.0158429
934.846	0.0159716
934.924	0.0159114
935.003	0.0159561
935.081	0.0160934
935.159	0.0160094
935.237	0.0159344
935.315	0.0159458
935.393	0.0158696
935.471	0.0160593
935.549	0.0160781
935.628	0.0160716
935.706	0.0160007
935.784	0.0160580
935.862	0.0160662
935.940	0.0157209
936.018	0.0158965
936.096	0.0158279
936.174	0.0158640
936.253	0.0158252
936.331	0.0158424
936.409	0.0158470
936.487	0.0158038
936.565	0.0158536
936.643	0.0158701
936.721	0.0159280
936.799	0.0159168
936.878	0.0158672
936.956	0.0157792
937.034	0.0159223
937.112	0.0159949
937.190	0.0160390
937.268	0.0157934
937.346	0.0158597
937.424	0.0159380
937.503	0.0159148
937.581	0.0159983
937.659	0.0159592
937.737	0.0159042
937.815	0.0159966
937.893	0.0160049
937.971	0.0158715
938.049	0.0159559
938.128	0.0160281
938.206	0.0160284
938.284	0.0158269
938.362	0.0159044
938.440	0.0159679
938.518	0.0159040
938.596	0.0159251
938.674	0.0159957
938.753	0.0158664
938.831	0.0159435
938.909	0.0158775
938.987	0.0158395
939.065	0.0160831
939.143	0.0157978
939.221	0.0158806
939.299	0.0158945
939.378	0.0160831
939.456	0.0159556
939.534	0.0160359
939.612	0.0159607
939.690	0.0159215
939.768	0.0158489
939.846	0.0159485
939.924	0.0160098
940.003	0.0158397
940.081	0.0159892
940.159	0.0159975
940.237	0.0159057
940.315	0.0158723
940.393	0.0158556
940.471	0.0160023
940.549	0.0160565
940.628	0.0159996
940.706	0.0158652
940.784	0.0158873
940.862	0.0159753
940.940	0.0158481
941.018	0.0159962
941.096	0.0159315
941.174	0.0158479
941.253	0.0160041
941.331	0.0159937
941.409	0.0159070
941.487	0.0160120
941.565	0.0159801
941.643	0.0158838
941.721	0.0158706
941.799	0.0161028
941.878	0.0160461
941.956	0.0159885
942.034	0.0160094
942.112	0.0160184
942.190	0.0159323
942.268	0.0159940
942.346	0.0159364
942.424	0.0159962
942.503	0.0160100
942.581	0.0160165
942.659	0.0159850
942.737	0.0159819
942.815	0.0160258
942.893	0.0159946
942.971	0.0159994
943.049	0.0159917
943.128	0.0159949
943.206	0.0159505
943.284	0.0160283
943.362	0.0160055
943.440	0.0159512
943.518	0.0160171
943.596	0.0159460
943.674	0.0159908
943.753	0.0159940
943.831	0.0159991
943.909	0.0158423
943.987	0.0158989
944.065	0.0158107
944.143	0.0159291
944.221	0.0159045
944.299	0.0158527
944.378	0.0158654
944.456	0.0160531
944.534	0.0159951
944.612	0.0158572
944.690	0.0159323
944.768	0.0157740
944.846	0.0161742
944.924	0.0159328
945.003	0.0159254
945.081	0.0160799
945.159	0.0158665
945.237	0.0158952
945.315	0.0158743
945.393	0.0159234
945.471	0.0160089
945.549	0.0158957
945.628	0.0160670
945.706	0.0160944
945.784	0.0160847
945.862	0.0160290
945.940	0.0159848
946.018	0.0161461
946.096	0.0160551
946.174	0.0158627
946.253	0.0159920
946.331	0.0159146
946.409	0.0160334
946.487	0.0160000
946.565	0.0161670
946.643	0.0160136
946.721	0.0158918
946.799	0.0158994
946.878	0.0160319
946.956	0.0159446
947.034	0.0160586
947.112	0.0160727
947.190	0.0159996
947.268	0.0161474
947.346	0.0159780
947.424	0.0159991
947.503	0.0160123
947.581	0.0160778
947.659	0.0159580
947.737	0.0161507
947.815	0.0159171
947.893	0.0159527
947.971	0.0158613
948.049	0.0159551
948.128	0.0159688
948.206	0.0159782
948.284	0.0159624
948.362	0.0158263
948.440	0.0158773
948.518	0.0159731
948.596	0.0158870
948.674	0.0158248
948.753	0.0159531
948.831	0.0159888
948.909	0.0159175
948.987	0.0159939
949.065	0.0160140
949.143	0.0160474
949.221	0.0159624
949.299	0.0159441
949.378	0.0159713
949.456	0.0158664
949.534	0.0161305
949.612	0.0160316
949.690	0.0160936
949.768	0.0160675
949.846	0.0160730
949.924	0.0160289
