06/29/2022	23:22:52	Ver.	4.1	UNKNOWN
Optical Delay	629.995835	Delta X		0.078125	Sweeps	1	Scan Rate	0/0
Coordinates	Axis 1	NaN	Axis 2	NaN	Axis 3	NaN	Axis 4	NaN	Axis 5	NaN	Axis 6	0.000000
TX Power	0.000000	RX Power	0.000000

629.996	0.0168722
630.074	0.0167994
630.152	0.0168438
630.230	0.0166898
630.308	0.0167756
630.386	0.0165688
630.465	0.0166303
630.543	0.0167467
630.621	0.0166882
630.699	0.0165697
630.777	0.0167440
630.855	0.0166859
630.933	0.0166675
631.011	0.0166875
631.090	0.0167400
631.168	0.0167115
631.246	0.0166497
631.324	0.0166747
631.402	0.0167352
631.480	0.0166537
631.558	0.0167516
631.636	0.0166808
631.715	0.0167281
631.793	0.0167638
631.871	0.0165788
631.949	0.0166133
632.027	0.0167828
632.105	0.0166365
632.183	0.0166738
632.261	0.0167097
632.340	0.0164128
632.418	0.0165047
632.496	0.0164055
632.574	0.0165071
632.652	0.0164876
632.730	0.0164348
632.808	0.0164114
632.886	0.0162658
632.965	0.0162002
633.043	0.0162672
633.121	0.0161931
633.199	0.0163492
633.277	0.0161258
633.355	0.0162856
633.433	0.0161951
633.511	0.0162661
633.590	0.0161916
633.668	0.0161552
633.746	0.0161603
633.824	0.0161931
633.902	0.0162095
633.980	0.0161873
634.058	0.0160793
634.136	0.0162655
634.215	0.0161364
634.293	0.0161609
634.371	0.0162018
634.449	0.0163956
634.527	0.0163842
634.605	0.0163859
634.683	0.0163358
634.761	0.0163303
634.840	0.0162989
634.918	0.0161147
634.996	0.0163018
635.074	0.0163315
635.152	0.0164273
635.230	0.0162004
635.308	0.0163581
635.386	0.0164069
635.465	0.0164748
635.543	0.0161842
635.621	0.0163218
635.699	0.0163532
635.777	0.0163522
635.855	0.0163469
635.933	0.0163507
636.011	0.0164480
636.090	0.0166314
636.168	0.0163651
636.246	0.0164468
636.324	0.0165593
636.402	0.0165755
636.480	0.0165251
636.558	0.0165414
636.636	0.0166061
636.715	0.0166288
636.793	0.0165057
636.871	0.0166147
636.949	0.0165314
637.027	0.0165990
637.105	0.0167478
637.183	0.0166788
637.261	0.0165364
637.340	0.0168411
637.418	0.0166699
637.496	0.0167680
637.574	0.0167739
637.652	0.0169196
637.730	0.0166590
637.808	0.0168008
637.886	0.0168309
637.965	0.0169649
638.043	0.0168361
638.121	0.0170895
638.199	0.0169560
638.277	0.0169196
638.355	0.0169083
638.433	0.0169737
638.511	0.0171075
638.590	0.0169780
638.668	0.0170190
638.746	0.0170429
638.824	0.0170364
638.902	0.0170332
638.980	0.0171109
639.058	0.0169702
639.136	0.0168482
639.215	0.0168936
639.293	0.0170666
639.371	0.0170174
639.449	0.0169244
639.527	0.0169987
639.605	0.0168457
639.683	0.0168669
639.761	0.0167654
639.840	0.0170054
639.918	0.0169038
639.996	0.0167699
640.074	0.0166839
640.152	0.0166563
640.230	0.0168005
640.308	0.0167825
640.386	0.0167605
640.465	0.0167591
640.543	0.0167961
640.621	0.0169266
640.699	0.0167610
640.777	0.0165184
640.855	0.0166332
640.933	0.0165454
641.011	0.0165081
641.090	0.0166502
641.168	0.0167216
641.246	0.0167211
641.324	0.0165704
641.402	0.0165833
641.480	0.0166906
641.558	0.0167332
641.636	0.0164066
641.715	0.0164385
641.793	0.0165022
641.871	0.0166016
641.949	0.0164440
642.027	0.0164141
642.105	0.0164037
642.183	0.0163602
642.261	0.0162774
642.340	0.0163396
642.418	0.0162922
642.496	0.0162928
642.574	0.0161784
642.652	0.0162372
642.730	0.0161570
642.808	0.0162512
642.886	0.0162509
642.965	0.0162478
643.043	0.0162299
643.121	0.0161253
643.199	0.0162532
643.277	0.0161761
643.355	0.0163288
643.433	0.0161288
643.511	0.0161333
643.590	0.0160397
643.668	0.0161182
643.746	0.0162251
643.824	0.0162473
643.902	0.0162293
643.980	0.0161060
644.058	0.0162347
644.136	0.0161246
644.215	0.0161378
644.293	0.0161136
644.371	0.0160903
644.449	0.0161709
644.527	0.0161105
644.605	0.0160706
644.683	0.0160993
644.761	0.0160342
644.840	0.0162554
644.918	0.0161478
644.996	0.0161834
645.074	0.0161409
645.152	0.0162518
645.230	0.0161932
645.308	0.0160872
645.386	0.0160518
645.465	0.0161381
645.543	0.0162605
645.621	0.0161371
645.699	0.0160699
645.777	0.0161080
645.855	0.0161597
645.933	0.0161517
646.011	0.0162109
646.090	0.0162436
646.168	0.0161681
646.246	0.0161237
646.324	0.0161240
646.402	0.0161684
646.480	0.0163120
646.558	0.0160780
646.636	0.0162316
646.715	0.0161881
646.793	0.0162218
646.871	0.0161238
646.949	0.0161981
647.027	0.0161050
647.105	0.0162684
647.183	0.0163899
647.261	0.0161825
647.340	0.0161310
647.418	0.0162280
647.496	0.0163222
647.574	0.0163006
647.652	0.0163839
647.730	0.0164037
647.808	0.0162839
647.886	0.0164886
647.965	0.0163744
648.043	0.0163052
648.121	0.0164902
648.199	0.0163789
648.277	0.0164417
648.355	0.0167022
648.433	0.0165535
648.511	0.0165644
648.590	0.0165778
648.668	0.0164416
648.746	0.0165284
648.824	0.0165907
648.902	0.0166497
648.980	0.0166102
649.058	0.0166611
649.136	0.0167501
649.215	0.0167569
649.293	0.0166563
649.371	0.0168752
649.449	0.0167944
649.527	0.0167506
649.605	0.0167969
649.683	0.0168681
649.761	0.0168536
649.840	0.0167937
649.918	0.0167087
649.996	0.0168618
650.074	0.0169840
650.152	0.0168710
650.230	0.0169134
650.308	0.0169281
650.386	0.0169693
650.465	0.0168453
650.543	0.0168771
650.621	0.0170831
650.699	0.0169710
650.777	0.0168775
650.855	0.0169553
650.933	0.0169807
651.011	0.0169516
651.090	0.0169263
651.168	0.0168348
651.246	0.0169305
651.324	0.0169507
651.402	0.0169637
651.480	0.0169778
651.558	0.0168902
651.636	0.0168369
651.715	0.0167984
651.793	0.0168734
651.871	0.0168078
651.949	0.0168443
652.027	0.0168045
652.105	0.0168430
652.183	0.0169308
652.261	0.0166794
652.340	0.0169289
652.418	0.0168841
652.496	0.0169122
652.574	0.0167465
652.652	0.0166904
652.730	0.0168357
652.808	0.0168974
652.886	0.0168308
652.965	0.0168195
653.043	0.0167764
653.121	0.0167448
653.199	0.0167837
653.277	0.0168416
653.355	0.0168208
653.433	0.0167521
653.511	0.0167776
653.590	0.0167557
653.668	0.0167366
653.746	0.0166736
653.824	0.0167111
653.902	0.0167328
653.980	0.0166888
654.058	0.0166865
654.136	0.0167155
654.215	0.0166464
654.293	0.0167042
654.371	0.0168717
654.449	0.0166789
654.527	0.0167719
654.605	0.0167861
654.683	0.0167495
654.761	0.0168797
654.840	0.0167772
654.918	0.0166994
654.996	0.0167465
655.074	0.0168034
655.152	0.0167318
655.230	0.0167195
655.308	0.0167567
655.386	0.0168314
655.465	0.0167336
655.543	0.0169310
655.621	0.0166822
655.699	0.0166685
655.777	0.0166848
655.855	0.0167044
655.933	0.0167455
656.011	0.0166930
656.090	0.0167976
656.168	0.0169221
656.246	0.0167170
656.324	0.0167487
656.402	0.0167989
656.480	0.0167459
656.558	0.0166330
656.636	0.0167532
656.715	0.0166905
656.793	0.0167736
656.871	0.0167354
656.949	0.0166518
657.027	0.0166844
657.105	0.0166953
657.183	0.0165702
657.261	0.0166682
657.340	0.0167998
657.418	0.0166824
657.496	0.0165624
657.574	0.0165873
657.652	0.0165456
657.730	0.0165777
657.808	0.0166187
657.886	0.0167432
657.965	0.0166072
658.043	0.0166760
658.121	0.0166850
658.199	0.0165992
658.277	0.0166973
658.355	0.0164822
658.433	0.0165267
658.511	0.0164877
658.590	0.0164252
658.668	0.0165279
658.746	0.0166354
658.824	0.0163079
658.902	0.0164562
658.980	0.0164257
659.058	0.0164946
659.136	0.0165273
659.215	0.0164443
659.293	0.0164383
659.371	0.0164986
659.449	0.0163902
659.527	0.0163393
659.605	0.0163626
659.683	0.0164145
659.761	0.0166387
659.840	0.0165977
659.918	0.0164274
659.996	0.0163934
660.074	0.0163764
660.152	0.0164545
660.230	0.0163906
660.308	0.0164709
660.386	0.0165580
660.465	0.0164807
660.543	0.0165243
660.621	0.0164858
660.699	0.0164516
660.777	0.0163525
660.855	0.0163117
660.933	0.0163162
661.011	0.0162916
661.090	0.0164390
661.168	0.0164172
661.246	0.0163721
661.324	0.0164874
661.402	0.0164207
661.480	0.0164472
661.558	0.0164383
661.636	0.0163728
661.715	0.0165234
661.793	0.0164272
661.871	0.0163804
661.949	0.0163483
662.027	0.0165776
662.105	0.0164805
662.183	0.0165182
662.261	0.0164855
662.340	0.0164939
662.418	0.0166544
662.496	0.0165485
662.574	0.0163595
662.652	0.0164712
662.730	0.0164197
662.808	0.0165152
662.886	0.0165773
662.965	0.0164523
663.043	0.0164118
663.121	0.0165376
663.199	0.0165060
663.277	0.0166071
663.355	0.0163915
663.433	0.0163945
663.511	0.0165440
663.590	0.0164581
663.668	0.0164471
663.746	0.0163947
663.824	0.0163943
663.902	0.0165344
663.980	0.0165233
664.058	0.0164232
664.136	0.0165231
664.215	0.0164112
664.293	0.0162898
664.371	0.0164630
664.449	0.0164887
664.527	0.0164474
664.605	0.0164533
664.683	0.0165190
664.761	0.0166057
664.840	0.0165030
664.918	0.0164962
664.996	0.0164869
665.074	0.0165158
665.152	0.0166146
665.230	0.0164405
665.308	0.0165634
665.386	0.0165543
665.465	0.0164628
665.543	0.0165581
665.621	0.0166686
665.699	0.0163370
665.777	0.0164947
665.855	0.0165250
665.933	0.0164346
666.011	0.0164311
666.090	0.0165096
666.168	0.0165504
666.246	0.0163220
666.324	0.0163148
666.402	0.0163094
666.480	0.0163932
666.558	0.0165340
666.636	0.0162725
666.715	0.0163898
666.793	0.0163837
666.871	0.0162908
666.949	0.0163896
667.027	0.0163143
667.105	0.0163385
667.183	0.0163393
667.261	0.0163447
667.340	0.0163346
667.418	0.0163857
667.496	0.0164732
667.574	0.0162590
667.652	0.0163731
667.730	0.0162885
667.808	0.0164769
667.886	0.0163992
667.965	0.0162866
668.043	0.0163830
668.121	0.0163445
668.199	0.0164185
668.277	0.0164091
668.355	0.0163919
668.433	0.0164026
668.511	0.0163783
668.590	0.0164360
668.668	0.0163326
668.746	0.0163048
668.824	0.0163577
668.902	0.0164264
668.980	0.0164153
669.058	0.0164484
669.136	0.0164561
669.215	0.0163445
669.293	0.0163867
669.371	0.0163830
669.449	0.0164584
669.527	0.0165192
669.605	0.0164309
669.683	0.0164035
669.761	0.0164426
669.840	0.0164320
669.918	0.0162289
669.996	0.0162223
670.074	0.0164146
670.152	0.0163406
670.230	0.0163691
670.308	0.0163042
670.386	0.0162070
670.465	0.0163625
670.543	0.0163515
670.621	0.0163625
670.699	0.0165088
670.777	0.0163852
670.855	0.0163442
670.933	0.0164491
671.011	0.0163724
671.090	0.0162730
671.168	0.0163313
671.246	0.0163930
671.324	0.0164246
671.402	0.0165191
671.480	0.0164370
671.558	0.0163326
671.636	0.0163828
671.715	0.0162984
671.793	0.0164708
671.871	0.0162875
671.949	0.0164654
672.027	0.0165434
672.105	0.0165213
672.183	0.0164218
672.261	0.0165003
672.340	0.0164568
672.418	0.0165317
672.496	0.0166507
672.574	0.0166388
672.652	0.0165162
672.730	0.0166353
672.808	0.0166103
672.886	0.0164817
672.965	0.0166288
673.043	0.0165495
673.121	0.0166415
673.199	0.0166996
673.277	0.0165194
673.355	0.0166071
673.433	0.0165517
673.511	0.0167054
673.590	0.0167343
673.668	0.0166096
673.746	0.0166594
673.824	0.0166826
673.902	0.0166142
673.980	0.0167365
674.058	0.0165900
674.136	0.0166852
674.215	0.0166862
674.293	0.0168071
674.371	0.0167250
674.449	0.0167451
674.527	0.0167753
674.605	0.0167544
674.683	0.0166120
674.761	0.0167146
674.840	0.0168233
674.918	0.0169031
674.996	0.0168032
675.074	0.0167532
675.152	0.0170006
675.230	0.0169346
675.308	0.0168756
675.386	0.0169212
675.465	0.0170016
675.543	0.0168279
675.621	0.0169312
675.699	0.0169724
675.777	0.0169020
675.855	0.0168020
675.933	0.0168893
676.011	0.0169598
676.090	0.0170677
676.168	0.0169777
676.246	0.0168681
676.324	0.0168993
676.402	0.0169374
676.480	0.0170402
676.558	0.0170487
676.636	0.0170123
676.715	0.0169713
676.793	0.0169913
676.871	0.0169218
676.949	0.0170596
677.027	0.0170533
677.105	0.0169518
677.183	0.0169263
677.261	0.0169948
677.340	0.0169207
677.418	0.0168497
677.496	0.0169244
677.574	0.0170379
677.652	0.0169914
677.730	0.0170296
677.808	0.0169170
677.886	0.0169524
677.965	0.0169295
678.043	0.0169447
678.121	0.0170895
678.199	0.0169738
678.277	0.0170351
678.355	0.0168943
678.433	0.0168808
678.511	0.0169711
678.590	0.0169470
678.668	0.0168752
678.746	0.0171391
678.824	0.0170179
678.902	0.0168375
678.980	0.0170605
679.058	0.0169893
679.136	0.0168534
679.215	0.0168781
679.293	0.0168795
679.371	0.0168082
679.449	0.0168561
679.527	0.0169588
679.605	0.0166848
679.683	0.0166483
679.761	0.0165841
679.840	0.0167511
679.918	0.0168196
679.996	0.0167144
680.074	0.0167354
680.152	0.0166223
680.230	0.0165227
680.308	0.0166402
680.386	0.0164862
680.465	0.0164264
680.543	0.0164834
680.621	0.0165789
680.699	0.0165189
680.777	0.0165423
680.855	0.0164077
680.933	0.0165576
681.011	0.0166092
681.090	0.0164582
681.168	0.0166663
681.246	0.0165660
681.324	0.0165445
681.402	0.0166376
681.480	0.0166183
681.558	0.0166638
681.636	0.0164520
681.715	0.0167025
681.793	0.0166066
681.871	0.0165802
681.949	0.0165035
682.027	0.0164915
682.105	0.0163756
682.183	0.0164603
682.261	0.0163797
682.340	0.0163306
682.418	0.0164661
682.496	0.0162510
682.574	0.0163390
682.652	0.0162526
682.730	0.0163066
682.808	0.0161943
682.886	0.0163525
682.965	0.0163361
683.043	0.0164795
683.121	0.0162799
683.199	0.0162169
683.277	0.0163839
683.355	0.0161718
683.433	0.0162464
683.511	0.0163395
683.590	0.0163251
683.668	0.0162190
683.746	0.0162409
683.824	0.0161739
683.902	0.0162006
683.980	0.0162276
684.058	0.0161427
684.136	0.0160847
684.215	0.0163137
684.293	0.0162227
684.371	0.0162369
684.449	0.0161229
684.527	0.0161717
684.605	0.0160728
684.683	0.0162334
684.761	0.0162616
684.840	0.0161061
684.918	0.0162971
684.996	0.0162358
685.074	0.0163960
685.152	0.0163979
685.230	0.0163877
685.308	0.0164404
685.386	0.0164074
685.465	0.0165891
685.543	0.0166190
685.621	0.0166715
685.699	0.0167175
685.777	0.0166487
685.855	0.0167904
685.933	0.0168157
686.011	0.0170125
686.090	0.0167972
686.168	0.0168872
686.246	0.0169717
686.324	0.0168352
686.402	0.0169347
686.480	0.0170969
686.558	0.0170641
686.636	0.0169446
686.715	0.0169482
686.793	0.0169940
686.871	0.0169946
686.949	0.0169253
687.027	0.0170518
687.105	0.0169943
687.183	0.0168104
687.261	0.0168770
687.340	0.0169065
687.418	0.0168931
687.496	0.0168218
687.574	0.0169211
687.652	0.0168446
687.730	0.0168582
687.808	0.0168491
687.886	0.0168242
687.965	0.0169193
688.043	0.0169196
688.121	0.0167565
688.199	0.0166296
688.277	0.0167788
688.355	0.0168601
688.433	0.0166960
688.511	0.0166097
688.590	0.0168214
688.668	0.0166832
688.746	0.0166092
688.824	0.0168415
688.902	0.0167336
688.980	0.0167699
689.058	0.0165913
689.136	0.0167395
689.215	0.0166934
689.293	0.0167595
689.371	0.0167564
689.449	0.0166788
689.527	0.0168072
689.605	0.0167462
689.683	0.0168105
689.761	0.0167482
689.840	0.0168786
689.918	0.0168749
689.996	0.0167970
690.074	0.0168661
690.152	0.0168021
690.230	0.0166911
690.308	0.0168673
690.386	0.0168003
690.465	0.0167767
690.543	0.0168285
690.621	0.0167731
690.699	0.0166488
690.777	0.0166090
690.855	0.0165516
690.933	0.0164764
691.011	0.0165441
691.090	0.0165834
691.168	0.0165974
691.246	0.0166045
691.324	0.0164525
691.402	0.0164223
691.480	0.0165272
691.558	0.0164029
691.636	0.0164806
691.715	0.0165279
691.793	0.0164661
691.871	0.0163934
691.949	0.0162707
692.027	0.0164288
692.105	0.0162727
692.183	0.0161362
692.261	0.0162457
692.340	0.0162723
692.418	0.0160915
692.496	0.0163598
692.574	0.0162038
692.652	0.0162279
692.730	0.0162130
692.808	0.0162121
692.886	0.0161582
692.965	0.0161697
693.043	0.0162395
693.121	0.0163611
693.199	0.0163144
693.277	0.0162669
693.355	0.0163761
693.433	0.0162547
693.511	0.0162547
693.590	0.0162959
693.668	0.0163490
693.746	0.0162311
693.824	0.0164360
693.902	0.0165002
693.980	0.0162984
694.058	0.0163430
694.136	0.0163209
694.215	0.0163248
694.293	0.0163941
694.371	0.0163071
694.449	0.0163851
694.527	0.0162106
694.605	0.0163517
694.683	0.0162912
694.761	0.0162469
694.840	0.0162777
694.918	0.0163567
694.996	0.0163564
695.074	0.0163268
695.152	0.0163628
695.230	0.0164552
695.308	0.0164288
695.386	0.0166083
695.465	0.0164928
695.543	0.0166046
695.621	0.0165971
695.699	0.0166397
695.777	0.0165803
695.855	0.0166012
695.933	0.0165240
696.011	0.0165720
696.090	0.0164431
696.168	0.0166908
696.246	0.0164160
696.324	0.0166534
696.402	0.0166891
696.480	0.0167130
696.558	0.0166792
696.636	0.0167110
696.715	0.0166673
696.793	0.0167718
696.871	0.0167064
696.949	0.0166637
697.027	0.0167882
697.105	0.0167657
697.183	0.0168282
697.261	0.0167224
697.340	0.0167585
697.418	0.0166626
697.496	0.0167776
697.574	0.0167805
697.652	0.0167230
697.730	0.0167745
697.808	0.0167979
697.886	0.0167590
697.965	0.0167770
698.043	0.0167804
698.121	0.0169079
698.199	0.0166869
698.277	0.0168386
698.355	0.0166647
698.433	0.0168269
698.511	0.0167587
698.590	0.0168673
698.668	0.0167683
698.746	0.0168391
698.824	0.0166900
698.902	0.0167336
698.980	0.0167158
699.058	0.0166248
699.136	0.0167593
699.215	0.0167451
699.293	0.0168152
699.371	0.0168377
699.449	0.0167443
699.527	0.0168430
699.605	0.0166381
699.683	0.0166715
699.761	0.0169500
699.840	0.0167925
699.918	0.0166882
699.996	0.0168555
700.074	0.0166933
700.152	0.0166843
700.230	0.0167956
700.308	0.0168150
700.386	0.0167671
700.465	0.0167331
700.543	0.0166013
700.621	0.0168176
700.699	0.0166897
700.777	0.0168017
700.855	0.0166917
700.933	0.0166764
701.011	0.0167039
701.090	0.0166683
701.168	0.0165900
701.246	0.0165475
701.324	0.0166520
701.402	0.0166816
701.480	0.0167669
701.558	0.0168205
701.636	0.0167182
701.715	0.0166213
701.793	0.0167457
701.871	0.0166204
701.949	0.0167374
702.027	0.0167125
702.105	0.0167963
702.183	0.0168385
702.261	0.0168584
702.340	0.0167931
702.418	0.0167264
702.496	0.0167915
702.574	0.0170805
702.652	0.0168936
702.730	0.0169247
702.808	0.0166877
702.886	0.0168916
702.965	0.0169589
703.043	0.0169153
703.121	0.0167932
703.199	0.0168414
703.277	0.0165979
703.355	0.0167332
703.433	0.0166090
703.511	0.0166656
703.590	0.0166245
703.668	0.0166042
703.746	0.0165720
703.824	0.0166366
703.902	0.0167318
703.980	0.0165289
704.058	0.0166438
704.136	0.0165031
704.215	0.0166054
704.293	0.0166482
704.371	0.0167136
704.449	0.0166144
704.527	0.0166461
704.605	0.0166534
704.683	0.0166671
704.761	0.0167879
704.840	0.0166323
704.918	0.0166515
704.996	0.0166943
705.074	0.0167070
705.152	0.0166781
705.230	0.0166609
705.308	0.0165843
705.386	0.0165089
705.465	0.0165551
705.543	0.0163554
705.621	0.0164796
705.699	0.0165302
705.777	0.0164453
705.855	0.0164510
705.933	0.0163087
706.011	0.0161884
706.090	0.0161404
706.168	0.0160828
706.246	0.0163212
706.324	0.0161874
706.402	0.0161554
706.480	0.0160282
706.558	0.0161016
706.636	0.0161737
706.715	0.0162233
706.793	0.0162289
706.871	0.0161850
706.949	0.0162666
707.027	0.0162279
707.105	0.0162375
707.183	0.0163904
707.261	0.0164615
707.340	0.0163352
707.418	0.0164153
707.496	0.0164106
707.574	0.0163351
707.652	0.0164936
707.730	0.0164840
707.808	0.0164611
707.886	0.0166753
707.965	0.0164783
708.043	0.0165149
708.121	0.0164607
708.199	0.0165833
708.277	0.0165318
708.355	0.0163794
708.433	0.0163529
708.511	0.0164389
708.590	0.0164902
708.668	0.0165430
708.746	0.0165064
708.824	0.0167258
708.902	0.0165627
708.980	0.0165836
709.058	0.0165430
709.136	0.0167310
709.215	0.0168437
709.293	0.0167080
709.371	0.0166454
709.449	0.0166514
709.527	0.0167989
709.605	0.0167003
709.683	0.0165872
709.761	0.0165450
709.840	0.0166187
709.918	0.0167158
709.996	0.0165201
710.074	0.0164721
710.152	0.0165742
710.230	0.0164554
710.308	0.0163708
710.386	0.0164098
710.465	0.0164674
710.543	0.0163866
710.621	0.0164638
710.699	0.0164660
710.777	0.0163779
710.855	0.0165597
710.933	0.0165273
711.011	0.0165102
711.090	0.0166415
711.168	0.0165597
711.246	0.0166154
711.324	0.0168158
711.402	0.0166975
711.480	0.0169051
711.558	0.0168451
711.636	0.0167602
711.715	0.0168858
711.793	0.0168730
711.871	0.0167829
711.949	0.0169125
712.027	0.0168279
712.105	0.0168174
712.183	0.0168801
712.261	0.0168820
712.340	0.0167657
712.418	0.0167153
712.496	0.0167937
712.574	0.0166087
712.652	0.0164563
712.730	0.0166443
712.808	0.0165161
712.886	0.0165111
712.965	0.0164677
713.043	0.0165085
713.121	0.0164275
713.199	0.0165594
713.277	0.0165483
713.355	0.0165173
713.433	0.0165977
713.511	0.0165741
713.590	0.0165329
713.668	0.0166927
713.746	0.0166183
713.824	0.0166206
713.902	0.0167995
713.980	0.0167118
714.058	0.0167974
714.136	0.0167609
714.215	0.0166680
714.293	0.0166256
714.371	0.0166654
714.449	0.0166222
714.527	0.0167437
714.605	0.0167754
714.683	0.0167385
714.761	0.0166943
714.840	0.0166310
714.918	0.0167095
714.996	0.0167173
715.074	0.0166828
715.152	0.0166895
715.230	0.0166659
715.308	0.0166608
715.386	0.0167051
715.465	0.0166736
715.543	0.0166781
715.621	0.0166014
715.699	0.0166373
715.777	0.0167730
715.855	0.0166905
715.933	0.0165473
716.011	0.0165513
716.090	0.0165433
716.168	0.0165305
716.246	0.0165607
716.324	0.0164378
716.402	0.0162418
716.480	0.0162051
716.558	0.0162540
716.636	0.0160760
716.715	0.0159993
716.793	0.0160980
716.871	0.0159415
716.949	0.0159895
717.027	0.0159058
717.105	0.0158965
717.183	0.0159056
717.261	0.0158866
717.340	0.0159808
717.418	0.0159658
717.496	0.0159293
717.574	0.0159953
717.652	0.0161285
717.730	0.0160339
717.808	0.0160900
717.886	0.0162105
717.965	0.0162348
718.043	0.0162842
718.121	0.0163549
718.199	0.0163474
718.277	0.0164237
718.355	0.0165710
718.433	0.0165896
718.511	0.0166025
718.590	0.0167478
718.668	0.0168060
718.746	0.0168234
718.824	0.0167443
718.902	0.0166387
718.980	0.0165773
719.058	0.0166457
719.136	0.0165603
719.215	0.0165936
719.293	0.0164304
719.371	0.0163345
719.449	0.0163021
719.527	0.0164015
719.605	0.0163358
719.683	0.0162030
719.761	0.0162720
719.840	0.0162932
719.918	0.0161296
719.996	0.0161005
720.074	0.0160904
720.152	0.0160857
720.230	0.0161871
720.308	0.0161697
720.386	0.0161478
720.465	0.0161987
720.543	0.0161903
720.621	0.0163379
720.699	0.0164111
720.777	0.0165130
720.855	0.0163998
720.933	0.0163457
721.011	0.0164995
721.090	0.0165848
721.168	0.0165991
721.246	0.0165604
721.324	0.0167245
721.402	0.0167699
721.480	0.0166955
721.558	0.0167367
721.636	0.0167953
721.715	0.0166970
721.793	0.0169202
721.871	0.0167770
721.949	0.0169540
722.027	0.0170351
722.105	0.0169153
722.183	0.0169189
722.261	0.0170194
722.340	0.0169225
722.418	0.0168082
722.496	0.0168941
722.574	0.0169195
722.652	0.0167616
722.730	0.0168732
722.808	0.0166908
722.886	0.0167207
722.965	0.0165422
723.043	0.0164656
723.121	0.0163817
723.199	0.0165179
723.277	0.0164111
723.355	0.0162883
723.433	0.0162492
723.511	0.0161931
723.590	0.0160525
723.668	0.0160352
723.746	0.0160538
723.824	0.0159840
723.902	0.0159618
723.980	0.0160442
724.058	0.0159428
724.136	0.0161265
724.215	0.0160548
724.293	0.0161448
724.371	0.0162615
724.449	0.0162775
724.527	0.0162015
724.605	0.0162214
724.683	0.0165361
724.761	0.0164269
724.840	0.0165215
724.918	0.0163974
724.996	0.0165215
725.074	0.0165647
725.152	0.0165913
725.230	0.0165685
725.308	0.0166655
725.386	0.0166196
725.465	0.0166017
725.543	0.0165662
725.621	0.0167362
725.699	0.0167583
725.777	0.0167120
725.855	0.0170405
725.933	0.0168856
726.011	0.0169115
726.090	0.0170232
726.168	0.0169150
726.246	0.0171038
726.324	0.0171390
726.402	0.0170318
726.480	0.0170395
726.558	0.0170589
726.636	0.0169025
726.715	0.0169798
726.793	0.0169334
726.871	0.0169264
726.949	0.0167329
727.027	0.0166837
727.105	0.0163291
727.183	0.0165113
727.261	0.0163970
727.340	0.0162004
727.418	0.0158701
727.496	0.0160101
727.574	0.0159457
727.652	0.0159010
727.730	0.0156612
727.808	0.0158260
727.886	0.0157528
727.965	0.0156933
728.043	0.0155805
728.121	0.0158646
728.199	0.0158624
728.277	0.0159311
728.355	0.0160242
728.433	0.0160647
728.511	0.0161551
728.590	0.0162383
728.668	0.0163768
728.746	0.0164033
728.824	0.0166551
728.902	0.0167279
728.980	0.0167554
729.058	0.0167764
729.136	0.0170945
729.215	0.0169993
729.293	0.0169544
729.371	0.0171696
729.449	0.0169130
729.527	0.0170702
729.605	0.0169273
729.683	0.0169894
729.761	0.0169851
729.840	0.0169418
729.918	0.0169826
729.996	0.0169426
730.074	0.0169238
730.152	0.0169233
730.230	0.0169154
730.308	0.0168983
730.386	0.0167204
730.465	0.0168174
730.543	0.0167988
730.621	0.0166333
730.699	0.0166254
730.777	0.0165371
730.855	0.0164488
730.933	0.0164027
731.011	0.0162649
731.090	0.0161982
731.168	0.0162479
731.246	0.0160000
731.324	0.0158620
731.402	0.0158143
731.480	0.0156300
731.558	0.0155602
731.636	0.0156316
731.715	0.0154782
731.793	0.0155878
731.871	0.0154744
731.949	0.0154128
732.027	0.0155389
732.105	0.0154659
732.183	0.0155334
732.261	0.0155685
732.340	0.0159383
732.418	0.0158274
732.496	0.0159840
732.574	0.0160294
732.652	0.0161900
732.730	0.0164960
732.808	0.0166344
732.886	0.0165797
732.965	0.0168177
733.043	0.0169553
733.121	0.0170645
733.199	0.0171408
733.277	0.0172740
733.355	0.0172258
733.433	0.0173446
733.511	0.0175030
733.590	0.0174512
733.668	0.0174979
733.746	0.0173264
733.824	0.0173415
733.902	0.0172150
733.980	0.0172428
734.058	0.0172180
734.136	0.0170107
734.215	0.0168979
734.293	0.0168292
734.371	0.0167017
734.449	0.0166820
734.527	0.0164914
734.605	0.0165813
734.683	0.0163191
734.761	0.0162135
734.840	0.0160480
734.918	0.0159605
734.996	0.0158342
735.074	0.0158803
735.152	0.0158446
735.230	0.0157191
735.308	0.0157144
735.386	0.0156223
735.465	0.0157815
735.543	0.0156847
735.621	0.0157798
735.699	0.0157310
735.777	0.0158090
735.855	0.0157941
735.933	0.0158772
736.011	0.0159415
736.090	0.0159151
736.168	0.0161740
736.246	0.0163101
736.324	0.0165031
736.402	0.0164797
736.480	0.0165463
736.558	0.0166452
736.636	0.0168779
736.715	0.0169946
736.793	0.0169877
736.871	0.0171991
736.949	0.0171571
737.027	0.0172210
737.105	0.0171742
737.183	0.0171550
737.261	0.0172310
737.340	0.0172322
737.418	0.0171762
737.496	0.0171917
737.574	0.0171999
737.652	0.0170570
737.730	0.0169962
737.808	0.0169702
737.886	0.0169317
737.965	0.0168486
738.043	0.0167136
738.121	0.0166132
738.199	0.0166673
738.277	0.0166229
738.355	0.0164407
738.433	0.0162961
738.511	0.0161502
738.590	0.0162592
738.668	0.0162675
738.746	0.0162012
738.824	0.0162076
738.902	0.0162514
738.980	0.0161805
739.058	0.0161842
739.136	0.0162636
739.215	0.0162105
739.293	0.0161641
739.371	0.0161539
739.449	0.0163947
739.527	0.0163107
739.605	0.0164455
739.683	0.0164001
739.761	0.0165200
739.840	0.0165009
739.918	0.0164053
739.996	0.0165148
740.074	0.0165756
740.152	0.0164701
740.230	0.0164587
740.308	0.0165267
740.386	0.0165710
740.465	0.0165819
740.543	0.0166071
740.621	0.0164922
740.699	0.0165292
740.777	0.0166111
740.855	0.0166577
740.933	0.0164445
741.011	0.0165228
741.090	0.0165010
741.168	0.0165509
741.246	0.0166703
741.324	0.0165031
741.402	0.0165947
741.480	0.0165128
741.558	0.0166421
741.636	0.0167880
741.715	0.0166829
741.793	0.0166584
741.871	0.0165798
741.949	0.0166573
742.027	0.0166510
742.105	0.0163603
742.183	0.0165297
742.261	0.0165454
742.340	0.0165145
742.418	0.0162905
742.496	0.0164012
742.574	0.0163287
742.652	0.0163689
742.730	0.0161589
742.808	0.0162213
742.886	0.0161243
742.965	0.0160899
743.043	0.0161919
743.121	0.0162286
743.199	0.0161572
743.277	0.0161509
743.355	0.0161135
743.433	0.0161472
743.511	0.0163319
743.590	0.0163981
743.668	0.0162453
743.746	0.0164668
743.824	0.0163672
743.902	0.0165817
743.980	0.0165123
744.058	0.0165412
744.136	0.0166148
744.215	0.0167048
744.293	0.0166456
744.371	0.0168179
744.449	0.0168174
744.527	0.0166075
744.605	0.0167944
744.683	0.0167350
744.761	0.0167299
744.840	0.0167004
744.918	0.0167465
744.996	0.0166471
745.074	0.0166169
745.152	0.0165777
745.230	0.0164748
745.308	0.0165889
745.386	0.0165748
745.465	0.0164482
745.543	0.0165692
745.621	0.0168002
745.699	0.0166069
745.777	0.0166682
745.855	0.0166648
745.933	0.0165521
746.011	0.0166406
746.090	0.0166511
746.168	0.0165681
746.246	0.0166056
746.324	0.0168600
746.402	0.0167149
746.480	0.0165723
746.558	0.0167717
746.636	0.0167486
746.715	0.0167007
746.793	0.0167654
746.871	0.0165885
746.949	0.0166420
747.027	0.0167410
747.105	0.0165054
747.183	0.0165881
747.261	0.0167052
747.340	0.0167153
747.418	0.0164222
747.496	0.0165703
747.574	0.0164695
747.652	0.0164275
747.730	0.0165077
747.808	0.0166222
747.886	0.0165621
747.965	0.0163673
748.043	0.0164693
748.121	0.0163866
748.199	0.0163776
748.277	0.0162967
748.355	0.0161819
748.433	0.0162279
748.511	0.0163477
748.590	0.0162261
748.668	0.0161250
748.746	0.0160705
748.824	0.0160246
748.902	0.0160483
748.980	0.0160674
749.058	0.0161076
749.136	0.0162466
749.215	0.0161033
749.293	0.0161787
749.371	0.0161856
749.449	0.0162935
749.527	0.0161632
749.605	0.0163252
749.683	0.0163461
749.761	0.0165400
749.840	0.0165514
749.918	0.0165512
749.996	0.0167019
750.074	0.0168005
750.152	0.0168816
750.230	0.0168423
750.308	0.0169365
750.386	0.0169738
750.465	0.0171239
750.543	0.0169564
750.621	0.0170039
750.699	0.0170683
750.777	0.0170329
750.855	0.0171508
750.933	0.0170143
751.011	0.0168980
751.090	0.0169076
751.168	0.0168871
751.246	0.0170002
751.324	0.0168392
751.402	0.0169341
751.480	0.0167574
751.558	0.0164771
751.636	0.0166320
751.715	0.0166671
751.793	0.0165761
751.871	0.0165228
751.949	0.0163692
752.027	0.0163545
752.105	0.0162663
752.183	0.0164188
752.261	0.0162643
752.340	0.0163776
752.418	0.0162840
752.496	0.0163926
752.574	0.0163046
752.652	0.0163538
752.730	0.0164011
752.808	0.0165240
752.886	0.0163577
752.965	0.0164530
753.043	0.0164090
753.121	0.0164455
753.199	0.0163348
753.277	0.0164315
753.355	0.0164070
753.433	0.0163378
753.511	0.0162003
753.590	0.0163335
753.668	0.0162463
753.746	0.0162103
753.824	0.0161762
753.902	0.0160979
753.980	0.0161562
754.058	0.0163186
754.136	0.0162244
754.215	0.0160580
754.293	0.0161166
754.371	0.0161848
754.449	0.0163019
754.527	0.0163456
754.605	0.0164954
754.683	0.0163793
754.761	0.0165216
754.840	0.0165398
754.918	0.0165732
754.996	0.0165746
755.074	0.0166086
755.152	0.0166981
755.230	0.0168783
755.308	0.0168734
755.386	0.0171320
755.465	0.0171876
755.543	0.0171460
755.621	0.0173135
755.699	0.0173159
755.777	0.0173190
755.855	0.0172460
755.933	0.0172734
756.011	0.0174755
756.090	0.0172717
756.168	0.0172227
756.246	0.0173206
756.324	0.0172429
756.402	0.0169878
756.480	0.0171046
756.558	0.0170113
756.636	0.0169804
756.715	0.0168078
756.793	0.0169064
756.871	0.0167993
756.949	0.0166770
757.027	0.0168427
757.105	0.0166240
757.183	0.0164574
757.261	0.0163673
757.340	0.0164169
757.418	0.0164364
757.496	0.0164063
757.574	0.0163705
757.652	0.0163049
757.730	0.0162094
757.808	0.0162147
757.886	0.0163567
757.965	0.0161265
758.043	0.0162221
758.121	0.0161755
758.199	0.0162884
758.277	0.0163322
758.355	0.0162380
758.433	0.0162307
758.511	0.0163166
758.590	0.0161781
758.668	0.0162196
758.746	0.0163472
758.824	0.0163918
758.902	0.0163031
758.980	0.0163554
759.058	0.0163095
759.136	0.0164835
759.215	0.0164485
759.293	0.0163345
759.371	0.0164042
759.449	0.0164155
759.527	0.0164361
759.605	0.0162565
759.683	0.0164660
759.761	0.0163775
759.840	0.0163602
759.918	0.0164187
759.996	0.0164909
760.074	0.0165737
760.152	0.0165001
760.230	0.0165771
760.308	0.0166623
760.386	0.0166676
760.465	0.0166131
760.543	0.0166380
760.621	0.0166933
760.699	0.0167107
760.777	0.0167896
760.855	0.0168771
760.933	0.0167290
761.011	0.0168252
761.090	0.0169036
761.168	0.0168807
761.246	0.0168590
761.324	0.0167371
761.402	0.0168317
761.480	0.0168629
761.558	0.0168281
761.636	0.0168855
761.715	0.0169102
761.793	0.0168713
761.871	0.0169005
761.949	0.0168925
762.027	0.0168529
762.105	0.0169999
762.183	0.0169230
762.261	0.0169148
762.340	0.0170552
762.418	0.0170054
762.496	0.0170602
762.574	0.0170520
762.652	0.0169949
762.730	0.0168524
762.808	0.0169109
762.886	0.0169592
762.965	0.0168402
763.043	0.0168381
763.121	0.0168822
763.199	0.0167747
763.277	0.0166998
763.355	0.0166624
763.433	0.0166568
763.511	0.0165357
763.590	0.0164276
763.668	0.0164643
763.746	0.0164874
763.824	0.0165588
763.902	0.0164629
763.980	0.0166002
764.058	0.0164311
764.136	0.0165794
764.215	0.0165784
764.293	0.0165726
764.371	0.0166729
764.449	0.0167038
764.527	0.0166599
764.605	0.0167798
764.683	0.0167549
764.761	0.0167142
764.840	0.0167568
764.918	0.0168546
764.996	0.0167776
765.074	0.0165840
765.152	0.0166181
765.230	0.0167606
765.308	0.0167930
765.386	0.0166452
765.465	0.0166545
765.543	0.0166034
765.621	0.0165919
765.699	0.0166830
765.777	0.0166625
765.855	0.0167688
765.933	0.0165524
766.011	0.0165614
766.090	0.0164835
766.168	0.0167067
766.246	0.0166319
766.324	0.0167251
766.402	0.0166956
766.480	0.0168082
766.558	0.0167741
766.636	0.0168733
766.715	0.0167678
766.793	0.0167716
766.871	0.0169689
766.949	0.0168937
767.027	0.0169296
767.105	0.0168995
767.183	0.0169510
767.261	0.0171806
767.340	0.0170268
767.418	0.0171400
767.496	0.0171873
767.574	0.0170547
767.652	0.0169303
767.730	0.0169521
767.808	0.0170146
767.886	0.0171028
767.965	0.0169924
768.043	0.0169913
768.121	0.0168198
768.199	0.0168298
768.277	0.0168587
768.355	0.0167296
768.433	0.0166456
768.511	0.0165269
768.590	0.0165158
768.668	0.0164823
768.746	0.0163662
768.824	0.0163167
768.902	0.0163303
768.980	0.0162099
769.058	0.0162073
769.136	0.0160581
769.215	0.0160667
769.293	0.0158967
769.371	0.0159821
769.449	0.0160983
769.527	0.0161154
769.605	0.0161216
769.683	0.0161473
769.761	0.0160990
769.840	0.0159692
769.918	0.0160635
769.996	0.0161573
770.074	0.0162523
770.152	0.0162203
770.230	0.0163540
770.308	0.0164194
770.386	0.0165398
770.465	0.0165742
770.543	0.0166642
770.621	0.0168008
770.699	0.0167738
770.777	0.0168413
770.855	0.0167990
770.933	0.0169247
771.011	0.0168240
771.090	0.0168801
771.168	0.0169911
771.246	0.0167377
771.324	0.0168808
771.402	0.0168086
771.480	0.0166022
771.558	0.0166104
771.636	0.0165672
771.715	0.0165252
771.793	0.0163646
771.871	0.0164281
771.949	0.0163955
772.027	0.0163169
772.105	0.0162993
772.183	0.0162735
772.261	0.0163695
772.340	0.0162078
772.418	0.0162518
772.496	0.0162761
772.574	0.0163966
772.652	0.0163692
772.730	0.0162442
772.808	0.0163351
772.886	0.0164815
772.965	0.0166224
773.043	0.0166396
773.121	0.0167113
773.199	0.0168569
773.277	0.0168420
773.355	0.0171823
773.433	0.0169546
773.511	0.0169958
773.590	0.0170076
773.668	0.0172993
773.746	0.0172343
773.824	0.0172604
773.902	0.0172090
773.980	0.0172047
774.058	0.0170947
774.136	0.0169907
774.215	0.0170841
774.293	0.0171042
774.371	0.0170845
774.449	0.0169388
774.527	0.0168697
774.605	0.0169141
774.683	0.0168932
774.761	0.0167815
774.840	0.0167536
774.918	0.0165365
774.996	0.0165331
775.074	0.0165918
775.152	0.0163548
775.230	0.0163657
775.308	0.0163425
775.386	0.0164373
775.465	0.0163444
775.543	0.0163177
775.621	0.0163787
775.699	0.0162284
775.777	0.0164371
775.855	0.0164275
775.933	0.0163895
776.011	0.0163030
776.090	0.0166379
776.168	0.0165517
776.246	0.0165687
776.324	0.0167203
776.402	0.0167570
776.480	0.0166283
776.558	0.0167759
776.636	0.0168202
776.715	0.0168434
776.793	0.0166940
776.871	0.0166621
776.949	0.0166390
777.027	0.0165923
777.105	0.0165662
777.183	0.0164770
777.261	0.0165578
777.340	0.0164015
777.418	0.0163980
777.496	0.0163351
777.574	0.0163487
777.652	0.0164821
777.730	0.0164259
777.808	0.0164729
777.886	0.0164488
777.965	0.0164870
778.043	0.0166493
778.121	0.0166394
778.199	0.0166132
778.277	0.0168081
778.355	0.0167345
778.433	0.0166195
778.511	0.0168103
778.590	0.0168138
778.668	0.0169306
778.746	0.0169277
778.824	0.0168739
778.902	0.0169063
778.980	0.0170586
779.058	0.0169922
779.136	0.0169825
779.215	0.0170076
779.293	0.0170507
779.371	0.0169531
779.449	0.0169044
779.527	0.0171174
779.605	0.0170106
779.683	0.0170425
779.761	0.0169221
779.840	0.0168461
779.918	0.0168151
779.996	0.0168681
780.074	0.0169357
780.152	0.0167117
780.230	0.0165929
780.308	0.0163216
780.386	0.0165199
780.465	0.0165320
780.543	0.0164998
780.621	0.0165239
780.699	0.0164703
780.777	0.0164507
780.855	0.0165380
780.933	0.0164892
781.011	0.0164008
781.090	0.0162765
781.168	0.0163078
781.246	0.0161631
781.324	0.0162379
781.402	0.0163478
781.480	0.0161062
781.558	0.0160935
781.636	0.0160094
781.715	0.0159949
781.793	0.0158363
781.871	0.0158746
781.949	0.0160054
782.027	0.0159592
782.105	0.0160876
782.183	0.0159499
782.261	0.0158912
782.340	0.0160052
782.418	0.0160986
782.496	0.0161178
782.574	0.0160919
782.652	0.0163255
782.730	0.0164433
782.808	0.0163650
782.886	0.0162820
782.965	0.0164314
783.043	0.0163968
783.121	0.0165885
783.199	0.0164972
783.277	0.0165847
783.355	0.0167304
783.433	0.0167512
783.511	0.0167100
783.590	0.0166932
783.668	0.0167152
783.746	0.0168590
783.824	0.0167654
783.902	0.0168168
783.980	0.0166356
784.058	0.0167018
784.136	0.0168502
784.215	0.0167910
784.293	0.0168034
784.371	0.0167817
784.449	0.0167657
784.527	0.0167435
784.605	0.0167651
784.683	0.0166315
784.761	0.0167087
784.840	0.0167204
784.918	0.0167343
784.996	0.0167657
785.074	0.0166887
785.152	0.0167219
785.230	0.0166787
785.308	0.0165918
785.386	0.0166881
785.465	0.0167025
785.543	0.0166615
785.621	0.0167430
785.699	0.0167784
785.777	0.0166537
785.855	0.0167015
785.933	0.0167405
786.011	0.0167041
786.090	0.0167504
786.168	0.0166691
786.246	0.0166311
786.324	0.0166990
786.402	0.0166806
786.480	0.0164889
786.558	0.0165527
786.636	0.0165103
786.715	0.0164404
786.793	0.0163039
786.871	0.0164543
786.949	0.0163295
787.027	0.0161755
787.105	0.0162814
787.183	0.0161935
787.261	0.0162548
787.340	0.0161341
787.418	0.0162794
787.496	0.0162051
787.574	0.0162355
787.652	0.0162072
787.730	0.0162356
787.808	0.0162820
787.886	0.0164119
787.965	0.0164671
788.043	0.0164129
788.121	0.0166125
788.199	0.0165612
788.277	0.0167625
788.355	0.0167642
788.433	0.0167080
788.511	0.0168626
788.590	0.0168538
788.668	0.0169975
788.746	0.0170140
788.824	0.0169960
788.902	0.0171722
788.980	0.0170735
789.058	0.0169884
789.136	0.0171770
789.215	0.0171332
789.293	0.0171132
789.371	0.0171266
789.449	0.0169393
789.527	0.0171919
789.605	0.0170544
789.683	0.0170944
789.761	0.0170564
789.840	0.0168726
789.918	0.0168349
789.996	0.0168609
790.074	0.0167732
790.152	0.0168692
790.230	0.0169061
790.308	0.0167091
790.386	0.0167432
790.465	0.0167884
790.543	0.0168140
790.621	0.0166595
790.699	0.0166524
790.777	0.0167030
790.855	0.0166518
790.933	0.0165850
791.011	0.0166055
791.090	0.0166006
791.168	0.0164040
791.246	0.0165601
791.324	0.0165646
791.402	0.0165003
791.480	0.0165085
791.558	0.0164194
791.636	0.0165549
791.715	0.0164846
791.793	0.0165355
791.871	0.0165273
791.949	0.0166158
792.027	0.0166294
792.105	0.0166380
792.183	0.0166834
792.261	0.0166248
792.340	0.0166236
792.418	0.0166438
792.496	0.0166090
792.574	0.0166679
792.652	0.0165902
792.730	0.0165091
792.808	0.0165923
792.886	0.0166810
792.965	0.0165250
793.043	0.0167128
793.121	0.0165096
793.199	0.0165266
793.277	0.0164792
793.355	0.0166038
793.433	0.0164556
793.511	0.0163658
793.590	0.0164513
793.668	0.0166033
793.746	0.0164275
793.824	0.0163692
793.902	0.0163630
793.980	0.0163277
794.058	0.0163757
794.136	0.0164039
794.215	0.0162801
794.293	0.0164761
794.371	0.0165327
794.449	0.0164546
794.527	0.0162424
794.605	0.0163741
794.683	0.0164062
794.761	0.0163176
794.840	0.0162572
794.918	0.0163697
794.996	0.0164949
795.074	0.0164642
795.152	0.0163150
795.230	0.0163170
795.308	0.0163505
795.386	0.0163407
795.465	0.0163730
795.543	0.0161295
795.621	0.0163201
795.699	0.0163368
795.777	0.0163029
795.855	0.0162385
795.933	0.0162012
796.011	0.0162052
796.090	0.0161574
796.168	0.0163554
796.246	0.0161478
796.324	0.0159867
796.402	0.0162347
796.480	0.0163187
796.558	0.0162745
796.636	0.0161658
796.715	0.0160678
796.793	0.0162276
796.871	0.0162872
796.949	0.0162760
797.027	0.0162362
797.105	0.0162233
797.183	0.0161431
797.261	0.0161371
797.340	0.0161137
797.418	0.0162641
797.496	0.0162772
797.574	0.0163076
797.652	0.0162744
797.730	0.0164217
797.808	0.0163621
797.886	0.0163317
797.965	0.0162727
798.043	0.0161875
798.121	0.0162058
798.199	0.0163005
798.277	0.0164270
798.355	0.0163659
798.433	0.0162658
798.511	0.0164204
798.590	0.0163931
798.668	0.0163843
798.746	0.0164157
798.824	0.0165855
798.902	0.0165163
798.980	0.0164128
799.058	0.0165212
799.136	0.0166138
799.215	0.0165495
799.293	0.0164717
799.371	0.0164610
799.449	0.0165221
799.527	0.0165530
799.605	0.0166096
799.683	0.0165215
799.761	0.0166547
799.840	0.0165875
799.918	0.0165571
799.996	0.0164497
800.074	0.0166373
800.152	0.0164719
800.230	0.0165423
800.308	0.0164944
800.386	0.0164029
800.465	0.0165501
800.543	0.0167337
800.621	0.0165131
800.699	0.0166412
800.777	0.0166417
800.855	0.0166462
800.933	0.0165892
801.011	0.0166824
801.090	0.0166518
801.168	0.0165809
801.246	0.0167281
801.324	0.0167372
801.402	0.0166934
801.480	0.0166985
801.558	0.0167061
801.636	0.0166562
801.715	0.0167767
801.793	0.0166878
801.871	0.0167458
801.949	0.0165765
802.027	0.0164764
802.105	0.0165379
802.183	0.0164415
802.261	0.0165646
802.340	0.0165679
802.418	0.0164569
802.496	0.0162990
802.574	0.0164060
802.652	0.0164890
802.730	0.0163275
802.808	0.0164098
802.886	0.0163788
802.965	0.0163240
803.043	0.0163610
803.121	0.0163012
803.199	0.0162818
803.277	0.0163808
803.355	0.0164612
803.433	0.0163192
803.511	0.0162708
803.590	0.0161981
803.668	0.0163780
803.746	0.0164059
803.824	0.0163749
803.902	0.0164575
803.980	0.0163694
804.058	0.0163815
804.136	0.0163850
804.215	0.0163222
804.293	0.0164278
804.371	0.0164317
804.449	0.0163422
804.527	0.0165156
804.605	0.0165311
804.683	0.0164007
804.761	0.0164256
804.840	0.0165571
804.918	0.0166328
804.996	0.0165892
805.074	0.0166515
805.152	0.0168538
805.230	0.0166515
805.308	0.0167477
805.386	0.0167662
805.465	0.0165939
805.543	0.0165076
805.621	0.0167950
805.699	0.0167268
805.777	0.0167271
805.855	0.0166714
805.933	0.0167885
806.011	0.0168382
806.090	0.0166844
806.168	0.0165909
806.246	0.0166147
806.324	0.0165796
806.402	0.0166701
806.480	0.0165531
806.558	0.0166090
806.636	0.0165279
806.715	0.0166080
806.793	0.0165373
806.871	0.0165487
806.949	0.0163908
807.027	0.0164513
807.105	0.0164984
807.183	0.0164353
807.261	0.0165598
807.340	0.0167448
807.418	0.0167020
807.496	0.0167114
807.574	0.0166521
807.652	0.0166885
807.730	0.0168322
807.808	0.0167787
807.886	0.0167443
807.965	0.0166769
808.043	0.0167934
808.121	0.0168160
808.199	0.0166016
808.277	0.0166972
808.355	0.0167162
808.433	0.0165369
808.511	0.0166013
808.590	0.0166908
808.668	0.0163898
808.746	0.0164268
808.824	0.0165549
808.902	0.0164591
808.980	0.0163353
809.058	0.0163342
809.136	0.0164395
809.215	0.0163761
809.293	0.0161423
809.371	0.0163581
809.449	0.0162407
809.527	0.0162469
809.605	0.0162799
809.683	0.0163519
809.761	0.0162460
809.840	0.0164288
809.918	0.0163996
809.996	0.0161678
810.074	0.0163343
810.152	0.0163671
810.230	0.0162260
810.308	0.0161718
810.386	0.0161100
810.465	0.0161755
810.543	0.0163340
810.621	0.0164246
810.699	0.0161171
810.777	0.0161901
810.855	0.0161403
810.933	0.0161282
811.011	0.0161665
811.090	0.0161591
811.168	0.0160324
811.246	0.0162762
811.324	0.0161695
811.402	0.0161320
811.480	0.0160986
811.558	0.0161222
811.636	0.0160658
811.715	0.0161570
811.793	0.0162204
811.871	0.0163488
811.949	0.0162290
812.027	0.0161874
812.105	0.0161652
812.183	0.0163261
812.261	0.0162817
812.340	0.0161938
812.418	0.0162603
812.496	0.0163338
812.574	0.0163120
812.652	0.0163454
812.730	0.0163975
812.808	0.0164650
812.886	0.0163668
812.965	0.0163045
813.043	0.0164784
813.121	0.0163607
813.199	0.0162961
813.277	0.0165470
813.355	0.0164772
813.433	0.0164230
813.511	0.0165073
813.590	0.0164697
813.668	0.0165884
813.746	0.0165306
813.824	0.0164085
813.902	0.0166266
813.980	0.0166583
814.058	0.0165782
814.136	0.0166804
814.215	0.0166895
814.293	0.0166714
814.371	0.0166365
814.449	0.0166154
814.527	0.0168027
814.605	0.0165942
814.683	0.0167665
814.761	0.0167416
814.840	0.0165128
814.918	0.0165578
814.996	0.0166708
815.074	0.0166077
815.152	0.0167299
815.230	0.0164727
815.308	0.0166602
815.386	0.0166022
815.465	0.0165540
815.543	0.0167519
815.621	0.0166333
815.699	0.0166331
815.777	0.0165396
815.855	0.0164367
815.933	0.0164554
816.011	0.0164996
816.090	0.0164530
816.168	0.0164378
816.246	0.0164108
816.324	0.0166675
816.402	0.0164719
816.480	0.0165340
816.558	0.0163872
816.636	0.0165024
816.715	0.0164729
816.793	0.0163296
816.871	0.0164259
816.949	0.0164640
817.027	0.0163654
817.105	0.0163757
817.183	0.0165184
817.261	0.0163438
817.340	0.0165605
817.418	0.0164040
817.496	0.0163824
817.574	0.0163766
817.652	0.0164572
817.730	0.0163065
817.808	0.0164458
817.886	0.0164118
817.965	0.0163287
818.043	0.0163853
818.121	0.0163821
818.199	0.0165266
818.277	0.0164204
818.355	0.0164188
818.433	0.0164230
818.511	0.0164502
818.590	0.0164356
818.668	0.0164091
818.746	0.0163934
818.824	0.0164835
818.902	0.0164239
818.980	0.0164643
819.058	0.0163417
819.136	0.0164639
819.215	0.0164748
819.293	0.0164476
819.371	0.0164127
819.449	0.0164614
819.527	0.0165263
819.605	0.0164468
819.683	0.0164945
819.761	0.0165612
819.840	0.0164693
819.918	0.0165256
819.996	0.0164580
820.074	0.0164357
820.152	0.0164583
820.230	0.0165676
820.308	0.0165770
820.386	0.0164716
820.465	0.0165990
820.543	0.0165846
820.621	0.0165149
820.699	0.0166605
820.777	0.0166500
820.855	0.0165825
820.933	0.0165260
821.011	0.0166930
821.090	0.0166319
821.168	0.0167580
821.246	0.0166178
821.324	0.0167226
821.402	0.0167321
821.480	0.0168584
821.558	0.0168671
821.636	0.0167937
821.715	0.0167645
821.793	0.0167808
821.871	0.0167695
821.949	0.0168465
822.027	0.0168360
822.105	0.0168085
822.183	0.0166673
822.261	0.0166972
822.340	0.0166941
822.418	0.0168167
822.496	0.0165623
822.574	0.0165926
822.652	0.0166866
822.730	0.0166222
822.808	0.0166629
822.886	0.0165845
822.965	0.0166160
823.043	0.0164153
823.121	0.0164877
823.199	0.0166264
823.277	0.0163969
823.355	0.0165346
823.433	0.0165102
823.511	0.0163971
823.590	0.0163383
823.668	0.0163303
823.746	0.0164896
823.824	0.0165167
823.902	0.0164281
823.980	0.0163518
824.058	0.0164741
824.136	0.0164397
824.215	0.0163044
824.293	0.0163171
824.371	0.0164436
824.449	0.0164558
824.527	0.0165117
824.605	0.0164059
824.683	0.0165146
824.761	0.0163516
824.840	0.0163187
824.918	0.0163863
824.996	0.0164629
825.074	0.0163952
825.152	0.0163497
825.230	0.0163805
825.308	0.0164282
825.386	0.0163876
825.465	0.0164780
825.543	0.0162259
825.621	0.0163062
825.699	0.0163258
825.777	0.0162691
825.855	0.0163426
825.933	0.0162676
826.011	0.0163301
826.090	0.0162576
826.168	0.0162682
826.246	0.0163937
826.324	0.0163854
826.402	0.0163546
826.480	0.0163988
826.558	0.0164883
826.636	0.0164088
826.715	0.0164570
826.793	0.0165426
826.871	0.0165207
826.949	0.0165785
827.027	0.0166093
827.105	0.0167538
827.183	0.0168050
827.261	0.0167239
827.340	0.0166013
827.418	0.0165874
827.496	0.0165724
827.574	0.0165985
827.652	0.0165249
827.730	0.0166444
827.808	0.0165479
827.886	0.0164488
827.965	0.0165018
828.043	0.0166119
828.121	0.0163608
828.199	0.0164318
828.277	0.0164884
828.355	0.0164868
828.433	0.0164756
828.511	0.0165583
828.590	0.0164420
828.668	0.0164422
828.746	0.0165723
828.824	0.0164900
828.902	0.0164333
828.980	0.0165340
829.058	0.0167612
829.136	0.0165340
829.215	0.0166741
829.293	0.0166862
829.371	0.0166743
829.449	0.0167273
829.527	0.0168787
829.605	0.0166992
829.683	0.0167834
829.761	0.0166532
829.840	0.0167402
829.918	0.0167984
829.996	0.0166963
830.074	0.0167455
830.152	0.0166669
830.230	0.0167023
830.308	0.0166468
830.386	0.0167476
830.465	0.0166799
830.543	0.0167701
830.621	0.0166904
830.699	0.0166786
830.777	0.0164905
830.855	0.0165502
830.933	0.0166222
831.011	0.0163530
831.090	0.0166043
831.168	0.0166000
831.246	0.0165577
831.324	0.0165726
831.402	0.0165034
831.480	0.0165166
831.558	0.0164976
831.636	0.0164044
831.715	0.0165533
831.793	0.0164412
831.871	0.0165752
831.949	0.0163659
832.027	0.0166103
832.105	0.0165215
832.183	0.0165189
832.261	0.0165992
832.340	0.0165031
832.418	0.0163621
832.496	0.0165205
832.574	0.0163985
832.652	0.0163787
832.730	0.0163057
832.808	0.0163910
832.886	0.0164548
832.965	0.0165549
833.043	0.0164388
833.121	0.0165606
833.199	0.0165862
833.277	0.0164869
833.355	0.0164510
833.433	0.0165137
833.511	0.0165263
833.590	0.0164914
833.668	0.0165750
833.746	0.0166089
833.824	0.0166061
833.902	0.0165260
833.980	0.0164651
834.058	0.0165595
834.136	0.0164453
834.215	0.0164435
834.293	0.0164404
834.371	0.0165120
834.449	0.0164471
834.527	0.0163788
834.605	0.0163630
834.683	0.0162424
834.761	0.0163115
834.840	0.0163316
834.918	0.0162273
834.996	0.0162471
835.074	0.0164189
835.152	0.0162920
835.230	0.0162679
835.308	0.0163421
835.386	0.0162759
835.465	0.0162753
835.543	0.0162163
835.621	0.0162139
835.699	0.0162484
835.777	0.0163060
835.855	0.0162180
835.933	0.0163342
836.011	0.0162914
836.090	0.0163203
836.168	0.0163592
836.246	0.0161929
836.324	0.0162711
836.402	0.0162228
836.480	0.0163562
836.558	0.0164491
836.636	0.0162935
836.715	0.0164187
836.793	0.0164859
836.871	0.0164320
836.949	0.0163765
837.027	0.0164960
837.105	0.0163953
837.183	0.0165780
837.261	0.0166246
837.340	0.0165532
837.418	0.0164822
837.496	0.0165791
837.574	0.0165791
837.652	0.0166066
837.730	0.0166744
837.808	0.0167240
837.886	0.0167969
837.965	0.0167276
838.043	0.0166655
838.121	0.0167556
838.199	0.0167140
838.277	0.0167429
838.355	0.0167299
838.433	0.0168047
838.511	0.0166413
838.590	0.0167026
838.668	0.0165685
838.746	0.0165617
838.824	0.0165372
838.902	0.0166556
838.980	0.0165336
839.058	0.0165474
839.136	0.0165540
839.215	0.0165044
839.293	0.0165063
839.371	0.0165193
839.449	0.0163861
839.527	0.0164834
839.605	0.0166416
839.683	0.0164783
839.761	0.0165318
839.840	0.0165684
839.918	0.0166858
839.996	0.0167371
840.074	0.0165128
840.152	0.0168221
840.230	0.0169215
840.308	0.0168836
840.386	0.0168501
840.465	0.0168908
840.543	0.0170283
840.621	0.0170828
840.699	0.0169729
840.777	0.0170142
840.855	0.0169007
840.933	0.0168657
841.011	0.0169579
841.090	0.0170109
841.168	0.0171475
841.246	0.0171532
841.324	0.0169930
841.402	0.0170522
841.480	0.0169474
841.558	0.0170246
841.636	0.0169072
841.715	0.0167294
841.793	0.0169530
841.871	0.0169205
841.949	0.0168701
842.027	0.0168133
842.105	0.0169135
842.183	0.0168024
842.261	0.0167816
842.340	0.0168790
842.418	0.0167861
842.496	0.0167054
842.574	0.0166315
842.652	0.0167725
842.730	0.0165462
842.808	0.0166158
842.886	0.0166879
842.965	0.0167323
843.043	0.0167481
843.121	0.0166679
843.199	0.0167059
843.277	0.0166983
843.355	0.0165374
843.433	0.0167128
843.511	0.0165895
843.590	0.0166018
843.668	0.0166567
843.746	0.0166375
843.824	0.0166813
843.902	0.0166432
843.980	0.0166879
844.058	0.0166521
844.136	0.0166245
844.215	0.0165962
844.293	0.0164875
844.371	0.0165659
844.449	0.0166977
844.527	0.0165405
844.605	0.0165930
844.683	0.0166499
844.761	0.0166276
844.840	0.0166123
844.918	0.0165784
844.996	0.0165962
845.074	0.0166020
845.152	0.0166207
845.230	0.0167184
845.308	0.0164972
845.386	0.0165941
845.465	0.0167711
845.543	0.0165061
845.621	0.0165705
845.699	0.0164880
845.777	0.0165748
845.855	0.0164664
845.933	0.0167307
846.011	0.0166243
846.090	0.0164552
846.168	0.0166266
846.246	0.0164120
846.324	0.0165422
846.402	0.0167673
846.480	0.0165857
846.558	0.0163630
846.636	0.0164467
846.715	0.0165064
846.793	0.0165794
846.871	0.0164484
846.949	0.0163868
847.027	0.0163294
847.105	0.0163503
847.183	0.0165604
847.261	0.0163480
847.340	0.0163671
847.418	0.0163805
847.496	0.0164558
847.574	0.0162876
847.652	0.0164183
847.730	0.0163059
847.808	0.0165272
847.886	0.0163248
847.965	0.0163098
848.043	0.0163226
848.121	0.0163097
848.199	0.0163078
848.277	0.0163644
848.355	0.0163853
848.433	0.0163144
848.511	0.0163643
848.590	0.0163297
848.668	0.0163304
848.746	0.0164371
848.824	0.0162379
848.902	0.0163008
848.980	0.0164441
849.058	0.0162556
849.136	0.0163506
849.215	0.0162467
849.293	0.0162964
849.371	0.0161469
849.449	0.0162455
849.527	0.0162965
849.605	0.0161798
849.683	0.0163363
849.761	0.0162134
849.840	0.0161889
849.918	0.0162062
849.996	0.0163361
850.074	0.0161919
850.152	0.0162873
850.230	0.0161893
850.308	0.0162466
850.386	0.0162993
850.465	0.0162482
850.543	0.0162248
850.621	0.0163899
850.699	0.0163203
850.777	0.0163643
850.855	0.0165304
850.933	0.0164754
851.011	0.0164477
851.090	0.0163466
851.168	0.0164243
851.246	0.0162701
851.324	0.0165636
851.402	0.0165075
851.480	0.0164291
851.558	0.0164882
851.636	0.0164792
851.715	0.0165024
851.793	0.0165898
851.871	0.0165481
851.949	0.0166338
852.027	0.0166099
852.105	0.0166256
852.183	0.0167283
852.261	0.0167146
852.340	0.0166830
852.418	0.0167542
852.496	0.0168056
852.574	0.0166132
852.652	0.0167963
852.730	0.0168112
852.808	0.0166838
852.886	0.0168287
852.965	0.0168185
853.043	0.0168784
853.121	0.0168919
853.199	0.0168124
853.277	0.0167866
853.355	0.0166183
853.433	0.0166199
853.511	0.0167949
853.590	0.0165412
853.668	0.0165334
853.746	0.0164891
853.824	0.0163421
853.902	0.0163741
853.980	0.0162634
854.058	0.0163256
854.136	0.0163401
854.215	0.0164841
854.293	0.0163569
854.371	0.0163853
854.449	0.0162984
854.527	0.0162735
854.605	0.0162439
854.683	0.0165028
854.761	0.0163409
854.840	0.0163814
854.918	0.0163832
854.996	0.0164651
855.074	0.0164748
855.152	0.0163781
855.230	0.0164454
855.308	0.0164777
855.386	0.0166583
855.465	0.0164802
855.543	0.0164595
855.621	0.0165549
855.699	0.0166478
855.777	0.0165495
855.855	0.0166531
855.933	0.0166499
856.011	0.0166618
856.090	0.0166804
856.168	0.0165891
856.246	0.0166839
856.324	0.0166857
856.402	0.0165989
856.480	0.0167104
856.558	0.0166353
856.636	0.0166218
856.715	0.0165386
856.793	0.0167325
856.871	0.0166608
856.949	0.0166921
857.027	0.0166161
857.105	0.0166615
857.183	0.0166935
857.261	0.0164254
857.340	0.0165578
857.418	0.0167812
857.496	0.0166698
857.574	0.0166351
857.652	0.0166164
857.730	0.0166293
857.808	0.0165767
857.886	0.0166489
857.965	0.0168022
858.043	0.0166632
858.121	0.0166121
858.199	0.0167728
858.277	0.0165824
858.355	0.0167306
858.433	0.0167128
858.511	0.0165925
858.590	0.0166507
858.668	0.0165997
858.746	0.0165331
858.824	0.0166241
858.902	0.0166444
858.980	0.0166084
859.058	0.0165140
859.136	0.0165828
859.215	0.0165578
859.293	0.0164155
859.371	0.0165125
859.449	0.0164914
859.527	0.0164545
859.605	0.0164843
859.683	0.0163284
859.761	0.0163522
859.840	0.0165303
859.918	0.0163717
859.996	0.0163589
860.074	0.0164439
860.152	0.0163540
860.230	0.0164573
860.308	0.0164262
860.386	0.0163633
860.465	0.0164825
860.543	0.0163633
860.621	0.0162670
860.699	0.0163321
860.777	0.0164602
860.855	0.0163194
860.933	0.0164091
861.011	0.0164085
861.090	0.0165017
861.168	0.0164936
861.246	0.0164521
861.324	0.0165216
861.402	0.0165366
861.480	0.0166138
861.558	0.0166310
861.636	0.0167272
861.715	0.0165483
861.793	0.0166373
861.871	0.0167312
861.949	0.0166640
862.027	0.0166690
862.105	0.0165483
862.183	0.0165982
862.261	0.0166600
862.340	0.0166551
862.418	0.0165333
862.496	0.0164283
862.574	0.0165427
862.652	0.0166648
862.730	0.0165374
862.808	0.0165576
862.886	0.0165645
862.965	0.0165861
863.043	0.0165722
863.121	0.0163759
863.199	0.0165269
863.277	0.0163625
863.355	0.0164960
863.433	0.0164336
863.511	0.0165085
863.590	0.0165197
863.668	0.0165830
863.746	0.0165549
863.824	0.0165331
863.902	0.0165237
863.980	0.0164872
864.058	0.0166309
864.136	0.0166193
864.215	0.0165856
864.293	0.0165869
864.371	0.0165022
864.449	0.0165128
864.527	0.0167388
864.605	0.0167697
864.683	0.0166360
864.761	0.0166792
864.840	0.0167505
864.918	0.0167597
864.996	0.0166638
865.074	0.0166329
865.152	0.0167329
865.230	0.0168643
865.308	0.0166376
865.386	0.0166396
865.465	0.0166732
865.543	0.0168438
865.621	0.0166249
865.699	0.0166396
865.777	0.0167381
865.855	0.0165620
865.933	0.0166709
866.011	0.0166303
866.090	0.0166109
866.168	0.0166280
866.246	0.0166432
866.324	0.0166618
866.402	0.0166385
866.480	0.0165826
866.558	0.0166404
866.636	0.0166837
866.715	0.0165275
866.793	0.0166115
866.871	0.0165603
866.949	0.0167845
867.027	0.0167248
867.105	0.0167073
867.183	0.0167564
867.261	0.0167003
867.340	0.0167180
867.418	0.0168523
867.496	0.0167995
867.574	0.0167432
867.652	0.0167996
867.730	0.0168250
867.808	0.0167860
867.886	0.0169174
867.965	0.0167368
868.043	0.0167472
868.121	0.0168588
868.199	0.0167010
868.277	0.0167159
868.355	0.0167589
868.433	0.0167560
868.511	0.0168879
868.590	0.0167939
868.668	0.0167531
868.746	0.0168887
868.824	0.0169609
868.902	0.0169050
868.980	0.0167276
869.058	0.0166963
869.136	0.0167443
869.215	0.0168035
869.293	0.0167858
869.371	0.0167577
869.449	0.0167464
869.527	0.0166666
869.605	0.0166088
869.683	0.0165154
869.761	0.0166360
869.840	0.0165945
869.918	0.0166717
869.996	0.0167062
870.074	0.0166658
870.152	0.0164116
870.230	0.0166011
870.308	0.0165062
870.386	0.0166138
870.465	0.0165298
870.543	0.0166415
870.621	0.0166129
870.699	0.0165451
870.777	0.0165940
870.855	0.0165576
870.933	0.0166164
871.011	0.0167207
871.090	0.0166869
871.168	0.0165327
871.246	0.0164313
871.324	0.0165750
871.402	0.0165884
871.480	0.0167796
871.558	0.0167471
871.636	0.0167041
871.715	0.0167915
871.793	0.0167194
871.871	0.0167372
871.949	0.0166592
872.027	0.0168715
872.105	0.0167896
872.183	0.0168382
872.261	0.0168481
872.340	0.0167212
872.418	0.0167719
872.496	0.0167613
872.574	0.0166225
872.652	0.0164766
872.730	0.0165589
872.808	0.0167523
872.886	0.0165402
872.965	0.0165982
873.043	0.0166079
873.121	0.0166751
873.199	0.0166082
873.277	0.0165467
873.355	0.0166080
873.433	0.0165131
873.511	0.0165434
873.590	0.0165088
873.668	0.0165444
873.746	0.0165337
873.824	0.0164517
873.902	0.0163923
873.980	0.0163715
874.058	0.0164123
874.136	0.0164191
874.215	0.0163991
874.293	0.0164052
874.371	0.0165237
874.449	0.0163926
874.527	0.0163796
874.605	0.0163899
874.683	0.0162371
874.761	0.0162438
874.840	0.0161311
874.918	0.0161958
874.996	0.0163331
875.074	0.0163218
875.152	0.0162431
875.230	0.0163277
875.308	0.0163786
875.386	0.0163432
875.465	0.0164898
875.543	0.0163052
875.621	0.0162738
875.699	0.0163327
875.777	0.0164406
875.855	0.0163200
875.933	0.0162898
876.011	0.0163355
876.090	0.0164352
876.168	0.0164146
876.246	0.0164180
876.324	0.0164832
876.402	0.0164066
876.480	0.0164946
876.558	0.0163165
876.636	0.0163909
876.715	0.0164410
876.793	0.0164700
876.871	0.0163979
876.949	0.0163757
877.027	0.0164711
877.105	0.0164668
877.183	0.0163474
877.261	0.0163637
877.340	0.0164998
877.418	0.0164583
877.496	0.0164213
877.574	0.0164976
877.652	0.0165228
877.730	0.0164525
877.808	0.0165529
877.886	0.0164517
877.965	0.0164352
878.043	0.0164990
878.121	0.0165435
878.199	0.0164758
878.277	0.0164238
878.355	0.0164521
878.433	0.0165816
878.511	0.0165314
878.590	0.0165721
878.668	0.0164979
878.746	0.0164923
878.824	0.0165709
878.902	0.0166904
878.980	0.0166500
879.058	0.0167992
879.136	0.0166386
879.215	0.0166885
879.293	0.0167215
879.371	0.0168053
879.449	0.0168280
879.527	0.0167378
879.605	0.0167441
879.683	0.0169088
879.761	0.0167937
879.840	0.0167468
879.918	0.0170844
879.996	0.0170512
880.074	0.0171190
880.152	0.0169479
880.230	0.0170841
880.308	0.0171251
880.386	0.0169707
880.465	0.0170332
880.543	0.0171100
880.621	0.0172298
880.699	0.0171752
880.777	0.0170333
880.855	0.0170242
880.933	0.0169874
881.011	0.0168961
881.090	0.0169485
881.168	0.0168172
881.246	0.0167396
881.324	0.0167876
881.402	0.0167063
881.480	0.0164796
881.558	0.0164484
881.636	0.0165867
881.715	0.0164873
881.793	0.0164620
881.871	0.0163699
881.949	0.0164027
882.027	0.0162328
882.105	0.0162355
882.183	0.0162221
882.261	0.0160652
882.340	0.0160773
882.418	0.0159873
882.496	0.0160710
882.574	0.0160314
882.652	0.0160537
882.730	0.0161476
882.808	0.0160382
882.886	0.0158142
882.965	0.0160625
883.043	0.0160516
883.121	0.0158718
883.199	0.0160179
883.277	0.0160908
883.355	0.0161723
883.433	0.0161848
883.511	0.0160882
883.590	0.0162209
883.668	0.0160925
883.746	0.0161092
883.824	0.0162141
883.902	0.0163504
883.980	0.0163557
884.058	0.0162231
884.136	0.0164708
884.215	0.0163850
884.293	0.0163484
884.371	0.0164717
884.449	0.0163871
884.527	0.0164772
884.605	0.0163338
884.683	0.0164831
884.761	0.0165463
884.840	0.0166370
884.918	0.0167121
884.996	0.0164620
885.074	0.0167435
885.152	0.0167352
885.230	0.0167796
885.308	0.0167194
885.386	0.0167101
885.465	0.0167162
885.543	0.0166694
885.621	0.0166679
885.699	0.0167257
885.777	0.0167091
885.855	0.0166327
885.933	0.0166845
886.011	0.0166968
886.090	0.0167371
886.168	0.0166003
886.246	0.0166267
886.324	0.0165476
886.402	0.0165189
886.480	0.0165217
886.558	0.0165479
886.636	0.0165851
886.715	0.0165151
886.793	0.0166129
886.871	0.0164597
886.949	0.0164508
887.027	0.0164912
887.105	0.0165919
887.183	0.0165334
887.261	0.0166548
887.340	0.0166293
887.418	0.0166772
887.496	0.0166279
887.574	0.0166500
887.652	0.0165240
887.730	0.0166508
887.808	0.0165247
887.886	0.0167303
887.965	0.0166443
888.043	0.0165706
888.121	0.0166232
888.199	0.0168302
888.277	0.0166933
888.355	0.0168201
888.433	0.0169526
888.511	0.0167918
888.590	0.0168360
888.668	0.0167559
888.746	0.0167944
888.824	0.0168546
888.902	0.0167578
888.980	0.0167828
889.058	0.0167616
889.136	0.0167336
889.215	0.0167002
889.293	0.0166574
889.371	0.0167031
889.449	0.0168422
889.527	0.0168218
889.605	0.0166624
889.683	0.0167369
889.761	0.0168526
889.840	0.0166479
889.918	0.0167108
889.996	0.0166070
890.074	0.0166838
890.152	0.0165791
890.230	0.0165534
890.308	0.0165755
890.386	0.0164391
890.465	0.0165050
890.543	0.0165397
890.621	0.0165823
890.699	0.0163367
890.777	0.0165183
890.855	0.0165034
890.933	0.0165105
891.011	0.0164642
891.090	0.0164295
891.168	0.0165665
891.246	0.0165556
891.324	0.0164559
891.402	0.0165543
891.480	0.0166587
891.558	0.0166690
891.636	0.0166312
891.715	0.0165913
891.793	0.0166170
891.871	0.0168805
891.949	0.0169035
892.027	0.0165863
892.105	0.0166155
892.183	0.0166257
892.261	0.0165864
892.340	0.0165857
892.418	0.0167361
892.496	0.0166238
892.574	0.0165434
892.652	0.0166395
892.730	0.0166138
892.808	0.0166963
892.886	0.0164550
892.965	0.0165478
893.043	0.0166373
893.121	0.0164515
893.199	0.0164049
893.277	0.0164804
893.355	0.0165045
893.433	0.0165094
893.511	0.0164773
893.590	0.0163912
893.668	0.0164851
893.746	0.0164218
893.824	0.0163484
893.902	0.0164590
893.980	0.0164677
894.058	0.0165678
894.136	0.0164582
894.215	0.0164040
894.293	0.0163455
894.371	0.0164927
894.449	0.0164590
894.527	0.0164803
894.605	0.0164102
894.683	0.0165067
894.761	0.0165282
894.840	0.0165517
894.918	0.0164240
894.996	0.0164890
895.074	0.0166632
895.152	0.0165312
895.230	0.0163391
895.308	0.0166129
895.386	0.0165698
895.465	0.0164881
895.543	0.0165414
895.621	0.0167126
895.699	0.0165966
895.777	0.0166601
895.855	0.0167246
895.933	0.0167707
896.011	0.0167192
896.090	0.0166360
896.168	0.0167780
896.246	0.0168192
896.324	0.0167733
896.402	0.0167506
896.480	0.0167746
896.558	0.0167595
896.636	0.0167681
896.715	0.0167616
896.793	0.0167686
896.871	0.0166337
896.949	0.0167860
897.027	0.0168320
897.105	0.0166992
897.183	0.0166313
897.261	0.0166847
897.340	0.0166647
897.418	0.0166176
897.496	0.0166828
897.574	0.0166416
897.652	0.0166545
897.730	0.0166945
897.808	0.0164734
897.886	0.0166006
897.965	0.0166911
898.043	0.0165327
898.121	0.0166087
898.199	0.0166757
898.277	0.0165146
898.355	0.0166381
898.433	0.0166526
898.511	0.0166508
898.590	0.0167398
898.668	0.0168489
898.746	0.0166789
898.824	0.0167898
898.902	0.0167035
898.980	0.0166614
899.058	0.0166785
899.136	0.0168269
899.215	0.0168190
899.293	0.0167214
899.371	0.0168048
899.449	0.0167335
899.527	0.0167764
899.605	0.0169525
899.683	0.0168576
899.761	0.0168296
899.840	0.0167548
899.918	0.0168365
899.996	0.0167083
900.074	0.0166392
900.152	0.0166461
900.230	0.0166660
900.308	0.0166985
900.386	0.0166862
900.465	0.0167044
900.543	0.0165960
900.621	0.0165013
900.699	0.0166148
900.777	0.0164829
900.855	0.0165962
900.933	0.0165013
901.011	0.0166340
901.090	0.0166390
901.168	0.0165935
901.246	0.0165367
901.324	0.0164674
901.402	0.0166053
901.480	0.0165135
901.558	0.0165160
901.636	0.0163921
901.715	0.0164650
901.793	0.0164438
901.871	0.0164832
901.949	0.0163696
902.027	0.0164909
902.105	0.0163589
902.183	0.0164391
902.261	0.0165391
902.340	0.0163784
902.418	0.0165049
902.496	0.0165363
902.574	0.0164202
902.652	0.0164780
902.730	0.0164965
902.808	0.0166197
902.886	0.0164728
902.965	0.0166014
903.043	0.0166624
903.121	0.0165040
903.199	0.0166345
903.277	0.0165730
903.355	0.0166773
903.433	0.0166534
903.511	0.0166090
903.590	0.0164890
903.668	0.0165051
903.746	0.0166523
903.824	0.0168118
903.902	0.0168094
903.980	0.0167007
904.058	0.0166739
904.136	0.0166797
904.215	0.0168256
904.293	0.0166429
904.371	0.0167264
904.449	0.0166211
904.527	0.0167352
904.605	0.0167838
904.683	0.0167382
904.761	0.0168859
904.840	0.0167822
904.918	0.0168365
904.996	0.0168017
905.074	0.0167198
905.152	0.0166526
905.230	0.0166721
905.308	0.0166545
905.386	0.0166721
905.465	0.0164869
905.543	0.0165304
905.621	0.0165717
905.699	0.0165545
905.777	0.0165693
905.855	0.0165244
905.933	0.0165404
906.011	0.0165209
906.090	0.0164161
906.168	0.0164507
906.246	0.0164835
906.324	0.0163810
906.402	0.0163924
906.480	0.0163567
906.558	0.0163950
906.636	0.0163600
906.715	0.0162816
906.793	0.0162997
906.871	0.0162968
906.949	0.0164321
907.027	0.0163795
907.105	0.0162110
907.183	0.0163355
907.261	0.0163062
907.340	0.0163247
907.418	0.0163152
907.496	0.0162199
907.574	0.0163843
907.652	0.0163988
907.730	0.0162055
907.808	0.0162238
907.886	0.0163521
907.965	0.0164072
908.043	0.0163377
908.121	0.0162299
908.199	0.0162361
908.277	0.0164378
908.355	0.0162753
908.433	0.0164572
908.511	0.0163062
908.590	0.0164111
908.668	0.0162608
908.746	0.0162480
908.824	0.0165128
908.902	0.0164063
908.980	0.0163669
909.058	0.0164796
909.136	0.0163102
909.215	0.0165582
909.293	0.0165174
909.371	0.0164086
909.449	0.0164978
909.527	0.0166282
909.605	0.0166023
909.683	0.0164265
909.761	0.0166177
909.840	0.0165430
909.918	0.0165638
909.996	0.0165310
910.074	0.0163889
910.152	0.0165195
910.230	0.0167234
910.308	0.0165481
910.386	0.0165254
910.465	0.0164176
910.543	0.0165128
910.621	0.0164002
910.699	0.0164139
910.777	0.0166600
910.855	0.0165240
910.933	0.0163673
911.011	0.0164383
911.090	0.0165137
911.168	0.0163047
911.246	0.0164182
911.324	0.0164323
911.402	0.0164656
911.480	0.0165224
911.558	0.0165772
911.636	0.0164801
911.715	0.0164502
911.793	0.0165402
911.871	0.0165707
911.949	0.0165804
912.027	0.0166988
912.105	0.0168259
912.183	0.0167066
912.261	0.0167350
912.340	0.0167516
912.418	0.0168118
912.496	0.0168401
912.574	0.0167330
912.652	0.0168078
912.730	0.0168966
912.808	0.0167300
912.886	0.0168312
912.965	0.0167629
913.043	0.0166489
913.121	0.0165331
913.199	0.0167393
913.277	0.0166652
913.355	0.0167081
913.433	0.0167931
913.511	0.0166924
913.590	0.0166619
913.668	0.0168111
913.746	0.0166269
913.824	0.0166904
913.902	0.0166763
913.980	0.0166934
914.058	0.0167307
914.136	0.0165801
914.215	0.0166101
914.293	0.0165755
914.371	0.0166343
914.449	0.0166415
914.527	0.0165255
914.605	0.0166470
914.683	0.0165866
914.761	0.0164690
914.840	0.0164711
914.918	0.0166020
914.996	0.0164693
915.074	0.0166080
915.152	0.0165758
915.230	0.0165255
915.308	0.0165591
915.386	0.0165894
915.465	0.0166001
915.543	0.0165323
915.621	0.0165353
915.699	0.0165601
915.777	0.0165765
915.855	0.0165714
915.933	0.0166618
916.011	0.0165868
916.090	0.0165708
916.168	0.0165863
916.246	0.0166345
916.324	0.0167242
916.402	0.0165902
916.480	0.0165890
916.558	0.0165063
916.636	0.0166009
916.715	0.0166334
916.793	0.0166908
916.871	0.0164771
916.949	0.0165035
917.027	0.0165699
917.105	0.0165927
917.183	0.0165229
917.261	0.0164590
917.340	0.0164169
917.418	0.0163716
917.496	0.0163615
917.574	0.0163383
917.652	0.0163260
917.730	0.0163472
917.808	0.0163432
917.886	0.0164061
917.965	0.0163454
918.043	0.0163685
918.121	0.0163570
918.199	0.0161732
918.277	0.0163301
918.355	0.0163481
918.433	0.0162341
918.511	0.0164243
918.590	0.0161986
918.668	0.0162632
918.746	0.0162573
918.824	0.0161948
918.902	0.0161482
918.980	0.0162896
919.058	0.0161507
919.136	0.0163742
919.215	0.0161839
919.293	0.0162804
919.371	0.0162227
919.449	0.0163983
919.527	0.0163453
919.605	0.0162924
919.683	0.0164219
919.761	0.0162849
919.840	0.0164602
919.918	0.0163694
919.996	0.0163456
920.074	0.0163418
920.152	0.0165306
920.230	0.0164383
920.308	0.0164991
920.386	0.0167107
920.465	0.0166304
920.543	0.0165964
920.621	0.0165916
920.699	0.0165801
920.777	0.0166994
920.855	0.0164700
920.933	0.0165813
921.011	0.0167333
921.090	0.0166316
921.168	0.0166024
921.246	0.0167007
921.324	0.0167773
921.402	0.0165126
921.480	0.0164760
921.558	0.0167161
921.636	0.0167528
921.715	0.0165428
921.793	0.0165869
921.871	0.0164845
921.949	0.0166219
922.027	0.0165105
922.105	0.0165637
922.183	0.0165224
922.261	0.0165312
922.340	0.0164287
922.418	0.0164557
922.496	0.0164895
922.574	0.0165572
922.652	0.0164352
922.730	0.0164165
922.808	0.0164679
922.886	0.0164487
922.965	0.0163925
923.043	0.0163625
923.121	0.0166273
923.199	0.0164385
923.277	0.0164283
923.355	0.0164059
923.433	0.0164085
923.511	0.0164802
923.590	0.0164513
923.668	0.0164885
923.746	0.0165293
923.824	0.0164684
923.902	0.0164264
923.980	0.0164934
924.058	0.0165905
924.136	0.0166109
924.215	0.0165099
924.293	0.0164792
924.371	0.0165779
924.449	0.0166240
924.527	0.0165226
924.605	0.0165488
924.683	0.0164777
924.761	0.0165340
924.840	0.0165215
924.918	0.0165161
924.996	0.0164550
925.074	0.0164298
925.152	0.0165037
925.230	0.0166014
925.308	0.0163722
925.386	0.0162938
925.465	0.0163133
925.543	0.0163692
925.621	0.0163461
925.699	0.0163654
925.777	0.0163880
925.855	0.0164159
925.933	0.0162560
926.011	0.0164075
926.090	0.0163797
926.168	0.0163357
926.246	0.0164016
926.324	0.0163453
926.402	0.0163966
926.480	0.0165452
926.558	0.0164465
926.636	0.0163670
926.715	0.0165417
926.793	0.0165105
926.871	0.0163950
926.949	0.0164198
927.027	0.0166472
927.105	0.0164359
927.183	0.0163966
927.261	0.0166177
927.340	0.0164959
927.418	0.0165217
927.496	0.0165794
927.574	0.0165084
927.652	0.0165919
927.730	0.0165271
927.808	0.0166476
927.886	0.0167796
927.965	0.0166893
928.043	0.0165681
928.121	0.0166021
928.199	0.0165159
928.277	0.0167207
928.355	0.0166300
928.433	0.0166863
928.511	0.0165778
928.590	0.0165821
928.668	0.0166199
928.746	0.0164599
928.824	0.0165477
928.902	0.0166447
928.980	0.0164722
929.058	0.0164124
929.136	0.0164001
929.215	0.0165085
929.293	0.0164548
929.371	0.0162774
929.449	0.0164575
929.527	0.0164590
929.605	0.0163773
929.683	0.0164487
929.761	0.0164338
929.840	0.0164469
929.918	0.0164499
929.996	0.0164328
930.074	0.0164320
930.152	0.0165097
930.230	0.0164612
930.308	0.0165427
930.386	0.0164182
930.465	0.0165459
930.543	0.0165913
930.621	0.0165672
930.699	0.0165238
930.777	0.0165279
930.855	0.0164883
930.933	0.0165747
931.011	0.0164980
931.090	0.0165214
931.168	0.0164584
931.246	0.0166933
931.324	0.0164671
931.402	0.0165192
931.480	0.0165764
931.558	0.0165609
931.636	0.0166168
931.715	0.0165416
931.793	0.0167200
931.871	0.0167152
931.949	0.0166046
932.027	0.0167006
932.105	0.0167388
932.183	0.0166959
932.261	0.0166719
932.340	0.0165761
932.418	0.0167903
932.496	0.0166828
932.574	0.0167245
932.652	0.0166927
932.730	0.0165697
932.808	0.0166239
932.886	0.0165898
932.965	0.0166660
933.043	0.0166585
933.121	0.0165706
933.199	0.0166093
933.277	0.0166566
933.355	0.0164742
933.433	0.0164140
933.511	0.0166437
933.590	0.0167883
933.668	0.0166757
933.746	0.0166979
933.824	0.0166014
933.902	0.0164408
933.980	0.0167329
934.058	0.0166916
934.136	0.0166325
934.215	0.0166695
934.293	0.0167424
934.371	0.0167030
934.449	0.0166259
934.527	0.0166784
934.605	0.0166769
934.683	0.0165862
934.761	0.0164913
934.840	0.0167062
934.918	0.0167290
934.996	0.0166704
935.074	0.0167258
935.152	0.0167636
935.230	0.0167328
935.308	0.0168480
935.386	0.0168850
935.465	0.0168404
935.543	0.0168571
935.621	0.0168495
935.699	0.0168690
935.777	0.0167766
935.855	0.0167449
935.933	0.0167686
936.011	0.0167268
936.090	0.0167440
936.168	0.0168559
936.246	0.0168095
936.324	0.0166795
936.402	0.0167857
936.480	0.0168301
936.558	0.0166801
936.636	0.0166364
936.715	0.0166345
936.793	0.0167147
936.871	0.0168636
936.949	0.0168095
937.027	0.0167341
937.105	0.0165813
937.183	0.0167599
937.261	0.0167355
937.340	0.0167389
937.418	0.0167148
937.496	0.0167108
937.574	0.0166955
937.652	0.0167113
937.730	0.0166952
937.808	0.0168576
937.886	0.0167042
937.965	0.0166982
938.043	0.0168723
938.121	0.0168199
938.199	0.0168484
938.277	0.0166498
938.355	0.0167408
938.433	0.0168098
938.511	0.0167620
938.590	0.0167584
938.668	0.0169173
938.746	0.0168489
938.824	0.0166560
938.902	0.0167148
938.980	0.0167620
939.058	0.0167273
939.136	0.0168192
939.215	0.0165752
939.293	0.0166954
939.371	0.0165575
939.449	0.0166002
939.527	0.0166788
939.605	0.0167149
939.683	0.0165758
939.761	0.0166617
939.840	0.0166249
939.918	0.0167149
939.996	0.0165277
940.074	0.0163914
940.152	0.0165475
940.230	0.0166228
940.308	0.0165978
940.386	0.0166121
940.465	0.0164766
940.543	0.0164573
940.621	0.0165063
940.699	0.0163859
940.777	0.0164386
940.855	0.0165006
940.933	0.0164500
941.011	0.0163095
941.090	0.0162693
941.168	0.0161813
941.246	0.0164397
941.324	0.0163699
941.402	0.0163789
941.480	0.0163837
941.558	0.0163575
941.636	0.0165823
941.715	0.0162968
941.793	0.0163448
941.871	0.0164015
941.949	0.0163147
942.027	0.0164478
942.105	0.0165380
942.183	0.0163394
942.261	0.0164310
942.340	0.0162981
942.418	0.0163771
942.496	0.0164536
942.574	0.0163509
942.652	0.0164527
942.730	0.0163844
942.808	0.0163588
942.886	0.0164360
942.965	0.0164405
943.043	0.0163645
943.121	0.0163831
943.199	0.0163401
943.277	0.0163754
943.355	0.0162992
943.433	0.0163577
943.511	0.0164877
943.590	0.0162400
943.668	0.0162761
943.746	0.0163850
943.824	0.0162766
943.902	0.0162769
943.980	0.0164525
944.058	0.0162982
944.136	0.0162782
944.215	0.0164836
944.293	0.0164349
944.371	0.0163661
944.449	0.0162907
944.527	0.0163770
944.605	0.0164677
944.683	0.0162426
944.761	0.0162769
944.840	0.0163444
944.918	0.0163116
944.996	0.0163136
945.074	0.0163636
945.152	0.0163317
945.230	0.0163795
945.308	0.0163013
945.386	0.0162844
945.465	0.0162911
945.543	0.0162872
945.621	0.0164202
945.699	0.0163152
945.777	0.0162762
945.855	0.0163495
945.933	0.0162901
946.011	0.0163692
946.090	0.0163110
946.168	0.0164454
946.246	0.0164232
946.324	0.0163409
946.402	0.0164604
946.480	0.0165211
946.558	0.0164079
946.636	0.0164100
946.715	0.0165076
946.793	0.0164510
946.871	0.0163310
946.949	0.0165321
947.027	0.0166326
947.105	0.0165197
947.183	0.0164422
947.261	0.0165142
947.340	0.0165582
947.418	0.0164613
947.496	0.0165619
947.574	0.0163776
947.652	0.0166194
947.730	0.0166113
947.808	0.0166860
947.886	0.0165594
947.965	0.0165761
948.043	0.0166304
948.121	0.0166660
948.199	0.0168458
948.277	0.0166528
948.355	0.0167495
948.433	0.0166071
948.511	0.0165439
948.590	0.0166091
948.668	0.0166127
948.746	0.0166373
948.824	0.0165043
948.902	0.0164852
948.980	0.0165730
949.058	0.0164365
949.136	0.0166068
949.215	0.0164632
949.293	0.0163500
949.371	0.0165441
949.449	0.0163655
949.527	0.0164345
949.605	0.0164989
949.683	0.0165383
949.761	0.0163530
949.840	0.0164849
949.918	0.0166434
