06/29/2022	23:23:37	Ver.	4.1	UNKNOWN
Optical Delay	630.002507	Delta X		0.078125	Sweeps	1	Scan Rate	0/0
Coordinates	Axis 1	NaN	Axis 2	NaN	Axis 3	NaN	Axis 4	NaN	Axis 5	NaN	Axis 6	0.000000
TX Power	0.000000	RX Power	0.000000

630.003	0.0155272
630.081	0.0148431
630.159	0.0148737
630.237	0.0147904
630.315	0.0148436
630.393	0.0149018
630.471	0.0151554
630.549	0.0151756
630.628	0.0150616
630.706	0.0149805
630.784	0.0152540
630.862	0.0152391
630.940	0.0151801
631.018	0.0154312
631.096	0.0153385
631.174	0.0153811
631.253	0.0155680
631.331	0.0152713
631.409	0.0154547
631.487	0.0153979
631.565	0.0153991
631.643	0.0153692
631.721	0.0154144
631.799	0.0154469
631.878	0.0154980
631.956	0.0155367
632.034	0.0155620
632.112	0.0154806
632.190	0.0155269
632.268	0.0155080
632.346	0.0155097
632.424	0.0155856
632.503	0.0155990
632.581	0.0155715
632.659	0.0156720
632.737	0.0157142
632.815	0.0158185
632.893	0.0156282
632.971	0.0157765
633.049	0.0157820
633.128	0.0157712
633.206	0.0159193
633.284	0.0159129
633.362	0.0160355
633.440	0.0157920
633.518	0.0160324
633.596	0.0159116
633.674	0.0160323
633.753	0.0160632
633.831	0.0160531
633.909	0.0162067
633.987	0.0160890
634.065	0.0161501
634.143	0.0160148
634.221	0.0161189
634.299	0.0162855
634.378	0.0162035
634.456	0.0160951
634.534	0.0161530
634.612	0.0163127
634.690	0.0163573
634.768	0.0164529
634.846	0.0164490
634.924	0.0164490
635.003	0.0164778
635.081	0.0165680
635.159	0.0164621
635.237	0.0164458
635.315	0.0166496
635.393	0.0166398
635.471	0.0166157
635.549	0.0164587
635.628	0.0163557
635.706	0.0162914
635.784	0.0163767
635.862	0.0165057
635.940	0.0164001
636.018	0.0162491
636.096	0.0163597
636.174	0.0164188
636.253	0.0164581
636.331	0.0163409
636.409	0.0164211
636.487	0.0163776
636.565	0.0163858
636.643	0.0164022
636.721	0.0165999
636.799	0.0165038
636.878	0.0164165
636.956	0.0163783
637.034	0.0166317
637.112	0.0164567
637.190	0.0165369
637.268	0.0162393
637.346	0.0162702
637.424	0.0164393
637.503	0.0163359
637.581	0.0161224
637.659	0.0162778
637.737	0.0164471
637.815	0.0163515
637.893	0.0161135
637.971	0.0162302
638.049	0.0161240
638.128	0.0161991
638.206	0.0161403
638.284	0.0160764
638.362	0.0160411
638.440	0.0161403
638.518	0.0160809
638.596	0.0159864
638.674	0.0157574
638.753	0.0157864
638.831	0.0157492
638.909	0.0156689
638.987	0.0156239
639.065	0.0156936
639.143	0.0155993
639.221	0.0156322
639.299	0.0155725
639.378	0.0155815
639.456	0.0155038
639.534	0.0155598
639.612	0.0154817
639.690	0.0154372
639.768	0.0156210
639.846	0.0156590
639.924	0.0155712
640.003	0.0157545
640.081	0.0156190
640.159	0.0155125
640.237	0.0155750
640.315	0.0155751
640.393	0.0157106
640.471	0.0155785
640.549	0.0154954
640.628	0.0155317
640.706	0.0157973
640.784	0.0156728
640.862	0.0156030
640.940	0.0154697
641.018	0.0156380
641.096	0.0155418
641.174	0.0154559
641.253	0.0154677
641.331	0.0154975
641.409	0.0155923
641.487	0.0156407
641.565	0.0155856
641.643	0.0155839
641.721	0.0155936
641.799	0.0155978
641.878	0.0156973
641.956	0.0156466
642.034	0.0157116
642.112	0.0157584
642.190	0.0157428
642.268	0.0155985
642.346	0.0156672
642.424	0.0156734
642.503	0.0155739
642.581	0.0157673
642.659	0.0157664
642.737	0.0157336
642.815	0.0158215
642.893	0.0159126
642.971	0.0156924
643.049	0.0157501
643.128	0.0157111
643.206	0.0158116
643.284	0.0158338
643.362	0.0156255
643.440	0.0157912
643.518	0.0158897
643.596	0.0158113
643.674	0.0157809
643.753	0.0158666
643.831	0.0159973
643.909	0.0159007
643.987	0.0158315
644.065	0.0159786
644.143	0.0158196
644.221	0.0159867
644.299	0.0160528
644.378	0.0160300
644.456	0.0161481
644.534	0.0161286
644.612	0.0160811
644.690	0.0161976
644.768	0.0160891
644.846	0.0163392
644.924	0.0163307
645.003	0.0162183
645.081	0.0163039
645.159	0.0163555
645.237	0.0163028
645.315	0.0164832
645.393	0.0163657
645.471	0.0163790
645.549	0.0164355
645.628	0.0164532
645.706	0.0164709
645.784	0.0165149
645.862	0.0165869
645.940	0.0166074
646.018	0.0165361
646.096	0.0165563
646.174	0.0165028
646.253	0.0164149
646.331	0.0166941
646.409	0.0164913
646.487	0.0165314
646.565	0.0164725
646.643	0.0164637
646.721	0.0166650
646.799	0.0165093
646.878	0.0164651
646.956	0.0164672
647.034	0.0164451
647.112	0.0166917
647.190	0.0165875
647.268	0.0163308
647.346	0.0163417
647.424	0.0164595
647.503	0.0163796
647.581	0.0162566
647.659	0.0163300
647.737	0.0164639
647.815	0.0164643
647.893	0.0164150
647.971	0.0163644
648.049	0.0162349
648.128	0.0161745
648.206	0.0161655
648.284	0.0164177
648.362	0.0162852
648.440	0.0161931
648.518	0.0161137
648.596	0.0162661
648.674	0.0161890
648.753	0.0160818
648.831	0.0162295
648.909	0.0161403
648.987	0.0160970
649.065	0.0160423
649.143	0.0160831
649.221	0.0161341
649.299	0.0160539
649.378	0.0160314
649.456	0.0162432
649.534	0.0160979
649.612	0.0159782
649.690	0.0159906
649.768	0.0159632
649.846	0.0160738
649.924	0.0160754
650.003	0.0161053
650.081	0.0159157
650.159	0.0160172
650.237	0.0159653
650.315	0.0158985
650.393	0.0158406
650.471	0.0159281
650.549	0.0159751
650.628	0.0159928
650.706	0.0159796
650.784	0.0159290
650.862	0.0160192
650.940	0.0159835
651.018	0.0158419
651.096	0.0160140
651.174	0.0159158
651.253	0.0159912
651.331	0.0159051
651.409	0.0158268
651.487	0.0159109
651.565	0.0158963
651.643	0.0158758
651.721	0.0159148
651.799	0.0160262
651.878	0.0159217
651.956	0.0158474
652.034	0.0160282
652.112	0.0157873
652.190	0.0158463
652.268	0.0159831
652.346	0.0160337
652.424	0.0159074
652.503	0.0158955
652.581	0.0160728
652.659	0.0161546
652.737	0.0161156
652.815	0.0160452
652.893	0.0160992
652.971	0.0161282
653.049	0.0160680
653.128	0.0162489
653.206	0.0162195
653.284	0.0161274
653.362	0.0160902
653.440	0.0160629
653.518	0.0159890
653.596	0.0161315
653.674	0.0161729
653.753	0.0161118
653.831	0.0161906
653.909	0.0160219
653.987	0.0161037
654.065	0.0160357
654.143	0.0160313
654.221	0.0159846
654.299	0.0160870
654.378	0.0161333
654.456	0.0159727
654.534	0.0159273
654.612	0.0159945
654.690	0.0159547
654.768	0.0160001
654.846	0.0159675
654.924	0.0158566
655.003	0.0158867
655.081	0.0157204
655.159	0.0156837
655.237	0.0157724
655.315	0.0156498
655.393	0.0157022
655.471	0.0156789
655.549	0.0157848
655.628	0.0156064
655.706	0.0155666
655.784	0.0155280
655.862	0.0156083
655.940	0.0156545
656.018	0.0155624
656.096	0.0157523
656.174	0.0156121
656.253	0.0155598
656.331	0.0155241
656.409	0.0156944
656.487	0.0155727
656.565	0.0155542
656.643	0.0157333
656.721	0.0157603
656.799	0.0155615
656.878	0.0154707
656.956	0.0155789
657.034	0.0156741
657.112	0.0154665
657.190	0.0155755
657.268	0.0155566
657.346	0.0154771
657.424	0.0155315
657.503	0.0156295
657.581	0.0155734
657.659	0.0155090
657.737	0.0155140
657.815	0.0157061
657.893	0.0155135
657.971	0.0156174
658.049	0.0156212
658.128	0.0155305
658.206	0.0154891
658.284	0.0155737
658.362	0.0155817
658.440	0.0157532
658.518	0.0155958
658.596	0.0155647
658.674	0.0156197
658.753	0.0155666
658.831	0.0155911
658.909	0.0155817
658.987	0.0154106
659.065	0.0155750
659.143	0.0155727
659.221	0.0155392
659.299	0.0155671
659.378	0.0154231
659.456	0.0154630
659.534	0.0154743
659.612	0.0155702
659.690	0.0157060
659.768	0.0156409
659.846	0.0157065
659.924	0.0158012
660.003	0.0158566
660.081	0.0158033
660.159	0.0158459
660.237	0.0158466
660.315	0.0159608
660.393	0.0158080
660.471	0.0158169
660.549	0.0159204
660.628	0.0160228
660.706	0.0160513
660.784	0.0160609
660.862	0.0158820
660.940	0.0161039
661.018	0.0160214
661.096	0.0161111
661.174	0.0160277
661.253	0.0159731
661.331	0.0160538
661.409	0.0161108
661.487	0.0160393
661.565	0.0159708
661.643	0.0160922
661.721	0.0160402
661.799	0.0160533
661.878	0.0160323
661.956	0.0161259
662.034	0.0161105
662.112	0.0162064
662.190	0.0161741
662.268	0.0161060
662.346	0.0160945
662.424	0.0161165
662.503	0.0160397
662.581	0.0161271
662.659	0.0161831
662.737	0.0161134
662.815	0.0161390
662.893	0.0162001
662.971	0.0161874
663.049	0.0160137
663.128	0.0159658
663.206	0.0160696
663.284	0.0161069
663.362	0.0159811
663.440	0.0159731
663.518	0.0159886
663.596	0.0161347
663.674	0.0160590
663.753	0.0159927
663.831	0.0161676
663.909	0.0160905
663.987	0.0161573
664.065	0.0160723
664.143	0.0161031
664.221	0.0160648
664.299	0.0160255
664.378	0.0159856
664.456	0.0160132
664.534	0.0159316
664.612	0.0160875
664.690	0.0160575
664.768	0.0159501
664.846	0.0159901
664.924	0.0159509
665.003	0.0160365
665.081	0.0160141
665.159	0.0159119
665.237	0.0159428
665.315	0.0160355
665.393	0.0159716
665.471	0.0159666
665.549	0.0159787
665.628	0.0161102
665.706	0.0159406
665.784	0.0157574
665.862	0.0159949
665.940	0.0159068
666.018	0.0158688
666.096	0.0159203
666.174	0.0158922
666.253	0.0158994
666.331	0.0159315
666.409	0.0159626
666.487	0.0159603
666.565	0.0160222
666.643	0.0158591
666.721	0.0159145
666.799	0.0159409
666.878	0.0158635
666.956	0.0158662
667.034	0.0160169
667.112	0.0158370
667.190	0.0159608
667.268	0.0160246
667.346	0.0158978
667.424	0.0158469
667.503	0.0158692
667.581	0.0158870
667.659	0.0161043
667.737	0.0158793
667.815	0.0159737
667.893	0.0159001
667.971	0.0159444
668.049	0.0159230
668.128	0.0157796
668.206	0.0160050
668.284	0.0159252
668.362	0.0159586
668.440	0.0158581
668.518	0.0158414
668.596	0.0159158
668.674	0.0160261
668.753	0.0161107
668.831	0.0160114
668.909	0.0161275
668.987	0.0159949
669.065	0.0159832
669.143	0.0159129
669.221	0.0160783
669.299	0.0160287
669.378	0.0159815
669.456	0.0159650
669.534	0.0162381
669.612	0.0160891
669.690	0.0159302
669.768	0.0160823
669.846	0.0160329
669.924	0.0160152
670.003	0.0161941
670.081	0.0161841
670.159	0.0160746
670.237	0.0161817
670.315	0.0163051
670.393	0.0161457
670.471	0.0161571
670.549	0.0162617
670.628	0.0161739
670.706	0.0161383
670.784	0.0163115
670.862	0.0162103
670.940	0.0162583
671.018	0.0161709
671.096	0.0162774
671.174	0.0164146
671.253	0.0163365
671.331	0.0161607
671.409	0.0163043
671.487	0.0163759
671.565	0.0162399
671.643	0.0162327
671.721	0.0162069
671.799	0.0162254
671.878	0.0162996
671.956	0.0162378
672.034	0.0163843
672.112	0.0164243
672.190	0.0164360
672.268	0.0163053
672.346	0.0163876
672.424	0.0163975
672.503	0.0164124
672.581	0.0163859
672.659	0.0164609
672.737	0.0163393
672.815	0.0163654
672.893	0.0164221
672.971	0.0164529
673.049	0.0164252
673.128	0.0163631
673.206	0.0163316
673.284	0.0163638
673.362	0.0164251
673.440	0.0163859
673.518	0.0163376
673.596	0.0162591
673.674	0.0162486
673.753	0.0162189
673.831	0.0162866
673.909	0.0163331
673.987	0.0162705
674.065	0.0162527
674.143	0.0162901
674.221	0.0162379
674.299	0.0162148
674.378	0.0162259
674.456	0.0161510
674.534	0.0162107
674.612	0.0162682
674.690	0.0163516
674.768	0.0163175
674.846	0.0161652
674.924	0.0163019
675.003	0.0162662
675.081	0.0163171
675.159	0.0160789
675.237	0.0161717
675.315	0.0161486
675.393	0.0161238
675.471	0.0160502
675.549	0.0160196
675.628	0.0162931
675.706	0.0160798
675.784	0.0160275
675.862	0.0159502
675.940	0.0159599
676.018	0.0159573
676.096	0.0159599
676.174	0.0158821
676.253	0.0158304
676.331	0.0158264
676.409	0.0157056
676.487	0.0157713
676.565	0.0155444
676.643	0.0154672
676.721	0.0155812
676.799	0.0155193
676.878	0.0154876
676.956	0.0154312
677.034	0.0153767
677.112	0.0154229
677.190	0.0155677
677.268	0.0154942
677.346	0.0155265
677.424	0.0156155
677.503	0.0156527
677.581	0.0157688
677.659	0.0158937
677.737	0.0159166
677.815	0.0158871
677.893	0.0160924
677.971	0.0160648
678.049	0.0159229
678.128	0.0161176
678.206	0.0160011
678.284	0.0159885
678.362	0.0159112
678.440	0.0160503
678.518	0.0160517
678.596	0.0156959
678.674	0.0157254
678.753	0.0157986
678.831	0.0155964
678.909	0.0156861
678.987	0.0155428
679.065	0.0156449
679.143	0.0154168
679.221	0.0154565
679.299	0.0154942
679.378	0.0153768
679.456	0.0155074
679.534	0.0155542
679.612	0.0154924
679.690	0.0154549
679.768	0.0156498
679.846	0.0155441
679.924	0.0154736
680.003	0.0153774
680.081	0.0155053
680.159	0.0154749
680.237	0.0154543
680.315	0.0155146
680.393	0.0154935
680.471	0.0154412
680.549	0.0154931
680.628	0.0153997
680.706	0.0153378
680.784	0.0153448
680.862	0.0155158
680.940	0.0155421
681.018	0.0155394
681.096	0.0155162
681.174	0.0155804
681.253	0.0156383
681.331	0.0157155
681.409	0.0157416
681.487	0.0158258
681.565	0.0160356
681.643	0.0161009
681.721	0.0160963
681.799	0.0161971
681.878	0.0162518
681.956	0.0162349
682.034	0.0164133
682.112	0.0165440
682.190	0.0166056
682.268	0.0164771
682.346	0.0166154
682.424	0.0166525
682.503	0.0166465
682.581	0.0167222
682.659	0.0166280
682.737	0.0166212
682.815	0.0166445
682.893	0.0166836
682.971	0.0165724
683.049	0.0165035
683.128	0.0165411
683.206	0.0166342
683.284	0.0164459
683.362	0.0165979
683.440	0.0163865
683.518	0.0164691
683.596	0.0164170
683.674	0.0162983
683.753	0.0163434
683.831	0.0162409
683.909	0.0161055
683.987	0.0160611
684.065	0.0161593
684.143	0.0162337
684.221	0.0160295
684.299	0.0159827
684.378	0.0160735
684.456	0.0160627
684.534	0.0161201
684.612	0.0161346
684.690	0.0160246
684.768	0.0161163
684.846	0.0160326
684.924	0.0160315
685.003	0.0160540
685.081	0.0160681
685.159	0.0161725
685.237	0.0161897
685.315	0.0163576
685.393	0.0162962
685.471	0.0162572
685.549	0.0162344
685.628	0.0161954
685.706	0.0163743
685.784	0.0163476
685.862	0.0164564
685.940	0.0164298
686.018	0.0164976
686.096	0.0162800
686.174	0.0164478
686.253	0.0162986
686.331	0.0162725
686.409	0.0162383
686.487	0.0163982
686.565	0.0163161
686.643	0.0161946
686.721	0.0162502
686.799	0.0162981
686.878	0.0162101
686.956	0.0162218
687.034	0.0161607
687.112	0.0160756
687.190	0.0161954
687.268	0.0160558
687.346	0.0160529
687.424	0.0160905
687.503	0.0157977
687.581	0.0158411
687.659	0.0158265
687.737	0.0157225
687.815	0.0157686
687.893	0.0157615
687.971	0.0157013
688.049	0.0155202
688.128	0.0156665
688.206	0.0154511
688.284	0.0154624
688.362	0.0155583
688.440	0.0156171
688.518	0.0153470
688.596	0.0153864
688.674	0.0154395
688.753	0.0154726
688.831	0.0153806
688.909	0.0154113
688.987	0.0153496
689.065	0.0153150
689.143	0.0154179
689.221	0.0155231
689.299	0.0154134
689.378	0.0154562
689.456	0.0154743
689.534	0.0155052
689.612	0.0153951
689.690	0.0153579
689.768	0.0155105
689.846	0.0154429
689.924	0.0156380
690.003	0.0155648
690.081	0.0155641
690.159	0.0156071
690.237	0.0157137
690.315	0.0155354
690.393	0.0157121
690.471	0.0157230
690.549	0.0156899
690.628	0.0157422
690.706	0.0157359
690.784	0.0158551
690.862	0.0158289
690.940	0.0156653
691.018	0.0157761
691.096	0.0158435
691.174	0.0158691
691.253	0.0159699
691.331	0.0158442
691.409	0.0159355
691.487	0.0159163
691.565	0.0160202
691.643	0.0158942
691.721	0.0159523
691.799	0.0161626
691.878	0.0161945
691.956	0.0162428
692.034	0.0161410
692.112	0.0160849
692.190	0.0161518
692.268	0.0161524
692.346	0.0162659
692.424	0.0161641
692.503	0.0162485
692.581	0.0161942
692.659	0.0163566
692.737	0.0161676
692.815	0.0161368
692.893	0.0162576
692.971	0.0162975
693.049	0.0162389
693.128	0.0163384
693.206	0.0163378
693.284	0.0164165
693.362	0.0162789
693.440	0.0163278
693.518	0.0163982
693.596	0.0163645
693.674	0.0163828
693.753	0.0164355
693.831	0.0164291
693.909	0.0164809
693.987	0.0164426
694.065	0.0163929
694.143	0.0164534
694.221	0.0164150
694.299	0.0164378
694.378	0.0163898
694.456	0.0162693
694.534	0.0163111
694.612	0.0163944
694.690	0.0163287
694.768	0.0161991
694.846	0.0161460
694.924	0.0161653
695.003	0.0161878
695.081	0.0161890
695.159	0.0160570
695.237	0.0160285
695.315	0.0159917
695.393	0.0159557
695.471	0.0159998
695.549	0.0159241
695.628	0.0158907
695.706	0.0158460
695.784	0.0158321
695.862	0.0159056
695.940	0.0158432
696.018	0.0158515
696.096	0.0159431
696.174	0.0158468
696.253	0.0158345
696.331	0.0157434
696.409	0.0159048
696.487	0.0157146
696.565	0.0158308
696.643	0.0158432
696.721	0.0157656
696.799	0.0158261
696.878	0.0159082
696.956	0.0157396
697.034	0.0159269
697.112	0.0157775
697.190	0.0157319
697.268	0.0159082
697.346	0.0159123
697.424	0.0160109
697.503	0.0158778
697.581	0.0159542
697.659	0.0158016
697.737	0.0158611
697.815	0.0160567
697.893	0.0160139
697.971	0.0160755
698.049	0.0161900
698.128	0.0161680
698.206	0.0160881
698.284	0.0160687
698.362	0.0161906
698.440	0.0162727
698.518	0.0163333
698.596	0.0162252
698.674	0.0161913
698.753	0.0162209
698.831	0.0162187
698.909	0.0162643
698.987	0.0162659
699.065	0.0162688
699.143	0.0162390
699.221	0.0161728
699.299	0.0162731
699.378	0.0162357
699.456	0.0159644
699.534	0.0160815
699.612	0.0160308
699.690	0.0159360
699.768	0.0158289
699.846	0.0159858
699.924	0.0157495
700.003	0.0158081
700.081	0.0157219
700.159	0.0158160
700.237	0.0157571
700.315	0.0157630
700.393	0.0158083
700.471	0.0156142
700.549	0.0157203
700.628	0.0157738
700.706	0.0158803
700.784	0.0159730
700.862	0.0158975
700.940	0.0158731
701.018	0.0159008
701.096	0.0159950
701.174	0.0159999
701.253	0.0161360
701.331	0.0159658
701.409	0.0159396
701.487	0.0159057
701.565	0.0158733
701.643	0.0157188
701.721	0.0157714
701.799	0.0157434
701.878	0.0156524
701.956	0.0155584
702.034	0.0156361
702.112	0.0155569
702.190	0.0156657
702.268	0.0154645
702.346	0.0154436
702.424	0.0155117
702.503	0.0155929
702.581	0.0154287
702.659	0.0154020
702.737	0.0155273
702.815	0.0154695
702.893	0.0154410
702.971	0.0154078
703.049	0.0155749
703.128	0.0154588
703.206	0.0155530
703.284	0.0154655
703.362	0.0154878
703.440	0.0155792
703.518	0.0156993
703.596	0.0156588
703.674	0.0158222
703.753	0.0156488
703.831	0.0155045
703.909	0.0157777
703.987	0.0157751
704.065	0.0157165
704.143	0.0157481
704.221	0.0157043
704.299	0.0156826
704.378	0.0158379
704.456	0.0156763
704.534	0.0157330
704.612	0.0157208
704.690	0.0159328
704.768	0.0158333
704.846	0.0158212
704.924	0.0158353
705.003	0.0158555
705.081	0.0160723
705.159	0.0161137
705.237	0.0160722
705.315	0.0160637
705.393	0.0161434
705.471	0.0163133
705.549	0.0160832
705.628	0.0160424
705.706	0.0161507
705.784	0.0162630
705.862	0.0161140
705.940	0.0160125
706.018	0.0160028
706.096	0.0160011
706.174	0.0160150
706.253	0.0159562
706.331	0.0159265
706.409	0.0159774
706.487	0.0159580
706.565	0.0159086
706.643	0.0158900
706.721	0.0159862
706.799	0.0160315
706.878	0.0160834
706.956	0.0161185
707.034	0.0161360
707.112	0.0161485
707.190	0.0160728
707.268	0.0159661
707.346	0.0161192
707.424	0.0163029
707.503	0.0162325
707.581	0.0162073
707.659	0.0162392
707.737	0.0161583
707.815	0.0161954
707.893	0.0161777
707.971	0.0162975
708.049	0.0162272
708.128	0.0161496
708.206	0.0163126
708.284	0.0162206
708.362	0.0161977
708.440	0.0163074
708.518	0.0161991
708.596	0.0162160
708.674	0.0162265
708.753	0.0163089
708.831	0.0162498
708.909	0.0162132
708.987	0.0164099
709.065	0.0164140
709.143	0.0162984
709.221	0.0162328
709.299	0.0162591
709.378	0.0161951
709.456	0.0161525
709.534	0.0161433
709.612	0.0161284
709.690	0.0161077
709.768	0.0162038
709.846	0.0161727
709.924	0.0161635
710.003	0.0161559
710.081	0.0161669
710.159	0.0162408
710.237	0.0161711
710.315	0.0161159
710.393	0.0162039
710.471	0.0162868
710.549	0.0162110
710.628	0.0162646
710.706	0.0161826
710.784	0.0162492
710.862	0.0162896
710.940	0.0161791
711.018	0.0161120
711.096	0.0162539
711.174	0.0161922
711.253	0.0161865
711.331	0.0159828
711.409	0.0162300
711.487	0.0163705
711.565	0.0161247
711.643	0.0161535
711.721	0.0160203
711.799	0.0161737
711.878	0.0159827
711.956	0.0159493
712.034	0.0159432
712.112	0.0157697
712.190	0.0157753
712.268	0.0156843
712.346	0.0155737
712.424	0.0156709
712.503	0.0155479
712.581	0.0154369
712.659	0.0154422
712.737	0.0153433
712.815	0.0153199
712.893	0.0153204
712.971	0.0152755
713.049	0.0152888
713.128	0.0152615
713.206	0.0152536
713.284	0.0152316
713.362	0.0150104
713.440	0.0151351
713.518	0.0153078
713.596	0.0153156
713.674	0.0151681
713.753	0.0152595
713.831	0.0152818
713.909	0.0151939
713.987	0.0152121
714.065	0.0153125
714.143	0.0152319
714.221	0.0152633
714.299	0.0153467
714.378	0.0153922
714.456	0.0153400
714.534	0.0154382
714.612	0.0155078
714.690	0.0153994
714.768	0.0154751
714.846	0.0154989
714.924	0.0156612
715.003	0.0156576
715.081	0.0157432
715.159	0.0158851
715.237	0.0158395
715.315	0.0159229
715.393	0.0158731
715.471	0.0160151
715.549	0.0160012
715.628	0.0160043
715.706	0.0159406
715.784	0.0160742
715.862	0.0162057
715.940	0.0160272
716.018	0.0161398
716.096	0.0159941
716.174	0.0160175
716.253	0.0159445
716.331	0.0159505
716.409	0.0158722
716.487	0.0159270
716.565	0.0158571
716.643	0.0158110
716.721	0.0158154
716.799	0.0157498
716.878	0.0158379
716.956	0.0157852
717.034	0.0158354
717.112	0.0158462
717.190	0.0158823
717.268	0.0157512
717.346	0.0156989
717.424	0.0157253
717.503	0.0158339
717.581	0.0158558
717.659	0.0159055
717.737	0.0158893
717.815	0.0159435
717.893	0.0158781
717.971	0.0160298
718.049	0.0160207
718.128	0.0162750
718.206	0.0162406
718.284	0.0162044
718.362	0.0161551
718.440	0.0163081
718.518	0.0161432
718.596	0.0163912
718.674	0.0161992
718.753	0.0162395
718.831	0.0162209
718.909	0.0162277
718.987	0.0162085
719.065	0.0162080
719.143	0.0160896
719.221	0.0160965
719.299	0.0158664
719.378	0.0160930
719.456	0.0160788
719.534	0.0157624
719.612	0.0158160
719.690	0.0156889
719.768	0.0157417
719.846	0.0158782
719.924	0.0156492
720.003	0.0157651
720.081	0.0157061
720.159	0.0157637
720.237	0.0157021
720.315	0.0155689
720.393	0.0156213
720.471	0.0158226
720.549	0.0156088
720.628	0.0154856
720.706	0.0156335
720.784	0.0157404
720.862	0.0157394
720.940	0.0159386
721.018	0.0158331
721.096	0.0157323
721.174	0.0158142
721.253	0.0159167
721.331	0.0159409
721.409	0.0159313
721.487	0.0158734
721.565	0.0159911
721.643	0.0159373
721.721	0.0160069
721.799	0.0160329
721.878	0.0160322
721.956	0.0161069
722.034	0.0162150
722.112	0.0163219
722.190	0.0161497
722.268	0.0160544
722.346	0.0160271
722.424	0.0159459
722.503	0.0161126
722.581	0.0161855
722.659	0.0161248
722.737	0.0159938
722.815	0.0159234
722.893	0.0157259
722.971	0.0157178
723.049	0.0157714
723.128	0.0156584
723.206	0.0157175
723.284	0.0156081
723.362	0.0155064
723.440	0.0154615
723.518	0.0153069
723.596	0.0153566
723.674	0.0153255
723.753	0.0152878
723.831	0.0152747
723.909	0.0153893
723.987	0.0153545
724.065	0.0155441
724.143	0.0155019
724.221	0.0153874
724.299	0.0154705
724.378	0.0155720
724.456	0.0155789
724.534	0.0156695
724.612	0.0157488
724.690	0.0158240
724.768	0.0157917
724.846	0.0158779
724.924	0.0158578
725.003	0.0158931
725.081	0.0159111
725.159	0.0160565
725.237	0.0159429
725.315	0.0159037
725.393	0.0159540
725.471	0.0159892
725.549	0.0159908
725.628	0.0159081
725.706	0.0158612
725.784	0.0158818
725.862	0.0160157
725.940	0.0159441
726.018	0.0158506
726.096	0.0160457
726.174	0.0159746
726.253	0.0159953
726.331	0.0160881
726.409	0.0161529
726.487	0.0159865
726.565	0.0160783
726.643	0.0161004
726.721	0.0160616
726.799	0.0159579
726.878	0.0159028
726.956	0.0159433
727.034	0.0158918
727.112	0.0157885
727.190	0.0159060
727.268	0.0157693
727.346	0.0157166
727.424	0.0156297
727.503	0.0155408
727.581	0.0155306
727.659	0.0153561
727.737	0.0153288
727.815	0.0152944
727.893	0.0154076
727.971	0.0153359
728.049	0.0154795
728.128	0.0155022
728.206	0.0153217
728.284	0.0155627
728.362	0.0154507
728.440	0.0155389
728.518	0.0156166
728.596	0.0157863
728.674	0.0157641
728.753	0.0158333
728.831	0.0158629
728.909	0.0159841
728.987	0.0161067
729.065	0.0160384
729.143	0.0161268
729.221	0.0161008
729.299	0.0161681
729.378	0.0162095
729.456	0.0161489
729.534	0.0161858
729.612	0.0162669
729.690	0.0161508
729.768	0.0162587
729.846	0.0164115
729.924	0.0162823
730.003	0.0162772
730.081	0.0163576
730.159	0.0163372
730.237	0.0164313
730.315	0.0164143
730.393	0.0164279
730.471	0.0163387
730.549	0.0162324
730.628	0.0162370
730.706	0.0162314
730.784	0.0161507
730.862	0.0162141
730.940	0.0159381
731.018	0.0159641
731.096	0.0158749
731.174	0.0157536
731.253	0.0156236
731.331	0.0156370
731.409	0.0155576
731.487	0.0153697
731.565	0.0153035
731.643	0.0153767
731.721	0.0152528
731.799	0.0150961
731.878	0.0151073
731.956	0.0152247
732.034	0.0151927
732.112	0.0152515
732.190	0.0152229
732.268	0.0152309
732.346	0.0155063
732.424	0.0154845
732.503	0.0155816
732.581	0.0155543
732.659	0.0158100
732.737	0.0159005
732.815	0.0158529
732.893	0.0161762
732.971	0.0161597
733.049	0.0161801
733.128	0.0163780
733.206	0.0164200
733.284	0.0165893
733.362	0.0166052
733.440	0.0167059
733.518	0.0167962
733.596	0.0167737
733.674	0.0168388
733.753	0.0168962
733.831	0.0167381
733.909	0.0167773
733.987	0.0168360
734.065	0.0167974
734.143	0.0166634
734.221	0.0166084
734.299	0.0166354
734.378	0.0164630
734.456	0.0164220
734.534	0.0161711
734.612	0.0161356
734.690	0.0160763
734.768	0.0159768
734.846	0.0158362
734.924	0.0157571
735.003	0.0155788
735.081	0.0156683
735.159	0.0155273
735.237	0.0154599
735.315	0.0153771
735.393	0.0153880
735.471	0.0152183
735.549	0.0152862
735.628	0.0152796
735.706	0.0154105
735.784	0.0154037
735.862	0.0154633
735.940	0.0154484
736.018	0.0155952
736.096	0.0154918
736.174	0.0155782
736.253	0.0156739
736.331	0.0158372
736.409	0.0158615
736.487	0.0157520
736.565	0.0158970
736.643	0.0160241
736.721	0.0159830
736.799	0.0159972
736.878	0.0160172
736.956	0.0160241
737.034	0.0160680
737.112	0.0160477
737.190	0.0159116
737.268	0.0160970
737.346	0.0161047
737.424	0.0160589
737.503	0.0158652
737.581	0.0159222
737.659	0.0160113
737.737	0.0160583
737.815	0.0159612
737.893	0.0158102
737.971	0.0157794
738.049	0.0159783
738.128	0.0157814
738.206	0.0157910
738.284	0.0157689
738.362	0.0156743
738.440	0.0157480
738.518	0.0157870
738.596	0.0155865
738.674	0.0156009
738.753	0.0155856
738.831	0.0155600
738.909	0.0154872
738.987	0.0155800
739.065	0.0155132
739.143	0.0155929
739.221	0.0157476
739.299	0.0155518
739.378	0.0157144
739.456	0.0158479
739.534	0.0158315
739.612	0.0157023
739.690	0.0159170
739.768	0.0158055
739.846	0.0158401
739.924	0.0160232
740.003	0.0159195
740.081	0.0159151
740.159	0.0159906
740.237	0.0159740
740.315	0.0159716
740.393	0.0159770
740.471	0.0159563
740.549	0.0161225
740.628	0.0160348
740.706	0.0159283
740.784	0.0161211
740.862	0.0160126
740.940	0.0160338
741.018	0.0161790
741.096	0.0161107
741.174	0.0160167
741.253	0.0160453
741.331	0.0159765
741.409	0.0159987
741.487	0.0161465
741.565	0.0161065
741.643	0.0161375
741.721	0.0160976
741.799	0.0159298
741.878	0.0162169
741.956	0.0160249
742.034	0.0159925
742.112	0.0160771
742.190	0.0159646
742.268	0.0158253
742.346	0.0157360
742.424	0.0156711
742.503	0.0157705
742.581	0.0157544
742.659	0.0155607
742.737	0.0156608
742.815	0.0155409
742.893	0.0155318
742.971	0.0155392
743.049	0.0153815
743.128	0.0153533
743.206	0.0155190
743.284	0.0156130
743.362	0.0153281
743.440	0.0154821
743.518	0.0154687
743.596	0.0156724
743.674	0.0157103
743.753	0.0156596
743.831	0.0159265
743.909	0.0160736
743.987	0.0159771
744.065	0.0160217
744.143	0.0160007
744.221	0.0161281
744.299	0.0161899
744.378	0.0161031
744.456	0.0162889
744.534	0.0161462
744.612	0.0162220
744.690	0.0161007
744.768	0.0160746
744.846	0.0160429
744.924	0.0158617
745.003	0.0158640
745.081	0.0159137
745.159	0.0157270
745.237	0.0159274
745.315	0.0158006
745.393	0.0157330
745.471	0.0157439
745.549	0.0157406
745.628	0.0158606
745.706	0.0158241
745.784	0.0159835
745.862	0.0158388
745.940	0.0160076
746.018	0.0160158
746.096	0.0160120
746.174	0.0160536
746.253	0.0160797
746.331	0.0161634
746.409	0.0162372
746.487	0.0161158
746.565	0.0159587
746.643	0.0161340
746.721	0.0162251
746.799	0.0159766
746.878	0.0160303
746.956	0.0161101
747.034	0.0161209
747.112	0.0160021
747.190	0.0160389
747.268	0.0160857
747.346	0.0161031
747.424	0.0160904
747.503	0.0159773
747.581	0.0158109
747.659	0.0159697
747.737	0.0161012
747.815	0.0158986
747.893	0.0159319
747.971	0.0159531
748.049	0.0158099
748.128	0.0158160
748.206	0.0156352
748.284	0.0158399
748.362	0.0157595
748.440	0.0157509
748.518	0.0156047
748.596	0.0156281
748.674	0.0157779
748.753	0.0158024
748.831	0.0157011
748.909	0.0156879
748.987	0.0156859
749.065	0.0157170
749.143	0.0157965
749.221	0.0156982
749.299	0.0158246
749.378	0.0159063
749.456	0.0158816
749.534	0.0159798
749.612	0.0159924
749.690	0.0160960
749.768	0.0161784
749.846	0.0161179
749.924	0.0162460
750.003	0.0163573
750.081	0.0164407
750.159	0.0164004
750.237	0.0165699
750.315	0.0165388
750.393	0.0165376
750.471	0.0165670
750.549	0.0165266
750.628	0.0167686
750.706	0.0166392
750.784	0.0167009
750.862	0.0167651
750.940	0.0166791
751.018	0.0166904
751.096	0.0165136
751.174	0.0164055
751.253	0.0165228
751.331	0.0165339
751.409	0.0163231
751.487	0.0163644
751.565	0.0161908
751.643	0.0161430
751.721	0.0160121
751.799	0.0157851
751.878	0.0159583
751.956	0.0159966
752.034	0.0158911
752.112	0.0159012
752.190	0.0159232
752.268	0.0159522
752.346	0.0158995
752.424	0.0159069
752.503	0.0161674
752.581	0.0160008
752.659	0.0160284
752.737	0.0161070
752.815	0.0161011
752.893	0.0160412
752.971	0.0162027
753.049	0.0161903
753.128	0.0162416
753.206	0.0160548
753.284	0.0160527
753.362	0.0160463
753.440	0.0159675
753.518	0.0158647
753.596	0.0157140
753.674	0.0159292
753.753	0.0157367
753.831	0.0155566
753.909	0.0156735
753.987	0.0156248
754.065	0.0155685
754.143	0.0156059
754.221	0.0155258
754.299	0.0155301
754.378	0.0156490
754.456	0.0155812
754.534	0.0156382
754.612	0.0156065
754.690	0.0156876
754.768	0.0157442
754.846	0.0157755
754.924	0.0158043
755.003	0.0159513
755.081	0.0160583
755.159	0.0159695
755.237	0.0160294
755.315	0.0161198
755.393	0.0160110
755.471	0.0161320
755.549	0.0160953
755.628	0.0162897
755.706	0.0163048
755.784	0.0161405
755.862	0.0161785
755.940	0.0161897
756.018	0.0162437
756.096	0.0162969
756.174	0.0163022
756.253	0.0162530
756.331	0.0162366
756.409	0.0161362
756.487	0.0162191
756.565	0.0162753
756.643	0.0162813
756.721	0.0160825
756.799	0.0162237
756.878	0.0162054
756.956	0.0162077
757.034	0.0161881
757.112	0.0160777
757.190	0.0161768
757.268	0.0162068
757.346	0.0160634
757.424	0.0160508
757.503	0.0161128
757.581	0.0160567
757.659	0.0162185
757.737	0.0161175
757.815	0.0160278
757.893	0.0160641
757.971	0.0159747
758.049	0.0158725
758.128	0.0160050
758.206	0.0160600
758.284	0.0159472
758.362	0.0160183
758.440	0.0160370
758.518	0.0160172
758.596	0.0160501
758.674	0.0159859
758.753	0.0160904
758.831	0.0160078
758.909	0.0158894
758.987	0.0161667
759.065	0.0159575
759.143	0.0160777
759.221	0.0160166
759.299	0.0160394
759.378	0.0159879
759.456	0.0161399
759.534	0.0161849
759.612	0.0163008
759.690	0.0160416
759.768	0.0160316
759.846	0.0162222
759.924	0.0162513
760.003	0.0162286
760.081	0.0162598
760.159	0.0162642
760.237	0.0162244
760.315	0.0163546
760.393	0.0165906
760.471	0.0165900
760.549	0.0164244
760.628	0.0164085
760.706	0.0165151
760.784	0.0165469
760.862	0.0164658
760.940	0.0165508
761.018	0.0164978
761.096	0.0164635
761.174	0.0163612
761.253	0.0162446
761.331	0.0164733
761.409	0.0163012
761.487	0.0162749
761.565	0.0162849
761.643	0.0162913
761.721	0.0163297
761.799	0.0161691
761.878	0.0163104
761.956	0.0162467
762.034	0.0163048
762.112	0.0162450
762.190	0.0163303
762.268	0.0163247
762.346	0.0163033
762.424	0.0161440
762.503	0.0162016
762.581	0.0160203
762.659	0.0161438
762.737	0.0161586
762.815	0.0159335
762.893	0.0157741
762.971	0.0159895
763.049	0.0158125
763.128	0.0157240
763.206	0.0156488
763.284	0.0155441
763.362	0.0155996
763.440	0.0153130
763.518	0.0155498
763.596	0.0155327
763.674	0.0153383
763.753	0.0153947
763.831	0.0153680
763.909	0.0153560
763.987	0.0153109
764.065	0.0152969
764.143	0.0153647
764.221	0.0153708
764.299	0.0154233
764.378	0.0154022
764.456	0.0154653
764.534	0.0154421
764.612	0.0155466
764.690	0.0155923
764.768	0.0155897
764.846	0.0156838
764.924	0.0156585
765.003	0.0155244
765.081	0.0157243
765.159	0.0156493
765.237	0.0157320
765.315	0.0157121
765.393	0.0155885
765.471	0.0157979
765.549	0.0157056
765.628	0.0155818
765.706	0.0156197
765.784	0.0158200
765.862	0.0156596
765.940	0.0157607
766.018	0.0158289
766.096	0.0157986
766.174	0.0159140
766.253	0.0158206
766.331	0.0158491
766.409	0.0159904
766.487	0.0158992
766.565	0.0160419
766.643	0.0159047
766.721	0.0161148
766.799	0.0161970
766.878	0.0160077
766.956	0.0159731
767.034	0.0161633
767.112	0.0161724
767.190	0.0162354
767.268	0.0162341
767.346	0.0162479
767.424	0.0160513
767.503	0.0161958
767.581	0.0161478
767.659	0.0160616
767.737	0.0161170
767.815	0.0159675
767.893	0.0160600
767.971	0.0160584
768.049	0.0160274
768.128	0.0158693
768.206	0.0159801
768.284	0.0160258
768.362	0.0158652
768.440	0.0158813
768.518	0.0159846
768.596	0.0159048
768.674	0.0160656
768.753	0.0159325
768.831	0.0159245
768.909	0.0159255
768.987	0.0160213
769.065	0.0158617
769.143	0.0160253
769.221	0.0159779
769.299	0.0160302
769.378	0.0158797
769.456	0.0159547
769.534	0.0159697
769.612	0.0160439
769.690	0.0158973
769.768	0.0160071
769.846	0.0160081
769.924	0.0160303
770.003	0.0159996
770.081	0.0160175
770.159	0.0160682
770.237	0.0160223
770.315	0.0160242
770.393	0.0161105
770.471	0.0162329
770.549	0.0163333
770.628	0.0162914
770.706	0.0163927
770.784	0.0165414
770.862	0.0164447
770.940	0.0164870
771.018	0.0166500
771.096	0.0167496
771.174	0.0166839
771.253	0.0168169
771.331	0.0167916
771.409	0.0166769
771.487	0.0166683
771.565	0.0165923
771.643	0.0165372
771.721	0.0163474
771.799	0.0163546
771.878	0.0162563
771.956	0.0163704
772.034	0.0162316
772.112	0.0161584
772.190	0.0161360
772.268	0.0161506
772.346	0.0161476
772.424	0.0160558
772.503	0.0161144
772.581	0.0161176
772.659	0.0161595
772.737	0.0162878
772.815	0.0160990
772.893	0.0163088
772.971	0.0162151
773.049	0.0160890
773.128	0.0160951
773.206	0.0160052
773.284	0.0160838
773.362	0.0158582
773.440	0.0158614
773.518	0.0158975
773.596	0.0157500
773.674	0.0157944
773.753	0.0158441
773.831	0.0157352
773.909	0.0156912
773.987	0.0157748
774.065	0.0157111
774.143	0.0158157
774.221	0.0158817
774.299	0.0159319
774.378	0.0159849
774.456	0.0160083
774.534	0.0161429
774.612	0.0162407
774.690	0.0162726
774.768	0.0162999
774.846	0.0163677
774.924	0.0164928
775.003	0.0163612
775.081	0.0163955
775.159	0.0163946
775.237	0.0164026
775.315	0.0163747
775.393	0.0163314
775.471	0.0163784
775.549	0.0163126
775.628	0.0161279
775.706	0.0163341
775.784	0.0162637
775.862	0.0162193
775.940	0.0161712
776.018	0.0161948
776.096	0.0160683
776.174	0.0160496
776.253	0.0159988
776.331	0.0158772
776.409	0.0159392
776.487	0.0159930
776.565	0.0159178
776.643	0.0157952
776.721	0.0158274
776.799	0.0158380
776.878	0.0158353
776.956	0.0157877
777.034	0.0156118
777.112	0.0156474
777.190	0.0155444
777.268	0.0155574
777.346	0.0153542
777.424	0.0154081
777.503	0.0154504
777.581	0.0155603
777.659	0.0154321
777.737	0.0155278
777.815	0.0155289
777.893	0.0155169
777.971	0.0153827
778.049	0.0155930
778.128	0.0155251
778.206	0.0156084
778.284	0.0155607
778.362	0.0157029
778.440	0.0157262
778.518	0.0156944
778.596	0.0159251
778.674	0.0159273
778.753	0.0160912
778.831	0.0160754
778.909	0.0163303
778.987	0.0161561
779.065	0.0162872
779.143	0.0164027
779.221	0.0164471
779.299	0.0164194
779.378	0.0166142
779.456	0.0165588
779.534	0.0165472
779.612	0.0165417
779.690	0.0165775
779.768	0.0163512
779.846	0.0164037
779.924	0.0165860
780.003	0.0162988
780.081	0.0163483
780.159	0.0163085
780.237	0.0161404
780.315	0.0162738
780.393	0.0161726
780.471	0.0162321
780.549	0.0161819
780.628	0.0160616
780.706	0.0161501
780.784	0.0161951
780.862	0.0158879
780.940	0.0160002
781.018	0.0159473
781.096	0.0159372
781.174	0.0158652
781.253	0.0158652
781.331	0.0160149
781.409	0.0159418
781.487	0.0159821
781.565	0.0157588
781.643	0.0158418
781.721	0.0156016
781.799	0.0157983
781.878	0.0158927
781.956	0.0156950
782.034	0.0158571
782.112	0.0158852
782.190	0.0157488
782.268	0.0158269
782.346	0.0158096
782.424	0.0158242
782.503	0.0158305
782.581	0.0160179
782.659	0.0161858
782.737	0.0159952
782.815	0.0160365
782.893	0.0160100
782.971	0.0160254
783.049	0.0161598
783.128	0.0161701
783.206	0.0160135
783.284	0.0160172
783.362	0.0160014
783.440	0.0161122
783.518	0.0161198
783.596	0.0160867
783.674	0.0159534
783.753	0.0159974
783.831	0.0160378
783.909	0.0160040
783.987	0.0160634
784.065	0.0159836
784.143	0.0160471
784.221	0.0161076
784.299	0.0159014
784.378	0.0160257
784.456	0.0160796
784.534	0.0159599
784.612	0.0160681
784.690	0.0160226
784.768	0.0159969
784.846	0.0161208
784.924	0.0161156
785.003	0.0161924
785.081	0.0161980
785.159	0.0162148
785.237	0.0161742
785.315	0.0161375
785.393	0.0163802
785.471	0.0165276
785.549	0.0163659
785.628	0.0163308
785.706	0.0163757
785.784	0.0163686
785.862	0.0165112
785.940	0.0164296
786.018	0.0164790
786.096	0.0164059
786.174	0.0164169
786.253	0.0163550
786.331	0.0163503
786.409	0.0162967
786.487	0.0162238
786.565	0.0161936
786.643	0.0161884
786.721	0.0160326
786.799	0.0159229
786.878	0.0159044
786.956	0.0158715
787.034	0.0156738
787.112	0.0157009
787.190	0.0156569
787.268	0.0155637
787.346	0.0154847
787.424	0.0154047
787.503	0.0152767
787.581	0.0153178
787.659	0.0153445
787.737	0.0152649
787.815	0.0152489
787.893	0.0152285
787.971	0.0153687
788.049	0.0152182
788.128	0.0152135
788.206	0.0153757
788.284	0.0154186
788.362	0.0153584
788.440	0.0154798
788.518	0.0155528
788.596	0.0156570
788.674	0.0156262
788.753	0.0155379
788.831	0.0156547
788.909	0.0158717
788.987	0.0157573
789.065	0.0158240
789.143	0.0158846
789.221	0.0160127
789.299	0.0160653
789.378	0.0160193
789.456	0.0159930
789.534	0.0160228
789.612	0.0158946
789.690	0.0161484
789.768	0.0159905
789.846	0.0158746
789.924	0.0159374
790.003	0.0158500
790.081	0.0157468
790.159	0.0159048
790.237	0.0157669
790.315	0.0157047
790.393	0.0158970
790.471	0.0157294
790.549	0.0155481
790.628	0.0157089
790.706	0.0156570
790.784	0.0155309
790.862	0.0155799
790.940	0.0155527
791.018	0.0156206
791.096	0.0155781
791.174	0.0154806
791.253	0.0156831
791.331	0.0154572
791.409	0.0155947
791.487	0.0156138
791.565	0.0157834
791.643	0.0156345
791.721	0.0156845
791.799	0.0158236
791.878	0.0158533
791.956	0.0157727
792.034	0.0157806
792.112	0.0156995
792.190	0.0156137
792.268	0.0156808
792.346	0.0158967
792.424	0.0158447
792.503	0.0157126
792.581	0.0157903
792.659	0.0156951
792.737	0.0158186
792.815	0.0157133
792.893	0.0156104
792.971	0.0156606
793.049	0.0156249
793.128	0.0157459
793.206	0.0156828
793.284	0.0155790
793.362	0.0154807
793.440	0.0156464
793.518	0.0156593
793.596	0.0154283
793.674	0.0154041
793.753	0.0154182
793.831	0.0154440
793.909	0.0154968
793.987	0.0154359
794.065	0.0154741
794.143	0.0155928
794.221	0.0155685
794.299	0.0156280
794.378	0.0156604
794.456	0.0158651
794.534	0.0160018
794.612	0.0158887
794.690	0.0158949
794.768	0.0161958
794.846	0.0160397
794.924	0.0161545
795.003	0.0161536
795.081	0.0161456
795.159	0.0163739
795.237	0.0161336
795.315	0.0162498
795.393	0.0162601
795.471	0.0163109
795.549	0.0162350
795.628	0.0162391
795.706	0.0162756
795.784	0.0163111
795.862	0.0163033
795.940	0.0162885
796.018	0.0162894
796.096	0.0161996
796.174	0.0161765
796.253	0.0162749
796.331	0.0162416
796.409	0.0160772
796.487	0.0162055
796.565	0.0163779
796.643	0.0162840
796.721	0.0162843
796.799	0.0162386
796.878	0.0162646
796.956	0.0163301
797.034	0.0162417
797.112	0.0161011
797.190	0.0162109
797.268	0.0161892
797.346	0.0160368
797.424	0.0160060
797.503	0.0160912
797.581	0.0159587
797.659	0.0159026
797.737	0.0159321
797.815	0.0159870
797.893	0.0157885
797.971	0.0159692
798.049	0.0158847
798.128	0.0158817
798.206	0.0157886
798.284	0.0158882
798.362	0.0157865
798.440	0.0157836
798.518	0.0158553
798.596	0.0158405
798.674	0.0158070
798.753	0.0157580
798.831	0.0160093
798.909	0.0160966
798.987	0.0160493
799.065	0.0160092
799.143	0.0159535
799.221	0.0160460
799.299	0.0160623
799.378	0.0160179
799.456	0.0160261
799.534	0.0159927
799.612	0.0159399
799.690	0.0160297
799.768	0.0160192
799.846	0.0159146
799.924	0.0159303
800.003	0.0159867
800.081	0.0158931
800.159	0.0160197
800.237	0.0160818
800.315	0.0159834
800.393	0.0159873
800.471	0.0159779
800.549	0.0160172
800.628	0.0160967
800.706	0.0161979
800.784	0.0161356
800.862	0.0162067
800.940	0.0162160
801.018	0.0162681
801.096	0.0162228
801.174	0.0162778
801.253	0.0163042
801.331	0.0162132
801.409	0.0163142
801.487	0.0163534
801.565	0.0161554
801.643	0.0163208
801.721	0.0163907
801.799	0.0162784
801.878	0.0161159
801.956	0.0161789
802.034	0.0161026
802.112	0.0161624
802.190	0.0160650
802.268	0.0160231
802.346	0.0160272
802.424	0.0161795
802.503	0.0161070
802.581	0.0160846
802.659	0.0159140
802.737	0.0160101
802.815	0.0159502
802.893	0.0160468
802.971	0.0160413
803.049	0.0160808
803.128	0.0160779
803.206	0.0159304
803.284	0.0160356
803.362	0.0158875
803.440	0.0159414
803.518	0.0157640
803.596	0.0159156
803.674	0.0160464
803.753	0.0159081
803.831	0.0159307
803.909	0.0159946
803.987	0.0159361
804.065	0.0158617
804.143	0.0158453
804.221	0.0157828
804.299	0.0157404
804.378	0.0156485
804.456	0.0156294
804.534	0.0157209
804.612	0.0157869
804.690	0.0157391
804.768	0.0156153
804.846	0.0157649
804.924	0.0156726
805.003	0.0157864
805.081	0.0157642
805.159	0.0156986
805.237	0.0158049
805.315	0.0156692
805.393	0.0157245
805.471	0.0156506
805.549	0.0155666
805.628	0.0156048
805.706	0.0154963
805.784	0.0154990
805.862	0.0155827
805.940	0.0155136
806.018	0.0155138
806.096	0.0154649
806.174	0.0154362
806.253	0.0156316
806.331	0.0154955
806.409	0.0154294
806.487	0.0154894
806.565	0.0154558
806.643	0.0154807
806.721	0.0155433
806.799	0.0155131
806.878	0.0156223
806.956	0.0154812
807.034	0.0153538
807.112	0.0154522
807.190	0.0155058
807.268	0.0155247
807.346	0.0156011
807.424	0.0154970
807.503	0.0153860
807.581	0.0154899
807.659	0.0154860
807.737	0.0156153
807.815	0.0154922
807.893	0.0154404
807.971	0.0154131
808.049	0.0155678
808.128	0.0155012
808.206	0.0157204
808.284	0.0154977
808.362	0.0156136
808.440	0.0156251
808.518	0.0157552
808.596	0.0158286
808.674	0.0157864
808.753	0.0158329
808.831	0.0157474
808.909	0.0158660
808.987	0.0158432
809.065	0.0159740
809.143	0.0159995
809.221	0.0160454
809.299	0.0161346
809.378	0.0159871
809.456	0.0161508
809.534	0.0162907
809.612	0.0159795
809.690	0.0161890
809.768	0.0161240
809.846	0.0160960
809.924	0.0161535
810.003	0.0160882
810.081	0.0161272
810.159	0.0160867
810.237	0.0161736
810.315	0.0159846
810.393	0.0161012
810.471	0.0160585
810.549	0.0160110
810.628	0.0159733
810.706	0.0161430
810.784	0.0160886
810.862	0.0161111
810.940	0.0162344
811.018	0.0162460
811.096	0.0161804
811.174	0.0162742
811.253	0.0162141
811.331	0.0161383
811.409	0.0160629
811.487	0.0160336
811.565	0.0161245
811.643	0.0161257
811.721	0.0160460
811.799	0.0159747
811.878	0.0160329
811.956	0.0159698
812.034	0.0159475
812.112	0.0159251
812.190	0.0159025
812.268	0.0159628
812.346	0.0157779
812.424	0.0157639
812.503	0.0157014
812.581	0.0156603
812.659	0.0157316
812.737	0.0156495
812.815	0.0155975
812.893	0.0155694
812.971	0.0158310
813.049	0.0157184
813.128	0.0157494
813.206	0.0157837
813.284	0.0159076
813.362	0.0158736
813.440	0.0157870
813.518	0.0157814
813.596	0.0158435
813.674	0.0156383
813.753	0.0157942
813.831	0.0158320
813.909	0.0158289
813.987	0.0156604
814.065	0.0158036
814.143	0.0158739
814.221	0.0158295
814.299	0.0157574
814.378	0.0155820
814.456	0.0157119
814.534	0.0157568
814.612	0.0157733
814.690	0.0158743
814.768	0.0157735
814.846	0.0157990
814.924	0.0157352
815.003	0.0157598
815.081	0.0158321
815.159	0.0157671
815.237	0.0156805
815.315	0.0158273
815.393	0.0158727
815.471	0.0159306
815.549	0.0158836
815.628	0.0157457
815.706	0.0160126
815.784	0.0158347
815.862	0.0158153
815.940	0.0159835
816.018	0.0159676
816.096	0.0158116
816.174	0.0158152
816.253	0.0159558
816.331	0.0158991
816.409	0.0159919
816.487	0.0159425
816.565	0.0159827
816.643	0.0159993
816.721	0.0161852
816.799	0.0160757
816.878	0.0161696
816.956	0.0161498
817.034	0.0161030
817.112	0.0162138
817.190	0.0162351
817.268	0.0161781
817.346	0.0162519
817.424	0.0161752
817.503	0.0162921
817.581	0.0162618
817.659	0.0161716
817.737	0.0163981
817.815	0.0162492
817.893	0.0162521
817.971	0.0162901
818.049	0.0164917
818.128	0.0164168
818.206	0.0163388
818.284	0.0163269
818.362	0.0161699
818.440	0.0162306
818.518	0.0161795
818.596	0.0161976
818.674	0.0161833
818.753	0.0161370
818.831	0.0160313
818.909	0.0161099
818.987	0.0160520
819.065	0.0161694
819.143	0.0159438
819.221	0.0159528
819.299	0.0160293
819.378	0.0159426
819.456	0.0157756
819.534	0.0158860
819.612	0.0158340
819.690	0.0157491
819.768	0.0157722
819.846	0.0159952
819.924	0.0158316
820.003	0.0158458
820.081	0.0156561
820.159	0.0157816
820.237	0.0159520
820.315	0.0157533
820.393	0.0158924
820.471	0.0159307
820.549	0.0160096
820.628	0.0158291
820.706	0.0158260
820.784	0.0157674
820.862	0.0158408
820.940	0.0156647
821.018	0.0157236
821.096	0.0156638
821.174	0.0156108
821.253	0.0157319
821.331	0.0155392
821.409	0.0155743
821.487	0.0157639
821.565	0.0155273
821.643	0.0155135
821.721	0.0154060
821.799	0.0154745
821.878	0.0154254
821.956	0.0154871
822.034	0.0155029
822.112	0.0155308
822.190	0.0155097
822.268	0.0156697
822.346	0.0155009
822.424	0.0155989
822.503	0.0156956
822.581	0.0157920
822.659	0.0158099
822.737	0.0158882
822.815	0.0159030
822.893	0.0160689
822.971	0.0159449
823.049	0.0161777
823.128	0.0162198
823.206	0.0162725
823.284	0.0162740
823.362	0.0162830
823.440	0.0164285
823.518	0.0164710
823.596	0.0163928
823.674	0.0164306
823.753	0.0163642
823.831	0.0165481
823.909	0.0165051
823.987	0.0163623
824.065	0.0162325
824.143	0.0163518
824.221	0.0163573
824.299	0.0163728
824.378	0.0162189
824.456	0.0161583
824.534	0.0163638
824.612	0.0162370
824.690	0.0161301
824.768	0.0161410
824.846	0.0161839
824.924	0.0160364
825.003	0.0159869
825.081	0.0159727
825.159	0.0160023
825.237	0.0158982
825.315	0.0160252
825.393	0.0160740
825.471	0.0160708
825.549	0.0159487
825.628	0.0158216
825.706	0.0159534
825.784	0.0160341
825.862	0.0161071
825.940	0.0162190
826.018	0.0160526
826.096	0.0160934
826.174	0.0161309
826.253	0.0160781
826.331	0.0160549
826.409	0.0160938
826.487	0.0159998
826.565	0.0161031
826.643	0.0161449
826.721	0.0159953
826.799	0.0159028
826.878	0.0158932
826.956	0.0160780
827.034	0.0159864
827.112	0.0159328
827.190	0.0159619
827.268	0.0158274
827.346	0.0158975
827.424	0.0157993
827.503	0.0158877
827.581	0.0158392
827.659	0.0157643
827.737	0.0158151
827.815	0.0159603
827.893	0.0157575
827.971	0.0157293
828.049	0.0157832
828.128	0.0157632
828.206	0.0158058
828.284	0.0157265
828.362	0.0158671
828.440	0.0156535
828.518	0.0157055
828.596	0.0158112
828.674	0.0156427
828.753	0.0155930
828.831	0.0156719
828.909	0.0156282
828.987	0.0156161
829.065	0.0156175
829.143	0.0155505
829.221	0.0156966
829.299	0.0157325
829.378	0.0156249
829.456	0.0156387
829.534	0.0156995
829.612	0.0156720
829.690	0.0158694
829.768	0.0158196
829.846	0.0156228
829.924	0.0159015
830.003	0.0157806
830.081	0.0159282
830.159	0.0157750
830.237	0.0157947
830.315	0.0157222
830.393	0.0155516
830.471	0.0157503
830.549	0.0157227
830.628	0.0158960
830.706	0.0155754
830.784	0.0156921
830.862	0.0156421
830.940	0.0156060
831.018	0.0156686
831.096	0.0156064
831.174	0.0157137
831.253	0.0155939
831.331	0.0155921
831.409	0.0156928
831.487	0.0156804
831.565	0.0156801
831.643	0.0157310
831.721	0.0157324
831.799	0.0157214
831.878	0.0156998
831.956	0.0157124
832.034	0.0157733
832.112	0.0157964
832.190	0.0157823
832.268	0.0157091
832.346	0.0157190
832.424	0.0157191
832.503	0.0157064
832.581	0.0157552
832.659	0.0157478
832.737	0.0157555
832.815	0.0159297
832.893	0.0157955
832.971	0.0158196
833.049	0.0158918
833.128	0.0157860
833.206	0.0159238
833.284	0.0158588
833.362	0.0159106
833.440	0.0159032
833.518	0.0159477
833.596	0.0160336
833.674	0.0161230
833.753	0.0161167
833.831	0.0161621
833.909	0.0160716
833.987	0.0160695
834.065	0.0161676
834.143	0.0161546
834.221	0.0162334
834.299	0.0162337
834.378	0.0161576
834.456	0.0161086
834.534	0.0161687
834.612	0.0160771
834.690	0.0162537
834.768	0.0162691
834.846	0.0161926
834.924	0.0162086
835.003	0.0162471
835.081	0.0161658
835.159	0.0163242
835.237	0.0160805
835.315	0.0161036
835.393	0.0161005
835.471	0.0160205
835.549	0.0161483
835.628	0.0160612
835.706	0.0159251
835.784	0.0160999
835.862	0.0160479
835.940	0.0162016
836.018	0.0160886
836.096	0.0161185
836.174	0.0162244
836.253	0.0162157
836.331	0.0161374
836.409	0.0161668
836.487	0.0163406
836.565	0.0164051
836.643	0.0163879
836.721	0.0164503
836.799	0.0163297
836.878	0.0163007
836.956	0.0165378
837.034	0.0164545
837.112	0.0165173
837.190	0.0164779
837.268	0.0163042
837.346	0.0164912
837.424	0.0165429
837.503	0.0163985
837.581	0.0164292
837.659	0.0164186
837.737	0.0163735
837.815	0.0163754
837.893	0.0163251
837.971	0.0164728
838.049	0.0163249
838.128	0.0161703
838.206	0.0163310
838.284	0.0162368
838.362	0.0160996
838.440	0.0161410
838.518	0.0161639
838.596	0.0160309
838.674	0.0160287
838.753	0.0160058
838.831	0.0160195
838.909	0.0161353
838.987	0.0160082
839.065	0.0160168
839.143	0.0158816
839.221	0.0159061
839.299	0.0158500
839.378	0.0157976
839.456	0.0158978
839.534	0.0158484
839.612	0.0157161
839.690	0.0157951
839.768	0.0159037
839.846	0.0158338
839.924	0.0158694
840.003	0.0158122
840.081	0.0157059
840.159	0.0158199
840.237	0.0158440
840.315	0.0157743
840.393	0.0158793
840.471	0.0158395
840.549	0.0159365
840.628	0.0158234
840.706	0.0158521
840.784	0.0158889
840.862	0.0159198
840.940	0.0160026
841.018	0.0159940
841.096	0.0158521
841.174	0.0157938
841.253	0.0158170
841.331	0.0158148
841.409	0.0158418
841.487	0.0160863
841.565	0.0159370
841.643	0.0159470
841.721	0.0159664
841.799	0.0158831
841.878	0.0158822
841.956	0.0159220
842.034	0.0158888
842.112	0.0159248
842.190	0.0159265
842.268	0.0159557
842.346	0.0158860
842.424	0.0158224
842.503	0.0159035
842.581	0.0158756
842.659	0.0158014
842.737	0.0157977
842.815	0.0158656
842.893	0.0157904
842.971	0.0157691
843.049	0.0157056
843.128	0.0156741
843.206	0.0157341
843.284	0.0157123
843.362	0.0156427
843.440	0.0157637
843.518	0.0157523
843.596	0.0157439
843.674	0.0157555
843.753	0.0156707
843.831	0.0156247
843.909	0.0156852
843.987	0.0158237
844.065	0.0157175
844.143	0.0155532
844.221	0.0158914
844.299	0.0156500
844.378	0.0158383
844.456	0.0158772
844.534	0.0157566
844.612	0.0156934
844.690	0.0156911
844.768	0.0157170
844.846	0.0157936
844.924	0.0156310
845.003	0.0158300
845.081	0.0158277
845.159	0.0156862
845.237	0.0156995
845.315	0.0155553
845.393	0.0155832
845.471	0.0156015
845.549	0.0157144
845.628	0.0156531
845.706	0.0157066
845.784	0.0156004
845.862	0.0155589
845.940	0.0156409
846.018	0.0156726
846.096	0.0155523
846.174	0.0156707
846.253	0.0156106
846.331	0.0156641
846.409	0.0156953
846.487	0.0157275
846.565	0.0157261
846.643	0.0156400
846.721	0.0157080
846.799	0.0157955
846.878	0.0159011
846.956	0.0158868
847.034	0.0158038
847.112	0.0158691
847.190	0.0159116
847.268	0.0159076
847.346	0.0158337
847.424	0.0159785
847.503	0.0160962
847.581	0.0160054
847.659	0.0160480
847.737	0.0161221
847.815	0.0160771
847.893	0.0161212
847.971	0.0160538
848.049	0.0160927
848.128	0.0160934
848.206	0.0160918
848.284	0.0161290
848.362	0.0161945
848.440	0.0159234
848.518	0.0159320
848.596	0.0158475
848.674	0.0159628
848.753	0.0159672
848.831	0.0160130
848.909	0.0159576
848.987	0.0160950
849.065	0.0159585
849.143	0.0160245
849.221	0.0161480
849.299	0.0160386
849.378	0.0158262
849.456	0.0161252
849.534	0.0161310
849.612	0.0160403
849.690	0.0162788
849.768	0.0161448
849.846	0.0161152
849.924	0.0161026
850.003	0.0161608
850.081	0.0160844
850.159	0.0161880
850.237	0.0160757
850.315	0.0160070
850.393	0.0160601
850.471	0.0159910
850.549	0.0159798
850.628	0.0160099
850.706	0.0160558
850.784	0.0158004
850.862	0.0159628
850.940	0.0159488
851.018	0.0159468
851.096	0.0159407
851.174	0.0159890
851.253	0.0160632
851.331	0.0160085
851.409	0.0159979
851.487	0.0160614
851.565	0.0160553
851.643	0.0159511
851.721	0.0159449
851.799	0.0160668
851.878	0.0160505
851.956	0.0159765
852.034	0.0160311
852.112	0.0161734
852.190	0.0159225
852.268	0.0161800
852.346	0.0161227
852.424	0.0158690
852.503	0.0159219
852.581	0.0160336
852.659	0.0160556
852.737	0.0159719
852.815	0.0160810
852.893	0.0159399
852.971	0.0160175
853.049	0.0159998
853.128	0.0159935
853.206	0.0160374
853.284	0.0160024
853.362	0.0161996
853.440	0.0161574
853.518	0.0160239
853.596	0.0160390
853.674	0.0161211
853.753	0.0160730
853.831	0.0160649
853.909	0.0160982
853.987	0.0161969
854.065	0.0159116
854.143	0.0160234
854.221	0.0161114
854.299	0.0161054
854.378	0.0160504
854.456	0.0159437
854.534	0.0160300
854.612	0.0160322
854.690	0.0160492
854.768	0.0159668
854.846	0.0159195
854.924	0.0158657
855.003	0.0159007
855.081	0.0159019
855.159	0.0158953
855.237	0.0160561
855.315	0.0159203
855.393	0.0157482
855.471	0.0158157
855.549	0.0157748
855.628	0.0159887
855.706	0.0159378
855.784	0.0158493
855.862	0.0159048
855.940	0.0158807
856.018	0.0158276
856.096	0.0159836
856.174	0.0158383
856.253	0.0158433
856.331	0.0158799
856.409	0.0158980
856.487	0.0158209
856.565	0.0158573
856.643	0.0158654
856.721	0.0158452
856.799	0.0158391
856.878	0.0158202
856.956	0.0159072
857.034	0.0158722
857.112	0.0159344
857.190	0.0159431
857.268	0.0160177
857.346	0.0159009
857.424	0.0159090
857.503	0.0158513
857.581	0.0160011
857.659	0.0160425
857.737	0.0159917
857.815	0.0158484
857.893	0.0159513
857.971	0.0160015
858.049	0.0160141
858.128	0.0159959
858.206	0.0160310
858.284	0.0158654
858.362	0.0159946
858.440	0.0159179
858.518	0.0159427
858.596	0.0159010
858.674	0.0158126
858.753	0.0158869
858.831	0.0159547
858.909	0.0156231
858.987	0.0157832
859.065	0.0158385
859.143	0.0157873
859.221	0.0158141
859.299	0.0156477
859.378	0.0157721
859.456	0.0156574
859.534	0.0155960
859.612	0.0156674
859.690	0.0155860
859.768	0.0156332
859.846	0.0155840
859.924	0.0156550
860.003	0.0156864
860.081	0.0157172
860.159	0.0157016
860.237	0.0156837
860.315	0.0156349
860.393	0.0157200
860.471	0.0159342
860.549	0.0158371
860.628	0.0157636
860.706	0.0159397
860.784	0.0159845
860.862	0.0158838
860.940	0.0161133
861.018	0.0160313
861.096	0.0160777
861.174	0.0163143
861.253	0.0163594
861.331	0.0161999
861.409	0.0161748
861.487	0.0162215
861.565	0.0163535
861.643	0.0163191
861.721	0.0164676
861.799	0.0165641
861.878	0.0164103
861.956	0.0163818
862.034	0.0163000
862.112	0.0165552
862.190	0.0165562
862.268	0.0163899
862.346	0.0163794
862.424	0.0164273
862.503	0.0164493
862.581	0.0163885
862.659	0.0164538
862.737	0.0165858
862.815	0.0164586
862.893	0.0164456
862.971	0.0162323
863.049	0.0165012
863.128	0.0164421
863.206	0.0165342
863.284	0.0164371
863.362	0.0163186
863.440	0.0163840
863.518	0.0162684
863.596	0.0163531
863.674	0.0164532
863.753	0.0163359
863.831	0.0162885
863.909	0.0161340
863.987	0.0161902
864.065	0.0162891
864.143	0.0162067
864.221	0.0160868
864.299	0.0159438
864.378	0.0159973
864.456	0.0160777
864.534	0.0160748
864.612	0.0161518
864.690	0.0160162
864.768	0.0160205
864.846	0.0158691
864.924	0.0160545
865.003	0.0159882
865.081	0.0161142
865.159	0.0159507
865.237	0.0158754
865.315	0.0159192
865.393	0.0158948
865.471	0.0159917
865.549	0.0159197
865.628	0.0158898
865.706	0.0159288
865.784	0.0159980
865.862	0.0158793
865.940	0.0158720
866.018	0.0158183
866.096	0.0158554
866.174	0.0159844
866.253	0.0157577
866.331	0.0157633
866.409	0.0158442
866.487	0.0158370
866.565	0.0158163
866.643	0.0156965
866.721	0.0156929
866.799	0.0156808
866.878	0.0157882
866.956	0.0157557
867.034	0.0157661
867.112	0.0157898
867.190	0.0159343
867.268	0.0156334
867.346	0.0159113
867.424	0.0157210
867.503	0.0158778
867.581	0.0159262
867.659	0.0158549
867.737	0.0159854
867.815	0.0161190
867.893	0.0159773
867.971	0.0159452
868.049	0.0160403
868.128	0.0161104
868.206	0.0161891
868.284	0.0162471
868.362	0.0160828
868.440	0.0163263
868.518	0.0163996
868.596	0.0163010
868.674	0.0163760
868.753	0.0163141
868.831	0.0162285
868.909	0.0163059
868.987	0.0161864
869.065	0.0161514
869.143	0.0161115
869.221	0.0159724
869.299	0.0161089
869.378	0.0159793
869.456	0.0158067
869.534	0.0158224
869.612	0.0158408
869.690	0.0158710
869.768	0.0157671
869.846	0.0157960
869.924	0.0156598
870.003	0.0156542
870.081	0.0157520
870.159	0.0156411
870.237	0.0156541
870.315	0.0156489
870.393	0.0156015
870.471	0.0156402
870.549	0.0155383
870.628	0.0156326
870.706	0.0156249
870.784	0.0155791
870.862	0.0155466
870.940	0.0154446
871.018	0.0154248
871.096	0.0153714
871.174	0.0154507
871.253	0.0154381
871.331	0.0154141
871.409	0.0155659
871.487	0.0154712
871.565	0.0154462
871.643	0.0155106
871.721	0.0154951
871.799	0.0157045
871.878	0.0156306
871.956	0.0156435
872.034	0.0156284
872.112	0.0156135
872.190	0.0157571
872.268	0.0157654
872.346	0.0156989
872.424	0.0157482
872.503	0.0157434
872.581	0.0159039
872.659	0.0158943
872.737	0.0158652
872.815	0.0159702
872.893	0.0159183
872.971	0.0158932
873.049	0.0160172
873.128	0.0160162
873.206	0.0159124
873.284	0.0159423
873.362	0.0160087
873.440	0.0159521
873.518	0.0160427
873.596	0.0159950
873.674	0.0159325
873.753	0.0158389
873.831	0.0158994
873.909	0.0157654
873.987	0.0159293
874.065	0.0158866
874.143	0.0159242
874.221	0.0159267
874.299	0.0158620
874.378	0.0158961
874.456	0.0160104
874.534	0.0160277
874.612	0.0160068
874.690	0.0160913
874.768	0.0161094
874.846	0.0162126
874.924	0.0163297
875.003	0.0162492
875.081	0.0163363
875.159	0.0161586
875.237	0.0163390
875.315	0.0165272
875.393	0.0165475
875.471	0.0164709
875.549	0.0166211
875.628	0.0165604
875.706	0.0166555
875.784	0.0166123
875.862	0.0168780
875.940	0.0166991
876.018	0.0168046
876.096	0.0168050
876.174	0.0168365
876.253	0.0169193
876.331	0.0169087
876.409	0.0168948
876.487	0.0168732
876.565	0.0168997
876.643	0.0168975
876.721	0.0167514
876.799	0.0169643
876.878	0.0166562
876.956	0.0167256
877.034	0.0167637
877.112	0.0167396
877.190	0.0163850
877.268	0.0164796
877.346	0.0163754
877.424	0.0161450
877.503	0.0163205
877.581	0.0161000
877.659	0.0160520
877.737	0.0160085
877.815	0.0158997
877.893	0.0157556
877.971	0.0157244
878.049	0.0155926
878.128	0.0155376
878.206	0.0154493
878.284	0.0153089
878.362	0.0152060
878.440	0.0152818
878.518	0.0152827
878.596	0.0151354
878.674	0.0152161
878.753	0.0151283
878.831	0.0150881
878.909	0.0150903
878.987	0.0152345
879.065	0.0150443
879.143	0.0150714
879.221	0.0150065
879.299	0.0151359
879.378	0.0150795
879.456	0.0151244
879.534	0.0151878
879.612	0.0153434
879.690	0.0152805
879.768	0.0152968
879.846	0.0154230
879.924	0.0153096
880.003	0.0154837
880.081	0.0153899
880.159	0.0154086
880.237	0.0154873
880.315	0.0155200
880.393	0.0154799
880.471	0.0156087
880.549	0.0154321
880.628	0.0156501
880.706	0.0157323
880.784	0.0156735
880.862	0.0157487
880.940	0.0157223
881.018	0.0158820
881.096	0.0158273
881.174	0.0159923
881.253	0.0158662
881.331	0.0159445
881.409	0.0159389
881.487	0.0160479
881.565	0.0160606
881.643	0.0161095
881.721	0.0160907
881.799	0.0161465
881.878	0.0161002
881.956	0.0160609
882.034	0.0160272
882.112	0.0161775
882.190	0.0161996
882.268	0.0160763
882.346	0.0161033
882.424	0.0160928
882.503	0.0161658
882.581	0.0160732
882.659	0.0159850
882.737	0.0161639
882.815	0.0160899
882.893	0.0161697
882.971	0.0160472
883.049	0.0160934
883.128	0.0161529
883.206	0.0160426
883.284	0.0161299
883.362	0.0161452
883.440	0.0161464
883.518	0.0161459
883.596	0.0162121
883.674	0.0161624
883.753	0.0160528
883.831	0.0160306
883.909	0.0160279
883.987	0.0162826
884.065	0.0162005
884.143	0.0162009
884.221	0.0162336
884.299	0.0163995
884.378	0.0161687
884.456	0.0161288
884.534	0.0162239
884.612	0.0160741
884.690	0.0161183
884.768	0.0162363
884.846	0.0161442
884.924	0.0160873
885.003	0.0161674
885.081	0.0162155
885.159	0.0160998
885.237	0.0161098
885.315	0.0161032
885.393	0.0160668
885.471	0.0160976
885.549	0.0160635
885.628	0.0160188
885.706	0.0161713
885.784	0.0160535
885.862	0.0161513
885.940	0.0160619
886.018	0.0160191
886.096	0.0160604
886.174	0.0161176
886.253	0.0158773
886.331	0.0160294
886.409	0.0160502
886.487	0.0159748
886.565	0.0160122
886.643	0.0158822
886.721	0.0158585
886.799	0.0158009
886.878	0.0159171
886.956	0.0157280
887.034	0.0157708
887.112	0.0158781
887.190	0.0158489
887.268	0.0157495
887.346	0.0158858
887.424	0.0158765
887.503	0.0158929
887.581	0.0159406
887.659	0.0158798
887.737	0.0159990
887.815	0.0159643
887.893	0.0159872
887.971	0.0159445
888.049	0.0161624
888.128	0.0160906
888.206	0.0160319
888.284	0.0161343
888.362	0.0160375
888.440	0.0161036
888.518	0.0161060
888.596	0.0159020
888.674	0.0158925
888.753	0.0159216
888.831	0.0158471
888.909	0.0158894
888.987	0.0157591
889.065	0.0157384
889.143	0.0157684
889.221	0.0157658
889.299	0.0156479
889.378	0.0156859
889.456	0.0156343
889.534	0.0156262
889.612	0.0155473
889.690	0.0155521
889.768	0.0155235
889.846	0.0155456
889.924	0.0157031
890.003	0.0156056
890.081	0.0156931
890.159	0.0158477
890.237	0.0158979
890.315	0.0156995
890.393	0.0157053
890.471	0.0158106
890.549	0.0157867
890.628	0.0158036
890.706	0.0156873
890.784	0.0157577
890.862	0.0157523
890.940	0.0160175
891.018	0.0157420
891.096	0.0158562
891.174	0.0158086
891.253	0.0157015
891.331	0.0160011
891.409	0.0158788
891.487	0.0158700
891.565	0.0160986
891.643	0.0161338
891.721	0.0159500
891.799	0.0160214
891.878	0.0159981
891.956	0.0160908
892.034	0.0160966
892.112	0.0162505
892.190	0.0163216
892.268	0.0162617
892.346	0.0161427
892.424	0.0161102
892.503	0.0162525
892.581	0.0161441
892.659	0.0162301
892.737	0.0161433
892.815	0.0161137
892.893	0.0161518
892.971	0.0161512
893.049	0.0161528
893.128	0.0162029
893.206	0.0160940
893.284	0.0158958
893.362	0.0160197
893.440	0.0160400
893.518	0.0159959
893.596	0.0161612
893.674	0.0159743
893.753	0.0159108
893.831	0.0160796
893.909	0.0161915
893.987	0.0160994
894.065	0.0161986
894.143	0.0161171
894.221	0.0161311
894.299	0.0162746
894.378	0.0163329
894.456	0.0161632
894.534	0.0161950
894.612	0.0161843
894.690	0.0162631
894.768	0.0162653
894.846	0.0162492
894.924	0.0163058
895.003	0.0162260
895.081	0.0162724
895.159	0.0161683
895.237	0.0161411
895.315	0.0160915
895.393	0.0161089
895.471	0.0162215
895.549	0.0159073
895.628	0.0159844
895.706	0.0162149
895.784	0.0159247
895.862	0.0158580
895.940	0.0160069
896.018	0.0160405
896.096	0.0158304
896.174	0.0159211
896.253	0.0158633
896.331	0.0158537
896.409	0.0156992
896.487	0.0157422
896.565	0.0159174
896.643	0.0157603
896.721	0.0158102
896.799	0.0158931
896.878	0.0158542
896.956	0.0159007
897.034	0.0158575
897.112	0.0158086
897.190	0.0158449
897.268	0.0158511
897.346	0.0158688
897.424	0.0158469
897.503	0.0159201
897.581	0.0158786
897.659	0.0159777
897.737	0.0158606
897.815	0.0158484
897.893	0.0159087
897.971	0.0158405
898.049	0.0158615
898.128	0.0158762
898.206	0.0159377
898.284	0.0160187
898.362	0.0158836
898.440	0.0159766
898.518	0.0158455
898.596	0.0158948
898.674	0.0159592
898.753	0.0159795
898.831	0.0160197
898.909	0.0158897
898.987	0.0159356
899.065	0.0160320
899.143	0.0160572
899.221	0.0158493
899.299	0.0160290
899.378	0.0159571
899.456	0.0161825
899.534	0.0162446
899.612	0.0161299
899.690	0.0162801
899.768	0.0162209
899.846	0.0161378
899.924	0.0164148
900.003	0.0162618
900.081	0.0162388
900.159	0.0163058
900.237	0.0163565
900.315	0.0163436
900.393	0.0163389
900.471	0.0163195
900.549	0.0164716
900.628	0.0163206
900.706	0.0164373
900.784	0.0163083
900.862	0.0163655
900.940	0.0164555
901.018	0.0162825
901.096	0.0163050
901.174	0.0163115
901.253	0.0163525
901.331	0.0162365
901.409	0.0162253
901.487	0.0162132
901.565	0.0161678
901.643	0.0161195
901.721	0.0158933
901.799	0.0160357
901.878	0.0159973
901.956	0.0160841
902.034	0.0159425
902.112	0.0157955
902.190	0.0158930
902.268	0.0158853
902.346	0.0158055
902.424	0.0158218
902.503	0.0157467
902.581	0.0156824
902.659	0.0156439
902.737	0.0155790
902.815	0.0156346
902.893	0.0156012
902.971	0.0155993
903.049	0.0153438
903.128	0.0155374
903.206	0.0153551
903.284	0.0154114
903.362	0.0154093
903.440	0.0154581
903.518	0.0154044
903.596	0.0154572
903.674	0.0153780
903.753	0.0152926
903.831	0.0156023
903.909	0.0156374
903.987	0.0154757
904.065	0.0153945
904.143	0.0155174
904.221	0.0154980
904.299	0.0154944
904.378	0.0155170
904.456	0.0155676
904.534	0.0156010
904.612	0.0156155
904.690	0.0155190
904.768	0.0156966
904.846	0.0156120
904.924	0.0155422
905.003	0.0154195
905.081	0.0155421
905.159	0.0155669
905.237	0.0156783
905.315	0.0155896
905.393	0.0156987
905.471	0.0156590
905.549	0.0156937
905.628	0.0158565
905.706	0.0158839
905.784	0.0158458
905.862	0.0158871
905.940	0.0159077
906.018	0.0160268
906.096	0.0159564
906.174	0.0159775
906.253	0.0161417
906.331	0.0160498
906.409	0.0160101
906.487	0.0159841
906.565	0.0160586
906.643	0.0159964
906.721	0.0161629
906.799	0.0160239
906.878	0.0160830
906.956	0.0159650
907.034	0.0159814
907.112	0.0158892
907.190	0.0157873
907.268	0.0158183
907.346	0.0158676
907.424	0.0157054
907.503	0.0158355
907.581	0.0157800
907.659	0.0157641
907.737	0.0157895
907.815	0.0157799
907.893	0.0158840
907.971	0.0157802
908.049	0.0158930
908.128	0.0158821
908.206	0.0159122
908.284	0.0161120
908.362	0.0158931
908.440	0.0160201
908.518	0.0160403
908.596	0.0160184
908.674	0.0162156
908.753	0.0161398
908.831	0.0161994
908.909	0.0160905
908.987	0.0161803
909.065	0.0162315
909.143	0.0161416
909.221	0.0161987
909.299	0.0161733
909.378	0.0162115
909.456	0.0162391
909.534	0.0161021
909.612	0.0160621
909.690	0.0161430
909.768	0.0160753
909.846	0.0159896
909.924	0.0160211
910.003	0.0160697
910.081	0.0158922
910.159	0.0159010
910.237	0.0159612
910.315	0.0158638
910.393	0.0158277
910.471	0.0159398
910.549	0.0157986
910.628	0.0157088
910.706	0.0158326
910.784	0.0157513
910.862	0.0157643
910.940	0.0155458
911.018	0.0156364
911.096	0.0157771
911.174	0.0157932
911.253	0.0156930
911.331	0.0157174
911.409	0.0156354
911.487	0.0157172
911.565	0.0157696
911.643	0.0156885
911.721	0.0157195
911.799	0.0156405
911.878	0.0157068
911.956	0.0158649
912.034	0.0159499
912.112	0.0157900
912.190	0.0158404
912.268	0.0158434
912.346	0.0158057
912.424	0.0159052
912.503	0.0159708
912.581	0.0158852
912.659	0.0158876
912.737	0.0158340
912.815	0.0159772
912.893	0.0157647
912.971	0.0158382
913.049	0.0157124
913.128	0.0158198
913.206	0.0158267
913.284	0.0158163
913.362	0.0158194
913.440	0.0156284
913.518	0.0157707
913.596	0.0156577
913.674	0.0155509
913.753	0.0155957
913.831	0.0157335
913.909	0.0156337
913.987	0.0156328
914.065	0.0155885
914.143	0.0156616
914.221	0.0156195
914.299	0.0156463
914.378	0.0156593
914.456	0.0157027
914.534	0.0157202
914.612	0.0157189
914.690	0.0157761
914.768	0.0159007
914.846	0.0158268
914.924	0.0160006
915.003	0.0159264
915.081	0.0159194
915.159	0.0157423
915.237	0.0157699
915.315	0.0160706
915.393	0.0159786
915.471	0.0158504
915.549	0.0160893
915.628	0.0158709
915.706	0.0159910
915.784	0.0160191
915.862	0.0161435
915.940	0.0161550
916.018	0.0161340
916.096	0.0161810
916.174	0.0161372
916.253	0.0161715
916.331	0.0163471
916.409	0.0163216
916.487	0.0162184
916.565	0.0162618
916.643	0.0163605
916.721	0.0162775
916.799	0.0161234
916.878	0.0162996
916.956	0.0161423
917.034	0.0162049
917.112	0.0163197
917.190	0.0162434
917.268	0.0161874
917.346	0.0161855
917.424	0.0160443
917.503	0.0160905
917.581	0.0162554
917.659	0.0161722
917.737	0.0160566
917.815	0.0160169
917.893	0.0160152
917.971	0.0159825
918.049	0.0159963
918.128	0.0159595
918.206	0.0158746
918.284	0.0158461
918.362	0.0156197
918.440	0.0158285
918.518	0.0158302
918.596	0.0157372
918.674	0.0157238
918.753	0.0157662
918.831	0.0156762
918.909	0.0156745
918.987	0.0156520
919.065	0.0156496
919.143	0.0156672
919.221	0.0157372
919.299	0.0156817
919.378	0.0157501
919.456	0.0156947
919.534	0.0156478
919.612	0.0157301
919.690	0.0156337
919.768	0.0155534
919.846	0.0157684
919.924	0.0156879
920.003	0.0155739
920.081	0.0156726
920.159	0.0157999
920.237	0.0158040
920.315	0.0156109
920.393	0.0157163
920.471	0.0156445
920.549	0.0157204
920.628	0.0158960
920.706	0.0159524
920.784	0.0158900
920.862	0.0157514
920.940	0.0158875
921.018	0.0160582
921.096	0.0159654
921.174	0.0158444
921.253	0.0160097
921.331	0.0160319
921.409	0.0158753
921.487	0.0159976
921.565	0.0158814
921.643	0.0160196
921.721	0.0160555
921.799	0.0161363
921.878	0.0159946
921.956	0.0160655
922.034	0.0159542
922.112	0.0159669
922.190	0.0160815
922.268	0.0160744
922.346	0.0158963
922.424	0.0159784
922.503	0.0159934
922.581	0.0161080
922.659	0.0160899
922.737	0.0160561
922.815	0.0159842
922.893	0.0159219
922.971	0.0160112
923.049	0.0161651
923.128	0.0161835
923.206	0.0161320
923.284	0.0161525
923.362	0.0160923
923.440	0.0161590
923.518	0.0161864
923.596	0.0162284
923.674	0.0160281
923.753	0.0160831
923.831	0.0161443
923.909	0.0161009
923.987	0.0160413
924.065	0.0160966
924.143	0.0159959
924.221	0.0160751
924.299	0.0160790
924.378	0.0160526
924.456	0.0160886
924.534	0.0160176
924.612	0.0160085
924.690	0.0159624
924.768	0.0160938
924.846	0.0158524
924.924	0.0158881
925.003	0.0158290
925.081	0.0157467
925.159	0.0159198
925.237	0.0159385
925.315	0.0159740
925.393	0.0158114
925.471	0.0158105
925.549	0.0158727
925.628	0.0158501
925.706	0.0157710
925.784	0.0156667
925.862	0.0158844
925.940	0.0159208
926.018	0.0157597
926.096	0.0157430
926.174	0.0159782
926.253	0.0159267
926.331	0.0158799
926.409	0.0158686
926.487	0.0159697
926.565	0.0159345
926.643	0.0159485
926.721	0.0157373
926.799	0.0158894
926.878	0.0159796
926.956	0.0159377
927.034	0.0160558
927.112	0.0160145
927.190	0.0160481
927.268	0.0159090
927.346	0.0159447
927.424	0.0159632
927.503	0.0159673
927.581	0.0158891
927.659	0.0159679
927.737	0.0158820
927.815	0.0159029
927.893	0.0160716
927.971	0.0160434
928.049	0.0159697
928.128	0.0158701
928.206	0.0159328
928.284	0.0160136
928.362	0.0160721
928.440	0.0161453
928.518	0.0160349
928.596	0.0160891
928.674	0.0161143
928.753	0.0161008
928.831	0.0161898
928.909	0.0162063
928.987	0.0161236
929.065	0.0160277
929.143	0.0161496
929.221	0.0162051
929.299	0.0161517
929.378	0.0161240
929.456	0.0161435
929.534	0.0162019
929.612	0.0160066
929.690	0.0159715
929.768	0.0161152
929.846	0.0161570
929.924	0.0159372
930.003	0.0159412
930.081	0.0159267
930.159	0.0159669
930.237	0.0160180
930.315	0.0159966
930.393	0.0159135
930.471	0.0160294
930.549	0.0160219
930.628	0.0160956
930.706	0.0160482
930.784	0.0160960
930.862	0.0161231
930.940	0.0161311
931.018	0.0158417
931.096	0.0159291
931.174	0.0159645
931.253	0.0159529
931.331	0.0160571
931.409	0.0160455
931.487	0.0160247
931.565	0.0160257
931.643	0.0161347
931.721	0.0159021
931.799	0.0159778
931.878	0.0160563
931.956	0.0159119
932.034	0.0159315
932.112	0.0159444
932.190	0.0160649
932.268	0.0158640
932.346	0.0159469
932.424	0.0159496
932.503	0.0158680
932.581	0.0158408
932.659	0.0157632
932.737	0.0159500
932.815	0.0160083
932.893	0.0159844
932.971	0.0159007
933.049	0.0158795
933.128	0.0159988
933.206	0.0158907
933.284	0.0159508
933.362	0.0159779
933.440	0.0157726
933.518	0.0157751
933.596	0.0159019
933.674	0.0160191
933.753	0.0159501
933.831	0.0158640
933.909	0.0160810
933.987	0.0159189
934.065	0.0157801
934.143	0.0160603
934.221	0.0158962
934.299	0.0158981
934.378	0.0158888
934.456	0.0160013
934.534	0.0161205
934.612	0.0160650
934.690	0.0159206
934.768	0.0159702
934.846	0.0158917
934.924	0.0160442
935.003	0.0161211
935.081	0.0159996
935.159	0.0159293
935.237	0.0160231
935.315	0.0160596
935.393	0.0159974
935.471	0.0158113
935.549	0.0160399
935.628	0.0161629
935.706	0.0159124
935.784	0.0160113
935.862	0.0160180
935.940	0.0160699
936.018	0.0159007
936.096	0.0159663
936.174	0.0158779
936.253	0.0159582
936.331	0.0158964
936.409	0.0159279
936.487	0.0159490
936.565	0.0158465
936.643	0.0157204
936.721	0.0156589
936.799	0.0158160
936.878	0.0157616
936.956	0.0157301
937.034	0.0158318
937.112	0.0158575
937.190	0.0157760
937.268	0.0156857
937.346	0.0157900
937.424	0.0156223
937.503	0.0157626
937.581	0.0158105
937.659	0.0158351
937.737	0.0158900
937.815	0.0159122
937.893	0.0158851
937.971	0.0158218
938.049	0.0158285
938.128	0.0157801
938.206	0.0158110
938.284	0.0158001
938.362	0.0157587
938.440	0.0158326
938.518	0.0158978
938.596	0.0159235
938.674	0.0157720
938.753	0.0157064
938.831	0.0157215
938.909	0.0158490
938.987	0.0157729
939.065	0.0158716
939.143	0.0158353
939.221	0.0158836
939.299	0.0158311
939.378	0.0158029
939.456	0.0158896
939.534	0.0158833
939.612	0.0158450
939.690	0.0159305
939.768	0.0158495
939.846	0.0158284
939.924	0.0158633
940.003	0.0158025
940.081	0.0158452
940.159	0.0157861
940.237	0.0158173
940.315	0.0158694
940.393	0.0159273
940.471	0.0159157
940.549	0.0159160
940.628	0.0157226
940.706	0.0158075
940.784	0.0158031
940.862	0.0157411
940.940	0.0158250
941.018	0.0158878
941.096	0.0156350
941.174	0.0156363
941.253	0.0155638
941.331	0.0157841
941.409	0.0157941
941.487	0.0156862
941.565	0.0156360
941.643	0.0156865
941.721	0.0156580
941.799	0.0157461
941.878	0.0157598
941.956	0.0158176
942.034	0.0157967
942.112	0.0158170
942.190	0.0158726
942.268	0.0159132
942.346	0.0157735
942.424	0.0160004
942.503	0.0159700
942.581	0.0157813
942.659	0.0160108
942.737	0.0160457
942.815	0.0160654
942.893	0.0160085
942.971	0.0161009
943.049	0.0161296
943.128	0.0161303
943.206	0.0160226
943.284	0.0160868
943.362	0.0160861
943.440	0.0160526
943.518	0.0161393
943.596	0.0160828
943.674	0.0160734
943.753	0.0160796
943.831	0.0159787
943.909	0.0161459
943.987	0.0161806
944.065	0.0159902
944.143	0.0160168
944.221	0.0161192
944.299	0.0162208
944.378	0.0161428
944.456	0.0162149
944.534	0.0160857
944.612	0.0163490
944.690	0.0161839
944.768	0.0161790
944.846	0.0162601
944.924	0.0163689
945.003	0.0161693
945.081	0.0162481
945.159	0.0163066
945.237	0.0160788
945.315	0.0161884
945.393	0.0162418
945.471	0.0162186
945.549	0.0159830
945.628	0.0160033
945.706	0.0161902
945.784	0.0160958
945.862	0.0161309
945.940	0.0160614
946.018	0.0160284
946.096	0.0160741
946.174	0.0159702
946.253	0.0161902
946.331	0.0160735
946.409	0.0161188
946.487	0.0160336
946.565	0.0161163
946.643	0.0160137
946.721	0.0159814
946.799	0.0160143
946.878	0.0160821
946.956	0.0160646
947.034	0.0162452
947.112	0.0160317
947.190	0.0161333
947.268	0.0160201
947.346	0.0160124
947.424	0.0160819
947.503	0.0160377
947.581	0.0160520
947.659	0.0161511
947.737	0.0161536
947.815	0.0162942
947.893	0.0162254
947.971	0.0161636
948.049	0.0162562
948.128	0.0162423
948.206	0.0160752
948.284	0.0160515
948.362	0.0162509
948.440	0.0160506
948.518	0.0160462
948.596	0.0161192
948.674	0.0161034
948.753	0.0160639
948.831	0.0160555
948.909	0.0161118
948.987	0.0158965
949.065	0.0160323
949.143	0.0161845
949.221	0.0160027
949.299	0.0159798
949.378	0.0161981
949.456	0.0160234
949.534	0.0159847
949.612	0.0159155
949.690	0.0160893
949.768	0.0160857
949.846	0.0159692
949.924	0.0160395
