06/29/2022	23:23:52	Ver.	4.1	UNKNOWN
Optical Delay	630.002507	Delta X		0.078125	Sweeps	1	Scan Rate	0/0
Coordinates	Axis 1	NaN	Axis 2	NaN	Axis 3	NaN	Axis 4	NaN	Axis 5	NaN	Axis 6	0.000000
TX Power	0.000000	RX Power	0.000000

630.003	0.0149761
630.081	0.0150742
630.159	0.0152172
630.237	0.0153806
630.315	0.0154286
630.393	0.0153033
630.471	0.0152609
630.549	0.0152113
630.628	0.0152204
630.706	0.0153012
630.784	0.0152223
630.862	0.0152946
630.940	0.0151664
631.018	0.0152038
631.096	0.0153004
631.174	0.0153682
631.253	0.0154213
631.331	0.0153289
631.409	0.0154109
631.487	0.0154182
631.565	0.0154522
631.643	0.0153797
631.721	0.0154314
631.799	0.0156543
631.878	0.0155185
631.956	0.0158037
632.034	0.0156351
632.112	0.0156969
632.190	0.0158176
632.268	0.0160422
632.346	0.0160635
632.424	0.0159595
632.503	0.0160193
632.581	0.0160563
632.659	0.0161219
632.737	0.0162833
632.815	0.0161845
632.893	0.0162542
632.971	0.0162431
633.049	0.0162684
633.128	0.0162567
633.206	0.0162794
633.284	0.0162728
633.362	0.0162440
633.440	0.0163912
633.518	0.0163519
633.596	0.0164867
633.674	0.0164226
633.753	0.0164495
633.831	0.0165139
633.909	0.0164960
633.987	0.0165028
634.065	0.0166226
634.143	0.0165276
634.221	0.0165186
634.299	0.0163978
634.378	0.0163976
634.456	0.0164539
634.534	0.0162250
634.612	0.0163910
634.690	0.0164230
634.768	0.0162388
634.846	0.0163081
634.924	0.0163805
635.003	0.0164256
635.081	0.0163563
635.159	0.0163343
635.237	0.0163965
635.315	0.0163902
635.393	0.0163600
635.471	0.0164765
635.549	0.0164365
635.628	0.0164724
635.706	0.0165114
635.784	0.0165497
635.862	0.0162292
635.940	0.0163898
636.018	0.0164059
636.096	0.0162882
636.174	0.0161696
636.253	0.0163062
636.331	0.0161941
636.409	0.0160734
636.487	0.0160728
636.565	0.0161385
636.643	0.0160657
636.721	0.0161275
636.799	0.0161305
636.878	0.0160228
636.956	0.0160046
637.034	0.0159125
637.112	0.0157861
637.190	0.0158451
637.268	0.0158083
637.346	0.0157340
637.424	0.0155586
637.503	0.0156104
637.581	0.0155184
637.659	0.0155235
637.737	0.0153773
637.815	0.0153287
637.893	0.0153053
637.971	0.0152791
638.049	0.0150701
638.128	0.0151949
638.206	0.0150715
638.284	0.0150033
638.362	0.0152117
638.440	0.0150878
638.518	0.0149548
638.596	0.0152750
638.674	0.0152129
638.753	0.0152337
638.831	0.0151972
638.909	0.0151067
638.987	0.0152150
639.065	0.0152306
639.143	0.0152663
639.221	0.0153730
639.299	0.0153653
639.378	0.0153179
639.456	0.0154076
639.534	0.0154388
639.612	0.0153341
639.690	0.0154601
639.768	0.0154343
639.846	0.0154355
639.924	0.0152634
640.003	0.0151222
640.081	0.0152956
640.159	0.0152641
640.237	0.0153662
640.315	0.0153244
640.393	0.0152832
640.471	0.0151430
640.549	0.0153290
640.628	0.0153124
640.706	0.0152882
640.784	0.0154936
640.862	0.0155244
640.940	0.0155142
641.018	0.0156180
641.096	0.0156389
641.174	0.0155108
641.253	0.0154890
641.331	0.0156238
641.409	0.0155958
641.487	0.0154607
641.565	0.0155943
641.643	0.0155259
641.721	0.0156397
641.799	0.0155595
641.878	0.0155501
641.956	0.0156511
642.034	0.0155963
642.112	0.0155420
642.190	0.0157599
642.268	0.0158027
642.346	0.0157224
642.424	0.0157313
642.503	0.0158134
642.581	0.0158108
642.659	0.0158030
642.737	0.0159897
642.815	0.0160161
642.893	0.0159917
642.971	0.0160063
643.049	0.0158994
643.128	0.0159985
643.206	0.0160281
643.284	0.0160384
643.362	0.0161460
643.440	0.0162006
643.518	0.0161435
643.596	0.0162293
643.674	0.0161356
643.753	0.0162669
643.831	0.0162586
643.909	0.0163060
643.987	0.0163543
644.065	0.0164393
644.143	0.0165559
644.221	0.0164943
644.299	0.0166244
644.378	0.0165211
644.456	0.0165014
644.534	0.0166297
644.612	0.0166545
644.690	0.0165353
644.768	0.0164816
644.846	0.0166088
644.924	0.0165191
645.003	0.0166762
645.081	0.0164942
645.159	0.0166850
645.237	0.0165301
645.315	0.0164967
645.393	0.0164817
645.471	0.0165072
645.549	0.0165496
645.628	0.0164838
645.706	0.0164539
645.784	0.0163705
645.862	0.0165290
645.940	0.0165050
646.018	0.0163602
646.096	0.0162753
646.174	0.0164326
646.253	0.0162664
646.331	0.0162388
646.409	0.0163039
646.487	0.0162000
646.565	0.0162650
646.643	0.0162245
646.721	0.0161687
646.799	0.0161655
646.878	0.0161263
646.956	0.0162154
647.034	0.0161823
647.112	0.0162938
647.190	0.0162547
647.268	0.0160928
647.346	0.0162016
647.424	0.0160939
647.503	0.0161269
647.581	0.0161021
647.659	0.0160977
647.737	0.0160935
647.815	0.0161050
647.893	0.0158687
647.971	0.0160643
648.049	0.0160738
648.128	0.0159913
648.206	0.0158909
648.284	0.0159605
648.362	0.0159409
648.440	0.0158401
648.518	0.0158135
648.596	0.0157835
648.674	0.0156911
648.753	0.0158120
648.831	0.0158607
648.909	0.0158004
648.987	0.0156493
649.065	0.0155533
649.143	0.0156524
649.221	0.0157130
649.299	0.0156882
649.378	0.0155650
649.456	0.0157571
649.534	0.0155489
649.612	0.0156922
649.690	0.0155789
649.768	0.0155919
649.846	0.0156921
649.924	0.0156847
650.003	0.0157938
650.081	0.0157570
650.159	0.0156222
650.237	0.0157018
650.315	0.0156600
650.393	0.0155563
650.471	0.0156727
650.549	0.0157301
650.628	0.0156259
650.706	0.0156847
650.784	0.0155848
650.862	0.0157438
650.940	0.0157269
651.018	0.0155537
651.096	0.0155660
651.174	0.0156817
651.253	0.0156983
651.331	0.0156415
651.409	0.0158437
651.487	0.0158641
651.565	0.0157509
651.643	0.0158124
651.721	0.0158843
651.799	0.0159816
651.878	0.0159286
651.956	0.0159473
652.034	0.0160465
652.112	0.0160622
652.190	0.0160136
652.268	0.0160079
652.346	0.0161050
652.424	0.0160581
652.503	0.0160240
652.581	0.0160507
652.659	0.0158980
652.737	0.0160703
652.815	0.0160444
652.893	0.0161135
652.971	0.0160129
653.049	0.0159009
653.128	0.0160858
653.206	0.0159892
653.284	0.0159764
653.362	0.0159352
653.440	0.0159702
653.518	0.0158472
653.596	0.0159191
653.674	0.0158560
653.753	0.0158253
653.831	0.0158215
653.909	0.0156781
653.987	0.0158025
654.065	0.0158265
654.143	0.0155602
654.221	0.0156939
654.299	0.0154510
654.378	0.0155189
654.456	0.0156485
654.534	0.0154107
654.612	0.0153625
654.690	0.0153757
654.768	0.0153358
654.846	0.0153524
654.924	0.0153838
655.003	0.0153751
655.081	0.0153448
655.159	0.0154125
655.237	0.0153522
655.315	0.0154420
655.393	0.0154545
655.471	0.0154035
655.549	0.0155149
655.628	0.0155020
655.706	0.0155237
655.784	0.0153263
655.862	0.0152221
655.940	0.0153700
656.018	0.0153374
656.096	0.0154095
656.174	0.0154374
656.253	0.0154446
656.331	0.0154134
656.409	0.0153227
656.487	0.0153086
656.565	0.0153991
656.643	0.0154292
656.721	0.0153943
656.799	0.0154490
656.878	0.0154516
656.956	0.0153497
657.034	0.0154896
657.112	0.0153890
657.190	0.0153569
657.268	0.0154724
657.346	0.0154229
657.424	0.0152830
657.503	0.0154340
657.581	0.0155345
657.659	0.0154020
657.737	0.0153278
657.815	0.0154442
657.893	0.0156052
657.971	0.0155925
658.049	0.0153403
658.128	0.0155196
658.206	0.0155321
658.284	0.0153577
658.362	0.0154723
658.440	0.0156510
658.518	0.0155528
658.596	0.0156953
658.674	0.0156641
658.753	0.0157492
658.831	0.0156211
658.909	0.0157603
658.987	0.0158082
659.065	0.0157607
659.143	0.0158084
659.221	0.0157870
659.299	0.0159208
659.378	0.0158396
659.456	0.0159063
659.534	0.0159476
659.612	0.0158670
659.690	0.0160199
659.768	0.0158733
659.846	0.0160082
659.924	0.0159624
660.003	0.0159554
660.081	0.0159919
660.159	0.0159876
660.237	0.0161089
660.315	0.0159476
660.393	0.0160560
660.471	0.0160699
660.549	0.0160181
660.628	0.0161263
660.706	0.0161366
660.784	0.0160577
660.862	0.0160551
660.940	0.0160631
661.018	0.0159699
661.096	0.0159460
661.174	0.0159379
661.253	0.0160719
661.331	0.0159571
661.409	0.0159310
661.487	0.0160562
661.565	0.0160210
661.643	0.0159774
661.721	0.0160751
661.799	0.0160929
661.878	0.0160571
661.956	0.0158482
662.034	0.0159667
662.112	0.0160522
662.190	0.0158263
662.268	0.0159801
662.346	0.0159135
662.424	0.0158622
662.503	0.0158342
662.581	0.0159326
662.659	0.0157330
662.737	0.0159695
662.815	0.0159585
662.893	0.0158401
662.971	0.0158661
663.049	0.0157903
663.128	0.0158849
663.206	0.0158816
663.284	0.0160291
663.362	0.0158498
663.440	0.0157224
663.518	0.0157589
663.596	0.0157213
663.674	0.0158755
663.753	0.0157693
663.831	0.0158473
663.909	0.0158556
663.987	0.0157365
664.065	0.0158250
664.143	0.0159209
664.221	0.0159586
664.299	0.0159182
664.378	0.0158138
664.456	0.0158367
664.534	0.0158852
664.612	0.0157674
664.690	0.0159427
664.768	0.0156950
664.846	0.0156860
664.924	0.0156510
665.003	0.0158656
665.081	0.0155849
665.159	0.0157527
665.237	0.0157232
665.315	0.0156342
665.393	0.0157349
665.471	0.0156641
665.549	0.0157253
665.628	0.0156890
665.706	0.0157197
665.784	0.0156496
665.862	0.0156195
665.940	0.0158296
666.018	0.0156286
666.096	0.0155956
666.174	0.0157813
666.253	0.0157935
666.331	0.0156622
666.409	0.0158010
666.487	0.0157737
666.565	0.0158220
666.643	0.0157144
666.721	0.0155753
666.799	0.0158120
666.878	0.0156384
666.956	0.0157727
667.034	0.0158581
667.112	0.0159271
667.190	0.0155910
667.268	0.0157359
667.346	0.0158671
667.424	0.0158546
667.503	0.0159290
667.581	0.0159492
667.659	0.0158358
667.737	0.0160023
667.815	0.0159321
667.893	0.0161196
667.971	0.0160643
668.049	0.0160236
668.128	0.0161997
668.206	0.0161391
668.284	0.0160300
668.362	0.0160741
668.440	0.0161959
668.518	0.0160588
668.596	0.0162654
668.674	0.0161817
668.753	0.0161036
668.831	0.0161856
668.909	0.0161752
668.987	0.0161077
669.065	0.0161449
669.143	0.0161972
669.221	0.0162026
669.299	0.0160338
669.378	0.0161044
669.456	0.0163081
669.534	0.0162267
669.612	0.0162712
669.690	0.0162900
669.768	0.0162334
669.846	0.0161587
669.924	0.0162638
670.003	0.0161964
670.081	0.0161405
670.159	0.0162463
670.237	0.0163645
670.315	0.0163136
670.393	0.0162663
670.471	0.0163136
670.549	0.0161510
670.628	0.0161993
670.706	0.0163438
670.784	0.0161806
670.862	0.0161990
670.940	0.0162897
671.018	0.0162260
671.096	0.0162569
671.174	0.0162653
671.253	0.0163685
671.331	0.0161858
671.409	0.0163136
671.487	0.0162912
671.565	0.0164079
671.643	0.0162166
671.721	0.0163057
671.799	0.0164220
671.878	0.0162705
671.956	0.0162566
672.034	0.0162681
672.112	0.0163046
672.190	0.0162521
672.268	0.0162839
672.346	0.0163001
672.424	0.0161605
672.503	0.0162068
672.581	0.0162518
672.659	0.0159403
672.737	0.0160992
672.815	0.0161187
672.893	0.0161774
672.971	0.0161272
673.049	0.0161153
673.128	0.0161757
673.206	0.0162863
673.284	0.0162013
673.362	0.0160643
673.440	0.0161555
673.518	0.0161544
673.596	0.0162403
673.674	0.0161391
673.753	0.0161196
673.831	0.0161767
673.909	0.0160402
673.987	0.0160652
674.065	0.0159346
674.143	0.0160327
674.221	0.0160258
674.299	0.0160234
674.378	0.0160331
674.456	0.0158990
674.534	0.0158440
674.612	0.0157802
674.690	0.0157254
674.768	0.0158546
674.846	0.0157211
674.924	0.0157152
675.003	0.0156622
675.081	0.0157512
675.159	0.0155574
675.237	0.0156380
675.315	0.0155332
675.393	0.0154958
675.471	0.0153497
675.549	0.0154405
675.628	0.0153325
675.706	0.0154189
675.784	0.0154329
675.862	0.0153600
675.940	0.0155038
676.018	0.0154127
676.096	0.0153535
676.174	0.0156121
676.253	0.0154409
676.331	0.0156224
676.409	0.0155621
676.487	0.0156496
676.565	0.0156692
676.643	0.0157365
676.721	0.0158256
676.799	0.0159303
676.878	0.0158543
676.956	0.0157732
677.034	0.0158820
677.112	0.0157899
677.190	0.0158237
677.268	0.0157294
677.346	0.0158904
677.424	0.0157556
677.503	0.0157900
677.581	0.0155427
677.659	0.0155399
677.737	0.0153943
677.815	0.0154636
677.893	0.0155142
677.971	0.0153845
678.049	0.0152792
678.128	0.0150977
678.206	0.0151590
678.284	0.0152843
678.362	0.0153019
678.440	0.0152333
678.518	0.0152435
678.596	0.0153316
678.674	0.0152029
678.753	0.0152036
678.831	0.0153936
678.909	0.0154304
678.987	0.0153114
679.065	0.0152030
679.143	0.0151000
679.221	0.0152182
679.299	0.0151999
679.378	0.0151627
679.456	0.0151768
679.534	0.0152482
679.612	0.0151529
679.690	0.0151340
679.768	0.0151217
679.846	0.0151331
679.924	0.0153703
680.003	0.0153442
680.081	0.0154181
680.159	0.0154970
680.237	0.0155280
680.315	0.0155824
680.393	0.0157958
680.471	0.0158450
680.549	0.0159875
680.628	0.0161432
680.706	0.0161583
680.784	0.0163482
680.862	0.0163457
680.940	0.0163265
681.018	0.0164058
681.096	0.0165318
681.174	0.0166161
681.253	0.0166077
681.331	0.0166088
681.409	0.0167445
681.487	0.0166965
681.565	0.0167387
681.643	0.0167627
681.721	0.0167592
681.799	0.0167505
681.878	0.0167066
681.956	0.0166044
682.034	0.0166360
682.112	0.0164574
682.190	0.0165649
682.268	0.0165948
682.346	0.0164346
682.424	0.0163234
682.503	0.0163885
682.581	0.0163673
682.659	0.0163486
682.737	0.0162970
682.815	0.0163377
682.893	0.0161824
682.971	0.0161110
683.049	0.0161922
683.128	0.0161145
683.206	0.0161144
683.284	0.0161933
683.362	0.0160421
683.440	0.0160639
683.518	0.0160420
683.596	0.0161581
683.674	0.0160648
683.753	0.0160323
683.831	0.0161710
683.909	0.0162354
683.987	0.0162216
684.065	0.0160909
684.143	0.0161843
684.221	0.0162439
684.299	0.0163592
684.378	0.0162591
684.456	0.0163226
684.534	0.0162865
684.612	0.0162933
684.690	0.0163142
684.768	0.0163371
684.846	0.0162550
684.924	0.0163397
685.003	0.0163817
685.081	0.0163602
685.159	0.0163167
685.237	0.0162836
685.315	0.0163193
685.393	0.0162395
685.471	0.0163309
685.549	0.0162208
685.628	0.0160516
685.706	0.0161219
685.784	0.0160986
685.862	0.0159423
685.940	0.0160268
686.018	0.0159134
686.096	0.0158620
686.174	0.0159012
686.253	0.0158828
686.331	0.0158586
686.409	0.0157227
686.487	0.0157509
686.565	0.0156527
686.643	0.0157075
686.721	0.0156599
686.799	0.0156336
686.878	0.0156209
686.956	0.0154929
687.034	0.0156130
687.112	0.0155405
687.190	0.0153391
687.268	0.0153428
687.346	0.0153128
687.424	0.0153320
687.503	0.0153730
687.581	0.0153584
687.659	0.0153239
687.737	0.0151550
687.815	0.0153072
687.893	0.0153529
687.971	0.0151808
688.049	0.0150985
688.128	0.0151270
688.206	0.0152215
688.284	0.0151723
688.362	0.0151691
688.440	0.0153105
688.518	0.0151905
688.596	0.0153289
688.674	0.0155181
688.753	0.0153212
688.831	0.0154514
688.909	0.0155690
688.987	0.0155587
689.065	0.0154155
689.143	0.0154879
689.221	0.0156805
689.299	0.0155846
689.378	0.0157546
689.456	0.0157450
689.534	0.0156219
689.612	0.0158159
689.690	0.0157529
689.768	0.0157495
689.846	0.0157459
689.924	0.0159032
690.003	0.0157777
690.081	0.0157468
690.159	0.0159131
690.237	0.0157755
690.315	0.0158581
690.393	0.0157471
690.471	0.0159086
690.549	0.0158989
690.628	0.0158818
690.706	0.0158247
690.784	0.0158016
690.862	0.0160217
690.940	0.0160329
691.018	0.0160361
691.096	0.0160802
691.174	0.0161585
691.253	0.0160777
691.331	0.0160895
691.409	0.0161711
691.487	0.0161589
691.565	0.0160280
691.643	0.0162576
691.721	0.0161962
691.799	0.0163232
691.878	0.0163823
691.956	0.0162340
692.034	0.0163334
692.112	0.0165152
692.190	0.0163807
692.268	0.0164630
692.346	0.0163573
692.424	0.0162659
692.503	0.0164452
692.581	0.0164977
692.659	0.0163392
692.737	0.0163226
692.815	0.0163698
692.893	0.0163419
692.971	0.0165443
693.049	0.0164192
693.128	0.0164450
693.206	0.0163852
693.284	0.0163251
693.362	0.0163359
693.440	0.0161756
693.518	0.0162487
693.596	0.0161346
693.674	0.0161658
693.753	0.0161339
693.831	0.0160231
693.909	0.0159283
693.987	0.0160212
694.065	0.0158736
694.143	0.0159931
694.221	0.0159055
694.299	0.0157529
694.378	0.0156358
694.456	0.0158289
694.534	0.0157819
694.612	0.0157150
694.690	0.0155785
694.768	0.0155799
694.846	0.0156459
694.924	0.0157629
695.003	0.0155419
695.081	0.0155872
695.159	0.0156943
695.237	0.0156216
695.315	0.0155163
695.393	0.0156294
695.471	0.0154528
695.549	0.0155148
695.628	0.0156652
695.706	0.0156657
695.784	0.0156198
695.862	0.0156474
695.940	0.0157146
696.018	0.0156076
696.096	0.0157444
696.174	0.0157948
696.253	0.0157795
696.331	0.0156967
696.409	0.0156635
696.487	0.0156938
696.565	0.0158258
696.643	0.0157880
696.721	0.0159544
696.799	0.0158618
696.878	0.0158429
696.956	0.0158626
697.034	0.0159169
697.112	0.0159584
697.190	0.0161890
697.268	0.0161275
697.346	0.0162255
697.424	0.0161328
697.503	0.0161015
697.581	0.0161734
697.659	0.0161161
697.737	0.0161727
697.815	0.0163394
697.893	0.0161747
697.971	0.0161604
698.049	0.0161400
698.128	0.0160574
698.206	0.0158239
698.284	0.0160342
698.362	0.0159428
698.440	0.0158808
698.518	0.0159297
698.596	0.0158501
698.674	0.0157549
698.753	0.0156670
698.831	0.0158343
698.909	0.0157571
698.987	0.0157791
699.065	0.0157937
699.143	0.0156862
699.221	0.0156161
699.299	0.0156670
699.378	0.0156812
699.456	0.0155962
699.534	0.0157753
699.612	0.0157021
699.690	0.0155872
699.768	0.0158220
699.846	0.0159123
699.924	0.0158241
700.003	0.0158831
700.081	0.0159491
700.159	0.0159668
700.237	0.0160021
700.315	0.0159383
700.393	0.0159010
700.471	0.0158040
700.549	0.0157426
700.628	0.0156914
700.706	0.0156028
700.784	0.0156011
700.862	0.0154468
700.940	0.0155134
701.018	0.0155657
701.096	0.0153301
701.174	0.0153998
701.253	0.0154678
701.331	0.0153136
701.409	0.0152551
701.487	0.0152120
701.565	0.0152328
701.643	0.0152802
701.721	0.0151684
701.799	0.0151188
701.878	0.0152276
701.956	0.0153469
702.034	0.0152862
702.112	0.0153030
702.190	0.0153316
702.268	0.0154620
702.346	0.0155257
702.424	0.0155222
702.503	0.0155683
702.581	0.0156165
702.659	0.0156297
702.737	0.0157088
702.815	0.0156400
702.893	0.0158230
702.971	0.0158599
703.049	0.0159927
703.128	0.0157690
703.206	0.0157697
703.284	0.0156784
703.362	0.0157117
703.440	0.0158919
703.518	0.0157813
703.596	0.0158369
703.674	0.0159206
703.753	0.0158802
703.831	0.0159219
703.909	0.0159735
703.987	0.0158334
704.065	0.0157943
704.143	0.0159856
704.221	0.0159405
704.299	0.0160822
704.378	0.0160210
704.456	0.0160302
704.534	0.0159927
704.612	0.0159595
704.690	0.0159889
704.768	0.0158925
704.846	0.0160758
704.924	0.0160429
705.003	0.0158741
705.081	0.0158758
705.159	0.0157770
705.237	0.0159705
705.315	0.0158572
705.393	0.0158161
705.471	0.0159501
705.549	0.0159464
705.628	0.0157627
705.706	0.0158013
705.784	0.0158635
705.862	0.0159557
705.940	0.0159467
706.018	0.0158736
706.096	0.0158935
706.174	0.0159205
706.253	0.0160757
706.331	0.0160439
706.409	0.0160651
706.487	0.0161948
706.565	0.0161749
706.643	0.0161353
706.721	0.0161379
706.799	0.0162054
706.878	0.0162123
706.956	0.0162811
707.034	0.0161877
707.112	0.0165022
707.190	0.0162955
707.268	0.0162578
707.346	0.0163527
707.424	0.0163174
707.503	0.0164120
707.581	0.0163966
707.659	0.0162962
707.737	0.0161745
707.815	0.0163178
707.893	0.0162144
707.971	0.0162409
708.049	0.0164024
708.128	0.0164635
708.206	0.0161798
708.284	0.0162242
708.362	0.0162468
708.440	0.0163014
708.518	0.0161529
708.596	0.0162047
708.674	0.0161375
708.753	0.0162397
708.831	0.0163234
708.909	0.0162248
708.987	0.0161198
709.065	0.0163612
709.143	0.0162486
709.221	0.0162950
709.299	0.0162476
709.378	0.0163080
709.456	0.0163833
709.534	0.0163590
709.612	0.0161466
709.690	0.0162127
709.768	0.0161674
709.846	0.0159975
709.924	0.0160587
710.003	0.0160925
710.081	0.0160619
710.159	0.0159608
710.237	0.0159408
710.315	0.0159697
710.393	0.0159278
710.471	0.0156969
710.549	0.0158996
710.628	0.0156970
710.706	0.0158117
710.784	0.0158173
710.862	0.0156178
710.940	0.0156945
711.018	0.0157527
711.096	0.0156302
711.174	0.0158515
711.253	0.0156840
711.331	0.0155885
711.409	0.0157156
711.487	0.0154725
711.565	0.0154380
711.643	0.0154925
711.721	0.0154916
711.799	0.0153389
711.878	0.0153475
711.956	0.0152637
712.034	0.0151717
712.112	0.0151611
712.190	0.0151562
712.268	0.0149206
712.346	0.0150227
712.424	0.0149876
712.503	0.0150417
712.581	0.0150343
712.659	0.0148447
712.737	0.0151013
712.815	0.0151048
712.893	0.0148726
712.971	0.0150772
713.049	0.0150750
713.128	0.0150469
713.206	0.0150042
713.284	0.0150296
713.362	0.0151862
713.440	0.0151098
713.518	0.0151433
713.596	0.0152162
713.674	0.0153982
713.753	0.0153738
713.831	0.0153764
713.909	0.0155122
713.987	0.0155788
714.065	0.0154803
714.143	0.0155772
714.221	0.0156020
714.299	0.0156907
714.378	0.0156295
714.456	0.0157732
714.534	0.0158477
714.612	0.0157758
714.690	0.0157822
714.768	0.0157359
714.846	0.0159806
714.924	0.0158600
715.003	0.0158718
715.081	0.0158746
715.159	0.0159838
715.237	0.0160168
715.315	0.0160942
715.393	0.0160178
715.471	0.0160849
715.549	0.0160082
715.628	0.0160661
715.706	0.0161057
715.784	0.0160574
715.862	0.0160602
715.940	0.0159730
716.018	0.0159216
716.096	0.0159062
716.174	0.0160121
716.253	0.0157321
716.331	0.0159563
716.409	0.0158495
716.487	0.0158201
716.565	0.0159579
716.643	0.0159379
716.721	0.0158061
716.799	0.0157508
716.878	0.0158903
716.956	0.0157389
717.034	0.0156580
717.112	0.0157406
717.190	0.0158646
717.268	0.0159144
717.346	0.0158324
717.424	0.0157642
717.503	0.0159465
717.581	0.0156944
717.659	0.0158607
717.737	0.0160638
717.815	0.0161304
717.893	0.0159245
717.971	0.0158741
718.049	0.0159603
718.128	0.0159612
718.206	0.0160778
718.284	0.0161678
718.362	0.0161369
718.440	0.0161180
718.518	0.0160912
718.596	0.0161379
718.674	0.0161090
718.753	0.0162365
718.831	0.0159950
718.909	0.0159390
718.987	0.0158890
719.065	0.0159266
719.143	0.0159460
719.221	0.0157944
719.299	0.0159673
719.378	0.0156503
719.456	0.0156396
719.534	0.0157061
719.612	0.0157256
719.690	0.0156044
719.768	0.0155375
719.846	0.0154298
719.924	0.0156774
720.003	0.0155122
720.081	0.0154369
720.159	0.0155349
720.237	0.0155504
720.315	0.0155430
720.393	0.0155353
720.471	0.0155553
720.549	0.0156086
720.628	0.0154894
720.706	0.0156416
720.784	0.0154946
720.862	0.0156674
720.940	0.0155986
721.018	0.0157212
721.096	0.0156966
721.174	0.0157254
721.253	0.0158772
721.331	0.0159029
721.409	0.0159091
721.487	0.0158684
721.565	0.0158521
721.643	0.0159654
721.721	0.0159737
721.799	0.0159035
721.878	0.0159564
721.956	0.0160063
722.034	0.0160361
722.112	0.0159366
722.190	0.0157952
722.268	0.0158031
722.346	0.0159184
722.424	0.0158492
722.503	0.0158788
722.581	0.0157442
722.659	0.0157393
722.737	0.0156892
722.815	0.0157088
722.893	0.0155979
722.971	0.0156360
723.049	0.0154831
723.128	0.0156287
723.206	0.0155643
723.284	0.0155519
723.362	0.0154784
723.440	0.0155293
723.518	0.0155721
723.596	0.0154182
723.674	0.0155770
723.753	0.0155269
723.831	0.0155373
723.909	0.0154921
723.987	0.0155244
724.065	0.0155487
724.143	0.0154375
724.221	0.0156995
724.299	0.0155908
724.378	0.0155502
724.456	0.0154464
724.534	0.0156321
724.612	0.0157687
724.690	0.0156373
724.768	0.0155918
724.846	0.0157175
724.924	0.0156319
725.003	0.0154987
725.081	0.0155142
725.159	0.0157356
725.237	0.0155823
725.315	0.0157132
725.393	0.0157578
725.471	0.0155244
725.549	0.0157132
725.628	0.0158276
725.706	0.0157400
725.784	0.0158971
725.862	0.0159116
725.940	0.0158491
726.018	0.0159383
726.096	0.0160635
726.174	0.0159586
726.253	0.0161415
726.331	0.0162267
726.409	0.0162246
726.487	0.0161905
726.565	0.0160714
726.643	0.0161342
726.721	0.0161823
726.799	0.0160570
726.878	0.0159241
726.956	0.0161107
727.034	0.0159066
727.112	0.0157039
727.190	0.0157562
727.268	0.0157124
727.346	0.0155891
727.424	0.0155467
727.503	0.0154154
727.581	0.0153823
727.659	0.0153194
727.737	0.0152097
727.815	0.0153114
727.893	0.0152332
727.971	0.0152241
728.049	0.0152037
728.128	0.0152443
728.206	0.0152985
728.284	0.0153950
728.362	0.0153432
728.440	0.0153438
728.518	0.0153986
728.596	0.0154507
728.674	0.0155494
728.753	0.0156172
728.831	0.0156551
728.909	0.0158182
728.987	0.0158025
729.065	0.0158350
729.143	0.0158176
729.221	0.0159145
729.299	0.0160027
729.378	0.0160651
729.456	0.0160544
729.534	0.0161796
729.612	0.0162383
729.690	0.0161187
729.768	0.0160764
729.846	0.0161505
729.924	0.0161913
730.003	0.0164186
730.081	0.0161844
730.159	0.0162237
730.237	0.0162175
730.315	0.0160096
730.393	0.0160558
730.471	0.0161169
730.549	0.0160946
730.628	0.0160155
730.706	0.0160837
730.784	0.0160440
730.862	0.0159280
730.940	0.0159805
731.018	0.0156640
731.096	0.0156646
731.174	0.0155946
731.253	0.0154932
731.331	0.0154892
731.409	0.0155314
731.487	0.0153558
731.565	0.0152873
731.643	0.0154408
731.721	0.0150719
731.799	0.0151384
731.878	0.0153055
731.956	0.0152545
732.034	0.0151728
732.112	0.0152479
732.190	0.0154678
732.268	0.0154961
732.346	0.0154507
732.424	0.0156585
732.503	0.0157887
732.581	0.0157634
732.659	0.0158535
732.737	0.0159863
732.815	0.0161620
732.893	0.0162984
732.971	0.0163136
733.049	0.0163120
733.128	0.0164892
733.206	0.0164989
733.284	0.0166476
733.362	0.0166187
733.440	0.0166196
733.518	0.0166011
733.596	0.0166664
733.674	0.0168314
733.753	0.0167493
733.831	0.0166972
733.909	0.0167451
733.987	0.0165984
734.065	0.0165900
734.143	0.0165211
734.221	0.0165586
734.299	0.0163811
734.378	0.0163147
734.456	0.0162054
734.534	0.0161933
734.612	0.0161035
734.690	0.0158553
734.768	0.0159077
734.846	0.0155387
734.924	0.0154816
735.003	0.0154488
735.081	0.0154169
735.159	0.0152208
735.237	0.0150376
735.315	0.0149220
735.393	0.0148946
735.471	0.0149194
735.549	0.0148795
735.628	0.0148084
735.706	0.0148612
735.784	0.0148799
735.862	0.0150542
735.940	0.0149902
736.018	0.0149177
736.096	0.0151399
736.174	0.0150755
736.253	0.0152020
736.331	0.0151501
736.409	0.0152971
736.487	0.0154649
736.565	0.0153048
736.643	0.0153479
736.721	0.0155841
736.799	0.0155976
736.878	0.0156976
736.956	0.0158068
737.034	0.0156703
737.112	0.0158584
737.190	0.0159018
737.268	0.0159847
737.346	0.0160376
737.424	0.0162074
737.503	0.0160935
737.581	0.0161291
737.659	0.0161878
737.737	0.0161909
737.815	0.0162695
737.893	0.0162694
737.971	0.0160349
738.049	0.0161918
738.128	0.0161429
738.206	0.0162301
738.284	0.0161057
738.362	0.0160093
738.440	0.0160078
738.518	0.0160293
738.596	0.0159503
738.674	0.0157523
738.753	0.0158065
738.831	0.0158621
738.909	0.0158286
738.987	0.0156881
739.065	0.0156053
739.143	0.0157933
739.221	0.0157030
739.299	0.0156713
739.378	0.0156983
739.456	0.0156744
739.534	0.0157586
739.612	0.0157889
739.690	0.0156552
739.768	0.0157130
739.846	0.0157811
739.924	0.0157224
740.003	0.0159033
740.081	0.0158687
740.159	0.0158311
740.237	0.0158077
740.315	0.0157927
740.393	0.0158416
740.471	0.0158962
740.549	0.0159898
740.628	0.0158889
740.706	0.0159319
740.784	0.0159917
740.862	0.0160455
740.940	0.0160922
741.018	0.0160378
741.096	0.0159725
741.174	0.0160211
741.253	0.0158173
741.331	0.0160673
741.409	0.0160612
741.487	0.0160020
741.565	0.0160047
741.643	0.0159726
741.721	0.0159194
741.799	0.0159297
741.878	0.0159444
741.956	0.0158752
742.034	0.0159692
742.112	0.0158733
742.190	0.0158932
742.268	0.0158165
742.346	0.0158847
742.424	0.0157850
742.503	0.0157951
742.581	0.0157740
742.659	0.0156310
742.737	0.0156807
742.815	0.0157466
742.893	0.0154923
742.971	0.0156111
743.049	0.0155679
743.128	0.0155943
743.206	0.0155811
743.284	0.0154653
743.362	0.0155579
743.440	0.0155782
743.518	0.0155397
743.596	0.0156928
743.674	0.0157484
743.753	0.0155862
743.831	0.0156984
743.909	0.0156261
743.987	0.0158150
744.065	0.0158985
744.143	0.0158781
744.221	0.0158531
744.299	0.0158363
744.378	0.0159769
744.456	0.0159079
744.534	0.0159839
744.612	0.0160590
744.690	0.0159421
744.768	0.0159371
744.846	0.0160149
744.924	0.0159396
745.003	0.0158347
745.081	0.0158363
745.159	0.0159784
745.237	0.0159813
745.315	0.0158709
745.393	0.0158526
745.471	0.0159474
745.549	0.0158125
745.628	0.0158220
745.706	0.0159282
745.784	0.0159257
745.862	0.0158701
745.940	0.0159351
746.018	0.0158335
746.096	0.0159048
746.174	0.0159319
746.253	0.0160427
746.331	0.0159974
746.409	0.0160989
746.487	0.0162580
746.565	0.0160988
746.643	0.0161786
746.721	0.0161430
746.799	0.0161002
746.878	0.0160644
746.956	0.0162291
747.034	0.0162585
747.112	0.0161809
747.190	0.0161337
747.268	0.0160574
747.346	0.0160410
747.424	0.0160154
747.503	0.0159804
747.581	0.0160620
747.659	0.0160560
747.737	0.0159053
747.815	0.0157663
747.893	0.0159364
747.971	0.0158169
748.049	0.0158652
748.128	0.0156858
748.206	0.0156361
748.284	0.0157555
748.362	0.0157745
748.440	0.0157737
748.518	0.0158361
748.596	0.0157519
748.674	0.0157715
748.753	0.0157211
748.831	0.0158009
748.909	0.0158597
748.987	0.0157787
749.065	0.0157497
749.143	0.0158057
749.221	0.0159302
749.299	0.0158321
749.378	0.0160458
749.456	0.0161414
749.534	0.0159566
749.612	0.0159689
749.690	0.0160224
749.768	0.0160970
749.846	0.0161323
749.924	0.0161456
750.003	0.0161304
750.081	0.0160840
750.159	0.0162334
750.237	0.0162630
750.315	0.0164117
750.393	0.0163566
750.471	0.0163171
750.549	0.0164143
750.628	0.0163487
750.706	0.0163330
750.784	0.0163858
750.862	0.0164075
750.940	0.0162359
751.018	0.0163930
751.096	0.0163643
751.174	0.0163024
751.253	0.0160912
751.331	0.0162936
751.409	0.0161920
751.487	0.0161806
751.565	0.0161934
751.643	0.0158768
751.721	0.0159048
751.799	0.0157982
751.878	0.0158385
751.956	0.0158632
752.034	0.0158114
752.112	0.0157748
752.190	0.0157707
752.268	0.0156979
752.346	0.0156362
752.424	0.0157352
752.503	0.0157182
752.581	0.0157403
752.659	0.0157598
752.737	0.0159396
752.815	0.0157792
752.893	0.0156763
752.971	0.0157564
753.049	0.0157637
753.128	0.0159296
753.206	0.0157790
753.284	0.0156680
753.362	0.0157314
753.440	0.0156213
753.518	0.0157353
753.596	0.0156845
753.674	0.0155981
753.753	0.0156517
753.831	0.0155667
753.909	0.0155010
753.987	0.0154848
754.065	0.0155234
754.143	0.0154854
754.221	0.0155201
754.299	0.0154473
754.378	0.0155718
754.456	0.0155071
754.534	0.0155241
754.612	0.0155389
754.690	0.0155337
754.768	0.0156992
754.846	0.0155757
754.924	0.0157198
755.003	0.0156326
755.081	0.0157936
755.159	0.0159106
755.237	0.0157740
755.315	0.0159292
755.393	0.0162444
755.471	0.0160566
755.549	0.0161180
755.628	0.0164335
755.706	0.0163811
755.784	0.0164882
755.862	0.0163515
755.940	0.0163486
756.018	0.0165102
756.096	0.0165636
756.174	0.0165296
756.253	0.0165283
756.331	0.0166924
756.409	0.0166484
756.487	0.0168101
756.565	0.0165829
756.643	0.0165595
756.721	0.0166994
756.799	0.0166685
756.878	0.0166048
756.956	0.0164287
757.034	0.0164860
757.112	0.0164635
757.190	0.0163652
757.268	0.0163865
757.346	0.0163120
757.424	0.0163833
757.503	0.0162559
757.581	0.0160944
757.659	0.0162148
757.737	0.0161383
757.815	0.0159652
757.893	0.0160432
757.971	0.0160465
758.049	0.0159362
758.128	0.0158417
758.206	0.0157153
758.284	0.0156038
758.362	0.0157236
758.440	0.0158450
758.518	0.0155732
758.596	0.0156892
758.674	0.0157258
758.753	0.0157976
758.831	0.0157489
758.909	0.0157049
758.987	0.0157262
759.065	0.0158344
759.143	0.0158961
759.221	0.0158150
759.299	0.0159524
759.378	0.0159411
759.456	0.0158574
759.534	0.0159338
759.612	0.0158441
759.690	0.0161034
759.768	0.0160050
759.846	0.0158253
759.924	0.0161403
760.003	0.0160900
760.081	0.0159533
760.159	0.0160848
760.237	0.0162267
760.315	0.0160373
760.393	0.0159911
760.471	0.0161591
760.549	0.0159204
760.628	0.0158685
760.706	0.0160386
760.784	0.0159522
760.862	0.0159432
760.940	0.0160047
761.018	0.0158990
761.096	0.0159190
761.174	0.0158071
761.253	0.0157907
761.331	0.0157439
761.409	0.0159543
761.487	0.0156934
761.565	0.0156692
761.643	0.0156708
761.721	0.0157610
761.799	0.0158188
761.878	0.0158235
761.956	0.0158038
762.034	0.0157469
762.112	0.0157930
762.190	0.0158034
762.268	0.0157647
762.346	0.0158274
762.424	0.0158902
762.503	0.0157198
762.581	0.0157587
762.659	0.0156296
762.737	0.0156240
762.815	0.0156855
762.893	0.0156412
762.971	0.0154713
763.049	0.0155013
763.128	0.0155371
763.206	0.0154221
763.284	0.0154212
763.362	0.0153337
763.440	0.0153559
763.518	0.0152869
763.596	0.0152364
763.674	0.0152850
763.753	0.0154160
763.831	0.0154967
763.909	0.0153200
763.987	0.0154201
764.065	0.0153396
764.143	0.0154568
764.221	0.0155598
764.299	0.0154121
764.378	0.0155056
764.456	0.0155910
764.534	0.0155765
764.612	0.0155902
764.690	0.0156749
764.768	0.0157011
764.846	0.0156276
764.924	0.0157018
765.003	0.0157043
765.081	0.0156624
765.159	0.0157503
765.237	0.0158339
765.315	0.0159586
765.393	0.0157780
765.471	0.0158051
765.549	0.0158623
765.628	0.0158721
765.706	0.0159618
765.784	0.0158183
765.862	0.0159341
765.940	0.0158733
766.018	0.0157559
766.096	0.0158327
766.174	0.0158374
766.253	0.0159684
766.331	0.0158864
766.409	0.0159550
766.487	0.0158754
766.565	0.0160036
766.643	0.0160018
766.721	0.0159608
766.799	0.0158858
766.878	0.0160390
766.956	0.0161057
767.034	0.0161106
767.112	0.0159158
767.190	0.0160811
767.268	0.0161873
767.346	0.0161735
767.424	0.0161527
767.503	0.0162173
767.581	0.0162392
767.659	0.0162614
767.737	0.0161863
767.815	0.0161356
767.893	0.0162207
767.971	0.0161462
768.049	0.0161893
768.128	0.0162441
768.206	0.0160661
768.284	0.0162122
768.362	0.0162216
768.440	0.0160989
768.518	0.0158818
768.596	0.0160624
768.674	0.0161578
768.753	0.0158477
768.831	0.0158067
768.909	0.0157948
768.987	0.0158171
769.065	0.0159068
769.143	0.0159658
769.221	0.0158747
769.299	0.0159806
769.378	0.0159120
769.456	0.0160743
769.534	0.0159577
769.612	0.0161322
769.690	0.0160805
769.768	0.0159623
769.846	0.0161495
769.924	0.0162891
770.003	0.0161395
770.081	0.0160184
770.159	0.0161485
770.237	0.0162094
770.315	0.0161627
770.393	0.0160756
770.471	0.0161494
770.549	0.0162305
770.628	0.0160674
770.706	0.0161816
770.784	0.0162020
770.862	0.0164436
770.940	0.0163618
771.018	0.0162748
771.096	0.0163607
771.174	0.0164113
771.253	0.0166010
771.331	0.0165500
771.409	0.0164246
771.487	0.0164875
771.565	0.0164476
771.643	0.0164837
771.721	0.0163797
771.799	0.0162167
771.878	0.0160622
771.956	0.0161153
772.034	0.0160803
772.112	0.0159309
772.190	0.0158332
772.268	0.0158037
772.346	0.0156297
772.424	0.0156195
772.503	0.0153758
772.581	0.0155288
772.659	0.0153254
772.737	0.0153237
772.815	0.0152924
772.893	0.0152265
772.971	0.0153102
773.049	0.0154124
773.128	0.0153897
773.206	0.0156734
773.284	0.0156895
773.362	0.0159054
773.440	0.0160371
773.518	0.0160976
773.596	0.0163613
773.674	0.0164383
773.753	0.0165025
773.831	0.0164906
773.909	0.0164343
773.987	0.0166217
774.065	0.0166362
774.143	0.0167208
774.221	0.0168640
774.299	0.0168298
774.378	0.0166968
774.456	0.0166206
774.534	0.0167433
774.612	0.0167763
774.690	0.0165621
774.768	0.0165412
774.846	0.0165105
774.924	0.0164590
775.003	0.0164014
775.081	0.0163877
775.159	0.0161884
775.237	0.0162012
775.315	0.0159623
775.393	0.0159130
775.471	0.0158571
775.549	0.0157367
775.628	0.0156398
775.706	0.0156431
775.784	0.0154004
775.862	0.0152853
775.940	0.0154034
776.018	0.0153171
776.096	0.0153530
776.174	0.0151116
776.253	0.0150509
776.331	0.0149998
776.409	0.0151499
776.487	0.0150250
776.565	0.0149284
776.643	0.0150167
776.721	0.0150227
776.799	0.0149929
776.878	0.0149344
776.956	0.0150015
777.034	0.0151168
777.112	0.0150341
777.190	0.0151098
777.268	0.0151112
777.346	0.0152922
777.424	0.0152311
777.503	0.0152654
777.581	0.0155225
777.659	0.0155449
777.737	0.0156123
777.815	0.0158473
777.893	0.0159031
777.971	0.0159654
778.049	0.0162196
778.128	0.0161003
778.206	0.0163147
778.284	0.0162383
778.362	0.0162520
778.440	0.0163978
778.518	0.0164677
778.596	0.0166055
778.674	0.0165524
778.753	0.0166019
778.831	0.0166327
778.909	0.0167816
778.987	0.0166582
779.065	0.0166620
779.143	0.0166666
779.221	0.0166792
779.299	0.0167793
779.378	0.0166412
779.456	0.0166150
779.534	0.0165767
779.612	0.0164436
779.690	0.0165155
779.768	0.0162650
779.846	0.0160699
779.924	0.0160686
780.003	0.0159637
780.081	0.0161298
780.159	0.0158193
780.237	0.0157079
780.315	0.0157117
780.393	0.0154929
780.471	0.0154872
780.549	0.0154034
780.628	0.0154881
780.706	0.0154083
780.784	0.0152763
780.862	0.0152521
780.940	0.0151080
781.018	0.0151479
781.096	0.0151424
781.174	0.0151912
781.253	0.0153454
781.331	0.0153918
781.409	0.0153069
781.487	0.0154341
781.565	0.0153791
781.643	0.0155138
781.721	0.0155889
781.799	0.0154507
781.878	0.0155405
781.956	0.0156926
782.034	0.0158765
782.112	0.0157739
782.190	0.0158376
782.268	0.0159688
782.346	0.0160288
782.424	0.0161076
782.503	0.0160487
782.581	0.0161734
782.659	0.0162872
782.737	0.0163615
782.815	0.0162092
782.893	0.0162992
782.971	0.0163101
783.049	0.0163967
783.128	0.0164147
783.206	0.0162711
783.284	0.0163892
783.362	0.0163770
783.440	0.0163898
783.518	0.0163191
783.596	0.0162904
783.674	0.0162418
783.753	0.0161798
783.831	0.0161580
783.909	0.0160088
783.987	0.0159898
784.065	0.0160101
784.143	0.0161101
784.221	0.0159216
784.299	0.0159353
784.378	0.0157697
784.456	0.0158795
784.534	0.0157838
784.612	0.0157284
784.690	0.0157468
784.768	0.0158728
784.846	0.0159955
784.924	0.0158221
785.003	0.0158488
785.081	0.0160237
785.159	0.0158675
785.237	0.0160077
785.315	0.0160300
785.393	0.0159727
785.471	0.0160576
785.549	0.0161006
785.628	0.0160049
785.706	0.0159735
785.784	0.0160397
785.862	0.0160233
785.940	0.0159359
786.018	0.0159011
786.096	0.0158115
786.174	0.0159234
786.253	0.0156065
786.331	0.0158266
786.409	0.0158200
786.487	0.0155686
786.565	0.0156274
786.643	0.0155141
786.721	0.0154167
786.799	0.0154774
786.878	0.0154359
786.956	0.0154329
787.034	0.0154053
787.112	0.0153159
787.190	0.0153886
787.268	0.0152279
787.346	0.0153040
787.424	0.0153054
787.503	0.0153192
787.581	0.0153493
787.659	0.0152074
787.737	0.0153722
787.815	0.0153067
787.893	0.0154185
787.971	0.0153324
788.049	0.0154931
788.128	0.0155569
788.206	0.0155513
788.284	0.0156204
788.362	0.0157126
788.440	0.0156070
788.518	0.0156196
788.596	0.0157632
788.674	0.0157500
788.753	0.0158834
788.831	0.0159234
788.909	0.0157882
788.987	0.0158569
789.065	0.0158870
789.143	0.0159724
789.221	0.0158413
789.299	0.0158044
789.378	0.0158463
789.456	0.0157079
789.534	0.0158648
789.612	0.0158521
789.690	0.0157244
789.768	0.0157207
789.846	0.0156767
789.924	0.0155502
790.003	0.0155623
790.081	0.0157092
790.159	0.0155520
790.237	0.0156419
790.315	0.0156260
790.393	0.0155287
790.471	0.0154814
790.549	0.0156470
790.628	0.0155027
790.706	0.0155119
790.784	0.0155478
790.862	0.0153230
790.940	0.0153905
791.018	0.0155696
791.096	0.0154942
791.174	0.0156693
791.253	0.0157133
791.331	0.0156075
791.409	0.0156145
791.487	0.0157406
791.565	0.0156615
791.643	0.0156948
791.721	0.0156982
791.799	0.0158424
791.878	0.0158020
791.956	0.0156618
792.034	0.0157909
792.112	0.0158060
792.190	0.0159087
792.268	0.0157608
792.346	0.0156999
792.424	0.0157587
792.503	0.0157334
792.581	0.0155778
792.659	0.0154833
792.737	0.0156054
792.815	0.0153250
792.893	0.0155915
792.971	0.0155877
793.049	0.0153606
793.128	0.0154025
793.206	0.0155149
793.284	0.0153689
793.362	0.0155847
793.440	0.0156146
793.518	0.0155971
793.596	0.0154637
793.674	0.0156435
793.753	0.0156516
793.831	0.0157098
793.909	0.0156844
793.987	0.0158559
794.065	0.0157728
794.143	0.0159548
794.221	0.0158707
794.299	0.0158344
794.378	0.0160938
794.456	0.0160659
794.534	0.0160073
794.612	0.0160712
794.690	0.0161903
794.768	0.0161143
794.846	0.0161967
794.924	0.0161355
795.003	0.0160876
795.081	0.0162428
795.159	0.0162689
795.237	0.0163213
795.315	0.0163821
795.393	0.0165044
795.471	0.0163503
795.549	0.0164857
795.628	0.0165326
795.706	0.0164036
795.784	0.0164475
795.862	0.0164285
795.940	0.0163867
796.018	0.0161848
796.096	0.0161802
796.174	0.0160290
796.253	0.0159523
796.331	0.0159444
796.409	0.0160069
796.487	0.0159616
796.565	0.0158124
796.643	0.0158657
796.721	0.0156771
796.799	0.0157526
796.878	0.0159215
796.956	0.0156333
797.034	0.0158239
797.112	0.0158784
797.190	0.0158508
797.268	0.0157046
797.346	0.0157535
797.424	0.0156668
797.503	0.0157172
797.581	0.0157910
797.659	0.0158393
797.737	0.0158971
797.815	0.0157979
797.893	0.0159109
797.971	0.0158836
798.049	0.0159149
798.128	0.0158824
798.206	0.0160025
798.284	0.0159683
798.362	0.0160271
798.440	0.0159478
798.518	0.0160370
798.596	0.0160019
798.674	0.0160820
798.753	0.0159534
798.831	0.0159845
798.909	0.0159700
798.987	0.0160107
799.065	0.0160722
799.143	0.0160296
799.221	0.0161144
799.299	0.0160478
799.378	0.0159139
799.456	0.0159274
799.534	0.0160375
799.612	0.0159885
799.690	0.0159045
799.768	0.0158562
799.846	0.0158869
799.924	0.0158163
800.003	0.0158530
800.081	0.0159171
800.159	0.0158707
800.237	0.0157473
800.315	0.0159016
800.393	0.0158575
800.471	0.0159840
800.549	0.0157781
800.628	0.0158858
800.706	0.0159896
800.784	0.0158582
800.862	0.0158475
800.940	0.0158780
801.018	0.0159064
801.096	0.0159676
801.174	0.0159615
801.253	0.0158105
801.331	0.0159834
801.409	0.0160371
801.487	0.0159820
801.565	0.0158398
801.643	0.0160253
801.721	0.0159779
801.799	0.0159496
801.878	0.0160376
801.956	0.0159253
802.034	0.0159312
802.112	0.0161049
802.190	0.0160252
802.268	0.0159782
802.346	0.0157148
802.424	0.0158946
802.503	0.0159540
802.581	0.0157774
802.659	0.0158947
802.737	0.0160230
802.815	0.0159351
802.893	0.0158948
802.971	0.0157686
803.049	0.0159570
803.128	0.0157401
803.206	0.0158236
803.284	0.0157772
803.362	0.0156903
803.440	0.0155874
803.518	0.0155648
803.596	0.0155335
803.674	0.0154834
803.753	0.0154520
803.831	0.0153922
803.909	0.0154464
803.987	0.0152505
804.065	0.0151963
804.143	0.0150946
804.221	0.0152063
804.299	0.0151774
804.378	0.0151199
804.456	0.0149972
804.534	0.0150230
804.612	0.0150214
804.690	0.0150154
804.768	0.0148317
804.846	0.0150832
804.924	0.0150961
805.003	0.0151085
805.081	0.0150392
805.159	0.0151981
805.237	0.0152618
805.315	0.0151562
805.393	0.0153215
805.471	0.0153132
805.549	0.0153521
805.628	0.0154638
805.706	0.0154650
805.784	0.0155597
805.862	0.0155216
805.940	0.0155030
806.018	0.0155629
806.096	0.0155833
806.174	0.0155509
806.253	0.0155746
806.331	0.0156068
806.409	0.0155495
806.487	0.0154308
806.565	0.0155531
806.643	0.0154577
806.721	0.0155357
806.799	0.0154996
806.878	0.0154861
806.956	0.0154665
807.034	0.0155029
807.112	0.0154440
807.190	0.0153282
807.268	0.0154943
807.346	0.0155483
807.424	0.0154300
807.503	0.0154312
807.581	0.0155885
807.659	0.0156699
807.737	0.0156763
807.815	0.0157317
807.893	0.0156756
807.971	0.0157064
808.049	0.0157091
808.128	0.0157575
808.206	0.0157871
808.284	0.0158414
808.362	0.0159198
808.440	0.0160777
808.518	0.0160705
808.596	0.0160793
808.674	0.0161386
808.753	0.0162092
808.831	0.0161639
808.909	0.0161481
808.987	0.0162370
809.065	0.0163612
809.143	0.0162602
809.221	0.0163478
809.299	0.0164823
809.378	0.0164003
809.456	0.0164254
809.534	0.0162994
809.612	0.0161756
809.690	0.0163340
809.768	0.0164040
809.846	0.0162161
809.924	0.0160904
810.003	0.0161996
810.081	0.0160364
810.159	0.0160439
810.237	0.0160512
810.315	0.0158865
810.393	0.0159602
810.471	0.0158465
810.549	0.0157262
810.628	0.0157954
810.706	0.0157967
810.784	0.0156753
810.862	0.0157705
810.940	0.0156668
811.018	0.0156683
811.096	0.0156726
811.174	0.0156516
811.253	0.0155727
811.331	0.0156255
811.409	0.0154993
811.487	0.0154488
811.565	0.0154785
811.643	0.0154997
811.721	0.0152760
811.799	0.0154764
811.878	0.0155464
811.956	0.0155125
812.034	0.0156802
812.112	0.0156339
812.190	0.0157584
812.268	0.0156831
812.346	0.0155952
812.424	0.0156905
812.503	0.0157690
812.581	0.0158401
812.659	0.0157819
812.737	0.0157327
812.815	0.0157456
812.893	0.0157112
812.971	0.0157747
813.049	0.0158038
813.128	0.0155719
813.206	0.0156723
813.284	0.0156964
813.362	0.0157207
813.440	0.0155899
813.518	0.0156832
813.596	0.0158183
813.674	0.0157158
813.753	0.0157860
813.831	0.0157311
813.909	0.0157018
813.987	0.0157153
814.065	0.0158446
814.143	0.0158528
814.221	0.0158784
814.299	0.0158272
814.378	0.0158782
814.456	0.0158640
814.534	0.0159590
814.612	0.0159794
814.690	0.0159161
814.768	0.0158804
814.846	0.0159242
814.924	0.0159928
815.003	0.0160522
815.081	0.0160197
815.159	0.0160402
815.237	0.0161257
815.315	0.0158237
815.393	0.0159906
815.471	0.0161412
815.549	0.0161347
815.628	0.0162811
815.706	0.0161427
815.784	0.0161011
815.862	0.0161443
815.940	0.0161668
816.018	0.0160040
816.096	0.0161047
816.174	0.0160703
816.253	0.0161868
816.331	0.0162328
816.409	0.0160098
816.487	0.0160522
816.565	0.0161391
816.643	0.0160936
816.721	0.0161352
816.799	0.0159862
816.878	0.0160850
816.956	0.0162547
817.034	0.0161395
817.112	0.0160284
817.190	0.0160918
817.268	0.0160555
817.346	0.0161008
817.424	0.0162283
817.503	0.0161755
817.581	0.0161295
817.659	0.0159416
817.737	0.0160317
817.815	0.0160500
817.893	0.0159484
817.971	0.0161154
818.049	0.0159352
818.128	0.0159863
818.206	0.0159991
818.284	0.0157880
818.362	0.0159788
818.440	0.0159300
818.518	0.0158703
818.596	0.0156253
818.674	0.0158565
818.753	0.0156913
818.831	0.0158188
818.909	0.0158015
818.987	0.0158486
819.065	0.0156094
819.143	0.0155628
819.221	0.0157072
819.299	0.0156345
819.378	0.0156846
819.456	0.0156483
819.534	0.0157005
819.612	0.0156378
819.690	0.0156439
819.768	0.0153897
819.846	0.0154755
819.924	0.0154498
820.003	0.0153358
820.081	0.0153404
820.159	0.0152865
820.237	0.0152734
820.315	0.0152184
820.393	0.0150898
820.471	0.0151868
820.549	0.0152155
820.628	0.0151964
820.706	0.0151936
820.784	0.0150754
820.862	0.0153126
820.940	0.0152233
821.018	0.0151760
821.096	0.0151353
821.174	0.0152998
821.253	0.0151008
821.331	0.0152834
821.409	0.0155009
821.487	0.0154295
821.565	0.0155352
821.643	0.0156894
821.721	0.0157693
821.799	0.0158518
821.878	0.0158667
821.956	0.0158485
822.034	0.0160216
822.112	0.0159415
822.190	0.0162054
822.268	0.0162572
822.346	0.0162512
822.424	0.0162587
822.503	0.0163893
822.581	0.0166281
822.659	0.0164780
822.737	0.0163254
822.815	0.0165205
822.893	0.0164653
822.971	0.0163226
823.049	0.0163643
823.128	0.0164673
823.206	0.0163522
823.284	0.0163641
823.362	0.0162901
823.440	0.0162911
823.518	0.0162336
823.596	0.0161935
823.674	0.0162699
823.753	0.0160754
823.831	0.0159390
823.909	0.0160788
823.987	0.0160475
824.065	0.0159346
824.143	0.0158843
824.221	0.0158536
824.299	0.0157091
824.378	0.0157990
824.456	0.0158380
824.534	0.0156620
824.612	0.0158140
824.690	0.0157787
824.768	0.0157218
824.846	0.0157378
824.924	0.0156939
825.003	0.0155923
825.081	0.0155592
825.159	0.0155035
825.237	0.0156650
825.315	0.0158411
825.393	0.0155302
825.471	0.0157346
825.549	0.0158511
825.628	0.0158440
825.706	0.0155900
825.784	0.0157538
825.862	0.0157874
825.940	0.0157662
826.018	0.0158240
826.096	0.0158379
826.174	0.0159912
826.253	0.0158009
826.331	0.0157775
826.409	0.0159366
826.487	0.0159348
826.565	0.0158829
826.643	0.0159653
826.721	0.0159163
826.799	0.0160096
826.878	0.0159301
826.956	0.0159977
827.034	0.0159618
827.112	0.0159828
827.190	0.0158138
827.268	0.0158572
827.346	0.0156823
827.424	0.0156951
827.503	0.0157473
827.581	0.0157574
827.659	0.0157410
827.737	0.0155981
827.815	0.0155159
827.893	0.0154792
827.971	0.0154951
828.049	0.0154377
828.128	0.0154757
828.206	0.0153208
828.284	0.0153056
828.362	0.0153374
828.440	0.0151654
828.518	0.0151398
828.596	0.0150941
828.674	0.0152828
828.753	0.0152921
828.831	0.0151337
828.909	0.0152151
828.987	0.0151781
829.065	0.0153636
829.143	0.0153483
829.221	0.0153951
829.299	0.0154053
829.378	0.0154199
829.456	0.0155183
829.534	0.0153460
829.612	0.0156791
829.690	0.0155209
829.768	0.0155447
829.846	0.0156067
829.924	0.0156107
830.003	0.0155542
830.081	0.0156802
830.159	0.0156223
830.237	0.0157989
830.315	0.0158584
830.393	0.0158433
830.471	0.0157909
830.549	0.0158122
830.628	0.0156542
830.706	0.0158959
830.784	0.0159003
830.862	0.0156132
830.940	0.0158657
831.018	0.0158170
831.096	0.0157819
831.174	0.0156156
831.253	0.0156899
831.331	0.0158023
831.409	0.0158332
831.487	0.0158521
831.565	0.0158801
831.643	0.0156586
831.721	0.0157744
831.799	0.0158747
831.878	0.0159464
831.956	0.0158588
832.034	0.0156530
832.112	0.0158762
832.190	0.0157835
832.268	0.0157821
832.346	0.0160087
832.424	0.0157810
832.503	0.0159509
832.581	0.0158582
832.659	0.0160602
832.737	0.0159795
832.815	0.0159199
832.893	0.0160419
832.971	0.0160182
833.049	0.0160290
833.128	0.0161320
833.206	0.0161575
833.284	0.0162580
833.362	0.0162210
833.440	0.0162712
833.518	0.0163342
833.596	0.0163694
833.674	0.0163435
833.753	0.0162684
833.831	0.0163446
833.909	0.0162896
833.987	0.0162742
834.065	0.0163641
834.143	0.0163850
834.221	0.0162554
834.299	0.0162569
834.378	0.0162020
834.456	0.0162529
834.534	0.0162577
834.612	0.0161730
834.690	0.0161787
834.768	0.0160508
834.846	0.0160783
834.924	0.0159792
835.003	0.0160811
835.081	0.0161334
835.159	0.0159817
835.237	0.0160717
835.315	0.0161438
835.393	0.0161137
835.471	0.0160622
835.549	0.0162423
835.628	0.0160598
835.706	0.0159950
835.784	0.0159342
835.862	0.0161462
835.940	0.0161468
836.018	0.0160746
836.096	0.0162052
836.174	0.0161946
836.253	0.0160977
836.331	0.0160989
836.409	0.0161257
836.487	0.0161526
836.565	0.0162608
836.643	0.0160724
836.721	0.0161897
836.799	0.0161775
836.878	0.0160471
836.956	0.0160455
837.034	0.0159835
837.112	0.0158949
837.190	0.0160768
837.268	0.0160417
837.346	0.0158765
837.424	0.0160467
837.503	0.0161061
837.581	0.0160280
837.659	0.0159808
837.737	0.0160352
837.815	0.0160128
837.893	0.0159190
837.971	0.0158473
838.049	0.0159415
838.128	0.0160172
838.206	0.0158581
838.284	0.0158875
838.362	0.0159578
838.440	0.0158806
838.518	0.0159054
838.596	0.0158419
838.674	0.0158225
838.753	0.0156779
838.831	0.0157055
838.909	0.0157839
838.987	0.0157291
839.065	0.0156574
839.143	0.0156109
839.221	0.0156457
839.299	0.0155557
839.378	0.0155512
839.456	0.0156203
839.534	0.0155814
839.612	0.0153698
839.690	0.0155191
839.768	0.0156177
839.846	0.0153990
839.924	0.0155899
840.003	0.0156165
840.081	0.0154601
840.159	0.0156319
840.237	0.0156129
840.315	0.0155677
840.393	0.0156920
840.471	0.0157127
840.549	0.0157363
840.628	0.0157675
840.706	0.0157765
840.784	0.0158335
840.862	0.0157713
840.940	0.0158097
841.018	0.0157601
841.096	0.0158018
841.174	0.0157973
841.253	0.0158598
841.331	0.0158994
841.409	0.0158111
841.487	0.0158485
841.565	0.0158443
841.643	0.0157102
841.721	0.0158352
841.799	0.0159341
841.878	0.0158910
841.956	0.0158115
842.034	0.0157637
842.112	0.0157788
842.190	0.0157925
842.268	0.0157018
842.346	0.0156200
842.424	0.0156846
842.503	0.0156258
842.581	0.0156300
842.659	0.0158002
842.737	0.0155743
842.815	0.0155350
842.893	0.0156904
842.971	0.0156788
843.049	0.0157295
843.128	0.0156887
843.206	0.0156089
843.284	0.0157645
843.362	0.0157496
843.440	0.0156626
843.518	0.0156017
843.596	0.0157230
843.674	0.0156286
843.753	0.0156612
843.831	0.0155753
843.909	0.0156290
843.987	0.0156188
844.065	0.0154978
844.143	0.0153953
844.221	0.0153953
844.299	0.0154592
844.378	0.0154266
844.456	0.0153785
844.534	0.0153309
844.612	0.0153039
844.690	0.0151926
844.768	0.0154266
844.846	0.0153893
844.924	0.0153400
845.003	0.0152094
845.081	0.0153336
845.159	0.0153535
845.237	0.0154269
845.315	0.0155606
845.393	0.0154558
845.471	0.0155807
845.549	0.0155382
845.628	0.0155620
845.706	0.0154823
845.784	0.0156048
845.862	0.0156857
845.940	0.0155759
846.018	0.0157688
846.096	0.0157970
846.174	0.0156937
846.253	0.0158574
846.331	0.0158952
846.409	0.0160513
846.487	0.0159096
846.565	0.0160107
846.643	0.0161483
846.721	0.0160744
846.799	0.0160774
846.878	0.0161157
846.956	0.0161312
847.034	0.0161712
847.112	0.0161351
847.190	0.0161330
847.268	0.0161015
847.346	0.0160344
847.424	0.0162251
847.503	0.0161533
847.581	0.0161025
847.659	0.0161611
847.737	0.0161900
847.815	0.0161219
847.893	0.0160945
847.971	0.0160751
848.049	0.0161420
848.128	0.0161709
848.206	0.0161865
848.284	0.0159189
848.362	0.0160798
848.440	0.0161099
848.518	0.0160732
848.596	0.0161979
848.674	0.0159099
848.753	0.0159422
848.831	0.0160697
848.909	0.0159457
848.987	0.0158822
849.065	0.0159824
849.143	0.0158856
849.221	0.0157742
849.299	0.0157621
849.378	0.0158443
849.456	0.0159068
849.534	0.0157246
849.612	0.0157710
849.690	0.0158353
849.768	0.0158418
849.846	0.0159201
849.924	0.0157701
850.003	0.0159604
850.081	0.0158506
850.159	0.0159451
850.237	0.0159186
850.315	0.0158652
850.393	0.0160979
850.471	0.0159112
850.549	0.0159872
850.628	0.0160412
850.706	0.0159933
850.784	0.0160278
850.862	0.0160934
850.940	0.0159698
851.018	0.0159736
851.096	0.0159954
851.174	0.0159873
851.253	0.0159922
851.331	0.0159904
851.409	0.0158932
851.487	0.0158446
851.565	0.0159517
851.643	0.0159405
851.721	0.0159199
851.799	0.0157823
851.878	0.0158253
851.956	0.0158718
852.034	0.0158591
852.112	0.0158217
852.190	0.0157483
852.268	0.0157500
852.346	0.0158373
852.424	0.0158686
852.503	0.0159357
852.581	0.0159669
852.659	0.0158512
852.737	0.0157783
852.815	0.0160316
852.893	0.0160876
852.971	0.0159136
853.049	0.0158713
853.128	0.0159913
853.206	0.0160155
853.284	0.0158360
853.362	0.0159272
853.440	0.0160078
853.518	0.0158554
853.596	0.0158871
853.674	0.0160069
853.753	0.0158056
853.831	0.0157671
853.909	0.0158369
853.987	0.0156321
854.065	0.0156680
854.143	0.0157444
854.221	0.0156469
854.299	0.0155373
854.378	0.0156142
854.456	0.0157001
854.534	0.0156894
854.612	0.0156778
854.690	0.0155196
854.768	0.0155615
854.846	0.0156883
854.924	0.0157478
855.003	0.0156298
855.081	0.0156140
855.159	0.0155820
855.237	0.0153739
855.315	0.0155663
855.393	0.0156091
855.471	0.0156227
855.549	0.0156087
855.628	0.0155674
855.706	0.0155764
855.784	0.0157233
855.862	0.0156043
855.940	0.0155914
856.018	0.0156171
856.096	0.0157468
856.174	0.0157020
856.253	0.0156326
856.331	0.0158048
856.409	0.0157685
856.487	0.0156452
856.565	0.0158166
856.643	0.0157323
856.721	0.0156260
856.799	0.0158186
856.878	0.0157466
856.956	0.0158288
857.034	0.0158289
857.112	0.0158537
857.190	0.0158354
857.268	0.0156979
857.346	0.0158752
857.424	0.0159233
857.503	0.0159089
857.581	0.0158535
857.659	0.0156721
857.737	0.0157851
857.815	0.0159058
857.893	0.0158218
857.971	0.0158395
858.049	0.0157809
858.128	0.0157418
858.206	0.0156911
858.284	0.0156377
858.362	0.0158018
858.440	0.0157657
858.518	0.0156966
858.596	0.0156297
858.674	0.0157534
858.753	0.0157143
858.831	0.0156882
858.909	0.0158605
858.987	0.0157533
859.065	0.0158619
859.143	0.0158935
859.221	0.0157359
859.299	0.0157168
859.378	0.0159526
859.456	0.0159406
859.534	0.0159401
859.612	0.0159958
859.690	0.0159435
859.768	0.0159612
859.846	0.0159839
859.924	0.0159801
860.003	0.0161042
860.081	0.0160381
860.159	0.0159354
860.237	0.0160834
860.315	0.0162762
860.393	0.0162254
860.471	0.0160776
860.549	0.0160569
860.628	0.0161204
860.706	0.0160334
860.784	0.0162040
860.862	0.0162238
860.940	0.0162051
861.018	0.0161750
861.096	0.0161932
861.174	0.0162442
861.253	0.0162453
861.331	0.0163628
861.409	0.0161587
861.487	0.0163260
861.565	0.0163946
861.643	0.0163677
861.721	0.0163748
861.799	0.0164521
861.878	0.0163781
861.956	0.0162942
862.034	0.0164085
862.112	0.0163629
862.190	0.0162920
862.268	0.0164066
862.346	0.0163206
862.424	0.0161783
862.503	0.0162827
862.581	0.0161292
862.659	0.0161984
862.737	0.0161283
862.815	0.0161364
862.893	0.0160673
862.971	0.0160727
863.049	0.0160810
863.128	0.0160745
863.206	0.0159988
863.284	0.0159024
863.362	0.0158830
863.440	0.0158452
863.518	0.0156029
863.596	0.0157748
863.674	0.0157312
863.753	0.0156737
863.831	0.0157845
863.909	0.0155675
863.987	0.0156386
864.065	0.0155050
864.143	0.0156136
864.221	0.0156552
864.299	0.0156112
864.378	0.0155907
864.456	0.0155721
864.534	0.0155683
864.612	0.0156262
864.690	0.0156503
864.768	0.0156752
864.846	0.0156238
864.924	0.0155246
865.003	0.0155885
865.081	0.0155531
865.159	0.0154842
865.237	0.0154422
865.315	0.0156387
865.393	0.0155849
865.471	0.0155446
865.549	0.0155374
865.628	0.0156255
865.706	0.0156145
865.784	0.0155473
865.862	0.0158003
865.940	0.0158221
866.018	0.0155975
866.096	0.0157944
866.174	0.0156909
866.253	0.0158124
866.331	0.0157800
866.409	0.0157521
866.487	0.0158839
866.565	0.0156928
866.643	0.0158781
866.721	0.0157750
866.799	0.0159309
866.878	0.0159370
866.956	0.0160331
867.034	0.0160437
867.112	0.0161250
867.190	0.0161825
867.268	0.0161079
867.346	0.0161817
867.424	0.0160911
867.503	0.0161498
867.581	0.0161593
867.659	0.0160704
867.737	0.0160674
867.815	0.0162507
867.893	0.0161101
867.971	0.0160108
868.049	0.0160137
868.128	0.0160029
868.206	0.0158943
868.284	0.0158366
868.362	0.0159804
868.440	0.0159393
868.518	0.0157879
868.596	0.0157912
868.674	0.0156843
868.753	0.0156303
868.831	0.0157046
868.909	0.0155972
868.987	0.0156270
869.065	0.0156069
869.143	0.0155577
869.221	0.0155569
869.299	0.0155996
869.378	0.0153536
869.456	0.0154739
869.534	0.0154985
869.612	0.0156040
869.690	0.0155592
869.768	0.0153149
869.846	0.0153839
869.924	0.0154186
870.003	0.0152803
870.081	0.0153968
870.159	0.0154378
870.237	0.0154208
870.315	0.0153911
870.393	0.0153302
870.471	0.0154163
870.549	0.0154875
870.628	0.0153381
870.706	0.0153188
870.784	0.0154771
870.862	0.0156112
870.940	0.0154420
871.018	0.0155604
871.096	0.0156689
871.174	0.0156846
871.253	0.0156811
871.331	0.0156460
871.409	0.0157661
871.487	0.0157447
871.565	0.0156718
871.643	0.0158723
871.721	0.0159396
871.799	0.0158485
871.878	0.0158260
871.956	0.0157758
872.034	0.0157478
872.112	0.0157321
872.190	0.0158315
872.268	0.0158194
872.346	0.0157951
872.424	0.0158241
872.503	0.0157730
872.581	0.0157735
872.659	0.0157538
872.737	0.0156631
872.815	0.0158252
872.893	0.0157921
872.971	0.0157535
873.049	0.0157939
873.128	0.0158037
873.206	0.0158043
873.284	0.0159243
873.362	0.0157613
873.440	0.0157568
873.518	0.0159101
873.596	0.0158521
873.674	0.0159853
873.753	0.0159540
873.831	0.0160958
873.909	0.0160301
873.987	0.0159768
874.065	0.0163158
874.143	0.0160871
874.221	0.0163108
874.299	0.0164294
874.378	0.0164754
874.456	0.0162949
874.534	0.0164610
874.612	0.0165677
874.690	0.0166374
874.768	0.0166373
874.846	0.0166121
874.924	0.0167896
875.003	0.0168614
875.081	0.0169059
875.159	0.0169529
875.237	0.0168740
875.315	0.0169691
875.393	0.0170367
875.471	0.0170721
875.549	0.0170691
875.628	0.0169041
875.706	0.0169373
875.784	0.0170644
875.862	0.0168629
875.940	0.0168694
876.018	0.0166795
876.096	0.0166621
876.174	0.0165780
876.253	0.0164401
876.331	0.0163066
876.409	0.0162621
876.487	0.0160978
876.565	0.0159850
876.643	0.0158165
876.721	0.0158321
876.799	0.0155759
876.878	0.0155627
876.956	0.0153727
877.034	0.0154613
877.112	0.0153727
877.190	0.0151731
877.268	0.0152773
877.346	0.0151798
877.424	0.0150437
877.503	0.0149599
877.581	0.0149705
877.659	0.0148637
877.737	0.0148076
877.815	0.0148708
877.893	0.0149185
877.971	0.0147871
878.049	0.0147878
878.128	0.0148938
878.206	0.0150389
878.284	0.0150900
878.362	0.0149988
878.440	0.0149316
878.518	0.0151505
878.596	0.0151485
878.674	0.0151296
878.753	0.0151067
878.831	0.0152091
878.909	0.0152776
878.987	0.0152142
879.065	0.0153757
879.143	0.0154314
879.221	0.0154633
879.299	0.0155150
879.378	0.0155537
879.456	0.0155798
879.534	0.0155465
879.612	0.0155630
879.690	0.0156692
879.768	0.0158253
879.846	0.0156677
879.924	0.0156469
880.003	0.0157463
880.081	0.0157653
880.159	0.0158221
880.237	0.0158006
880.315	0.0158710
880.393	0.0159283
880.471	0.0157321
880.549	0.0158801
880.628	0.0158544
880.706	0.0159187
880.784	0.0157574
880.862	0.0158845
880.940	0.0158350
881.018	0.0158820
881.096	0.0158930
881.174	0.0159039
881.253	0.0159810
881.331	0.0158657
881.409	0.0158454
881.487	0.0157876
881.565	0.0157626
881.643	0.0159877
881.721	0.0159795
881.799	0.0158920
881.878	0.0158379
881.956	0.0160516
882.034	0.0159363
882.112	0.0160176
882.190	0.0158698
882.268	0.0159242
882.346	0.0160207
882.424	0.0160326
882.503	0.0158998
882.581	0.0160538
882.659	0.0159713
882.737	0.0160088
882.815	0.0160764
882.893	0.0159459
882.971	0.0160542
883.049	0.0162042
883.128	0.0161369
883.206	0.0159114
883.284	0.0159582
883.362	0.0159650
883.440	0.0159462
883.518	0.0158953
883.596	0.0160146
883.674	0.0159977
883.753	0.0159261
883.831	0.0159591
883.909	0.0159720
883.987	0.0158881
884.065	0.0159095
884.143	0.0159818
884.221	0.0160156
884.299	0.0159589
884.378	0.0158359
884.456	0.0159517
884.534	0.0158057
884.612	0.0158583
884.690	0.0158075
884.768	0.0159481
884.846	0.0158390
884.924	0.0158749
885.003	0.0158116
885.081	0.0158529
885.159	0.0158156
885.237	0.0160098
885.315	0.0159403
885.393	0.0157774
885.471	0.0159805
885.549	0.0159288
885.628	0.0159093
885.706	0.0158553
885.784	0.0157552
885.862	0.0157064
885.940	0.0156945
886.018	0.0158143
886.096	0.0158707
886.174	0.0159872
886.253	0.0159328
886.331	0.0157477
886.409	0.0158967
886.487	0.0159541
886.565	0.0158886
886.643	0.0158759
886.721	0.0157539
886.799	0.0160102
886.878	0.0159351
886.956	0.0159126
887.034	0.0159250
887.112	0.0158150
887.190	0.0160381
887.268	0.0158750
887.346	0.0159166
887.424	0.0158036
887.503	0.0159208
887.581	0.0159765
887.659	0.0157884
887.737	0.0157262
887.815	0.0157565
887.893	0.0156617
887.971	0.0156573
888.049	0.0157442
888.128	0.0156210
888.206	0.0157384
888.284	0.0157439
888.362	0.0156967
888.440	0.0156156
888.518	0.0154525
888.596	0.0156506
888.674	0.0156564
888.753	0.0156337
888.831	0.0157008
888.909	0.0154771
888.987	0.0157315
889.065	0.0157259
889.143	0.0157390
889.221	0.0156663
889.299	0.0157220
889.378	0.0157807
889.456	0.0156637
889.534	0.0156786
889.612	0.0158183
889.690	0.0157092
889.768	0.0157041
889.846	0.0156680
889.924	0.0156270
890.003	0.0158306
890.081	0.0158040
890.159	0.0158008
890.237	0.0157877
890.315	0.0157777
890.393	0.0159807
890.471	0.0159963
890.549	0.0158900
890.628	0.0160252
890.706	0.0160363
890.784	0.0161059
890.862	0.0159026
890.940	0.0159521
891.018	0.0161653
891.096	0.0161366
891.174	0.0161301
891.253	0.0161782
891.331	0.0160870
891.409	0.0161070
891.487	0.0161662
891.565	0.0160136
891.643	0.0160442
891.721	0.0161512
891.799	0.0161485
891.878	0.0161613
891.956	0.0161129
892.034	0.0160851
892.112	0.0159996
892.190	0.0160445
892.268	0.0160098
892.346	0.0160535
892.424	0.0160445
892.503	0.0160774
892.581	0.0160748
892.659	0.0161388
892.737	0.0161272
892.815	0.0160141
892.893	0.0161710
892.971	0.0162247
893.049	0.0162356
893.128	0.0160902
893.206	0.0161650
893.284	0.0162325
893.362	0.0161299
893.440	0.0161411
893.518	0.0162482
893.596	0.0161353
893.674	0.0161530
893.753	0.0161264
893.831	0.0161183
893.909	0.0162293
893.987	0.0161242
894.065	0.0161183
894.143	0.0161221
894.221	0.0160525
894.299	0.0160412
894.378	0.0159458
894.456	0.0159286
894.534	0.0159029
894.612	0.0158846
894.690	0.0160896
894.768	0.0159322
894.846	0.0159818
894.924	0.0158829
895.003	0.0158699
895.081	0.0157760
895.159	0.0158549
895.237	0.0158434
895.315	0.0157229
895.393	0.0157776
895.471	0.0158136
895.549	0.0157471
895.628	0.0156758
895.706	0.0158366
895.784	0.0158340
895.862	0.0156835
895.940	0.0156036
896.018	0.0157571
896.096	0.0156777
896.174	0.0156538
896.253	0.0157359
896.331	0.0157871
896.409	0.0157664
896.487	0.0156202
896.565	0.0158393
896.643	0.0157459
896.721	0.0157326
896.799	0.0156788
896.878	0.0157158
896.956	0.0159019
897.034	0.0160004
897.112	0.0158407
897.190	0.0158311
897.268	0.0158857
897.346	0.0159943
897.424	0.0159849
897.503	0.0159046
897.581	0.0159223
897.659	0.0158175
897.737	0.0159295
897.815	0.0159550
897.893	0.0159651
897.971	0.0158636
898.049	0.0159743
898.128	0.0159617
898.206	0.0160055
898.284	0.0160532
898.362	0.0159855
898.440	0.0160545
898.518	0.0161290
898.596	0.0160291
898.674	0.0162138
898.753	0.0161778
898.831	0.0162663
898.909	0.0162914
898.987	0.0163195
899.065	0.0163072
899.143	0.0162265
899.221	0.0163259
899.299	0.0163542
899.378	0.0162339
899.456	0.0164153
899.534	0.0162374
899.612	0.0162981
899.690	0.0163514
899.768	0.0162585
899.846	0.0163791
899.924	0.0164273
900.003	0.0163227
900.081	0.0162667
900.159	0.0163635
900.237	0.0163927
900.315	0.0161201
900.393	0.0161288
900.471	0.0161257
900.549	0.0161668
900.628	0.0160918
900.706	0.0160252
900.784	0.0160960
900.862	0.0159309
900.940	0.0158596
901.018	0.0159859
901.096	0.0158060
901.174	0.0158714
901.253	0.0157937
901.331	0.0157949
901.409	0.0157729
901.487	0.0156245
901.565	0.0154527
901.643	0.0155808
901.721	0.0153342
901.799	0.0154471
901.878	0.0153318
901.956	0.0153402
902.034	0.0153815
902.112	0.0153590
902.190	0.0151877
902.268	0.0152467
902.346	0.0151539
902.424	0.0151955
902.503	0.0153206
902.581	0.0152377
902.659	0.0151748
902.737	0.0152612
902.815	0.0151346
902.893	0.0152892
902.971	0.0153759
903.049	0.0153838
903.128	0.0153652
903.206	0.0153289
903.284	0.0154415
903.362	0.0153207
903.440	0.0153868
903.518	0.0152415
903.596	0.0152918
903.674	0.0152914
903.753	0.0153764
903.831	0.0154156
903.909	0.0154346
903.987	0.0155000
904.065	0.0154622
904.143	0.0154352
904.221	0.0153816
904.299	0.0155940
904.378	0.0155952
904.456	0.0156535
904.534	0.0156982
904.612	0.0156369
904.690	0.0156342
904.768	0.0157804
904.846	0.0158304
904.924	0.0158257
905.003	0.0158080
905.081	0.0158065
905.159	0.0159925
905.237	0.0158703
905.315	0.0158048
905.393	0.0157913
905.471	0.0158022
905.549	0.0157761
905.628	0.0156619
905.706	0.0157472
905.784	0.0157846
905.862	0.0157701
905.940	0.0157214
906.018	0.0157394
906.096	0.0156992
906.174	0.0156301
906.253	0.0156484
906.331	0.0157002
906.409	0.0157046
906.487	0.0156781
906.565	0.0156154
906.643	0.0156234
906.721	0.0157358
906.799	0.0157669
906.878	0.0156320
906.956	0.0156526
907.034	0.0157487
907.112	0.0157016
907.190	0.0156893
907.268	0.0158114
907.346	0.0159370
907.424	0.0159138
907.503	0.0158463
907.581	0.0159544
907.659	0.0159317
907.737	0.0159056
907.815	0.0160263
907.893	0.0160614
907.971	0.0159718
908.049	0.0159734
908.128	0.0159669
908.206	0.0160323
908.284	0.0160267
908.362	0.0161454
908.440	0.0159751
908.518	0.0159163
908.596	0.0159697
908.674	0.0160178
908.753	0.0159859
908.831	0.0160200
908.909	0.0158629
908.987	0.0158939
909.065	0.0158921
909.143	0.0157784
909.221	0.0157414
909.299	0.0158481
909.378	0.0158260
909.456	0.0159457
909.534	0.0157373
909.612	0.0157578
909.690	0.0157845
909.768	0.0157225
909.846	0.0156733
909.924	0.0157767
910.003	0.0157097
910.081	0.0158282
910.159	0.0157255
910.237	0.0156498
910.315	0.0157551
910.393	0.0157938
910.471	0.0157040
910.549	0.0157286
910.628	0.0157698
910.706	0.0158922
910.784	0.0158125
910.862	0.0157367
910.940	0.0157690
911.018	0.0158501
911.096	0.0158414
911.174	0.0157465
911.253	0.0158978
911.331	0.0158846
911.409	0.0158105
911.487	0.0157230
911.565	0.0158887
911.643	0.0158337
911.721	0.0158481
911.799	0.0158543
911.878	0.0158325
911.956	0.0157710
912.034	0.0157529
912.112	0.0158495
912.190	0.0156563
912.268	0.0158704
912.346	0.0157839
912.424	0.0158342
912.503	0.0157738
912.581	0.0157039
912.659	0.0156229
912.737	0.0157362
912.815	0.0156016
912.893	0.0156316
912.971	0.0156856
913.049	0.0155694
913.128	0.0155247
913.206	0.0156548
913.284	0.0157852
913.362	0.0157016
913.440	0.0157749
913.518	0.0157331
913.596	0.0156378
913.674	0.0158037
913.753	0.0156565
913.831	0.0156973
913.909	0.0157953
913.987	0.0157539
914.065	0.0157780
914.143	0.0157059
914.221	0.0157921
914.299	0.0158644
914.378	0.0158785
914.456	0.0157957
914.534	0.0157925
914.612	0.0158386
914.690	0.0159361
914.768	0.0159128
914.846	0.0160313
914.924	0.0159080
915.003	0.0158487
915.081	0.0159061
915.159	0.0159854
915.237	0.0161141
915.315	0.0161071
915.393	0.0159419
915.471	0.0160567
915.549	0.0161250
915.628	0.0161003
915.706	0.0162356
915.784	0.0161168
915.862	0.0162267
915.940	0.0161317
916.018	0.0163225
916.096	0.0162823
916.174	0.0162291
916.253	0.0162814
916.331	0.0161572
916.409	0.0162623
916.487	0.0162163
916.565	0.0162131
916.643	0.0161417
916.721	0.0162113
916.799	0.0161180
916.878	0.0160848
916.956	0.0159130
917.034	0.0159340
917.112	0.0160120
917.190	0.0158987
917.268	0.0157853
917.346	0.0157232
917.424	0.0158226
917.503	0.0156721
917.581	0.0155860
917.659	0.0156583
917.737	0.0157133
917.815	0.0156309
917.893	0.0156197
917.971	0.0156744
918.049	0.0155022
918.128	0.0154259
918.206	0.0155419
918.284	0.0154754
918.362	0.0154005
918.440	0.0156320
918.518	0.0155246
918.596	0.0154224
918.674	0.0153966
918.753	0.0155078
918.831	0.0156271
918.909	0.0155416
918.987	0.0154684
919.065	0.0156276
919.143	0.0156599
919.221	0.0156333
919.299	0.0155697
919.378	0.0157149
919.456	0.0155293
919.534	0.0157986
919.612	0.0157572
919.690	0.0157465
919.768	0.0157390
919.846	0.0157872
919.924	0.0159084
920.003	0.0159477
920.081	0.0158187
920.159	0.0157361
920.237	0.0160210
920.315	0.0160079
920.393	0.0159080
920.471	0.0159629
920.549	0.0160777
920.628	0.0161719
920.706	0.0160162
920.784	0.0159221
920.862	0.0161122
920.940	0.0158968
921.018	0.0160046
921.096	0.0159953
921.174	0.0158858
921.253	0.0159002
921.331	0.0159020
921.409	0.0160221
921.487	0.0159738
921.565	0.0159321
921.643	0.0159512
921.721	0.0158972
921.799	0.0159724
921.878	0.0159911
921.956	0.0158289
922.034	0.0159155
922.112	0.0159515
922.190	0.0158353
922.268	0.0159441
922.346	0.0159827
922.424	0.0159257
922.503	0.0158454
922.581	0.0159158
922.659	0.0158554
922.737	0.0160596
922.815	0.0159151
922.893	0.0158121
922.971	0.0157673
923.049	0.0157340
923.128	0.0158907
923.206	0.0158545
923.284	0.0156427
923.362	0.0157856
923.440	0.0159238
923.518	0.0157725
923.596	0.0159174
923.674	0.0157954
923.753	0.0157999
923.831	0.0156908
923.909	0.0156076
923.987	0.0156228
924.065	0.0157333
924.143	0.0158000
924.221	0.0157619
924.299	0.0158999
924.378	0.0158717
924.456	0.0157265
924.534	0.0155973
924.612	0.0158672
924.690	0.0157272
924.768	0.0156835
924.846	0.0159100
924.924	0.0158760
925.003	0.0158324
925.081	0.0157244
925.159	0.0158073
925.237	0.0159512
925.315	0.0158390
925.393	0.0158623
925.471	0.0158353
925.549	0.0158792
925.628	0.0159593
925.706	0.0157800
925.784	0.0157913
925.862	0.0157323
925.940	0.0157045
926.018	0.0158423
926.096	0.0157516
926.174	0.0158431
926.253	0.0156512
926.331	0.0155453
926.409	0.0157832
926.487	0.0159615
926.565	0.0158150
926.643	0.0156901
926.721	0.0157436
926.799	0.0156550
926.878	0.0156828
926.956	0.0158110
927.034	0.0158157
927.112	0.0158070
927.190	0.0158152
927.268	0.0158665
927.346	0.0159277
927.424	0.0157788
927.503	0.0159480
927.581	0.0160903
927.659	0.0160075
927.737	0.0160727
927.815	0.0160655
927.893	0.0161082
927.971	0.0160757
928.049	0.0161579
928.128	0.0161030
928.206	0.0161325
928.284	0.0160691
928.362	0.0159989
928.440	0.0161337
928.518	0.0160784
928.596	0.0160007
928.674	0.0160213
928.753	0.0158813
928.831	0.0158873
928.909	0.0158827
928.987	0.0159728
929.065	0.0159941
929.143	0.0157995
929.221	0.0157368
929.299	0.0158717
929.378	0.0158111
929.456	0.0158343
929.534	0.0158009
929.612	0.0159320
929.690	0.0159045
929.768	0.0158463
929.846	0.0157333
929.924	0.0157191
930.003	0.0157962
930.081	0.0158270
930.159	0.0158474
930.237	0.0157893
930.315	0.0158425
930.393	0.0158521
930.471	0.0157904
930.549	0.0158274
930.628	0.0157917
930.706	0.0158388
930.784	0.0159813
930.862	0.0157650
930.940	0.0158907
931.018	0.0158901
931.096	0.0158361
931.174	0.0159119
931.253	0.0160332
931.331	0.0160018
931.409	0.0159855
931.487	0.0160053
931.565	0.0160448
931.643	0.0159247
931.721	0.0158071
931.799	0.0159402
931.878	0.0158624
931.956	0.0159705
932.034	0.0159743
932.112	0.0158846
932.190	0.0159773
932.268	0.0159750
932.346	0.0159619
932.424	0.0158544
932.503	0.0157028
932.581	0.0157700
932.659	0.0159001
932.737	0.0157687
932.815	0.0157532
932.893	0.0157740
932.971	0.0159565
933.049	0.0160033
933.128	0.0158433
933.206	0.0158370
933.284	0.0159345
933.362	0.0159995
933.440	0.0159741
933.518	0.0159383
933.596	0.0160201
933.674	0.0160242
933.753	0.0160155
933.831	0.0159434
933.909	0.0159678
933.987	0.0160172
934.065	0.0160773
934.143	0.0159871
934.221	0.0159901
934.299	0.0159802
934.378	0.0159666
934.456	0.0159106
934.534	0.0158331
934.612	0.0159876
934.690	0.0159312
934.768	0.0157960
934.846	0.0156625
934.924	0.0157655
935.003	0.0158230
935.081	0.0158633
935.159	0.0158868
935.237	0.0158054
935.315	0.0158945
935.393	0.0158755
935.471	0.0157114
935.549	0.0158612
935.628	0.0158663
935.706	0.0157166
935.784	0.0158009
935.862	0.0157942
935.940	0.0158258
936.018	0.0157683
936.096	0.0156741
936.174	0.0157077
936.253	0.0157078
936.331	0.0157128
936.409	0.0158829
936.487	0.0157561
936.565	0.0157247
936.643	0.0157006
936.721	0.0156464
936.799	0.0156725
936.878	0.0155233
936.956	0.0156100
937.034	0.0156681
937.112	0.0157006
937.190	0.0156408
937.268	0.0156133
937.346	0.0156081
937.424	0.0156868
937.503	0.0157090
937.581	0.0157790
937.659	0.0157027
937.737	0.0157047
937.815	0.0157250
937.893	0.0157104
937.971	0.0157355
938.049	0.0158482
938.128	0.0156567
938.206	0.0156884
938.284	0.0158800
938.362	0.0157969
938.440	0.0158181
938.518	0.0158845
938.596	0.0157977
938.674	0.0156661
938.753	0.0157563
938.831	0.0157565
938.909	0.0156511
938.987	0.0158597
939.065	0.0158308
939.143	0.0155574
939.221	0.0156522
939.299	0.0157420
939.378	0.0156885
939.456	0.0158017
939.534	0.0156448
939.612	0.0156403
939.690	0.0157697
939.768	0.0155987
939.846	0.0156495
939.924	0.0155325
940.003	0.0155159
940.081	0.0156326
940.159	0.0155264
940.237	0.0156818
940.315	0.0155675
940.393	0.0155392
940.471	0.0155177
940.549	0.0155938
940.628	0.0154198
940.706	0.0154873
940.784	0.0155251
940.862	0.0156158
940.940	0.0156213
941.018	0.0156210
941.096	0.0156670
941.174	0.0156085
941.253	0.0156792
941.331	0.0157842
941.409	0.0158391
941.487	0.0157842
941.565	0.0158790
941.643	0.0158425
941.721	0.0159100
941.799	0.0158701
941.878	0.0158741
941.956	0.0160535
942.034	0.0161201
942.112	0.0160556
942.190	0.0158874
942.268	0.0159713
942.346	0.0159885
942.424	0.0160680
942.503	0.0159090
942.581	0.0158977
942.659	0.0159661
942.737	0.0160086
942.815	0.0159135
942.893	0.0160595
942.971	0.0160268
943.049	0.0160121
943.128	0.0160528
943.206	0.0160442
943.284	0.0161156
943.362	0.0161264
943.440	0.0162322
943.518	0.0162717
943.596	0.0161900
943.674	0.0162006
943.753	0.0162685
943.831	0.0163168
943.909	0.0161326
943.987	0.0161268
944.065	0.0161754
944.143	0.0159981
944.221	0.0161423
944.299	0.0160926
944.378	0.0160596
944.456	0.0159682
944.534	0.0159661
944.612	0.0161366
944.690	0.0159409
944.768	0.0158620
944.846	0.0159193
944.924	0.0158501
945.003	0.0158558
945.081	0.0159412
945.159	0.0159621
945.237	0.0160149
945.315	0.0158791
945.393	0.0158544
945.471	0.0159132
945.549	0.0158902
945.628	0.0159155
945.706	0.0158263
945.784	0.0158478
945.862	0.0159021
945.940	0.0159092
946.018	0.0159742
946.096	0.0159179
946.174	0.0157788
946.253	0.0159106
946.331	0.0160074
946.409	0.0160584
946.487	0.0159869
946.565	0.0160522
946.643	0.0160111
946.721	0.0160110
946.799	0.0161567
946.878	0.0162299
946.956	0.0162251
947.034	0.0161701
947.112	0.0161168
947.190	0.0160670
947.268	0.0162170
947.346	0.0161414
947.424	0.0160229
947.503	0.0160655
947.581	0.0160957
947.659	0.0161152
947.737	0.0160637
947.815	0.0160544
947.893	0.0160229
947.971	0.0160866
948.049	0.0158385
948.128	0.0158636
948.206	0.0159335
948.284	0.0158391
948.362	0.0158450
948.440	0.0159645
948.518	0.0158824
948.596	0.0157701
948.674	0.0158749
948.753	0.0157244
948.831	0.0156694
948.909	0.0158128
948.987	0.0157950
949.065	0.0156699
949.143	0.0156348
949.221	0.0157069
949.299	0.0156468
949.378	0.0155279
949.456	0.0155125
949.534	0.0153990
949.612	0.0155675
949.690	0.0156709
949.768	0.0154865
949.846	0.0156339
949.924	0.0155247
