06/29/2022	22:45:55	Ver.	4.1	UNKNOWN
Optical Delay	630.002507	Delta X		0.078125	Sweeps	1	Scan Rate	0/0
Coordinates	Axis 1	NaN	Axis 2	NaN	Axis 3	NaN	Axis 4	NaN	Axis 5	NaN	Axis 6	0.000000
TX Power	0.000000	RX Power	0.000000

630.003	0.0163605
630.081	0.0163551
630.159	0.0164438
630.237	0.0163622
630.315	0.0162955
630.393	0.0163366
630.471	0.0165244
630.549	0.0165092
630.628	0.0165150
630.706	0.0163975
630.784	0.0164332
630.862	0.0165229
630.940	0.0162989
631.018	0.0164382
631.096	0.0164236
631.174	0.0164922
631.253	0.0163988
631.331	0.0163312
631.409	0.0165813
631.487	0.0163342
631.565	0.0163871
631.643	0.0163972
631.721	0.0164033
631.799	0.0163731
631.878	0.0163148
631.956	0.0165348
632.034	0.0164687
632.112	0.0164460
632.190	0.0164023
632.268	0.0163817
632.346	0.0163666
632.424	0.0164648
632.503	0.0163754
632.581	0.0164049
632.659	0.0164552
632.737	0.0163172
632.815	0.0163462
632.893	0.0163240
632.971	0.0165065
633.049	0.0165201
633.128	0.0163063
633.206	0.0161897
633.284	0.0165239
633.362	0.0164364
633.440	0.0163813
633.518	0.0165307
633.596	0.0163253
633.674	0.0163588
633.753	0.0164708
633.831	0.0163554
633.909	0.0163184
633.987	0.0164170
634.065	0.0163929
634.143	0.0164527
634.221	0.0163941
634.299	0.0163566
634.378	0.0163216
634.456	0.0162595
634.534	0.0162569
634.612	0.0163011
634.690	0.0164443
634.768	0.0164012
634.846	0.0163897
634.924	0.0164192
635.003	0.0161964
635.081	0.0164092
635.159	0.0163480
635.237	0.0164486
635.315	0.0164323
635.393	0.0163209
635.471	0.0163988
635.549	0.0163386
635.628	0.0164774
635.706	0.0164385
635.784	0.0163761
635.862	0.0162925
635.940	0.0162599
636.018	0.0162934
636.096	0.0163387
636.174	0.0164292
636.253	0.0164729
636.331	0.0164214
636.409	0.0163873
636.487	0.0164085
636.565	0.0164627
636.643	0.0164635
636.721	0.0163747
636.799	0.0163111
636.878	0.0163434
636.956	0.0164201
637.034	0.0163435
637.112	0.0163197
637.190	0.0163698
637.268	0.0163136
637.346	0.0160895
637.424	0.0163644
637.503	0.0163374
637.581	0.0162495
637.659	0.0163750
637.737	0.0162897
637.815	0.0162384
637.893	0.0162827
637.971	0.0163223
638.049	0.0164232
638.128	0.0164158
638.206	0.0163663
638.284	0.0163054
638.362	0.0164179
638.440	0.0164660
638.518	0.0162756
638.596	0.0164479
638.674	0.0163518
638.753	0.0164373
638.831	0.0163728
638.909	0.0162803
638.987	0.0162688
639.065	0.0164082
639.143	0.0163474
639.221	0.0163754
639.299	0.0164179
639.378	0.0164008
639.456	0.0163667
639.534	0.0164234
639.612	0.0165172
639.690	0.0163313
639.768	0.0163785
639.846	0.0164021
639.924	0.0163388
640.003	0.0163514
640.081	0.0163268
640.159	0.0162487
640.237	0.0163718
640.315	0.0163481
640.393	0.0163903
640.471	0.0163278
640.549	0.0163249
640.628	0.0163023
640.706	0.0162710
640.784	0.0163771
640.862	0.0163618
640.940	0.0163953
641.018	0.0164592
641.096	0.0163193
641.174	0.0163593
641.253	0.0164004
641.331	0.0164513
641.409	0.0163075
641.487	0.0165208
641.565	0.0163512
641.643	0.0163953
641.721	0.0163995
641.799	0.0163969
641.878	0.0163668
641.956	0.0164414
642.034	0.0163991
642.112	0.0163818
642.190	0.0164148
642.268	0.0163324
642.346	0.0163155
642.424	0.0163163
642.503	0.0163380
642.581	0.0164047
642.659	0.0162383
642.737	0.0164407
642.815	0.0163184
642.893	0.0163367
642.971	0.0162779
643.049	0.0163474
643.128	0.0164487
643.206	0.0165060
643.284	0.0164577
643.362	0.0163906
643.440	0.0164679
643.518	0.0163319
643.596	0.0164071
643.674	0.0163425
643.753	0.0163755
643.831	0.0163617
643.909	0.0163715
643.987	0.0163362
644.065	0.0164735
644.143	0.0162614
644.221	0.0163447
644.299	0.0164327
644.378	0.0164226
644.456	0.0163697
644.534	0.0163855
644.612	0.0165162
644.690	0.0163314
644.768	0.0164043
644.846	0.0163013
644.924	0.0164484
645.003	0.0163812
645.081	0.0164213
645.159	0.0163952
645.237	0.0162933
645.315	0.0163831
645.393	0.0162948
645.471	0.0163592
645.549	0.0163690
645.628	0.0164626
645.706	0.0164841
645.784	0.0164198
645.862	0.0163317
645.940	0.0161990
646.018	0.0164034
646.096	0.0163557
646.174	0.0164420
646.253	0.0162914
646.331	0.0163680
646.409	0.0164321
646.487	0.0164092
646.565	0.0164375
646.643	0.0163564
646.721	0.0163314
646.799	0.0164181
646.878	0.0163812
646.956	0.0164030
647.034	0.0163516
647.112	0.0163918
647.190	0.0163551
647.268	0.0163507
647.346	0.0164211
647.424	0.0163917
647.503	0.0162597
647.581	0.0163764
647.659	0.0163490
647.737	0.0165055
647.815	0.0163486
647.893	0.0163205
647.971	0.0162859
648.049	0.0164194
648.128	0.0163092
648.206	0.0164011
648.284	0.0165034
648.362	0.0164999
648.440	0.0164280
648.518	0.0163060
648.596	0.0164445
648.674	0.0164205
648.753	0.0164078
648.831	0.0163017
648.909	0.0162923
648.987	0.0163676
649.065	0.0164506
649.143	0.0163287
649.221	0.0163139
649.299	0.0164867
649.378	0.0164362
649.456	0.0164794
649.534	0.0162820
649.612	0.0163181
649.690	0.0163168
649.768	0.0163663
649.846	0.0164229
649.924	0.0163321
650.003	0.0162845
650.081	0.0162318
650.159	0.0165159
650.237	0.0164637
650.315	0.0164788
650.393	0.0163879
650.471	0.0164839
650.549	0.0164327
650.628	0.0163277
650.706	0.0165499
650.784	0.0163477
650.862	0.0163794
650.940	0.0163751
651.018	0.0164143
651.096	0.0163539
651.174	0.0163667
651.253	0.0164020
651.331	0.0163728
651.409	0.0164248
651.487	0.0164040
651.565	0.0164648
651.643	0.0164610
651.721	0.0163283
651.799	0.0163968
651.878	0.0164662
651.956	0.0163612
652.034	0.0163433
652.112	0.0163670
652.190	0.0163630
652.268	0.0163494
652.346	0.0163535
652.424	0.0162489
652.503	0.0163919
652.581	0.0163771
652.659	0.0164392
652.737	0.0164357
652.815	0.0163522
652.893	0.0163829
652.971	0.0162711
653.049	0.0163027
653.128	0.0163197
653.206	0.0164572
653.284	0.0163874
653.362	0.0163179
653.440	0.0162379
653.518	0.0164889
653.596	0.0163015
653.674	0.0163672
653.753	0.0164065
653.831	0.0163303
653.909	0.0164829
653.987	0.0163918
654.065	0.0163309
654.143	0.0162858
654.221	0.0164031
654.299	0.0163719
654.378	0.0164324
654.456	0.0163651
654.534	0.0163945
654.612	0.0163145
654.690	0.0163881
654.768	0.0164703
654.846	0.0163166
654.924	0.0163010
655.003	0.0164774
655.081	0.0163119
655.159	0.0164553
655.237	0.0164317
655.315	0.0164128
655.393	0.0164149
655.471	0.0163847
655.549	0.0163862
655.628	0.0163641
655.706	0.0164753
655.784	0.0163547
655.862	0.0164545
655.940	0.0164021
656.018	0.0164131
656.096	0.0164729
656.174	0.0165004
656.253	0.0163695
656.331	0.0164869
656.409	0.0164493
656.487	0.0163755
656.565	0.0161420
656.643	0.0163321
656.721	0.0164298
656.799	0.0164952
656.878	0.0162693
656.956	0.0164221
657.034	0.0164374
657.112	0.0163440
657.190	0.0164574
657.268	0.0164203
657.346	0.0164001
657.424	0.0162955
657.503	0.0163410
657.581	0.0163354
657.659	0.0163150
657.737	0.0163749
657.815	0.0162305
657.893	0.0163808
657.971	0.0164123
658.049	0.0162911
658.128	0.0162751
658.206	0.0162743
658.284	0.0163776
658.362	0.0164709
658.440	0.0163741
658.518	0.0163110
658.596	0.0164722
658.674	0.0164021
658.753	0.0163927
658.831	0.0164143
658.909	0.0163432
658.987	0.0164059
659.065	0.0163507
659.143	0.0163731
659.221	0.0163379
659.299	0.0164205
659.378	0.0162649
659.456	0.0165025
659.534	0.0163837
659.612	0.0164391
659.690	0.0162703
659.768	0.0163062
659.846	0.0164017
659.924	0.0163992
660.003	0.0163943
660.081	0.0163114
660.159	0.0163413
660.237	0.0163280
660.315	0.0164109
660.393	0.0163122
660.471	0.0164025
660.549	0.0163191
660.628	0.0162431
660.706	0.0164216
660.784	0.0164565
660.862	0.0164266
660.940	0.0164706
661.018	0.0162894
661.096	0.0163654
661.174	0.0163810
661.253	0.0162534
661.331	0.0164301
661.409	0.0163750
661.487	0.0163595
661.565	0.0163703
661.643	0.0162219
661.721	0.0164227
661.799	0.0164529
661.878	0.0164826
661.956	0.0163561
662.034	0.0163995
662.112	0.0162855
662.190	0.0163363
662.268	0.0163848
662.346	0.0165099
662.424	0.0163733
662.503	0.0163824
662.581	0.0164313
662.659	0.0163571
662.737	0.0163931
662.815	0.0163168
662.893	0.0163429
662.971	0.0164816
663.049	0.0164161
663.128	0.0163877
663.206	0.0164243
663.284	0.0163277
663.362	0.0163953
663.440	0.0165097
663.518	0.0164446
663.596	0.0163941
663.674	0.0163913
663.753	0.0164038
663.831	0.0163453
663.909	0.0163802
663.987	0.0163634
664.065	0.0163651
664.143	0.0163618
664.221	0.0164732
664.299	0.0163600
664.378	0.0164453
664.456	0.0164361
664.534	0.0163430
664.612	0.0165109
664.690	0.0164616
664.768	0.0162884
664.846	0.0163896
664.924	0.0163784
665.003	0.0163721
665.081	0.0164153
665.159	0.0164836
665.237	0.0163689
665.315	0.0163804
665.393	0.0165415
665.471	0.0164451
665.549	0.0164493
665.628	0.0164220
665.706	0.0163240
665.784	0.0165606
665.862	0.0163293
665.940	0.0163745
666.018	0.0163327
666.096	0.0164219
666.174	0.0164285
666.253	0.0163025
666.331	0.0164430
666.409	0.0163702
666.487	0.0163775
666.565	0.0163878
666.643	0.0163947
666.721	0.0162947
666.799	0.0162934
666.878	0.0164217
666.956	0.0163361
667.034	0.0163533
667.112	0.0164877
667.190	0.0163888
667.268	0.0164475
667.346	0.0163107
667.424	0.0164037
667.503	0.0163055
667.581	0.0161967
667.659	0.0163988
667.737	0.0163882
667.815	0.0165588
667.893	0.0162262
667.971	0.0164724
668.049	0.0164245
668.128	0.0163150
668.206	0.0163179
668.284	0.0162054
668.362	0.0162917
668.440	0.0164819
668.518	0.0163581
668.596	0.0163241
668.674	0.0164074
668.753	0.0165631
668.831	0.0163509
668.909	0.0164295
668.987	0.0164666
669.065	0.0163335
669.143	0.0163716
669.221	0.0163551
669.299	0.0164324
669.378	0.0163720
669.456	0.0163205
669.534	0.0163184
669.612	0.0162189
669.690	0.0164469
669.768	0.0165074
669.846	0.0163482
669.924	0.0164543
670.003	0.0163520
670.081	0.0164943
670.159	0.0163720
670.237	0.0163169
670.315	0.0164184
670.393	0.0163658
670.471	0.0163540
670.549	0.0163957
670.628	0.0164619
670.706	0.0164397
670.784	0.0162759
670.862	0.0163907
670.940	0.0164919
671.018	0.0164336
671.096	0.0164239
671.174	0.0164271
671.253	0.0162885
671.331	0.0163335
671.409	0.0163724
671.487	0.0163600
671.565	0.0163099
671.643	0.0164236
671.721	0.0164103
671.799	0.0164851
671.878	0.0163593
671.956	0.0163714
672.034	0.0162484
672.112	0.0163622
672.190	0.0164432
672.268	0.0164021
672.346	0.0162473
672.424	0.0163915
672.503	0.0164382
672.581	0.0164883
672.659	0.0162684
672.737	0.0165312
672.815	0.0164614
672.893	0.0163948
672.971	0.0162280
673.049	0.0164555
673.128	0.0165148
673.206	0.0162589
673.284	0.0162635
673.362	0.0163760
673.440	0.0164086
673.518	0.0162573
673.596	0.0163821
673.674	0.0164247
673.753	0.0163253
673.831	0.0163815
673.909	0.0164645
673.987	0.0162717
674.065	0.0163653
674.143	0.0163479
674.221	0.0164236
674.299	0.0164703
674.378	0.0163030
674.456	0.0164944
674.534	0.0163871
674.612	0.0164030
674.690	0.0164658
674.768	0.0162822
674.846	0.0163821
674.924	0.0163544
675.003	0.0164566
675.081	0.0164487
675.159	0.0163983
675.237	0.0164268
675.315	0.0164532
675.393	0.0163833
675.471	0.0163383
675.549	0.0163363
675.628	0.0164298
675.706	0.0163892
675.784	0.0163058
675.862	0.0163582
675.940	0.0163998
676.018	0.0163672
676.096	0.0163808
676.174	0.0163454
676.253	0.0161926
676.331	0.0163438
676.409	0.0163750
676.487	0.0164613
676.565	0.0164687
676.643	0.0164537
676.721	0.0163390
676.799	0.0163439
676.878	0.0164463
676.956	0.0163364
677.034	0.0162503
677.112	0.0163828
677.190	0.0164555
677.268	0.0163441
677.346	0.0164311
677.424	0.0164159
677.503	0.0164571
677.581	0.0164034
677.659	0.0163354
677.737	0.0164902
677.815	0.0165640
677.893	0.0166056
677.971	0.0163948
678.049	0.0164897
678.128	0.0162978
678.206	0.0162807
678.284	0.0164134
678.362	0.0164577
678.440	0.0162987
678.518	0.0163375
678.596	0.0164622
678.674	0.0164230
678.753	0.0163322
678.831	0.0163927
678.909	0.0164240
678.987	0.0162864
679.065	0.0162723
679.143	0.0163641
679.221	0.0164799
679.299	0.0163824
679.378	0.0164258
679.456	0.0163680
679.534	0.0163774
679.612	0.0163514
679.690	0.0163995
679.768	0.0164732
679.846	0.0163019
679.924	0.0164138
680.003	0.0163783
680.081	0.0164104
680.159	0.0164706
680.237	0.0165531
680.315	0.0163300
680.393	0.0164619
680.471	0.0164165
680.549	0.0163110
680.628	0.0163932
680.706	0.0163194
680.784	0.0163071
680.862	0.0164401
680.940	0.0163572
681.018	0.0163610
681.096	0.0163699
681.174	0.0164169
681.253	0.0163612
681.331	0.0162190
681.409	0.0163929
681.487	0.0164111
681.565	0.0164690
681.643	0.0163481
681.721	0.0164016
681.799	0.0164375
681.878	0.0164189
681.956	0.0162881
682.034	0.0162270
682.112	0.0163881
682.190	0.0163575
682.268	0.0164281
682.346	0.0163841
682.424	0.0162547
682.503	0.0163977
682.581	0.0163853
682.659	0.0163987
682.737	0.0164184
682.815	0.0163653
682.893	0.0163689
682.971	0.0164054
683.049	0.0162687
683.128	0.0162870
683.206	0.0164278
683.284	0.0163560
683.362	0.0162629
683.440	0.0164288
683.518	0.0164188
683.596	0.0163050
683.674	0.0163672
683.753	0.0163763
683.831	0.0164280
683.909	0.0164661
683.987	0.0164666
684.065	0.0162734
684.143	0.0163335
684.221	0.0164744
684.299	0.0164013
684.378	0.0163316
684.456	0.0164857
684.534	0.0163670
684.612	0.0164938
684.690	0.0164339
684.768	0.0163003
684.846	0.0163046
684.924	0.0164321
685.003	0.0164078
685.081	0.0164262
685.159	0.0164828
685.237	0.0163643
685.315	0.0164854
685.393	0.0162886
685.471	0.0162576
685.549	0.0164787
685.628	0.0165166
685.706	0.0164261
685.784	0.0164114
685.862	0.0164716
685.940	0.0163823
686.018	0.0163961
686.096	0.0163896
686.174	0.0163896
686.253	0.0163608
686.331	0.0163816
686.409	0.0163800
686.487	0.0165213
686.565	0.0164314
686.643	0.0162719
686.721	0.0165327
686.799	0.0165170
686.878	0.0163525
686.956	0.0164613
687.034	0.0163604
687.112	0.0164133
687.190	0.0164446
687.268	0.0164797
687.346	0.0163898
687.424	0.0163866
687.503	0.0162881
687.581	0.0164428
687.659	0.0163934
687.737	0.0163199
687.815	0.0163157
687.893	0.0164257
687.971	0.0163877
688.049	0.0163708
688.128	0.0164433
688.206	0.0162888
688.284	0.0163281
688.362	0.0165180
688.440	0.0162798
688.518	0.0164500
688.596	0.0164936
688.674	0.0163847
688.753	0.0163721
688.831	0.0163557
688.909	0.0164554
688.987	0.0163751
689.065	0.0163806
689.143	0.0164143
689.221	0.0163535
689.299	0.0163315
689.378	0.0163723
689.456	0.0163848
689.534	0.0163840
689.612	0.0163219
689.690	0.0164354
689.768	0.0164037
689.846	0.0164939
689.924	0.0162611
690.003	0.0164792
690.081	0.0164085
690.159	0.0162549
690.237	0.0163242
690.315	0.0163438
690.393	0.0164074
690.471	0.0163109
690.549	0.0163223
690.628	0.0162403
690.706	0.0162833
690.784	0.0162070
690.862	0.0164437
690.940	0.0163594
691.018	0.0161686
691.096	0.0164678
691.174	0.0164187
691.253	0.0163764
691.331	0.0163018
691.409	0.0163335
691.487	0.0163917
691.565	0.0163870
691.643	0.0163820
691.721	0.0164179
691.799	0.0163316
691.878	0.0162508
691.956	0.0164526
692.034	0.0163912
692.112	0.0164022
692.190	0.0163954
692.268	0.0163708
692.346	0.0163884
692.424	0.0163539
692.503	0.0163475
692.581	0.0163263
692.659	0.0163823
692.737	0.0163328
692.815	0.0161903
692.893	0.0164589
692.971	0.0164043
693.049	0.0164340
693.128	0.0162957
693.206	0.0164024
693.284	0.0163931
693.362	0.0164587
693.440	0.0163411
693.518	0.0163936
693.596	0.0163268
693.674	0.0163783
693.753	0.0163608
693.831	0.0164660
693.909	0.0164137
693.987	0.0163763
694.065	0.0162997
694.143	0.0162427
694.221	0.0163212
694.299	0.0164336
694.378	0.0162131
694.456	0.0162966
694.534	0.0164529
694.612	0.0165330
694.690	0.0162416
694.768	0.0164275
694.846	0.0162377
694.924	0.0162548
695.003	0.0163913
695.081	0.0164297
695.159	0.0163989
695.237	0.0163612
695.315	0.0164064
695.393	0.0163942
695.471	0.0163397
695.549	0.0162592
695.628	0.0165810
695.706	0.0162628
695.784	0.0163960
695.862	0.0164379
695.940	0.0163328
696.018	0.0164259
696.096	0.0163123
696.174	0.0162481
696.253	0.0162468
696.331	0.0164296
696.409	0.0164531
696.487	0.0163057
696.565	0.0164266
696.643	0.0164024
696.721	0.0164017
696.799	0.0163602
696.878	0.0162851
696.956	0.0164581
697.034	0.0163322
697.112	0.0163828
697.190	0.0163461
697.268	0.0163686
697.346	0.0164331
697.424	0.0164345
697.503	0.0164033
697.581	0.0162875
697.659	0.0163523
697.737	0.0164686
697.815	0.0164753
697.893	0.0163376
697.971	0.0162850
698.049	0.0164717
698.128	0.0163694
698.206	0.0162805
698.284	0.0163450
698.362	0.0163624
698.440	0.0164381
698.518	0.0163514
698.596	0.0164249
698.674	0.0163560
698.753	0.0163195
698.831	0.0162361
698.909	0.0162791
698.987	0.0163783
699.065	0.0165011
699.143	0.0163510
699.221	0.0163461
699.299	0.0165058
699.378	0.0165151
699.456	0.0162153
699.534	0.0163993
699.612	0.0163669
699.690	0.0162987
699.768	0.0164040
699.846	0.0163200
699.924	0.0165302
700.003	0.0164531
700.081	0.0163174
700.159	0.0163505
700.237	0.0163752
700.315	0.0163653
700.393	0.0164221
700.471	0.0164230
700.549	0.0165401
700.628	0.0164791
700.706	0.0165135
700.784	0.0163970
700.862	0.0165132
700.940	0.0164999
701.018	0.0164412
701.096	0.0165419
701.174	0.0165784
701.253	0.0163979
701.331	0.0163607
701.409	0.0164102
701.487	0.0164681
701.565	0.0163455
701.643	0.0163371
701.721	0.0164015
701.799	0.0164314
701.878	0.0164313
701.956	0.0163334
702.034	0.0163263
702.112	0.0164594
702.190	0.0164107
702.268	0.0163457
702.346	0.0164759
702.424	0.0164364
702.503	0.0164680
702.581	0.0164576
702.659	0.0164194
702.737	0.0163280
702.815	0.0164303
702.893	0.0163770
702.971	0.0163770
703.049	0.0163931
703.128	0.0165431
703.206	0.0163833
703.284	0.0163358
703.362	0.0163295
703.440	0.0164353
703.518	0.0164019
703.596	0.0163110
703.674	0.0164091
703.753	0.0163229
703.831	0.0163844
703.909	0.0163697
703.987	0.0165160
704.065	0.0162948
704.143	0.0163364
704.221	0.0164376
704.299	0.0164326
704.378	0.0163764
704.456	0.0164161
704.534	0.0163959
704.612	0.0163105
704.690	0.0163044
704.768	0.0162988
704.846	0.0164409
704.924	0.0162900
705.003	0.0162102
705.081	0.0163890
705.159	0.0163916
705.237	0.0164807
705.315	0.0163527
705.393	0.0162535
705.471	0.0163602
705.549	0.0163111
705.628	0.0163262
705.706	0.0162943
705.784	0.0162875
705.862	0.0164619
705.940	0.0162186
706.018	0.0163197
706.096	0.0163461
706.174	0.0163715
706.253	0.0163229
706.331	0.0164180
706.409	0.0162597
706.487	0.0162260
706.565	0.0163809
706.643	0.0162920
706.721	0.0164117
706.799	0.0164304
706.878	0.0163422
706.956	0.0163515
707.034	0.0162357
707.112	0.0163280
707.190	0.0163200
707.268	0.0161761
707.346	0.0163371
707.424	0.0163125
707.503	0.0163403
707.581	0.0164048
707.659	0.0163424
707.737	0.0163947
707.815	0.0163184
707.893	0.0162859
707.971	0.0163449
708.049	0.0163508
708.128	0.0163638
708.206	0.0164496
708.284	0.0163333
708.362	0.0164700
708.440	0.0164845
708.518	0.0163995
708.596	0.0162840
708.674	0.0164759
708.753	0.0164046
708.831	0.0165093
708.909	0.0163845
708.987	0.0162827
709.065	0.0162523
709.143	0.0162811
709.221	0.0162536
709.299	0.0164635
709.378	0.0164503
709.456	0.0163113
709.534	0.0163608
709.612	0.0163558
709.690	0.0163760
709.768	0.0163912
709.846	0.0163492
709.924	0.0163528
710.003	0.0162770
710.081	0.0165228
710.159	0.0163474
710.237	0.0164184
710.315	0.0164688
710.393	0.0163805
710.471	0.0164355
710.549	0.0164951
710.628	0.0163453
710.706	0.0164482
710.784	0.0163886
710.862	0.0164174
710.940	0.0163254
711.018	0.0164216
711.096	0.0163645
711.174	0.0163078
711.253	0.0164562
711.331	0.0163992
711.409	0.0164276
711.487	0.0164820
711.565	0.0163181
711.643	0.0165480
711.721	0.0165440
711.799	0.0165001
711.878	0.0164764
711.956	0.0165440
712.034	0.0165002
712.112	0.0163969
712.190	0.0163071
712.268	0.0164064
712.346	0.0164691
712.424	0.0164234
712.503	0.0165228
712.581	0.0165311
712.659	0.0165650
712.737	0.0165725
712.815	0.0165489
712.893	0.0164867
712.971	0.0165305
713.049	0.0165699
713.128	0.0165859
713.206	0.0165010
713.284	0.0164952
713.362	0.0163898
713.440	0.0163747
713.518	0.0165810
713.596	0.0165833
713.674	0.0164758
713.753	0.0163947
713.831	0.0164890
713.909	0.0164466
713.987	0.0164435
714.065	0.0163898
714.143	0.0163260
714.221	0.0163384
714.299	0.0163387
714.378	0.0163841
714.456	0.0163045
714.534	0.0161807
714.612	0.0162949
714.690	0.0163048
714.768	0.0163702
714.846	0.0161566
714.924	0.0162547
715.003	0.0161782
715.081	0.0162828
715.159	0.0161993
715.237	0.0162864
715.315	0.0161727
715.393	0.0160896
715.471	0.0161464
715.549	0.0161549
715.628	0.0161870
715.706	0.0160101
715.784	0.0161885
715.862	0.0163483
715.940	0.0161686
716.018	0.0163274
716.096	0.0164961
716.174	0.0165311
716.253	0.0166680
716.331	0.0166769
716.409	0.0167010
716.487	0.0170036
716.565	0.0168758
716.643	0.0169079
716.721	0.0171376
716.799	0.0170786
716.878	0.0169575
716.956	0.0167554
717.034	0.0165563
717.112	0.0165180
717.190	0.0162560
717.268	0.0161337
717.346	0.0161349
717.424	0.0159875
717.503	0.0156576
717.581	0.0157520
717.659	0.0156769
717.737	0.0156776
717.815	0.0158796
717.893	0.0159277
717.971	0.0160799
718.049	0.0163061
718.128	0.0165565
718.206	0.0169347
718.284	0.0172499
718.362	0.0174216
718.440	0.0178341
718.518	0.0179257
718.596	0.0180928
718.674	0.0180656
718.753	0.0180627
718.831	0.0178916
718.909	0.0175227
718.987	0.0171787
719.065	0.0166322
719.143	0.0163139
719.221	0.0157209
719.299	0.0151207
719.378	0.0145853
719.456	0.0141288
719.534	0.0137582
719.612	0.0134842
719.690	0.0133965
719.768	0.0132193
719.846	0.0135165
719.924	0.0138667
720.003	0.0142340
720.081	0.0149799
720.159	0.0155929
720.237	0.0161794
720.315	0.0169322
720.393	0.0175334
720.471	0.0181679
720.549	0.0189385
720.628	0.0194688
720.706	0.0198647
720.784	0.0198681
720.862	0.0199843
720.940	0.0197679
721.018	0.0193324
721.096	0.0189240
721.174	0.0185139
721.253	0.0174727
721.331	0.0167243
721.409	0.0159071
721.487	0.0149776
721.565	0.0143643
721.643	0.0138110
721.721	0.0133189
721.799	0.0129037
721.878	0.0128803
721.956	0.0129964
722.034	0.0131868
722.112	0.0136025
722.190	0.0140872
722.268	0.0147752
722.346	0.0153535
722.424	0.0160250
722.503	0.0166222
722.581	0.0172658
722.659	0.0180813
722.737	0.0185523
722.815	0.0188926
722.893	0.0193279
722.971	0.0194936
723.049	0.0193922
723.128	0.0191855
723.206	0.0190937
723.284	0.0186921
723.362	0.0182552
723.440	0.0177243
723.518	0.0172734
723.596	0.0166949
723.674	0.0163442
723.753	0.0156803
723.831	0.0154010
723.909	0.0150563
723.987	0.0149247
724.065	0.0148531
724.143	0.0145599
724.221	0.0148594
724.299	0.0148591
724.378	0.0150022
724.456	0.0148839
724.534	0.0150343
724.612	0.0153461
724.690	0.0154453
724.768	0.0158244
724.846	0.0158363
724.924	0.0159979
725.003	0.0161902
725.081	0.0164040
725.159	0.0166107
725.237	0.0166862
725.315	0.0166547
725.393	0.0170901
725.471	0.0170245
725.549	0.0170721
725.628	0.0170723
725.706	0.0171510
725.784	0.0171876
725.862	0.0169992
725.940	0.0169375
726.018	0.0169153
726.096	0.0168350
726.174	0.0166391
726.253	0.0166837
726.331	0.0166277
726.409	0.0165273
726.487	0.0166531
726.565	0.0164879
726.643	0.0163445
726.721	0.0163972
726.799	0.0164970
726.878	0.0164514
726.956	0.0165008
727.034	0.0164435
727.112	0.0164580
727.190	0.0164030
727.268	0.0166512
727.346	0.0164512
727.424	0.0164808
727.503	0.0165949
727.581	0.0164397
727.659	0.0164443
727.737	0.0164920
727.815	0.0165312
727.893	0.0163321
727.971	0.0161772
728.049	0.0164017
728.128	0.0162836
728.206	0.0160667
728.284	0.0159286
728.362	0.0156499
728.440	0.0156083
728.518	0.0155775
728.596	0.0155793
728.674	0.0154485
728.753	0.0154861
728.831	0.0153994
728.909	0.0154075
728.987	0.0155144
729.065	0.0156643
729.143	0.0158213
729.221	0.0160040
729.299	0.0162872
729.378	0.0164196
729.456	0.0166605
729.534	0.0165923
729.612	0.0166320
729.690	0.0167284
729.768	0.0168449
729.846	0.0169036
729.924	0.0169623
730.003	0.0170273
730.081	0.0169879
730.159	0.0169098
730.237	0.0169580
730.315	0.0169632
730.393	0.0169685
730.471	0.0169587
730.549	0.0169710
730.628	0.0169595
730.706	0.0169894
730.784	0.0168106
730.862	0.0168250
730.940	0.0168323
731.018	0.0166465
731.096	0.0167581
731.174	0.0165491
731.253	0.0164502
731.331	0.0162524
731.409	0.0163409
731.487	0.0161109
731.565	0.0160150
731.643	0.0160162
731.721	0.0157726
731.799	0.0157930
731.878	0.0156456
731.956	0.0155994
732.034	0.0155984
732.112	0.0153945
732.190	0.0154604
732.268	0.0155411
732.346	0.0156096
732.424	0.0155860
732.503	0.0157543
732.581	0.0158833
732.659	0.0159921
732.737	0.0160205
732.815	0.0161763
732.893	0.0162471
732.971	0.0164050
733.049	0.0165579
733.128	0.0165714
733.206	0.0166982
733.284	0.0166178
733.362	0.0167181
733.440	0.0166806
733.518	0.0166725
733.596	0.0167194
733.674	0.0166860
733.753	0.0165054
733.831	0.0165465
733.909	0.0164371
733.987	0.0162637
734.065	0.0162940
734.143	0.0162839
734.221	0.0162075
734.299	0.0160947
734.378	0.0162610
734.456	0.0162160
734.534	0.0161604
734.612	0.0163984
734.690	0.0164455
734.768	0.0166297
734.846	0.0168316
734.924	0.0168422
735.003	0.0170462
735.081	0.0171118
735.159	0.0170824
735.237	0.0173775
735.315	0.0171555
735.393	0.0170783
735.471	0.0172211
735.549	0.0170667
735.628	0.0168465
735.706	0.0167699
735.784	0.0166839
735.862	0.0164228
735.940	0.0161535
736.018	0.0160007
736.096	0.0159702
736.174	0.0158218
736.253	0.0156225
736.331	0.0155882
736.409	0.0155932
736.487	0.0155350
736.565	0.0155945
736.643	0.0156376
736.721	0.0156893
736.799	0.0158181
736.878	0.0159695
736.956	0.0159219
737.034	0.0160839
737.112	0.0160303
737.190	0.0161444
737.268	0.0164336
737.346	0.0163983
737.424	0.0163734
737.503	0.0165025
737.581	0.0164536
737.659	0.0165163
737.737	0.0165507
737.815	0.0165704
737.893	0.0164897
737.971	0.0164715
738.049	0.0163473
738.128	0.0163380
738.206	0.0162859
738.284	0.0163454
738.362	0.0162112
738.440	0.0160803
738.518	0.0159254
738.596	0.0159743
738.674	0.0159190
738.753	0.0160334
738.831	0.0161631
738.909	0.0160236
738.987	0.0160533
739.065	0.0162274
739.143	0.0164341
739.221	0.0166933
739.299	0.0166058
739.378	0.0168620
739.456	0.0171000
739.534	0.0173145
739.612	0.0173027
739.690	0.0174774
739.768	0.0173823
739.846	0.0174209
739.924	0.0174088
740.003	0.0173119
740.081	0.0171230
740.159	0.0167822
740.237	0.0164765
740.315	0.0163554
740.393	0.0162843
740.471	0.0160250
740.549	0.0157279
740.628	0.0155614
740.706	0.0157368
740.784	0.0155643
740.862	0.0154657
740.940	0.0155212
741.018	0.0155345
741.096	0.0156984
741.174	0.0157568
741.253	0.0157437
741.331	0.0158916
741.409	0.0161267
741.487	0.0163467
741.565	0.0164342
741.643	0.0166624
741.721	0.0166110
741.799	0.0166245
741.878	0.0167517
741.956	0.0166943
742.034	0.0165688
742.112	0.0164718
742.190	0.0163787
742.268	0.0163758
742.346	0.0160369
742.424	0.0158717
742.503	0.0158908
742.581	0.0155289
742.659	0.0154906
742.737	0.0154364
742.815	0.0154290
742.893	0.0153896
742.971	0.0154375
743.049	0.0155180
743.128	0.0153207
743.206	0.0156014
743.284	0.0158897
743.362	0.0161314
743.440	0.0163106
743.518	0.0164106
743.596	0.0167559
743.674	0.0169840
743.753	0.0171358
743.831	0.0171421
743.909	0.0172459
743.987	0.0174171
744.065	0.0173514
744.143	0.0173561
744.221	0.0173275
744.299	0.0171402
744.378	0.0169952
744.456	0.0168290
744.534	0.0169123
744.612	0.0167705
744.690	0.0165829
744.768	0.0164539
744.846	0.0162350
744.924	0.0162218
745.003	0.0162703
745.081	0.0161607
745.159	0.0159783
745.237	0.0158739
745.315	0.0161365
745.393	0.0161891
745.471	0.0162734
745.549	0.0163935
745.628	0.0164282
745.706	0.0165317
745.784	0.0165052
745.862	0.0164926
745.940	0.0165981
746.018	0.0167078
746.096	0.0167249
746.174	0.0165917
746.253	0.0167374
746.331	0.0165884
746.409	0.0166360
746.487	0.0164933
746.565	0.0163922
746.643	0.0162904
746.721	0.0163916
746.799	0.0161732
746.878	0.0161768
746.956	0.0160728
747.034	0.0159506
747.112	0.0159329
747.190	0.0159506
747.268	0.0160015
747.346	0.0160602
747.424	0.0158698
747.503	0.0159256
747.581	0.0159077
747.659	0.0159984
747.737	0.0161810
747.815	0.0161848
747.893	0.0162553
747.971	0.0165759
748.049	0.0165084
748.128	0.0166164
748.206	0.0166576
748.284	0.0166534
748.362	0.0166507
748.440	0.0166584
748.518	0.0167695
748.596	0.0166351
748.674	0.0167440
748.753	0.0165800
748.831	0.0164443
748.909	0.0165462
748.987	0.0164828
749.065	0.0164094
749.143	0.0162836
749.221	0.0163700
749.299	0.0163866
749.378	0.0163744
749.456	0.0164520
749.534	0.0163011
749.612	0.0163985
749.690	0.0164346
749.768	0.0164553
749.846	0.0165279
749.924	0.0164579
750.003	0.0164417
750.081	0.0163811
750.159	0.0163326
750.237	0.0163076
750.315	0.0161975
750.393	0.0160828
750.471	0.0160351
750.549	0.0159280
750.628	0.0160258
750.706	0.0159107
750.784	0.0158981
750.862	0.0159660
750.940	0.0158088
751.018	0.0160038
751.096	0.0160060
751.174	0.0161016
751.253	0.0160197
751.331	0.0162236
751.409	0.0162021
751.487	0.0163277
751.565	0.0163239
751.643	0.0164742
751.721	0.0165632
751.799	0.0162951
751.878	0.0163832
751.956	0.0165154
752.034	0.0164293
752.112	0.0163148
752.190	0.0164374
752.268	0.0164825
752.346	0.0163905
752.424	0.0163653
752.503	0.0163691
752.581	0.0165261
752.659	0.0163919
752.737	0.0163599
752.815	0.0164591
752.893	0.0163255
752.971	0.0162925
753.049	0.0163315
753.128	0.0163651
753.206	0.0163282
753.284	0.0162366
753.362	0.0164196
753.440	0.0163000
753.518	0.0162901
753.596	0.0162772
753.674	0.0163764
753.753	0.0163815
753.831	0.0165745
753.909	0.0165960
753.987	0.0163674
754.065	0.0164529
754.143	0.0167622
754.221	0.0166467
754.299	0.0166021
754.378	0.0166475
754.456	0.0165171
754.534	0.0165640
754.612	0.0164639
754.690	0.0165057
754.768	0.0164874
754.846	0.0164603
754.924	0.0165723
755.003	0.0163807
755.081	0.0165482
755.159	0.0163278
755.237	0.0163744
755.315	0.0163320
755.393	0.0163589
755.471	0.0162568
755.549	0.0163446
755.628	0.0160773
755.706	0.0160313
755.784	0.0161185
755.862	0.0159701
755.940	0.0158387
756.018	0.0158042
756.096	0.0160005
756.174	0.0158866
756.253	0.0159363
756.331	0.0160118
756.409	0.0160807
756.487	0.0160096
756.565	0.0160878
756.643	0.0163423
756.721	0.0163541
756.799	0.0163834
756.878	0.0164854
756.956	0.0166788
757.034	0.0165858
757.112	0.0167144
757.190	0.0167329
757.268	0.0168406
757.346	0.0167672
757.424	0.0167025
757.503	0.0166213
757.581	0.0164566
757.659	0.0164724
757.737	0.0164677
757.815	0.0163349
757.893	0.0162766
757.971	0.0161652
758.049	0.0161856
758.128	0.0160078
758.206	0.0159452
758.284	0.0160417
758.362	0.0161462
758.440	0.0161435
758.518	0.0160913
758.596	0.0161671
758.674	0.0163560
758.753	0.0162100
758.831	0.0164591
758.909	0.0164282
758.987	0.0165140
759.065	0.0164857
759.143	0.0165715
759.221	0.0166480
759.299	0.0167741
759.378	0.0166415
759.456	0.0165335
759.534	0.0165169
759.612	0.0164412
759.690	0.0164228
759.768	0.0164224
759.846	0.0164055
759.924	0.0163565
760.003	0.0163263
760.081	0.0162770
760.159	0.0161729
760.237	0.0162201
760.315	0.0162537
760.393	0.0162379
760.471	0.0162689
760.549	0.0162185
760.628	0.0161292
760.706	0.0162366
760.784	0.0162068
760.862	0.0162967
760.940	0.0162440
761.018	0.0162662
761.096	0.0163025
761.174	0.0164190
761.253	0.0161927
761.331	0.0163220
761.409	0.0161280
761.487	0.0163837
761.565	0.0163824
761.643	0.0162750
761.721	0.0163377
761.799	0.0162465
761.878	0.0164544
761.956	0.0163471
762.034	0.0163741
762.112	0.0164326
762.190	0.0165257
762.268	0.0165653
762.346	0.0165952
762.424	0.0166154
762.503	0.0165503
762.581	0.0166402
762.659	0.0165760
762.737	0.0165332
762.815	0.0166267
762.893	0.0167464
762.971	0.0164872
763.049	0.0165674
763.128	0.0165887
763.206	0.0165270
763.284	0.0165395
763.362	0.0163416
763.440	0.0163174
763.518	0.0163116
763.596	0.0161759
763.674	0.0162885
763.753	0.0162970
763.831	0.0161639
763.909	0.0162981
763.987	0.0162355
764.065	0.0160458
764.143	0.0162318
764.221	0.0163714
764.299	0.0163608
764.378	0.0162326
764.456	0.0162456
764.534	0.0163712
764.612	0.0164301
764.690	0.0164090
764.768	0.0163402
764.846	0.0162656
764.924	0.0163705
765.003	0.0163607
765.081	0.0162928
765.159	0.0162951
765.237	0.0164036
765.315	0.0163708
765.393	0.0161523
765.471	0.0161645
765.549	0.0161334
765.628	0.0161025
765.706	0.0162676
765.784	0.0161541
765.862	0.0160327
765.940	0.0162044
766.018	0.0162220
766.096	0.0161566
766.174	0.0161359
766.253	0.0162577
766.331	0.0161934
766.409	0.0163932
766.487	0.0164291
766.565	0.0163625
766.643	0.0164538
766.721	0.0166836
766.799	0.0165343
766.878	0.0165168
766.956	0.0164335
767.034	0.0165266
767.112	0.0164469
767.190	0.0164034
767.268	0.0163224
767.346	0.0163631
767.424	0.0163336
767.503	0.0164204
767.581	0.0163089
767.659	0.0162521
767.737	0.0161979
767.815	0.0164870
767.893	0.0164144
767.971	0.0162714
768.049	0.0162473
768.128	0.0164476
768.206	0.0163596
768.284	0.0163841
768.362	0.0164181
768.440	0.0163565
768.518	0.0165638
768.596	0.0162915
768.674	0.0163441
768.753	0.0162426
768.831	0.0162943
768.909	0.0165349
768.987	0.0164716
769.065	0.0164486
769.143	0.0164877
769.221	0.0164067
769.299	0.0163249
769.378	0.0164002
769.456	0.0164329
769.534	0.0164646
769.612	0.0164403
769.690	0.0164689
769.768	0.0164527
769.846	0.0164960
769.924	0.0164768
770.003	0.0164404
770.081	0.0164686
770.159	0.0161978
770.237	0.0162795
770.315	0.0164238
770.393	0.0165371
770.471	0.0162592
770.549	0.0163108
770.628	0.0162820
770.706	0.0161849
770.784	0.0162957
770.862	0.0163755
770.940	0.0163182
771.018	0.0161973
771.096	0.0162350
771.174	0.0162269
771.253	0.0163947
771.331	0.0163407
771.409	0.0163329
771.487	0.0164468
771.565	0.0163254
771.643	0.0164005
771.721	0.0163629
771.799	0.0162009
771.878	0.0163227
771.956	0.0163354
772.034	0.0162309
772.112	0.0163514
772.190	0.0163150
772.268	0.0163625
772.346	0.0162764
772.424	0.0163046
772.503	0.0162837
772.581	0.0162504
772.659	0.0162589
772.737	0.0162610
772.815	0.0162495
772.893	0.0160757
772.971	0.0162918
773.049	0.0163638
773.128	0.0163104
773.206	0.0163144
773.284	0.0163705
773.362	0.0164378
773.440	0.0165412
773.518	0.0166035
773.596	0.0165275
773.674	0.0165646
773.753	0.0166677
773.831	0.0167324
773.909	0.0166914
773.987	0.0166590
774.065	0.0167238
774.143	0.0166338
774.221	0.0166349
774.299	0.0165923
774.378	0.0164890
774.456	0.0165175
774.534	0.0165244
774.612	0.0163744
774.690	0.0163153
774.768	0.0165007
774.846	0.0164809
774.924	0.0163861
775.003	0.0163485
775.081	0.0164587
775.159	0.0164955
775.237	0.0164553
775.315	0.0164435
775.393	0.0164225
775.471	0.0164270
775.549	0.0165266
775.628	0.0162729
775.706	0.0162901
775.784	0.0163338
775.862	0.0162787
775.940	0.0162122
776.018	0.0162243
776.096	0.0162145
776.174	0.0161610
776.253	0.0162115
776.331	0.0160654
776.409	0.0160973
776.487	0.0160415
776.565	0.0159241
776.643	0.0160223
776.721	0.0160429
776.799	0.0160275
776.878	0.0161060
776.956	0.0161217
777.034	0.0161762
777.112	0.0162563
777.190	0.0162629
777.268	0.0163811
777.346	0.0165710
777.424	0.0164182
777.503	0.0164564
777.581	0.0165844
777.659	0.0165565
777.737	0.0164738
777.815	0.0164599
777.893	0.0164896
777.971	0.0166864
778.049	0.0164808
778.128	0.0164150
778.206	0.0165864
778.284	0.0164556
778.362	0.0165475
778.440	0.0164657
778.518	0.0164774
778.596	0.0164901
778.674	0.0165888
778.753	0.0164936
778.831	0.0166656
778.909	0.0167229
778.987	0.0166297
779.065	0.0166118
779.143	0.0165162
779.221	0.0165412
779.299	0.0166053
779.378	0.0166087
779.456	0.0164700
779.534	0.0165392
779.612	0.0166139
779.690	0.0166497
779.768	0.0165247
779.846	0.0163705
779.924	0.0164633
780.003	0.0164098
780.081	0.0163142
780.159	0.0163023
780.237	0.0162383
780.315	0.0162630
780.393	0.0161803
780.471	0.0161889
780.549	0.0161282
780.628	0.0161335
780.706	0.0160389
780.784	0.0159811
780.862	0.0160942
780.940	0.0161681
781.018	0.0161228
781.096	0.0161632
781.174	0.0161559
781.253	0.0162270
781.331	0.0161036
781.409	0.0160892
781.487	0.0162487
781.565	0.0161671
781.643	0.0163530
781.721	0.0164124
781.799	0.0164882
781.878	0.0164229
781.956	0.0162983
782.034	0.0163621
782.112	0.0163836
782.190	0.0164896
782.268	0.0164678
782.346	0.0164593
782.424	0.0164548
782.503	0.0163136
782.581	0.0163204
782.659	0.0164827
782.737	0.0163254
782.815	0.0163531
782.893	0.0164172
782.971	0.0164227
783.049	0.0163875
783.128	0.0163231
783.206	0.0164074
783.284	0.0165069
783.362	0.0164806
783.440	0.0165207
783.518	0.0165582
783.596	0.0165842
783.674	0.0163760
783.753	0.0164977
783.831	0.0165324
783.909	0.0166187
783.987	0.0166703
784.065	0.0165940
784.143	0.0165472
784.221	0.0165350
784.299	0.0165083
784.378	0.0164268
784.456	0.0165343
784.534	0.0164510
784.612	0.0163557
784.690	0.0162135
784.768	0.0161408
784.846	0.0162067
784.924	0.0162328
785.003	0.0162552
785.081	0.0160789
785.159	0.0160438
785.237	0.0161298
785.315	0.0161966
785.393	0.0161696
785.471	0.0162306
785.549	0.0163432
785.628	0.0163589
785.706	0.0164029
785.784	0.0164493
785.862	0.0167521
785.940	0.0168201
786.018	0.0167160
786.096	0.0168729
786.174	0.0166721
786.253	0.0167157
786.331	0.0166615
786.409	0.0168000
786.487	0.0167554
786.565	0.0165716
786.643	0.0166763
786.721	0.0164996
786.799	0.0164024
786.878	0.0162860
786.956	0.0163238
787.034	0.0162863
787.112	0.0162852
787.190	0.0162297
787.268	0.0163589
787.346	0.0161144
787.424	0.0162206
787.503	0.0161685
787.581	0.0163574
787.659	0.0164379
787.737	0.0163301
787.815	0.0164257
787.893	0.0165273
787.971	0.0164878
788.049	0.0165029
788.128	0.0166333
788.206	0.0166154
788.284	0.0164637
788.362	0.0165135
788.440	0.0162943
788.518	0.0164053
788.596	0.0164152
788.674	0.0162405
788.753	0.0161782
788.831	0.0161332
788.909	0.0161337
788.987	0.0161207
789.065	0.0159355
789.143	0.0160286
789.221	0.0160977
789.299	0.0161425
789.378	0.0161141
789.456	0.0163021
789.534	0.0162157
789.612	0.0164198
789.690	0.0164373
789.768	0.0163137
789.846	0.0164465
789.924	0.0165887
790.003	0.0163804
790.081	0.0164055
790.159	0.0165240
790.237	0.0164977
790.315	0.0165967
790.393	0.0165767
790.471	0.0163828
790.549	0.0163583
790.628	0.0164101
790.706	0.0164334
790.784	0.0164780
790.862	0.0163103
790.940	0.0162371
791.018	0.0162658
791.096	0.0164054
791.174	0.0163367
791.253	0.0162847
791.331	0.0163882
791.409	0.0164112
791.487	0.0163336
791.565	0.0163210
791.643	0.0164594
791.721	0.0163943
791.799	0.0163855
791.878	0.0167150
791.956	0.0164938
792.034	0.0165511
792.112	0.0165182
792.190	0.0165637
792.268	0.0163869
792.346	0.0164948
792.424	0.0164442
792.503	0.0165491
792.581	0.0162968
792.659	0.0162601
792.737	0.0162865
792.815	0.0163698
792.893	0.0162537
792.971	0.0161162
793.049	0.0161797
793.128	0.0162859
793.206	0.0163592
793.284	0.0162103
793.362	0.0161481
793.440	0.0161954
793.518	0.0162245
793.596	0.0163287
793.674	0.0162184
793.753	0.0163094
793.831	0.0161990
793.909	0.0162959
793.987	0.0162995
794.065	0.0161720
794.143	0.0163316
794.221	0.0163404
794.299	0.0162410
794.378	0.0162210
794.456	0.0161895
794.534	0.0163152
794.612	0.0162840
794.690	0.0163934
794.768	0.0164812
794.846	0.0162889
794.924	0.0163155
795.003	0.0163460
795.081	0.0163496
795.159	0.0163982
795.237	0.0163381
795.315	0.0165150
795.393	0.0165623
795.471	0.0164910
795.549	0.0165565
795.628	0.0165493
795.706	0.0165650
795.784	0.0165199
795.862	0.0164491
795.940	0.0164710
796.018	0.0164412
796.096	0.0164164
796.174	0.0165398
796.253	0.0165286
796.331	0.0164409
796.409	0.0166096
796.487	0.0166396
796.565	0.0164571
796.643	0.0165748
796.721	0.0164252
796.799	0.0165009
796.878	0.0165952
796.956	0.0164163
797.034	0.0163866
797.112	0.0163277
797.190	0.0164530
797.268	0.0164043
797.346	0.0162947
797.424	0.0162862
797.503	0.0163761
797.581	0.0162325
797.659	0.0162051
797.737	0.0161335
797.815	0.0161983
797.893	0.0162174
797.971	0.0161359
798.049	0.0161315
798.128	0.0162806
798.206	0.0161938
798.284	0.0162280
798.362	0.0162451
798.440	0.0162979
798.518	0.0162426
798.596	0.0162096
798.674	0.0163779
798.753	0.0163531
798.831	0.0164587
798.909	0.0164359
798.987	0.0164912
799.065	0.0164604
799.143	0.0164993
799.221	0.0164565
799.299	0.0164373
799.378	0.0162849
799.456	0.0162800
799.534	0.0163861
799.612	0.0164116
799.690	0.0163750
799.768	0.0163607
799.846	0.0162837
799.924	0.0165070
800.003	0.0165143
800.081	0.0164468
800.159	0.0162000
800.237	0.0162893
800.315	0.0163773
800.393	0.0163849
800.471	0.0163489
800.549	0.0164218
800.628	0.0163991
800.706	0.0163899
800.784	0.0164890
800.862	0.0163111
800.940	0.0162968
801.018	0.0162761
801.096	0.0162115
801.174	0.0165255
801.253	0.0162441
801.331	0.0163520
801.409	0.0164394
801.487	0.0164104
801.565	0.0165058
801.643	0.0164434
801.721	0.0163785
801.799	0.0165195
801.878	0.0165404
801.956	0.0165027
802.034	0.0164758
802.112	0.0165369
802.190	0.0165182
802.268	0.0164848
802.346	0.0164864
802.424	0.0164442
802.503	0.0164487
802.581	0.0164548
802.659	0.0163446
802.737	0.0164420
802.815	0.0163627
802.893	0.0164422
802.971	0.0163393
803.049	0.0163409
803.128	0.0164430
803.206	0.0162831
803.284	0.0163714
803.362	0.0164098
803.440	0.0163933
803.518	0.0162950
803.596	0.0162570
803.674	0.0163335
803.753	0.0163250
803.831	0.0161970
803.909	0.0164092
803.987	0.0165591
804.065	0.0163424
804.143	0.0164688
804.221	0.0164122
804.299	0.0164315
804.378	0.0163707
804.456	0.0164538
804.534	0.0165273
804.612	0.0164729
804.690	0.0163798
804.768	0.0165090
804.846	0.0164581
804.924	0.0164398
805.003	0.0164895
805.081	0.0164069
805.159	0.0163087
805.237	0.0162564
805.315	0.0164027
805.393	0.0164137
805.471	0.0164301
805.549	0.0164604
805.628	0.0164885
805.706	0.0165182
805.784	0.0163520
805.862	0.0164615
805.940	0.0166166
806.018	0.0165675
806.096	0.0165950
806.174	0.0165845
806.253	0.0165955
806.331	0.0165345
806.409	0.0165454
806.487	0.0164822
806.565	0.0164700
806.643	0.0163466
806.721	0.0165781
806.799	0.0163652
806.878	0.0164114
806.956	0.0164150
807.034	0.0162525
807.112	0.0163921
807.190	0.0163821
807.268	0.0162683
807.346	0.0164052
807.424	0.0163810
807.503	0.0162988
807.581	0.0164689
807.659	0.0163517
807.737	0.0165958
807.815	0.0164692
807.893	0.0163734
807.971	0.0166319
808.049	0.0165459
808.128	0.0166659
808.206	0.0165496
808.284	0.0165913
808.362	0.0165805
808.440	0.0165380
808.518	0.0164193
808.596	0.0164808
808.674	0.0164120
808.753	0.0164677
808.831	0.0165474
808.909	0.0164857
808.987	0.0163676
809.065	0.0163229
809.143	0.0163462
809.221	0.0162292
809.299	0.0161612
809.378	0.0162094
809.456	0.0161600
809.534	0.0161092
809.612	0.0162005
809.690	0.0162067
809.768	0.0162146
809.846	0.0161639
809.924	0.0163074
810.003	0.0162429
810.081	0.0161534
810.159	0.0162650
810.237	0.0164074
810.315	0.0163889
810.393	0.0165246
810.471	0.0165229
810.549	0.0165228
810.628	0.0164585
810.706	0.0164135
810.784	0.0163882
810.862	0.0163441
810.940	0.0164915
811.018	0.0164156
811.096	0.0164497
811.174	0.0166087
811.253	0.0165003
811.331	0.0164483
811.409	0.0164579
811.487	0.0164741
811.565	0.0164432
811.643	0.0165488
811.721	0.0164257
811.799	0.0163810
811.878	0.0162865
811.956	0.0163531
812.034	0.0164538
812.112	0.0164206
812.190	0.0164839
812.268	0.0165088
812.346	0.0164377
812.424	0.0165082
812.503	0.0164596
812.581	0.0164250
812.659	0.0164200
812.737	0.0164616
812.815	0.0165341
812.893	0.0163805
812.971	0.0163301
813.049	0.0163242
813.128	0.0163046
813.206	0.0164021
813.284	0.0163394
813.362	0.0162821
813.440	0.0164307
813.518	0.0163308
813.596	0.0162293
813.674	0.0163990
813.753	0.0163289
813.831	0.0164627
813.909	0.0161567
813.987	0.0162405
814.065	0.0163530
814.143	0.0162376
814.221	0.0163644
814.299	0.0164437
814.378	0.0164909
814.456	0.0165484
814.534	0.0166537
814.612	0.0164399
814.690	0.0164999
814.768	0.0166090
814.846	0.0164706
814.924	0.0165337
815.003	0.0165655
815.081	0.0165939
815.159	0.0165723
815.237	0.0165881
815.315	0.0165078
815.393	0.0163683
815.471	0.0162849
815.549	0.0163078
815.628	0.0163417
815.706	0.0161192
815.784	0.0161679
815.862	0.0162125
815.940	0.0162994
816.018	0.0161322
816.096	0.0159224
816.174	0.0160634
816.253	0.0162058
816.331	0.0161855
816.409	0.0161861
816.487	0.0159920
816.565	0.0162527
816.643	0.0164207
816.721	0.0163971
816.799	0.0163149
816.878	0.0164712
816.956	0.0164631
817.034	0.0166430
817.112	0.0164993
817.190	0.0165640
817.268	0.0165378
817.346	0.0165628
817.424	0.0166512
817.503	0.0166082
817.581	0.0167147
817.659	0.0166504
817.737	0.0165395
817.815	0.0166261
817.893	0.0164702
817.971	0.0164017
818.049	0.0163496
818.128	0.0162807
818.206	0.0162852
818.284	0.0163164
818.362	0.0162771
818.440	0.0162492
818.518	0.0161938
818.596	0.0162940
818.674	0.0162556
818.753	0.0161909
818.831	0.0162661
818.909	0.0160186
818.987	0.0163837
819.065	0.0164681
819.143	0.0163956
819.221	0.0163520
819.299	0.0163854
819.378	0.0165155
819.456	0.0165385
819.534	0.0165399
819.612	0.0165495
819.690	0.0164495
819.768	0.0165322
819.846	0.0164445
819.924	0.0164124
820.003	0.0163498
820.081	0.0163977
820.159	0.0163128
820.237	0.0162557
820.315	0.0163599
820.393	0.0161443
820.471	0.0164089
820.549	0.0162141
820.628	0.0161742
820.706	0.0161954
820.784	0.0161426
820.862	0.0161325
820.940	0.0162440
821.018	0.0162115
821.096	0.0161968
821.174	0.0163380
821.253	0.0161830
821.331	0.0163412
821.409	0.0164288
821.487	0.0162907
821.565	0.0164168
821.643	0.0164341
821.721	0.0164584
821.799	0.0166470
821.878	0.0164004
821.956	0.0164845
822.034	0.0164431
822.112	0.0165173
822.190	0.0165325
822.268	0.0163491
822.346	0.0165962
822.424	0.0164621
822.503	0.0163650
822.581	0.0164449
822.659	0.0163554
822.737	0.0164343
822.815	0.0162218
822.893	0.0163486
822.971	0.0164043
823.049	0.0163900
823.128	0.0163613
823.206	0.0163444
823.284	0.0164436
823.362	0.0163927
823.440	0.0164511
823.518	0.0164758
823.596	0.0165602
823.674	0.0166048
823.753	0.0166113
823.831	0.0165554
823.909	0.0164722
823.987	0.0166650
824.065	0.0165611
824.143	0.0164252
824.221	0.0165288
824.299	0.0164265
824.378	0.0164807
824.456	0.0163642
824.534	0.0163291
824.612	0.0164034
824.690	0.0161990
824.768	0.0161759
824.846	0.0160487
824.924	0.0160439
825.003	0.0161446
825.081	0.0159470
825.159	0.0159823
825.237	0.0160583
825.315	0.0158989
825.393	0.0160393
825.471	0.0159597
825.549	0.0161670
825.628	0.0162982
825.706	0.0163022
825.784	0.0162337
825.862	0.0162863
825.940	0.0162935
826.018	0.0163574
826.096	0.0163054
826.174	0.0164155
826.253	0.0163816
826.331	0.0165042
826.409	0.0164739
826.487	0.0165272
826.565	0.0166079
826.643	0.0165000
826.721	0.0165685
826.799	0.0165552
826.878	0.0165239
826.956	0.0168430
827.034	0.0166570
827.112	0.0165038
827.190	0.0165384
827.268	0.0166395
827.346	0.0165840
827.424	0.0166346
827.503	0.0166611
827.581	0.0166711
827.659	0.0166088
827.737	0.0165688
827.815	0.0166305
827.893	0.0165419
827.971	0.0163691
828.049	0.0163262
828.128	0.0163919
828.206	0.0162530
828.284	0.0161842
828.362	0.0162796
828.440	0.0162985
828.518	0.0161587
828.596	0.0162849
828.674	0.0163218
828.753	0.0162467
828.831	0.0162170
828.909	0.0162373
828.987	0.0160930
829.065	0.0162006
829.143	0.0162868
829.221	0.0163282
829.299	0.0162598
829.378	0.0162372
829.456	0.0163345
829.534	0.0162467
829.612	0.0163423
829.690	0.0164403
829.768	0.0161449
829.846	0.0163286
829.924	0.0162553
830.003	0.0163181
830.081	0.0163194
830.159	0.0162679
830.237	0.0163070
830.315	0.0163671
830.393	0.0163319
830.471	0.0164494
830.549	0.0164393
830.628	0.0166008
830.706	0.0164699
830.784	0.0164940
830.862	0.0165094
830.940	0.0166465
831.018	0.0166889
831.096	0.0165468
831.174	0.0166771
831.253	0.0166941
831.331	0.0166295
831.409	0.0166653
831.487	0.0168533
831.565	0.0166762
831.643	0.0165474
831.721	0.0167175
831.799	0.0166726
831.878	0.0164607
831.956	0.0164259
832.034	0.0164676
832.112	0.0165395
832.190	0.0164176
832.268	0.0163752
832.346	0.0163995
832.424	0.0163114
832.503	0.0163535
832.581	0.0163330
832.659	0.0161319
832.737	0.0161452
832.815	0.0160995
832.893	0.0159680
832.971	0.0160475
833.049	0.0161480
833.128	0.0160705
833.206	0.0160804
833.284	0.0161015
833.362	0.0160188
833.440	0.0160770
833.518	0.0160809
833.596	0.0160882
833.674	0.0162200
833.753	0.0161878
833.831	0.0160763
833.909	0.0162277
833.987	0.0163580
834.065	0.0162954
834.143	0.0163009
834.221	0.0162534
834.299	0.0163749
834.378	0.0163058
834.456	0.0161698
834.534	0.0163898
834.612	0.0164923
834.690	0.0165065
834.768	0.0164478
834.846	0.0163268
834.924	0.0165323
835.003	0.0164834
835.081	0.0163721
835.159	0.0163027
835.237	0.0164695
835.315	0.0164587
835.393	0.0165233
835.471	0.0164854
835.549	0.0165560
835.628	0.0165775
835.706	0.0164027
835.784	0.0167177
835.862	0.0163244
835.940	0.0163703
836.018	0.0165794
836.096	0.0164374
836.174	0.0165372
836.253	0.0165300
836.331	0.0165508
836.409	0.0165166
836.487	0.0164020
836.565	0.0163911
836.643	0.0165417
836.721	0.0164687
836.799	0.0163683
836.878	0.0163750
836.956	0.0163297
837.034	0.0163556
837.112	0.0161802
837.190	0.0163159
837.268	0.0162656
837.346	0.0161460
837.424	0.0161927
837.503	0.0162230
837.581	0.0161629
837.659	0.0163231
837.737	0.0160952
837.815	0.0161768
837.893	0.0161768
837.971	0.0162785
838.049	0.0162917
838.128	0.0160999
838.206	0.0162299
838.284	0.0162758
838.362	0.0161723
838.440	0.0162893
838.518	0.0162921
838.596	0.0164732
838.674	0.0162762
838.753	0.0162621
838.831	0.0163763
838.909	0.0163115
838.987	0.0163822
839.065	0.0163379
839.143	0.0164493
839.221	0.0163348
839.299	0.0165327
839.378	0.0164449
839.456	0.0163066
839.534	0.0163590
839.612	0.0164936
839.690	0.0165096
839.768	0.0164704
839.846	0.0164600
839.924	0.0164393
840.003	0.0164339
840.081	0.0164735
840.159	0.0164981
840.237	0.0164262
840.315	0.0163544
840.393	0.0164860
840.471	0.0165291
840.549	0.0165435
840.628	0.0164408
840.706	0.0164214
840.784	0.0163451
840.862	0.0164203
840.940	0.0164180
841.018	0.0163589
841.096	0.0164643
841.174	0.0164478
841.253	0.0162019
841.331	0.0163776
841.409	0.0164562
841.487	0.0163679
841.565	0.0163982
841.643	0.0164037
841.721	0.0163455
841.799	0.0162681
841.878	0.0163029
841.956	0.0164314
842.034	0.0164056
842.112	0.0164134
842.190	0.0163716
842.268	0.0164631
842.346	0.0163354
842.424	0.0164378
842.503	0.0164062
842.581	0.0163779
842.659	0.0162923
842.737	0.0164445
842.815	0.0163513
842.893	0.0163653
842.971	0.0162386
843.049	0.0162154
843.128	0.0163163
843.206	0.0163499
843.284	0.0163302
843.362	0.0162420
843.440	0.0161805
843.518	0.0163290
843.596	0.0162951
843.674	0.0164111
843.753	0.0164157
843.831	0.0164075
843.909	0.0163315
843.987	0.0164878
844.065	0.0164358
844.143	0.0163779
844.221	0.0163586
844.299	0.0164294
844.378	0.0164896
844.456	0.0163047
844.534	0.0162566
844.612	0.0162318
844.690	0.0163406
844.768	0.0163918
844.846	0.0163351
844.924	0.0161596
845.003	0.0164169
845.081	0.0163156
845.159	0.0163362
845.237	0.0163249
845.315	0.0164141
845.393	0.0163057
845.471	0.0162682
845.549	0.0164120
845.628	0.0164705
845.706	0.0161441
845.784	0.0163225
845.862	0.0164616
845.940	0.0164125
846.018	0.0164558
846.096	0.0164381
846.174	0.0163448
846.253	0.0164320
846.331	0.0164454
846.409	0.0166628
846.487	0.0164185
846.565	0.0164117
846.643	0.0165514
846.721	0.0163997
846.799	0.0165290
846.878	0.0163192
846.956	0.0164597
847.034	0.0165192
847.112	0.0164766
847.190	0.0163535
847.268	0.0163869
847.346	0.0162466
847.424	0.0162318
847.503	0.0163179
847.581	0.0163197
847.659	0.0162775
847.737	0.0163257
847.815	0.0162068
847.893	0.0163237
847.971	0.0162465
848.049	0.0161691
848.128	0.0162357
848.206	0.0163255
848.284	0.0162296
848.362	0.0164928
848.440	0.0163982
848.518	0.0165321
848.596	0.0165635
848.674	0.0165354
848.753	0.0165273
848.831	0.0164938
848.909	0.0165768
848.987	0.0165104
849.065	0.0166174
849.143	0.0165121
849.221	0.0164813
849.299	0.0166350
849.378	0.0165234
849.456	0.0164424
849.534	0.0164314
849.612	0.0164080
849.690	0.0163661
849.768	0.0163692
849.846	0.0163580
849.924	0.0162763
850.003	0.0162864
850.081	0.0162624
850.159	0.0163978
850.237	0.0162657
850.315	0.0162056
850.393	0.0162023
850.471	0.0163612
850.549	0.0163406
850.628	0.0162933
850.706	0.0163519
850.784	0.0162964
850.862	0.0164040
850.940	0.0163363
851.018	0.0163465
851.096	0.0163803
851.174	0.0164033
851.253	0.0162114
851.331	0.0162366
851.409	0.0163074
851.487	0.0163931
851.565	0.0163193
851.643	0.0163439
851.721	0.0162563
851.799	0.0162494
851.878	0.0162685
851.956	0.0163346
852.034	0.0162230
852.112	0.0164054
852.190	0.0164610
852.268	0.0163570
852.346	0.0163378
852.424	0.0163947
852.503	0.0163911
852.581	0.0163100
852.659	0.0163335
852.737	0.0163288
852.815	0.0163889
852.893	0.0163596
852.971	0.0164018
853.049	0.0164369
853.128	0.0165158
853.206	0.0165812
853.284	0.0165287
853.362	0.0164999
853.440	0.0163795
853.518	0.0164572
853.596	0.0164690
853.674	0.0166302
853.753	0.0164793
853.831	0.0164648
853.909	0.0164583
853.987	0.0164529
854.065	0.0165246
854.143	0.0164285
854.221	0.0164564
854.299	0.0163448
854.378	0.0163667
854.456	0.0164600
854.534	0.0162538
854.612	0.0163181
854.690	0.0163354
854.768	0.0162518
854.846	0.0162264
854.924	0.0162188
855.003	0.0162661
855.081	0.0163470
855.159	0.0161166
855.237	0.0162789
855.315	0.0162325
855.393	0.0162196
855.471	0.0162380
855.549	0.0163428
855.628	0.0163837
855.706	0.0162669
855.784	0.0162071
855.862	0.0162709
855.940	0.0163250
856.018	0.0163522
856.096	0.0164050
856.174	0.0163659
856.253	0.0163208
856.331	0.0163348
856.409	0.0163285
856.487	0.0163066
856.565	0.0163576
856.643	0.0162757
856.721	0.0162610
856.799	0.0162267
856.878	0.0162844
856.956	0.0163811
857.034	0.0164312
857.112	0.0163818
857.190	0.0162882
857.268	0.0164397
857.346	0.0164580
857.424	0.0163949
857.503	0.0164178
857.581	0.0165082
857.659	0.0165612
857.737	0.0165518
857.815	0.0166387
857.893	0.0164954
857.971	0.0164720
858.049	0.0164676
858.128	0.0164962
858.206	0.0165157
858.284	0.0165453
858.362	0.0165858
858.440	0.0164076
858.518	0.0164285
858.596	0.0164941
858.674	0.0164294
858.753	0.0164986
858.831	0.0165310
858.909	0.0164393
858.987	0.0165188
859.065	0.0165155
859.143	0.0166103
859.221	0.0165163
859.299	0.0164122
859.378	0.0163978
859.456	0.0164069
859.534	0.0163580
859.612	0.0164396
859.690	0.0162847
859.768	0.0164546
859.846	0.0163181
859.924	0.0163572
860.003	0.0163468
860.081	0.0162511
860.159	0.0163398
860.237	0.0162823
860.315	0.0163052
860.393	0.0163811
860.471	0.0164435
860.549	0.0164015
860.628	0.0164202
860.706	0.0162444
860.784	0.0164014
860.862	0.0164023
860.940	0.0164411
861.018	0.0163936
861.096	0.0163559
861.174	0.0164540
861.253	0.0163962
861.331	0.0163367
861.409	0.0162987
861.487	0.0163905
861.565	0.0163335
861.643	0.0163128
861.721	0.0163326
861.799	0.0162753
861.878	0.0163741
861.956	0.0164072
862.034	0.0162193
862.112	0.0162542
862.190	0.0163241
862.268	0.0163838
862.346	0.0162902
862.424	0.0164696
862.503	0.0163401
862.581	0.0163097
862.659	0.0163616
862.737	0.0163071
862.815	0.0162977
862.893	0.0162045
862.971	0.0164154
863.049	0.0163406
863.128	0.0162460
863.206	0.0163577
863.284	0.0162260
863.362	0.0163428
863.440	0.0163334
863.518	0.0163598
863.596	0.0163456
863.674	0.0163595
863.753	0.0163575
863.831	0.0163629
863.909	0.0164441
863.987	0.0163351
864.065	0.0163194
864.143	0.0162961
864.221	0.0163896
864.299	0.0163145
864.378	0.0163682
864.456	0.0163600
864.534	0.0164066
864.612	0.0164558
864.690	0.0163745
864.768	0.0164611
864.846	0.0163554
864.924	0.0162772
865.003	0.0163936
865.081	0.0163576
865.159	0.0164371
865.237	0.0162920
865.315	0.0165005
865.393	0.0163313
865.471	0.0164374
865.549	0.0162064
865.628	0.0163656
865.706	0.0164905
865.784	0.0164328
865.862	0.0164571
865.940	0.0163249
866.018	0.0163061
866.096	0.0162144
866.174	0.0163669
866.253	0.0163577
866.331	0.0162659
866.409	0.0160589
866.487	0.0163149
866.565	0.0164128
866.643	0.0162149
866.721	0.0163010
866.799	0.0165292
866.878	0.0163634
866.956	0.0164128
867.034	0.0164131
867.112	0.0164562
867.190	0.0163959
867.268	0.0163741
867.346	0.0164111
867.424	0.0164977
867.503	0.0165205
867.581	0.0164307
867.659	0.0164592
867.737	0.0164388
867.815	0.0164681
867.893	0.0164262
867.971	0.0164970
868.049	0.0165118
868.128	0.0164255
868.206	0.0163923
868.284	0.0163145
868.362	0.0163255
868.440	0.0164367
868.518	0.0163417
868.596	0.0163619
868.674	0.0163883
868.753	0.0162242
868.831	0.0162515
868.909	0.0164257
868.987	0.0163269
869.065	0.0163712
869.143	0.0164384
869.221	0.0163107
869.299	0.0164671
869.378	0.0163161
869.456	0.0164124
869.534	0.0163171
869.612	0.0164466
869.690	0.0163390
869.768	0.0163972
869.846	0.0163874
869.924	0.0163213
870.003	0.0165088
870.081	0.0165066
870.159	0.0164612
870.237	0.0165060
870.315	0.0164586
870.393	0.0164078
870.471	0.0162627
870.549	0.0163331
870.628	0.0165535
870.706	0.0164576
870.784	0.0163973
870.862	0.0164242
870.940	0.0165120
871.018	0.0164359
871.096	0.0163574
871.174	0.0163276
871.253	0.0164557
871.331	0.0165257
871.409	0.0163460
871.487	0.0163938
871.565	0.0165002
871.643	0.0164938
871.721	0.0163620
871.799	0.0162663
871.878	0.0164282
871.956	0.0165161
872.034	0.0165295
872.112	0.0164304
872.190	0.0164175
872.268	0.0162844
872.346	0.0163748
872.424	0.0163607
872.503	0.0163331
872.581	0.0164661
872.659	0.0164069
872.737	0.0164189
872.815	0.0162128
872.893	0.0163464
872.971	0.0162386
873.049	0.0163358
873.128	0.0163168
873.206	0.0163361
873.284	0.0161717
873.362	0.0163398
873.440	0.0163811
873.518	0.0163347
873.596	0.0162000
873.674	0.0163786
873.753	0.0163257
873.831	0.0164074
873.909	0.0162544
873.987	0.0163808
874.065	0.0163329
874.143	0.0163947
874.221	0.0163640
874.299	0.0164738
874.378	0.0164409
874.456	0.0163111
874.534	0.0164054
874.612	0.0163510
874.690	0.0164479
874.768	0.0162177
874.846	0.0162070
874.924	0.0163276
875.003	0.0163271
875.081	0.0164568
875.159	0.0164952
875.237	0.0163747
875.315	0.0163789
875.393	0.0163704
875.471	0.0164787
875.549	0.0164795
875.628	0.0165524
875.706	0.0164879
875.784	0.0164046
875.862	0.0164581
875.940	0.0165342
876.018	0.0163583
876.096	0.0165139
876.174	0.0164471
876.253	0.0165111
876.331	0.0164174
876.409	0.0164767
876.487	0.0164008
876.565	0.0163556
876.643	0.0164490
876.721	0.0164959
876.799	0.0163774
876.878	0.0163084
876.956	0.0163467
877.034	0.0164861
877.112	0.0163946
877.190	0.0163806
877.268	0.0163193
877.346	0.0162683
877.424	0.0164050
877.503	0.0163532
877.581	0.0163928
877.659	0.0163506
877.737	0.0163746
877.815	0.0165211
877.893	0.0164469
877.971	0.0164606
878.049	0.0164283
878.128	0.0164104
878.206	0.0163781
878.284	0.0163817
878.362	0.0164249
878.440	0.0164076
878.518	0.0163873
878.596	0.0164361
878.674	0.0164146
878.753	0.0165434
878.831	0.0166228
878.909	0.0163465
878.987	0.0163479
879.065	0.0164496
879.143	0.0163860
879.221	0.0165126
879.299	0.0163844
879.378	0.0164095
879.456	0.0164191
879.534	0.0164567
879.612	0.0163548
879.690	0.0163811
879.768	0.0164573
879.846	0.0164178
879.924	0.0162461
880.003	0.0163284
880.081	0.0162766
880.159	0.0163583
880.237	0.0164769
880.315	0.0163255
880.393	0.0164000
880.471	0.0163097
880.549	0.0164765
880.628	0.0163500
880.706	0.0163917
880.784	0.0165052
880.862	0.0165280
880.940	0.0165186
881.018	0.0163905
881.096	0.0165099
881.174	0.0165475
881.253	0.0165423
881.331	0.0164935
881.409	0.0166248
881.487	0.0165008
881.565	0.0164974
881.643	0.0163642
881.721	0.0165178
881.799	0.0166301
881.878	0.0164929
881.956	0.0164584
882.034	0.0164903
882.112	0.0163700
882.190	0.0164237
882.268	0.0164178
882.346	0.0164417
882.424	0.0163918
882.503	0.0163673
882.581	0.0164256
882.659	0.0162757
882.737	0.0163779
882.815	0.0163121
882.893	0.0163075
882.971	0.0163181
883.049	0.0163876
883.128	0.0163865
883.206	0.0164205
883.284	0.0164474
883.362	0.0164143
883.440	0.0163824
883.518	0.0163543
883.596	0.0165126
883.674	0.0164841
883.753	0.0163406
883.831	0.0162822
883.909	0.0162642
883.987	0.0163373
884.065	0.0163405
884.143	0.0164070
884.221	0.0163575
884.299	0.0162897
884.378	0.0163914
884.456	0.0164320
884.534	0.0162708
884.612	0.0164038
884.690	0.0164523
884.768	0.0164610
884.846	0.0164768
884.924	0.0162952
885.003	0.0162389
885.081	0.0162172
885.159	0.0162885
885.237	0.0163884
885.315	0.0164048
885.393	0.0163457
885.471	0.0163705
885.549	0.0163974
885.628	0.0164117
885.706	0.0163282
885.784	0.0162501
885.862	0.0163632
885.940	0.0164959
886.018	0.0163612
886.096	0.0164311
886.174	0.0166306
886.253	0.0165076
886.331	0.0165227
886.409	0.0165022
886.487	0.0164002
886.565	0.0163640
886.643	0.0164495
886.721	0.0164352
886.799	0.0164310
886.878	0.0164563
886.956	0.0163605
887.034	0.0163148
887.112	0.0164056
887.190	0.0163301
887.268	0.0162982
887.346	0.0163025
887.424	0.0164494
887.503	0.0164654
887.581	0.0164743
887.659	0.0163374
887.737	0.0163304
887.815	0.0165530
887.893	0.0164448
887.971	0.0163752
888.049	0.0162649
888.128	0.0164700
888.206	0.0164621
888.284	0.0163644
888.362	0.0163217
888.440	0.0164910
888.518	0.0165282
888.596	0.0165225
888.674	0.0165417
888.753	0.0163943
888.831	0.0163691
888.909	0.0163626
888.987	0.0164761
889.065	0.0164039
889.143	0.0163070
889.221	0.0165309
889.299	0.0164231
889.378	0.0162880
889.456	0.0162701
889.534	0.0164053
889.612	0.0163892
889.690	0.0163451
889.768	0.0163728
889.846	0.0163409
889.924	0.0162823
890.003	0.0162347
890.081	0.0162958
890.159	0.0163135
890.237	0.0163712
890.315	0.0164403
890.393	0.0164185
890.471	0.0162456
890.549	0.0163676
890.628	0.0165679
890.706	0.0163666
890.784	0.0163904
890.862	0.0163731
890.940	0.0164184
891.018	0.0164999
891.096	0.0164380
891.174	0.0165114
891.253	0.0164864
891.331	0.0164668
891.409	0.0163910
891.487	0.0165540
891.565	0.0164575
891.643	0.0164864
891.721	0.0163346
891.799	0.0165078
891.878	0.0164069
891.956	0.0163791
892.034	0.0162440
892.112	0.0163729
892.190	0.0164436
892.268	0.0162639
892.346	0.0164471
892.424	0.0163857
892.503	0.0163133
892.581	0.0164753
892.659	0.0164214
892.737	0.0163620
892.815	0.0164047
892.893	0.0165336
892.971	0.0163921
893.049	0.0162378
893.128	0.0164237
893.206	0.0164092
893.284	0.0165161
893.362	0.0165308
893.440	0.0164139
893.518	0.0164344
893.596	0.0164415
893.674	0.0163158
893.753	0.0163181
893.831	0.0164029
893.909	0.0163609
893.987	0.0163668
894.065	0.0164012
894.143	0.0164199
894.221	0.0163368
894.299	0.0163119
894.378	0.0164483
894.456	0.0163200
894.534	0.0162752
894.612	0.0164632
894.690	0.0164594
894.768	0.0163111
894.846	0.0163528
894.924	0.0164333
895.003	0.0163736
895.081	0.0163669
895.159	0.0162890
895.237	0.0163436
895.315	0.0165051
895.393	0.0163934
895.471	0.0163593
895.549	0.0163096
895.628	0.0163094
895.706	0.0163448
895.784	0.0163970
895.862	0.0162611
895.940	0.0163001
896.018	0.0163459
896.096	0.0164150
896.174	0.0164391
896.253	0.0165318
896.331	0.0164166
896.409	0.0164371
896.487	0.0163896
896.565	0.0164304
896.643	0.0164095
896.721	0.0166029
896.799	0.0164890
896.878	0.0164581
896.956	0.0163951
897.034	0.0164661
897.112	0.0164868
897.190	0.0163622
897.268	0.0165392
897.346	0.0165552
897.424	0.0163982
897.503	0.0162994
897.581	0.0165202
897.659	0.0164048
897.737	0.0163766
897.815	0.0164573
897.893	0.0163806
897.971	0.0164320
898.049	0.0163306
898.128	0.0163242
898.206	0.0162720
898.284	0.0163956
898.362	0.0164557
898.440	0.0164684
898.518	0.0164529
898.596	0.0165067
898.674	0.0163085
898.753	0.0163810
898.831	0.0163922
898.909	0.0163400
898.987	0.0163730
899.065	0.0164708
899.143	0.0164150
899.221	0.0163996
899.299	0.0163316
899.378	0.0163441
899.456	0.0164742
899.534	0.0163919
899.612	0.0164368
899.690	0.0163049
899.768	0.0164968
899.846	0.0164597
899.924	0.0163512
900.003	0.0164404
900.081	0.0164263
900.159	0.0163285
900.237	0.0164371
900.315	0.0164912
900.393	0.0166747
900.471	0.0165639
900.549	0.0165053
900.628	0.0164217
900.706	0.0164252
900.784	0.0163758
900.862	0.0164896
900.940	0.0165005
901.018	0.0164346
901.096	0.0164797
901.174	0.0164880
901.253	0.0163195
901.331	0.0163612
901.409	0.0165324
901.487	0.0163644
901.565	0.0164323
901.643	0.0163702
901.721	0.0163892
901.799	0.0164529
901.878	0.0163966
901.956	0.0163445
902.034	0.0163886
902.112	0.0162868
902.190	0.0163943
902.268	0.0163958
902.346	0.0164011
902.424	0.0163541
902.503	0.0164417
902.581	0.0163203
902.659	0.0163898
902.737	0.0162965
902.815	0.0163721
902.893	0.0163152
902.971	0.0163729
903.049	0.0163400
903.128	0.0162930
903.206	0.0162626
903.284	0.0163643
903.362	0.0163647
903.440	0.0163769
903.518	0.0162579
903.596	0.0164280
903.674	0.0164306
903.753	0.0164105
903.831	0.0162919
903.909	0.0163283
903.987	0.0165437
904.065	0.0166045
904.143	0.0164397
904.221	0.0163818
904.299	0.0165163
904.378	0.0163995
904.456	0.0164224
904.534	0.0165092
904.612	0.0164678
904.690	0.0163970
904.768	0.0164472
904.846	0.0164552
904.924	0.0164065
905.003	0.0163596
905.081	0.0165485
905.159	0.0165195
905.237	0.0163898
905.315	0.0163551
905.393	0.0165598
905.471	0.0163695
905.549	0.0162890
905.628	0.0164983
905.706	0.0165659
905.784	0.0164638
905.862	0.0164213
905.940	0.0164758
906.018	0.0164300
906.096	0.0163744
906.174	0.0163669
906.253	0.0164506
906.331	0.0164998
906.409	0.0165333
906.487	0.0164400
906.565	0.0162498
906.643	0.0165260
906.721	0.0165041
906.799	0.0163374
906.878	0.0163068
906.956	0.0164838
907.034	0.0164662
907.112	0.0164468
907.190	0.0163952
907.268	0.0164883
907.346	0.0163728
907.424	0.0163792
907.503	0.0164152
907.581	0.0165050
907.659	0.0164495
907.737	0.0165135
907.815	0.0163406
907.893	0.0163691
907.971	0.0163760
908.049	0.0163033
908.128	0.0164635
908.206	0.0163795
908.284	0.0164281
908.362	0.0164304
908.440	0.0162400
908.518	0.0164159
908.596	0.0163907
908.674	0.0162929
908.753	0.0163401
908.831	0.0162576
908.909	0.0163599
908.987	0.0162785
909.065	0.0163689
909.143	0.0163074
909.221	0.0163606
909.299	0.0165732
909.378	0.0164937
909.456	0.0164373
909.534	0.0164970
909.612	0.0164458
909.690	0.0165128
909.768	0.0165170
909.846	0.0165105
909.924	0.0165818
910.003	0.0164294
910.081	0.0164812
910.159	0.0163838
910.237	0.0163377
910.315	0.0164520
910.393	0.0163837
910.471	0.0163584
910.549	0.0163120
910.628	0.0161609
910.706	0.0160428
910.784	0.0161604
910.862	0.0162441
910.940	0.0161559
911.018	0.0160874
911.096	0.0162325
911.174	0.0161625
911.253	0.0159936
911.331	0.0161024
911.409	0.0164165
911.487	0.0163013
911.565	0.0163172
911.643	0.0164063
911.721	0.0164219
911.799	0.0164704
911.878	0.0165936
911.956	0.0164540
912.034	0.0167374
912.112	0.0167135
912.190	0.0166889
912.268	0.0166347
912.346	0.0166546
912.424	0.0168194
912.503	0.0167119
912.581	0.0165471
912.659	0.0165489
912.737	0.0163716
912.815	0.0164143
912.893	0.0162379
912.971	0.0161753
913.049	0.0160712
913.128	0.0160160
913.206	0.0161021
913.284	0.0160043
913.362	0.0161282
913.440	0.0160148
913.518	0.0159688
913.596	0.0160303
913.674	0.0161196
913.753	0.0162660
913.831	0.0164638
913.909	0.0164201
913.987	0.0165005
914.065	0.0165911
914.143	0.0165057
914.221	0.0166932
914.299	0.0168160
914.378	0.0165795
914.456	0.0165213
914.534	0.0167566
914.612	0.0168497
914.690	0.0165289
914.768	0.0164557
914.846	0.0164057
914.924	0.0164817
915.003	0.0163497
915.081	0.0163259
915.159	0.0162399
915.237	0.0162791
915.315	0.0162005
915.393	0.0161402
915.471	0.0160695
915.549	0.0161994
915.628	0.0161443
915.706	0.0162775
915.784	0.0162892
915.862	0.0162158
915.940	0.0163182
916.018	0.0162933
916.096	0.0161806
916.174	0.0164137
916.253	0.0164642
916.331	0.0162819
916.409	0.0165469
916.487	0.0165016
916.565	0.0163899
916.643	0.0163672
916.721	0.0163942
916.799	0.0163758
916.878	0.0164655
916.956	0.0165164
917.034	0.0165820
917.112	0.0165546
917.190	0.0164700
917.268	0.0163979
917.346	0.0165559
917.424	0.0164928
917.503	0.0164307
917.581	0.0164354
917.659	0.0163220
917.737	0.0163038
917.815	0.0162624
917.893	0.0162686
917.971	0.0162006
918.049	0.0161581
918.128	0.0161978
918.206	0.0163743
918.284	0.0162656
918.362	0.0163725
918.440	0.0163518
918.518	0.0162954
918.596	0.0164558
918.674	0.0163737
918.753	0.0163700
918.831	0.0165056
918.909	0.0164407
918.987	0.0165163
919.065	0.0164222
919.143	0.0164742
919.221	0.0164271
919.299	0.0164789
919.378	0.0164394
919.456	0.0164946
919.534	0.0163524
919.612	0.0163697
919.690	0.0165750
919.768	0.0164265
919.846	0.0163235
919.924	0.0163790
920.003	0.0162588
920.081	0.0163103
920.159	0.0162740
920.237	0.0163494
920.315	0.0161739
920.393	0.0163503
920.471	0.0161026
920.549	0.0161852
920.628	0.0163052
920.706	0.0161969
920.784	0.0160807
920.862	0.0161995
920.940	0.0163757
921.018	0.0164095
921.096	0.0164688
921.174	0.0164120
921.253	0.0164921
921.331	0.0165752
921.409	0.0166344
921.487	0.0166001
921.565	0.0165777
921.643	0.0165533
921.721	0.0164413
921.799	0.0165415
921.878	0.0165665
921.956	0.0165459
922.034	0.0164904
922.112	0.0164339
922.190	0.0163634
922.268	0.0164270
922.346	0.0163251
922.424	0.0162343
922.503	0.0163100
922.581	0.0162273
922.659	0.0162781
922.737	0.0162191
922.815	0.0162458
922.893	0.0162217
922.971	0.0162910
923.049	0.0162250
923.128	0.0161597
923.206	0.0162579
923.284	0.0163364
923.362	0.0161983
923.440	0.0162926
923.518	0.0162675
923.596	0.0161600
923.674	0.0162839
923.753	0.0163297
923.831	0.0163839
923.909	0.0163034
923.987	0.0162238
924.065	0.0163300
924.143	0.0163167
924.221	0.0163523
924.299	0.0164825
924.378	0.0165604
924.456	0.0165002
924.534	0.0165282
924.612	0.0164518
924.690	0.0164852
924.768	0.0163745
924.846	0.0163979
924.924	0.0164574
925.003	0.0163950
925.081	0.0164535
925.159	0.0164297
925.237	0.0163028
925.315	0.0163269
925.393	0.0162548
925.471	0.0164440
925.549	0.0161955
925.628	0.0161806
925.706	0.0162801
925.784	0.0162472
925.862	0.0163552
925.940	0.0163558
926.018	0.0162806
926.096	0.0162443
926.174	0.0161958
926.253	0.0163866
926.331	0.0164915
926.409	0.0163152
926.487	0.0163684
926.565	0.0164713
926.643	0.0164468
926.721	0.0164371
926.799	0.0165031
926.878	0.0162933
926.956	0.0162990
927.034	0.0163828
927.112	0.0162413
927.190	0.0162690
927.268	0.0161829
927.346	0.0162077
927.424	0.0162267
927.503	0.0161881
927.581	0.0162832
927.659	0.0161960
927.737	0.0162624
927.815	0.0162965
927.893	0.0162208
927.971	0.0162614
928.049	0.0163112
928.128	0.0162083
928.206	0.0163696
928.284	0.0165189
928.362	0.0164760
928.440	0.0164964
928.518	0.0164026
928.596	0.0163670
928.674	0.0165843
928.753	0.0165414
928.831	0.0164474
928.909	0.0165549
928.987	0.0164291
929.065	0.0164952
929.143	0.0163596
929.221	0.0164780
929.299	0.0164642
929.378	0.0164729
929.456	0.0164706
929.534	0.0164144
929.612	0.0163272
929.690	0.0163362
929.768	0.0163194
929.846	0.0162813
929.924	0.0163445
930.003	0.0161528
930.081	0.0163013
930.159	0.0163571
930.237	0.0163158
930.315	0.0163342
930.393	0.0163445
930.471	0.0162545
930.549	0.0161901
930.628	0.0163270
930.706	0.0163045
930.784	0.0164063
930.862	0.0163426
930.940	0.0162913
931.018	0.0164255
931.096	0.0165794
931.174	0.0163368
931.253	0.0165556
931.331	0.0164996
931.409	0.0165155
931.487	0.0164627
931.565	0.0164855
931.643	0.0165655
931.721	0.0164693
931.799	0.0164283
931.878	0.0164934
931.956	0.0165250
932.034	0.0164095
932.112	0.0162238
932.190	0.0163609
932.268	0.0162974
932.346	0.0163293
932.424	0.0163290
932.503	0.0163591
932.581	0.0162656
932.659	0.0163180
932.737	0.0163439
932.815	0.0163892
932.893	0.0163170
932.971	0.0164838
933.049	0.0163988
933.128	0.0164371
933.206	0.0163997
933.284	0.0165619
933.362	0.0164853
933.440	0.0164832
933.518	0.0163808
933.596	0.0164317
933.674	0.0165275
933.753	0.0164599
933.831	0.0163750
933.909	0.0164478
933.987	0.0163659
934.065	0.0162413
934.143	0.0163316
934.221	0.0163505
934.299	0.0162120
934.378	0.0161916
934.456	0.0163866
934.534	0.0162610
934.612	0.0163442
934.690	0.0163480
934.768	0.0164809
934.846	0.0164200
934.924	0.0162237
935.003	0.0163261
935.081	0.0162683
935.159	0.0162995
935.237	0.0164075
935.315	0.0163470
935.393	0.0162814
935.471	0.0164779
935.549	0.0163567
935.628	0.0162734
935.706	0.0164375
935.784	0.0164803
935.862	0.0164808
935.940	0.0164048
936.018	0.0162283
936.096	0.0162419
936.174	0.0163157
936.253	0.0163295
936.331	0.0161478
936.409	0.0162363
936.487	0.0162213
936.565	0.0161661
936.643	0.0162025
936.721	0.0162457
936.799	0.0159127
936.878	0.0162856
936.956	0.0161353
937.034	0.0162902
937.112	0.0163084
937.190	0.0163779
937.268	0.0163001
937.346	0.0163599
937.424	0.0161932
937.503	0.0161007
937.581	0.0163847
937.659	0.0162885
937.737	0.0163522
937.815	0.0163039
937.893	0.0164649
937.971	0.0164012
938.049	0.0164439
938.128	0.0162832
938.206	0.0162888
938.284	0.0163875
938.362	0.0163253
938.440	0.0161937
938.518	0.0164240
938.596	0.0165084
938.674	0.0164758
938.753	0.0164967
938.831	0.0163178
938.909	0.0164155
938.987	0.0163943
939.065	0.0162714
939.143	0.0163680
939.221	0.0163997
939.299	0.0163123
939.378	0.0164201
939.456	0.0161953
939.534	0.0162519
939.612	0.0163991
939.690	0.0163513
939.768	0.0163620
939.846	0.0162790
939.924	0.0163456
940.003	0.0163425
940.081	0.0162711
940.159	0.0163454
940.237	0.0163075
940.315	0.0163891
940.393	0.0163277
940.471	0.0164661
940.549	0.0163393
940.628	0.0164598
940.706	0.0163867
940.784	0.0163869
940.862	0.0162434
940.940	0.0163401
941.018	0.0163274
941.096	0.0163426
941.174	0.0163140
941.253	0.0162682
941.331	0.0163007
941.409	0.0163539
941.487	0.0163819
941.565	0.0164473
941.643	0.0162737
941.721	0.0163937
941.799	0.0163432
941.878	0.0164926
941.956	0.0164087
942.034	0.0163432
942.112	0.0163245
942.190	0.0164590
942.268	0.0164062
942.346	0.0163347
942.424	0.0163528
942.503	0.0163964
942.581	0.0164703
942.659	0.0163304
942.737	0.0163996
942.815	0.0164384
942.893	0.0164117
942.971	0.0164804
943.049	0.0164031
943.128	0.0163607
943.206	0.0163537
943.284	0.0164227
943.362	0.0163043
943.440	0.0162742
943.518	0.0164017
943.596	0.0162686
943.674	0.0162599
943.753	0.0162540
943.831	0.0163331
943.909	0.0162950
943.987	0.0162179
944.065	0.0162128
944.143	0.0162845
944.221	0.0162361
944.299	0.0161573
944.378	0.0162819
944.456	0.0164502
944.534	0.0162782
944.612	0.0163428
944.690	0.0164404
944.768	0.0164579
944.846	0.0163467
944.924	0.0161897
945.003	0.0163483
945.081	0.0162057
945.159	0.0163613
945.237	0.0164780
945.315	0.0161623
945.393	0.0164139
945.471	0.0163513
945.549	0.0164049
945.628	0.0164309
945.706	0.0162904
945.784	0.0164294
945.862	0.0164011
945.940	0.0164819
946.018	0.0164440
946.096	0.0163438
946.174	0.0163945
946.253	0.0164590
946.331	0.0163870
946.409	0.0165256
946.487	0.0164671
946.565	0.0163254
946.643	0.0164376
946.721	0.0163590
946.799	0.0164207
946.878	0.0163700
946.956	0.0163127
947.034	0.0164903
947.112	0.0164407
947.190	0.0163375
947.268	0.0162917
947.346	0.0164270
947.424	0.0163686
947.503	0.0163948
947.581	0.0162153
947.659	0.0163354
947.737	0.0164690
947.815	0.0164107
947.893	0.0163830
947.971	0.0163875
948.049	0.0163295
948.128	0.0162334
948.206	0.0164195
948.284	0.0164020
948.362	0.0163422
948.440	0.0162898
948.518	0.0164122
948.596	0.0164762
948.674	0.0163951
948.753	0.0163580
948.831	0.0164925
948.909	0.0163859
948.987	0.0163723
949.065	0.0164149
949.143	0.0165426
949.221	0.0164725
949.299	0.0163397
949.378	0.0162353
949.456	0.0163575
949.534	0.0164336
949.612	0.0162143
949.690	0.0163621
949.768	0.0163631
949.846	0.0163557
949.924	0.0164037
