06/29/2022	22:46:10	Ver.	4.1	UNKNOWN
Optical Delay	630.002507	Delta X		0.078125	Sweeps	1	Scan Rate	0/0
Coordinates	Axis 1	NaN	Axis 2	NaN	Axis 3	NaN	Axis 4	NaN	Axis 5	NaN	Axis 6	0.000000
TX Power	0.000000	RX Power	0.000000

630.003	0.0159858
630.081	0.0159846
630.159	0.0159027
630.237	0.0159051
630.315	0.0159799
630.393	0.0159962
630.471	0.0160324
630.549	0.0160773
630.628	0.0159174
630.706	0.0160226
630.784	0.0158842
630.862	0.0159885
630.940	0.0159541
631.018	0.0160192
631.096	0.0160113
631.174	0.0160571
631.253	0.0160143
631.331	0.0159301
631.409	0.0158989
631.487	0.0159092
631.565	0.0161059
631.643	0.0159825
631.721	0.0158864
631.799	0.0160836
631.878	0.0159950
631.956	0.0159758
632.034	0.0159564
632.112	0.0159916
632.190	0.0160455
632.268	0.0159389
632.346	0.0158755
632.424	0.0159373
632.503	0.0161594
632.581	0.0158962
632.659	0.0159772
632.737	0.0159728
632.815	0.0158305
632.893	0.0158593
632.971	0.0159731
633.049	0.0160483
633.128	0.0159940
633.206	0.0160318
633.284	0.0159807
633.362	0.0159422
633.440	0.0160074
633.518	0.0160880
633.596	0.0159885
633.674	0.0159293
633.753	0.0159512
633.831	0.0159502
633.909	0.0158786
633.987	0.0158820
634.065	0.0161185
634.143	0.0158622
634.221	0.0159536
634.299	0.0160345
634.378	0.0159431
634.456	0.0160547
634.534	0.0160557
634.612	0.0159504
634.690	0.0160394
634.768	0.0158616
634.846	0.0160080
634.924	0.0160934
635.003	0.0160375
635.081	0.0159689
635.159	0.0160117
635.237	0.0159997
635.315	0.0158938
635.393	0.0160061
635.471	0.0159379
635.549	0.0161044
635.628	0.0161099
635.706	0.0160078
635.784	0.0159124
635.862	0.0158984
635.940	0.0161745
636.018	0.0160457
636.096	0.0159835
636.174	0.0159763
636.253	0.0159610
636.331	0.0160404
636.409	0.0160906
636.487	0.0160592
636.565	0.0161836
636.643	0.0159126
636.721	0.0159962
636.799	0.0159888
636.878	0.0160414
636.956	0.0159653
637.034	0.0160640
637.112	0.0160019
637.190	0.0159782
637.268	0.0160167
637.346	0.0159836
637.424	0.0159887
637.503	0.0159830
637.581	0.0160847
637.659	0.0159509
637.737	0.0160400
637.815	0.0160506
637.893	0.0158692
637.971	0.0160222
638.049	0.0160011
638.128	0.0158979
638.206	0.0160553
638.284	0.0160498
638.362	0.0160492
638.440	0.0159622
638.518	0.0159006
638.596	0.0160551
638.674	0.0162049
638.753	0.0159261
638.831	0.0158275
638.909	0.0159582
638.987	0.0158968
639.065	0.0160734
639.143	0.0161283
639.221	0.0160210
639.299	0.0158892
639.378	0.0159843
639.456	0.0159320
639.534	0.0159152
639.612	0.0158958
639.690	0.0160245
639.768	0.0159187
639.846	0.0160416
639.924	0.0159926
640.003	0.0161010
640.081	0.0160755
640.159	0.0159380
640.237	0.0159534
640.315	0.0159602
640.393	0.0158746
640.471	0.0159563
640.549	0.0160221
640.628	0.0159225
640.706	0.0159491
640.784	0.0160053
640.862	0.0158875
640.940	0.0159825
641.018	0.0159977
641.096	0.0160931
641.174	0.0160604
641.253	0.0160310
641.331	0.0159266
641.409	0.0160065
641.487	0.0161069
641.565	0.0160186
641.643	0.0160781
641.721	0.0160232
641.799	0.0160658
641.878	0.0158925
641.956	0.0158009
642.034	0.0159339
642.112	0.0160359
642.190	0.0160319
642.268	0.0160580
642.346	0.0159422
642.424	0.0161517
642.503	0.0161374
642.581	0.0158495
642.659	0.0160720
642.737	0.0160252
642.815	0.0158875
642.893	0.0159354
642.971	0.0158829
643.049	0.0158765
643.128	0.0159830
643.206	0.0160608
643.284	0.0159702
643.362	0.0160440
643.440	0.0159661
643.518	0.0158632
643.596	0.0159435
643.674	0.0160732
643.753	0.0159953
643.831	0.0161511
643.909	0.0159367
643.987	0.0158412
644.065	0.0159095
644.143	0.0160323
644.221	0.0160765
644.299	0.0159675
644.378	0.0159348
644.456	0.0160442
644.534	0.0160100
644.612	0.0161119
644.690	0.0160620
644.768	0.0160101
644.846	0.0160698
644.924	0.0159634
645.003	0.0159933
645.081	0.0160349
645.159	0.0160384
645.237	0.0160085
645.315	0.0160304
645.393	0.0160516
645.471	0.0159576
645.549	0.0159956
645.628	0.0161417
645.706	0.0160313
645.784	0.0160185
645.862	0.0159457
645.940	0.0160549
646.018	0.0159508
646.096	0.0159951
646.174	0.0160747
646.253	0.0159952
646.331	0.0159367
646.409	0.0159128
646.487	0.0160226
646.565	0.0161075
646.643	0.0157589
646.721	0.0159242
646.799	0.0160713
646.878	0.0160066
646.956	0.0158340
647.034	0.0158201
647.112	0.0159457
647.190	0.0161032
647.268	0.0159378
647.346	0.0159277
647.424	0.0159616
647.503	0.0158424
647.581	0.0159632
647.659	0.0159663
647.737	0.0159477
647.815	0.0159531
647.893	0.0159391
647.971	0.0159095
648.049	0.0159456
648.128	0.0160972
648.206	0.0160341
648.284	0.0159154
648.362	0.0160103
648.440	0.0159269
648.518	0.0160413
648.596	0.0159511
648.674	0.0159047
648.753	0.0159270
648.831	0.0159145
648.909	0.0160159
648.987	0.0159792
649.065	0.0159673
649.143	0.0159822
649.221	0.0159837
649.299	0.0160123
649.378	0.0159715
649.456	0.0159039
649.534	0.0158848
649.612	0.0158738
649.690	0.0158820
649.768	0.0159443
649.846	0.0160309
649.924	0.0161339
650.003	0.0160703
650.081	0.0159875
650.159	0.0160383
650.237	0.0159689
650.315	0.0158863
650.393	0.0159538
650.471	0.0159531
650.549	0.0158508
650.628	0.0160310
650.706	0.0161849
650.784	0.0161322
650.862	0.0159876
650.940	0.0158630
651.018	0.0158508
651.096	0.0159424
651.174	0.0159021
651.253	0.0158866
651.331	0.0160730
651.409	0.0160287
651.487	0.0159369
651.565	0.0158150
651.643	0.0160755
651.721	0.0160720
651.799	0.0158890
651.878	0.0159917
651.956	0.0157388
652.034	0.0158610
652.112	0.0160700
652.190	0.0160255
652.268	0.0160861
652.346	0.0160056
652.424	0.0158405
652.503	0.0159030
652.581	0.0158549
652.659	0.0160722
652.737	0.0159652
652.815	0.0159681
652.893	0.0158876
652.971	0.0159458
653.049	0.0160159
653.128	0.0160154
653.206	0.0159491
653.284	0.0159493
653.362	0.0160034
653.440	0.0159936
653.518	0.0161832
653.596	0.0159692
653.674	0.0158506
653.753	0.0159589
653.831	0.0160014
653.909	0.0160027
653.987	0.0159300
654.065	0.0160589
654.143	0.0158981
654.221	0.0159435
654.299	0.0160406
654.378	0.0158629
654.456	0.0159300
654.534	0.0160795
654.612	0.0159936
654.690	0.0158842
654.768	0.0159397
654.846	0.0160071
654.924	0.0160855
655.003	0.0159095
655.081	0.0159901
655.159	0.0160383
655.237	0.0158659
655.315	0.0157927
655.393	0.0160620
655.471	0.0159851
655.549	0.0158743
655.628	0.0159660
655.706	0.0160487
655.784	0.0160331
655.862	0.0159039
655.940	0.0160445
656.018	0.0160750
656.096	0.0159535
656.174	0.0159962
656.253	0.0160115
656.331	0.0159615
656.409	0.0160007
656.487	0.0159312
656.565	0.0159567
656.643	0.0159282
656.721	0.0160436
656.799	0.0159364
656.878	0.0160485
656.956	0.0159262
657.034	0.0158530
657.112	0.0160304
657.190	0.0161704
657.268	0.0160300
657.346	0.0158510
657.424	0.0159635
657.503	0.0160424
657.581	0.0160106
657.659	0.0160780
657.737	0.0159623
657.815	0.0159931
657.893	0.0160161
657.971	0.0159399
658.049	0.0160007
658.128	0.0159746
658.206	0.0160375
658.284	0.0160402
658.362	0.0159781
658.440	0.0159045
658.518	0.0159953
658.596	0.0159007
658.674	0.0160691
658.753	0.0160873
658.831	0.0160989
658.909	0.0159960
658.987	0.0159870
659.065	0.0160614
659.143	0.0161124
659.221	0.0159039
659.299	0.0159084
659.378	0.0160320
659.456	0.0159844
659.534	0.0159744
659.612	0.0160494
659.690	0.0160194
659.768	0.0159993
659.846	0.0160036
659.924	0.0159977
660.003	0.0160236
660.081	0.0159214
660.159	0.0160337
660.237	0.0160767
660.315	0.0158689
660.393	0.0159446
660.471	0.0158794
660.549	0.0159871
660.628	0.0160022
660.706	0.0159036
660.784	0.0158664
660.862	0.0160005
660.940	0.0160373
661.018	0.0159869
661.096	0.0160433
661.174	0.0159568
661.253	0.0158884
661.331	0.0160436
661.409	0.0160720
661.487	0.0161005
661.565	0.0160053
661.643	0.0160159
661.721	0.0161042
661.799	0.0160136
661.878	0.0158149
661.956	0.0159487
662.034	0.0159352
662.112	0.0158991
662.190	0.0158994
662.268	0.0160117
662.346	0.0159196
662.424	0.0159462
662.503	0.0160686
662.581	0.0159208
662.659	0.0159705
662.737	0.0159816
662.815	0.0160482
662.893	0.0159220
662.971	0.0159164
663.049	0.0160953
663.128	0.0160373
663.206	0.0159212
663.284	0.0159997
663.362	0.0159702
663.440	0.0160224
663.518	0.0161163
663.596	0.0161639
663.674	0.0160364
663.753	0.0159553
663.831	0.0159683
663.909	0.0159058
663.987	0.0159500
664.065	0.0160285
664.143	0.0159589
664.221	0.0159734
664.299	0.0159684
664.378	0.0160712
664.456	0.0159974
664.534	0.0158649
664.612	0.0159396
664.690	0.0160435
664.768	0.0158655
664.846	0.0159143
664.924	0.0159972
665.003	0.0160155
665.081	0.0159967
665.159	0.0159280
665.237	0.0160019
665.315	0.0159948
665.393	0.0158957
665.471	0.0160605
665.549	0.0159997
665.628	0.0159505
665.706	0.0159776
665.784	0.0158530
665.862	0.0158215
665.940	0.0160132
666.018	0.0160726
666.096	0.0159484
666.174	0.0159491
666.253	0.0159187
666.331	0.0160046
666.409	0.0160043
666.487	0.0160366
666.565	0.0160233
666.643	0.0160247
666.721	0.0160468
666.799	0.0159727
666.878	0.0160372
666.956	0.0159545
667.034	0.0160031
667.112	0.0159364
667.190	0.0159193
667.268	0.0159402
667.346	0.0159975
667.424	0.0159698
667.503	0.0160085
667.581	0.0160042
667.659	0.0158768
667.737	0.0159479
667.815	0.0159895
667.893	0.0159290
667.971	0.0160311
668.049	0.0159814
668.128	0.0158852
668.206	0.0160847
668.284	0.0160933
668.362	0.0159830
668.440	0.0158904
668.518	0.0158638
668.596	0.0162864
668.674	0.0158887
668.753	0.0159280
668.831	0.0159965
668.909	0.0160331
668.987	0.0158674
669.065	0.0158293
669.143	0.0159226
669.221	0.0160596
669.299	0.0160346
669.378	0.0159461
669.456	0.0158434
669.534	0.0159238
669.612	0.0159946
669.690	0.0159059
669.768	0.0159456
669.846	0.0160473
669.924	0.0159155
670.003	0.0158556
670.081	0.0158604
670.159	0.0159032
670.237	0.0160599
670.315	0.0160631
670.393	0.0158963
670.471	0.0160158
670.549	0.0158864
670.628	0.0160489
670.706	0.0160014
670.784	0.0159763
670.862	0.0160320
670.940	0.0160188
671.018	0.0159609
671.096	0.0160947
671.174	0.0159789
671.253	0.0158475
671.331	0.0158041
671.409	0.0160187
671.487	0.0160651
671.565	0.0158142
671.643	0.0159534
671.721	0.0160593
671.799	0.0159315
671.878	0.0159605
671.956	0.0159171
672.034	0.0160664
672.112	0.0160125
672.190	0.0159307
672.268	0.0160013
672.346	0.0160021
672.424	0.0160722
672.503	0.0159047
672.581	0.0159188
672.659	0.0160059
672.737	0.0160535
672.815	0.0159357
672.893	0.0158405
672.971	0.0159816
673.049	0.0160315
673.128	0.0158977
673.206	0.0160715
673.284	0.0159471
673.362	0.0161241
673.440	0.0161610
673.518	0.0160202
673.596	0.0159747
673.674	0.0158865
673.753	0.0159895
673.831	0.0159339
673.909	0.0158342
673.987	0.0159609
674.065	0.0158804
674.143	0.0159107
674.221	0.0158999
674.299	0.0160171
674.378	0.0159660
674.456	0.0158273
674.534	0.0159578
674.612	0.0161357
674.690	0.0158121
674.768	0.0160090
674.846	0.0159891
674.924	0.0159666
675.003	0.0159511
675.081	0.0159534
675.159	0.0160972
675.237	0.0160451
675.315	0.0159315
675.393	0.0159135
675.471	0.0158973
675.549	0.0159736
675.628	0.0160258
675.706	0.0160081
675.784	0.0159016
675.862	0.0159701
675.940	0.0159647
676.018	0.0159793
676.096	0.0159202
676.174	0.0159633
676.253	0.0159972
676.331	0.0159985
676.409	0.0160222
676.487	0.0161640
676.565	0.0160146
676.643	0.0158878
676.721	0.0159776
676.799	0.0159645
676.878	0.0160167
676.956	0.0160596
677.034	0.0159061
677.112	0.0160095
677.190	0.0159513
677.268	0.0159605
677.346	0.0159570
677.424	0.0159675
677.503	0.0161207
677.581	0.0160796
677.659	0.0160159
677.737	0.0160026
677.815	0.0160331
677.893	0.0161298
677.971	0.0160126
678.049	0.0161138
678.128	0.0159829
678.206	0.0160072
678.284	0.0160850
678.362	0.0158926
678.440	0.0160262
678.518	0.0159968
678.596	0.0159657
678.674	0.0161584
678.753	0.0160643
678.831	0.0159740
678.909	0.0159207
678.987	0.0159817
679.065	0.0160443
679.143	0.0159674
679.221	0.0159616
679.299	0.0159709
679.378	0.0161049
679.456	0.0160141
679.534	0.0158873
679.612	0.0160838
679.690	0.0159453
679.768	0.0160001
679.846	0.0160625
679.924	0.0159631
680.003	0.0159630
680.081	0.0160762
680.159	0.0160241
680.237	0.0160165
680.315	0.0159826
680.393	0.0159380
680.471	0.0160363
680.549	0.0159329
680.628	0.0159592
680.706	0.0160320
680.784	0.0161060
680.862	0.0159421
680.940	0.0159695
681.018	0.0159457
681.096	0.0159869
681.174	0.0159525
681.253	0.0160992
681.331	0.0160043
681.409	0.0159723
681.487	0.0159627
681.565	0.0160294
681.643	0.0159139
681.721	0.0159509
681.799	0.0159647
681.878	0.0161160
681.956	0.0160831
682.034	0.0160371
682.112	0.0160172
682.190	0.0159768
682.268	0.0159803
682.346	0.0160247
682.424	0.0160534
682.503	0.0161481
682.581	0.0159204
682.659	0.0159388
682.737	0.0160370
682.815	0.0161595
682.893	0.0160238
682.971	0.0159611
683.049	0.0159232
683.128	0.0159186
683.206	0.0160290
683.284	0.0159514
683.362	0.0161319
683.440	0.0160538
683.518	0.0160266
683.596	0.0159175
683.674	0.0160561
683.753	0.0161487
683.831	0.0160949
683.909	0.0159291
683.987	0.0160834
684.065	0.0160056
684.143	0.0159683
684.221	0.0161130
684.299	0.0160061
684.378	0.0158742
684.456	0.0160350
684.534	0.0159477
684.612	0.0159548
684.690	0.0159960
684.768	0.0160777
684.846	0.0160716
684.924	0.0159764
685.003	0.0160125
685.081	0.0159251
685.159	0.0158705
685.237	0.0161187
685.315	0.0160466
685.393	0.0160683
685.471	0.0159240
685.549	0.0159300
685.628	0.0159455
685.706	0.0159377
685.784	0.0158778
685.862	0.0161523
685.940	0.0160097
686.018	0.0160761
686.096	0.0159815
686.174	0.0159699
686.253	0.0159664
686.331	0.0159758
686.409	0.0158971
686.487	0.0161135
686.565	0.0159578
686.643	0.0158778
686.721	0.0161854
686.799	0.0159997
686.878	0.0158958
686.956	0.0159286
687.034	0.0159405
687.112	0.0159803
687.190	0.0160461
687.268	0.0159567
687.346	0.0160035
687.424	0.0160414
687.503	0.0160088
687.581	0.0160431
687.659	0.0160059
687.737	0.0160905
687.815	0.0159510
687.893	0.0159325
687.971	0.0160741
688.049	0.0160218
688.128	0.0160759
688.206	0.0159329
688.284	0.0159647
688.362	0.0159375
688.440	0.0158717
688.518	0.0160381
688.596	0.0160474
688.674	0.0159154
688.753	0.0159541
688.831	0.0160381
688.909	0.0159980
688.987	0.0158927
689.065	0.0160749
689.143	0.0159007
689.221	0.0160141
689.299	0.0159148
689.378	0.0159807
689.456	0.0159650
689.534	0.0158598
689.612	0.0159953
689.690	0.0160612
689.768	0.0160613
689.846	0.0159748
689.924	0.0159685
690.003	0.0160252
690.081	0.0159820
690.159	0.0160502
690.237	0.0158921
690.315	0.0160279
690.393	0.0159659
690.471	0.0159852
690.549	0.0159365
690.628	0.0159275
690.706	0.0161344
690.784	0.0159638
690.862	0.0157978
690.940	0.0160469
691.018	0.0160236
691.096	0.0160247
691.174	0.0159100
691.253	0.0158883
691.331	0.0160091
691.409	0.0160698
691.487	0.0158116
691.565	0.0158508
691.643	0.0160352
691.721	0.0159402
691.799	0.0159865
691.878	0.0158149
691.956	0.0160222
692.034	0.0159486
692.112	0.0158924
692.190	0.0158180
692.268	0.0160448
692.346	0.0160073
692.424	0.0160117
692.503	0.0158550
692.581	0.0160429
692.659	0.0158679
692.737	0.0158601
692.815	0.0160507
692.893	0.0160507
692.971	0.0159872
693.049	0.0160371
693.128	0.0159892
693.206	0.0160453
693.284	0.0160369
693.362	0.0160699
693.440	0.0160475
693.518	0.0159350
693.596	0.0160931
693.674	0.0160428
693.753	0.0160527
693.831	0.0159119
693.909	0.0158496
693.987	0.0160128
694.065	0.0159673
694.143	0.0159378
694.221	0.0159312
694.299	0.0159548
694.378	0.0159457
694.456	0.0159407
694.534	0.0158106
694.612	0.0159975
694.690	0.0159844
694.768	0.0159621
694.846	0.0160506
694.924	0.0160447
695.003	0.0159944
695.081	0.0160095
695.159	0.0159431
695.237	0.0160606
695.315	0.0160391
695.393	0.0160271
695.471	0.0160017
695.549	0.0160323
695.628	0.0159942
695.706	0.0159708
695.784	0.0159982
695.862	0.0159408
695.940	0.0160271
696.018	0.0159042
696.096	0.0159655
696.174	0.0159245
696.253	0.0160081
696.331	0.0160285
696.409	0.0159986
696.487	0.0159338
696.565	0.0160066
696.643	0.0158978
696.721	0.0159921
696.799	0.0160103
696.878	0.0158999
696.956	0.0160074
697.034	0.0159399
697.112	0.0158922
697.190	0.0159704
697.268	0.0159438
697.346	0.0160474
697.424	0.0159724
697.503	0.0158971
697.581	0.0160811
697.659	0.0160024
697.737	0.0160340
697.815	0.0159504
697.893	0.0158737
697.971	0.0159732
698.049	0.0159168
698.128	0.0159009
698.206	0.0159661
698.284	0.0161034
698.362	0.0161079
698.440	0.0159941
698.518	0.0159722
698.596	0.0159315
698.674	0.0161011
698.753	0.0160957
698.831	0.0158707
698.909	0.0159903
698.987	0.0159815
699.065	0.0160137
699.143	0.0160504
699.221	0.0160892
699.299	0.0159747
699.378	0.0159891
699.456	0.0160296
699.534	0.0160219
699.612	0.0159270
699.690	0.0159014
699.768	0.0160445
699.846	0.0161230
699.924	0.0159654
700.003	0.0159173
700.081	0.0159340
700.159	0.0159583
700.237	0.0159715
700.315	0.0160567
700.393	0.0160561
700.471	0.0159389
700.549	0.0160015
700.628	0.0160011
700.706	0.0160915
700.784	0.0161024
700.862	0.0160422
700.940	0.0160072
701.018	0.0159605
701.096	0.0160399
701.174	0.0159425
701.253	0.0160307
701.331	0.0161163
701.409	0.0160078
701.487	0.0160592
701.565	0.0160738
701.643	0.0160233
701.721	0.0160126
701.799	0.0160011
701.878	0.0159992
701.956	0.0160705
702.034	0.0159068
702.112	0.0160407
702.190	0.0160588
702.268	0.0159569
702.346	0.0160439
702.424	0.0160480
702.503	0.0159328
702.581	0.0160341
702.659	0.0160119
702.737	0.0159399
702.815	0.0159299
702.893	0.0161022
702.971	0.0160770
703.049	0.0161264
703.128	0.0161044
703.206	0.0159487
703.284	0.0159883
703.362	0.0160198
703.440	0.0160829
703.518	0.0160256
703.596	0.0160194
703.674	0.0160169
703.753	0.0159807
703.831	0.0159180
703.909	0.0158914
703.987	0.0159809
704.065	0.0159921
704.143	0.0159429
704.221	0.0159631
704.299	0.0158591
704.378	0.0159953
704.456	0.0160248
704.534	0.0159889
704.612	0.0160156
704.690	0.0160106
704.768	0.0159591
704.846	0.0160670
704.924	0.0158514
705.003	0.0159633
705.081	0.0159336
705.159	0.0158534
705.237	0.0159784
705.315	0.0160369
705.393	0.0158598
705.471	0.0158942
705.549	0.0161050
705.628	0.0158968
705.706	0.0159584
705.784	0.0160135
705.862	0.0159471
705.940	0.0159335
706.018	0.0158920
706.096	0.0160433
706.174	0.0159258
706.253	0.0158804
706.331	0.0158759
706.409	0.0159398
706.487	0.0159115
706.565	0.0159828
706.643	0.0158405
706.721	0.0159010
706.799	0.0159486
706.878	0.0160017
706.956	0.0158290
707.034	0.0159561
707.112	0.0159009
707.190	0.0159219
707.268	0.0160130
707.346	0.0159549
707.424	0.0158260
707.503	0.0159019
707.581	0.0159134
707.659	0.0157966
707.737	0.0159460
707.815	0.0159634
707.893	0.0160122
707.971	0.0159196
708.049	0.0158603
708.128	0.0158056
708.206	0.0159853
708.284	0.0160126
708.362	0.0159089
708.440	0.0160543
708.518	0.0158164
708.596	0.0159134
708.674	0.0160841
708.753	0.0160078
708.831	0.0158710
708.909	0.0159928
708.987	0.0158877
709.065	0.0158263
709.143	0.0158717
709.221	0.0159638
709.299	0.0159204
709.378	0.0160113
709.456	0.0159087
709.534	0.0157962
709.612	0.0157887
709.690	0.0158072
709.768	0.0159276
709.846	0.0159591
709.924	0.0158862
710.003	0.0158781
710.081	0.0159708
710.159	0.0159544
710.237	0.0159330
710.315	0.0159189
710.393	0.0160757
710.471	0.0160186
710.549	0.0158543
710.628	0.0159882
710.706	0.0160593
710.784	0.0159828
710.862	0.0159867
710.940	0.0158871
711.018	0.0160342
711.096	0.0160570
711.174	0.0159711
711.253	0.0160090
711.331	0.0159238
711.409	0.0160265
711.487	0.0160303
711.565	0.0161157
711.643	0.0161131
711.721	0.0159023
711.799	0.0160509
711.878	0.0160049
711.956	0.0159570
712.034	0.0161285
712.112	0.0161467
712.190	0.0159689
712.268	0.0159789
712.346	0.0160567
712.424	0.0160438
712.503	0.0161292
712.581	0.0161322
712.659	0.0160020
712.737	0.0159789
712.815	0.0160201
712.893	0.0161080
712.971	0.0160426
713.049	0.0160494
713.128	0.0160847
713.206	0.0160728
713.284	0.0161568
713.362	0.0159952
713.440	0.0160252
713.518	0.0161096
713.596	0.0160204
713.674	0.0158907
713.753	0.0159023
713.831	0.0159634
713.909	0.0159507
713.987	0.0159856
714.065	0.0158326
714.143	0.0158669
714.221	0.0159378
714.299	0.0158863
714.378	0.0159591
714.456	0.0157208
714.534	0.0157691
714.612	0.0158983
714.690	0.0157707
714.768	0.0158448
714.846	0.0159733
714.924	0.0157636
715.003	0.0158483
715.081	0.0158829
715.159	0.0157404
715.237	0.0156047
715.315	0.0157873
715.393	0.0156892
715.471	0.0158662
715.549	0.0157553
715.628	0.0157592
715.706	0.0159447
715.784	0.0159583
715.862	0.0159485
715.940	0.0161423
716.018	0.0161102
716.096	0.0162038
716.174	0.0162466
716.253	0.0163377
716.331	0.0164845
716.409	0.0164581
716.487	0.0166232
716.565	0.0166004
716.643	0.0165954
716.721	0.0166373
716.799	0.0164713
716.878	0.0163773
716.956	0.0162766
717.034	0.0161235
717.112	0.0157993
717.190	0.0158765
717.268	0.0156228
717.346	0.0153789
717.424	0.0152383
717.503	0.0151228
717.581	0.0150954
717.659	0.0150115
717.737	0.0150261
717.815	0.0151468
717.893	0.0152923
717.971	0.0154444
718.049	0.0157972
718.128	0.0160538
718.206	0.0164631
718.284	0.0167027
718.362	0.0170237
718.440	0.0172794
718.518	0.0176186
718.596	0.0177409
718.674	0.0179195
718.753	0.0179664
718.831	0.0177111
718.909	0.0175715
718.987	0.0170978
719.065	0.0165270
719.143	0.0161578
719.221	0.0155881
719.299	0.0147747
719.378	0.0141793
719.456	0.0136631
719.534	0.0131601
719.612	0.0128668
719.690	0.0126591
719.768	0.0126244
719.846	0.0127557
719.924	0.0131515
720.003	0.0136279
720.081	0.0141951
720.159	0.0147595
720.237	0.0155838
720.315	0.0162265
720.393	0.0170587
720.471	0.0177824
720.549	0.0184641
720.628	0.0191661
720.706	0.0196834
720.784	0.0199786
720.862	0.0200260
720.940	0.0198600
721.018	0.0196262
721.096	0.0192124
721.174	0.0184609
721.253	0.0176734
721.331	0.0166956
721.409	0.0157408
721.487	0.0149146
721.565	0.0139767
721.643	0.0132845
721.721	0.0127730
721.799	0.0123481
721.878	0.0122379
721.956	0.0119974
722.034	0.0122106
722.112	0.0126246
722.190	0.0130645
722.268	0.0136265
722.346	0.0143278
722.424	0.0150391
722.503	0.0157104
722.581	0.0164020
722.659	0.0170496
722.737	0.0177315
722.815	0.0183951
722.893	0.0189056
722.971	0.0192678
723.049	0.0194770
723.128	0.0196188
723.206	0.0195880
723.284	0.0194685
723.362	0.0189951
723.440	0.0185103
723.518	0.0179478
723.596	0.0174522
723.674	0.0168350
723.753	0.0159972
723.831	0.0153941
723.909	0.0146951
723.987	0.0143760
724.065	0.0140067
724.143	0.0136026
724.221	0.0135027
724.299	0.0133376
724.378	0.0134328
724.456	0.0135645
724.534	0.0137106
724.612	0.0138414
724.690	0.0142257
724.768	0.0144722
724.846	0.0148540
724.924	0.0153695
725.003	0.0157656
725.081	0.0162344
725.159	0.0166533
725.237	0.0169074
725.315	0.0170954
725.393	0.0172720
725.471	0.0176381
725.549	0.0174976
725.628	0.0175301
725.706	0.0175626
725.784	0.0173572
725.862	0.0170546
725.940	0.0170457
726.018	0.0167099
726.096	0.0164426
726.174	0.0163497
726.253	0.0162072
726.331	0.0159840
726.409	0.0157505
726.487	0.0155672
726.565	0.0155741
726.643	0.0153882
726.721	0.0154574
726.799	0.0155772
726.878	0.0156840
726.956	0.0157622
727.034	0.0159653
727.112	0.0159409
727.190	0.0161609
727.268	0.0163227
727.346	0.0163509
727.424	0.0164020
727.503	0.0164172
727.581	0.0164553
727.659	0.0163513
727.737	0.0163560
727.815	0.0161572
727.893	0.0159711
727.971	0.0159283
728.049	0.0158540
728.128	0.0155978
728.206	0.0155253
728.284	0.0152201
728.362	0.0152481
728.440	0.0149519
728.518	0.0149989
728.596	0.0149511
728.674	0.0149136
728.753	0.0150111
728.831	0.0152448
728.909	0.0152176
728.987	0.0153142
729.065	0.0156432
729.143	0.0156695
729.221	0.0158933
729.299	0.0157845
729.378	0.0159637
729.456	0.0160475
729.534	0.0161629
729.612	0.0161979
729.690	0.0161967
729.768	0.0162094
729.846	0.0162473
729.924	0.0162449
730.003	0.0161883
730.081	0.0163644
730.159	0.0164309
730.237	0.0165194
730.315	0.0164817
730.393	0.0166784
730.471	0.0166959
730.549	0.0167136
730.628	0.0168971
730.706	0.0167880
730.784	0.0169970
730.862	0.0169718
730.940	0.0167142
731.018	0.0168045
731.096	0.0167208
731.174	0.0164263
731.253	0.0163840
731.331	0.0160974
731.409	0.0159996
731.487	0.0157030
731.565	0.0154706
731.643	0.0153342
731.721	0.0152497
731.799	0.0149545
731.878	0.0147737
731.956	0.0148547
732.034	0.0146744
732.112	0.0147704
732.190	0.0148316
732.268	0.0147305
732.346	0.0148538
732.424	0.0150137
732.503	0.0153271
732.581	0.0156071
732.659	0.0156487
732.737	0.0158420
732.815	0.0161803
732.893	0.0163400
732.971	0.0163751
733.049	0.0165302
733.128	0.0165325
733.206	0.0165299
733.284	0.0166562
733.362	0.0166865
733.440	0.0166052
733.518	0.0162955
733.596	0.0162741
733.674	0.0160092
733.753	0.0158575
733.831	0.0159768
733.909	0.0157174
733.987	0.0156027
734.065	0.0154940
734.143	0.0154316
734.221	0.0155839
734.299	0.0156168
734.378	0.0157649
734.456	0.0160843
734.534	0.0161760
734.612	0.0163418
734.690	0.0165344
734.768	0.0168672
734.846	0.0170321
734.924	0.0170415
735.003	0.0170139
735.081	0.0171209
735.159	0.0169607
735.237	0.0169146
735.315	0.0169827
735.393	0.0167724
735.471	0.0165886
735.549	0.0163661
735.628	0.0161600
735.706	0.0160967
735.784	0.0157587
735.862	0.0157141
735.940	0.0156712
736.018	0.0155764
736.096	0.0155149
736.174	0.0153553
736.253	0.0153471
736.331	0.0153954
736.409	0.0154063
736.487	0.0152067
736.565	0.0151579
736.643	0.0154316
736.721	0.0153160
736.799	0.0152821
736.878	0.0154327
736.956	0.0155156
737.034	0.0154949
737.112	0.0157536
737.190	0.0159126
737.268	0.0158824
737.346	0.0160094
737.424	0.0162655
737.503	0.0162054
737.581	0.0164399
737.659	0.0165234
737.737	0.0165186
737.815	0.0164819
737.893	0.0164561
737.971	0.0162798
738.049	0.0161205
738.128	0.0161470
738.206	0.0157622
738.284	0.0155843
738.362	0.0155245
738.440	0.0155254
738.518	0.0154844
738.596	0.0152508
738.674	0.0153319
738.753	0.0152991
738.831	0.0154321
738.909	0.0156670
738.987	0.0158688
739.065	0.0160700
739.143	0.0161768
739.221	0.0164875
739.299	0.0168472
739.378	0.0167880
739.456	0.0170126
739.534	0.0171801
739.612	0.0172410
739.690	0.0173666
739.768	0.0172981
739.846	0.0170501
739.924	0.0169215
740.003	0.0168036
740.081	0.0166996
740.159	0.0163778
740.237	0.0160229
740.315	0.0157499
740.393	0.0156084
740.471	0.0152541
740.549	0.0151872
740.628	0.0152449
740.706	0.0151810
740.784	0.0152999
740.862	0.0151535
740.940	0.0152167
741.018	0.0155038
741.096	0.0155581
741.174	0.0156061
741.253	0.0158329
741.331	0.0157960
741.409	0.0159926
741.487	0.0162247
741.565	0.0164386
741.643	0.0164304
741.721	0.0163820
741.799	0.0163548
741.878	0.0164689
741.956	0.0162645
742.034	0.0162004
742.112	0.0157896
742.190	0.0156149
742.268	0.0155360
742.346	0.0152463
742.424	0.0150523
742.503	0.0148357
742.581	0.0148282
742.659	0.0147202
742.737	0.0148612
742.815	0.0147981
742.893	0.0149500
742.971	0.0152910
743.049	0.0153195
743.128	0.0155488
743.206	0.0159044
743.284	0.0160246
743.362	0.0161466
743.440	0.0162329
743.518	0.0164928
743.596	0.0166177
743.674	0.0165701
743.753	0.0166322
743.831	0.0166808
743.909	0.0166826
743.987	0.0167340
744.065	0.0166716
744.143	0.0166217
744.221	0.0165524
744.299	0.0165980
744.378	0.0164099
744.456	0.0164659
744.534	0.0164311
744.612	0.0163739
744.690	0.0164153
744.768	0.0162230
744.846	0.0162344
744.924	0.0161865
745.003	0.0163040
745.081	0.0160879
745.159	0.0160381
745.237	0.0161083
745.315	0.0161670
745.393	0.0158774
745.471	0.0158958
745.549	0.0158874
745.628	0.0159003
745.706	0.0159346
745.784	0.0159354
745.862	0.0159068
745.940	0.0160108
746.018	0.0159813
746.096	0.0160235
746.174	0.0159309
746.253	0.0158449
746.331	0.0159289
746.409	0.0160072
746.487	0.0159638
746.565	0.0158598
746.643	0.0158934
746.721	0.0158418
746.799	0.0158984
746.878	0.0158581
746.956	0.0158045
747.034	0.0158529
747.112	0.0157955
747.190	0.0158250
747.268	0.0157225
747.346	0.0158207
747.424	0.0158788
747.503	0.0159168
747.581	0.0157331
747.659	0.0157316
747.737	0.0158356
747.815	0.0159058
747.893	0.0158866
747.971	0.0158378
748.049	0.0158939
748.128	0.0160508
748.206	0.0161364
748.284	0.0160567
748.362	0.0160577
748.440	0.0160881
748.518	0.0162093
748.596	0.0161347
748.674	0.0161505
748.753	0.0162154
748.831	0.0161455
748.909	0.0162527
748.987	0.0163001
749.065	0.0162308
749.143	0.0162552
749.221	0.0164327
749.299	0.0164944
749.378	0.0165516
749.456	0.0164893
749.534	0.0163120
749.612	0.0161952
749.690	0.0161742
749.768	0.0162051
749.846	0.0161839
749.924	0.0160402
750.003	0.0158456
750.081	0.0159124
750.159	0.0158568
750.237	0.0158395
750.315	0.0156208
750.393	0.0157372
750.471	0.0155585
750.549	0.0154892
750.628	0.0156639
750.706	0.0155703
750.784	0.0154179
750.862	0.0154527
750.940	0.0155353
751.018	0.0155464
751.096	0.0156321
751.174	0.0157294
751.253	0.0157059
751.331	0.0157275
751.409	0.0158608
751.487	0.0158442
751.565	0.0159814
751.643	0.0159697
751.721	0.0158786
751.799	0.0160204
751.878	0.0161655
751.956	0.0160799
752.034	0.0160256
752.112	0.0162180
752.190	0.0159952
752.268	0.0161255
752.346	0.0161202
752.424	0.0161026
752.503	0.0160783
752.581	0.0159075
752.659	0.0160758
752.737	0.0159470
752.815	0.0159178
752.893	0.0157866
752.971	0.0159367
753.049	0.0158456
753.128	0.0158072
753.206	0.0158750
753.284	0.0158766
753.362	0.0157867
753.440	0.0159116
753.518	0.0159289
753.596	0.0159024
753.674	0.0160343
753.753	0.0161024
753.831	0.0159867
753.909	0.0160793
753.987	0.0162458
754.065	0.0162800
754.143	0.0162602
754.221	0.0163760
754.299	0.0164176
754.378	0.0163847
754.456	0.0164088
754.534	0.0162537
754.612	0.0162932
754.690	0.0162980
754.768	0.0162501
754.846	0.0162568
754.924	0.0161142
755.003	0.0160804
755.081	0.0160088
755.159	0.0158700
755.237	0.0158524
755.315	0.0158239
755.393	0.0157295
755.471	0.0157227
755.549	0.0157325
755.628	0.0156376
755.706	0.0154230
755.784	0.0155722
755.862	0.0155129
755.940	0.0155924
756.018	0.0155465
756.096	0.0155281
756.174	0.0155791
756.253	0.0155811
756.331	0.0156279
756.409	0.0158334
756.487	0.0156841
756.565	0.0157453
756.643	0.0159705
756.721	0.0160586
756.799	0.0160551
756.878	0.0162254
756.956	0.0163007
757.034	0.0162299
757.112	0.0163477
757.190	0.0164207
757.268	0.0164355
757.346	0.0162844
757.424	0.0162397
757.503	0.0161768
757.581	0.0159389
757.659	0.0161074
757.737	0.0159607
757.815	0.0159913
757.893	0.0159007
757.971	0.0158682
758.049	0.0159008
758.128	0.0158649
758.206	0.0158026
758.284	0.0159379
758.362	0.0158075
758.440	0.0157037
758.518	0.0159805
758.596	0.0160755
758.674	0.0159354
758.753	0.0159257
758.831	0.0159609
758.909	0.0160693
758.987	0.0158761
759.065	0.0159723
759.143	0.0160631
759.221	0.0159529
759.299	0.0160630
759.378	0.0159061
759.456	0.0157436
759.534	0.0159200
759.612	0.0161428
759.690	0.0160037
759.768	0.0159696
759.846	0.0159673
759.924	0.0159618
760.003	0.0160034
760.081	0.0159124
760.159	0.0160841
760.237	0.0160097
760.315	0.0159171
760.393	0.0157582
760.471	0.0158921
760.549	0.0158668
760.628	0.0158564
760.706	0.0158064
760.784	0.0157972
760.862	0.0157217
760.940	0.0157751
761.018	0.0157679
761.096	0.0156961
761.174	0.0156213
761.253	0.0157127
761.331	0.0157213
761.409	0.0156543
761.487	0.0157432
761.565	0.0158564
761.643	0.0157624
761.721	0.0158405
761.799	0.0160809
761.878	0.0161334
761.956	0.0159546
762.034	0.0159760
762.112	0.0161720
762.190	0.0162186
762.268	0.0163345
762.346	0.0163101
762.424	0.0162943
762.503	0.0162787
762.581	0.0162476
762.659	0.0162718
762.737	0.0161971
762.815	0.0161186
762.893	0.0161926
762.971	0.0160892
763.049	0.0161610
763.128	0.0161500
763.206	0.0161047
763.284	0.0159146
763.362	0.0159180
763.440	0.0158549
763.518	0.0159897
763.596	0.0157910
763.674	0.0156790
763.753	0.0158089
763.831	0.0159675
763.909	0.0157103
763.987	0.0156282
764.065	0.0158632
764.143	0.0158440
764.221	0.0160390
764.299	0.0160034
764.378	0.0159650
764.456	0.0159130
764.534	0.0159214
764.612	0.0160703
764.690	0.0160090
764.768	0.0158744
764.846	0.0156795
764.924	0.0159240
765.003	0.0160021
765.081	0.0157680
765.159	0.0157744
765.237	0.0158076
765.315	0.0158441
765.393	0.0158507
765.471	0.0157555
765.549	0.0158295
765.628	0.0158153
765.706	0.0157066
765.784	0.0157997
765.862	0.0158653
765.940	0.0158952
766.018	0.0158408
766.096	0.0156486
766.174	0.0158405
766.253	0.0159636
766.331	0.0158837
766.409	0.0158659
766.487	0.0158893
766.565	0.0159843
766.643	0.0159549
766.721	0.0157822
766.799	0.0158527
766.878	0.0159048
766.956	0.0159209
767.034	0.0158823
767.112	0.0159428
767.190	0.0159691
767.268	0.0160099
767.346	0.0160153
767.424	0.0160103
767.503	0.0160339
767.581	0.0160146
767.659	0.0161701
767.737	0.0159840
767.815	0.0159380
767.893	0.0159478
767.971	0.0158796
768.049	0.0159547
768.128	0.0158472
768.206	0.0159470
768.284	0.0160137
768.362	0.0158552
768.440	0.0160381
768.518	0.0159551
768.596	0.0159752
768.674	0.0160831
768.753	0.0160811
768.831	0.0160895
768.909	0.0161299
768.987	0.0161219
769.065	0.0160581
769.143	0.0161665
769.221	0.0161823
769.299	0.0163055
769.378	0.0160885
769.456	0.0160316
769.534	0.0160724
769.612	0.0161481
769.690	0.0161042
769.768	0.0160338
769.846	0.0159735
769.924	0.0157834
770.003	0.0158132
770.081	0.0158251
770.159	0.0158566
770.237	0.0157441
770.315	0.0157882
770.393	0.0158066
770.471	0.0157352
770.549	0.0158407
770.628	0.0157899
770.706	0.0158031
770.784	0.0158696
770.862	0.0158870
770.940	0.0158588
771.018	0.0159505
771.096	0.0159956
771.174	0.0159618
771.253	0.0158447
771.331	0.0160137
771.409	0.0160349
771.487	0.0159644
771.565	0.0157737
771.643	0.0157848
771.721	0.0159465
771.799	0.0157991
771.878	0.0159084
771.956	0.0158191
772.034	0.0156341
772.112	0.0155866
772.190	0.0157660
772.268	0.0157403
772.346	0.0156572
772.424	0.0157894
772.503	0.0159084
772.581	0.0158250
772.659	0.0157600
772.737	0.0158098
772.815	0.0159375
772.893	0.0160547
772.971	0.0159955
773.049	0.0160410
773.128	0.0161239
773.206	0.0161971
773.284	0.0161775
773.362	0.0162389
773.440	0.0161591
773.518	0.0162395
773.596	0.0162712
773.674	0.0159794
773.753	0.0161137
773.831	0.0160284
773.909	0.0160596
773.987	0.0159670
774.065	0.0159628
774.143	0.0160386
774.221	0.0159344
774.299	0.0160547
774.378	0.0162273
774.456	0.0160082
774.534	0.0161330
774.612	0.0159812
774.690	0.0162029
774.768	0.0162985
774.846	0.0161116
774.924	0.0161052
775.003	0.0161436
775.081	0.0161539
775.159	0.0161536
775.237	0.0161374
775.315	0.0160873
775.393	0.0160490
775.471	0.0159646
775.549	0.0160359
775.628	0.0159508
775.706	0.0158972
775.784	0.0159349
775.862	0.0156421
775.940	0.0158231
776.018	0.0158768
776.096	0.0157662
776.174	0.0156526
776.253	0.0157886
776.331	0.0158956
776.409	0.0157913
776.487	0.0156281
776.565	0.0157416
776.643	0.0157075
776.721	0.0158400
776.799	0.0157394
776.878	0.0158733
776.956	0.0158718
777.034	0.0159608
777.112	0.0158181
777.190	0.0158665
777.268	0.0160329
777.346	0.0160782
777.424	0.0159969
777.503	0.0160992
777.581	0.0161192
777.659	0.0160915
777.737	0.0160841
777.815	0.0159628
777.893	0.0159706
777.971	0.0160400
778.049	0.0160529
778.128	0.0160590
778.206	0.0160972
778.284	0.0160476
778.362	0.0159677
778.440	0.0161063
778.518	0.0161992
778.596	0.0160919
778.674	0.0161655
778.753	0.0162857
778.831	0.0161948
778.909	0.0160800
778.987	0.0162196
779.065	0.0162344
779.143	0.0162189
779.221	0.0161000
779.299	0.0160654
779.378	0.0161599
779.456	0.0160129
779.534	0.0160585
779.612	0.0160844
779.690	0.0161089
779.768	0.0159985
779.846	0.0159730
779.924	0.0160075
780.003	0.0159555
780.081	0.0159422
780.159	0.0160640
780.237	0.0159085
780.315	0.0160083
780.393	0.0158546
780.471	0.0158179
780.549	0.0156277
780.628	0.0157114
780.706	0.0158286
780.784	0.0158011
780.862	0.0157815
780.940	0.0158349
781.018	0.0157174
781.096	0.0157362
781.174	0.0156614
781.253	0.0158259
781.331	0.0158798
781.409	0.0158942
781.487	0.0159280
781.565	0.0159557
781.643	0.0160040
781.721	0.0159653
781.799	0.0160979
781.878	0.0160471
781.956	0.0160335
782.034	0.0159641
782.112	0.0160830
782.190	0.0161344
782.268	0.0159826
782.346	0.0158845
782.424	0.0160755
782.503	0.0159176
782.581	0.0158927
782.659	0.0159910
782.737	0.0159009
782.815	0.0158668
782.893	0.0159527
782.971	0.0158912
783.049	0.0159741
783.128	0.0159097
783.206	0.0159773
783.284	0.0160812
783.362	0.0159627
783.440	0.0161787
783.518	0.0160919
783.596	0.0161960
783.674	0.0162579
783.753	0.0161578
783.831	0.0160861
783.909	0.0162600
783.987	0.0162768
784.065	0.0162117
784.143	0.0159639
784.221	0.0162096
784.299	0.0160821
784.378	0.0159206
784.456	0.0159005
784.534	0.0158170
784.612	0.0158628
784.690	0.0157498
784.768	0.0157122
784.846	0.0157692
784.924	0.0156234
785.003	0.0158485
785.081	0.0158138
785.159	0.0156887
785.237	0.0156198
785.315	0.0157230
785.393	0.0158441
785.471	0.0159981
785.549	0.0158738
785.628	0.0161342
785.706	0.0161201
785.784	0.0162234
785.862	0.0161472
785.940	0.0163118
786.018	0.0164166
786.096	0.0163772
786.174	0.0164424
786.253	0.0165347
786.331	0.0164732
786.409	0.0162999
786.487	0.0163098
786.565	0.0161916
786.643	0.0160989
786.721	0.0160632
786.799	0.0161079
786.878	0.0159636
786.956	0.0157926
787.034	0.0158099
787.112	0.0158080
787.190	0.0159759
787.268	0.0159494
787.346	0.0158892
787.424	0.0157088
787.503	0.0160961
787.581	0.0159579
787.659	0.0161337
787.737	0.0161340
787.815	0.0161630
787.893	0.0162624
787.971	0.0162337
788.049	0.0162096
788.128	0.0161810
788.206	0.0161314
788.284	0.0160788
788.362	0.0159463
788.440	0.0160255
788.518	0.0158926
788.596	0.0159088
788.674	0.0159563
788.753	0.0157200
788.831	0.0156248
788.909	0.0156063
788.987	0.0156421
789.065	0.0156394
789.143	0.0155669
789.221	0.0155871
789.299	0.0156133
789.378	0.0157047
789.456	0.0156763
789.534	0.0157520
789.612	0.0157998
789.690	0.0158595
789.768	0.0159991
789.846	0.0160888
789.924	0.0161185
790.003	0.0162658
790.081	0.0162088
790.159	0.0160333
790.237	0.0160719
790.315	0.0162319
790.393	0.0161678
790.471	0.0161729
790.549	0.0160406
790.628	0.0161098
790.706	0.0161500
790.784	0.0159273
790.862	0.0159499
790.940	0.0158901
791.018	0.0158890
791.096	0.0158466
791.174	0.0159257
791.253	0.0160109
791.331	0.0157920
791.409	0.0159867
791.487	0.0159428
791.565	0.0159682
791.643	0.0160697
791.721	0.0160540
791.799	0.0160833
791.878	0.0160919
791.956	0.0162385
792.034	0.0161765
792.112	0.0160491
792.190	0.0159906
792.268	0.0160998
792.346	0.0160687
792.424	0.0160249
792.503	0.0159442
792.581	0.0160061
792.659	0.0159554
792.737	0.0158936
792.815	0.0157831
792.893	0.0157707
792.971	0.0157068
793.049	0.0158782
793.128	0.0157986
793.206	0.0156852
793.284	0.0156730
793.362	0.0157488
793.440	0.0157826
793.518	0.0157538
793.596	0.0158235
793.674	0.0157470
793.753	0.0158006
793.831	0.0157397
793.909	0.0159702
793.987	0.0159570
794.065	0.0158179
794.143	0.0159049
794.221	0.0158889
794.299	0.0159200
794.378	0.0159951
794.456	0.0160384
794.534	0.0159263
794.612	0.0160513
794.690	0.0160368
794.768	0.0160237
794.846	0.0160818
794.924	0.0160271
795.003	0.0160130
795.081	0.0160341
795.159	0.0160283
795.237	0.0160386
795.315	0.0160915
795.393	0.0161469
795.471	0.0160278
795.549	0.0159961
795.628	0.0159601
795.706	0.0160258
795.784	0.0159879
795.862	0.0159661
795.940	0.0160022
796.018	0.0160090
796.096	0.0161466
796.174	0.0160043
796.253	0.0159743
796.331	0.0161692
796.409	0.0161016
796.487	0.0162080
796.565	0.0163337
796.643	0.0160172
796.721	0.0160072
796.799	0.0160860
796.878	0.0160381
796.956	0.0159318
797.034	0.0160013
797.112	0.0160021
797.190	0.0159975
797.268	0.0159314
797.346	0.0158118
797.424	0.0159633
797.503	0.0157414
797.581	0.0158022
797.659	0.0157983
797.737	0.0158064
797.815	0.0157975
797.893	0.0158166
797.971	0.0159825
798.049	0.0158146
798.128	0.0158744
798.206	0.0159959
798.284	0.0159563
798.362	0.0160106
798.440	0.0160645
798.518	0.0158986
798.596	0.0160332
798.674	0.0160990
798.753	0.0160250
798.831	0.0159285
798.909	0.0161494
798.987	0.0160323
799.065	0.0159708
799.143	0.0161198
799.221	0.0159931
799.299	0.0159535
799.378	0.0161134
799.456	0.0159953
799.534	0.0160318
799.612	0.0160845
799.690	0.0159682
799.768	0.0160603
799.846	0.0160148
799.924	0.0160017
800.003	0.0158923
800.081	0.0159913
800.159	0.0159717
800.237	0.0159162
800.315	0.0157956
800.393	0.0161716
800.471	0.0158968
800.549	0.0159606
800.628	0.0158411
800.706	0.0159097
800.784	0.0158768
800.862	0.0159261
800.940	0.0159569
801.018	0.0160091
801.096	0.0160361
801.174	0.0160857
801.253	0.0161153
801.331	0.0159717
801.409	0.0160831
801.487	0.0160021
801.565	0.0160838
801.643	0.0160630
801.721	0.0160598
801.799	0.0160816
801.878	0.0161362
801.956	0.0161207
802.034	0.0160621
802.112	0.0159900
802.190	0.0161393
802.268	0.0160052
802.346	0.0159863
802.424	0.0160090
802.503	0.0160625
802.581	0.0161221
802.659	0.0160374
802.737	0.0160307
802.815	0.0162463
802.893	0.0159521
802.971	0.0158823
803.049	0.0160125
803.128	0.0158917
803.206	0.0159948
803.284	0.0160836
803.362	0.0158679
803.440	0.0158737
803.518	0.0158915
803.596	0.0158710
803.674	0.0158142
803.753	0.0158611
803.831	0.0160247
803.909	0.0161508
803.987	0.0161217
804.065	0.0159309
804.143	0.0160060
804.221	0.0159475
804.299	0.0160030
804.378	0.0160385
804.456	0.0159702
804.534	0.0159899
804.612	0.0160451
804.690	0.0160736
804.768	0.0161215
804.846	0.0159992
804.924	0.0160560
805.003	0.0159588
805.081	0.0159290
805.159	0.0160912
805.237	0.0161462
805.315	0.0160590
805.393	0.0161069
805.471	0.0161735
805.549	0.0160453
805.628	0.0160709
805.706	0.0161096
805.784	0.0160847
805.862	0.0159811
805.940	0.0160990
806.018	0.0162213
806.096	0.0159237
806.174	0.0160559
806.253	0.0161694
806.331	0.0161115
806.409	0.0160037
806.487	0.0158639
806.565	0.0160143
806.643	0.0160193
806.721	0.0159891
806.799	0.0161286
806.878	0.0160741
806.956	0.0160426
807.034	0.0159702
807.112	0.0159251
807.190	0.0159122
807.268	0.0158433
807.346	0.0158668
807.424	0.0160612
807.503	0.0159341
807.581	0.0159796
807.659	0.0161114
807.737	0.0159669
807.815	0.0158715
807.893	0.0159766
807.971	0.0161150
808.049	0.0160527
808.128	0.0160827
808.206	0.0160897
808.284	0.0161086
808.362	0.0160913
808.440	0.0160944
808.518	0.0160174
808.596	0.0160329
808.674	0.0161006
808.753	0.0159675
808.831	0.0160716
808.909	0.0158331
808.987	0.0158216
809.065	0.0158627
809.143	0.0158993
809.221	0.0158117
809.299	0.0158836
809.378	0.0157063
809.456	0.0157011
809.534	0.0158267
809.612	0.0155934
809.690	0.0157782
809.768	0.0157709
809.846	0.0157569
809.924	0.0157788
810.003	0.0158873
810.081	0.0159136
810.159	0.0159599
810.237	0.0159165
810.315	0.0160462
810.393	0.0160886
810.471	0.0159129
810.549	0.0159340
810.628	0.0160715
810.706	0.0160807
810.784	0.0159956
810.862	0.0161582
810.940	0.0160925
811.018	0.0160794
811.096	0.0160097
811.174	0.0160859
811.253	0.0160179
811.331	0.0161717
811.409	0.0160604
811.487	0.0160900
811.565	0.0159769
811.643	0.0160173
811.721	0.0159306
811.799	0.0159791
811.878	0.0159597
811.956	0.0158974
812.034	0.0160604
812.112	0.0160652
812.190	0.0160221
812.268	0.0159232
812.346	0.0161127
812.424	0.0160149
812.503	0.0160316
812.581	0.0160789
812.659	0.0160634
812.737	0.0159715
812.815	0.0160069
812.893	0.0159477
812.971	0.0159461
813.049	0.0160410
813.128	0.0160831
813.206	0.0158795
813.284	0.0159163
813.362	0.0159724
813.440	0.0160503
813.518	0.0160103
813.596	0.0159991
813.674	0.0159129
813.753	0.0160696
813.831	0.0157099
813.909	0.0159482
813.987	0.0159547
814.065	0.0158461
814.143	0.0160378
814.221	0.0160143
814.299	0.0160499
814.378	0.0160965
814.456	0.0160946
814.534	0.0160528
814.612	0.0161314
814.690	0.0162278
814.768	0.0162693
814.846	0.0161623
814.924	0.0160629
815.003	0.0161327
815.081	0.0160825
815.159	0.0161534
815.237	0.0159606
815.315	0.0159325
815.393	0.0159837
815.471	0.0159163
815.549	0.0158423
815.628	0.0157238
815.706	0.0157565
815.784	0.0157521
815.862	0.0156139
815.940	0.0156229
816.018	0.0154362
816.096	0.0155628
816.174	0.0154956
816.253	0.0156869
816.331	0.0156635
816.409	0.0156990
816.487	0.0156792
816.565	0.0158858
816.643	0.0158448
816.721	0.0158848
816.799	0.0159209
816.878	0.0159872
816.956	0.0161040
817.034	0.0161893
817.112	0.0162326
817.190	0.0162412
817.268	0.0161600
817.346	0.0163970
817.424	0.0162404
817.503	0.0163107
817.581	0.0161076
817.659	0.0162170
817.737	0.0161405
817.815	0.0161555
817.893	0.0160547
817.971	0.0158954
818.049	0.0159930
818.128	0.0158910
818.206	0.0158109
818.284	0.0157801
818.362	0.0158071
818.440	0.0160045
818.518	0.0157898
818.596	0.0157372
818.674	0.0158050
818.753	0.0157368
818.831	0.0157737
818.909	0.0159932
818.987	0.0160324
819.065	0.0160325
819.143	0.0160647
819.221	0.0161166
819.299	0.0160738
819.378	0.0161873
819.456	0.0162401
819.534	0.0161897
819.612	0.0162405
819.690	0.0161385
819.768	0.0161401
819.846	0.0161254
819.924	0.0163635
820.003	0.0161494
820.081	0.0160064
820.159	0.0161114
820.237	0.0160494
820.315	0.0160873
820.393	0.0160511
820.471	0.0158057
820.549	0.0157125
820.628	0.0158102
820.706	0.0157549
820.784	0.0158559
820.862	0.0156368
820.940	0.0156657
821.018	0.0157042
821.096	0.0156677
821.174	0.0157403
821.253	0.0157911
821.331	0.0158472
821.409	0.0157627
821.487	0.0159218
821.565	0.0159842
821.643	0.0159254
821.721	0.0161747
821.799	0.0160690
821.878	0.0160867
821.956	0.0161136
822.034	0.0160596
822.112	0.0160324
822.190	0.0160381
822.268	0.0161143
822.346	0.0162209
822.424	0.0160690
822.503	0.0159888
822.581	0.0160387
822.659	0.0160993
822.737	0.0158210
822.815	0.0159637
822.893	0.0160445
822.971	0.0161044
823.049	0.0159899
823.128	0.0159972
823.206	0.0160075
823.284	0.0160391
823.362	0.0160235
823.440	0.0160069
823.518	0.0160785
823.596	0.0162061
823.674	0.0160482
823.753	0.0161090
823.831	0.0160947
823.909	0.0161640
823.987	0.0162200
824.065	0.0159703
824.143	0.0161614
824.221	0.0161980
824.299	0.0161758
824.378	0.0159801
824.456	0.0160258
824.534	0.0159900
824.612	0.0157755
824.690	0.0158412
824.768	0.0158259
824.846	0.0157327
824.924	0.0156429
825.003	0.0158216
825.081	0.0158173
825.159	0.0155991
825.237	0.0155594
825.315	0.0158710
825.393	0.0157161
825.471	0.0156689
825.549	0.0158091
825.628	0.0159137
825.706	0.0157273
825.784	0.0158463
825.862	0.0160640
825.940	0.0158853
826.018	0.0159339
826.096	0.0160754
826.174	0.0160055
826.253	0.0160351
826.331	0.0161005
826.409	0.0161756
826.487	0.0160110
826.565	0.0161691
826.643	0.0161260
826.721	0.0161742
826.799	0.0162371
826.878	0.0162306
826.956	0.0160391
827.034	0.0161758
827.112	0.0162003
827.190	0.0161801
827.268	0.0161928
827.346	0.0160172
827.424	0.0161343
827.503	0.0161848
827.581	0.0161514
827.659	0.0161967
827.737	0.0160077
827.815	0.0161244
827.893	0.0159085
827.971	0.0157768
828.049	0.0158807
828.128	0.0159067
828.206	0.0157251
828.284	0.0157191
828.362	0.0157291
828.440	0.0157984
828.518	0.0157919
828.596	0.0159030
828.674	0.0157681
828.753	0.0156918
828.831	0.0157220
828.909	0.0159116
828.987	0.0158883
829.065	0.0159279
829.143	0.0157893
829.221	0.0158912
829.299	0.0160122
829.378	0.0159981
829.456	0.0159488
829.534	0.0159707
829.612	0.0159323
829.690	0.0159382
829.768	0.0160698
829.846	0.0160928
829.924	0.0162640
830.003	0.0159898
830.081	0.0158910
830.159	0.0161490
830.237	0.0159796
830.315	0.0159757
830.393	0.0160473
830.471	0.0160805
830.549	0.0160186
830.628	0.0160022
830.706	0.0159837
830.784	0.0161651
830.862	0.0160928
830.940	0.0160551
831.018	0.0160514
831.096	0.0162420
831.174	0.0162913
831.253	0.0162800
831.331	0.0162003
831.409	0.0162878
831.487	0.0161697
831.565	0.0160870
831.643	0.0159756
831.721	0.0161961
831.799	0.0160754
831.878	0.0160133
831.956	0.0159770
832.034	0.0159446
832.112	0.0158829
832.190	0.0159306
832.268	0.0159222
832.346	0.0158507
832.424	0.0158994
832.503	0.0158021
832.581	0.0156770
832.659	0.0156962
832.737	0.0156185
832.815	0.0156499
832.893	0.0156436
832.971	0.0157217
833.049	0.0156530
833.128	0.0156712
833.206	0.0157095
833.284	0.0158006
833.362	0.0155893
833.440	0.0157642
833.518	0.0156141
833.596	0.0156813
833.674	0.0158847
833.753	0.0158652
833.831	0.0159831
833.909	0.0158562
833.987	0.0159657
834.065	0.0159777
834.143	0.0161189
834.221	0.0160845
834.299	0.0161584
834.378	0.0160936
834.456	0.0161310
834.534	0.0159903
834.612	0.0160729
834.690	0.0160844
834.768	0.0160152
834.846	0.0160136
834.924	0.0161014
835.003	0.0161030
835.081	0.0160075
835.159	0.0159231
835.237	0.0159782
835.315	0.0160616
835.393	0.0160412
835.471	0.0161824
835.549	0.0160838
835.628	0.0160254
835.706	0.0161118
835.784	0.0160715
835.862	0.0160766
835.940	0.0159885
836.018	0.0160048
836.096	0.0161597
836.174	0.0161904
836.253	0.0160053
836.331	0.0161328
836.409	0.0159950
836.487	0.0159886
836.565	0.0159287
836.643	0.0160114
836.721	0.0159570
836.799	0.0158826
836.878	0.0158854
836.956	0.0158533
837.034	0.0157325
837.112	0.0157673
837.190	0.0158682
837.268	0.0158468
837.346	0.0159059
837.424	0.0157896
837.503	0.0157045
837.581	0.0158491
837.659	0.0159425
837.737	0.0160239
837.815	0.0158825
837.893	0.0158792
837.971	0.0160110
838.049	0.0159936
838.128	0.0160297
838.206	0.0159771
838.284	0.0160725
838.362	0.0160529
838.440	0.0159008
838.518	0.0159842
838.596	0.0159283
838.674	0.0159432
838.753	0.0160453
838.831	0.0159195
838.909	0.0160693
838.987	0.0160265
839.065	0.0159810
839.143	0.0160445
839.221	0.0160349
839.299	0.0160210
839.378	0.0159271
839.456	0.0158756
839.534	0.0159058
839.612	0.0161707
839.690	0.0160571
839.768	0.0159931
839.846	0.0159838
839.924	0.0160302
840.003	0.0159805
840.081	0.0159998
840.159	0.0160723
840.237	0.0160607
840.315	0.0159477
840.393	0.0160793
840.471	0.0160487
840.549	0.0158595
840.628	0.0159387
840.706	0.0159270
840.784	0.0158556
840.862	0.0158838
840.940	0.0158749
841.018	0.0158488
841.096	0.0162054
841.174	0.0159429
841.253	0.0160139
841.331	0.0160166
841.409	0.0160987
841.487	0.0160469
841.565	0.0161696
841.643	0.0162010
841.721	0.0160946
841.799	0.0162202
841.878	0.0161578
841.956	0.0160181
842.034	0.0161915
842.112	0.0161436
842.190	0.0160599
842.268	0.0160591
842.346	0.0160018
842.424	0.0159601
842.503	0.0160769
842.581	0.0159920
842.659	0.0159798
842.737	0.0159830
842.815	0.0160099
842.893	0.0159588
842.971	0.0158245
843.049	0.0159516
843.128	0.0158952
843.206	0.0158214
843.284	0.0159790
843.362	0.0158190
843.440	0.0159480
843.518	0.0158874
843.596	0.0158669
843.674	0.0159637
843.753	0.0159499
843.831	0.0159380
843.909	0.0160110
843.987	0.0158369
844.065	0.0158728
844.143	0.0160210
844.221	0.0160539
844.299	0.0160348
844.378	0.0159740
844.456	0.0160300
844.534	0.0157420
844.612	0.0158221
844.690	0.0159935
844.768	0.0159390
844.846	0.0159186
844.924	0.0157957
845.003	0.0158835
845.081	0.0157440
845.159	0.0159824
845.237	0.0159877
845.315	0.0158916
845.393	0.0158386
845.471	0.0159256
845.549	0.0159708
845.628	0.0159498
845.706	0.0159924
845.784	0.0161116
845.862	0.0160973
845.940	0.0161077
846.018	0.0161272
846.096	0.0161156
846.174	0.0159989
846.253	0.0160771
846.331	0.0160814
846.409	0.0161370
846.487	0.0161371
846.565	0.0160647
846.643	0.0161079
846.721	0.0161147
846.799	0.0159747
846.878	0.0159967
846.956	0.0160520
847.034	0.0160401
847.112	0.0159029
847.190	0.0159962
847.268	0.0159125
847.346	0.0159621
847.424	0.0160957
847.503	0.0158759
847.581	0.0157137
847.659	0.0158144
847.737	0.0159361
847.815	0.0158369
847.893	0.0159126
847.971	0.0159424
848.049	0.0159956
848.128	0.0159682
848.206	0.0160463
848.284	0.0160493
848.362	0.0161726
848.440	0.0160813
848.518	0.0160582
848.596	0.0161806
848.674	0.0160011
848.753	0.0162314
848.831	0.0161990
848.909	0.0160311
848.987	0.0160876
849.065	0.0162484
849.143	0.0161003
849.221	0.0161553
849.299	0.0159512
849.378	0.0160437
849.456	0.0160777
849.534	0.0160181
849.612	0.0159652
849.690	0.0159776
849.768	0.0158997
849.846	0.0160030
849.924	0.0159968
850.003	0.0159739
850.081	0.0159728
850.159	0.0158627
850.237	0.0159697
850.315	0.0159953
850.393	0.0159148
850.471	0.0160101
850.549	0.0159932
850.628	0.0159576
850.706	0.0159285
850.784	0.0159221
850.862	0.0160499
850.940	0.0159834
851.018	0.0160557
851.096	0.0159882
851.174	0.0160796
851.253	0.0160832
851.331	0.0160229
851.409	0.0160831
851.487	0.0160583
851.565	0.0160695
851.643	0.0161224
851.721	0.0160799
851.799	0.0161004
851.878	0.0159007
851.956	0.0159071
852.034	0.0159208
852.112	0.0159745
852.190	0.0159227
852.268	0.0159855
852.346	0.0158120
852.424	0.0159737
852.503	0.0159994
852.581	0.0158496
852.659	0.0158497
852.737	0.0158707
852.815	0.0159689
852.893	0.0158448
852.971	0.0159756
853.049	0.0159743
853.128	0.0160053
853.206	0.0158827
853.284	0.0159401
853.362	0.0161427
853.440	0.0162235
853.518	0.0159812
853.596	0.0161391
853.674	0.0160255
853.753	0.0161325
853.831	0.0160832
853.909	0.0161797
853.987	0.0161269
854.065	0.0161481
854.143	0.0160951
854.221	0.0162133
854.299	0.0160796
854.378	0.0161021
854.456	0.0162363
854.534	0.0159271
854.612	0.0161192
854.690	0.0161544
854.768	0.0159227
854.846	0.0159312
854.924	0.0160961
855.003	0.0159621
855.081	0.0159570
855.159	0.0158434
855.237	0.0160464
855.315	0.0158464
855.393	0.0159068
855.471	0.0158868
855.549	0.0159516
855.628	0.0159544
855.706	0.0159679
855.784	0.0158375
855.862	0.0159061
855.940	0.0158492
856.018	0.0158820
856.096	0.0159006
856.174	0.0157364
856.253	0.0158698
856.331	0.0158617
856.409	0.0159377
856.487	0.0159622
856.565	0.0160799
856.643	0.0160989
856.721	0.0158446
856.799	0.0160290
856.878	0.0160361
856.956	0.0161129
857.034	0.0159277
857.112	0.0160693
857.190	0.0159584
857.268	0.0161172
857.346	0.0159808
857.424	0.0161091
857.503	0.0159826
857.581	0.0160220
857.659	0.0161316
857.737	0.0160056
857.815	0.0161089
857.893	0.0160834
857.971	0.0161767
858.049	0.0161664
858.128	0.0160160
858.206	0.0161103
858.284	0.0160809
858.362	0.0162600
858.440	0.0161284
858.518	0.0160376
858.596	0.0161073
858.674	0.0160022
858.753	0.0159724
858.831	0.0160650
858.909	0.0159673
858.987	0.0161530
859.065	0.0160843
859.143	0.0160062
859.221	0.0160303
859.299	0.0160230
859.378	0.0159116
859.456	0.0159483
859.534	0.0159055
859.612	0.0159608
859.690	0.0158870
859.768	0.0160271
859.846	0.0159240
859.924	0.0160084
860.003	0.0160103
860.081	0.0160488
860.159	0.0159719
860.237	0.0161070
860.315	0.0158847
860.393	0.0159798
860.471	0.0159551
860.549	0.0159744
860.628	0.0158774
860.706	0.0159559
860.784	0.0160029
860.862	0.0159686
860.940	0.0160414
861.018	0.0159049
861.096	0.0159375
861.174	0.0160558
861.253	0.0158836
861.331	0.0158991
861.409	0.0160564
861.487	0.0159769
861.565	0.0160839
861.643	0.0160196
861.721	0.0159572
861.799	0.0160167
861.878	0.0158918
861.956	0.0160181
862.034	0.0160422
862.112	0.0159985
862.190	0.0159494
862.268	0.0159000
862.346	0.0160742
862.424	0.0159173
862.503	0.0159661
862.581	0.0160074
862.659	0.0159952
862.737	0.0159486
862.815	0.0159363
862.893	0.0159691
862.971	0.0159342
863.049	0.0158096
863.128	0.0158275
863.206	0.0158413
863.284	0.0159513
863.362	0.0158169
863.440	0.0159724
863.518	0.0159665
863.596	0.0158780
863.674	0.0160432
863.753	0.0159831
863.831	0.0159076
863.909	0.0159828
863.987	0.0159349
864.065	0.0159356
864.143	0.0159801
864.221	0.0159161
864.299	0.0159204
864.378	0.0159496
864.456	0.0158518
864.534	0.0159435
864.612	0.0160825
864.690	0.0159257
864.768	0.0160201
864.846	0.0160069
864.924	0.0160016
865.003	0.0161440
865.081	0.0159399
865.159	0.0160518
865.237	0.0160046
865.315	0.0160355
865.393	0.0161284
865.471	0.0157321
865.549	0.0158472
865.628	0.0159737
865.706	0.0159837
865.784	0.0159357
865.862	0.0158026
865.940	0.0158908
866.018	0.0158081
866.096	0.0161249
866.174	0.0159765
866.253	0.0159613
866.331	0.0160858
866.409	0.0160413
866.487	0.0159019
866.565	0.0158645
866.643	0.0160531
866.721	0.0159289
866.799	0.0159895
866.878	0.0159399
866.956	0.0158867
867.034	0.0160988
867.112	0.0161569
867.190	0.0158553
867.268	0.0160675
867.346	0.0160281
867.424	0.0161417
867.503	0.0160266
867.581	0.0160619
867.659	0.0160889
867.737	0.0160941
867.815	0.0161423
867.893	0.0160826
867.971	0.0159102
868.049	0.0160175
868.128	0.0161093
868.206	0.0159684
868.284	0.0158890
868.362	0.0160854
868.440	0.0160251
868.518	0.0159515
868.596	0.0159351
868.674	0.0158711
868.753	0.0158533
868.831	0.0158376
868.909	0.0159274
868.987	0.0159843
869.065	0.0158912
869.143	0.0158535
869.221	0.0159589
869.299	0.0158991
869.378	0.0160551
869.456	0.0158643
869.534	0.0158613
869.612	0.0159394
869.690	0.0159976
869.768	0.0160104
869.846	0.0159380
869.924	0.0159033
870.003	0.0159555
870.081	0.0159109
870.159	0.0159993
870.237	0.0158656
870.315	0.0159616
870.393	0.0160964
870.471	0.0159729
870.549	0.0159031
870.628	0.0160158
870.706	0.0159302
870.784	0.0160353
870.862	0.0160977
870.940	0.0160762
871.018	0.0159959
871.096	0.0160309
871.174	0.0160905
871.253	0.0161308
871.331	0.0161452
871.409	0.0160745
871.487	0.0161555
871.565	0.0160579
871.643	0.0161402
871.721	0.0160586
871.799	0.0160468
871.878	0.0160609
871.956	0.0160790
872.034	0.0159172
872.112	0.0160808
872.190	0.0160966
872.268	0.0160642
872.346	0.0158515
872.424	0.0159419
872.503	0.0158927
872.581	0.0159054
872.659	0.0159483
872.737	0.0159532
872.815	0.0157487
872.893	0.0157737
872.971	0.0158960
873.049	0.0158634
873.128	0.0159583
873.206	0.0158386
873.284	0.0159412
873.362	0.0158570
873.440	0.0156634
873.518	0.0158920
873.596	0.0158881
873.674	0.0159248
873.753	0.0157582
873.831	0.0159583
873.909	0.0159358
873.987	0.0158303
874.065	0.0157616
874.143	0.0157097
874.221	0.0158268
874.299	0.0159333
874.378	0.0158849
874.456	0.0158795
874.534	0.0160426
874.612	0.0158174
874.690	0.0159541
874.768	0.0159035
874.846	0.0158294
874.924	0.0158365
875.003	0.0158175
875.081	0.0159522
875.159	0.0160016
875.237	0.0160181
875.315	0.0160819
875.393	0.0161050
875.471	0.0161630
875.549	0.0161018
875.628	0.0159980
875.706	0.0160192
875.784	0.0161126
875.862	0.0159251
875.940	0.0159967
876.018	0.0159957
876.096	0.0161237
876.174	0.0160632
876.253	0.0159912
876.331	0.0159999
876.409	0.0159091
876.487	0.0159216
876.565	0.0159766
876.643	0.0159704
876.721	0.0160316
876.799	0.0159927
876.878	0.0159338
876.956	0.0159468
877.034	0.0160032
877.112	0.0160046
877.190	0.0159850
877.268	0.0160019
877.346	0.0158901
877.424	0.0160017
877.503	0.0159129
877.581	0.0159479
877.659	0.0159959
877.737	0.0159669
877.815	0.0160091
877.893	0.0160059
877.971	0.0159688
878.049	0.0160445
878.128	0.0160409
878.206	0.0160406
878.284	0.0158860
878.362	0.0159917
878.440	0.0159184
878.518	0.0160057
878.596	0.0159896
878.674	0.0160210
878.753	0.0161835
878.831	0.0159470
878.909	0.0160200
878.987	0.0159005
879.065	0.0159221
879.143	0.0159433
879.221	0.0159982
879.299	0.0159438
879.378	0.0158673
879.456	0.0158506
879.534	0.0159834
879.612	0.0158710
879.690	0.0159457
879.768	0.0158701
879.846	0.0158170
879.924	0.0159038
880.003	0.0159081
880.081	0.0160476
880.159	0.0158923
880.237	0.0158029
880.315	0.0159989
880.393	0.0158728
880.471	0.0159258
880.549	0.0160075
880.628	0.0160268
880.706	0.0161047
880.784	0.0160523
880.862	0.0161009
880.940	0.0161980
881.018	0.0160869
881.096	0.0161905
881.174	0.0162396
881.253	0.0162407
881.331	0.0162993
881.409	0.0161816
881.487	0.0162743
881.565	0.0162288
881.643	0.0160814
881.721	0.0160837
881.799	0.0159496
881.878	0.0161812
881.956	0.0161430
882.034	0.0161763
882.112	0.0160659
882.190	0.0160183
882.268	0.0161490
882.346	0.0159995
882.424	0.0159301
882.503	0.0160211
882.581	0.0160499
882.659	0.0159975
882.737	0.0160147
882.815	0.0158863
882.893	0.0158405
882.971	0.0158531
883.049	0.0160892
883.128	0.0161308
883.206	0.0160220
883.284	0.0159721
883.362	0.0160616
883.440	0.0160296
883.518	0.0160183
883.596	0.0160046
883.674	0.0160809
883.753	0.0160342
883.831	0.0160426
883.909	0.0160110
883.987	0.0159688
884.065	0.0160264
884.143	0.0159383
884.221	0.0159278
884.299	0.0159989
884.378	0.0159579
884.456	0.0159781
884.534	0.0159646
884.612	0.0159382
884.690	0.0158916
884.768	0.0160600
884.846	0.0159617
884.924	0.0159206
885.003	0.0158745
885.081	0.0158730
885.159	0.0159920
885.237	0.0157638
885.315	0.0158730
885.393	0.0159535
885.471	0.0159850
885.549	0.0159129
885.628	0.0158450
885.706	0.0160319
885.784	0.0160916
885.862	0.0160081
885.940	0.0159088
886.018	0.0159995
886.096	0.0161238
886.174	0.0159882
886.253	0.0159577
886.331	0.0159761
886.409	0.0162012
886.487	0.0160079
886.565	0.0159805
886.643	0.0160783
886.721	0.0160320
886.799	0.0159757
886.878	0.0158591
886.956	0.0160378
887.034	0.0160051
887.112	0.0160332
887.190	0.0161134
887.268	0.0159329
887.346	0.0160172
887.424	0.0160366
887.503	0.0160655
887.581	0.0160150
887.659	0.0160771
887.737	0.0160599
887.815	0.0159687
887.893	0.0159892
887.971	0.0159486
888.049	0.0159884
888.128	0.0160080
888.206	0.0161268
888.284	0.0159167
888.362	0.0160835
888.440	0.0161020
888.518	0.0159070
888.596	0.0160008
888.674	0.0160984
888.753	0.0159808
888.831	0.0159057
888.909	0.0161783
888.987	0.0160481
889.065	0.0159181
889.143	0.0159613
889.221	0.0158733
889.299	0.0158572
889.378	0.0160190
889.456	0.0157766
889.534	0.0158511
889.612	0.0158678
889.690	0.0158565
889.768	0.0159403
889.846	0.0159207
889.924	0.0158118
890.003	0.0158604
890.081	0.0158334
890.159	0.0160153
890.237	0.0159344
890.315	0.0159451
890.393	0.0159013
890.471	0.0159829
890.549	0.0160293
890.628	0.0159740
890.706	0.0161556
890.784	0.0161282
890.862	0.0160881
890.940	0.0159796
891.018	0.0161539
891.096	0.0161124
891.174	0.0161729
891.253	0.0161194
891.331	0.0161198
891.409	0.0160449
891.487	0.0160019
891.565	0.0161189
891.643	0.0160745
891.721	0.0160824
891.799	0.0161148
891.878	0.0160097
891.956	0.0158050
892.034	0.0159311
892.112	0.0160732
892.190	0.0160394
892.268	0.0158408
892.346	0.0158566
892.424	0.0159351
892.503	0.0158759
892.581	0.0160204
892.659	0.0159269
892.737	0.0157943
892.815	0.0158497
892.893	0.0159475
892.971	0.0158800
893.049	0.0159606
893.128	0.0158356
893.206	0.0159167
893.284	0.0158244
893.362	0.0158390
893.440	0.0157825
893.518	0.0159303
893.596	0.0160083
893.674	0.0160732
893.753	0.0159296
893.831	0.0158628
893.909	0.0159390
893.987	0.0159799
894.065	0.0161076
894.143	0.0161038
894.221	0.0159911
894.299	0.0160853
894.378	0.0161091
894.456	0.0159799
894.534	0.0159363
894.612	0.0160464
894.690	0.0159483
894.768	0.0159750
894.846	0.0160393
894.924	0.0159778
895.003	0.0159212
895.081	0.0158764
895.159	0.0159214
895.237	0.0160461
895.315	0.0159227
895.393	0.0159123
895.471	0.0159990
895.549	0.0158764
895.628	0.0160638
895.706	0.0158488
895.784	0.0158932
895.862	0.0160577
895.940	0.0158957
896.018	0.0158218
896.096	0.0158997
896.174	0.0160290
896.253	0.0159988
896.331	0.0160115
896.409	0.0158762
896.487	0.0159863
896.565	0.0160395
896.643	0.0159929
896.721	0.0161082
896.799	0.0159235
896.878	0.0159966
896.956	0.0159307
897.034	0.0160371
897.112	0.0159038
897.190	0.0160532
897.268	0.0159779
897.346	0.0158836
897.424	0.0159666
897.503	0.0160413
897.581	0.0160256
897.659	0.0159681
897.737	0.0159106
897.815	0.0159275
897.893	0.0158078
897.971	0.0160992
898.049	0.0158984
898.128	0.0157915
898.206	0.0159535
898.284	0.0159472
898.362	0.0159660
898.440	0.0160995
898.518	0.0159252
898.596	0.0159597
898.674	0.0158932
898.753	0.0159229
898.831	0.0159469
898.909	0.0159016
898.987	0.0160338
899.065	0.0160631
899.143	0.0158912
899.221	0.0160541
899.299	0.0160129
899.378	0.0160563
899.456	0.0159641
899.534	0.0159020
899.612	0.0160957
899.690	0.0161224
899.768	0.0159210
899.846	0.0159023
899.924	0.0159116
900.003	0.0161316
900.081	0.0159121
900.159	0.0158988
900.237	0.0160020
900.315	0.0160836
900.393	0.0160159
900.471	0.0160509
900.549	0.0159787
900.628	0.0160793
900.706	0.0160329
900.784	0.0160482
900.862	0.0159714
900.940	0.0159955
901.018	0.0160697
901.096	0.0160649
901.174	0.0158829
901.253	0.0160006
901.331	0.0160471
901.409	0.0159393
901.487	0.0160203
901.565	0.0160477
901.643	0.0160059
901.721	0.0160036
901.799	0.0159023
901.878	0.0159414
901.956	0.0160996
902.034	0.0160011
902.112	0.0159247
902.190	0.0159497
902.268	0.0159034
902.346	0.0160081
902.424	0.0159521
902.503	0.0160186
902.581	0.0158655
902.659	0.0159209
902.737	0.0160577
902.815	0.0160123
902.893	0.0159672
902.971	0.0158726
903.049	0.0158844
903.128	0.0159524
903.206	0.0159597
903.284	0.0159048
903.362	0.0159372
903.440	0.0159456
903.518	0.0158748
903.596	0.0158947
903.674	0.0160622
903.753	0.0159737
903.831	0.0160452
903.909	0.0159563
903.987	0.0160928
904.065	0.0160806
904.143	0.0161450
904.221	0.0159711
904.299	0.0160979
904.378	0.0160755
904.456	0.0159299
904.534	0.0160674
904.612	0.0161271
904.690	0.0160862
904.768	0.0161669
904.846	0.0160623
904.924	0.0160688
905.003	0.0159987
905.081	0.0160963
905.159	0.0161107
905.237	0.0160411
905.315	0.0160459
905.393	0.0161227
905.471	0.0160754
905.549	0.0160744
905.628	0.0160616
905.706	0.0161739
905.784	0.0159682
905.862	0.0159586
905.940	0.0159177
906.018	0.0160078
906.096	0.0160600
906.174	0.0160513
906.253	0.0159818
906.331	0.0160153
906.409	0.0160299
906.487	0.0160795
906.565	0.0160844
906.643	0.0160798
906.721	0.0161169
906.799	0.0160128
906.878	0.0159182
906.956	0.0159840
907.034	0.0159194
907.112	0.0160590
907.190	0.0159659
907.268	0.0159412
907.346	0.0159827
907.424	0.0159821
907.503	0.0160548
907.581	0.0160422
907.659	0.0159473
907.737	0.0160751
907.815	0.0158925
907.893	0.0158693
907.971	0.0159570
908.049	0.0159464
908.128	0.0158858
908.206	0.0160831
908.284	0.0160227
908.362	0.0159620
908.440	0.0159842
908.518	0.0159682
908.596	0.0159521
908.674	0.0159675
908.753	0.0159878
908.831	0.0159877
908.909	0.0158974
908.987	0.0158093
909.065	0.0159335
909.143	0.0161029
909.221	0.0159408
909.299	0.0160461
909.378	0.0160447
909.456	0.0159671
909.534	0.0159496
909.612	0.0160854
909.690	0.0161591
909.768	0.0159890
909.846	0.0159756
909.924	0.0161592
910.003	0.0161118
910.081	0.0160426
910.159	0.0161662
910.237	0.0161361
910.315	0.0160859
910.393	0.0158506
910.471	0.0160265
910.549	0.0160129
910.628	0.0160074
910.706	0.0159196
910.784	0.0158286
910.862	0.0157437
910.940	0.0159243
911.018	0.0157681
911.096	0.0157672
911.174	0.0156376
911.253	0.0158302
911.331	0.0157651
911.409	0.0159866
911.487	0.0158961
911.565	0.0160066
911.643	0.0160744
911.721	0.0160635
911.799	0.0161339
911.878	0.0161176
911.956	0.0161286
912.034	0.0162979
912.112	0.0163604
912.190	0.0164271
912.268	0.0163026
912.346	0.0162885
912.424	0.0162579
912.503	0.0162454
912.581	0.0161922
912.659	0.0161424
912.737	0.0162050
912.815	0.0160038
912.893	0.0158966
912.971	0.0158920
913.049	0.0157190
913.128	0.0156116
913.206	0.0157597
913.284	0.0156303
913.362	0.0156222
913.440	0.0155820
913.518	0.0157712
913.596	0.0157323
913.674	0.0157822
913.753	0.0157628
913.831	0.0158880
913.909	0.0159756
913.987	0.0159916
914.065	0.0161188
914.143	0.0162589
914.221	0.0162743
914.299	0.0162678
914.378	0.0162569
914.456	0.0163547
914.534	0.0162567
914.612	0.0163579
914.690	0.0161510
914.768	0.0162289
914.846	0.0163352
914.924	0.0161958
915.003	0.0159911
915.081	0.0159972
915.159	0.0161011
915.237	0.0158997
915.315	0.0157867
915.393	0.0159608
915.471	0.0158033
915.549	0.0157872
915.628	0.0158646
915.706	0.0156972
915.784	0.0156731
915.862	0.0156492
915.940	0.0156990
916.018	0.0158292
916.096	0.0158099
916.174	0.0159406
916.253	0.0159085
916.331	0.0160790
916.409	0.0162061
916.487	0.0160115
916.565	0.0160702
916.643	0.0161781
916.721	0.0161889
916.799	0.0162181
916.878	0.0162566
916.956	0.0162678
917.034	0.0162656
917.112	0.0161776
917.190	0.0161392
917.268	0.0161234
917.346	0.0161494
917.424	0.0159915
917.503	0.0159019
917.581	0.0159023
917.659	0.0159160
917.737	0.0158269
917.815	0.0158788
917.893	0.0158994
917.971	0.0158588
918.049	0.0159959
918.128	0.0158224
918.206	0.0158443
918.284	0.0158832
918.362	0.0160771
918.440	0.0159989
918.518	0.0159163
918.596	0.0160459
918.674	0.0160179
918.753	0.0160363
918.831	0.0160673
918.909	0.0160104
918.987	0.0159814
919.065	0.0161067
919.143	0.0159772
919.221	0.0160490
919.299	0.0161650
919.378	0.0160275
919.456	0.0160303
919.534	0.0160527
919.612	0.0159515
919.690	0.0160844
919.768	0.0159863
919.846	0.0160981
919.924	0.0160750
920.003	0.0160237
920.081	0.0160847
920.159	0.0159413
920.237	0.0159448
920.315	0.0159275
920.393	0.0158391
920.471	0.0160434
920.549	0.0157993
920.628	0.0159464
920.706	0.0158335
920.784	0.0158906
920.862	0.0158654
920.940	0.0160323
921.018	0.0159322
921.096	0.0159529
921.174	0.0160825
921.253	0.0160028
921.331	0.0159794
921.409	0.0160233
921.487	0.0161287
921.565	0.0162112
921.643	0.0162559
921.721	0.0160513
921.799	0.0160455
921.878	0.0160743
921.956	0.0160627
922.034	0.0161494
922.112	0.0161005
922.190	0.0159381
922.268	0.0160995
922.346	0.0161509
922.424	0.0159541
922.503	0.0159504
922.581	0.0159283
922.659	0.0159696
922.737	0.0158522
922.815	0.0158634
922.893	0.0157863
922.971	0.0158781
923.049	0.0158493
923.128	0.0157896
923.206	0.0158727
923.284	0.0157574
923.362	0.0158225
923.440	0.0158795
923.518	0.0159449
923.596	0.0159322
923.674	0.0157867
923.753	0.0158741
923.831	0.0160043
923.909	0.0160786
923.987	0.0159422
924.065	0.0159311
924.143	0.0159878
924.221	0.0160642
924.299	0.0160224
924.378	0.0160252
924.456	0.0160561
924.534	0.0161538
924.612	0.0159973
924.690	0.0160975
924.768	0.0161425
924.846	0.0162730
924.924	0.0161062
925.003	0.0160870
925.081	0.0160978
925.159	0.0159315
925.237	0.0159045
925.315	0.0158997
925.393	0.0158737
925.471	0.0158371
925.549	0.0160262
925.628	0.0157149
925.706	0.0157611
925.784	0.0158897
925.862	0.0159193
925.940	0.0158907
926.018	0.0159009
926.096	0.0160997
926.174	0.0159418
926.253	0.0161079
926.331	0.0159969
926.409	0.0160019
926.487	0.0160826
926.565	0.0159251
926.643	0.0160516
926.721	0.0160437
926.799	0.0158188
926.878	0.0159448
926.956	0.0159554
927.034	0.0158378
927.112	0.0160024
927.190	0.0158713
927.268	0.0159152
927.346	0.0158678
927.424	0.0157851
927.503	0.0157861
927.581	0.0160484
927.659	0.0159814
927.737	0.0160673
927.815	0.0160351
927.893	0.0160151
927.971	0.0159805
928.049	0.0160141
928.128	0.0159851
928.206	0.0159815
928.284	0.0161372
928.362	0.0161168
928.440	0.0158827
928.518	0.0160766
928.596	0.0160779
928.674	0.0160438
928.753	0.0161030
928.831	0.0161607
928.909	0.0161682
928.987	0.0161259
929.065	0.0161124
929.143	0.0162914
929.221	0.0160648
929.299	0.0161700
929.378	0.0160532
929.456	0.0160953
929.534	0.0160999
929.612	0.0160638
929.690	0.0160201
929.768	0.0160324
929.846	0.0159007
929.924	0.0159725
930.003	0.0160536
930.081	0.0158735
930.159	0.0157652
930.237	0.0157128
930.315	0.0156964
930.393	0.0158617
930.471	0.0158385
930.549	0.0158225
930.628	0.0159323
930.706	0.0159988
930.784	0.0160517
930.862	0.0160741
930.940	0.0161732
931.018	0.0160321
931.096	0.0162773
931.174	0.0162821
931.253	0.0162637
931.331	0.0162390
931.409	0.0162769
931.487	0.0162776
931.565	0.0162605
931.643	0.0160466
931.721	0.0162309
931.799	0.0160978
931.878	0.0160438
931.956	0.0160208
932.034	0.0159350
932.112	0.0160403
932.190	0.0160059
932.268	0.0159406
932.346	0.0159136
932.424	0.0158968
932.503	0.0159994
932.581	0.0158736
932.659	0.0158278
932.737	0.0158754
932.815	0.0159597
932.893	0.0159380
932.971	0.0159541
933.049	0.0158583
933.128	0.0161757
933.206	0.0160278
933.284	0.0159859
933.362	0.0159978
933.440	0.0160477
933.518	0.0161732
933.596	0.0160413
933.674	0.0160369
933.753	0.0160492
933.831	0.0159527
933.909	0.0160857
933.987	0.0160181
934.065	0.0159825
934.143	0.0160550
934.221	0.0158211
934.299	0.0159098
934.378	0.0159612
934.456	0.0160094
934.534	0.0159005
934.612	0.0159830
934.690	0.0159985
934.768	0.0160279
934.846	0.0159024
934.924	0.0161656
935.003	0.0160275
935.081	0.0158767
935.159	0.0161546
935.237	0.0160669
935.315	0.0161344
935.393	0.0161134
935.471	0.0160000
935.549	0.0161050
935.628	0.0159763
935.706	0.0160004
935.784	0.0160097
935.862	0.0159747
935.940	0.0159027
936.018	0.0161147
936.096	0.0159075
936.174	0.0160378
936.253	0.0159595
936.331	0.0159348
936.409	0.0159623
936.487	0.0160052
936.565	0.0159196
936.643	0.0159555
936.721	0.0159535
936.799	0.0158667
936.878	0.0159399
936.956	0.0158618
937.034	0.0158229
937.112	0.0157165
937.190	0.0158527
937.268	0.0158297
937.346	0.0158270
937.424	0.0157930
937.503	0.0159319
937.581	0.0158562
937.659	0.0160162
937.737	0.0160268
937.815	0.0159483
937.893	0.0160541
937.971	0.0159743
938.049	0.0160786
938.128	0.0160169
938.206	0.0160763
938.284	0.0161825
938.362	0.0162019
938.440	0.0161387
938.518	0.0162029
938.596	0.0160366
938.674	0.0161072
938.753	0.0159981
938.831	0.0162078
938.909	0.0161303
938.987	0.0159576
939.065	0.0160178
939.143	0.0158315
939.221	0.0160018
939.299	0.0159435
939.378	0.0159869
939.456	0.0159785
939.534	0.0160532
939.612	0.0159595
939.690	0.0158669
939.768	0.0160672
939.846	0.0160864
939.924	0.0160272
940.003	0.0159906
940.081	0.0159576
940.159	0.0159670
940.237	0.0159587
940.315	0.0160298
940.393	0.0159541
940.471	0.0160134
940.549	0.0159625
940.628	0.0159428
940.706	0.0159740
940.784	0.0160098
940.862	0.0159576
940.940	0.0160429
941.018	0.0161214
941.096	0.0159197
941.174	0.0159888
941.253	0.0158868
941.331	0.0159676
941.409	0.0161085
941.487	0.0159830
941.565	0.0159567
941.643	0.0160501
941.721	0.0159679
941.799	0.0160834
941.878	0.0158964
941.956	0.0158893
942.034	0.0159170
942.112	0.0159190
942.190	0.0159842
942.268	0.0159962
942.346	0.0160439
942.424	0.0159665
942.503	0.0160027
942.581	0.0159375
942.659	0.0159303
942.737	0.0160638
942.815	0.0160302
942.893	0.0159533
942.971	0.0160476
943.049	0.0160867
943.128	0.0160442
943.206	0.0159966
943.284	0.0157954
943.362	0.0158995
943.440	0.0160423
943.518	0.0160849
943.596	0.0159464
943.674	0.0159428
943.753	0.0159785
943.831	0.0158362
943.909	0.0158512
943.987	0.0159309
944.065	0.0160177
944.143	0.0159811
944.221	0.0158759
944.299	0.0157923
944.378	0.0159008
944.456	0.0158387
944.534	0.0159028
944.612	0.0158660
944.690	0.0159284
944.768	0.0159141
944.846	0.0158317
944.924	0.0157977
945.003	0.0159464
945.081	0.0160211
945.159	0.0158641
945.237	0.0159172
945.315	0.0160520
945.393	0.0160943
945.471	0.0160094
945.549	0.0160224
945.628	0.0160523
945.706	0.0160780
945.784	0.0159904
945.862	0.0160522
945.940	0.0160299
946.018	0.0160506
946.096	0.0160059
946.174	0.0159957
946.253	0.0160083
946.331	0.0158900
946.409	0.0160807
946.487	0.0160773
946.565	0.0159406
946.643	0.0160263
946.721	0.0159269
946.799	0.0159600
946.878	0.0160921
946.956	0.0161195
947.034	0.0160800
947.112	0.0160450
947.190	0.0158818
947.268	0.0159311
947.346	0.0159851
947.424	0.0158716
947.503	0.0159667
947.581	0.0159467
947.659	0.0160433
947.737	0.0159687
947.815	0.0159499
947.893	0.0159908
947.971	0.0158712
948.049	0.0159247
948.128	0.0159965
948.206	0.0159480
948.284	0.0159349
948.362	0.0159634
948.440	0.0159960
948.518	0.0160323
948.596	0.0161943
948.674	0.0161032
948.753	0.0160976
948.831	0.0160730
948.909	0.0161178
948.987	0.0159556
949.065	0.0160284
949.143	0.0159328
949.221	0.0159661
949.299	0.0159129
949.378	0.0158150
949.456	0.0158603
949.534	0.0159298
949.612	0.0161167
949.690	0.0160059
949.768	0.0158570
949.846	0.0159457
949.924	0.0160315
