06/29/2022	22:46:25	Ver.	4.1	UNKNOWN
Optical Delay	630.002507	Delta X		0.078125	Sweeps	1	Scan Rate	0/0
Coordinates	Axis 1	NaN	Axis 2	NaN	Axis 3	NaN	Axis 4	NaN	Axis 5	NaN	Axis 6	0.000000
TX Power	0.000000	RX Power	0.000000

630.003	0.0161287
630.081	0.0161391
630.159	0.0159779
630.237	0.0160146
630.315	0.0161403
630.393	0.0161146
630.471	0.0160769
630.549	0.0160901
630.628	0.0160844
630.706	0.0159900
630.784	0.0161396
630.862	0.0161811
630.940	0.0160455
631.018	0.0161076
631.096	0.0161417
631.174	0.0160241
631.253	0.0160950
631.331	0.0161187
631.409	0.0160094
631.487	0.0159982
631.565	0.0161157
631.643	0.0160484
631.721	0.0160976
631.799	0.0161146
631.878	0.0159896
631.956	0.0160606
632.034	0.0159559
632.112	0.0160329
632.190	0.0160037
632.268	0.0160694
632.346	0.0160159
632.424	0.0162006
632.503	0.0161330
632.581	0.0160406
632.659	0.0160839
632.737	0.0160973
632.815	0.0160966
632.893	0.0161660
632.971	0.0160791
633.049	0.0161552
633.128	0.0160799
633.206	0.0161163
633.284	0.0160374
633.362	0.0161897
633.440	0.0161595
633.518	0.0161028
633.596	0.0160697
633.674	0.0161121
633.753	0.0162159
633.831	0.0160828
633.909	0.0159811
633.987	0.0159998
634.065	0.0160098
634.143	0.0163262
634.221	0.0161252
634.299	0.0160585
634.378	0.0160851
634.456	0.0159921
634.534	0.0160614
634.612	0.0160477
634.690	0.0159912
634.768	0.0161578
634.846	0.0160515
634.924	0.0161575
635.003	0.0161608
635.081	0.0161304
635.159	0.0161562
635.237	0.0160473
635.315	0.0159928
635.393	0.0162095
635.471	0.0161559
635.549	0.0160869
635.628	0.0161411
635.706	0.0160346
635.784	0.0159515
635.862	0.0161068
635.940	0.0160214
636.018	0.0160050
636.096	0.0160451
636.174	0.0161819
636.253	0.0161742
636.331	0.0158944
636.409	0.0160393
636.487	0.0161324
636.565	0.0161336
636.643	0.0159267
636.721	0.0160622
636.799	0.0159971
636.878	0.0160587
636.956	0.0161667
637.034	0.0160148
637.112	0.0160629
637.190	0.0161530
637.268	0.0163039
637.346	0.0160939
637.424	0.0160210
637.503	0.0160875
637.581	0.0162108
637.659	0.0161426
637.737	0.0161017
637.815	0.0159438
637.893	0.0161647
637.971	0.0161095
638.049	0.0160591
638.128	0.0161250
638.206	0.0160052
638.284	0.0160315
638.362	0.0159809
638.440	0.0160970
638.518	0.0160490
638.596	0.0160009
638.674	0.0160519
638.753	0.0161463
638.831	0.0161005
638.909	0.0160569
638.987	0.0159457
639.065	0.0161267
639.143	0.0160645
639.221	0.0160784
639.299	0.0160128
639.378	0.0160821
639.456	0.0159433
639.534	0.0160374
639.612	0.0161024
639.690	0.0161591
639.768	0.0161136
639.846	0.0160367
639.924	0.0161201
640.003	0.0160877
640.081	0.0160938
640.159	0.0160406
640.237	0.0161101
640.315	0.0160013
640.393	0.0160284
640.471	0.0161092
640.549	0.0161069
640.628	0.0161032
640.706	0.0161064
640.784	0.0160184
640.862	0.0160645
640.940	0.0162177
641.018	0.0162628
641.096	0.0160923
641.174	0.0161144
641.253	0.0161015
641.331	0.0158334
641.409	0.0160395
641.487	0.0161954
641.565	0.0161486
641.643	0.0160593
641.721	0.0160561
641.799	0.0161116
641.878	0.0162050
641.956	0.0161881
642.034	0.0161745
642.112	0.0160110
642.190	0.0161322
642.268	0.0162418
642.346	0.0161768
642.424	0.0161279
642.503	0.0160144
642.581	0.0160340
642.659	0.0160561
642.737	0.0159920
642.815	0.0161187
642.893	0.0161813
642.971	0.0160804
643.049	0.0159064
643.128	0.0159760
643.206	0.0160628
643.284	0.0161581
643.362	0.0161120
643.440	0.0160026
643.518	0.0161478
643.596	0.0160057
643.674	0.0160950
643.753	0.0161674
643.831	0.0160909
643.909	0.0161198
643.987	0.0161157
644.065	0.0161665
644.143	0.0160831
644.221	0.0159715
644.299	0.0162980
644.378	0.0162934
644.456	0.0160487
644.534	0.0159918
644.612	0.0161445
644.690	0.0161073
644.768	0.0160780
644.846	0.0161016
644.924	0.0158762
645.003	0.0160127
645.081	0.0160156
645.159	0.0160315
645.237	0.0161781
645.315	0.0160289
645.393	0.0160844
645.471	0.0160777
645.549	0.0160345
645.628	0.0160348
645.706	0.0160844
645.784	0.0161043
645.862	0.0161490
645.940	0.0161440
646.018	0.0160200
646.096	0.0159861
646.174	0.0161225
646.253	0.0160606
646.331	0.0161570
646.409	0.0160292
646.487	0.0159945
646.565	0.0160983
646.643	0.0160707
646.721	0.0160960
646.799	0.0160856
646.878	0.0160862
646.956	0.0160001
647.034	0.0160167
647.112	0.0161041
647.190	0.0161222
647.268	0.0161104
647.346	0.0161179
647.424	0.0160667
647.503	0.0159834
647.581	0.0161030
647.659	0.0161308
647.737	0.0160004
647.815	0.0160984
647.893	0.0160426
647.971	0.0160471
648.049	0.0159792
648.128	0.0161314
648.206	0.0160503
648.284	0.0161424
648.362	0.0160406
648.440	0.0160812
648.518	0.0162393
648.596	0.0160378
648.674	0.0161047
648.753	0.0161404
648.831	0.0160830
648.909	0.0161012
648.987	0.0161028
649.065	0.0160994
649.143	0.0161623
649.221	0.0160643
649.299	0.0160843
649.378	0.0160768
649.456	0.0160777
649.534	0.0160637
649.612	0.0160615
649.690	0.0160963
649.768	0.0160638
649.846	0.0160773
649.924	0.0159888
650.003	0.0161141
650.081	0.0160133
650.159	0.0159663
650.237	0.0161125
650.315	0.0160989
650.393	0.0160906
650.471	0.0160287
650.549	0.0160095
650.628	0.0161220
650.706	0.0160970
650.784	0.0160102
650.862	0.0161996
650.940	0.0160632
651.018	0.0160884
651.096	0.0160674
651.174	0.0160361
651.253	0.0161664
651.331	0.0160372
651.409	0.0160457
651.487	0.0159771
651.565	0.0160790
651.643	0.0160353
651.721	0.0160757
651.799	0.0160181
651.878	0.0161243
651.956	0.0159637
652.034	0.0161238
652.112	0.0160961
652.190	0.0159605
652.268	0.0159752
652.346	0.0159667
652.424	0.0159686
652.503	0.0160342
652.581	0.0160137
652.659	0.0159793
652.737	0.0161156
652.815	0.0161295
652.893	0.0161010
652.971	0.0159947
653.049	0.0160671
653.128	0.0159856
653.206	0.0161590
653.284	0.0161481
653.362	0.0159319
653.440	0.0160241
653.518	0.0161609
653.596	0.0160862
653.674	0.0159792
653.753	0.0161029
653.831	0.0160824
653.909	0.0158943
653.987	0.0160417
654.065	0.0161452
654.143	0.0160177
654.221	0.0160375
654.299	0.0159944
654.378	0.0160760
654.456	0.0160789
654.534	0.0161066
654.612	0.0160802
654.690	0.0160816
654.768	0.0159927
654.846	0.0160199
654.924	0.0161681
655.003	0.0160532
655.081	0.0161508
655.159	0.0161095
655.237	0.0160899
655.315	0.0159795
655.393	0.0161571
655.471	0.0160324
655.549	0.0161311
655.628	0.0159592
655.706	0.0159908
655.784	0.0160429
655.862	0.0160785
655.940	0.0162325
656.018	0.0161974
656.096	0.0160950
656.174	0.0160893
656.253	0.0160324
656.331	0.0160776
656.409	0.0160458
656.487	0.0160389
656.565	0.0160448
656.643	0.0160075
656.721	0.0160159
656.799	0.0161649
656.878	0.0160268
656.956	0.0161946
657.034	0.0161014
657.112	0.0159544
657.190	0.0159814
657.268	0.0159690
657.346	0.0160484
657.424	0.0159830
657.503	0.0161208
657.581	0.0160414
657.659	0.0160957
657.737	0.0160915
657.815	0.0161088
657.893	0.0160884
657.971	0.0160933
658.049	0.0161331
658.128	0.0159806
658.206	0.0160105
658.284	0.0159944
658.362	0.0159569
658.440	0.0161411
658.518	0.0162054
658.596	0.0160651
658.674	0.0160196
658.753	0.0160668
658.831	0.0159126
658.909	0.0160769
658.987	0.0160723
659.065	0.0160515
659.143	0.0160856
659.221	0.0160418
659.299	0.0161339
659.378	0.0161044
659.456	0.0160649
659.534	0.0160840
659.612	0.0161205
659.690	0.0161572
659.768	0.0162177
659.846	0.0161596
659.924	0.0160246
660.003	0.0160671
660.081	0.0161530
660.159	0.0161289
660.237	0.0162997
660.315	0.0161382
660.393	0.0160753
660.471	0.0160722
660.549	0.0160944
660.628	0.0160822
660.706	0.0160339
660.784	0.0159206
660.862	0.0161230
660.940	0.0161312
661.018	0.0159743
661.096	0.0160307
661.174	0.0160668
661.253	0.0160149
661.331	0.0160564
661.409	0.0161930
661.487	0.0162679
661.565	0.0160275
661.643	0.0160674
661.721	0.0160645
661.799	0.0160770
661.878	0.0162059
661.956	0.0161415
662.034	0.0160738
662.112	0.0160532
662.190	0.0159633
662.268	0.0160766
662.346	0.0159338
662.424	0.0159722
662.503	0.0161042
662.581	0.0160265
662.659	0.0160665
662.737	0.0161521
662.815	0.0160138
662.893	0.0160772
662.971	0.0161341
663.049	0.0161118
663.128	0.0162382
663.206	0.0162232
663.284	0.0161626
663.362	0.0160987
663.440	0.0160891
663.518	0.0161507
663.596	0.0160996
663.674	0.0160684
663.753	0.0161310
663.831	0.0162083
663.909	0.0160693
663.987	0.0161319
664.065	0.0161707
664.143	0.0161884
664.221	0.0161162
664.299	0.0161374
664.378	0.0160798
664.456	0.0161661
664.534	0.0159776
664.612	0.0160025
664.690	0.0161320
664.768	0.0160209
664.846	0.0161803
664.924	0.0161338
665.003	0.0161105
665.081	0.0161964
665.159	0.0161360
665.237	0.0160542
665.315	0.0160860
665.393	0.0161689
665.471	0.0160847
665.549	0.0160428
665.628	0.0160843
665.706	0.0160978
665.784	0.0161082
665.862	0.0161625
665.940	0.0161370
666.018	0.0161472
666.096	0.0161713
666.174	0.0161449
666.253	0.0160393
666.331	0.0161122
666.409	0.0160626
666.487	0.0160229
666.565	0.0161012
666.643	0.0161980
666.721	0.0160097
666.799	0.0160073
666.878	0.0160548
666.956	0.0160816
667.034	0.0161750
667.112	0.0160453
667.190	0.0161138
667.268	0.0161597
667.346	0.0160404
667.424	0.0159923
667.503	0.0161573
667.581	0.0160082
667.659	0.0160899
667.737	0.0160771
667.815	0.0159810
667.893	0.0159414
667.971	0.0161517
668.049	0.0159766
668.128	0.0160168
668.206	0.0160708
668.284	0.0159229
668.362	0.0160810
668.440	0.0161350
668.518	0.0161949
668.596	0.0160079
668.674	0.0160913
668.753	0.0161066
668.831	0.0160797
668.909	0.0160790
668.987	0.0161705
669.065	0.0161170
669.143	0.0160711
669.221	0.0161089
669.299	0.0161578
669.378	0.0161383
669.456	0.0160884
669.534	0.0160782
669.612	0.0161477
669.690	0.0160374
669.768	0.0160912
669.846	0.0160152
669.924	0.0160753
670.003	0.0162178
670.081	0.0160797
670.159	0.0161543
670.237	0.0160403
670.315	0.0160216
670.393	0.0161267
670.471	0.0159821
670.549	0.0161290
670.628	0.0161962
670.706	0.0161369
670.784	0.0160959
670.862	0.0160352
670.940	0.0160239
671.018	0.0159772
671.096	0.0161133
671.174	0.0159991
671.253	0.0160500
671.331	0.0160759
671.409	0.0160970
671.487	0.0161839
671.565	0.0159987
671.643	0.0159569
671.721	0.0161416
671.799	0.0160253
671.878	0.0159797
671.956	0.0161489
672.034	0.0161617
672.112	0.0160059
672.190	0.0161518
672.268	0.0161944
672.346	0.0161633
672.424	0.0160459
672.503	0.0160021
672.581	0.0162010
672.659	0.0160880
672.737	0.0160463
672.815	0.0160658
672.893	0.0161314
672.971	0.0160529
673.049	0.0161855
673.128	0.0160772
673.206	0.0160926
673.284	0.0161368
673.362	0.0160674
673.440	0.0159791
673.518	0.0160963
673.596	0.0161229
673.674	0.0161965
673.753	0.0161919
673.831	0.0160725
673.909	0.0160654
673.987	0.0161604
674.065	0.0161323
674.143	0.0160580
674.221	0.0161738
674.299	0.0161253
674.378	0.0160971
674.456	0.0161581
674.534	0.0160325
674.612	0.0159898
674.690	0.0160551
674.768	0.0160298
674.846	0.0160692
674.924	0.0160114
675.003	0.0160743
675.081	0.0160216
675.159	0.0161718
675.237	0.0161198
675.315	0.0160104
675.393	0.0161800
675.471	0.0160948
675.549	0.0161353
675.628	0.0160609
675.706	0.0160747
675.784	0.0162244
675.862	0.0159507
675.940	0.0160323
676.018	0.0159404
676.096	0.0161085
676.174	0.0160895
676.253	0.0161143
676.331	0.0160966
676.409	0.0161298
676.487	0.0160194
676.565	0.0161461
676.643	0.0160578
676.721	0.0160113
676.799	0.0162256
676.878	0.0160262
676.956	0.0159807
677.034	0.0160493
677.112	0.0161134
677.190	0.0161588
677.268	0.0159725
677.346	0.0160983
677.424	0.0159882
677.503	0.0159494
677.581	0.0161647
677.659	0.0159902
677.737	0.0160403
677.815	0.0162090
677.893	0.0161463
677.971	0.0160410
678.049	0.0161140
678.128	0.0161230
678.206	0.0160155
678.284	0.0161147
678.362	0.0160905
678.440	0.0161308
678.518	0.0161218
678.596	0.0159834
678.674	0.0160864
678.753	0.0159720
678.831	0.0159637
678.909	0.0160621
678.987	0.0161884
679.065	0.0162077
679.143	0.0160063
679.221	0.0160760
679.299	0.0161633
679.378	0.0159570
679.456	0.0160301
679.534	0.0161258
679.612	0.0161288
679.690	0.0162256
679.768	0.0160970
679.846	0.0160723
679.924	0.0162170
680.003	0.0160700
680.081	0.0160127
680.159	0.0160709
680.237	0.0160182
680.315	0.0159996
680.393	0.0161746
680.471	0.0161529
680.549	0.0159526
680.628	0.0161977
680.706	0.0161486
680.784	0.0160886
680.862	0.0161504
680.940	0.0161034
681.018	0.0161449
681.096	0.0160504
681.174	0.0160380
681.253	0.0162028
681.331	0.0161100
681.409	0.0160973
681.487	0.0159686
681.565	0.0160533
681.643	0.0160854
681.721	0.0160819
681.799	0.0160855
681.878	0.0161432
681.956	0.0160393
682.034	0.0161409
682.112	0.0161176
682.190	0.0161525
682.268	0.0160710
682.346	0.0160667
682.424	0.0161689
682.503	0.0162103
682.581	0.0161756
682.659	0.0160654
682.737	0.0161452
682.815	0.0160744
682.893	0.0161780
682.971	0.0162943
683.049	0.0161043
683.128	0.0159623
683.206	0.0160755
683.284	0.0160458
683.362	0.0160651
683.440	0.0161379
683.518	0.0161890
683.596	0.0162227
683.674	0.0160754
683.753	0.0159882
683.831	0.0161424
683.909	0.0160185
683.987	0.0159521
684.065	0.0161909
684.143	0.0162272
684.221	0.0160063
684.299	0.0160571
684.378	0.0161040
684.456	0.0160839
684.534	0.0161342
684.612	0.0161761
684.690	0.0159686
684.768	0.0160114
684.846	0.0161208
684.924	0.0161316
685.003	0.0159382
685.081	0.0159814
685.159	0.0161881
685.237	0.0160738
685.315	0.0160896
685.393	0.0161363
685.471	0.0163357
685.549	0.0162039
685.628	0.0159735
685.706	0.0160067
685.784	0.0162937
685.862	0.0161565
685.940	0.0161676
686.018	0.0162210
686.096	0.0161951
686.174	0.0160210
686.253	0.0161246
686.331	0.0162593
686.409	0.0160374
686.487	0.0160583
686.565	0.0160794
686.643	0.0161729
686.721	0.0160197
686.799	0.0160545
686.878	0.0160902
686.956	0.0161376
687.034	0.0161700
687.112	0.0160490
687.190	0.0161658
687.268	0.0161916
687.346	0.0160656
687.424	0.0161330
687.503	0.0161003
687.581	0.0161002
687.659	0.0161140
687.737	0.0162234
687.815	0.0160583
687.893	0.0160252
687.971	0.0160725
688.049	0.0161812
688.128	0.0161887
688.206	0.0160804
688.284	0.0161446
688.362	0.0160568
688.440	0.0160616
688.518	0.0160153
688.596	0.0160928
688.674	0.0160381
688.753	0.0159473
688.831	0.0159910
688.909	0.0160564
688.987	0.0161601
689.065	0.0160662
689.143	0.0160237
689.221	0.0162052
689.299	0.0161375
689.378	0.0161113
689.456	0.0161523
689.534	0.0160812
689.612	0.0160183
689.690	0.0161684
689.768	0.0161625
689.846	0.0160775
689.924	0.0160576
690.003	0.0161477
690.081	0.0161147
690.159	0.0161112
690.237	0.0160455
690.315	0.0161758
690.393	0.0161482
690.471	0.0160263
690.549	0.0161987
690.628	0.0160291
690.706	0.0161062
690.784	0.0160844
690.862	0.0159946
690.940	0.0161002
691.018	0.0160926
691.096	0.0161138
691.174	0.0161904
691.253	0.0161361
691.331	0.0160469
691.409	0.0159835
691.487	0.0161752
691.565	0.0162017
691.643	0.0160276
691.721	0.0159637
691.799	0.0161694
691.878	0.0160701
691.956	0.0161333
692.034	0.0160885
692.112	0.0161208
692.190	0.0162391
692.268	0.0159518
692.346	0.0160693
692.424	0.0160224
692.503	0.0161481
692.581	0.0161150
692.659	0.0160905
692.737	0.0159970
692.815	0.0160965
692.893	0.0160883
692.971	0.0159795
693.049	0.0162253
693.128	0.0161296
693.206	0.0160049
693.284	0.0160773
693.362	0.0161810
693.440	0.0160883
693.518	0.0160793
693.596	0.0161642
693.674	0.0161366
693.753	0.0161208
693.831	0.0161404
693.909	0.0160361
693.987	0.0161191
694.065	0.0160317
694.143	0.0161230
694.221	0.0161500
694.299	0.0161101
694.378	0.0161240
694.456	0.0162959
694.534	0.0161212
694.612	0.0160910
694.690	0.0160815
694.768	0.0160789
694.846	0.0161520
694.924	0.0161820
695.003	0.0160612
695.081	0.0160450
695.159	0.0161040
695.237	0.0160750
695.315	0.0162105
695.393	0.0160677
695.471	0.0160915
695.549	0.0161261
695.628	0.0160436
695.706	0.0161171
695.784	0.0160020
695.862	0.0160459
695.940	0.0162032
696.018	0.0161495
696.096	0.0161146
696.174	0.0159245
696.253	0.0160416
696.331	0.0160942
696.409	0.0161625
696.487	0.0161094
696.565	0.0160139
696.643	0.0161658
696.721	0.0161489
696.799	0.0161109
696.878	0.0160776
696.956	0.0159971
697.034	0.0161598
697.112	0.0161512
697.190	0.0161282
697.268	0.0160930
697.346	0.0160314
697.424	0.0161184
697.503	0.0159901
697.581	0.0161012
697.659	0.0162358
697.737	0.0162241
697.815	0.0161850
697.893	0.0160879
697.971	0.0161026
698.049	0.0160421
698.128	0.0162438
698.206	0.0160854
698.284	0.0160623
698.362	0.0162589
698.440	0.0160538
698.518	0.0160323
698.596	0.0160478
698.674	0.0160735
698.753	0.0162254
698.831	0.0161456
698.909	0.0160277
698.987	0.0162264
699.065	0.0161674
699.143	0.0160616
699.221	0.0161967
699.299	0.0161195
699.378	0.0160884
699.456	0.0161967
699.534	0.0160270
699.612	0.0160955
699.690	0.0160760
699.768	0.0160521
699.846	0.0161784
699.924	0.0161208
700.003	0.0162215
700.081	0.0160271
700.159	0.0161938
700.237	0.0160042
700.315	0.0159749
700.393	0.0160593
700.471	0.0160872
700.549	0.0161939
700.628	0.0161127
700.706	0.0160538
700.784	0.0161515
700.862	0.0160001
700.940	0.0161782
701.018	0.0161308
701.096	0.0161755
701.174	0.0160156
701.253	0.0159631
701.331	0.0162437
701.409	0.0160860
701.487	0.0160615
701.565	0.0161223
701.643	0.0160419
701.721	0.0160773
701.799	0.0160915
701.878	0.0162749
701.956	0.0161291
702.034	0.0160825
702.112	0.0161402
702.190	0.0162023
702.268	0.0161174
702.346	0.0160291
702.424	0.0161095
702.503	0.0163143
702.581	0.0161319
702.659	0.0160488
702.737	0.0160262
702.815	0.0160773
702.893	0.0161821
702.971	0.0161634
703.049	0.0161594
703.128	0.0160484
703.206	0.0158908
703.284	0.0159572
703.362	0.0160084
703.440	0.0160970
703.518	0.0161369
703.596	0.0161033
703.674	0.0159941
703.753	0.0162238
703.831	0.0161946
703.909	0.0160860
703.987	0.0160461
704.065	0.0160506
704.143	0.0160666
704.221	0.0161657
704.299	0.0159954
704.378	0.0160968
704.456	0.0160332
704.534	0.0159928
704.612	0.0161049
704.690	0.0161279
704.768	0.0162016
704.846	0.0160783
704.924	0.0161329
705.003	0.0160509
705.081	0.0161521
705.159	0.0160764
705.237	0.0160439
705.315	0.0160906
705.393	0.0160287
705.471	0.0159757
705.549	0.0159508
705.628	0.0159595
705.706	0.0160291
705.784	0.0160548
705.862	0.0160645
705.940	0.0160790
706.018	0.0161646
706.096	0.0159522
706.174	0.0159467
706.253	0.0162066
706.331	0.0159287
706.409	0.0160815
706.487	0.0160704
706.565	0.0159164
706.643	0.0160895
706.721	0.0160368
706.799	0.0158349
706.878	0.0159916
706.956	0.0160831
707.034	0.0159503
707.112	0.0159249
707.190	0.0160838
707.268	0.0159941
707.346	0.0160638
707.424	0.0159623
707.503	0.0160246
707.581	0.0160431
707.659	0.0159584
707.737	0.0160172
707.815	0.0161398
707.893	0.0159763
707.971	0.0159763
708.049	0.0160686
708.128	0.0160510
708.206	0.0159798
708.284	0.0159864
708.362	0.0159806
708.440	0.0161523
708.518	0.0161701
708.596	0.0161092
708.674	0.0161031
708.753	0.0160228
708.831	0.0160677
708.909	0.0160624
708.987	0.0160011
709.065	0.0161654
709.143	0.0160233
709.221	0.0160674
709.299	0.0159836
709.378	0.0159728
709.456	0.0159964
709.534	0.0161709
709.612	0.0160017
709.690	0.0161124
709.768	0.0160121
709.846	0.0160417
709.924	0.0160961
710.003	0.0159694
710.081	0.0160338
710.159	0.0160107
710.237	0.0159363
710.315	0.0161908
710.393	0.0161058
710.471	0.0160960
710.549	0.0162394
710.628	0.0162090
710.706	0.0162185
710.784	0.0161214
710.862	0.0161192
710.940	0.0161060
711.018	0.0161211
711.096	0.0160327
711.174	0.0161630
711.253	0.0160980
711.331	0.0161182
711.409	0.0162391
711.487	0.0161207
711.565	0.0161230
711.643	0.0161650
711.721	0.0162698
711.799	0.0162303
711.878	0.0160748
711.956	0.0160208
712.034	0.0161757
712.112	0.0162096
712.190	0.0161031
712.268	0.0158855
712.346	0.0160004
712.424	0.0161542
712.503	0.0160860
712.581	0.0160590
712.659	0.0162505
712.737	0.0162634
712.815	0.0161911
712.893	0.0161020
712.971	0.0161500
713.049	0.0162161
713.128	0.0162199
713.206	0.0161927
713.284	0.0162374
713.362	0.0161137
713.440	0.0161183
713.518	0.0160090
713.596	0.0160538
713.674	0.0161058
713.753	0.0162795
713.831	0.0161424
713.909	0.0159982
713.987	0.0160043
714.065	0.0160062
714.143	0.0160574
714.221	0.0158410
714.299	0.0159970
714.378	0.0158664
714.456	0.0159149
714.534	0.0158692
714.612	0.0159901
714.690	0.0159796
714.768	0.0159911
714.846	0.0160172
714.924	0.0159186
715.003	0.0160126
715.081	0.0159792
715.159	0.0159699
715.237	0.0159512
715.315	0.0158156
715.393	0.0160329
715.471	0.0160323
715.549	0.0160474
715.628	0.0161564
715.706	0.0162830
715.784	0.0161800
715.862	0.0163581
715.940	0.0163242
716.018	0.0164301
716.096	0.0164706
716.174	0.0166022
716.253	0.0166007
716.331	0.0167353
716.409	0.0166566
716.487	0.0167255
716.565	0.0167117
716.643	0.0166344
716.721	0.0166220
716.799	0.0164758
716.878	0.0162738
716.956	0.0162474
717.034	0.0159232
717.112	0.0158293
717.190	0.0156345
717.268	0.0152261
717.346	0.0151698
717.424	0.0151739
717.503	0.0149571
717.581	0.0151265
717.659	0.0150401
717.737	0.0152351
717.815	0.0152689
717.893	0.0156597
717.971	0.0158309
718.049	0.0161794
718.128	0.0164439
718.206	0.0168700
718.284	0.0172291
718.362	0.0173911
718.440	0.0177356
718.518	0.0178611
718.596	0.0179739
718.674	0.0181041
718.753	0.0178235
718.831	0.0177674
718.909	0.0174409
718.987	0.0168493
719.065	0.0162693
719.143	0.0157232
719.221	0.0151995
719.299	0.0144656
719.378	0.0138996
719.456	0.0133880
719.534	0.0129121
719.612	0.0128601
719.690	0.0127083
719.768	0.0127106
719.846	0.0130344
719.924	0.0134599
720.003	0.0139118
720.081	0.0145510
720.159	0.0153202
720.237	0.0160905
720.315	0.0168063
720.393	0.0176102
720.471	0.0181689
720.549	0.0188035
720.628	0.0194825
720.706	0.0199081
720.784	0.0200014
720.862	0.0200735
720.940	0.0198839
721.018	0.0195615
721.096	0.0190781
721.174	0.0183409
721.253	0.0176721
721.331	0.0167746
721.409	0.0158997
721.487	0.0150455
721.565	0.0141246
721.643	0.0135206
721.721	0.0128256
721.799	0.0122253
721.878	0.0120039
721.956	0.0119424
722.034	0.0120106
722.112	0.0123106
722.190	0.0127429
722.268	0.0133878
722.346	0.0139705
722.424	0.0146631
722.503	0.0155406
722.581	0.0165800
722.659	0.0171780
722.737	0.0179974
722.815	0.0187650
722.893	0.0193928
722.971	0.0198210
723.049	0.0203053
723.128	0.0203942
723.206	0.0203772
723.284	0.0201497
723.362	0.0197846
723.440	0.0192692
723.518	0.0185240
723.596	0.0178591
723.674	0.0169281
723.753	0.0158266
723.831	0.0151864
723.909	0.0143977
723.987	0.0138582
724.065	0.0132946
724.143	0.0129105
724.221	0.0127881
724.299	0.0127054
724.378	0.0127439
724.456	0.0130436
724.534	0.0132996
724.612	0.0137151
724.690	0.0140719
724.768	0.0147421
724.846	0.0151241
724.924	0.0159016
725.003	0.0162251
725.081	0.0165933
725.159	0.0170774
725.237	0.0174071
725.315	0.0175373
725.393	0.0178979
725.471	0.0178315
725.549	0.0179620
725.628	0.0179300
725.706	0.0179198
725.784	0.0177126
725.862	0.0174854
725.940	0.0171131
726.018	0.0169648
726.096	0.0167314
726.174	0.0165742
726.253	0.0161860
726.331	0.0159084
726.409	0.0157459
726.487	0.0156874
726.565	0.0155495
726.643	0.0155782
726.721	0.0155034
726.799	0.0157464
726.878	0.0156590
726.956	0.0157497
727.034	0.0159598
727.112	0.0160574
727.190	0.0162078
727.268	0.0162364
727.346	0.0163984
727.424	0.0163586
727.503	0.0162586
727.581	0.0161902
727.659	0.0163078
727.737	0.0161569
727.815	0.0160702
727.893	0.0160257
727.971	0.0158397
728.049	0.0158219
728.128	0.0158858
728.206	0.0158039
728.284	0.0157407
728.362	0.0156799
728.440	0.0156698
728.518	0.0155624
728.596	0.0155693
728.674	0.0156938
728.753	0.0156727
728.831	0.0154756
728.909	0.0155302
728.987	0.0156993
729.065	0.0155054
729.143	0.0154846
729.221	0.0156138
729.299	0.0154971
729.378	0.0156842
729.456	0.0156056
729.534	0.0156724
729.612	0.0157951
729.690	0.0158525
729.768	0.0159503
729.846	0.0161853
729.924	0.0162333
730.003	0.0163321
730.081	0.0165379
730.159	0.0166338
730.237	0.0168634
730.315	0.0171538
730.393	0.0172985
730.471	0.0172671
730.549	0.0173672
730.628	0.0173716
730.706	0.0173482
730.784	0.0172359
730.862	0.0171331
730.940	0.0169386
731.018	0.0169109
731.096	0.0167000
731.174	0.0163297
731.253	0.0159747
731.331	0.0158273
731.409	0.0155442
731.487	0.0152846
731.565	0.0149660
731.643	0.0148956
731.721	0.0147862
731.799	0.0146901
731.878	0.0146074
731.956	0.0145899
732.034	0.0147256
732.112	0.0148304
732.190	0.0149940
732.268	0.0152035
732.346	0.0154594
732.424	0.0157458
732.503	0.0158222
732.581	0.0160068
732.659	0.0162514
732.737	0.0165024
732.815	0.0165807
732.893	0.0167240
732.971	0.0166992
733.049	0.0167139
733.128	0.0167194
733.206	0.0166514
733.284	0.0164758
733.362	0.0163676
733.440	0.0160387
733.518	0.0159411
733.596	0.0159279
733.674	0.0157764
733.753	0.0158668
733.831	0.0158809
733.909	0.0158156
733.987	0.0158667
734.065	0.0159338
734.143	0.0159847
734.221	0.0161581
734.299	0.0162836
734.378	0.0163589
734.456	0.0164665
734.534	0.0166880
734.612	0.0166478
734.690	0.0166785
734.768	0.0168743
734.846	0.0168837
734.924	0.0170338
735.003	0.0168736
735.081	0.0168860
735.159	0.0168810
735.237	0.0166657
735.315	0.0165694
735.393	0.0166534
735.471	0.0166570
735.549	0.0165555
735.628	0.0164288
735.706	0.0163132
735.784	0.0163143
735.862	0.0160731
735.940	0.0159406
736.018	0.0158533
736.096	0.0155212
736.174	0.0155568
736.253	0.0153309
736.331	0.0152057
736.409	0.0151588
736.487	0.0150877
736.565	0.0151066
736.643	0.0151527
736.721	0.0151666
736.799	0.0153027
736.878	0.0153894
736.956	0.0155402
737.034	0.0157278
737.112	0.0159454
737.190	0.0161367
737.268	0.0163294
737.346	0.0164110
737.424	0.0165583
737.503	0.0167688
737.581	0.0165294
737.659	0.0167274
737.737	0.0164899
737.815	0.0162074
737.893	0.0160570
737.971	0.0158090
738.049	0.0159093
738.128	0.0157052
738.206	0.0155869
738.284	0.0155304
738.362	0.0153539
738.440	0.0154703
738.518	0.0154089
738.596	0.0156801
738.674	0.0157808
738.753	0.0157848
738.831	0.0160297
738.909	0.0162679
738.987	0.0164899
739.065	0.0166251
739.143	0.0167293
739.221	0.0167411
739.299	0.0170527
739.378	0.0171391
739.456	0.0169072
739.534	0.0170729
739.612	0.0170555
739.690	0.0170346
739.768	0.0168388
739.846	0.0166740
739.924	0.0166602
740.003	0.0164547
740.081	0.0163673
740.159	0.0162022
740.237	0.0159640
740.315	0.0157143
740.393	0.0156385
740.471	0.0156203
740.549	0.0156686
740.628	0.0155785
740.706	0.0154276
740.784	0.0154702
740.862	0.0156543
740.940	0.0157240
741.018	0.0156728
741.096	0.0158740
741.174	0.0159135
741.253	0.0160020
741.331	0.0161869
741.409	0.0162796
741.487	0.0162537
741.565	0.0162305
741.643	0.0161979
741.721	0.0162122
741.799	0.0159921
741.878	0.0160239
741.956	0.0159090
742.034	0.0156237
742.112	0.0154646
742.190	0.0154164
742.268	0.0153770
742.346	0.0153264
742.424	0.0151328
742.503	0.0152453
742.581	0.0153840
742.659	0.0154171
742.737	0.0152696
742.815	0.0155058
742.893	0.0156204
742.971	0.0157787
743.049	0.0157648
743.128	0.0158255
743.206	0.0159967
743.284	0.0160533
743.362	0.0162434
743.440	0.0162266
743.518	0.0163390
743.596	0.0163516
743.674	0.0163177
743.753	0.0162438
743.831	0.0163786
743.909	0.0164866
743.987	0.0164030
744.065	0.0166974
744.143	0.0166996
744.221	0.0167810
744.299	0.0167761
744.378	0.0167805
744.456	0.0167651
744.534	0.0169606
744.612	0.0168273
744.690	0.0167775
744.768	0.0167530
744.846	0.0166750
744.924	0.0165053
745.003	0.0163164
745.081	0.0161755
745.159	0.0161465
745.237	0.0160107
745.315	0.0158809
745.393	0.0157435
745.471	0.0157780
745.549	0.0157091
745.628	0.0156805
745.706	0.0157359
745.784	0.0156822
745.862	0.0158109
745.940	0.0158002
746.018	0.0158910
746.096	0.0159351
746.174	0.0160352
746.253	0.0159846
746.331	0.0159643
746.409	0.0160043
746.487	0.0161640
746.565	0.0162184
746.643	0.0162788
746.721	0.0160281
746.799	0.0161671
746.878	0.0162256
746.956	0.0161019
747.034	0.0161981
747.112	0.0160268
747.190	0.0159219
747.268	0.0158827
747.346	0.0158461
747.424	0.0157405
747.503	0.0158913
747.581	0.0157516
747.659	0.0158476
747.737	0.0158553
747.815	0.0157592
747.893	0.0157961
747.971	0.0159978
748.049	0.0158302
748.128	0.0159262
748.206	0.0160417
748.284	0.0161748
748.362	0.0160458
748.440	0.0160629
748.518	0.0161740
748.596	0.0162073
748.674	0.0161775
748.753	0.0163826
748.831	0.0164617
748.909	0.0166882
748.987	0.0166210
749.065	0.0166451
749.143	0.0167566
749.221	0.0168106
749.299	0.0167986
749.378	0.0166733
749.456	0.0165693
749.534	0.0164895
749.612	0.0164606
749.690	0.0164938
749.768	0.0163461
749.846	0.0162318
749.924	0.0159664
750.003	0.0160941
750.081	0.0159774
750.159	0.0158247
750.237	0.0157807
750.315	0.0157493
750.393	0.0156346
750.471	0.0155853
750.549	0.0155676
750.628	0.0155061
750.706	0.0155443
750.784	0.0155360
750.862	0.0154534
750.940	0.0154966
751.018	0.0156857
751.096	0.0155877
751.174	0.0157519
751.253	0.0157102
751.331	0.0157124
751.409	0.0159373
751.487	0.0159238
751.565	0.0161389
751.643	0.0161974
751.721	0.0162508
751.799	0.0162471
751.878	0.0162660
751.956	0.0164006
752.034	0.0164436
752.112	0.0165708
752.190	0.0163277
752.268	0.0162518
752.346	0.0163128
752.424	0.0161536
752.503	0.0160603
752.581	0.0160146
752.659	0.0159361
752.737	0.0159123
752.815	0.0158802
752.893	0.0158645
752.971	0.0158482
753.049	0.0159335
753.128	0.0159894
753.206	0.0160342
753.284	0.0160406
753.362	0.0159307
753.440	0.0161443
753.518	0.0161624
753.596	0.0160314
753.674	0.0162306
753.753	0.0163316
753.831	0.0163894
753.909	0.0163728
753.987	0.0163896
754.065	0.0162980
754.143	0.0166472
754.221	0.0166297
754.299	0.0164674
754.378	0.0164907
754.456	0.0165231
754.534	0.0164950
754.612	0.0163182
754.690	0.0163361
754.768	0.0164107
754.846	0.0163323
754.924	0.0162305
755.003	0.0162482
755.081	0.0159964
755.159	0.0159224
755.237	0.0159486
755.315	0.0157954
755.393	0.0158372
755.471	0.0157783
755.549	0.0156956
755.628	0.0156843
755.706	0.0155228
755.784	0.0156843
755.862	0.0154562
755.940	0.0154234
756.018	0.0156591
756.096	0.0156002
756.174	0.0157420
756.253	0.0157281
756.331	0.0157310
756.409	0.0158961
756.487	0.0160320
756.565	0.0161351
756.643	0.0162252
756.721	0.0161928
756.799	0.0163638
756.878	0.0162666
756.956	0.0163445
757.034	0.0164693
757.112	0.0163373
757.190	0.0162985
757.268	0.0163543
757.346	0.0162358
757.424	0.0162776
757.503	0.0163233
757.581	0.0162141
757.659	0.0162127
757.737	0.0162041
757.815	0.0161102
757.893	0.0161304
757.971	0.0163242
758.049	0.0162326
758.128	0.0160641
758.206	0.0161118
758.284	0.0162706
758.362	0.0161152
758.440	0.0161381
758.518	0.0161949
758.596	0.0159735
758.674	0.0158944
758.753	0.0159208
758.831	0.0157687
758.909	0.0158822
758.987	0.0158984
759.065	0.0160661
759.143	0.0159612
759.221	0.0160311
759.299	0.0160703
759.378	0.0161823
759.456	0.0163079
759.534	0.0161845
759.612	0.0161979
759.690	0.0162680
759.768	0.0164614
759.846	0.0163374
759.924	0.0161658
760.003	0.0162469
760.081	0.0161761
760.159	0.0160807
760.237	0.0161295
760.315	0.0159593
760.393	0.0159679
760.471	0.0159204
760.549	0.0158834
760.628	0.0159527
760.706	0.0157864
760.784	0.0157767
760.862	0.0157796
760.940	0.0157903
761.018	0.0157711
761.096	0.0158262
761.174	0.0157382
761.253	0.0158076
761.331	0.0161144
761.409	0.0159593
761.487	0.0162000
761.565	0.0161495
761.643	0.0161491
761.721	0.0160359
761.799	0.0163125
761.878	0.0162618
761.956	0.0162244
762.034	0.0162300
762.112	0.0164045
762.190	0.0163449
762.268	0.0162563
762.346	0.0162766
762.424	0.0163255
762.503	0.0162926
762.581	0.0165072
762.659	0.0165519
762.737	0.0163120
762.815	0.0163737
762.893	0.0163476
762.971	0.0163661
763.049	0.0161036
763.128	0.0162044
763.206	0.0161385
763.284	0.0161751
763.362	0.0160454
763.440	0.0160209
763.518	0.0159505
763.596	0.0159532
763.674	0.0159869
763.753	0.0159910
763.831	0.0159847
763.909	0.0161239
763.987	0.0161107
764.065	0.0159494
764.143	0.0161481
764.221	0.0161743
764.299	0.0161299
764.378	0.0159414
764.456	0.0162012
764.534	0.0161990
764.612	0.0159723
764.690	0.0160387
764.768	0.0161417
764.846	0.0160770
764.924	0.0160583
765.003	0.0159674
765.081	0.0161452
765.159	0.0160625
765.237	0.0160208
765.315	0.0160078
765.393	0.0161479
765.471	0.0160611
765.549	0.0161467
765.628	0.0160178
765.706	0.0160164
765.784	0.0161172
765.862	0.0160052
765.940	0.0159612
766.018	0.0159523
766.096	0.0159338
766.174	0.0160071
766.253	0.0159309
766.331	0.0157484
766.409	0.0158314
766.487	0.0158554
766.565	0.0159229
766.643	0.0159216
766.721	0.0158865
766.799	0.0160889
766.878	0.0159908
766.956	0.0160812
767.034	0.0161015
767.112	0.0161800
767.190	0.0162092
767.268	0.0161924
767.346	0.0163817
767.424	0.0162311
767.503	0.0160614
767.581	0.0161491
767.659	0.0160757
767.737	0.0159899
767.815	0.0161392
767.893	0.0160744
767.971	0.0160648
768.049	0.0160952
768.128	0.0161655
768.206	0.0160037
768.284	0.0160046
768.362	0.0160667
768.440	0.0162616
768.518	0.0161832
768.596	0.0163548
768.674	0.0163519
768.753	0.0161707
768.831	0.0164220
768.909	0.0164361
768.987	0.0163271
769.065	0.0163235
769.143	0.0163897
769.221	0.0162125
769.299	0.0162939
769.378	0.0162316
769.456	0.0162753
769.534	0.0161184
769.612	0.0161203
769.690	0.0159938
769.768	0.0159867
769.846	0.0160138
769.924	0.0158821
770.003	0.0158349
770.081	0.0160101
770.159	0.0159016
770.237	0.0160964
770.315	0.0159928
770.393	0.0160675
770.471	0.0161695
770.549	0.0160227
770.628	0.0160676
770.706	0.0161064
770.784	0.0162424
770.862	0.0162523
770.940	0.0161812
771.018	0.0162192
771.096	0.0160430
771.174	0.0162205
771.253	0.0159510
771.331	0.0161121
771.409	0.0160252
771.487	0.0160755
771.565	0.0158781
771.643	0.0157639
771.721	0.0159216
771.799	0.0157375
771.878	0.0158501
771.956	0.0157480
772.034	0.0158000
772.112	0.0158221
772.190	0.0158345
772.268	0.0158392
772.346	0.0159306
772.424	0.0160481
772.503	0.0162125
772.581	0.0161647
772.659	0.0161366
772.737	0.0162679
772.815	0.0162873
772.893	0.0163448
772.971	0.0162910
773.049	0.0163305
773.128	0.0163725
773.206	0.0164442
773.284	0.0163662
773.362	0.0163580
773.440	0.0162876
773.518	0.0162428
773.596	0.0161703
773.674	0.0160837
773.753	0.0161369
773.831	0.0161281
773.909	0.0161192
773.987	0.0159684
774.065	0.0161386
774.143	0.0161968
774.221	0.0160786
774.299	0.0161168
774.378	0.0161949
774.456	0.0161353
774.534	0.0161779
774.612	0.0163449
774.690	0.0162800
774.768	0.0161376
774.846	0.0163641
774.924	0.0164082
775.003	0.0162990
775.081	0.0163654
775.159	0.0163370
775.237	0.0161313
775.315	0.0160438
775.393	0.0159961
775.471	0.0161481
775.549	0.0160795
775.628	0.0160393
775.706	0.0159634
775.784	0.0158379
775.862	0.0160230
775.940	0.0161034
776.018	0.0159787
776.096	0.0158305
776.174	0.0159741
776.253	0.0159090
776.331	0.0160038
776.409	0.0160280
776.487	0.0159921
776.565	0.0159544
776.643	0.0160442
776.721	0.0160377
776.799	0.0159932
776.878	0.0160425
776.956	0.0162105
777.034	0.0160688
777.112	0.0161176
777.190	0.0161039
777.268	0.0160760
777.346	0.0161127
777.424	0.0160997
777.503	0.0162106
777.581	0.0161080
777.659	0.0160944
777.737	0.0161534
777.815	0.0161763
777.893	0.0161556
777.971	0.0161317
778.049	0.0161222
778.128	0.0162180
778.206	0.0161826
778.284	0.0163156
778.362	0.0162184
778.440	0.0162597
778.518	0.0161946
778.596	0.0161700
778.674	0.0162883
778.753	0.0163206
778.831	0.0162338
778.909	0.0163834
778.987	0.0162445
779.065	0.0162919
779.143	0.0162877
779.221	0.0162571
779.299	0.0161279
779.378	0.0162434
779.456	0.0161878
779.534	0.0161689
779.612	0.0162558
779.690	0.0162344
779.768	0.0162909
779.846	0.0163904
779.924	0.0161443
780.003	0.0160121
780.081	0.0159029
780.159	0.0159175
780.237	0.0160458
780.315	0.0158736
780.393	0.0159811
780.471	0.0159672
780.549	0.0158749
780.628	0.0159341
780.706	0.0159657
780.784	0.0159125
780.862	0.0158005
780.940	0.0158506
781.018	0.0160426
781.096	0.0161096
781.174	0.0161001
781.253	0.0160668
781.331	0.0161723
781.409	0.0162280
781.487	0.0162537
781.565	0.0161926
781.643	0.0162273
781.721	0.0163267
781.799	0.0162913
781.878	0.0161322
781.956	0.0163610
782.034	0.0162360
782.112	0.0161434
782.190	0.0161949
782.268	0.0162402
782.346	0.0161588
782.424	0.0161160
782.503	0.0160017
782.581	0.0160487
782.659	0.0160138
782.737	0.0161198
782.815	0.0160583
782.893	0.0161422
782.971	0.0162689
783.049	0.0161811
783.128	0.0159370
783.206	0.0161639
783.284	0.0163591
783.362	0.0163288
783.440	0.0163350
783.518	0.0163251
783.596	0.0164851
783.674	0.0162962
783.753	0.0163667
783.831	0.0163818
783.909	0.0162439
783.987	0.0162728
784.065	0.0160645
784.143	0.0160786
784.221	0.0161394
784.299	0.0160626
784.378	0.0159695
784.456	0.0159393
784.534	0.0159562
784.612	0.0159893
784.690	0.0158282
784.768	0.0157627
784.846	0.0157583
784.924	0.0159898
785.003	0.0159407
785.081	0.0160378
785.159	0.0160024
785.237	0.0161389
785.315	0.0160767
785.393	0.0162457
785.471	0.0162122
785.549	0.0162595
785.628	0.0164236
785.706	0.0163246
785.784	0.0166093
785.862	0.0164845
785.940	0.0164298
786.018	0.0166207
786.096	0.0165878
786.174	0.0164010
786.253	0.0164891
786.331	0.0165186
786.409	0.0163503
786.487	0.0162977
786.565	0.0160096
786.643	0.0161585
786.721	0.0162608
786.799	0.0159221
786.878	0.0161234
786.956	0.0161627
787.034	0.0159886
787.112	0.0159907
787.190	0.0160848
787.268	0.0159143
787.346	0.0159727
787.424	0.0160799
787.503	0.0160653
787.581	0.0161431
787.659	0.0162948
787.737	0.0160928
787.815	0.0162526
787.893	0.0164606
787.971	0.0163654
788.049	0.0162273
788.128	0.0162018
788.206	0.0162280
788.284	0.0160558
788.362	0.0161356
788.440	0.0161641
788.518	0.0160572
788.596	0.0157737
788.674	0.0158315
788.753	0.0157632
788.831	0.0157832
788.909	0.0157841
788.987	0.0156520
789.065	0.0156309
789.143	0.0158506
789.221	0.0158098
789.299	0.0158368
789.378	0.0158705
789.456	0.0159451
789.534	0.0161411
789.612	0.0161023
789.690	0.0160902
789.768	0.0161755
789.846	0.0162592
789.924	0.0164498
790.003	0.0164643
790.081	0.0163037
790.159	0.0164385
790.237	0.0165539
790.315	0.0162434
790.393	0.0164359
790.471	0.0162254
790.549	0.0163424
790.628	0.0161395
790.706	0.0160923
790.784	0.0160142
790.862	0.0159492
790.940	0.0159952
791.018	0.0160636
791.096	0.0160237
791.174	0.0159622
791.253	0.0159894
791.331	0.0159811
791.409	0.0160612
791.487	0.0161051
791.565	0.0161762
791.643	0.0161306
791.721	0.0161266
791.799	0.0163419
791.878	0.0164052
791.956	0.0163354
792.034	0.0163272
792.112	0.0163255
792.190	0.0162841
792.268	0.0161712
792.346	0.0162425
792.424	0.0161150
792.503	0.0162534
792.581	0.0160754
792.659	0.0160342
792.737	0.0159083
792.815	0.0158584
792.893	0.0159879
792.971	0.0158921
793.049	0.0159216
793.128	0.0157784
793.206	0.0158404
793.284	0.0156792
793.362	0.0156777
793.440	0.0158974
793.518	0.0158987
793.596	0.0157940
793.674	0.0157352
793.753	0.0159952
793.831	0.0160206
793.909	0.0158781
793.987	0.0160936
794.065	0.0161418
794.143	0.0160884
794.221	0.0160774
794.299	0.0161284
794.378	0.0161665
794.456	0.0162337
794.534	0.0160986
794.612	0.0161926
794.690	0.0162337
794.768	0.0161771
794.846	0.0161040
794.924	0.0161853
795.003	0.0161607
795.081	0.0160572
795.159	0.0160567
795.237	0.0163255
795.315	0.0162244
795.393	0.0162316
795.471	0.0161191
795.549	0.0159876
795.628	0.0160870
795.706	0.0161863
795.784	0.0160429
795.862	0.0160813
795.940	0.0162392
796.018	0.0161665
796.096	0.0161593
796.174	0.0163101
796.253	0.0162812
796.331	0.0161590
796.409	0.0162344
796.487	0.0161832
796.565	0.0161164
796.643	0.0160952
796.721	0.0161375
796.799	0.0160966
796.878	0.0161268
796.956	0.0160010
797.034	0.0159535
797.112	0.0160941
797.190	0.0159452
797.268	0.0159306
797.346	0.0160555
797.424	0.0159293
797.503	0.0158819
797.581	0.0158484
797.659	0.0159936
797.737	0.0159723
797.815	0.0160997
797.893	0.0160307
797.971	0.0161483
798.049	0.0161289
798.128	0.0161495
798.206	0.0161240
798.284	0.0160846
798.362	0.0160461
798.440	0.0160323
798.518	0.0161701
798.596	0.0161208
798.674	0.0161555
798.753	0.0161729
798.831	0.0161791
798.909	0.0161340
798.987	0.0162031
799.065	0.0161298
799.143	0.0161025
799.221	0.0159889
799.299	0.0161147
799.378	0.0161924
799.456	0.0161371
799.534	0.0158598
799.612	0.0160632
799.690	0.0161460
799.768	0.0160683
799.846	0.0161606
799.924	0.0161176
800.003	0.0159822
800.081	0.0160682
800.159	0.0161185
800.237	0.0160185
800.315	0.0159245
800.393	0.0161188
800.471	0.0161871
800.549	0.0160397
800.628	0.0158473
800.706	0.0161475
800.784	0.0160813
800.862	0.0159950
800.940	0.0160645
801.018	0.0161919
801.096	0.0160959
801.174	0.0161200
801.253	0.0160212
801.331	0.0160344
801.409	0.0160538
801.487	0.0159088
801.565	0.0161734
801.643	0.0162882
801.721	0.0161190
801.799	0.0160477
801.878	0.0162267
801.956	0.0161243
802.034	0.0162016
802.112	0.0162343
802.190	0.0160003
802.268	0.0161086
802.346	0.0160533
802.424	0.0160589
802.503	0.0161763
802.581	0.0162812
802.659	0.0161938
802.737	0.0162376
802.815	0.0160635
802.893	0.0161096
802.971	0.0160522
803.049	0.0160979
803.128	0.0161044
803.206	0.0160426
803.284	0.0160725
803.362	0.0160417
803.440	0.0160697
803.518	0.0161727
803.596	0.0160233
803.674	0.0160398
803.753	0.0159604
803.831	0.0159600
803.909	0.0160584
803.987	0.0160711
804.065	0.0160357
804.143	0.0160930
804.221	0.0162115
804.299	0.0160882
804.378	0.0160246
804.456	0.0161153
804.534	0.0160760
804.612	0.0161684
804.690	0.0160574
804.768	0.0163017
804.846	0.0162392
804.924	0.0160568
805.003	0.0161893
805.081	0.0162283
805.159	0.0161720
805.237	0.0161507
805.315	0.0161434
805.393	0.0160947
805.471	0.0161378
805.549	0.0160223
805.628	0.0161156
805.706	0.0160970
805.784	0.0161062
805.862	0.0161468
805.940	0.0160917
806.018	0.0161889
806.096	0.0162304
806.174	0.0161969
806.253	0.0161725
806.331	0.0162283
806.409	0.0161980
806.487	0.0163473
806.565	0.0161837
806.643	0.0161496
806.721	0.0161264
806.799	0.0161319
806.878	0.0163375
806.956	0.0162300
807.034	0.0162368
807.112	0.0162833
807.190	0.0161556
807.268	0.0160604
807.346	0.0161880
807.424	0.0161311
807.503	0.0161317
807.581	0.0161366
807.659	0.0161208
807.737	0.0161204
807.815	0.0161592
807.893	0.0161523
807.971	0.0161258
808.049	0.0163046
808.128	0.0161185
808.206	0.0161446
808.284	0.0161796
808.362	0.0162527
808.440	0.0162812
808.518	0.0160758
808.596	0.0160422
808.674	0.0161348
808.753	0.0160832
808.831	0.0160773
808.909	0.0160677
808.987	0.0161621
809.065	0.0160146
809.143	0.0159914
809.221	0.0161059
809.299	0.0160652
809.378	0.0160016
809.456	0.0159518
809.534	0.0157568
809.612	0.0159417
809.690	0.0159189
809.768	0.0159617
809.846	0.0160658
809.924	0.0159716
810.003	0.0160510
810.081	0.0159481
810.159	0.0159844
810.237	0.0161782
810.315	0.0161844
810.393	0.0160338
810.471	0.0160909
810.549	0.0160843
810.628	0.0162009
810.706	0.0162332
810.784	0.0160734
810.862	0.0162379
810.940	0.0161638
811.018	0.0161306
811.096	0.0161517
811.174	0.0161636
811.253	0.0160488
811.331	0.0160923
811.409	0.0162148
811.487	0.0162395
811.565	0.0161954
811.643	0.0161424
811.721	0.0161169
811.799	0.0162000
811.878	0.0159798
811.956	0.0160970
812.034	0.0162683
812.112	0.0161143
812.190	0.0161516
812.268	0.0160936
812.346	0.0160818
812.424	0.0161767
812.503	0.0160603
812.581	0.0162603
812.659	0.0161793
812.737	0.0160918
812.815	0.0160223
812.893	0.0161111
812.971	0.0160757
813.049	0.0160466
813.128	0.0161636
813.206	0.0160050
813.284	0.0160538
813.362	0.0160268
813.440	0.0160251
813.518	0.0160257
813.596	0.0159850
813.674	0.0161382
813.753	0.0159669
813.831	0.0160290
813.909	0.0160272
813.987	0.0160126
814.065	0.0158952
814.143	0.0160918
814.221	0.0161089
814.299	0.0160931
814.378	0.0162097
814.456	0.0161948
814.534	0.0161119
814.612	0.0162672
814.690	0.0163638
814.768	0.0162917
814.846	0.0162728
814.924	0.0162280
815.003	0.0162270
815.081	0.0160788
815.159	0.0161538
815.237	0.0162102
815.315	0.0160337
815.393	0.0160125
815.471	0.0160072
815.549	0.0160364
815.628	0.0159277
815.706	0.0158612
815.784	0.0157813
815.862	0.0157359
815.940	0.0157231
816.018	0.0157782
816.096	0.0154546
816.174	0.0157470
816.253	0.0158081
816.331	0.0159141
816.409	0.0157372
816.487	0.0159299
816.565	0.0160300
816.643	0.0158160
816.721	0.0160491
816.799	0.0160693
816.878	0.0162291
816.956	0.0163594
817.034	0.0162676
817.112	0.0163706
817.190	0.0164253
817.268	0.0163424
817.346	0.0164063
817.424	0.0163708
817.503	0.0164177
817.581	0.0165715
817.659	0.0163606
817.737	0.0162624
817.815	0.0162633
817.893	0.0162674
817.971	0.0161872
818.049	0.0160900
818.128	0.0159614
818.206	0.0159753
818.284	0.0160332
818.362	0.0158495
818.440	0.0160268
818.518	0.0159502
818.596	0.0159518
818.674	0.0160258
818.753	0.0160126
818.831	0.0159604
818.909	0.0160519
818.987	0.0161240
819.065	0.0160417
819.143	0.0161243
819.221	0.0161988
819.299	0.0162448
819.378	0.0162405
819.456	0.0162812
819.534	0.0163561
819.612	0.0165472
819.690	0.0164727
819.768	0.0163911
819.846	0.0162257
819.924	0.0163841
820.003	0.0162396
820.081	0.0163100
820.159	0.0160935
820.237	0.0161540
820.315	0.0160065
820.393	0.0160428
820.471	0.0160179
820.549	0.0159138
820.628	0.0158602
820.706	0.0158183
820.784	0.0157284
820.862	0.0156832
820.940	0.0158641
821.018	0.0159258
821.096	0.0157935
821.174	0.0158748
821.253	0.0158173
821.331	0.0157788
821.409	0.0160211
821.487	0.0161102
821.565	0.0159719
821.643	0.0160892
821.721	0.0161404
821.799	0.0162366
821.878	0.0163773
821.956	0.0164156
822.034	0.0162434
822.112	0.0163219
822.190	0.0163841
822.268	0.0163201
822.346	0.0162283
822.424	0.0163703
822.503	0.0162165
822.581	0.0161574
822.659	0.0162263
822.737	0.0162475
822.815	0.0160042
822.893	0.0160715
822.971	0.0162953
823.049	0.0160190
823.128	0.0160695
823.206	0.0160458
823.284	0.0162173
823.362	0.0160055
823.440	0.0161698
823.518	0.0162026
823.596	0.0162692
823.674	0.0160445
823.753	0.0163474
823.831	0.0163081
823.909	0.0161707
823.987	0.0162968
824.065	0.0162716
824.143	0.0161600
824.221	0.0160889
824.299	0.0161786
824.378	0.0162299
824.456	0.0161490
824.534	0.0160830
824.612	0.0161782
824.690	0.0159563
824.768	0.0159073
824.846	0.0159629
824.924	0.0160663
825.003	0.0159198
825.081	0.0158535
825.159	0.0158371
825.237	0.0158373
825.315	0.0158141
825.393	0.0159702
825.471	0.0158893
825.549	0.0159535
825.628	0.0160647
825.706	0.0159202
825.784	0.0160176
825.862	0.0161636
825.940	0.0161202
826.018	0.0161389
826.096	0.0162669
826.174	0.0161698
826.253	0.0162146
826.331	0.0162776
826.409	0.0162557
826.487	0.0163567
826.565	0.0163543
826.643	0.0164531
826.721	0.0163632
826.799	0.0164838
826.878	0.0163290
826.956	0.0163441
827.034	0.0163056
827.112	0.0164185
827.190	0.0162226
827.268	0.0161932
827.346	0.0163464
827.424	0.0161305
827.503	0.0161366
827.581	0.0161288
827.659	0.0161008
827.737	0.0160523
827.815	0.0161239
827.893	0.0159515
827.971	0.0159177
828.049	0.0159007
828.128	0.0159015
828.206	0.0160059
828.284	0.0159048
828.362	0.0158247
828.440	0.0158938
828.518	0.0159372
828.596	0.0159047
828.674	0.0158690
828.753	0.0160133
828.831	0.0160468
828.909	0.0159526
828.987	0.0159870
829.065	0.0160801
829.143	0.0159794
829.221	0.0159927
829.299	0.0161124
829.378	0.0161172
829.456	0.0162688
829.534	0.0160816
829.612	0.0162081
829.690	0.0161465
829.768	0.0160491
829.846	0.0162485
829.924	0.0163023
830.003	0.0163338
830.081	0.0162084
830.159	0.0164099
830.237	0.0163454
830.315	0.0162827
830.393	0.0162802
830.471	0.0163777
830.549	0.0162449
830.628	0.0162464
830.706	0.0161560
830.784	0.0162473
830.862	0.0161391
830.940	0.0161300
831.018	0.0161229
831.096	0.0160270
831.174	0.0161842
831.253	0.0161987
831.331	0.0161167
831.409	0.0160863
831.487	0.0160832
831.565	0.0160877
831.643	0.0160931
831.721	0.0162215
831.799	0.0161450
831.878	0.0161208
831.956	0.0160757
832.034	0.0160185
832.112	0.0161095
832.190	0.0161250
832.268	0.0158631
832.346	0.0160938
832.424	0.0159931
832.503	0.0158475
832.581	0.0159808
832.659	0.0158690
832.737	0.0158923
832.815	0.0159629
832.893	0.0157744
832.971	0.0159281
833.049	0.0158002
833.128	0.0158150
833.206	0.0159650
833.284	0.0159386
833.362	0.0159327
833.440	0.0159810
833.518	0.0158324
833.596	0.0160078
833.674	0.0160296
833.753	0.0158450
833.831	0.0161178
833.909	0.0162070
833.987	0.0163111
834.065	0.0162391
834.143	0.0160966
834.221	0.0161472
834.299	0.0162175
834.378	0.0161755
834.456	0.0161307
834.534	0.0162355
834.612	0.0162917
834.690	0.0162149
834.768	0.0162106
834.846	0.0160833
834.924	0.0161272
835.003	0.0160844
835.081	0.0160200
835.159	0.0161423
835.237	0.0160402
835.315	0.0160616
835.393	0.0161240
835.471	0.0161725
835.549	0.0161201
835.628	0.0161172
835.706	0.0161081
835.784	0.0160502
835.862	0.0161324
835.940	0.0160510
836.018	0.0160804
836.096	0.0161150
836.174	0.0161458
836.253	0.0160616
836.331	0.0161096
836.409	0.0161125
836.487	0.0161661
836.565	0.0161361
836.643	0.0159959
836.721	0.0161692
836.799	0.0161246
836.878	0.0160352
836.956	0.0161401
837.034	0.0159960
837.112	0.0160797
837.190	0.0159956
837.268	0.0160865
837.346	0.0160449
837.424	0.0162292
837.503	0.0162086
837.581	0.0161432
837.659	0.0161368
837.737	0.0160105
837.815	0.0160827
837.893	0.0160794
837.971	0.0161235
838.049	0.0160136
838.128	0.0160707
838.206	0.0161214
838.284	0.0160567
838.362	0.0161320
838.440	0.0159557
838.518	0.0159783
838.596	0.0160857
838.674	0.0160301
838.753	0.0159496
838.831	0.0159469
838.909	0.0160143
838.987	0.0159673
839.065	0.0160027
839.143	0.0159718
839.221	0.0159828
839.299	0.0160638
839.378	0.0160630
839.456	0.0159827
839.534	0.0160841
839.612	0.0159943
839.690	0.0160883
839.768	0.0160918
839.846	0.0159469
839.924	0.0159526
840.003	0.0159731
840.081	0.0159509
840.159	0.0160952
840.237	0.0159537
840.315	0.0160718
840.393	0.0160231
840.471	0.0158439
840.549	0.0159572
840.628	0.0160644
840.706	0.0161359
840.784	0.0160557
840.862	0.0161013
840.940	0.0161936
841.018	0.0161658
841.096	0.0161926
841.174	0.0162656
841.253	0.0161378
841.331	0.0162308
841.409	0.0162982
841.487	0.0161630
841.565	0.0162150
841.643	0.0162682
841.721	0.0161743
841.799	0.0161430
841.878	0.0162476
841.956	0.0163621
842.034	0.0162185
842.112	0.0162908
842.190	0.0162473
842.268	0.0162101
842.346	0.0162918
842.424	0.0162148
842.503	0.0161500
842.581	0.0161057
842.659	0.0160984
842.737	0.0161465
842.815	0.0159391
842.893	0.0159639
842.971	0.0161508
843.049	0.0160921
843.128	0.0159541
843.206	0.0158318
843.284	0.0159689
843.362	0.0160398
843.440	0.0159743
843.518	0.0158684
843.596	0.0160622
843.674	0.0160552
843.753	0.0160841
843.831	0.0161195
843.909	0.0159005
843.987	0.0160539
844.065	0.0159560
844.143	0.0161130
844.221	0.0161076
844.299	0.0159789
844.378	0.0161908
844.456	0.0160799
844.534	0.0159631
844.612	0.0159361
844.690	0.0158980
844.768	0.0158812
844.846	0.0160166
844.924	0.0160755
845.003	0.0159486
845.081	0.0159676
845.159	0.0160083
845.237	0.0159189
845.315	0.0159212
845.393	0.0160563
845.471	0.0161094
845.549	0.0161113
845.628	0.0161311
845.706	0.0163276
845.784	0.0162261
845.862	0.0161821
845.940	0.0161401
846.018	0.0163078
846.096	0.0160990
846.174	0.0161221
846.253	0.0162234
846.331	0.0162555
846.409	0.0162848
846.487	0.0163210
846.565	0.0162198
846.643	0.0161664
846.721	0.0161868
846.799	0.0162225
846.878	0.0161180
846.956	0.0160815
847.034	0.0161327
847.112	0.0161447
847.190	0.0159905
847.268	0.0159718
847.346	0.0160699
847.424	0.0160314
847.503	0.0160447
847.581	0.0161507
847.659	0.0161229
847.737	0.0160934
847.815	0.0160178
847.893	0.0161269
847.971	0.0160317
848.049	0.0161221
848.128	0.0161382
848.206	0.0160130
848.284	0.0161970
848.362	0.0161850
848.440	0.0161149
848.518	0.0160549
848.596	0.0161231
848.674	0.0160845
848.753	0.0161886
848.831	0.0160657
848.909	0.0162778
848.987	0.0160783
849.065	0.0161693
849.143	0.0162253
849.221	0.0161613
849.299	0.0160607
849.378	0.0160953
849.456	0.0160492
849.534	0.0161731
849.612	0.0161452
849.690	0.0161355
849.768	0.0160705
849.846	0.0161045
849.924	0.0161281
850.003	0.0160079
850.081	0.0159537
850.159	0.0160149
850.237	0.0159890
850.315	0.0161185
850.393	0.0159734
850.471	0.0160717
850.549	0.0159265
850.628	0.0160336
850.706	0.0161668
850.784	0.0161564
850.862	0.0162795
850.940	0.0161929
851.018	0.0161575
851.096	0.0162406
851.174	0.0162659
851.253	0.0161623
851.331	0.0162815
851.409	0.0163509
851.487	0.0162011
851.565	0.0161300
851.643	0.0161667
851.721	0.0161507
851.799	0.0161362
851.878	0.0159940
851.956	0.0160012
852.034	0.0160439
852.112	0.0161362
852.190	0.0158423
852.268	0.0158758
852.346	0.0159518
852.424	0.0158915
852.503	0.0158952
852.581	0.0157223
852.659	0.0160521
852.737	0.0159827
852.815	0.0160767
852.893	0.0160633
852.971	0.0160613
853.049	0.0160464
853.128	0.0161903
853.206	0.0161278
853.284	0.0161550
853.362	0.0162016
853.440	0.0159948
853.518	0.0160983
853.596	0.0162399
853.674	0.0162169
853.753	0.0163289
853.831	0.0163417
853.909	0.0162660
853.987	0.0162564
854.065	0.0161366
854.143	0.0163017
854.221	0.0162263
854.299	0.0162466
854.378	0.0162486
854.456	0.0161460
854.534	0.0162397
854.612	0.0161380
854.690	0.0162093
854.768	0.0160139
854.846	0.0161270
854.924	0.0162004
855.003	0.0161599
855.081	0.0161287
855.159	0.0160297
855.237	0.0160709
855.315	0.0161899
855.393	0.0160589
855.471	0.0160600
855.549	0.0161246
855.628	0.0161172
855.706	0.0161401
855.784	0.0159862
855.862	0.0159921
855.940	0.0162349
856.018	0.0161087
856.096	0.0160524
856.174	0.0159393
856.253	0.0161012
856.331	0.0160421
856.409	0.0160189
856.487	0.0160397
856.565	0.0161060
856.643	0.0160029
856.721	0.0160121
856.799	0.0158621
856.878	0.0160063
856.956	0.0160366
857.034	0.0160401
857.112	0.0160680
857.190	0.0159334
857.268	0.0159509
857.346	0.0159799
857.424	0.0161067
857.503	0.0161229
857.581	0.0159914
857.659	0.0160661
857.737	0.0160736
857.815	0.0161109
857.893	0.0161520
857.971	0.0161415
858.049	0.0162749
858.128	0.0162893
858.206	0.0162541
858.284	0.0161814
858.362	0.0163446
858.440	0.0162437
858.518	0.0161687
858.596	0.0162700
858.674	0.0160873
858.753	0.0161421
858.831	0.0161566
858.909	0.0160860
858.987	0.0161676
859.065	0.0161576
859.143	0.0160622
859.221	0.0162551
859.299	0.0161298
859.378	0.0160906
859.456	0.0161319
859.534	0.0161173
859.612	0.0161169
859.690	0.0160983
859.768	0.0161909
859.846	0.0162084
859.924	0.0161178
860.003	0.0160403
860.081	0.0162376
860.159	0.0160234
860.237	0.0161117
860.315	0.0159658
860.393	0.0161427
860.471	0.0160176
860.549	0.0159853
860.628	0.0160360
860.706	0.0160712
860.784	0.0160627
860.862	0.0161401
860.940	0.0160259
861.018	0.0160780
861.096	0.0161162
861.174	0.0160870
861.253	0.0160902
861.331	0.0160948
861.409	0.0160436
861.487	0.0159859
861.565	0.0161397
861.643	0.0161688
861.721	0.0160621
861.799	0.0159795
861.878	0.0160801
861.956	0.0161671
862.034	0.0160995
862.112	0.0160751
862.190	0.0160056
862.268	0.0159129
862.346	0.0161049
862.424	0.0160645
862.503	0.0159491
862.581	0.0160574
862.659	0.0161028
862.737	0.0159998
862.815	0.0160238
862.893	0.0159454
862.971	0.0158840
863.049	0.0160985
863.128	0.0160524
863.206	0.0160056
863.284	0.0159325
863.362	0.0160382
863.440	0.0160609
863.518	0.0159855
863.596	0.0159700
863.674	0.0159422
863.753	0.0159374
863.831	0.0159431
863.909	0.0159747
863.987	0.0160748
864.065	0.0160329
864.143	0.0160753
864.221	0.0161463
864.299	0.0159356
864.378	0.0159471
864.456	0.0160325
864.534	0.0160341
864.612	0.0160118
864.690	0.0160020
864.768	0.0160034
864.846	0.0160868
864.924	0.0160522
865.003	0.0160946
865.081	0.0161651
865.159	0.0160376
865.237	0.0161636
865.315	0.0160660
865.393	0.0160960
865.471	0.0161564
865.549	0.0162093
865.628	0.0160898
865.706	0.0161067
865.784	0.0159658
865.862	0.0160391
865.940	0.0162290
866.018	0.0162072
866.096	0.0161415
866.174	0.0160801
866.253	0.0160226
866.331	0.0160545
866.409	0.0160191
866.487	0.0160834
866.565	0.0161945
866.643	0.0160339
866.721	0.0162657
866.799	0.0161594
866.878	0.0161524
866.956	0.0161397
867.034	0.0161099
867.112	0.0161335
867.190	0.0162900
867.268	0.0162614
867.346	0.0161570
867.424	0.0160756
867.503	0.0160760
867.581	0.0161683
867.659	0.0162221
867.737	0.0161091
867.815	0.0161535
867.893	0.0160545
867.971	0.0161786
868.049	0.0160367
868.128	0.0161597
868.206	0.0160058
868.284	0.0160098
868.362	0.0160824
868.440	0.0161229
868.518	0.0159772
868.596	0.0160609
868.674	0.0161538
868.753	0.0159991
868.831	0.0160091
868.909	0.0161263
868.987	0.0160432
869.065	0.0159596
869.143	0.0161433
869.221	0.0161933
869.299	0.0159673
869.378	0.0161577
869.456	0.0161517
869.534	0.0161552
869.612	0.0160972
869.690	0.0161126
869.768	0.0161754
869.846	0.0161855
869.924	0.0162131
870.003	0.0159020
870.081	0.0159515
870.159	0.0161774
870.237	0.0160975
870.315	0.0160212
870.393	0.0161665
870.471	0.0161813
870.549	0.0162263
870.628	0.0160922
870.706	0.0162386
870.784	0.0162983
870.862	0.0162151
870.940	0.0161255
871.018	0.0163660
871.096	0.0162537
871.174	0.0162550
871.253	0.0163147
871.331	0.0161577
871.409	0.0162807
871.487	0.0163267
871.565	0.0162847
871.643	0.0162421
871.721	0.0162945
871.799	0.0162354
871.878	0.0162613
871.956	0.0161536
872.034	0.0161038
872.112	0.0160965
872.190	0.0162442
872.268	0.0159201
872.346	0.0161024
872.424	0.0160609
872.503	0.0160684
872.581	0.0160886
872.659	0.0161064
872.737	0.0161105
872.815	0.0160927
872.893	0.0158998
872.971	0.0160797
873.049	0.0159924
873.128	0.0159606
873.206	0.0160897
873.284	0.0160052
873.362	0.0159476
873.440	0.0159283
873.518	0.0160950
873.596	0.0160760
873.674	0.0160378
873.753	0.0160265
873.831	0.0159866
873.909	0.0160102
873.987	0.0160034
874.065	0.0160368
874.143	0.0160696
874.221	0.0160825
874.299	0.0159832
874.378	0.0159867
874.456	0.0159266
874.534	0.0160330
874.612	0.0160374
874.690	0.0161475
874.768	0.0160461
874.846	0.0161168
874.924	0.0160744
875.003	0.0162054
875.081	0.0160303
875.159	0.0161536
875.237	0.0160110
875.315	0.0160755
875.393	0.0161227
875.471	0.0160574
875.549	0.0161472
875.628	0.0160872
875.706	0.0160778
875.784	0.0161057
875.862	0.0160996
875.940	0.0159377
876.018	0.0162394
876.096	0.0160617
876.174	0.0160157
876.253	0.0160049
876.331	0.0161489
876.409	0.0161453
876.487	0.0161655
876.565	0.0161092
876.643	0.0160197
876.721	0.0160448
876.799	0.0161535
876.878	0.0162337
876.956	0.0161990
877.034	0.0162022
877.112	0.0160767
877.190	0.0160419
877.268	0.0162463
877.346	0.0161871
877.424	0.0161462
877.503	0.0160415
877.581	0.0161079
877.659	0.0162682
877.737	0.0160709
877.815	0.0160872
877.893	0.0161088
877.971	0.0161257
878.049	0.0162299
878.128	0.0160998
878.206	0.0162444
878.284	0.0161897
878.362	0.0162187
878.440	0.0162632
878.518	0.0161664
878.596	0.0161144
878.674	0.0162469
878.753	0.0161577
878.831	0.0161167
878.909	0.0163496
878.987	0.0161170
879.065	0.0162275
879.143	0.0160213
879.221	0.0159585
879.299	0.0161260
879.378	0.0159731
879.456	0.0161241
879.534	0.0160380
879.612	0.0159530
879.690	0.0158575
879.768	0.0160433
879.846	0.0159271
879.924	0.0158331
880.003	0.0158831
880.081	0.0159236
880.159	0.0159489
880.237	0.0158789
880.315	0.0160024
880.393	0.0159940
880.471	0.0160319
880.549	0.0160316
880.628	0.0161843
880.706	0.0161804
880.784	0.0161084
880.862	0.0163519
880.940	0.0161617
881.018	0.0161681
881.096	0.0161561
881.174	0.0162074
881.253	0.0162568
881.331	0.0162302
881.409	0.0162985
881.487	0.0162672
881.565	0.0162771
881.643	0.0163052
881.721	0.0162715
881.799	0.0161833
881.878	0.0161186
881.956	0.0161604
882.034	0.0161562
882.112	0.0161700
882.190	0.0160513
882.268	0.0161595
882.346	0.0160819
882.424	0.0160729
882.503	0.0161127
882.581	0.0162043
882.659	0.0161645
882.737	0.0161420
882.815	0.0162598
882.893	0.0161803
882.971	0.0161151
883.049	0.0161031
883.128	0.0160559
883.206	0.0159396
883.284	0.0163072
883.362	0.0161181
883.440	0.0160493
883.518	0.0162186
883.596	0.0160641
883.674	0.0161853
883.753	0.0161516
883.831	0.0160748
883.909	0.0160461
883.987	0.0161266
884.065	0.0161748
884.143	0.0160435
884.221	0.0160481
884.299	0.0160161
884.378	0.0158639
884.456	0.0159656
884.534	0.0160227
884.612	0.0159214
884.690	0.0160329
884.768	0.0160002
884.846	0.0160260
884.924	0.0159197
885.003	0.0158279
885.081	0.0159050
885.159	0.0158451
885.237	0.0160042
885.315	0.0160593
885.393	0.0159634
885.471	0.0159971
885.549	0.0160892
885.628	0.0160597
885.706	0.0159860
885.784	0.0162271
885.862	0.0162421
885.940	0.0161118
886.018	0.0161078
886.096	0.0161478
886.174	0.0161034
886.253	0.0161466
886.331	0.0161929
886.409	0.0162086
886.487	0.0161462
886.565	0.0160966
886.643	0.0162372
886.721	0.0161804
886.799	0.0161950
886.878	0.0161075
886.956	0.0161613
887.034	0.0159653
887.112	0.0160923
887.190	0.0161216
887.268	0.0160596
887.346	0.0162045
887.424	0.0159618
887.503	0.0161311
887.581	0.0161903
887.659	0.0160603
887.737	0.0159934
887.815	0.0160340
887.893	0.0161169
887.971	0.0161267
888.049	0.0161421
888.128	0.0161735
888.206	0.0159967
888.284	0.0161385
888.362	0.0161629
888.440	0.0160062
888.518	0.0160394
888.596	0.0161578
888.674	0.0160720
888.753	0.0161996
888.831	0.0161511
888.909	0.0161758
888.987	0.0160389
889.065	0.0160910
889.143	0.0160862
889.221	0.0161015
889.299	0.0160789
889.378	0.0160361
889.456	0.0160677
889.534	0.0159219
889.612	0.0159499
889.690	0.0159659
889.768	0.0160094
889.846	0.0160351
889.924	0.0159847
890.003	0.0159557
890.081	0.0159165
890.159	0.0159720
890.237	0.0162080
890.315	0.0161835
890.393	0.0160136
890.471	0.0159996
890.549	0.0161831
890.628	0.0161643
890.706	0.0161836
890.784	0.0161690
890.862	0.0162181
890.940	0.0160960
891.018	0.0161106
891.096	0.0160616
891.174	0.0161160
891.253	0.0161378
891.331	0.0162051
891.409	0.0161655
891.487	0.0161535
891.565	0.0161755
891.643	0.0161723
891.721	0.0161902
891.799	0.0160044
891.878	0.0161248
891.956	0.0160564
892.034	0.0160847
892.112	0.0161271
892.190	0.0161234
892.268	0.0162093
892.346	0.0160551
892.424	0.0161107
892.503	0.0162041
892.581	0.0159655
892.659	0.0158733
892.737	0.0159226
892.815	0.0159415
892.893	0.0159872
892.971	0.0160332
893.049	0.0161679
893.128	0.0160049
893.206	0.0160262
893.284	0.0161938
893.362	0.0159357
893.440	0.0159756
893.518	0.0159847
893.596	0.0160921
893.674	0.0162051
893.753	0.0161227
893.831	0.0161757
893.909	0.0161302
893.987	0.0160184
894.065	0.0159460
894.143	0.0161330
894.221	0.0162335
894.299	0.0162402
894.378	0.0160397
894.456	0.0160929
894.534	0.0160938
894.612	0.0160766
894.690	0.0162267
894.768	0.0161319
894.846	0.0160786
894.924	0.0159948
895.003	0.0160217
895.081	0.0161170
895.159	0.0159449
895.237	0.0161343
895.315	0.0160258
895.393	0.0160091
895.471	0.0161239
895.549	0.0162907
895.628	0.0161670
895.706	0.0161790
895.784	0.0161971
895.862	0.0160778
895.940	0.0161225
896.018	0.0160506
896.096	0.0161189
896.174	0.0160870
896.253	0.0160609
896.331	0.0160857
896.409	0.0160749
896.487	0.0159912
896.565	0.0160168
896.643	0.0159649
896.721	0.0162321
896.799	0.0160989
896.878	0.0159887
896.956	0.0160359
897.034	0.0160995
897.112	0.0162177
897.190	0.0162210
897.268	0.0159886
897.346	0.0161197
897.424	0.0159698
897.503	0.0160664
897.581	0.0160934
897.659	0.0160690
897.737	0.0161491
897.815	0.0162007
897.893	0.0160973
897.971	0.0159667
898.049	0.0161081
898.128	0.0159481
898.206	0.0162436
898.284	0.0160271
898.362	0.0160759
898.440	0.0160006
898.518	0.0160233
898.596	0.0160390
898.674	0.0160265
898.753	0.0161028
898.831	0.0161095
898.909	0.0162208
898.987	0.0161269
899.065	0.0161470
899.143	0.0161328
899.221	0.0161018
899.299	0.0161959
899.378	0.0160368
899.456	0.0160694
899.534	0.0160339
899.612	0.0160868
899.690	0.0161820
899.768	0.0161628
899.846	0.0160278
899.924	0.0160852
900.003	0.0161877
900.081	0.0161151
900.159	0.0160548
900.237	0.0160004
900.315	0.0161880
900.393	0.0160908
900.471	0.0161181
900.549	0.0161115
900.628	0.0159519
900.706	0.0160047
900.784	0.0161141
900.862	0.0161579
900.940	0.0162128
901.018	0.0161227
901.096	0.0160711
901.174	0.0161110
901.253	0.0160490
901.331	0.0161199
901.409	0.0159479
901.487	0.0160310
901.565	0.0160307
901.643	0.0160114
901.721	0.0161497
901.799	0.0159851
901.878	0.0159724
901.956	0.0160851
902.034	0.0159827
902.112	0.0160081
902.190	0.0160153
902.268	0.0160021
902.346	0.0160829
902.424	0.0160025
902.503	0.0160043
902.581	0.0161228
902.659	0.0161922
902.737	0.0161078
902.815	0.0159943
902.893	0.0159339
902.971	0.0159860
903.049	0.0161122
903.128	0.0160194
903.206	0.0159161
903.284	0.0161905
903.362	0.0160274
903.440	0.0159710
903.518	0.0161945
903.596	0.0159947
903.674	0.0161530
903.753	0.0161419
903.831	0.0160999
903.909	0.0161066
903.987	0.0158767
904.065	0.0160687
904.143	0.0160290
904.221	0.0161832
904.299	0.0160233
904.378	0.0161744
904.456	0.0162917
904.534	0.0161425
904.612	0.0161306
904.690	0.0161617
904.768	0.0162989
904.846	0.0160932
904.924	0.0161893
905.003	0.0161169
905.081	0.0162111
905.159	0.0160995
905.237	0.0161169
905.315	0.0161763
905.393	0.0162614
905.471	0.0161378
905.549	0.0160695
905.628	0.0160883
905.706	0.0160945
905.784	0.0160374
905.862	0.0160816
905.940	0.0161137
906.018	0.0161532
906.096	0.0161756
906.174	0.0159524
906.253	0.0161831
906.331	0.0163155
906.409	0.0161206
906.487	0.0161838
906.565	0.0161949
906.643	0.0161430
906.721	0.0161055
906.799	0.0161643
906.878	0.0162421
906.956	0.0161086
907.034	0.0161327
907.112	0.0161628
907.190	0.0161170
907.268	0.0160361
907.346	0.0160743
907.424	0.0159830
907.503	0.0160174
907.581	0.0159384
907.659	0.0160197
907.737	0.0161293
907.815	0.0160362
907.893	0.0161004
907.971	0.0159400
908.049	0.0159973
908.128	0.0160923
908.206	0.0160535
908.284	0.0160192
908.362	0.0160928
908.440	0.0161525
908.518	0.0159495
908.596	0.0159183
908.674	0.0158535
908.753	0.0160058
908.831	0.0159923
908.909	0.0159529
908.987	0.0160177
909.065	0.0160589
909.143	0.0159982
909.221	0.0160231
909.299	0.0159237
909.378	0.0159790
909.456	0.0161018
909.534	0.0160679
909.612	0.0161305
909.690	0.0160777
909.768	0.0161415
909.846	0.0161824
909.924	0.0161973
910.003	0.0162684
910.081	0.0162332
910.159	0.0161723
910.237	0.0162406
910.315	0.0161949
910.393	0.0161651
910.471	0.0161166
910.549	0.0160719
910.628	0.0159892
910.706	0.0159464
910.784	0.0159709
910.862	0.0158938
910.940	0.0159665
911.018	0.0158767
911.096	0.0158062
911.174	0.0158003
911.253	0.0159254
911.331	0.0158720
911.409	0.0160439
911.487	0.0159666
911.565	0.0161398
911.643	0.0163314
911.721	0.0161348
911.799	0.0161535
911.878	0.0162730
911.956	0.0162414
912.034	0.0162943
912.112	0.0164787
912.190	0.0164526
912.268	0.0164004
912.346	0.0164473
912.424	0.0162421
912.503	0.0164536
912.581	0.0164574
912.659	0.0162100
912.737	0.0159830
912.815	0.0161150
912.893	0.0161233
912.971	0.0159801
913.049	0.0158128
913.128	0.0158809
913.206	0.0158686
913.284	0.0157394
913.362	0.0157854
913.440	0.0158504
913.518	0.0158289
913.596	0.0158218
913.674	0.0157475
913.753	0.0159259
913.831	0.0159113
913.909	0.0160136
913.987	0.0160428
914.065	0.0160437
914.143	0.0161834
914.221	0.0162719
914.299	0.0164012
914.378	0.0164751
914.456	0.0163850
914.534	0.0164667
914.612	0.0164745
914.690	0.0166376
914.768	0.0164533
914.846	0.0164744
914.924	0.0163802
915.003	0.0164507
915.081	0.0161633
915.159	0.0160424
915.237	0.0158838
915.315	0.0159035
915.393	0.0158096
915.471	0.0157532
915.549	0.0156841
915.628	0.0156675
915.706	0.0156424
915.784	0.0157092
915.862	0.0158078
915.940	0.0159582
916.018	0.0158333
916.096	0.0158735
916.174	0.0160249
916.253	0.0160720
916.331	0.0163271
916.409	0.0163836
916.487	0.0163377
916.565	0.0163188
916.643	0.0164048
916.721	0.0163342
916.799	0.0163513
916.878	0.0163131
916.956	0.0163695
917.034	0.0162281
917.112	0.0163918
917.190	0.0162212
917.268	0.0161154
917.346	0.0161362
917.424	0.0161972
917.503	0.0160086
917.581	0.0160612
917.659	0.0160200
917.737	0.0160085
917.815	0.0160809
917.893	0.0159359
917.971	0.0160748
918.049	0.0160593
918.128	0.0159628
918.206	0.0160094
918.284	0.0159719
918.362	0.0159760
918.440	0.0159863
918.518	0.0159894
918.596	0.0159931
918.674	0.0160725
918.753	0.0160574
918.831	0.0161964
918.909	0.0161066
918.987	0.0161456
919.065	0.0161215
919.143	0.0160821
919.221	0.0161612
919.299	0.0162239
919.378	0.0160394
919.456	0.0161475
919.534	0.0160730
919.612	0.0160198
919.690	0.0161015
919.768	0.0161355
919.846	0.0160954
919.924	0.0161635
920.003	0.0160796
920.081	0.0159011
920.159	0.0160099
920.237	0.0162364
920.315	0.0159796
920.393	0.0160433
920.471	0.0159444
920.549	0.0159811
920.628	0.0159902
920.706	0.0159412
920.784	0.0160499
920.862	0.0159233
920.940	0.0159602
921.018	0.0161102
921.096	0.0161116
921.174	0.0160860
921.253	0.0159709
921.331	0.0160641
921.409	0.0161281
921.487	0.0162215
921.565	0.0160963
921.643	0.0162341
921.721	0.0162167
921.799	0.0163308
921.878	0.0161455
921.956	0.0161658
922.034	0.0162082
922.112	0.0162029
922.190	0.0161190
922.268	0.0160522
922.346	0.0161048
922.424	0.0160335
922.503	0.0160229
922.581	0.0160597
922.659	0.0158874
922.737	0.0159187
922.815	0.0159393
922.893	0.0159578
922.971	0.0159256
923.049	0.0161018
923.128	0.0159666
923.206	0.0159592
923.284	0.0161110
923.362	0.0158521
923.440	0.0158695
923.518	0.0160194
923.596	0.0160938
923.674	0.0160043
923.753	0.0159811
923.831	0.0159796
923.909	0.0160380
923.987	0.0160553
924.065	0.0160537
924.143	0.0161469
924.221	0.0159807
924.299	0.0161629
924.378	0.0163355
924.456	0.0161864
924.534	0.0160815
924.612	0.0161868
924.690	0.0162006
924.768	0.0162439
924.846	0.0160880
924.924	0.0160555
925.003	0.0162436
925.081	0.0161095
925.159	0.0160529
925.237	0.0159821
925.315	0.0160023
925.393	0.0160553
925.471	0.0159297
925.549	0.0160316
925.628	0.0158544
925.706	0.0159237
925.784	0.0158989
925.862	0.0159453
925.940	0.0159453
926.018	0.0160983
926.096	0.0160774
926.174	0.0159072
926.253	0.0160216
926.331	0.0161342
926.409	0.0160994
926.487	0.0160508
926.565	0.0160538
926.643	0.0160708
926.721	0.0160843
926.799	0.0160603
926.878	0.0160722
926.956	0.0160408
927.034	0.0159268
927.112	0.0158555
927.190	0.0160847
927.268	0.0162015
927.346	0.0160574
927.424	0.0159641
927.503	0.0160229
927.581	0.0161923
927.659	0.0161607
927.737	0.0160045
927.815	0.0161359
927.893	0.0161526
927.971	0.0161205
928.049	0.0160767
928.128	0.0159399
928.206	0.0159451
928.284	0.0161814
928.362	0.0160324
928.440	0.0160092
928.518	0.0160639
928.596	0.0159284
928.674	0.0162324
928.753	0.0161134
928.831	0.0161398
928.909	0.0162060
928.987	0.0163223
929.065	0.0162556
929.143	0.0162560
929.221	0.0162278
929.299	0.0162884
929.378	0.0160822
929.456	0.0161427
929.534	0.0160997
929.612	0.0160283
929.690	0.0158938
929.768	0.0158981
929.846	0.0159881
929.924	0.0158789
930.003	0.0159106
930.081	0.0159040
930.159	0.0159492
930.237	0.0158563
930.315	0.0159516
930.393	0.0159843
930.471	0.0160236
930.549	0.0160695
930.628	0.0160852
930.706	0.0161712
930.784	0.0161419
930.862	0.0162551
930.940	0.0163462
931.018	0.0162469
931.096	0.0163305
931.174	0.0162246
931.253	0.0163641
931.331	0.0161856
931.409	0.0162074
931.487	0.0162059
931.565	0.0161426
931.643	0.0162940
931.721	0.0162081
931.799	0.0160934
931.878	0.0159771
931.956	0.0160730
932.034	0.0161573
932.112	0.0159584
932.190	0.0158380
932.268	0.0158971
932.346	0.0158192
932.424	0.0159330
932.503	0.0160105
932.581	0.0160297
932.659	0.0158979
932.737	0.0158871
932.815	0.0159450
932.893	0.0159756
932.971	0.0161196
933.049	0.0160179
933.128	0.0159711
933.206	0.0161361
933.284	0.0159914
933.362	0.0160991
933.440	0.0162386
933.518	0.0161747
933.596	0.0161054
933.674	0.0161915
933.753	0.0161400
933.831	0.0161348
933.909	0.0161881
933.987	0.0160470
934.065	0.0161311
934.143	0.0161361
934.221	0.0160883
934.299	0.0161343
934.378	0.0161045
934.456	0.0162144
934.534	0.0162545
934.612	0.0161707
934.690	0.0161208
934.768	0.0160883
934.846	0.0160277
934.924	0.0160521
935.003	0.0161575
935.081	0.0161339
935.159	0.0161469
935.237	0.0161439
935.315	0.0161656
935.393	0.0160481
935.471	0.0161365
935.549	0.0160558
935.628	0.0161358
935.706	0.0161543
935.784	0.0160590
935.862	0.0160780
935.940	0.0162029
936.018	0.0161032
936.096	0.0160644
936.174	0.0162193
936.253	0.0162094
936.331	0.0159562
936.409	0.0160558
936.487	0.0160883
936.565	0.0159727
936.643	0.0159109
936.721	0.0159556
936.799	0.0158694
936.878	0.0158421
936.956	0.0159624
937.034	0.0159106
937.112	0.0158691
937.190	0.0158207
937.268	0.0158865
937.346	0.0159464
937.424	0.0158495
937.503	0.0158423
937.581	0.0160743
937.659	0.0160603
937.737	0.0161365
937.815	0.0161730
937.893	0.0160775
937.971	0.0161909
938.049	0.0162000
938.128	0.0162215
938.206	0.0162480
938.284	0.0162479
938.362	0.0162201
938.440	0.0161613
938.518	0.0162945
938.596	0.0163113
938.674	0.0162213
938.753	0.0162123
938.831	0.0161639
938.909	0.0161492
938.987	0.0160136
939.065	0.0161124
939.143	0.0161779
939.221	0.0160470
939.299	0.0161137
939.378	0.0161909
939.456	0.0160500
939.534	0.0160378
939.612	0.0160497
939.690	0.0162036
939.768	0.0161036
939.846	0.0161275
939.924	0.0161057
940.003	0.0160315
940.081	0.0158910
940.159	0.0159943
940.237	0.0160574
940.315	0.0160543
940.393	0.0159892
940.471	0.0159037
940.549	0.0160383
940.628	0.0160171
940.706	0.0160094
940.784	0.0160542
940.862	0.0161408
940.940	0.0159446
941.018	0.0159473
941.096	0.0161385
941.174	0.0161185
941.253	0.0159724
941.331	0.0159853
941.409	0.0160168
941.487	0.0160162
941.565	0.0159293
941.643	0.0162157
941.721	0.0161676
941.799	0.0160555
941.878	0.0160781
941.956	0.0161651
942.034	0.0160897
942.112	0.0160344
942.190	0.0161426
942.268	0.0161462
942.346	0.0161231
942.424	0.0159822
942.503	0.0161855
942.581	0.0162253
942.659	0.0161061
942.737	0.0159639
942.815	0.0160793
942.893	0.0160056
942.971	0.0160592
943.049	0.0161204
943.128	0.0160889
943.206	0.0161463
943.284	0.0161302
943.362	0.0160565
943.440	0.0160199
943.518	0.0159518
943.596	0.0160111
943.674	0.0160725
943.753	0.0159808
943.831	0.0160959
943.909	0.0160680
943.987	0.0159295
944.065	0.0159563
944.143	0.0158446
944.221	0.0158784
944.299	0.0161411
944.378	0.0159763
944.456	0.0159344
944.534	0.0160571
944.612	0.0160963
944.690	0.0159470
944.768	0.0158977
944.846	0.0160355
944.924	0.0160741
945.003	0.0159776
945.081	0.0159972
945.159	0.0160645
945.237	0.0161585
945.315	0.0161681
945.393	0.0159843
945.471	0.0160873
945.549	0.0161262
945.628	0.0160841
945.706	0.0160484
945.784	0.0161729
945.862	0.0161101
945.940	0.0161030
946.018	0.0161185
946.096	0.0159422
946.174	0.0161107
946.253	0.0162395
946.331	0.0160904
946.409	0.0160824
946.487	0.0161344
946.565	0.0161398
946.643	0.0161487
946.721	0.0161757
946.799	0.0159818
946.878	0.0161427
946.956	0.0160401
947.034	0.0161121
947.112	0.0161254
947.190	0.0160965
947.268	0.0161340
947.346	0.0160049
947.424	0.0159628
947.503	0.0159955
947.581	0.0161294
947.659	0.0161092
947.737	0.0159235
947.815	0.0161758
947.893	0.0161324
947.971	0.0159681
948.049	0.0161156
948.128	0.0160739
948.206	0.0160129
948.284	0.0160374
948.362	0.0160838
948.440	0.0161664
948.518	0.0160915
948.596	0.0161897
948.674	0.0161042
948.753	0.0161504
948.831	0.0161147
948.909	0.0160886
948.987	0.0160579
949.065	0.0160938
949.143	0.0160795
949.221	0.0160403
949.299	0.0159795
949.378	0.0160151
949.456	0.0161115
949.534	0.0160148
949.612	0.0160400
949.690	0.0160873
949.768	0.0159834
949.846	0.0158941
949.924	0.0160965
