06/29/2022	22:48:55	Ver.	4.1	UNKNOWN
Optical Delay	630.002507	Delta X		0.078125	Sweeps	1	Scan Rate	0/0
Coordinates	Axis 1	NaN	Axis 2	NaN	Axis 3	NaN	Axis 4	NaN	Axis 5	NaN	Axis 6	0.000000
TX Power	0.000000	RX Power	0.000000

630.003	0.0165533
630.081	0.0163628
630.159	0.0165584
630.237	0.0165697
630.315	0.0165723
630.393	0.0165525
630.471	0.0165532
630.549	0.0164594
630.628	0.0165755
630.706	0.0164162
630.784	0.0165458
630.862	0.0166087
630.940	0.0164645
631.018	0.0164626
631.096	0.0166390
631.174	0.0165285
631.253	0.0164250
631.331	0.0165157
631.409	0.0165488
631.487	0.0167130
631.565	0.0164470
631.643	0.0164659
631.721	0.0166097
631.799	0.0165924
631.878	0.0165144
631.956	0.0164346
632.034	0.0164358
632.112	0.0166017
632.190	0.0165869
632.268	0.0166158
632.346	0.0165078
632.424	0.0165144
632.503	0.0165022
632.581	0.0164851
632.659	0.0165729
632.737	0.0164919
632.815	0.0165306
632.893	0.0165773
632.971	0.0165080
633.049	0.0165981
633.128	0.0164478
633.206	0.0165147
633.284	0.0167062
633.362	0.0164346
633.440	0.0164793
633.518	0.0165742
633.596	0.0166016
633.674	0.0165289
633.753	0.0165391
633.831	0.0165589
633.909	0.0165761
633.987	0.0164027
634.065	0.0166397
634.143	0.0166440
634.221	0.0165302
634.299	0.0166639
634.378	0.0165942
634.456	0.0166918
634.534	0.0165154
634.612	0.0166122
634.690	0.0165482
634.768	0.0165647
634.846	0.0165508
634.924	0.0165171
635.003	0.0165311
635.081	0.0165064
635.159	0.0165547
635.237	0.0165374
635.315	0.0165121
635.393	0.0165382
635.471	0.0165908
635.549	0.0164982
635.628	0.0165182
635.706	0.0165304
635.784	0.0165612
635.862	0.0164083
635.940	0.0166126
636.018	0.0165641
636.096	0.0165066
636.174	0.0166016
636.253	0.0165789
636.331	0.0165025
636.409	0.0165389
636.487	0.0166549
636.565	0.0165170
636.643	0.0165587
636.721	0.0165915
636.799	0.0165437
636.878	0.0164599
636.956	0.0164872
637.034	0.0165496
637.112	0.0166364
637.190	0.0163868
637.268	0.0165446
637.346	0.0164756
637.424	0.0164868
637.503	0.0165427
637.581	0.0165617
637.659	0.0165695
637.737	0.0165720
637.815	0.0164101
637.893	0.0165289
637.971	0.0164214
638.049	0.0163943
638.128	0.0165708
638.206	0.0164374
638.284	0.0164207
638.362	0.0164290
638.440	0.0165234
638.518	0.0166427
638.596	0.0166872
638.674	0.0165327
638.753	0.0165956
638.831	0.0165560
638.909	0.0165507
638.987	0.0165273
639.065	0.0165887
639.143	0.0166525
639.221	0.0165884
639.299	0.0165078
639.378	0.0165472
639.456	0.0166422
639.534	0.0166317
639.612	0.0165311
639.690	0.0164890
639.768	0.0164900
639.846	0.0165913
639.924	0.0165720
640.003	0.0165829
640.081	0.0165857
640.159	0.0166068
640.237	0.0165564
640.315	0.0166045
640.393	0.0164812
640.471	0.0166605
640.549	0.0167312
640.628	0.0165809
640.706	0.0165711
640.784	0.0165797
640.862	0.0166115
640.940	0.0166080
641.018	0.0166274
641.096	0.0165594
641.174	0.0165742
641.253	0.0165747
641.331	0.0166847
641.409	0.0164760
641.487	0.0165302
641.565	0.0165749
641.643	0.0166195
641.721	0.0167072
641.799	0.0165579
641.878	0.0165656
641.956	0.0164043
642.034	0.0163720
642.112	0.0165900
642.190	0.0166057
642.268	0.0164462
642.346	0.0164987
642.424	0.0165923
642.503	0.0164953
642.581	0.0164585
642.659	0.0165014
642.737	0.0166253
642.815	0.0165030
642.893	0.0164465
642.971	0.0164684
643.049	0.0165611
643.128	0.0166055
643.206	0.0164933
643.284	0.0166223
643.362	0.0165221
643.440	0.0164629
643.518	0.0164172
643.596	0.0165430
643.674	0.0166049
643.753	0.0165813
643.831	0.0165711
643.909	0.0164697
643.987	0.0166183
644.065	0.0165772
644.143	0.0164738
644.221	0.0165986
644.299	0.0165312
644.378	0.0165146
644.456	0.0164114
644.534	0.0165179
644.612	0.0166298
644.690	0.0164992
644.768	0.0166016
644.846	0.0165012
644.924	0.0164580
645.003	0.0166066
645.081	0.0166257
645.159	0.0164699
645.237	0.0165927
645.315	0.0164351
645.393	0.0164653
645.471	0.0163888
645.549	0.0163235
645.628	0.0166557
645.706	0.0165035
645.784	0.0166232
645.862	0.0164423
645.940	0.0165894
646.018	0.0165271
646.096	0.0164235
646.174	0.0164423
646.253	0.0164893
646.331	0.0164285
646.409	0.0164257
646.487	0.0164861
646.565	0.0163927
646.643	0.0165012
646.721	0.0166744
646.799	0.0165659
646.878	0.0166009
646.956	0.0166165
647.034	0.0165509
647.112	0.0165335
647.190	0.0166595
647.268	0.0164291
647.346	0.0164427
647.424	0.0165566
647.503	0.0164832
647.581	0.0164120
647.659	0.0165313
647.737	0.0165726
647.815	0.0165559
647.893	0.0165126
647.971	0.0164209
648.049	0.0165074
648.128	0.0164742
648.206	0.0164089
648.284	0.0164272
648.362	0.0165298
648.440	0.0164875
648.518	0.0165102
648.596	0.0165689
648.674	0.0164895
648.753	0.0163647
648.831	0.0165132
648.909	0.0164233
648.987	0.0165242
649.065	0.0166546
649.143	0.0164455
649.221	0.0164542
649.299	0.0163847
649.378	0.0164407
649.456	0.0164568
649.534	0.0165916
649.612	0.0165946
649.690	0.0165505
649.768	0.0163559
649.846	0.0165575
649.924	0.0165838
650.003	0.0163525
650.081	0.0163511
650.159	0.0165636
650.237	0.0164957
650.315	0.0164925
650.393	0.0164188
650.471	0.0165182
650.549	0.0164446
650.628	0.0164893
650.706	0.0166026
650.784	0.0166273
650.862	0.0165281
650.940	0.0165440
651.018	0.0166016
651.096	0.0165068
651.174	0.0167092
651.253	0.0165417
651.331	0.0164458
651.409	0.0165371
651.487	0.0165096
651.565	0.0165260
651.643	0.0165482
651.721	0.0166967
651.799	0.0165042
651.878	0.0164128
651.956	0.0166483
652.034	0.0164104
652.112	0.0163280
652.190	0.0164554
652.268	0.0164891
652.346	0.0165324
652.424	0.0165009
652.503	0.0164813
652.581	0.0164854
652.659	0.0165528
652.737	0.0164078
652.815	0.0165353
652.893	0.0163994
652.971	0.0164945
653.049	0.0165312
653.128	0.0164405
653.206	0.0164431
653.284	0.0164435
653.362	0.0165930
653.440	0.0165433
653.518	0.0163275
653.596	0.0165239
653.674	0.0165214
653.753	0.0165177
653.831	0.0165496
653.909	0.0166302
653.987	0.0165821
654.065	0.0164663
654.143	0.0165440
654.221	0.0164787
654.299	0.0165929
654.378	0.0165466
654.456	0.0165468
654.534	0.0164671
654.612	0.0164906
654.690	0.0166440
654.768	0.0166589
654.846	0.0165566
654.924	0.0165286
655.003	0.0164169
655.081	0.0166171
655.159	0.0164819
655.237	0.0164954
655.315	0.0166058
655.393	0.0165657
655.471	0.0165607
655.549	0.0165894
655.628	0.0166110
655.706	0.0164442
655.784	0.0164368
655.862	0.0165752
655.940	0.0165264
656.018	0.0165689
656.096	0.0164568
656.174	0.0165281
656.253	0.0165776
656.331	0.0165027
656.409	0.0165405
656.487	0.0163956
656.565	0.0165676
656.643	0.0165959
656.721	0.0164857
656.799	0.0165307
656.878	0.0165630
656.956	0.0164866
657.034	0.0165076
657.112	0.0165413
657.190	0.0163594
657.268	0.0164906
657.346	0.0166589
657.424	0.0165015
657.503	0.0165270
657.581	0.0165387
657.659	0.0165407
657.737	0.0162807
657.815	0.0164634
657.893	0.0165461
657.971	0.0165709
658.049	0.0164548
658.128	0.0164770
658.206	0.0165050
658.284	0.0164695
658.362	0.0164751
658.440	0.0165131
658.518	0.0164302
658.596	0.0164965
658.674	0.0165816
658.753	0.0166349
658.831	0.0166037
658.909	0.0164893
658.987	0.0165876
659.065	0.0165589
659.143	0.0165917
659.221	0.0164943
659.299	0.0165513
659.378	0.0167460
659.456	0.0163647
659.534	0.0165211
659.612	0.0165508
659.690	0.0163924
659.768	0.0165008
659.846	0.0165387
659.924	0.0164096
660.003	0.0164350
660.081	0.0163862
660.159	0.0164461
660.237	0.0165563
660.315	0.0164810
660.393	0.0164771
660.471	0.0165266
660.549	0.0165298
660.628	0.0165070
660.706	0.0165553
660.784	0.0165611
660.862	0.0163383
660.940	0.0165709
661.018	0.0164743
661.096	0.0164274
661.174	0.0165873
661.253	0.0164459
661.331	0.0164764
661.409	0.0165282
661.487	0.0164771
661.565	0.0165177
661.643	0.0164442
661.721	0.0165806
661.799	0.0165774
661.878	0.0165364
661.956	0.0166194
662.034	0.0164420
662.112	0.0164169
662.190	0.0165009
662.268	0.0165671
662.346	0.0165601
662.424	0.0164271
662.503	0.0166941
662.581	0.0165012
662.659	0.0165444
662.737	0.0165237
662.815	0.0165186
662.893	0.0165091
662.971	0.0165335
663.049	0.0164673
663.128	0.0165365
663.206	0.0165540
663.284	0.0163960
663.362	0.0164772
663.440	0.0165107
663.518	0.0166608
663.596	0.0167333
663.674	0.0163801
663.753	0.0164736
663.831	0.0166457
663.909	0.0165747
663.987	0.0165083
664.065	0.0165344
664.143	0.0165240
664.221	0.0164867
664.299	0.0165779
664.378	0.0164886
664.456	0.0165211
664.534	0.0166225
664.612	0.0166357
664.690	0.0165913
664.768	0.0165289
664.846	0.0165333
664.924	0.0164694
665.003	0.0166316
665.081	0.0165400
665.159	0.0166482
665.237	0.0164926
665.315	0.0165073
665.393	0.0165611
665.471	0.0166483
665.549	0.0164890
665.628	0.0165069
665.706	0.0165331
665.784	0.0164565
665.862	0.0165788
665.940	0.0166483
666.018	0.0164452
666.096	0.0165350
666.174	0.0165137
666.253	0.0164645
666.331	0.0165234
666.409	0.0165201
666.487	0.0165479
666.565	0.0166165
666.643	0.0165644
666.721	0.0166431
666.799	0.0165234
666.878	0.0164842
666.956	0.0166775
667.034	0.0166039
667.112	0.0165186
667.190	0.0164664
667.268	0.0165703
667.346	0.0163870
667.424	0.0165405
667.503	0.0165689
667.581	0.0165958
667.659	0.0164087
667.737	0.0164701
667.815	0.0165137
667.893	0.0164584
667.971	0.0166255
668.049	0.0165111
668.128	0.0164261
668.206	0.0165074
668.284	0.0164844
668.362	0.0165621
668.440	0.0164661
668.518	0.0164690
668.596	0.0165521
668.674	0.0165185
668.753	0.0166071
668.831	0.0165064
668.909	0.0164029
668.987	0.0164919
669.065	0.0164541
669.143	0.0165578
669.221	0.0165400
669.299	0.0165544
669.378	0.0164587
669.456	0.0164743
669.534	0.0165399
669.612	0.0166177
669.690	0.0165663
669.768	0.0165461
669.846	0.0166071
669.924	0.0164422
670.003	0.0165636
670.081	0.0166147
670.159	0.0165885
670.237	0.0164027
670.315	0.0165057
670.393	0.0165965
670.471	0.0165781
670.549	0.0165011
670.628	0.0165825
670.706	0.0165985
670.784	0.0165457
670.862	0.0165493
670.940	0.0164537
671.018	0.0164742
671.096	0.0165598
671.174	0.0165105
671.253	0.0164738
671.331	0.0166194
671.409	0.0165481
671.487	0.0165002
671.565	0.0163664
671.643	0.0164626
671.721	0.0165165
671.799	0.0164597
671.878	0.0163105
671.956	0.0166063
672.034	0.0165282
672.112	0.0164731
672.190	0.0163949
672.268	0.0165150
672.346	0.0163950
672.424	0.0165991
672.503	0.0165378
672.581	0.0165660
672.659	0.0164004
672.737	0.0164860
672.815	0.0166438
672.893	0.0165718
672.971	0.0165150
673.049	0.0164190
673.128	0.0164138
673.206	0.0164388
673.284	0.0165057
673.362	0.0165343
673.440	0.0164902
673.518	0.0164560
673.596	0.0165056
673.674	0.0164784
673.753	0.0166135
673.831	0.0166071
673.909	0.0164958
673.987	0.0166800
674.065	0.0165730
674.143	0.0165565
674.221	0.0165569
674.299	0.0165480
674.378	0.0165654
674.456	0.0165099
674.534	0.0165895
674.612	0.0164706
674.690	0.0164094
674.768	0.0165732
674.846	0.0166260
674.924	0.0165407
675.003	0.0166176
675.081	0.0165442
675.159	0.0166291
675.237	0.0166428
675.315	0.0164505
675.393	0.0166633
675.471	0.0164960
675.549	0.0165358
675.628	0.0165366
675.706	0.0164790
675.784	0.0165932
675.862	0.0165313
675.940	0.0165063
676.018	0.0164756
676.096	0.0165539
676.174	0.0166020
676.253	0.0165784
676.331	0.0165371
676.409	0.0164403
676.487	0.0165998
676.565	0.0164809
676.643	0.0164201
676.721	0.0164059
676.799	0.0164906
676.878	0.0165488
676.956	0.0164455
677.034	0.0165231
677.112	0.0164728
677.190	0.0164059
677.268	0.0165113
677.346	0.0166992
677.424	0.0165665
677.503	0.0164979
677.581	0.0164835
677.659	0.0164796
677.737	0.0165197
677.815	0.0165069
677.893	0.0166512
677.971	0.0166113
678.049	0.0165302
678.128	0.0164620
678.206	0.0164549
678.284	0.0163950
678.362	0.0164917
678.440	0.0165459
678.518	0.0165263
678.596	0.0164687
678.674	0.0165437
678.753	0.0165086
678.831	0.0166285
678.909	0.0164565
678.987	0.0164919
679.065	0.0165643
679.143	0.0165301
679.221	0.0164868
679.299	0.0165340
679.378	0.0165357
679.456	0.0165144
679.534	0.0165456
679.612	0.0165199
679.690	0.0164799
679.768	0.0163247
679.846	0.0163779
679.924	0.0164668
680.003	0.0164990
680.081	0.0165298
680.159	0.0165662
680.237	0.0165221
680.315	0.0164718
680.393	0.0164967
680.471	0.0165657
680.549	0.0165094
680.628	0.0164803
680.706	0.0163982
680.784	0.0165609
680.862	0.0165270
680.940	0.0165296
681.018	0.0164850
681.096	0.0164835
681.174	0.0165574
681.253	0.0163426
681.331	0.0165390
681.409	0.0164514
681.487	0.0166209
681.565	0.0165192
681.643	0.0165272
681.721	0.0164960
681.799	0.0165376
681.878	0.0164909
681.956	0.0165549
682.034	0.0165095
682.112	0.0166152
682.190	0.0166037
682.268	0.0165588
682.346	0.0165020
682.424	0.0166301
682.503	0.0166132
682.581	0.0164513
682.659	0.0164702
682.737	0.0164918
682.815	0.0164568
682.893	0.0165673
682.971	0.0164510
683.049	0.0164120
683.128	0.0166393
683.206	0.0166718
683.284	0.0165004
683.362	0.0164149
683.440	0.0164219
683.518	0.0165514
683.596	0.0166238
683.674	0.0164587
683.753	0.0164983
683.831	0.0164783
683.909	0.0165414
683.987	0.0165137
684.065	0.0164677
684.143	0.0166151
684.221	0.0165245
684.299	0.0165607
684.378	0.0164858
684.456	0.0165747
684.534	0.0165597
684.612	0.0165060
684.690	0.0165136
684.768	0.0164404
684.846	0.0166082
684.924	0.0164996
685.003	0.0165742
685.081	0.0164729
685.159	0.0163258
685.237	0.0164667
685.315	0.0165630
685.393	0.0164773
685.471	0.0164447
685.549	0.0163824
685.628	0.0164693
685.706	0.0165417
685.784	0.0165270
685.862	0.0163309
685.940	0.0164999
686.018	0.0163739
686.096	0.0165305
686.174	0.0165621
686.253	0.0165182
686.331	0.0165393
686.409	0.0165842
686.487	0.0166173
686.565	0.0165523
686.643	0.0164804
686.721	0.0164973
686.799	0.0165444
686.878	0.0165928
686.956	0.0164217
687.034	0.0165778
687.112	0.0164956
687.190	0.0164712
687.268	0.0163554
687.346	0.0165568
687.424	0.0165081
687.503	0.0163634
687.581	0.0165797
687.659	0.0166032
687.737	0.0165485
687.815	0.0165501
687.893	0.0166859
687.971	0.0163695
688.049	0.0165440
688.128	0.0166373
688.206	0.0164581
688.284	0.0165275
688.362	0.0164870
688.440	0.0165330
688.518	0.0164810
688.596	0.0164286
688.674	0.0165394
688.753	0.0165895
688.831	0.0164673
688.909	0.0165605
688.987	0.0166088
689.065	0.0163444
689.143	0.0165660
689.221	0.0165430
689.299	0.0164853
689.378	0.0164362
689.456	0.0165349
689.534	0.0165424
689.612	0.0164723
689.690	0.0164499
689.768	0.0164700
689.846	0.0165420
689.924	0.0165479
690.003	0.0166084
690.081	0.0165891
690.159	0.0165536
690.237	0.0164719
690.315	0.0165180
690.393	0.0165041
690.471	0.0164825
690.549	0.0165741
690.628	0.0164993
690.706	0.0165752
690.784	0.0165978
690.862	0.0165283
690.940	0.0164394
691.018	0.0164523
691.096	0.0164803
691.174	0.0165723
691.253	0.0164570
691.331	0.0165568
691.409	0.0164898
691.487	0.0166099
691.565	0.0165616
691.643	0.0165509
691.721	0.0164400
691.799	0.0164722
691.878	0.0165746
691.956	0.0165262
692.034	0.0165683
692.112	0.0166238
692.190	0.0165236
692.268	0.0165636
692.346	0.0164975
692.424	0.0164188
692.503	0.0165847
692.581	0.0165901
692.659	0.0163641
692.737	0.0164211
692.815	0.0165598
692.893	0.0165644
692.971	0.0164944
693.049	0.0164283
693.128	0.0164014
693.206	0.0164838
693.284	0.0165720
693.362	0.0165639
693.440	0.0165783
693.518	0.0164488
693.596	0.0164724
693.674	0.0165874
693.753	0.0165248
693.831	0.0165659
693.909	0.0165324
693.987	0.0164278
694.065	0.0164311
694.143	0.0167020
694.221	0.0167278
694.299	0.0164217
694.378	0.0165162
694.456	0.0166008
694.534	0.0164639
694.612	0.0164620
694.690	0.0165123
694.768	0.0165535
694.846	0.0165279
694.924	0.0165178
695.003	0.0165733
695.081	0.0165690
695.159	0.0167227
695.237	0.0166177
695.315	0.0164909
695.393	0.0165678
695.471	0.0166010
695.549	0.0165319
695.628	0.0163775
695.706	0.0165247
695.784	0.0165237
695.862	0.0165190
695.940	0.0165076
696.018	0.0166353
696.096	0.0164483
696.174	0.0164417
696.253	0.0164214
696.331	0.0166232
696.409	0.0165206
696.487	0.0167148
696.565	0.0166996
696.643	0.0165844
696.721	0.0164378
696.799	0.0166656
696.878	0.0165530
696.956	0.0165456
697.034	0.0165981
697.112	0.0166782
697.190	0.0165263
697.268	0.0166786
697.346	0.0165240
697.424	0.0165257
697.503	0.0165006
697.581	0.0164806
697.659	0.0165898
697.737	0.0166275
697.815	0.0164872
697.893	0.0164921
697.971	0.0165903
698.049	0.0165517
698.128	0.0164637
698.206	0.0165709
698.284	0.0166403
698.362	0.0165253
698.440	0.0166006
698.518	0.0165833
698.596	0.0164208
698.674	0.0164598
698.753	0.0165117
698.831	0.0166788
698.909	0.0165044
698.987	0.0165629
699.065	0.0165195
699.143	0.0166348
699.221	0.0165150
699.299	0.0165069
699.378	0.0164517
699.456	0.0164523
699.534	0.0165682
699.612	0.0165845
699.690	0.0164993
699.768	0.0166409
699.846	0.0165153
699.924	0.0166725
700.003	0.0166451
700.081	0.0165127
700.159	0.0166119
700.237	0.0164187
700.315	0.0165558
700.393	0.0164362
700.471	0.0164682
700.549	0.0165373
700.628	0.0165553
700.706	0.0164680
700.784	0.0165018
700.862	0.0165816
700.940	0.0163563
701.018	0.0164977
701.096	0.0165112
701.174	0.0163942
701.253	0.0165434
701.331	0.0166393
701.409	0.0165266
701.487	0.0165997
701.565	0.0166176
701.643	0.0163593
701.721	0.0165932
701.799	0.0165626
701.878	0.0164489
701.956	0.0165445
702.034	0.0165929
702.112	0.0164647
702.190	0.0165672
702.268	0.0164801
702.346	0.0165207
702.424	0.0165590
702.503	0.0164037
702.581	0.0164705
702.659	0.0165523
702.737	0.0164937
702.815	0.0164986
702.893	0.0164124
702.971	0.0164738
703.049	0.0165332
703.128	0.0164314
703.206	0.0165229
703.284	0.0165477
703.362	0.0165763
703.440	0.0164900
703.518	0.0164958
703.596	0.0166323
703.674	0.0165079
703.753	0.0163920
703.831	0.0166196
703.909	0.0165801
703.987	0.0164453
704.065	0.0163935
704.143	0.0164420
704.221	0.0165695
704.299	0.0164615
704.378	0.0165092
704.456	0.0165398
704.534	0.0165586
704.612	0.0164045
704.690	0.0166165
704.768	0.0164138
704.846	0.0164736
704.924	0.0165392
705.003	0.0166068
705.081	0.0164716
705.159	0.0165111
705.237	0.0166204
705.315	0.0164571
705.393	0.0165186
705.471	0.0165582
705.549	0.0165199
705.628	0.0165182
705.706	0.0164219
705.784	0.0166930
705.862	0.0164413
705.940	0.0164098
706.018	0.0165029
706.096	0.0164763
706.174	0.0165626
706.253	0.0165734
706.331	0.0164043
706.409	0.0166132
706.487	0.0164964
706.565	0.0164742
706.643	0.0164668
706.721	0.0165987
706.799	0.0165241
706.878	0.0164628
706.956	0.0164898
707.034	0.0165781
707.112	0.0163795
707.190	0.0163574
707.268	0.0166100
707.346	0.0165103
707.424	0.0166176
707.503	0.0165434
707.581	0.0165617
707.659	0.0164206
707.737	0.0165936
707.815	0.0164786
707.893	0.0165397
707.971	0.0164989
708.049	0.0164528
708.128	0.0165549
708.206	0.0165601
708.284	0.0165669
708.362	0.0165333
708.440	0.0165752
708.518	0.0165408
708.596	0.0165090
708.674	0.0165985
708.753	0.0164120
708.831	0.0164002
708.909	0.0166220
708.987	0.0164063
709.065	0.0164645
709.143	0.0164029
709.221	0.0164600
709.299	0.0162643
709.378	0.0162840
709.456	0.0164616
709.534	0.0164570
709.612	0.0164474
709.690	0.0163889
709.768	0.0163944
709.846	0.0163262
709.924	0.0164436
710.003	0.0165342
710.081	0.0164155
710.159	0.0163687
710.237	0.0165800
710.315	0.0164784
710.393	0.0162856
710.471	0.0164079
710.549	0.0165050
710.628	0.0165391
710.706	0.0165256
710.784	0.0165365
710.862	0.0165276
710.940	0.0165714
711.018	0.0165386
711.096	0.0166116
711.174	0.0166138
711.253	0.0165849
711.331	0.0167178
711.409	0.0165929
711.487	0.0167465
711.565	0.0166483
711.643	0.0166590
711.721	0.0165985
711.799	0.0167365
711.878	0.0166087
711.956	0.0167258
712.034	0.0166281
712.112	0.0168061
712.190	0.0166029
712.268	0.0165140
712.346	0.0166443
712.424	0.0167220
712.503	0.0166711
712.581	0.0168055
712.659	0.0165560
712.737	0.0166535
712.815	0.0165835
712.893	0.0164825
712.971	0.0164996
713.049	0.0165295
713.128	0.0164924
713.206	0.0165028
713.284	0.0165839
713.362	0.0164819
713.440	0.0163742
713.518	0.0165221
713.596	0.0164928
713.674	0.0164362
713.753	0.0165502
713.831	0.0164905
713.909	0.0165296
713.987	0.0163892
714.065	0.0163376
714.143	0.0165005
714.221	0.0165805
714.299	0.0164701
714.378	0.0164608
714.456	0.0163553
714.534	0.0164154
714.612	0.0165063
714.690	0.0164801
714.768	0.0164535
714.846	0.0165705
714.924	0.0165846
715.003	0.0166850
715.081	0.0164925
715.159	0.0166270
715.237	0.0165779
715.315	0.0164638
715.393	0.0165589
715.471	0.0165676
715.549	0.0165036
715.628	0.0166412
715.706	0.0167220
715.784	0.0164639
715.862	0.0165604
715.940	0.0164719
716.018	0.0163479
716.096	0.0161452
716.174	0.0162878
716.253	0.0162440
716.331	0.0161026
716.409	0.0162603
716.487	0.0161901
716.565	0.0162557
716.643	0.0163986
716.721	0.0165896
716.799	0.0165206
716.878	0.0166134
716.956	0.0167422
717.034	0.0169631
717.112	0.0169149
717.190	0.0169149
717.268	0.0170264
717.346	0.0170233
717.424	0.0169100
717.503	0.0169083
717.581	0.0170093
717.659	0.0168744
717.737	0.0167052
717.815	0.0168139
717.893	0.0165874
717.971	0.0167303
718.049	0.0166821
718.128	0.0166275
718.206	0.0166586
718.284	0.0166120
718.362	0.0165845
718.440	0.0164464
718.518	0.0162715
718.596	0.0162456
718.674	0.0162238
718.753	0.0160478
718.831	0.0156987
718.909	0.0158281
718.987	0.0156438
719.065	0.0154170
719.143	0.0154802
719.221	0.0153658
719.299	0.0153767
719.378	0.0154877
719.456	0.0156162
719.534	0.0157385
719.612	0.0160873
719.690	0.0162867
719.768	0.0165687
719.846	0.0169485
719.924	0.0172109
720.003	0.0177995
720.081	0.0181819
720.159	0.0182729
720.237	0.0186275
720.315	0.0188277
720.393	0.0188100
720.471	0.0188509
720.549	0.0187148
720.628	0.0185503
720.706	0.0182738
720.784	0.0180533
720.862	0.0177351
720.940	0.0172717
721.018	0.0168405
721.096	0.0167044
721.174	0.0161821
721.253	0.0157028
721.331	0.0152512
721.409	0.0149886
721.487	0.0145139
721.565	0.0141045
721.643	0.0138144
721.721	0.0136612
721.799	0.0136193
721.878	0.0136403
721.956	0.0137618
722.034	0.0139176
722.112	0.0143399
722.190	0.0147164
722.268	0.0148090
722.346	0.0153408
722.424	0.0158315
722.503	0.0160943
722.581	0.0167129
722.659	0.0172205
722.737	0.0177042
722.815	0.0180768
722.893	0.0186089
722.971	0.0189030
723.049	0.0191385
723.128	0.0193134
723.206	0.0196515
723.284	0.0195419
723.362	0.0194510
723.440	0.0193684
723.518	0.0191573
723.596	0.0190294
723.674	0.0189507
723.753	0.0186088
723.831	0.0183088
723.909	0.0181992
723.987	0.0177370
724.065	0.0175121
724.143	0.0172751
724.221	0.0168639
724.299	0.0164493
724.378	0.0158479
724.456	0.0153589
724.534	0.0148317
724.612	0.0141759
724.690	0.0136469
724.768	0.0131234
724.846	0.0125765
724.924	0.0123098
725.003	0.0120834
725.081	0.0118967
725.159	0.0121263
725.237	0.0123317
725.315	0.0127100
725.393	0.0133171
725.471	0.0138892
725.549	0.0146693
725.628	0.0156535
725.706	0.0164169
725.784	0.0172232
725.862	0.0181653
725.940	0.0187474
726.018	0.0194196
726.096	0.0199301
726.174	0.0203234
726.253	0.0204414
726.331	0.0206535
726.409	0.0206489
726.487	0.0204613
726.565	0.0200694
726.643	0.0196954
726.721	0.0194238
726.799	0.0187381
726.878	0.0184593
726.956	0.0180595
727.034	0.0175659
727.112	0.0172509
727.190	0.0170048
727.268	0.0165958
727.346	0.0161926
727.424	0.0159312
727.503	0.0157019
727.581	0.0155095
727.659	0.0152281
727.737	0.0148273
727.815	0.0146987
727.893	0.0144782
727.971	0.0143258
728.049	0.0141321
728.128	0.0138422
728.206	0.0137873
728.284	0.0138341
728.362	0.0139236
728.440	0.0139040
728.518	0.0140279
728.596	0.0141705
728.674	0.0144255
728.753	0.0147672
728.831	0.0149306
728.909	0.0153949
728.987	0.0158690
729.065	0.0163464
729.143	0.0167287
729.221	0.0172435
729.299	0.0176209
729.378	0.0180061
729.456	0.0183759
729.534	0.0185983
729.612	0.0188502
729.690	0.0190340
729.768	0.0191431
729.846	0.0192807
729.924	0.0192034
730.003	0.0192640
730.081	0.0191709
730.159	0.0188149
730.237	0.0188298
730.315	0.0184099
730.393	0.0182409
730.471	0.0178562
730.549	0.0174681
730.628	0.0171491
730.706	0.0167109
730.784	0.0162845
730.862	0.0158962
730.940	0.0156935
731.018	0.0153617
731.096	0.0150365
731.174	0.0148204
731.253	0.0146034
731.331	0.0144567
731.409	0.0144683
731.487	0.0146117
731.565	0.0146407
731.643	0.0146281
731.721	0.0147603
731.799	0.0148883
731.878	0.0151252
731.956	0.0154829
732.034	0.0157465
732.112	0.0158538
732.190	0.0160791
732.268	0.0163241
732.346	0.0163006
732.424	0.0165778
732.503	0.0166924
732.581	0.0169125
732.659	0.0168354
732.737	0.0167629
732.815	0.0167712
732.893	0.0168964
732.971	0.0166905
733.049	0.0165867
733.128	0.0164560
733.206	0.0165098
733.284	0.0164259
733.362	0.0167310
733.440	0.0167661
733.518	0.0169555
733.596	0.0170980
733.674	0.0171944
733.753	0.0174829
733.831	0.0176630
733.909	0.0178934
733.987	0.0181331
734.065	0.0184492
734.143	0.0184935
734.221	0.0185137
734.299	0.0188329
734.378	0.0187514
734.456	0.0184524
734.534	0.0183674
734.612	0.0180540
734.690	0.0175752
734.768	0.0172729
734.846	0.0167804
734.924	0.0163216
735.003	0.0160438
735.081	0.0156021
735.159	0.0151673
735.237	0.0149936
735.315	0.0146462
735.393	0.0145582
735.471	0.0144991
735.549	0.0144629
735.628	0.0145002
735.706	0.0146708
735.784	0.0147718
735.862	0.0148727
735.940	0.0150638
736.018	0.0154165
736.096	0.0156094
736.174	0.0157133
736.253	0.0159393
736.331	0.0162112
736.409	0.0163341
736.487	0.0163640
736.565	0.0166577
736.643	0.0166750
736.721	0.0167783
736.799	0.0168597
736.878	0.0169873
736.956	0.0168888
737.034	0.0168620
737.112	0.0167182
737.190	0.0166611
737.268	0.0165794
737.346	0.0164216
737.424	0.0164445
737.503	0.0164061
737.581	0.0164531
737.659	0.0165251
737.737	0.0167331
737.815	0.0168425
737.893	0.0169041
737.971	0.0170968
738.049	0.0172016
738.128	0.0175146
738.206	0.0177350
738.284	0.0178518
738.362	0.0176886
738.440	0.0178582
738.518	0.0177483
738.596	0.0178280
738.674	0.0175551
738.753	0.0174239
738.831	0.0170840
738.909	0.0167948
738.987	0.0165034
739.065	0.0161591
739.143	0.0158645
739.221	0.0157235
739.299	0.0156050
739.378	0.0153884
739.456	0.0154091
739.534	0.0154770
739.612	0.0156538
739.690	0.0156904
739.768	0.0159544
739.846	0.0162070
739.924	0.0162389
740.003	0.0165582
740.081	0.0168007
740.159	0.0169244
740.237	0.0169842
740.315	0.0170199
740.393	0.0170050
740.471	0.0170248
740.549	0.0169278
740.628	0.0170879
740.706	0.0169686
740.784	0.0169736
740.862	0.0167461
740.940	0.0167729
741.018	0.0166350
741.096	0.0166080
741.174	0.0165460
741.253	0.0164027
741.331	0.0163947
741.409	0.0163170
741.487	0.0161868
741.565	0.0160683
741.643	0.0160442
741.721	0.0162019
741.799	0.0160512
741.878	0.0159927
741.956	0.0159521
742.034	0.0159071
742.112	0.0159259
742.190	0.0159271
742.268	0.0158724
742.346	0.0157935
742.424	0.0158846
742.503	0.0158633
742.581	0.0157989
742.659	0.0159628
742.737	0.0161126
742.815	0.0162630
742.893	0.0164345
742.971	0.0166992
743.049	0.0168423
743.128	0.0169791
743.206	0.0171606
743.284	0.0172520
743.362	0.0172777
743.440	0.0173333
743.518	0.0174918
743.596	0.0175158
743.674	0.0174190
743.753	0.0174801
743.831	0.0174038
743.909	0.0174934
743.987	0.0176334
744.065	0.0176981
744.143	0.0175636
744.221	0.0176013
744.299	0.0177114
744.378	0.0177242
744.456	0.0176368
744.534	0.0174340
744.612	0.0174078
744.690	0.0171868
744.768	0.0169022
744.846	0.0167426
744.924	0.0164924
745.003	0.0162360
745.081	0.0161437
745.159	0.0158739
745.237	0.0155756
745.315	0.0155211
745.393	0.0153742
745.471	0.0151914
745.549	0.0153532
745.628	0.0153454
745.706	0.0152495
745.784	0.0154408
745.862	0.0154771
745.940	0.0155927
746.018	0.0158820
746.096	0.0159031
746.174	0.0159155
746.253	0.0160939
746.331	0.0161179
746.409	0.0161487
746.487	0.0162403
746.565	0.0163239
746.643	0.0162609
746.721	0.0164901
746.799	0.0164634
746.878	0.0166489
746.956	0.0166701
747.034	0.0167480
747.112	0.0169002
747.190	0.0169963
747.268	0.0169020
747.346	0.0169891
747.424	0.0169167
747.503	0.0171050
747.581	0.0169936
747.659	0.0169610
747.737	0.0167973
747.815	0.0165811
747.893	0.0168210
747.971	0.0167248
748.049	0.0166695
748.128	0.0167112
748.206	0.0166406
748.284	0.0166340
748.362	0.0167045
748.440	0.0170322
748.518	0.0169931
748.596	0.0168524
748.674	0.0169544
748.753	0.0170300
748.831	0.0170396
748.909	0.0171661
748.987	0.0170792
749.065	0.0171632
749.143	0.0171986
749.221	0.0171075
749.299	0.0170271
749.378	0.0170856
749.456	0.0170294
749.534	0.0169332
749.612	0.0168983
749.690	0.0167027
749.768	0.0165513
749.846	0.0162861
749.924	0.0160574
750.003	0.0158741
750.081	0.0157560
750.159	0.0154647
750.237	0.0155270
750.315	0.0156335
750.393	0.0156319
750.471	0.0155451
750.549	0.0154508
750.628	0.0156592
750.706	0.0157731
750.784	0.0157204
750.862	0.0158763
750.940	0.0159882
751.018	0.0161377
751.096	0.0163128
751.174	0.0164722
751.253	0.0164638
751.331	0.0166300
751.409	0.0168105
751.487	0.0167848
751.565	0.0168261
751.643	0.0170196
751.721	0.0169975
751.799	0.0170846
751.878	0.0169951
751.956	0.0168213
752.034	0.0168069
752.112	0.0168275
752.190	0.0166454
752.268	0.0166168
752.346	0.0166050
752.424	0.0165032
752.503	0.0163515
752.581	0.0164932
752.659	0.0162888
752.737	0.0162070
752.815	0.0163406
752.893	0.0163456
752.971	0.0165959
753.049	0.0165759
753.128	0.0166221
753.206	0.0166906
753.284	0.0166499
753.362	0.0167957
753.440	0.0167879
753.518	0.0169154
753.596	0.0167462
753.674	0.0167245
753.753	0.0168107
753.831	0.0166204
753.909	0.0165555
753.987	0.0163639
754.065	0.0164454
754.143	0.0164443
754.221	0.0162269
754.299	0.0163419
754.378	0.0164001
754.456	0.0162785
754.534	0.0162238
754.612	0.0164632
754.690	0.0166324
754.768	0.0166657
754.846	0.0165369
754.924	0.0167522
755.003	0.0168507
755.081	0.0167951
755.159	0.0169189
755.237	0.0168616
755.315	0.0166974
755.393	0.0169213
755.471	0.0167659
755.549	0.0166953
755.628	0.0165218
755.706	0.0165004
755.784	0.0163894
755.862	0.0164661
755.940	0.0164264
756.018	0.0164492
756.096	0.0161987
756.174	0.0162941
756.253	0.0162614
756.331	0.0162334
756.409	0.0163539
756.487	0.0162894
756.565	0.0162763
756.643	0.0164037
756.721	0.0164800
756.799	0.0164629
756.878	0.0165658
756.956	0.0166419
757.034	0.0166933
757.112	0.0167139
757.190	0.0167682
757.268	0.0165714
757.346	0.0165570
757.424	0.0164887
757.503	0.0164379
757.581	0.0163723
757.659	0.0165112
757.737	0.0164185
757.815	0.0163672
757.893	0.0163123
757.971	0.0161995
758.049	0.0162064
758.128	0.0161187
758.206	0.0160966
758.284	0.0160123
758.362	0.0160984
758.440	0.0160715
758.518	0.0160075
758.596	0.0160271
758.674	0.0161604
758.753	0.0162682
758.831	0.0166545
758.909	0.0166678
758.987	0.0166158
759.065	0.0168295
759.143	0.0168458
759.221	0.0169556
759.299	0.0168724
759.378	0.0171500
759.456	0.0169908
759.534	0.0172237
759.612	0.0170922
759.690	0.0170759
759.768	0.0170387
759.846	0.0170956
759.924	0.0169770
760.003	0.0168192
760.081	0.0168903
760.159	0.0166555
760.237	0.0166125
760.315	0.0166234
760.393	0.0164996
760.471	0.0164735
760.549	0.0164867
760.628	0.0163569
760.706	0.0165865
760.784	0.0164085
760.862	0.0163397
760.940	0.0164188
761.018	0.0165459
761.096	0.0165605
761.174	0.0163946
761.253	0.0163149
761.331	0.0163816
761.409	0.0163499
761.487	0.0162162
761.565	0.0162835
761.643	0.0162389
761.721	0.0162582
761.799	0.0162372
761.878	0.0163296
761.956	0.0165073
762.034	0.0164957
762.112	0.0165935
762.190	0.0167354
762.268	0.0168028
762.346	0.0167760
762.424	0.0170181
762.503	0.0170518
762.581	0.0170672
762.659	0.0170831
762.737	0.0170470
762.815	0.0168102
762.893	0.0169324
762.971	0.0169170
763.049	0.0165601
763.128	0.0164590
763.206	0.0163539
763.284	0.0162349
763.362	0.0161698
763.440	0.0161153
763.518	0.0160426
763.596	0.0160268
763.674	0.0160787
763.753	0.0161383
763.831	0.0162253
763.909	0.0162993
763.987	0.0161766
764.065	0.0164523
764.143	0.0163411
764.221	0.0165875
764.299	0.0165828
764.378	0.0165794
764.456	0.0166499
764.534	0.0165906
764.612	0.0167113
764.690	0.0165612
764.768	0.0166351
764.846	0.0166785
764.924	0.0165540
765.003	0.0164492
765.081	0.0164145
765.159	0.0163363
765.237	0.0162714
765.315	0.0162366
765.393	0.0161646
765.471	0.0162769
765.549	0.0162684
765.628	0.0164227
765.706	0.0163620
765.784	0.0163306
765.862	0.0165763
765.940	0.0165173
766.018	0.0165823
766.096	0.0168610
766.174	0.0169926
766.253	0.0168916
766.331	0.0168641
766.409	0.0169406
766.487	0.0169772
766.565	0.0169235
766.643	0.0168091
766.721	0.0167634
766.799	0.0167427
766.878	0.0166383
766.956	0.0165672
767.034	0.0165301
767.112	0.0164330
767.190	0.0164083
767.268	0.0163591
767.346	0.0163772
767.424	0.0163316
767.503	0.0163495
767.581	0.0162524
767.659	0.0163435
767.737	0.0163825
767.815	0.0165730
767.893	0.0165877
767.971	0.0166976
768.049	0.0167265
768.128	0.0169193
768.206	0.0167637
768.284	0.0168524
768.362	0.0169849
768.440	0.0168486
768.518	0.0169395
768.596	0.0166534
768.674	0.0168404
768.753	0.0166915
768.831	0.0166470
768.909	0.0165546
768.987	0.0164581
769.065	0.0163972
769.143	0.0162760
769.221	0.0161051
769.299	0.0161166
769.378	0.0161579
769.456	0.0161882
769.534	0.0161925
769.612	0.0160593
769.690	0.0160363
769.768	0.0161355
769.846	0.0163691
769.924	0.0162239
770.003	0.0163532
770.081	0.0163493
770.159	0.0163764
770.237	0.0165132
770.315	0.0165900
770.393	0.0165731
770.471	0.0166249
770.549	0.0166078
770.628	0.0166851
770.706	0.0166691
770.784	0.0167676
770.862	0.0167792
770.940	0.0167039
771.018	0.0167634
771.096	0.0166834
771.174	0.0168707
771.253	0.0168153
771.331	0.0169054
771.409	0.0169415
771.487	0.0168742
771.565	0.0169116
771.643	0.0168657
771.721	0.0168426
771.799	0.0169738
771.878	0.0168069
771.956	0.0169714
772.034	0.0170032
772.112	0.0168629
772.190	0.0167709
772.268	0.0169514
772.346	0.0168043
772.424	0.0166055
772.503	0.0167558
772.581	0.0168520
772.659	0.0165937
772.737	0.0165184
772.815	0.0164978
772.893	0.0164776
772.971	0.0163087
773.049	0.0164246
773.128	0.0162524
773.206	0.0164205
773.284	0.0163235
773.362	0.0163461
773.440	0.0163841
773.518	0.0162764
773.596	0.0163370
773.674	0.0162502
773.753	0.0161523
773.831	0.0162251
773.909	0.0162656
773.987	0.0163149
774.065	0.0161560
774.143	0.0163345
774.221	0.0164922
774.299	0.0164709
774.378	0.0164249
774.456	0.0164394
774.534	0.0166877
774.612	0.0166168
774.690	0.0167400
774.768	0.0166766
774.846	0.0168639
774.924	0.0168947
775.003	0.0167513
775.081	0.0169180
775.159	0.0169641
775.237	0.0168630
775.315	0.0167471
775.393	0.0169136
775.471	0.0169296
775.549	0.0168674
775.628	0.0167303
775.706	0.0165748
775.784	0.0166177
775.862	0.0165836
775.940	0.0164786
776.018	0.0163062
776.096	0.0164638
776.174	0.0164304
776.253	0.0163823
776.331	0.0164716
776.409	0.0165171
776.487	0.0163228
776.565	0.0164967
776.643	0.0165687
776.721	0.0166346
776.799	0.0166578
776.878	0.0165692
776.956	0.0164872
777.034	0.0166447
777.112	0.0166378
777.190	0.0166247
777.268	0.0164417
777.346	0.0165331
777.424	0.0164772
777.503	0.0165407
777.581	0.0163822
777.659	0.0162640
777.737	0.0163254
777.815	0.0162361
777.893	0.0162554
777.971	0.0162941
778.049	0.0163712
778.128	0.0163197
778.206	0.0162645
778.284	0.0163861
778.362	0.0165588
778.440	0.0164965
778.518	0.0165932
778.596	0.0165739
778.674	0.0167759
778.753	0.0168859
778.831	0.0168958
778.909	0.0167892
778.987	0.0168375
779.065	0.0168746
779.143	0.0168505
779.221	0.0169462
779.299	0.0167722
779.378	0.0167354
779.456	0.0167509
779.534	0.0166933
779.612	0.0167281
779.690	0.0167054
779.768	0.0166859
779.846	0.0166267
779.924	0.0166039
780.003	0.0165291
780.081	0.0165234
780.159	0.0164489
780.237	0.0165150
780.315	0.0163555
780.393	0.0165450
780.471	0.0166103
780.549	0.0164151
780.628	0.0164288
780.706	0.0164391
780.784	0.0165132
780.862	0.0162907
780.940	0.0164081
781.018	0.0164670
781.096	0.0165182
781.174	0.0165544
781.253	0.0164129
781.331	0.0163853
781.409	0.0163018
781.487	0.0164398
781.565	0.0163089
781.643	0.0163656
781.721	0.0163108
781.799	0.0162226
781.878	0.0164607
781.956	0.0165544
782.034	0.0164870
782.112	0.0164951
782.190	0.0164404
782.268	0.0166057
782.346	0.0166306
782.424	0.0167181
782.503	0.0167049
782.581	0.0168635
782.659	0.0168226
782.737	0.0167078
782.815	0.0167815
782.893	0.0167544
782.971	0.0167569
783.049	0.0167716
783.128	0.0169844
783.206	0.0168204
783.284	0.0168102
783.362	0.0167393
783.440	0.0166894
783.518	0.0166254
783.596	0.0166552
783.674	0.0166409
783.753	0.0164217
783.831	0.0166136
783.909	0.0165101
783.987	0.0165180
784.065	0.0164525
784.143	0.0165140
784.221	0.0165370
784.299	0.0166260
784.378	0.0165575
784.456	0.0165504
784.534	0.0164627
784.612	0.0165279
784.690	0.0166073
784.768	0.0166515
784.846	0.0164389
784.924	0.0165650
785.003	0.0166905
785.081	0.0165305
785.159	0.0165952
785.237	0.0166019
785.315	0.0166453
785.393	0.0165212
785.471	0.0164334
785.549	0.0166317
785.628	0.0164738
785.706	0.0165207
785.784	0.0166199
785.862	0.0165524
785.940	0.0165287
786.018	0.0163516
786.096	0.0165770
786.174	0.0166221
786.253	0.0165417
786.331	0.0165091
786.409	0.0165353
786.487	0.0165550
786.565	0.0163211
786.643	0.0164708
786.721	0.0166026
786.799	0.0165122
786.878	0.0166098
786.956	0.0164995
787.034	0.0166422
787.112	0.0165617
787.190	0.0166055
787.268	0.0166432
787.346	0.0166680
787.424	0.0166085
787.503	0.0166613
787.581	0.0166316
787.659	0.0166202
787.737	0.0164782
787.815	0.0165845
787.893	0.0166515
787.971	0.0166021
788.049	0.0166050
788.128	0.0165781
788.206	0.0166049
788.284	0.0164768
788.362	0.0165273
788.440	0.0165562
788.518	0.0165305
788.596	0.0164690
788.674	0.0165544
788.753	0.0165687
788.831	0.0165907
788.909	0.0165269
788.987	0.0164599
789.065	0.0164709
789.143	0.0164309
789.221	0.0165002
789.299	0.0165672
789.378	0.0165633
789.456	0.0164999
789.534	0.0164838
789.612	0.0165308
789.690	0.0165069
789.768	0.0166088
789.846	0.0165784
789.924	0.0164826
790.003	0.0164832
790.081	0.0165873
790.159	0.0166621
790.237	0.0165028
790.315	0.0165716
790.393	0.0165816
790.471	0.0167139
790.549	0.0166805
790.628	0.0166773
790.706	0.0167487
790.784	0.0167505
790.862	0.0167281
790.940	0.0166254
791.018	0.0166722
791.096	0.0166492
791.174	0.0166736
791.253	0.0167199
791.331	0.0165134
791.409	0.0165917
791.487	0.0163710
791.565	0.0165598
791.643	0.0165477
791.721	0.0164388
791.799	0.0164635
791.878	0.0164911
791.956	0.0163110
792.034	0.0163625
792.112	0.0163477
792.190	0.0162315
792.268	0.0162698
792.346	0.0162951
792.424	0.0161946
792.503	0.0162130
792.581	0.0164773
792.659	0.0163850
792.737	0.0164616
792.815	0.0164703
792.893	0.0166486
792.971	0.0167190
793.049	0.0166229
793.128	0.0166587
793.206	0.0166280
793.284	0.0167231
793.362	0.0167638
793.440	0.0167736
793.518	0.0166589
793.596	0.0166299
793.674	0.0166210
793.753	0.0164559
793.831	0.0165806
793.909	0.0165720
793.987	0.0163009
794.065	0.0162872
794.143	0.0165564
794.221	0.0162865
794.299	0.0164013
794.378	0.0164137
794.456	0.0164230
794.534	0.0163876
794.612	0.0163123
794.690	0.0166399
794.768	0.0165852
794.846	0.0165991
794.924	0.0165782
795.003	0.0165234
795.081	0.0166770
795.159	0.0166335
795.237	0.0167321
795.315	0.0166256
795.393	0.0166840
795.471	0.0167569
795.549	0.0166360
795.628	0.0166475
795.706	0.0165746
795.784	0.0165772
795.862	0.0165450
795.940	0.0165311
796.018	0.0165649
796.096	0.0165307
796.174	0.0165678
796.253	0.0165184
796.331	0.0165808
796.409	0.0165555
796.487	0.0165119
796.565	0.0164823
796.643	0.0164715
796.721	0.0165295
796.799	0.0165944
796.878	0.0165564
796.956	0.0165603
797.034	0.0165395
797.112	0.0164982
797.190	0.0166975
797.268	0.0164800
797.346	0.0165880
797.424	0.0165833
797.503	0.0165926
797.581	0.0165734
797.659	0.0166883
797.737	0.0165618
797.815	0.0165875
797.893	0.0165671
797.971	0.0165932
798.049	0.0165099
798.128	0.0165447
798.206	0.0166645
798.284	0.0164877
798.362	0.0165044
798.440	0.0166722
798.518	0.0166897
798.596	0.0165244
798.674	0.0166566
798.753	0.0166302
798.831	0.0167061
798.909	0.0165556
798.987	0.0164690
799.065	0.0167345
799.143	0.0166822
799.221	0.0167238
799.299	0.0167274
799.378	0.0167031
799.456	0.0166146
799.534	0.0166235
799.612	0.0167281
799.690	0.0167417
799.768	0.0166809
799.846	0.0166940
799.924	0.0166965
800.003	0.0167390
800.081	0.0165762
800.159	0.0165566
800.237	0.0165800
800.315	0.0163826
800.393	0.0162191
800.471	0.0164389
800.549	0.0164682
800.628	0.0162976
800.706	0.0162376
800.784	0.0162717
800.862	0.0162130
800.940	0.0164140
801.018	0.0162905
801.096	0.0162416
801.174	0.0163242
801.253	0.0163538
801.331	0.0164681
801.409	0.0164174
801.487	0.0165356
801.565	0.0166093
801.643	0.0168177
801.721	0.0167476
801.799	0.0168213
801.878	0.0167627
801.956	0.0167387
802.034	0.0168742
802.112	0.0168442
802.190	0.0168771
802.268	0.0166826
802.346	0.0167847
802.424	0.0166741
802.503	0.0169035
802.581	0.0166464
802.659	0.0165768
802.737	0.0165794
802.815	0.0164870
802.893	0.0164774
802.971	0.0165652
803.049	0.0165107
803.128	0.0165890
803.206	0.0164233
803.284	0.0164420
803.362	0.0164562
803.440	0.0165955
803.518	0.0165037
803.596	0.0165064
803.674	0.0166255
803.753	0.0166971
803.831	0.0165799
803.909	0.0166245
803.987	0.0166521
804.065	0.0167219
804.143	0.0166239
804.221	0.0166838
804.299	0.0166711
804.378	0.0166718
804.456	0.0166541
804.534	0.0165463
804.612	0.0165095
804.690	0.0165772
804.768	0.0165750
804.846	0.0164666
804.924	0.0164802
805.003	0.0165314
805.081	0.0165264
805.159	0.0165701
805.237	0.0165456
805.315	0.0165416
805.393	0.0166196
805.471	0.0166308
805.549	0.0166708
805.628	0.0167383
805.706	0.0165360
805.784	0.0165905
805.862	0.0166769
805.940	0.0166350
806.018	0.0166489
806.096	0.0166580
806.174	0.0166747
806.253	0.0166894
806.331	0.0166401
806.409	0.0164691
806.487	0.0165325
806.565	0.0165063
806.643	0.0163020
806.721	0.0164828
806.799	0.0165005
806.878	0.0163172
806.956	0.0162454
807.034	0.0163355
807.112	0.0164412
807.190	0.0164182
807.268	0.0162811
807.346	0.0162470
807.424	0.0164108
807.503	0.0165240
807.581	0.0163835
807.659	0.0164194
807.737	0.0164681
807.815	0.0166273
807.893	0.0166967
807.971	0.0166383
808.049	0.0165502
808.128	0.0166042
808.206	0.0166407
808.284	0.0166108
808.362	0.0166923
808.440	0.0168671
808.518	0.0167992
808.596	0.0167234
808.674	0.0168305
808.753	0.0167907
808.831	0.0166398
808.909	0.0165633
808.987	0.0163866
809.065	0.0167259
809.143	0.0166557
809.221	0.0165954
809.299	0.0165918
809.378	0.0164491
809.456	0.0164908
809.534	0.0165762
809.612	0.0166265
809.690	0.0165144
809.768	0.0164740
809.846	0.0167646
809.924	0.0166109
810.003	0.0167422
810.081	0.0166325
810.159	0.0167028
810.237	0.0166276
810.315	0.0166772
810.393	0.0165986
810.471	0.0167391
810.549	0.0168305
810.628	0.0167999
810.706	0.0166878
810.784	0.0166428
810.862	0.0166611
810.940	0.0167352
811.018	0.0166649
811.096	0.0164465
811.174	0.0164462
811.253	0.0164664
811.331	0.0164594
811.409	0.0164661
811.487	0.0164346
811.565	0.0166783
811.643	0.0164005
811.721	0.0164008
811.799	0.0165532
811.878	0.0163295
811.956	0.0164452
812.034	0.0163252
812.112	0.0163400
812.190	0.0162515
812.268	0.0162647
812.346	0.0164535
812.424	0.0165389
812.503	0.0163969
812.581	0.0164270
812.659	0.0163799
812.737	0.0164542
812.815	0.0164870
812.893	0.0165683
812.971	0.0165910
813.049	0.0166085
813.128	0.0165775
813.206	0.0166127
813.284	0.0165631
813.362	0.0166244
813.440	0.0166546
813.518	0.0167182
813.596	0.0167982
813.674	0.0167032
813.753	0.0166940
813.831	0.0167627
813.909	0.0166856
813.987	0.0167301
814.065	0.0166847
814.143	0.0165982
814.221	0.0165173
814.299	0.0165995
814.378	0.0166607
814.456	0.0165352
814.534	0.0164792
814.612	0.0164805
814.690	0.0163692
814.768	0.0164014
814.846	0.0165169
814.924	0.0164858
815.003	0.0165956
815.081	0.0164821
815.159	0.0163902
815.237	0.0164768
815.315	0.0165356
815.393	0.0165668
815.471	0.0162646
815.549	0.0163211
815.628	0.0164252
815.706	0.0163420
815.784	0.0163546
815.862	0.0163905
815.940	0.0166000
816.018	0.0167302
816.096	0.0164405
816.174	0.0164954
816.253	0.0165512
816.331	0.0167222
816.409	0.0167983
816.487	0.0167360
816.565	0.0168550
816.643	0.0168482
816.721	0.0168877
816.799	0.0169659
816.878	0.0169756
816.956	0.0170983
817.034	0.0168209
817.112	0.0168162
817.190	0.0169432
817.268	0.0168468
817.346	0.0168108
817.424	0.0168094
817.503	0.0166498
817.581	0.0166487
817.659	0.0164922
817.737	0.0164774
817.815	0.0164346
817.893	0.0163570
817.971	0.0161470
818.049	0.0160996
818.128	0.0161269
818.206	0.0160228
818.284	0.0158360
818.362	0.0159219
818.440	0.0158768
818.518	0.0158194
818.596	0.0158331
818.674	0.0159469
818.753	0.0160650
818.831	0.0161151
818.909	0.0163204
818.987	0.0163573
819.065	0.0164473
819.143	0.0164841
819.221	0.0166304
819.299	0.0168445
819.378	0.0165651
819.456	0.0167953
819.534	0.0168966
819.612	0.0170151
819.690	0.0169252
819.768	0.0170821
819.846	0.0172720
819.924	0.0171310
820.003	0.0170634
820.081	0.0170150
820.159	0.0169570
820.237	0.0169212
820.315	0.0168024
820.393	0.0169121
820.471	0.0167418
820.549	0.0165555
820.628	0.0166194
820.706	0.0166676
820.784	0.0164792
820.862	0.0164339
820.940	0.0163708
821.018	0.0162791
821.096	0.0162551
821.174	0.0161950
821.253	0.0160961
821.331	0.0160408
821.409	0.0159373
821.487	0.0159900
821.565	0.0162325
821.643	0.0160183
821.721	0.0161211
821.799	0.0162551
821.878	0.0162875
821.956	0.0163289
822.034	0.0164338
822.112	0.0163864
822.190	0.0164793
822.268	0.0166716
822.346	0.0165697
822.424	0.0167559
822.503	0.0168209
822.581	0.0167439
822.659	0.0167069
822.737	0.0169412
822.815	0.0168326
822.893	0.0168767
822.971	0.0169254
823.049	0.0170739
823.128	0.0167979
823.206	0.0169997
823.284	0.0169913
823.362	0.0169965
823.440	0.0170332
823.518	0.0168221
823.596	0.0168013
823.674	0.0168459
823.753	0.0168621
823.831	0.0166749
823.909	0.0167186
823.987	0.0167261
824.065	0.0166393
824.143	0.0165961
824.221	0.0164318
824.299	0.0164835
824.378	0.0163737
824.456	0.0162750
824.534	0.0161472
824.612	0.0161920
824.690	0.0162386
824.768	0.0160744
824.846	0.0160358
824.924	0.0159161
825.003	0.0161520
825.081	0.0161259
825.159	0.0161254
825.237	0.0161903
825.315	0.0161468
825.393	0.0162846
825.471	0.0164223
825.549	0.0164072
825.628	0.0165177
825.706	0.0166033
825.784	0.0165787
825.862	0.0166717
825.940	0.0166499
826.018	0.0166869
826.096	0.0167941
826.174	0.0167513
826.253	0.0169053
826.331	0.0169732
826.409	0.0167512
826.487	0.0167021
826.565	0.0168309
826.643	0.0166674
826.721	0.0168872
826.799	0.0167887
826.878	0.0168578
826.956	0.0168188
827.034	0.0168216
827.112	0.0168539
827.190	0.0167822
827.268	0.0169334
827.346	0.0168597
827.424	0.0167229
827.503	0.0167142
827.581	0.0167462
827.659	0.0165662
827.737	0.0167068
827.815	0.0165263
827.893	0.0164489
827.971	0.0164938
828.049	0.0164249
828.128	0.0162592
828.206	0.0163113
828.284	0.0163551
828.362	0.0162948
828.440	0.0163693
828.518	0.0162112
828.596	0.0163208
828.674	0.0162993
828.753	0.0162095
828.831	0.0164092
828.909	0.0163898
828.987	0.0163707
829.065	0.0163780
829.143	0.0164426
829.221	0.0165556
829.299	0.0164613
829.378	0.0164901
829.456	0.0165272
829.534	0.0166579
829.612	0.0166032
829.690	0.0166638
829.768	0.0166346
829.846	0.0166875
829.924	0.0167611
830.003	0.0166196
830.081	0.0166383
830.159	0.0166135
830.237	0.0166161
830.315	0.0167538
830.393	0.0167456
830.471	0.0167684
830.549	0.0167503
830.628	0.0166885
830.706	0.0168778
830.784	0.0167101
830.862	0.0166024
830.940	0.0165033
831.018	0.0165925
831.096	0.0165627
831.174	0.0164937
831.253	0.0166235
831.331	0.0165690
831.409	0.0164453
831.487	0.0164606
831.565	0.0164775
831.643	0.0164853
831.721	0.0165054
831.799	0.0164050
831.878	0.0163954
831.956	0.0162779
832.034	0.0164862
832.112	0.0164519
832.190	0.0164330
832.268	0.0164131
832.346	0.0164887
832.424	0.0165169
832.503	0.0165998
832.581	0.0165970
832.659	0.0165492
832.737	0.0164041
832.815	0.0165710
832.893	0.0165281
832.971	0.0163673
833.049	0.0164098
833.128	0.0164806
833.206	0.0164268
833.284	0.0164935
833.362	0.0165904
833.440	0.0164036
833.518	0.0165302
833.596	0.0164538
833.674	0.0165349
833.753	0.0164066
833.831	0.0163823
833.909	0.0165327
833.987	0.0166092
834.065	0.0166163
834.143	0.0166608
834.221	0.0166483
834.299	0.0167455
834.378	0.0167646
834.456	0.0166457
834.534	0.0167377
834.612	0.0165983
834.690	0.0167343
834.768	0.0168305
834.846	0.0167772
834.924	0.0168289
835.003	0.0167905
835.081	0.0166890
835.159	0.0166337
835.237	0.0166943
835.315	0.0166148
835.393	0.0167705
835.471	0.0165942
835.549	0.0164214
835.628	0.0165080
835.706	0.0165548
835.784	0.0165382
835.862	0.0166105
835.940	0.0165943
836.018	0.0165351
836.096	0.0165948
836.174	0.0166148
836.253	0.0165787
836.331	0.0164238
836.409	0.0165508
836.487	0.0166945
836.565	0.0165292
836.643	0.0164075
836.721	0.0164077
836.799	0.0164876
836.878	0.0163447
836.956	0.0164533
837.034	0.0165160
837.112	0.0164351
837.190	0.0163516
837.268	0.0164453
837.346	0.0163590
837.424	0.0164075
837.503	0.0163620
837.581	0.0163902
837.659	0.0162883
837.737	0.0163622
837.815	0.0163837
837.893	0.0163871
837.971	0.0164249
838.049	0.0164539
838.128	0.0163879
838.206	0.0165284
838.284	0.0164948
838.362	0.0165192
838.440	0.0166076
838.518	0.0166240
838.596	0.0164709
838.674	0.0166999
838.753	0.0165928
838.831	0.0166433
838.909	0.0166569
838.987	0.0167048
839.065	0.0165347
839.143	0.0166279
839.221	0.0166105
839.299	0.0165943
839.378	0.0166750
839.456	0.0165071
839.534	0.0166492
839.612	0.0166311
839.690	0.0165653
839.768	0.0164663
839.846	0.0164330
839.924	0.0164859
840.003	0.0164880
840.081	0.0166348
840.159	0.0166624
840.237	0.0166490
840.315	0.0167526
840.393	0.0168162
840.471	0.0166734
840.549	0.0168065
840.628	0.0167352
840.706	0.0168594
840.784	0.0169079
840.862	0.0168074
840.940	0.0167413
841.018	0.0167130
841.096	0.0168023
841.174	0.0166790
841.253	0.0166578
841.331	0.0167158
841.409	0.0166424
841.487	0.0165064
841.565	0.0165571
841.643	0.0166027
841.721	0.0165508
841.799	0.0163801
841.878	0.0164417
841.956	0.0163872
842.034	0.0163867
842.112	0.0161632
842.190	0.0162448
842.268	0.0163409
842.346	0.0163400
842.424	0.0163024
842.503	0.0161982
842.581	0.0162688
842.659	0.0164986
842.737	0.0163134
842.815	0.0162880
842.893	0.0164165
842.971	0.0164314
843.049	0.0163878
843.128	0.0163990
843.206	0.0165185
843.284	0.0165283
843.362	0.0163756
843.440	0.0165359
843.518	0.0164249
843.596	0.0165608
843.674	0.0166158
843.753	0.0166369
843.831	0.0164713
843.909	0.0165361
843.987	0.0166334
844.065	0.0166032
844.143	0.0165302
844.221	0.0164794
844.299	0.0167763
844.378	0.0167918
844.456	0.0166420
844.534	0.0165766
844.612	0.0165800
844.690	0.0167548
844.768	0.0168176
844.846	0.0166795
844.924	0.0168071
845.003	0.0168404
845.081	0.0168469
845.159	0.0167043
845.237	0.0168058
845.315	0.0168490
845.393	0.0167593
845.471	0.0167921
845.549	0.0167445
845.628	0.0167986
845.706	0.0167215
845.784	0.0165194
845.862	0.0166628
845.940	0.0166107
846.018	0.0165538
846.096	0.0166882
846.174	0.0165079
846.253	0.0165775
846.331	0.0164521
846.409	0.0164687
846.487	0.0162941
846.565	0.0163457
846.643	0.0163630
846.721	0.0163648
846.799	0.0164281
846.878	0.0162103
846.956	0.0163437
847.034	0.0163742
847.112	0.0163867
847.190	0.0161652
847.268	0.0163907
847.346	0.0164344
847.424	0.0164259
847.503	0.0163078
847.581	0.0163759
847.659	0.0162498
847.737	0.0163549
847.815	0.0163908
847.893	0.0165391
847.971	0.0164981
848.049	0.0164284
848.128	0.0164889
848.206	0.0165452
848.284	0.0166104
848.362	0.0165176
848.440	0.0163942
848.518	0.0165092
848.596	0.0167496
848.674	0.0165476
848.753	0.0165691
848.831	0.0166612
848.909	0.0167758
848.987	0.0168030
849.065	0.0166683
849.143	0.0166570
849.221	0.0167341
849.299	0.0167341
849.378	0.0167958
849.456	0.0166577
849.534	0.0166723
849.612	0.0168673
849.690	0.0167787
849.768	0.0166998
849.846	0.0166398
849.924	0.0165686
850.003	0.0166423
850.081	0.0165242
850.159	0.0164878
850.237	0.0165536
850.315	0.0166576
850.393	0.0165318
850.471	0.0165717
850.549	0.0164959
850.628	0.0166165
850.706	0.0165331
850.784	0.0164005
850.862	0.0167246
850.940	0.0166275
851.018	0.0166666
851.096	0.0165605
851.174	0.0164523
851.253	0.0163985
851.331	0.0165387
851.409	0.0164742
851.487	0.0164295
851.565	0.0164764
851.643	0.0164700
851.721	0.0164923
851.799	0.0166137
851.878	0.0164212
851.956	0.0163113
852.034	0.0164631
852.112	0.0163628
852.190	0.0164851
852.268	0.0165110
852.346	0.0164413
852.424	0.0165061
852.503	0.0164329
852.581	0.0163906
852.659	0.0163602
852.737	0.0164446
852.815	0.0166308
852.893	0.0165459
852.971	0.0162715
853.049	0.0164126
853.128	0.0164606
853.206	0.0164319
853.284	0.0165352
853.362	0.0162759
853.440	0.0165189
853.518	0.0164317
853.596	0.0164765
853.674	0.0164859
853.753	0.0164375
853.831	0.0166669
853.909	0.0165107
853.987	0.0165166
854.065	0.0165752
854.143	0.0166227
854.221	0.0164477
854.299	0.0164516
854.378	0.0166222
854.456	0.0164907
854.534	0.0165185
854.612	0.0165580
854.690	0.0163926
854.768	0.0166293
854.846	0.0165815
854.924	0.0164133
855.003	0.0164611
855.081	0.0165423
855.159	0.0166049
855.237	0.0167088
855.315	0.0167459
855.393	0.0165097
855.471	0.0167027
855.549	0.0167129
855.628	0.0167233
855.706	0.0166740
855.784	0.0166193
855.862	0.0167345
855.940	0.0167374
856.018	0.0167198
856.096	0.0166389
856.174	0.0167005
856.253	0.0167085
856.331	0.0166917
856.409	0.0165158
856.487	0.0165355
856.565	0.0165928
856.643	0.0166582
856.721	0.0167200
856.799	0.0165740
856.878	0.0166585
856.956	0.0166409
857.034	0.0166544
857.112	0.0166728
857.190	0.0166484
857.268	0.0166283
857.346	0.0165292
857.424	0.0164767
857.503	0.0165370
857.581	0.0165326
857.659	0.0164732
857.737	0.0164795
857.815	0.0165358
857.893	0.0164451
857.971	0.0164818
858.049	0.0164622
858.128	0.0164089
858.206	0.0163911
858.284	0.0164148
858.362	0.0165347
858.440	0.0165177
858.518	0.0163229
858.596	0.0165688
858.674	0.0166303
858.753	0.0164080
858.831	0.0164845
858.909	0.0165403
858.987	0.0165405
859.065	0.0165601
859.143	0.0164987
859.221	0.0166839
859.299	0.0164495
859.378	0.0164612
859.456	0.0164841
859.534	0.0165296
859.612	0.0164314
859.690	0.0163566
859.768	0.0164949
859.846	0.0163978
859.924	0.0164104
860.003	0.0166186
860.081	0.0165851
860.159	0.0165058
860.237	0.0164130
860.315	0.0164223
860.393	0.0164790
860.471	0.0165048
860.549	0.0165805
860.628	0.0164938
860.706	0.0165339
860.784	0.0166556
860.862	0.0166030
860.940	0.0166328
861.018	0.0165858
861.096	0.0165173
861.174	0.0165656
861.253	0.0165784
861.331	0.0166741
861.409	0.0166080
861.487	0.0165844
861.565	0.0165001
861.643	0.0165015
861.721	0.0164730
861.799	0.0164546
861.878	0.0165907
861.956	0.0165817
862.034	0.0166071
862.112	0.0164365
862.190	0.0165812
862.268	0.0165860
862.346	0.0165250
862.424	0.0165487
862.503	0.0166434
862.581	0.0165289
862.659	0.0165197
862.737	0.0166026
862.815	0.0166342
862.893	0.0165028
862.971	0.0164051
863.049	0.0164243
863.128	0.0163924
863.206	0.0164808
863.284	0.0165182
863.362	0.0164790
863.440	0.0164085
863.518	0.0164147
863.596	0.0164097
863.674	0.0163625
863.753	0.0163756
863.831	0.0164098
863.909	0.0164621
863.987	0.0163691
864.065	0.0163211
864.143	0.0164941
864.221	0.0164374
864.299	0.0165296
864.378	0.0165693
864.456	0.0164812
864.534	0.0166097
864.612	0.0165200
864.690	0.0165186
864.768	0.0166290
864.846	0.0166628
864.924	0.0166141
865.003	0.0166478
865.081	0.0166972
865.159	0.0166833
865.237	0.0166283
865.315	0.0168763
865.393	0.0167207
865.471	0.0166073
865.549	0.0166469
865.628	0.0167068
865.706	0.0166261
865.784	0.0164699
865.862	0.0165723
865.940	0.0166247
866.018	0.0164879
866.096	0.0165257
866.174	0.0165670
866.253	0.0165179
866.331	0.0165398
866.409	0.0165865
866.487	0.0166036
866.565	0.0165082
866.643	0.0166023
866.721	0.0166458
866.799	0.0165841
866.878	0.0165784
866.956	0.0165285
867.034	0.0164597
867.112	0.0165045
867.190	0.0166243
867.268	0.0166411
867.346	0.0166059
867.424	0.0166280
867.503	0.0165948
867.581	0.0165513
867.659	0.0164973
867.737	0.0165640
867.815	0.0166168
867.893	0.0168114
867.971	0.0167175
868.049	0.0165958
868.128	0.0166574
868.206	0.0166432
868.284	0.0167152
868.362	0.0165998
868.440	0.0168030
868.518	0.0165906
868.596	0.0166012
868.674	0.0165542
868.753	0.0166724
868.831	0.0166795
868.909	0.0164732
868.987	0.0166367
869.065	0.0164822
869.143	0.0164462
869.221	0.0164367
869.299	0.0164835
869.378	0.0164517
869.456	0.0163267
869.534	0.0163660
869.612	0.0165240
869.690	0.0164429
869.768	0.0163071
869.846	0.0164039
869.924	0.0165924
870.003	0.0164817
870.081	0.0165048
870.159	0.0165346
870.237	0.0164791
870.315	0.0165276
870.393	0.0165099
870.471	0.0166807
870.549	0.0164775
870.628	0.0163801
870.706	0.0166253
870.784	0.0166804
870.862	0.0165056
870.940	0.0166293
871.018	0.0164945
871.096	0.0165593
871.174	0.0164767
871.253	0.0165457
871.331	0.0163952
871.409	0.0165139
871.487	0.0166175
871.565	0.0166748
871.643	0.0165948
871.721	0.0165729
871.799	0.0167242
871.878	0.0165681
871.956	0.0166082
872.034	0.0166988
872.112	0.0165910
872.190	0.0165392
872.268	0.0167479
872.346	0.0166919
872.424	0.0166888
872.503	0.0167235
872.581	0.0166508
872.659	0.0166241
872.737	0.0166053
872.815	0.0166034
872.893	0.0166569
872.971	0.0164671
873.049	0.0166864
873.128	0.0166201
873.206	0.0165550
873.284	0.0165405
873.362	0.0166217
873.440	0.0166164
873.518	0.0164451
873.596	0.0165414
873.674	0.0165997
873.753	0.0166016
873.831	0.0166185
873.909	0.0165768
873.987	0.0165192
874.065	0.0164766
874.143	0.0166630
874.221	0.0166488
874.299	0.0165096
874.378	0.0164301
874.456	0.0164268
874.534	0.0163326
874.612	0.0163183
874.690	0.0164299
874.768	0.0165020
874.846	0.0164857
874.924	0.0163696
875.003	0.0164117
875.081	0.0164603
875.159	0.0166455
875.237	0.0166027
875.315	0.0164775
875.393	0.0165515
875.471	0.0165146
875.549	0.0165305
875.628	0.0166046
875.706	0.0165998
875.784	0.0165211
875.862	0.0166676
875.940	0.0167268
876.018	0.0166393
876.096	0.0166196
876.174	0.0167162
876.253	0.0166722
876.331	0.0167590
876.409	0.0167822
876.487	0.0167397
876.565	0.0166276
876.643	0.0166341
876.721	0.0165633
876.799	0.0165468
876.878	0.0166018
876.956	0.0166629
877.034	0.0166576
877.112	0.0166412
877.190	0.0164408
877.268	0.0164954
877.346	0.0164289
877.424	0.0163982
877.503	0.0163269
877.581	0.0164662
877.659	0.0164048
877.737	0.0163408
877.815	0.0163886
877.893	0.0165134
877.971	0.0164205
878.049	0.0164989
878.128	0.0165151
878.206	0.0164826
878.284	0.0163470
878.362	0.0165262
878.440	0.0165238
878.518	0.0166418
878.596	0.0163969
878.674	0.0165760
878.753	0.0165165
878.831	0.0165816
878.909	0.0165818
878.987	0.0167417
879.065	0.0165085
879.143	0.0166062
879.221	0.0166306
879.299	0.0166669
879.378	0.0165884
879.456	0.0166808
879.534	0.0166151
879.612	0.0167477
879.690	0.0167149
879.768	0.0165456
879.846	0.0166271
879.924	0.0165571
880.003	0.0165644
880.081	0.0166087
880.159	0.0166590
880.237	0.0166016
880.315	0.0165673
880.393	0.0166929
880.471	0.0166571
880.549	0.0166220
880.628	0.0166807
880.706	0.0165730
880.784	0.0167115
880.862	0.0167661
880.940	0.0167628
881.018	0.0166146
881.096	0.0167303
881.174	0.0167950
881.253	0.0166984
881.331	0.0167159
881.409	0.0165521
881.487	0.0166280
881.565	0.0166268
881.643	0.0164889
881.721	0.0165669
881.799	0.0166001
881.878	0.0166028
881.956	0.0166444
882.034	0.0164915
882.112	0.0165586
882.190	0.0165613
882.268	0.0165639
882.346	0.0166048
882.424	0.0166370
882.503	0.0166463
882.581	0.0164513
882.659	0.0164540
882.737	0.0165380
882.815	0.0165463
882.893	0.0165355
882.971	0.0165632
883.049	0.0164838
883.128	0.0166229
883.206	0.0166456
883.284	0.0165946
883.362	0.0165245
883.440	0.0165398
883.518	0.0164983
883.596	0.0164293
883.674	0.0165444
883.753	0.0164893
883.831	0.0164996
883.909	0.0165717
883.987	0.0165909
884.065	0.0165878
884.143	0.0165128
884.221	0.0164565
884.299	0.0165315
884.378	0.0165112
884.456	0.0165289
884.534	0.0165749
884.612	0.0163517
884.690	0.0164894
884.768	0.0166386
884.846	0.0165782
884.924	0.0164626
885.003	0.0164745
885.081	0.0166547
885.159	0.0164900
885.237	0.0165752
885.315	0.0165452
885.393	0.0166084
885.471	0.0163910
885.549	0.0165305
885.628	0.0167611
885.706	0.0166393
885.784	0.0166705
885.862	0.0167452
885.940	0.0167377
886.018	0.0165144
886.096	0.0167423
886.174	0.0166867
886.253	0.0166390
886.331	0.0166552
886.409	0.0165746
886.487	0.0166042
886.565	0.0166663
886.643	0.0166975
886.721	0.0166130
886.799	0.0164639
886.878	0.0166351
886.956	0.0166607
887.034	0.0165253
887.112	0.0166486
887.190	0.0166492
887.268	0.0166672
887.346	0.0164754
887.424	0.0166316
887.503	0.0165933
887.581	0.0166290
887.659	0.0165627
887.737	0.0164893
887.815	0.0165186
887.893	0.0163206
887.971	0.0163443
888.049	0.0163848
888.128	0.0164229
888.206	0.0163886
888.284	0.0163064
888.362	0.0163436
888.440	0.0163855
888.518	0.0164268
888.596	0.0163544
888.674	0.0164484
888.753	0.0164485
888.831	0.0165134
888.909	0.0164412
888.987	0.0164327
889.065	0.0164796
889.143	0.0165166
889.221	0.0165841
889.299	0.0164885
889.378	0.0166028
889.456	0.0166425
889.534	0.0166099
889.612	0.0165474
889.690	0.0166221
889.768	0.0167329
889.846	0.0167083
889.924	0.0167281
890.003	0.0166051
890.081	0.0165340
890.159	0.0166871
890.237	0.0165469
890.315	0.0166084
890.393	0.0165386
890.471	0.0165565
890.549	0.0166941
890.628	0.0164571
890.706	0.0166270
890.784	0.0164177
890.862	0.0165327
890.940	0.0165781
891.018	0.0166096
891.096	0.0165112
891.174	0.0165591
891.253	0.0165891
891.331	0.0164218
891.409	0.0165954
891.487	0.0165793
891.565	0.0165327
891.643	0.0164185
891.721	0.0165192
891.799	0.0165723
891.878	0.0164737
891.956	0.0164561
892.034	0.0164045
892.112	0.0163189
892.190	0.0165444
892.268	0.0165804
892.346	0.0165044
892.424	0.0164843
892.503	0.0165279
892.581	0.0165013
892.659	0.0164610
892.737	0.0164816
892.815	0.0167101
892.893	0.0165630
892.971	0.0165897
893.049	0.0166015
893.128	0.0166065
893.206	0.0165584
893.284	0.0165571
893.362	0.0165356
893.440	0.0165286
893.518	0.0166122
893.596	0.0165655
893.674	0.0165461
893.753	0.0164146
893.831	0.0165533
893.909	0.0166416
893.987	0.0165141
894.065	0.0166963
894.143	0.0166264
894.221	0.0167047
894.299	0.0165697
894.378	0.0165650
894.456	0.0164111
894.534	0.0165175
894.612	0.0166126
894.690	0.0164256
894.768	0.0165102
894.846	0.0165286
894.924	0.0165213
895.003	0.0164084
895.081	0.0164074
895.159	0.0165364
895.237	0.0163695
895.315	0.0165099
895.393	0.0165785
895.471	0.0164564
895.549	0.0165968
895.628	0.0165782
895.706	0.0166666
895.784	0.0163753
895.862	0.0163621
895.940	0.0163982
896.018	0.0165705
896.096	0.0165185
896.174	0.0165088
896.253	0.0165282
896.331	0.0165923
896.409	0.0164140
896.487	0.0164398
896.565	0.0166657
896.643	0.0165181
896.721	0.0164374
896.799	0.0163991
896.878	0.0166196
896.956	0.0165190
897.034	0.0165543
897.112	0.0165410
897.190	0.0165472
897.268	0.0166982
897.346	0.0165445
897.424	0.0164413
897.503	0.0165074
897.581	0.0164420
897.659	0.0165970
897.737	0.0166338
897.815	0.0165762
897.893	0.0165034
897.971	0.0165364
898.049	0.0165267
898.128	0.0165298
898.206	0.0165138
898.284	0.0167097
898.362	0.0165222
898.440	0.0163516
898.518	0.0164978
898.596	0.0165658
898.674	0.0164332
898.753	0.0164707
898.831	0.0165810
898.909	0.0163582
898.987	0.0163880
899.065	0.0163663
899.143	0.0163471
899.221	0.0163934
899.299	0.0162831
899.378	0.0163458
899.456	0.0163969
899.534	0.0165145
899.612	0.0162857
899.690	0.0164703
899.768	0.0164966
899.846	0.0166341
899.924	0.0165473
900.003	0.0165414
900.081	0.0166225
900.159	0.0165326
900.237	0.0165454
900.315	0.0166647
900.393	0.0166893
900.471	0.0167783
900.549	0.0167659
900.628	0.0167459
900.706	0.0166968
900.784	0.0166759
900.862	0.0166679
900.940	0.0166245
901.018	0.0167078
901.096	0.0167452
901.174	0.0164838
901.253	0.0165402
901.331	0.0166051
901.409	0.0165585
901.487	0.0165288
901.565	0.0164876
901.643	0.0165897
901.721	0.0164586
901.799	0.0165612
901.878	0.0164619
901.956	0.0164909
902.034	0.0165364
902.112	0.0164407
902.190	0.0164147
902.268	0.0164928
902.346	0.0165319
902.424	0.0165139
902.503	0.0164047
902.581	0.0164942
902.659	0.0164245
902.737	0.0165972
902.815	0.0165730
902.893	0.0165149
902.971	0.0165419
903.049	0.0166058
903.128	0.0166180
903.206	0.0165006
903.284	0.0165667
903.362	0.0163950
903.440	0.0164780
903.518	0.0164349
903.596	0.0164415
903.674	0.0166108
903.753	0.0166006
903.831	0.0166478
903.909	0.0165395
903.987	0.0165361
904.065	0.0165623
904.143	0.0165717
904.221	0.0164979
904.299	0.0165173
904.378	0.0165771
904.456	0.0164994
904.534	0.0165443
904.612	0.0165575
904.690	0.0164294
904.768	0.0164514
904.846	0.0165160
904.924	0.0165356
905.003	0.0165086
905.081	0.0164639
905.159	0.0165751
905.237	0.0163790
905.315	0.0165108
905.393	0.0165260
905.471	0.0165922
905.549	0.0165804
905.628	0.0164378
905.706	0.0163618
905.784	0.0164001
905.862	0.0165481
905.940	0.0166935
906.018	0.0165026
906.096	0.0164435
906.174	0.0165545
906.253	0.0166077
906.331	0.0165575
906.409	0.0165566
906.487	0.0165292
906.565	0.0166791
906.643	0.0166620
906.721	0.0165787
906.799	0.0165958
906.878	0.0164243
906.956	0.0165496
907.034	0.0167321
907.112	0.0166978
907.190	0.0165532
907.268	0.0165790
907.346	0.0165993
907.424	0.0164900
907.503	0.0165003
907.581	0.0164735
907.659	0.0164272
907.737	0.0164970
907.815	0.0164498
907.893	0.0164935
907.971	0.0165204
908.049	0.0165089
908.128	0.0164407
908.206	0.0164921
908.284	0.0164528
908.362	0.0163065
908.440	0.0164259
908.518	0.0164793
908.596	0.0165587
908.674	0.0165496
908.753	0.0165344
908.831	0.0165587
908.909	0.0164507
908.987	0.0165174
909.065	0.0166343
909.143	0.0165604
909.221	0.0165943
909.299	0.0165790
909.378	0.0165698
909.456	0.0164590
909.534	0.0164458
909.612	0.0164609
909.690	0.0164713
909.768	0.0164938
909.846	0.0165194
909.924	0.0165629
910.003	0.0166656
910.081	0.0164182
910.159	0.0164822
910.237	0.0165035
910.315	0.0164745
910.393	0.0165396
910.471	0.0164414
910.549	0.0163838
910.628	0.0166085
910.706	0.0166576
910.784	0.0165793
910.862	0.0162706
910.940	0.0164490
911.018	0.0163522
911.096	0.0164481
911.174	0.0166547
911.253	0.0165506
911.331	0.0165362
911.409	0.0166503
911.487	0.0166126
911.565	0.0166296
911.643	0.0166164
911.721	0.0167760
911.799	0.0167079
911.878	0.0166101
911.956	0.0168060
912.034	0.0167120
912.112	0.0167030
912.190	0.0165881
912.268	0.0164197
912.346	0.0165538
912.424	0.0164172
912.503	0.0163262
912.581	0.0163328
912.659	0.0163654
912.737	0.0163536
912.815	0.0162787
912.893	0.0162997
912.971	0.0164407
913.049	0.0164001
913.128	0.0163319
913.206	0.0165118
913.284	0.0164555
913.362	0.0165220
913.440	0.0166663
913.518	0.0164397
913.596	0.0165151
913.674	0.0164070
913.753	0.0165163
913.831	0.0166149
913.909	0.0166601
913.987	0.0167033
914.065	0.0166038
914.143	0.0166333
914.221	0.0167767
914.299	0.0170106
914.378	0.0167393
914.456	0.0166812
914.534	0.0169634
914.612	0.0168370
914.690	0.0168860
914.768	0.0168875
914.846	0.0167916
914.924	0.0166938
915.003	0.0167461
915.081	0.0165965
915.159	0.0164175
915.237	0.0163858
915.315	0.0163318
915.393	0.0162492
915.471	0.0163079
915.549	0.0163403
915.628	0.0161649
915.706	0.0161317
915.784	0.0163219
915.862	0.0161834
915.940	0.0162057
916.018	0.0162304
916.096	0.0162029
916.174	0.0161214
916.253	0.0161876
916.331	0.0162949
916.409	0.0162388
916.487	0.0163579
916.565	0.0162738
916.643	0.0163343
916.721	0.0163020
916.799	0.0162836
916.878	0.0164726
916.956	0.0165231
917.034	0.0167523
917.112	0.0168116
917.190	0.0166436
917.268	0.0168423
917.346	0.0169180
917.424	0.0170421
917.503	0.0170712
917.581	0.0169454
917.659	0.0171140
917.737	0.0170912
917.815	0.0169853
917.893	0.0169572
917.971	0.0168167
918.049	0.0166972
918.128	0.0167571
918.206	0.0164648
918.284	0.0165392
918.362	0.0163682
918.440	0.0162315
918.518	0.0162816
918.596	0.0161174
918.674	0.0160772
918.753	0.0159924
918.831	0.0159120
918.909	0.0160752
918.987	0.0160926
919.065	0.0161401
919.143	0.0160227
919.221	0.0162210
919.299	0.0163634
919.378	0.0162769
919.456	0.0162980
919.534	0.0164272
919.612	0.0164433
919.690	0.0165579
919.768	0.0165865
919.846	0.0165460
919.924	0.0166171
920.003	0.0165633
920.081	0.0166665
920.159	0.0166846
920.237	0.0167763
920.315	0.0165804
920.393	0.0166240
920.471	0.0167300
920.549	0.0166856
920.628	0.0165784
920.706	0.0166682
920.784	0.0167976
920.862	0.0166144
920.940	0.0168245
921.018	0.0168011
921.096	0.0166405
921.174	0.0167813
921.253	0.0168120
921.331	0.0164730
921.409	0.0164476
921.487	0.0166405
921.565	0.0165442
921.643	0.0164381
921.721	0.0164342
921.799	0.0165779
921.878	0.0163339
921.956	0.0163657
922.034	0.0163239
922.112	0.0163979
922.190	0.0162627
922.268	0.0163622
922.346	0.0165265
922.424	0.0163732
922.503	0.0163150
922.581	0.0163020
922.659	0.0163913
922.737	0.0164424
922.815	0.0163720
922.893	0.0163499
922.971	0.0164216
923.049	0.0163313
923.128	0.0163621
923.206	0.0162749
923.284	0.0163369
923.362	0.0164382
923.440	0.0163504
923.518	0.0164185
923.596	0.0164594
923.674	0.0165923
923.753	0.0163604
923.831	0.0165886
923.909	0.0165456
923.987	0.0164763
924.065	0.0166390
924.143	0.0166756
924.221	0.0167398
924.299	0.0167303
924.378	0.0167189
924.456	0.0166816
924.534	0.0166348
924.612	0.0165833
924.690	0.0166354
924.768	0.0165070
924.846	0.0164861
924.924	0.0165128
925.003	0.0166125
925.081	0.0164278
925.159	0.0165015
925.237	0.0164339
925.315	0.0164342
925.393	0.0164490
925.471	0.0164766
925.549	0.0165086
925.628	0.0165128
925.706	0.0166403
925.784	0.0167428
925.862	0.0166956
925.940	0.0166602
926.018	0.0166835
926.096	0.0167881
926.174	0.0166960
926.253	0.0166398
926.331	0.0165978
926.409	0.0165462
926.487	0.0165668
926.565	0.0165563
926.643	0.0166122
926.721	0.0163213
926.799	0.0164484
926.878	0.0164201
926.956	0.0161977
927.034	0.0162689
927.112	0.0164124
927.190	0.0162694
927.268	0.0162643
927.346	0.0162506
927.424	0.0164574
927.503	0.0164771
927.581	0.0165258
927.659	0.0165949
927.737	0.0166264
927.815	0.0167783
927.893	0.0167747
927.971	0.0165187
928.049	0.0166485
928.128	0.0167770
928.206	0.0167313
928.284	0.0165918
928.362	0.0166114
928.440	0.0165475
928.518	0.0166543
928.596	0.0167041
928.674	0.0167010
928.753	0.0165333
928.831	0.0166058
928.909	0.0164465
928.987	0.0165549
929.065	0.0166167
929.143	0.0164676
929.221	0.0164971
929.299	0.0164751
929.378	0.0164055
929.456	0.0163329
929.534	0.0164867
929.612	0.0163091
929.690	0.0164010
929.768	0.0164368
929.846	0.0164037
929.924	0.0164756
930.003	0.0164131
930.081	0.0163929
930.159	0.0164999
930.237	0.0164536
930.315	0.0164965
930.393	0.0164783
930.471	0.0165722
930.549	0.0165665
930.628	0.0165516
930.706	0.0166203
930.784	0.0165920
930.862	0.0165102
930.940	0.0166369
931.018	0.0165430
931.096	0.0166293
931.174	0.0165984
931.253	0.0165781
931.331	0.0164079
931.409	0.0165238
931.487	0.0165321
931.565	0.0164800
931.643	0.0166464
931.721	0.0166496
931.799	0.0166685
931.878	0.0166864
931.956	0.0165762
932.034	0.0165654
932.112	0.0166112
932.190	0.0166371
932.268	0.0166878
932.346	0.0164625
932.424	0.0165749
932.503	0.0166413
932.581	0.0166363
932.659	0.0164284
932.737	0.0163301
932.815	0.0164598
932.893	0.0164515
932.971	0.0163873
933.049	0.0163424
933.128	0.0164494
933.206	0.0164495
933.284	0.0163841
933.362	0.0164169
933.440	0.0164419
933.518	0.0165120
933.596	0.0165363
933.674	0.0166378
933.753	0.0165730
933.831	0.0165495
933.909	0.0166220
933.987	0.0165469
934.065	0.0165977
934.143	0.0164375
934.221	0.0163707
934.299	0.0165486
934.378	0.0164769
934.456	0.0165775
934.534	0.0165841
934.612	0.0164698
934.690	0.0165187
934.768	0.0165631
934.846	0.0165755
934.924	0.0166759
935.003	0.0165059
935.081	0.0165634
935.159	0.0164972
935.237	0.0164672
935.315	0.0165507
935.393	0.0164896
935.471	0.0165038
935.549	0.0164600
935.628	0.0164124
935.706	0.0165551
935.784	0.0167181
935.862	0.0166494
935.940	0.0164844
936.018	0.0164233
936.096	0.0166723
936.174	0.0165996
936.253	0.0167396
936.331	0.0166358
936.409	0.0165313
936.487	0.0165401
936.565	0.0165097
936.643	0.0165331
936.721	0.0164429
936.799	0.0163976
936.878	0.0164840
936.956	0.0163555
937.034	0.0163622
937.112	0.0164398
937.190	0.0163921
937.268	0.0165537
937.346	0.0163977
937.424	0.0163645
937.503	0.0164866
937.581	0.0163760
937.659	0.0165315
937.737	0.0164616
937.815	0.0166245
937.893	0.0165786
937.971	0.0165996
938.049	0.0165553
938.128	0.0164500
938.206	0.0165236
938.284	0.0165877
938.362	0.0165682
938.440	0.0166373
938.518	0.0165842
938.596	0.0164965
938.674	0.0166293
938.753	0.0165586
938.831	0.0166364
938.909	0.0166512
938.987	0.0165397
939.065	0.0165941
939.143	0.0166231
939.221	0.0165345
939.299	0.0165377
939.378	0.0164839
939.456	0.0166278
939.534	0.0166084
939.612	0.0164079
939.690	0.0164269
939.768	0.0165707
939.846	0.0165824
939.924	0.0164953
940.003	0.0163848
940.081	0.0165645
940.159	0.0164811
940.237	0.0163459
940.315	0.0164430
940.393	0.0166209
940.471	0.0164352
940.549	0.0164623
940.628	0.0164674
940.706	0.0165501
940.784	0.0163809
940.862	0.0165862
940.940	0.0165085
941.018	0.0164672
941.096	0.0164957
941.174	0.0164978
941.253	0.0167143
941.331	0.0166354
941.409	0.0165226
941.487	0.0165823
941.565	0.0166152
941.643	0.0165780
941.721	0.0165993
941.799	0.0166512
941.878	0.0165341
941.956	0.0163532
942.034	0.0165154
942.112	0.0165511
942.190	0.0164294
942.268	0.0164825
942.346	0.0165237
942.424	0.0166417
942.503	0.0165179
942.581	0.0163902
942.659	0.0165661
942.737	0.0164500
942.815	0.0165302
942.893	0.0166083
942.971	0.0165180
943.049	0.0163744
943.128	0.0166642
943.206	0.0165182
943.284	0.0165041
943.362	0.0164625
943.440	0.0164965
943.518	0.0163458
943.596	0.0163404
943.674	0.0165079
943.753	0.0164515
943.831	0.0164719
943.909	0.0164619
943.987	0.0163983
944.065	0.0165370
944.143	0.0164256
944.221	0.0163841
944.299	0.0165340
944.378	0.0165245
944.456	0.0166386
944.534	0.0164765
944.612	0.0165816
944.690	0.0165961
944.768	0.0166505
944.846	0.0165255
944.924	0.0166228
945.003	0.0166798
945.081	0.0166579
945.159	0.0166302
945.237	0.0167585
945.315	0.0166492
945.393	0.0166168
945.471	0.0166338
945.549	0.0166730
945.628	0.0166405
945.706	0.0167115
945.784	0.0166900
945.862	0.0165403
945.940	0.0166177
946.018	0.0166192
946.096	0.0165031
946.174	0.0166177
946.253	0.0166682
946.331	0.0165131
946.409	0.0166801
946.487	0.0167108
946.565	0.0166277
946.643	0.0166554
946.721	0.0165869
946.799	0.0165359
946.878	0.0165503
946.956	0.0165678
947.034	0.0165381
947.112	0.0164983
947.190	0.0166188
947.268	0.0162941
947.346	0.0165080
947.424	0.0166578
947.503	0.0165419
947.581	0.0164604
947.659	0.0164249
947.737	0.0164246
947.815	0.0164539
947.893	0.0164957
947.971	0.0164135
948.049	0.0163276
948.128	0.0164807
948.206	0.0163515
948.284	0.0164933
948.362	0.0166521
948.440	0.0165883
948.518	0.0164997
948.596	0.0164832
948.674	0.0165475
948.753	0.0166531
948.831	0.0165973
948.909	0.0164926
948.987	0.0163872
949.065	0.0166322
949.143	0.0166043
949.221	0.0165704
949.299	0.0164330
949.378	0.0165948
949.456	0.0165320
949.534	0.0164663
949.612	0.0166520
949.690	0.0165568
949.768	0.0166190
949.846	0.0164658
949.924	0.0165145
