06/29/2022	22:50:40	Ver.	4.1	UNKNOWN
Optical Delay	630.002507	Delta X		0.078125	Sweeps	1	Scan Rate	0/0
Coordinates	Axis 1	NaN	Axis 2	NaN	Axis 3	NaN	Axis 4	NaN	Axis 5	NaN	Axis 6	0.000000
TX Power	0.000000	RX Power	0.000000

630.003	0.0158633
630.081	0.0159048
630.159	0.0158054
630.237	0.0159300
630.315	0.0158657
630.393	0.0159644
630.471	0.0158047
630.549	0.0158175
630.628	0.0159809
630.706	0.0158145
630.784	0.0158150
630.862	0.0158506
630.940	0.0157824
631.018	0.0157554
631.096	0.0157258
631.174	0.0158794
631.253	0.0158442
631.331	0.0158356
631.409	0.0157683
631.487	0.0158015
631.565	0.0158793
631.643	0.0159547
631.721	0.0159222
631.799	0.0157146
631.878	0.0159350
631.956	0.0157333
632.034	0.0158345
632.112	0.0158607
632.190	0.0159109
632.268	0.0159269
632.346	0.0158308
632.424	0.0158508
632.503	0.0159656
632.581	0.0158585
632.659	0.0158668
632.737	0.0158821
632.815	0.0159389
632.893	0.0158131
632.971	0.0158793
633.049	0.0157851
633.128	0.0159784
633.206	0.0158588
633.284	0.0158337
633.362	0.0158409
633.440	0.0158319
633.518	0.0158290
633.596	0.0159584
633.674	0.0158224
633.753	0.0157847
633.831	0.0158485
633.909	0.0158560
633.987	0.0159103
634.065	0.0159075
634.143	0.0158616
634.221	0.0157978
634.299	0.0158359
634.378	0.0157954
634.456	0.0158743
634.534	0.0158317
634.612	0.0158839
634.690	0.0156783
634.768	0.0157433
634.846	0.0158942
634.924	0.0158923
635.003	0.0158992
635.081	0.0159844
635.159	0.0158318
635.237	0.0159570
635.315	0.0158434
635.393	0.0157806
635.471	0.0158498
635.549	0.0159546
635.628	0.0158009
635.706	0.0158508
635.784	0.0158375
635.862	0.0158351
635.940	0.0159721
636.018	0.0158448
636.096	0.0158576
636.174	0.0158591
636.253	0.0158285
636.331	0.0158292
636.409	0.0158954
636.487	0.0158611
636.565	0.0158854
636.643	0.0157645
636.721	0.0160060
636.799	0.0158377
636.878	0.0158210
636.956	0.0159437
637.034	0.0158452
637.112	0.0158979
637.190	0.0158501
637.268	0.0159913
637.346	0.0159297
637.424	0.0157089
637.503	0.0159930
637.581	0.0158957
637.659	0.0159029
637.737	0.0157861
637.815	0.0159650
637.893	0.0158452
637.971	0.0159170
638.049	0.0158970
638.128	0.0160252
638.206	0.0159719
638.284	0.0158956
638.362	0.0158528
638.440	0.0158228
638.518	0.0158784
638.596	0.0159548
638.674	0.0158989
638.753	0.0158229
638.831	0.0159551
638.909	0.0159247
638.987	0.0158537
639.065	0.0158582
639.143	0.0159184
639.221	0.0156460
639.299	0.0157771
639.378	0.0159983
639.456	0.0159303
639.534	0.0158672
639.612	0.0159042
639.690	0.0159129
639.768	0.0159047
639.846	0.0157101
639.924	0.0158041
640.003	0.0157666
640.081	0.0158427
640.159	0.0158665
640.237	0.0158202
640.315	0.0159142
640.393	0.0158755
640.471	0.0158981
640.549	0.0157575
640.628	0.0158540
640.706	0.0159290
640.784	0.0159194
640.862	0.0159305
640.940	0.0159354
641.018	0.0158839
641.096	0.0158176
641.174	0.0157188
641.253	0.0159322
641.331	0.0159966
641.409	0.0159586
641.487	0.0159251
641.565	0.0158569
641.643	0.0158692
641.721	0.0159046
641.799	0.0158543
641.878	0.0156659
641.956	0.0158714
642.034	0.0158875
642.112	0.0157895
642.190	0.0159046
642.268	0.0159156
642.346	0.0158385
642.424	0.0156853
642.503	0.0157652
642.581	0.0157599
642.659	0.0158110
642.737	0.0158548
642.815	0.0157347
642.893	0.0159623
642.971	0.0158348
643.049	0.0158900
643.128	0.0158864
643.206	0.0158516
643.284	0.0156804
643.362	0.0157537
643.440	0.0158807
643.518	0.0158151
643.596	0.0157983
643.674	0.0159209
643.753	0.0158830
643.831	0.0159363
643.909	0.0159689
643.987	0.0158997
644.065	0.0159011
644.143	0.0159740
644.221	0.0158939
644.299	0.0157691
644.378	0.0158791
644.456	0.0158041
644.534	0.0157713
644.612	0.0159349
644.690	0.0159137
644.768	0.0159911
644.846	0.0159368
644.924	0.0158373
645.003	0.0158120
645.081	0.0158262
645.159	0.0157587
645.237	0.0158598
645.315	0.0157333
645.393	0.0158344
645.471	0.0160636
645.549	0.0158514
645.628	0.0157240
645.706	0.0158377
645.784	0.0158513
645.862	0.0158360
645.940	0.0158389
646.018	0.0158121
646.096	0.0158582
646.174	0.0159074
646.253	0.0159538
646.331	0.0157805
646.409	0.0157623
646.487	0.0160233
646.565	0.0158590
646.643	0.0158701
646.721	0.0158692
646.799	0.0160027
646.878	0.0158325
646.956	0.0159247
647.034	0.0158841
647.112	0.0159907
647.190	0.0158149
647.268	0.0159425
647.346	0.0158772
647.424	0.0159676
647.503	0.0157780
647.581	0.0157591
647.659	0.0160236
647.737	0.0159461
647.815	0.0157553
647.893	0.0158637
647.971	0.0159109
648.049	0.0158849
648.128	0.0158795
648.206	0.0159464
648.284	0.0158212
648.362	0.0158756
648.440	0.0158937
648.518	0.0158450
648.596	0.0159163
648.674	0.0158509
648.753	0.0157230
648.831	0.0159127
648.909	0.0158322
648.987	0.0158297
649.065	0.0159033
649.143	0.0158464
649.221	0.0157528
649.299	0.0157616
649.378	0.0157548
649.456	0.0158266
649.534	0.0157433
649.612	0.0158867
649.690	0.0158549
649.768	0.0158925
649.846	0.0158698
649.924	0.0157444
650.003	0.0157906
650.081	0.0157705
650.159	0.0157967
650.237	0.0158364
650.315	0.0159665
650.393	0.0158414
650.471	0.0158989
650.549	0.0158722
650.628	0.0158177
650.706	0.0159079
650.784	0.0159618
650.862	0.0158907
650.940	0.0158681
651.018	0.0159478
651.096	0.0159288
651.174	0.0160789
651.253	0.0160020
651.331	0.0158899
651.409	0.0157563
651.487	0.0158153
651.565	0.0158237
651.643	0.0160007
651.721	0.0158808
651.799	0.0157860
651.878	0.0158942
651.956	0.0158448
652.034	0.0158762
652.112	0.0157792
652.190	0.0158054
652.268	0.0158687
652.346	0.0157756
652.424	0.0158703
652.503	0.0158925
652.581	0.0160211
652.659	0.0158685
652.737	0.0157952
652.815	0.0158441
652.893	0.0159204
652.971	0.0158753
653.049	0.0158685
653.128	0.0158152
653.206	0.0157263
653.284	0.0159036
653.362	0.0157729
653.440	0.0158704
653.518	0.0159561
653.596	0.0158775
653.674	0.0157656
653.753	0.0159706
653.831	0.0158137
653.909	0.0157677
653.987	0.0158577
654.065	0.0158104
654.143	0.0158183
654.221	0.0158129
654.299	0.0159567
654.378	0.0158858
654.456	0.0158173
654.534	0.0159071
654.612	0.0159414
654.690	0.0158334
654.768	0.0157401
654.846	0.0159145
654.924	0.0159319
655.003	0.0159341
655.081	0.0159899
655.159	0.0159810
655.237	0.0158589
655.315	0.0159314
655.393	0.0157950
655.471	0.0157966
655.549	0.0158507
655.628	0.0157979
655.706	0.0157648
655.784	0.0158079
655.862	0.0157703
655.940	0.0158545
656.018	0.0158741
656.096	0.0158640
656.174	0.0157931
656.253	0.0158277
656.331	0.0158235
656.409	0.0158584
656.487	0.0158355
656.565	0.0157687
656.643	0.0158764
656.721	0.0157886
656.799	0.0159274
656.878	0.0158734
656.956	0.0157832
657.034	0.0159909
657.112	0.0158808
657.190	0.0158639
657.268	0.0158446
657.346	0.0159662
657.424	0.0157771
657.503	0.0158981
657.581	0.0159304
657.659	0.0158069
657.737	0.0157236
657.815	0.0157580
657.893	0.0159406
657.971	0.0158734
658.049	0.0157851
658.128	0.0157418
658.206	0.0158509
658.284	0.0159826
658.362	0.0159292
658.440	0.0159874
658.518	0.0157495
658.596	0.0159174
658.674	0.0158329
658.753	0.0158942
658.831	0.0158353
658.909	0.0158926
658.987	0.0158192
659.065	0.0158538
659.143	0.0159808
659.221	0.0159071
659.299	0.0158656
659.378	0.0158868
659.456	0.0158136
659.534	0.0158796
659.612	0.0158893
659.690	0.0159852
659.768	0.0159483
659.846	0.0159240
659.924	0.0158620
660.003	0.0157961
660.081	0.0158050
660.159	0.0159772
660.237	0.0157734
660.315	0.0158157
660.393	0.0158842
660.471	0.0159220
660.549	0.0158538
660.628	0.0158771
660.706	0.0159505
660.784	0.0157899
660.862	0.0158440
660.940	0.0157622
661.018	0.0158724
661.096	0.0158377
661.174	0.0158427
661.253	0.0158309
661.331	0.0157932
661.409	0.0159614
661.487	0.0159479
661.565	0.0158395
661.643	0.0158868
661.721	0.0158251
661.799	0.0158090
661.878	0.0159252
661.956	0.0157278
662.034	0.0160093
662.112	0.0157748
662.190	0.0157539
662.268	0.0160098
662.346	0.0158831
662.424	0.0157854
662.503	0.0158401
662.581	0.0158104
662.659	0.0159101
662.737	0.0158629
662.815	0.0157898
662.893	0.0157939
662.971	0.0157100
663.049	0.0157298
663.128	0.0158897
663.206	0.0159657
663.284	0.0158002
663.362	0.0158556
663.440	0.0159029
663.518	0.0158871
663.596	0.0157394
663.674	0.0158046
663.753	0.0158867
663.831	0.0159287
663.909	0.0157933
663.987	0.0158073
664.065	0.0159588
664.143	0.0159344
664.221	0.0158314
664.299	0.0159013
664.378	0.0157874
664.456	0.0159954
664.534	0.0159287
664.612	0.0158855
664.690	0.0157510
664.768	0.0158523
664.846	0.0157719
664.924	0.0157638
665.003	0.0158023
665.081	0.0159001
665.159	0.0157795
665.237	0.0158470
665.315	0.0158002
665.393	0.0159480
665.471	0.0158549
665.549	0.0158218
665.628	0.0159244
665.706	0.0159092
665.784	0.0157480
665.862	0.0158696
665.940	0.0159009
666.018	0.0157870
666.096	0.0157984
666.174	0.0157927
666.253	0.0159141
666.331	0.0158373
666.409	0.0158407
666.487	0.0157365
666.565	0.0158052
666.643	0.0158707
666.721	0.0158784
666.799	0.0159189
666.878	0.0158649
666.956	0.0157842
667.034	0.0157595
667.112	0.0157866
667.190	0.0159776
667.268	0.0158500
667.346	0.0156842
667.424	0.0158211
667.503	0.0158910
667.581	0.0158443
667.659	0.0158131
667.737	0.0159429
667.815	0.0159319
667.893	0.0158166
667.971	0.0158611
668.049	0.0158436
668.128	0.0157606
668.206	0.0159725
668.284	0.0158686
668.362	0.0157869
668.440	0.0158533
668.518	0.0157339
668.596	0.0159023
668.674	0.0158081
668.753	0.0157825
668.831	0.0158543
668.909	0.0159235
668.987	0.0158611
669.065	0.0159725
669.143	0.0158085
669.221	0.0158945
669.299	0.0158669
669.378	0.0157820
669.456	0.0158757
669.534	0.0159127
669.612	0.0157810
669.690	0.0157026
669.768	0.0159127
669.846	0.0159402
669.924	0.0158537
670.003	0.0157208
670.081	0.0158446
670.159	0.0157378
670.237	0.0157644
670.315	0.0157806
670.393	0.0157950
670.471	0.0159391
670.549	0.0159206
670.628	0.0157983
670.706	0.0157780
670.784	0.0158395
670.862	0.0159283
670.940	0.0159100
671.018	0.0156976
671.096	0.0157619
671.174	0.0158357
671.253	0.0158306
671.331	0.0157035
671.409	0.0159592
671.487	0.0158831
671.565	0.0158657
671.643	0.0157265
671.721	0.0158021
671.799	0.0158975
671.878	0.0159354
671.956	0.0157410
672.034	0.0157912
672.112	0.0157090
672.190	0.0157835
672.268	0.0158957
672.346	0.0159087
672.424	0.0159283
672.503	0.0156033
672.581	0.0158327
672.659	0.0159305
672.737	0.0158026
672.815	0.0159224
672.893	0.0157699
672.971	0.0157458
673.049	0.0158539
673.128	0.0157872
673.206	0.0155878
673.284	0.0157472
673.362	0.0157201
673.440	0.0158644
673.518	0.0158170
673.596	0.0158039
673.674	0.0158404
673.753	0.0158000
673.831	0.0158218
673.909	0.0157980
673.987	0.0156493
674.065	0.0157686
674.143	0.0158433
674.221	0.0158180
674.299	0.0157329
674.378	0.0156988
674.456	0.0157590
674.534	0.0158765
674.612	0.0157819
674.690	0.0156831
674.768	0.0156853
674.846	0.0157660
674.924	0.0157929
675.003	0.0157103
675.081	0.0157289
675.159	0.0158241
675.237	0.0157823
675.315	0.0157761
675.393	0.0157506
675.471	0.0158094
675.549	0.0157767
675.628	0.0158427
675.706	0.0158350
675.784	0.0157444
675.862	0.0156419
675.940	0.0157860
676.018	0.0157877
676.096	0.0156586
676.174	0.0157618
676.253	0.0158350
676.331	0.0158607
676.409	0.0158408
676.487	0.0159120
676.565	0.0158114
676.643	0.0157137
676.721	0.0157210
676.799	0.0157996
676.878	0.0158560
676.956	0.0158859
677.034	0.0158492
677.112	0.0156872
677.190	0.0158105
677.268	0.0157323
677.346	0.0157733
677.424	0.0158937
677.503	0.0158318
677.581	0.0157227
677.659	0.0158282
677.737	0.0158530
677.815	0.0158029
677.893	0.0158368
677.971	0.0158132
678.049	0.0157541
678.128	0.0156446
678.206	0.0158405
678.284	0.0158185
678.362	0.0158774
678.440	0.0158115
678.518	0.0158102
678.596	0.0157655
678.674	0.0158058
678.753	0.0157780
678.831	0.0157986
678.909	0.0158662
678.987	0.0157520
679.065	0.0158544
679.143	0.0157677
679.221	0.0156796
679.299	0.0158132
679.378	0.0159953
679.456	0.0158635
679.534	0.0157723
679.612	0.0157153
679.690	0.0159217
679.768	0.0157382
679.846	0.0157477
679.924	0.0157911
680.003	0.0158633
680.081	0.0158429
680.159	0.0158683
680.237	0.0159097
680.315	0.0158659
680.393	0.0158299
680.471	0.0158920
680.549	0.0156776
680.628	0.0158051
680.706	0.0156773
680.784	0.0157391
680.862	0.0157509
680.940	0.0157906
681.018	0.0157597
681.096	0.0157821
681.174	0.0159035
681.253	0.0158136
681.331	0.0157581
681.409	0.0157993
681.487	0.0158012
681.565	0.0157020
681.643	0.0158888
681.721	0.0159299
681.799	0.0158891
681.878	0.0158714
681.956	0.0159259
682.034	0.0158257
682.112	0.0157327
682.190	0.0157949
682.268	0.0159341
682.346	0.0158868
682.424	0.0158326
682.503	0.0158505
682.581	0.0159038
682.659	0.0158958
682.737	0.0158576
682.815	0.0156868
682.893	0.0157639
682.971	0.0158845
683.049	0.0156280
683.128	0.0158322
683.206	0.0157692
683.284	0.0157434
683.362	0.0159168
683.440	0.0159012
683.518	0.0159040
683.596	0.0158008
683.674	0.0158782
683.753	0.0157261
683.831	0.0157468
683.909	0.0159250
683.987	0.0156109
684.065	0.0158377
684.143	0.0158118
684.221	0.0156873
684.299	0.0158008
684.378	0.0159276
684.456	0.0157827
684.534	0.0157192
684.612	0.0157932
684.690	0.0157749
684.768	0.0157731
684.846	0.0158110
684.924	0.0156454
685.003	0.0158399
685.081	0.0158500
685.159	0.0157833
685.237	0.0156638
685.315	0.0158611
685.393	0.0157076
685.471	0.0159190
685.549	0.0159749
685.628	0.0156648
685.706	0.0158112
685.784	0.0158189
685.862	0.0158018
685.940	0.0157916
686.018	0.0158459
686.096	0.0157288
686.174	0.0157935
686.253	0.0157682
686.331	0.0159664
686.409	0.0158074
686.487	0.0158225
686.565	0.0158109
686.643	0.0157835
686.721	0.0157180
686.799	0.0157217
686.878	0.0158421
686.956	0.0157290
687.034	0.0157407
687.112	0.0157351
687.190	0.0157948
687.268	0.0158426
687.346	0.0157943
687.424	0.0157552
687.503	0.0158389
687.581	0.0157437
687.659	0.0158600
687.737	0.0157815
687.815	0.0158853
687.893	0.0158415
687.971	0.0158306
688.049	0.0157890
688.128	0.0157002
688.206	0.0157516
688.284	0.0157922
688.362	0.0158091
688.440	0.0158258
688.518	0.0158195
688.596	0.0157948
688.674	0.0158172
688.753	0.0158183
688.831	0.0159579
688.909	0.0159782
688.987	0.0158182
689.065	0.0157681
689.143	0.0158442
689.221	0.0158788
689.299	0.0156388
689.378	0.0158048
689.456	0.0158778
689.534	0.0159232
689.612	0.0158409
689.690	0.0158127
689.768	0.0157910
689.846	0.0158578
689.924	0.0157600
690.003	0.0158109
690.081	0.0159388
690.159	0.0157915
690.237	0.0157703
690.315	0.0158645
690.393	0.0159601
690.471	0.0158520
690.549	0.0157409
690.628	0.0159299
690.706	0.0157601
690.784	0.0157355
690.862	0.0158190
690.940	0.0158911
691.018	0.0158525
691.096	0.0159260
691.174	0.0157861
691.253	0.0158241
691.331	0.0158170
691.409	0.0158123
691.487	0.0158683
691.565	0.0159433
691.643	0.0158927
691.721	0.0158521
691.799	0.0159524
691.878	0.0159000
691.956	0.0158016
692.034	0.0157373
692.112	0.0158839
692.190	0.0156709
692.268	0.0158752
692.346	0.0159089
692.424	0.0159161
692.503	0.0158817
692.581	0.0159066
692.659	0.0158528
692.737	0.0157112
692.815	0.0157879
692.893	0.0159457
692.971	0.0159073
693.049	0.0158530
693.128	0.0159041
693.206	0.0158981
693.284	0.0157696
693.362	0.0157318
693.440	0.0159153
693.518	0.0158218
693.596	0.0158710
693.674	0.0159059
693.753	0.0158321
693.831	0.0157441
693.909	0.0157609
693.987	0.0158155
694.065	0.0158755
694.143	0.0158204
694.221	0.0157777
694.299	0.0159051
694.378	0.0158887
694.456	0.0158443
694.534	0.0159158
694.612	0.0157914
694.690	0.0157487
694.768	0.0158772
694.846	0.0157840
694.924	0.0157605
695.003	0.0158450
695.081	0.0157738
695.159	0.0157280
695.237	0.0159763
695.315	0.0158679
695.393	0.0158265
695.471	0.0159415
695.549	0.0159231
695.628	0.0158708
695.706	0.0158958
695.784	0.0158321
695.862	0.0158978
695.940	0.0158951
696.018	0.0159168
696.096	0.0158708
696.174	0.0158212
696.253	0.0158941
696.331	0.0159224
696.409	0.0159771
696.487	0.0158028
696.565	0.0158799
696.643	0.0157658
696.721	0.0157935
696.799	0.0158908
696.878	0.0157379
696.956	0.0157682
697.034	0.0159105
697.112	0.0159579
697.190	0.0160199
697.268	0.0158195
697.346	0.0157741
697.424	0.0158966
697.503	0.0157918
697.581	0.0156816
697.659	0.0157789
697.737	0.0156483
697.815	0.0156631
697.893	0.0158111
697.971	0.0159470
698.049	0.0157623
698.128	0.0157285
698.206	0.0158945
698.284	0.0157888
698.362	0.0157927
698.440	0.0159371
698.518	0.0158120
698.596	0.0158113
698.674	0.0157510
698.753	0.0157716
698.831	0.0158652
698.909	0.0159288
698.987	0.0156876
699.065	0.0157792
699.143	0.0158749
699.221	0.0158848
699.299	0.0158533
699.378	0.0157589
699.456	0.0157797
699.534	0.0157674
699.612	0.0157881
699.690	0.0158894
699.768	0.0157629
699.846	0.0157843
699.924	0.0158755
700.003	0.0158804
700.081	0.0157605
700.159	0.0158351
700.237	0.0159810
700.315	0.0157779
700.393	0.0158456
700.471	0.0157552
700.549	0.0156975
700.628	0.0158984
700.706	0.0158446
700.784	0.0157103
700.862	0.0159237
700.940	0.0157658
701.018	0.0157317
701.096	0.0158987
701.174	0.0158885
701.253	0.0157904
701.331	0.0158209
701.409	0.0159863
701.487	0.0158017
701.565	0.0158143
701.643	0.0158807
701.721	0.0159399
701.799	0.0158635
701.878	0.0156255
701.956	0.0158843
702.034	0.0159400
702.112	0.0157242
702.190	0.0159361
702.268	0.0157927
702.346	0.0158579
702.424	0.0157967
702.503	0.0158263
702.581	0.0158556
702.659	0.0159196
702.737	0.0159340
702.815	0.0158371
702.893	0.0158181
702.971	0.0158148
703.049	0.0157184
703.128	0.0157914
703.206	0.0158102
703.284	0.0160099
703.362	0.0159645
703.440	0.0158824
703.518	0.0158438
703.596	0.0159028
703.674	0.0158997
703.753	0.0159250
703.831	0.0158049
703.909	0.0158831
703.987	0.0157484
704.065	0.0158595
704.143	0.0158438
704.221	0.0156747
704.299	0.0157764
704.378	0.0159332
704.456	0.0157451
704.534	0.0160018
704.612	0.0158926
704.690	0.0158129
704.768	0.0159011
704.846	0.0157335
704.924	0.0158944
705.003	0.0158060
705.081	0.0157536
705.159	0.0157920
705.237	0.0157201
705.315	0.0158566
705.393	0.0156694
705.471	0.0155904
705.549	0.0158724
705.628	0.0158607
705.706	0.0157719
705.784	0.0155784
705.862	0.0157063
705.940	0.0157734
706.018	0.0158390
706.096	0.0156982
706.174	0.0156845
706.253	0.0157732
706.331	0.0156382
706.409	0.0158736
706.487	0.0156669
706.565	0.0156889
706.643	0.0158208
706.721	0.0158654
706.799	0.0157591
706.878	0.0158150
706.956	0.0158295
707.034	0.0157988
707.112	0.0157640
707.190	0.0158768
707.268	0.0156861
707.346	0.0159112
707.424	0.0159754
707.503	0.0158822
707.581	0.0159412
707.659	0.0158347
707.737	0.0158932
707.815	0.0159547
707.893	0.0159049
707.971	0.0157758
708.049	0.0158687
708.128	0.0159349
708.206	0.0158574
708.284	0.0159517
708.362	0.0159209
708.440	0.0159501
708.518	0.0159251
708.596	0.0158912
708.674	0.0159474
708.753	0.0160482
708.831	0.0159220
708.909	0.0158724
708.987	0.0159382
709.065	0.0157784
709.143	0.0158524
709.221	0.0157843
709.299	0.0158121
709.378	0.0159132
709.456	0.0157901
709.534	0.0157002
709.612	0.0157227
709.690	0.0157110
709.768	0.0157241
709.846	0.0158081
709.924	0.0158466
710.003	0.0158064
710.081	0.0158571
710.159	0.0158231
710.237	0.0157455
710.315	0.0158150
710.393	0.0158711
710.471	0.0157532
710.549	0.0157401
710.628	0.0157805
710.706	0.0157156
710.784	0.0156007
710.862	0.0157575
710.940	0.0156603
711.018	0.0157704
711.096	0.0157430
711.174	0.0156607
711.253	0.0157649
711.331	0.0156262
711.409	0.0156754
711.487	0.0158247
711.565	0.0157332
711.643	0.0157837
711.721	0.0158907
711.799	0.0159272
711.878	0.0160384
711.956	0.0159992
712.034	0.0160667
712.112	0.0161391
712.190	0.0159662
712.268	0.0158672
712.346	0.0158825
712.424	0.0159735
712.503	0.0157731
712.581	0.0157149
712.659	0.0156643
712.737	0.0155404
712.815	0.0155801
712.893	0.0154906
712.971	0.0155679
713.049	0.0157179
713.128	0.0158249
713.206	0.0159933
713.284	0.0159740
713.362	0.0160979
713.440	0.0162119
713.518	0.0162027
713.596	0.0161784
713.674	0.0162236
713.753	0.0159309
713.831	0.0160011
713.909	0.0159625
713.987	0.0157828
714.065	0.0155432
714.143	0.0154057
714.221	0.0153938
714.299	0.0151973
714.378	0.0152744
714.456	0.0154606
714.534	0.0154434
714.612	0.0155525
714.690	0.0155591
714.768	0.0159417
714.846	0.0159312
714.924	0.0160691
715.003	0.0161380
715.081	0.0163992
715.159	0.0162106
715.237	0.0163911
715.315	0.0162468
715.393	0.0164239
715.471	0.0163941
715.549	0.0161890
715.628	0.0161451
715.706	0.0159109
715.784	0.0156451
715.862	0.0157815
715.940	0.0156902
716.018	0.0155592
716.096	0.0156008
716.174	0.0155534
716.253	0.0157130
716.331	0.0157732
716.409	0.0159044
716.487	0.0158934
716.565	0.0160765
716.643	0.0162018
716.721	0.0162122
716.799	0.0163232
716.878	0.0161816
716.956	0.0161803
717.034	0.0161155
717.112	0.0160297
717.190	0.0159106
717.268	0.0157289
717.346	0.0156254
717.424	0.0154910
717.503	0.0155602
717.581	0.0154541
717.659	0.0154046
717.737	0.0154494
717.815	0.0154147
717.893	0.0154015
717.971	0.0154674
718.049	0.0156469
718.128	0.0155833
718.206	0.0157317
718.284	0.0158100
718.362	0.0158549
718.440	0.0159559
718.518	0.0158630
718.596	0.0158002
718.674	0.0159731
718.753	0.0159691
718.831	0.0160840
718.909	0.0159908
718.987	0.0161043
719.065	0.0160320
719.143	0.0160018
719.221	0.0160822
719.299	0.0160261
719.378	0.0159201
719.456	0.0160497
719.534	0.0159544
719.612	0.0158535
719.690	0.0159254
719.768	0.0159655
719.846	0.0159837
719.924	0.0160776
720.003	0.0163425
720.081	0.0163106
720.159	0.0164091
720.237	0.0164909
720.315	0.0166593
720.393	0.0168037
720.471	0.0168766
720.549	0.0169150
720.628	0.0167477
720.706	0.0165417
720.784	0.0162031
720.862	0.0158898
720.940	0.0156603
721.018	0.0153931
721.096	0.0150916
721.174	0.0147608
721.253	0.0144498
721.331	0.0140786
721.409	0.0139246
721.487	0.0137300
721.565	0.0137595
721.643	0.0136746
721.721	0.0137410
721.799	0.0138340
721.878	0.0141232
721.956	0.0142409
722.034	0.0146432
722.112	0.0150154
722.190	0.0153879
722.268	0.0157790
722.346	0.0162710
722.424	0.0165564
722.503	0.0170603
722.581	0.0175286
722.659	0.0179943
722.737	0.0182246
722.815	0.0183457
722.893	0.0185584
722.971	0.0185390
723.049	0.0181439
723.128	0.0180806
723.206	0.0179398
723.284	0.0176676
723.362	0.0170043
723.440	0.0167712
723.518	0.0164791
723.596	0.0161967
723.674	0.0159988
723.753	0.0158997
723.831	0.0156732
723.909	0.0156512
723.987	0.0156381
724.065	0.0156179
724.143	0.0155183
724.221	0.0155816
724.299	0.0155257
724.378	0.0156810
724.456	0.0155830
724.534	0.0154312
724.612	0.0152726
724.690	0.0148948
724.768	0.0145606
724.846	0.0141003
724.924	0.0136854
725.003	0.0133542
725.081	0.0128391
725.159	0.0125713
725.237	0.0123116
725.315	0.0122362
725.393	0.0122672
725.471	0.0125584
725.549	0.0129770
725.628	0.0135938
725.706	0.0140931
725.784	0.0149669
725.862	0.0155022
725.940	0.0162991
726.018	0.0172600
726.096	0.0177972
726.174	0.0183247
726.253	0.0186862
726.331	0.0192374
726.409	0.0194155
726.487	0.0194422
726.565	0.0194833
726.643	0.0193066
726.721	0.0190191
726.799	0.0188074
726.878	0.0184155
726.956	0.0181013
727.034	0.0178103
727.112	0.0172901
727.190	0.0171584
727.268	0.0168282
727.346	0.0167649
727.424	0.0167455
727.503	0.0165909
727.581	0.0164096
727.659	0.0164725
727.737	0.0163887
727.815	0.0161535
727.893	0.0158561
727.971	0.0155207
728.049	0.0151572
728.128	0.0148357
728.206	0.0143335
728.284	0.0140214
728.362	0.0135503
728.440	0.0132088
728.518	0.0128811
728.596	0.0125100
728.674	0.0122373
728.753	0.0120469
728.831	0.0118243
728.909	0.0120422
728.987	0.0121716
729.065	0.0124933
729.143	0.0126324
729.221	0.0130248
729.299	0.0134367
729.378	0.0139492
729.456	0.0146100
729.534	0.0150506
729.612	0.0156638
729.690	0.0159624
729.768	0.0165728
729.846	0.0170227
729.924	0.0175624
730.003	0.0179449
730.081	0.0184084
730.159	0.0188800
730.237	0.0191483
730.315	0.0194510
730.393	0.0198840
730.471	0.0198873
730.549	0.0200777
730.628	0.0199751
730.706	0.0199567
730.784	0.0196996
730.862	0.0193975
730.940	0.0191405
731.018	0.0187057
731.096	0.0183122
731.174	0.0177028
731.253	0.0171560
731.331	0.0165437
731.409	0.0159161
731.487	0.0154356
731.565	0.0150146
731.643	0.0144361
731.721	0.0139624
731.799	0.0136030
731.878	0.0135381
731.956	0.0133423
732.034	0.0131576
732.112	0.0130135
732.190	0.0131416
732.268	0.0131613
732.346	0.0132081
732.424	0.0132476
732.503	0.0132372
732.581	0.0131763
732.659	0.0131436
732.737	0.0130128
732.815	0.0128039
732.893	0.0129316
732.971	0.0129701
733.049	0.0130418
733.128	0.0131735
733.206	0.0135219
733.284	0.0139347
733.362	0.0143453
733.440	0.0149855
733.518	0.0155848
733.596	0.0162618
733.674	0.0168182
733.753	0.0175079
733.831	0.0181552
733.909	0.0188706
733.987	0.0194778
734.065	0.0197943
734.143	0.0203057
734.221	0.0206282
734.299	0.0207489
734.378	0.0207167
734.456	0.0206497
734.534	0.0204079
734.612	0.0201012
734.690	0.0193092
734.768	0.0186770
734.846	0.0179191
734.924	0.0170012
735.003	0.0162056
735.081	0.0155634
735.159	0.0148638
735.237	0.0143561
735.315	0.0136794
735.393	0.0132909
735.471	0.0131580
735.549	0.0129948
735.628	0.0128484
735.706	0.0130292
735.784	0.0132318
735.862	0.0133518
735.940	0.0135661
736.018	0.0138396
736.096	0.0141278
736.174	0.0142283
736.253	0.0144472
736.331	0.0145779
736.409	0.0146809
736.487	0.0145941
736.565	0.0144917
736.643	0.0144225
736.721	0.0144892
736.799	0.0144868
736.878	0.0144001
736.956	0.0144017
737.034	0.0145293
737.112	0.0148022
737.190	0.0149693
737.268	0.0150237
737.346	0.0154008
737.424	0.0157916
737.503	0.0161590
737.581	0.0165689
737.659	0.0168161
737.737	0.0171785
737.815	0.0175935
737.893	0.0180285
737.971	0.0183459
738.049	0.0186614
738.128	0.0186749
738.206	0.0188525
738.284	0.0189542
738.362	0.0188279
738.440	0.0186986
738.518	0.0186154
738.596	0.0185332
738.674	0.0181950
738.753	0.0177645
738.831	0.0175073
738.909	0.0171523
738.987	0.0166525
739.065	0.0161076
739.143	0.0158801
739.221	0.0155637
739.299	0.0149789
739.378	0.0147324
739.456	0.0144937
739.534	0.0141729
739.612	0.0139802
739.690	0.0138395
739.768	0.0137383
739.846	0.0136859
739.924	0.0138958
740.003	0.0138038
740.081	0.0138477
740.159	0.0140137
740.237	0.0142027
740.315	0.0144572
740.393	0.0145903
740.471	0.0149946
740.549	0.0151238
740.628	0.0151727
740.706	0.0157004
740.784	0.0158962
740.862	0.0158997
740.940	0.0160625
741.018	0.0161180
741.096	0.0161104
741.174	0.0160406
741.253	0.0161346
741.331	0.0163205
741.409	0.0162476
741.487	0.0162236
741.565	0.0160951
741.643	0.0159470
741.721	0.0160267
741.799	0.0159595
741.878	0.0161066
741.956	0.0160968
742.034	0.0159987
742.112	0.0160363
742.190	0.0163765
742.268	0.0163409
742.346	0.0163994
742.424	0.0164088
742.503	0.0165511
742.581	0.0166225
742.659	0.0164325
742.737	0.0164286
742.815	0.0164232
742.893	0.0161070
742.971	0.0161160
743.049	0.0160453
743.128	0.0159164
743.206	0.0160083
743.284	0.0157682
743.362	0.0156109
743.440	0.0157096
743.518	0.0155761
743.596	0.0157072
743.674	0.0156910
743.753	0.0155206
743.831	0.0157794
743.909	0.0157748
743.987	0.0157693
744.065	0.0158211
744.143	0.0158848
744.221	0.0157838
744.299	0.0159865
744.378	0.0159875
744.456	0.0159138
744.534	0.0158415
744.612	0.0161081
744.690	0.0160083
744.768	0.0161882
744.846	0.0161656
744.924	0.0162630
745.003	0.0162058
745.081	0.0162674
745.159	0.0160115
745.237	0.0160000
745.315	0.0160014
745.393	0.0158562
745.471	0.0157325
745.549	0.0155589
745.628	0.0153687
745.706	0.0153094
745.784	0.0150819
745.862	0.0150968
745.940	0.0149726
746.018	0.0149295
746.096	0.0149651
746.174	0.0150296
746.253	0.0149065
746.331	0.0151237
746.409	0.0151791
746.487	0.0153241
746.565	0.0153508
746.643	0.0154739
746.721	0.0155910
746.799	0.0155554
746.878	0.0157655
746.956	0.0157747
747.034	0.0158356
747.112	0.0158449
747.190	0.0157072
747.268	0.0157470
747.346	0.0155460
747.424	0.0156672
747.503	0.0155579
747.581	0.0156164
747.659	0.0155216
747.737	0.0156415
747.815	0.0157014
747.893	0.0157645
747.971	0.0159435
748.049	0.0161131
748.128	0.0163263
748.206	0.0164760
748.284	0.0167914
748.362	0.0170617
748.440	0.0171626
748.518	0.0170686
748.596	0.0171960
748.674	0.0173195
748.753	0.0173941
748.831	0.0170660
748.909	0.0171119
748.987	0.0168145
749.065	0.0165005
749.143	0.0165735
749.221	0.0161424
749.299	0.0159334
749.378	0.0157551
749.456	0.0157310
749.534	0.0156710
749.612	0.0153701
749.690	0.0152322
749.768	0.0152113
749.846	0.0152712
749.924	0.0151886
750.003	0.0150807
750.081	0.0150803
750.159	0.0151191
750.237	0.0150726
750.315	0.0151005
750.393	0.0149722
750.471	0.0149001
750.549	0.0150080
750.628	0.0150306
750.706	0.0150026
750.784	0.0150656
750.862	0.0150006
750.940	0.0151398
751.018	0.0151042
751.096	0.0153082
751.174	0.0153771
751.253	0.0155837
751.331	0.0155756
751.409	0.0156832
751.487	0.0158819
751.565	0.0160999
751.643	0.0161083
751.721	0.0160881
751.799	0.0162485
751.878	0.0162825
751.956	0.0162721
752.034	0.0163610
752.112	0.0164605
752.190	0.0163731
752.268	0.0163932
752.346	0.0162626
752.424	0.0163378
752.503	0.0161311
752.581	0.0160352
752.659	0.0161099
752.737	0.0161156
752.815	0.0159895
752.893	0.0159090
752.971	0.0160742
753.049	0.0159586
753.128	0.0157755
753.206	0.0157948
753.284	0.0158459
753.362	0.0156881
753.440	0.0157608
753.518	0.0158437
753.596	0.0159393
753.674	0.0158661
753.753	0.0158979
753.831	0.0158368
753.909	0.0158521
753.987	0.0160522
754.065	0.0160183
754.143	0.0159663
754.221	0.0159881
754.299	0.0159737
754.378	0.0160147
754.456	0.0161392
754.534	0.0161388
754.612	0.0161661
754.690	0.0162257
754.768	0.0161072
754.846	0.0161419
754.924	0.0162394
755.003	0.0161952
755.081	0.0160033
755.159	0.0159920
755.237	0.0160432
755.315	0.0158746
755.393	0.0157876
755.471	0.0157310
755.549	0.0155392
755.628	0.0155331
755.706	0.0155363
755.784	0.0155835
755.862	0.0155425
755.940	0.0153509
756.018	0.0152628
756.096	0.0153134
756.174	0.0155373
756.253	0.0156642
756.331	0.0155829
756.409	0.0157183
756.487	0.0155966
756.565	0.0155444
756.643	0.0157535
756.721	0.0158262
756.799	0.0157993
756.878	0.0157478
756.956	0.0157786
757.034	0.0156477
757.112	0.0158889
757.190	0.0159916
757.268	0.0159380
757.346	0.0159296
757.424	0.0159571
757.503	0.0159795
757.581	0.0157726
757.659	0.0158690
757.737	0.0158511
757.815	0.0156597
757.893	0.0157725
757.971	0.0155444
758.049	0.0157002
758.128	0.0156101
758.206	0.0155757
758.284	0.0155600
758.362	0.0154536
758.440	0.0154209
758.518	0.0154855
758.596	0.0154720
758.674	0.0154575
758.753	0.0155910
758.831	0.0157884
758.909	0.0158048
758.987	0.0160005
759.065	0.0161685
759.143	0.0161664
759.221	0.0162885
759.299	0.0163343
759.378	0.0164050
759.456	0.0165442
759.534	0.0165563
759.612	0.0167107
759.690	0.0166781
759.768	0.0166872
759.846	0.0165749
759.924	0.0168127
760.003	0.0167064
760.081	0.0165835
760.159	0.0165549
760.237	0.0164396
760.315	0.0162415
760.393	0.0160297
760.471	0.0160268
760.549	0.0159289
760.628	0.0156889
760.706	0.0156611
760.784	0.0156107
760.862	0.0155968
760.940	0.0155885
761.018	0.0153704
761.096	0.0154601
761.174	0.0152625
761.253	0.0152784
761.331	0.0154632
761.409	0.0153278
761.487	0.0153321
761.565	0.0154005
761.643	0.0151791
761.721	0.0154359
761.799	0.0153623
761.878	0.0152860
761.956	0.0154150
762.034	0.0152850
762.112	0.0154543
762.190	0.0154009
762.268	0.0155005
762.346	0.0154483
762.424	0.0156403
762.503	0.0158153
762.581	0.0157511
762.659	0.0157568
762.737	0.0157490
762.815	0.0157962
762.893	0.0158579
762.971	0.0159828
763.049	0.0159164
763.128	0.0159564
763.206	0.0157767
763.284	0.0159401
763.362	0.0160052
763.440	0.0160446
763.518	0.0161455
763.596	0.0160049
763.674	0.0161087
763.753	0.0161262
763.831	0.0159225
763.909	0.0161396
763.987	0.0159198
764.065	0.0158127
764.143	0.0158327
764.221	0.0157294
764.299	0.0158681
764.378	0.0159772
764.456	0.0158959
764.534	0.0158656
764.612	0.0159549
764.690	0.0158786
764.768	0.0158322
764.846	0.0159418
764.924	0.0159251
765.003	0.0159727
765.081	0.0160733
765.159	0.0160785
765.237	0.0159818
765.315	0.0160643
765.393	0.0160087
765.471	0.0160374
765.549	0.0158852
765.628	0.0159488
765.706	0.0159209
765.784	0.0161121
765.862	0.0158334
765.940	0.0157710
766.018	0.0157191
766.096	0.0157589
766.174	0.0155995
766.253	0.0157542
766.331	0.0156626
766.409	0.0154581
766.487	0.0154887
766.565	0.0154953
766.643	0.0154026
766.721	0.0153603
766.799	0.0153516
766.878	0.0155836
766.956	0.0155613
767.034	0.0155302
767.112	0.0158245
767.190	0.0157154
767.268	0.0156571
767.346	0.0156821
767.424	0.0157570
767.503	0.0159849
767.581	0.0162094
767.659	0.0162426
767.737	0.0161059
767.815	0.0161749
767.893	0.0163172
767.971	0.0162764
768.049	0.0162238
768.128	0.0161105
768.206	0.0161385
768.284	0.0160207
768.362	0.0158785
768.440	0.0156908
768.518	0.0158100
768.596	0.0157098
768.674	0.0157713
768.753	0.0158424
768.831	0.0155231
768.909	0.0157072
768.987	0.0156055
769.065	0.0156313
769.143	0.0155741
769.221	0.0156754
769.299	0.0155899
769.378	0.0155335
769.456	0.0155038
769.534	0.0156063
769.612	0.0156841
769.690	0.0156609
769.768	0.0155999
769.846	0.0155388
769.924	0.0154427
770.003	0.0155532
770.081	0.0155264
770.159	0.0154621
770.237	0.0156242
770.315	0.0156874
770.393	0.0154693
770.471	0.0156084
770.549	0.0157243
770.628	0.0157156
770.706	0.0158491
770.784	0.0160431
770.862	0.0159757
770.940	0.0160751
771.018	0.0160152
771.096	0.0161572
771.174	0.0162904
771.253	0.0164005
771.331	0.0164387
771.409	0.0165108
771.487	0.0166306
771.565	0.0166021
771.643	0.0165472
771.721	0.0163199
771.799	0.0164907
771.878	0.0164297
771.956	0.0163644
772.034	0.0162475
772.112	0.0160205
772.190	0.0159785
772.268	0.0158617
772.346	0.0158448
772.424	0.0156877
772.503	0.0156749
772.581	0.0156686
772.659	0.0156284
772.737	0.0155470
772.815	0.0154902
772.893	0.0156131
772.971	0.0154893
773.049	0.0154985
773.128	0.0156196
773.206	0.0157077
773.284	0.0155612
773.362	0.0156423
773.440	0.0157993
773.518	0.0157752
773.596	0.0156683
773.674	0.0157563
773.753	0.0158581
773.831	0.0156586
773.909	0.0157542
773.987	0.0157017
774.065	0.0157169
774.143	0.0156364
774.221	0.0157034
774.299	0.0156432
774.378	0.0156661
774.456	0.0155081
774.534	0.0157143
774.612	0.0157801
774.690	0.0156531
774.768	0.0156884
774.846	0.0158512
774.924	0.0157369
775.003	0.0158685
775.081	0.0159206
775.159	0.0161028
775.237	0.0160139
775.315	0.0161320
775.393	0.0162199
775.471	0.0161861
775.549	0.0162173
775.628	0.0161711
775.706	0.0161610
775.784	0.0160258
775.862	0.0160025
775.940	0.0159942
776.018	0.0158282
776.096	0.0158361
776.174	0.0159992
776.253	0.0159883
776.331	0.0160277
776.409	0.0158307
776.487	0.0159618
776.565	0.0160011
776.643	0.0159388
776.721	0.0160681
776.799	0.0159462
776.878	0.0160902
776.956	0.0159675
777.034	0.0159641
777.112	0.0159000
777.190	0.0158347
777.268	0.0158768
777.346	0.0158726
777.424	0.0157916
777.503	0.0155582
777.581	0.0155504
777.659	0.0156839
777.737	0.0155793
777.815	0.0153791
777.893	0.0154122
777.971	0.0154161
778.049	0.0155251
778.128	0.0154708
778.206	0.0154478
778.284	0.0155334
778.362	0.0154103
778.440	0.0154427
778.518	0.0156126
778.596	0.0157832
778.674	0.0158003
778.753	0.0158720
778.831	0.0158549
778.909	0.0159287
778.987	0.0159566
779.065	0.0160986
779.143	0.0160909
779.221	0.0160719
779.299	0.0161518
779.378	0.0161567
779.456	0.0162415
779.534	0.0162508
779.612	0.0162257
779.690	0.0162628
779.768	0.0163266
779.846	0.0163512
779.924	0.0161651
780.003	0.0162005
780.081	0.0160036
780.159	0.0159967
780.237	0.0160300
780.315	0.0159563
780.393	0.0160773
780.471	0.0159116
780.549	0.0158916
780.628	0.0158736
780.706	0.0158517
780.784	0.0156667
780.862	0.0157211
780.940	0.0155919
781.018	0.0155695
781.096	0.0156272
781.174	0.0154729
781.253	0.0154031
781.331	0.0153507
781.409	0.0152595
781.487	0.0151254
781.565	0.0151421
781.643	0.0151714
781.721	0.0151159
781.799	0.0151340
781.878	0.0151954
781.956	0.0153500
782.034	0.0153243
782.112	0.0154854
782.190	0.0155874
782.268	0.0155878
782.346	0.0157875
782.424	0.0160413
782.503	0.0161771
782.581	0.0162554
782.659	0.0165517
782.737	0.0166267
782.815	0.0167525
782.893	0.0167912
782.971	0.0167085
783.049	0.0167113
783.128	0.0166635
783.206	0.0166552
783.284	0.0165575
783.362	0.0164791
783.440	0.0163371
783.518	0.0163192
783.596	0.0162016
783.674	0.0161331
783.753	0.0159608
783.831	0.0159767
783.909	0.0158613
783.987	0.0158117
784.065	0.0157901
784.143	0.0157499
784.221	0.0157326
784.299	0.0157011
784.378	0.0157700
784.456	0.0158702
784.534	0.0156915
784.612	0.0157456
784.690	0.0156857
784.768	0.0159187
784.846	0.0157317
784.924	0.0156760
785.003	0.0155345
785.081	0.0155054
785.159	0.0154353
785.237	0.0154899
785.315	0.0153142
785.393	0.0151684
785.471	0.0152665
785.549	0.0152573
785.628	0.0151500
785.706	0.0153416
785.784	0.0152564
785.862	0.0151852
785.940	0.0153252
786.018	0.0155219
786.096	0.0155060
786.174	0.0157001
786.253	0.0157324
786.331	0.0158787
786.409	0.0160036
786.487	0.0160537
786.565	0.0161156
786.643	0.0162709
786.721	0.0162265
786.799	0.0162897
786.878	0.0163126
786.956	0.0163619
787.034	0.0163939
787.112	0.0163411
787.190	0.0162851
787.268	0.0162970
787.346	0.0161096
787.424	0.0160577
787.503	0.0160356
787.581	0.0161192
787.659	0.0161233
787.737	0.0160187
787.815	0.0158936
787.893	0.0157572
787.971	0.0159071
788.049	0.0158365
788.128	0.0158173
788.206	0.0156488
788.284	0.0158562
788.362	0.0159621
788.440	0.0158531
788.518	0.0159961
788.596	0.0160036
788.674	0.0159103
788.753	0.0159386
788.831	0.0159728
788.909	0.0158369
788.987	0.0157790
789.065	0.0157252
789.143	0.0157925
789.221	0.0155683
789.299	0.0155026
789.378	0.0155000
789.456	0.0154195
789.534	0.0154862
789.612	0.0151682
789.690	0.0153375
789.768	0.0154096
789.846	0.0155155
789.924	0.0152957
790.003	0.0153397
790.081	0.0155453
790.159	0.0154546
790.237	0.0157156
790.315	0.0158418
790.393	0.0158752
790.471	0.0158673
790.549	0.0161599
790.628	0.0161177
790.706	0.0162622
790.784	0.0164224
790.862	0.0163685
790.940	0.0164077
791.018	0.0163579
791.096	0.0164460
791.174	0.0163039
791.253	0.0162279
791.331	0.0161110
791.409	0.0161070
791.487	0.0162045
791.565	0.0160424
791.643	0.0160455
791.721	0.0158986
791.799	0.0158629
791.878	0.0158489
791.956	0.0158717
792.034	0.0157841
792.112	0.0157129
792.190	0.0155895
792.268	0.0157424
792.346	0.0156692
792.424	0.0157898
792.503	0.0157861
792.581	0.0154716
792.659	0.0155711
792.737	0.0155742
792.815	0.0156869
792.893	0.0156377
792.971	0.0153207
793.049	0.0154733
793.128	0.0153423
793.206	0.0154211
793.284	0.0154015
793.362	0.0154460
793.440	0.0153036
793.518	0.0153651
793.596	0.0152081
793.674	0.0152773
793.753	0.0154226
793.831	0.0156489
793.909	0.0155779
793.987	0.0156784
794.065	0.0157089
794.143	0.0157744
794.221	0.0157948
794.299	0.0160273
794.378	0.0162271
794.456	0.0161028
794.534	0.0161318
794.612	0.0161150
794.690	0.0161655
794.768	0.0162898
794.846	0.0162503
794.924	0.0163618
795.003	0.0161281
795.081	0.0162827
795.159	0.0162933
795.237	0.0161526
795.315	0.0160797
795.393	0.0162132
795.471	0.0159073
795.549	0.0158890
795.628	0.0159639
795.706	0.0159055
795.784	0.0159344
795.862	0.0158855
795.940	0.0157655
796.018	0.0158707
796.096	0.0158186
796.174	0.0157612
796.253	0.0158939
796.331	0.0157491
796.409	0.0158921
796.487	0.0158397
796.565	0.0159145
796.643	0.0160708
796.721	0.0158199
796.799	0.0158375
796.878	0.0158115
796.956	0.0158421
797.034	0.0158315
797.112	0.0158369
797.190	0.0157175
797.268	0.0156229
797.346	0.0156155
797.424	0.0154934
797.503	0.0155700
797.581	0.0155592
797.659	0.0156273
797.737	0.0155671
797.815	0.0155555
797.893	0.0155193
797.971	0.0155508
798.049	0.0157460
798.128	0.0157189
798.206	0.0157679
798.284	0.0158209
798.362	0.0159051
798.440	0.0158955
798.518	0.0160309
798.596	0.0159583
798.674	0.0159100
798.753	0.0159105
798.831	0.0160718
798.909	0.0160595
798.987	0.0160619
799.065	0.0159981
799.143	0.0159230
799.221	0.0160155
799.299	0.0159865
799.378	0.0159051
799.456	0.0159707
799.534	0.0158930
799.612	0.0159570
799.690	0.0160842
799.768	0.0159388
799.846	0.0159278
799.924	0.0160086
800.003	0.0159170
800.081	0.0158588
800.159	0.0159300
800.237	0.0159055
800.315	0.0158960
800.393	0.0158719
800.471	0.0159017
800.549	0.0158389
800.628	0.0158218
800.706	0.0158086
800.784	0.0157058
800.862	0.0158033
800.940	0.0157272
801.018	0.0155633
801.096	0.0156277
801.174	0.0157115
801.253	0.0156890
801.331	0.0155811
801.409	0.0156470
801.487	0.0157257
801.565	0.0156650
801.643	0.0157843
801.721	0.0156654
801.799	0.0155927
801.878	0.0156664
801.956	0.0156775
802.034	0.0158630
802.112	0.0158605
802.190	0.0158221
802.268	0.0158994
802.346	0.0158215
802.424	0.0159196
802.503	0.0158089
802.581	0.0160575
802.659	0.0159428
802.737	0.0160333
802.815	0.0159430
802.893	0.0160820
802.971	0.0160337
803.049	0.0161607
803.128	0.0160544
803.206	0.0161999
803.284	0.0162019
803.362	0.0161417
803.440	0.0161964
803.518	0.0162264
803.596	0.0161219
803.674	0.0160637
803.753	0.0161128
803.831	0.0161898
803.909	0.0159472
803.987	0.0158663
804.065	0.0159393
804.143	0.0158997
804.221	0.0158544
804.299	0.0156973
804.378	0.0156606
804.456	0.0157771
804.534	0.0157932
804.612	0.0157115
804.690	0.0155328
804.768	0.0154267
804.846	0.0157104
804.924	0.0154789
805.003	0.0154918
805.081	0.0156484
805.159	0.0154643
805.237	0.0155631
805.315	0.0155167
805.393	0.0155261
805.471	0.0156543
805.549	0.0155767
805.628	0.0155385
805.706	0.0155515
805.784	0.0156178
805.862	0.0157807
805.940	0.0159271
806.018	0.0158179
806.096	0.0158178
806.174	0.0159058
806.253	0.0159233
806.331	0.0159612
806.409	0.0160785
806.487	0.0159024
806.565	0.0158644
806.643	0.0160075
806.721	0.0160658
806.799	0.0161295
806.878	0.0160880
806.956	0.0162144
807.034	0.0160471
807.112	0.0161494
807.190	0.0161741
807.268	0.0160081
807.346	0.0162270
807.424	0.0161449
807.503	0.0160771
807.581	0.0162881
807.659	0.0161864
807.737	0.0159712
807.815	0.0159484
807.893	0.0160730
807.971	0.0159381
808.049	0.0159136
808.128	0.0157878
808.206	0.0157273
808.284	0.0155347
808.362	0.0156641
808.440	0.0155755
808.518	0.0156277
808.596	0.0155942
808.674	0.0155688
808.753	0.0154221
808.831	0.0154608
808.909	0.0156821
808.987	0.0155231
809.065	0.0154576
809.143	0.0154743
809.221	0.0154488
809.299	0.0157163
809.378	0.0158262
809.456	0.0156989
809.534	0.0157280
809.612	0.0159029
809.690	0.0159053
809.768	0.0158926
809.846	0.0159400
809.924	0.0159066
810.003	0.0159959
810.081	0.0158615
810.159	0.0159678
810.237	0.0161288
810.315	0.0161259
810.393	0.0161340
810.471	0.0160249
810.549	0.0160584
810.628	0.0160654
810.706	0.0159696
810.784	0.0160298
810.862	0.0160340
810.940	0.0159613
811.018	0.0157815
811.096	0.0159852
811.174	0.0158617
811.253	0.0158146
811.331	0.0157861
811.409	0.0157484
811.487	0.0158164
811.565	0.0157775
811.643	0.0158267
811.721	0.0157797
811.799	0.0157971
811.878	0.0157225
811.956	0.0157817
812.034	0.0157413
812.112	0.0155875
812.190	0.0157092
812.268	0.0155928
812.346	0.0157129
812.424	0.0155592
812.503	0.0156432
812.581	0.0156242
812.659	0.0155898
812.737	0.0155708
812.815	0.0156425
812.893	0.0156368
812.971	0.0157707
813.049	0.0155930
813.128	0.0155621
813.206	0.0155939
813.284	0.0156475
813.362	0.0157210
813.440	0.0156911
813.518	0.0157638
813.596	0.0158084
813.674	0.0157931
813.753	0.0159396
813.831	0.0160027
813.909	0.0159379
813.987	0.0161378
814.065	0.0161019
814.143	0.0160949
814.221	0.0159617
814.299	0.0160548
814.378	0.0160533
814.456	0.0161624
814.534	0.0159697
814.612	0.0159904
814.690	0.0159955
814.768	0.0158355
814.846	0.0159624
814.924	0.0159544
815.003	0.0159187
815.081	0.0158887
815.159	0.0160003
815.237	0.0158527
815.315	0.0157645
815.393	0.0159569
815.471	0.0158904
815.549	0.0159174
815.628	0.0159716
815.706	0.0157465
815.784	0.0158773
815.862	0.0158777
815.940	0.0158018
816.018	0.0158960
816.096	0.0158369
816.174	0.0158302
816.253	0.0158616
816.331	0.0157888
816.409	0.0157861
816.487	0.0157375
816.565	0.0157760
816.643	0.0158440
816.721	0.0158557
816.799	0.0157140
816.878	0.0156905
816.956	0.0158356
817.034	0.0157872
817.112	0.0157078
817.190	0.0155612
817.268	0.0157314
817.346	0.0157410
817.424	0.0156206
817.503	0.0155379
817.581	0.0156931
817.659	0.0157060
817.737	0.0156311
817.815	0.0156015
817.893	0.0156657
817.971	0.0156934
818.049	0.0157263
818.128	0.0157990
818.206	0.0158241
818.284	0.0156563
818.362	0.0157205
818.440	0.0157747
818.518	0.0158969
818.596	0.0159042
818.674	0.0159877
818.753	0.0159196
818.831	0.0159956
818.909	0.0159289
818.987	0.0159551
819.065	0.0160520
819.143	0.0160814
819.221	0.0162290
819.299	0.0160376
819.378	0.0159615
819.456	0.0161514
819.534	0.0160989
819.612	0.0160050
819.690	0.0161039
819.768	0.0160346
819.846	0.0161304
819.924	0.0161209
820.003	0.0160337
820.081	0.0161038
820.159	0.0158841
820.237	0.0160674
820.315	0.0160683
820.393	0.0159727
820.471	0.0158207
820.549	0.0157522
820.628	0.0158047
820.706	0.0157056
820.784	0.0155950
820.862	0.0155001
820.940	0.0155121
821.018	0.0155070
821.096	0.0154090
821.174	0.0153512
821.253	0.0154147
821.331	0.0153053
821.409	0.0153805
821.487	0.0153078
821.565	0.0153138
821.643	0.0154655
821.721	0.0154018
821.799	0.0153819
821.878	0.0154700
821.956	0.0154006
822.034	0.0154867
822.112	0.0156636
822.190	0.0157286
822.268	0.0159155
822.346	0.0158324
822.424	0.0159592
822.503	0.0160306
822.581	0.0161437
822.659	0.0161809
822.737	0.0163835
822.815	0.0164069
822.893	0.0162872
822.971	0.0164886
823.049	0.0165652
823.128	0.0165041
823.206	0.0164302
823.284	0.0163857
823.362	0.0165804
823.440	0.0164812
823.518	0.0165920
823.596	0.0165948
823.674	0.0164573
823.753	0.0163589
823.831	0.0164262
823.909	0.0162434
823.987	0.0162057
824.065	0.0161150
824.143	0.0159772
824.221	0.0158521
824.299	0.0157577
824.378	0.0157151
824.456	0.0155216
824.534	0.0155066
824.612	0.0153484
824.690	0.0152797
824.768	0.0150351
824.846	0.0151634
824.924	0.0149744
825.003	0.0149772
825.081	0.0150041
825.159	0.0149220
825.237	0.0149712
825.315	0.0149212
825.393	0.0149451
825.471	0.0150941
825.549	0.0152433
825.628	0.0151165
825.706	0.0151208
825.784	0.0152734
825.862	0.0154500
825.940	0.0155589
826.018	0.0156561
826.096	0.0157572
826.174	0.0158691
826.253	0.0159200
826.331	0.0161478
826.409	0.0161312
826.487	0.0163885
826.565	0.0165095
826.643	0.0164796
826.721	0.0165344
826.799	0.0166357
826.878	0.0166238
826.956	0.0167158
827.034	0.0168331
827.112	0.0167406
827.190	0.0167026
827.268	0.0168434
827.346	0.0166486
827.424	0.0166098
827.503	0.0166634
827.581	0.0165664
827.659	0.0164552
827.737	0.0162827
827.815	0.0162624
827.893	0.0161968
827.971	0.0160105
828.049	0.0159757
828.128	0.0158159
828.206	0.0157686
828.284	0.0155623
828.362	0.0154642
828.440	0.0155266
828.518	0.0152593
828.596	0.0153085
828.674	0.0151635
828.753	0.0151481
828.831	0.0149468
828.909	0.0148452
828.987	0.0149154
829.065	0.0148769
829.143	0.0149578
829.221	0.0149493
829.299	0.0150291
829.378	0.0150407
829.456	0.0151537
829.534	0.0153513
829.612	0.0152193
829.690	0.0152838
829.768	0.0154695
829.846	0.0156126
829.924	0.0158295
830.003	0.0159055
830.081	0.0159482
830.159	0.0159022
830.237	0.0161652
830.315	0.0162117
830.393	0.0163216
830.471	0.0163828
830.549	0.0164920
830.628	0.0164914
830.706	0.0164687
830.784	0.0166077
830.862	0.0167978
830.940	0.0165518
831.018	0.0165130
831.096	0.0164730
831.174	0.0165139
831.253	0.0164965
831.331	0.0163251
831.409	0.0161611
831.487	0.0160184
831.565	0.0161636
831.643	0.0160892
831.721	0.0160452
831.799	0.0159408
831.878	0.0157606
831.956	0.0157614
832.034	0.0157752
832.112	0.0156567
832.190	0.0156346
832.268	0.0156979
832.346	0.0156030
832.424	0.0153309
832.503	0.0154751
832.581	0.0153538
832.659	0.0153878
832.737	0.0153467
832.815	0.0154976
832.893	0.0153487
832.971	0.0153905
833.049	0.0154404
833.128	0.0153216
833.206	0.0153531
833.284	0.0153142
833.362	0.0153960
833.440	0.0155021
833.518	0.0153725
833.596	0.0155751
833.674	0.0157237
833.753	0.0156232
833.831	0.0157677
833.909	0.0158006
833.987	0.0158918
834.065	0.0159753
834.143	0.0160515
834.221	0.0161623
834.299	0.0162035
834.378	0.0161756
834.456	0.0164340
834.534	0.0162607
834.612	0.0162302
834.690	0.0163965
834.768	0.0162986
834.846	0.0163068
834.924	0.0163915
835.003	0.0162624
835.081	0.0161263
835.159	0.0161514
835.237	0.0162220
835.315	0.0161209
835.393	0.0160861
835.471	0.0159738
835.549	0.0157925
835.628	0.0157962
835.706	0.0158518
835.784	0.0157185
835.862	0.0158564
835.940	0.0158020
836.018	0.0156316
836.096	0.0155432
836.174	0.0156924
836.253	0.0155647
836.331	0.0155258
836.409	0.0154422
836.487	0.0154687
836.565	0.0154082
836.643	0.0155727
836.721	0.0154798
836.799	0.0155381
836.878	0.0155050
836.956	0.0154932
837.034	0.0155168
837.112	0.0155686
837.190	0.0155721
837.268	0.0156347
837.346	0.0156354
837.424	0.0155058
837.503	0.0156231
837.581	0.0157043
837.659	0.0157799
837.737	0.0156503
837.815	0.0157486
837.893	0.0158218
837.971	0.0158575
838.049	0.0158623
838.128	0.0160251
838.206	0.0159330
838.284	0.0158990
838.362	0.0160229
838.440	0.0160983
838.518	0.0161404
838.596	0.0161078
838.674	0.0161132
838.753	0.0160394
838.831	0.0163123
838.909	0.0162648
838.987	0.0161654
839.065	0.0161731
839.143	0.0161044
839.221	0.0162418
839.299	0.0160792
839.378	0.0160020
839.456	0.0161845
839.534	0.0159971
839.612	0.0158745
839.690	0.0159648
839.768	0.0157877
839.846	0.0156889
839.924	0.0157955
840.003	0.0157961
840.081	0.0157030
840.159	0.0155611
840.237	0.0157484
840.315	0.0156470
840.393	0.0156557
840.471	0.0155864
840.549	0.0156711
840.628	0.0155428
840.706	0.0156281
840.784	0.0156834
840.862	0.0155870
840.940	0.0156367
841.018	0.0157205
841.096	0.0156743
841.174	0.0156872
841.253	0.0158984
841.331	0.0158585
841.409	0.0158379
841.487	0.0158660
841.565	0.0159760
841.643	0.0160223
841.721	0.0158554
841.799	0.0158342
841.878	0.0158064
841.956	0.0160162
842.034	0.0159029
842.112	0.0157745
842.190	0.0158930
842.268	0.0158163
842.346	0.0158310
842.424	0.0157285
842.503	0.0157564
842.581	0.0159278
842.659	0.0158210
842.737	0.0159069
842.815	0.0157985
842.893	0.0158834
842.971	0.0158488
843.049	0.0158566
843.128	0.0158336
843.206	0.0157221
843.284	0.0158459
843.362	0.0158824
843.440	0.0157070
843.518	0.0158572
843.596	0.0158401
843.674	0.0157648
843.753	0.0157084
843.831	0.0157115
843.909	0.0157111
843.987	0.0157990
844.065	0.0157863
844.143	0.0157976
844.221	0.0157087
844.299	0.0158167
844.378	0.0156268
844.456	0.0157403
844.534	0.0158260
844.612	0.0156010
844.690	0.0157462
844.768	0.0158340
844.846	0.0158021
844.924	0.0159281
845.003	0.0158523
845.081	0.0158620
845.159	0.0158131
845.237	0.0159869
845.315	0.0160635
845.393	0.0159187
845.471	0.0160584
845.549	0.0160162
845.628	0.0160362
845.706	0.0159238
845.784	0.0159669
845.862	0.0161365
845.940	0.0159515
846.018	0.0160387
846.096	0.0160027
846.174	0.0160885
846.253	0.0158246
846.331	0.0158270
846.409	0.0156900
846.487	0.0157210
846.565	0.0156673
846.643	0.0155828
846.721	0.0156452
846.799	0.0157603
846.878	0.0156328
846.956	0.0155365
847.034	0.0155316
847.112	0.0154840
847.190	0.0154912
847.268	0.0155963
847.346	0.0155970
847.424	0.0155308
847.503	0.0154719
847.581	0.0154996
847.659	0.0156658
847.737	0.0156923
847.815	0.0157153
847.893	0.0157251
847.971	0.0157101
848.049	0.0155756
848.128	0.0157144
848.206	0.0158760
848.284	0.0158223
848.362	0.0158170
848.440	0.0157896
848.518	0.0156777
848.596	0.0156976
848.674	0.0157507
848.753	0.0157816
848.831	0.0157228
848.909	0.0157353
848.987	0.0158266
849.065	0.0158214
849.143	0.0157224
849.221	0.0158279
849.299	0.0159013
849.378	0.0160727
849.456	0.0161256
849.534	0.0159722
849.612	0.0160109
849.690	0.0161089
849.768	0.0162026
849.846	0.0160358
849.924	0.0159782
850.003	0.0162526
850.081	0.0162070
850.159	0.0161201
850.237	0.0160508
850.315	0.0160368
850.393	0.0158998
850.471	0.0159933
850.549	0.0161077
850.628	0.0159690
850.706	0.0158218
850.784	0.0159899
850.862	0.0159008
850.940	0.0158516
851.018	0.0158242
851.096	0.0159796
851.174	0.0157838
851.253	0.0157899
851.331	0.0159071
851.409	0.0158593
851.487	0.0157893
851.565	0.0157970
851.643	0.0158182
851.721	0.0158575
851.799	0.0158045
851.878	0.0156156
851.956	0.0156671
852.034	0.0157047
852.112	0.0156470
852.190	0.0156779
852.268	0.0156837
852.346	0.0156416
852.424	0.0156159
852.503	0.0155813
852.581	0.0155755
852.659	0.0155321
852.737	0.0156710
852.815	0.0154907
852.893	0.0155727
852.971	0.0156683
853.049	0.0156306
853.128	0.0155632
853.206	0.0157757
853.284	0.0156454
853.362	0.0155937
853.440	0.0157597
853.518	0.0158492
853.596	0.0159390
853.674	0.0158647
853.753	0.0157467
853.831	0.0156712
853.909	0.0157957
853.987	0.0158172
854.065	0.0157458
854.143	0.0157824
854.221	0.0158798
854.299	0.0158327
854.378	0.0157716
854.456	0.0157434
854.534	0.0158886
854.612	0.0158604
854.690	0.0157626
854.768	0.0159407
854.846	0.0158913
854.924	0.0159770
855.003	0.0159173
855.081	0.0158224
855.159	0.0160872
855.237	0.0159074
855.315	0.0159796
855.393	0.0160009
855.471	0.0160365
855.549	0.0159657
855.628	0.0160863
855.706	0.0160331
855.784	0.0161647
855.862	0.0161040
855.940	0.0161298
856.018	0.0158891
856.096	0.0160277
856.174	0.0158514
856.253	0.0160329
856.331	0.0159478
856.409	0.0159337
856.487	0.0159770
856.565	0.0158944
856.643	0.0157792
856.721	0.0158482
856.799	0.0157504
856.878	0.0159043
856.956	0.0158852
857.034	0.0157468
857.112	0.0157654
857.190	0.0157073
857.268	0.0157357
857.346	0.0158456
857.424	0.0156962
857.503	0.0156920
857.581	0.0157745
857.659	0.0158848
857.737	0.0158180
857.815	0.0158001
857.893	0.0159161
857.971	0.0157769
858.049	0.0158091
858.128	0.0159409
858.206	0.0158537
858.284	0.0158055
858.362	0.0157797
858.440	0.0158629
858.518	0.0158398
858.596	0.0157281
858.674	0.0157795
858.753	0.0158157
858.831	0.0159075
858.909	0.0158075
858.987	0.0159269
859.065	0.0158654
859.143	0.0156870
859.221	0.0158170
859.299	0.0159856
859.378	0.0158080
859.456	0.0157679
859.534	0.0156620
859.612	0.0157158
859.690	0.0158119
859.768	0.0157411
859.846	0.0156852
859.924	0.0157697
860.003	0.0157890
860.081	0.0158037
860.159	0.0157304
860.237	0.0157241
860.315	0.0157240
860.393	0.0157921
860.471	0.0157584
860.549	0.0158272
860.628	0.0158214
860.706	0.0158365
860.784	0.0157801
860.862	0.0158069
860.940	0.0159250
861.018	0.0158803
861.096	0.0160214
861.174	0.0159543
861.253	0.0160104
861.331	0.0157764
861.409	0.0159460
861.487	0.0159885
861.565	0.0160472
861.643	0.0159831
861.721	0.0160394
861.799	0.0159412
861.878	0.0161091
861.956	0.0160088
862.034	0.0159780
862.112	0.0161106
862.190	0.0159100
862.268	0.0158936
862.346	0.0160271
862.424	0.0159427
862.503	0.0158789
862.581	0.0160342
862.659	0.0159319
862.737	0.0159773
862.815	0.0158907
862.893	0.0158889
862.971	0.0158734
863.049	0.0158502
863.128	0.0157197
863.206	0.0157174
863.284	0.0159521
863.362	0.0157299
863.440	0.0158213
863.518	0.0158156
863.596	0.0156304
863.674	0.0156281
863.753	0.0155843
863.831	0.0157464
863.909	0.0157520
863.987	0.0157695
864.065	0.0156795
864.143	0.0156432
864.221	0.0156614
864.299	0.0156359
864.378	0.0157629
864.456	0.0158490
864.534	0.0158920
864.612	0.0157674
864.690	0.0158795
864.768	0.0157955
864.846	0.0157712
864.924	0.0157937
865.003	0.0159342
865.081	0.0158281
865.159	0.0159016
865.237	0.0158063
865.315	0.0158051
865.393	0.0158195
865.471	0.0157919
865.549	0.0159167
865.628	0.0158803
865.706	0.0158414
865.784	0.0159182
865.862	0.0158597
865.940	0.0159991
866.018	0.0159106
866.096	0.0158043
866.174	0.0158434
866.253	0.0158304
866.331	0.0157224
866.409	0.0157835
866.487	0.0157249
866.565	0.0158038
866.643	0.0158108
866.721	0.0158965
866.799	0.0158229
866.878	0.0159189
866.956	0.0159440
867.034	0.0158826
867.112	0.0157731
867.190	0.0157752
867.268	0.0160049
867.346	0.0160012
867.424	0.0159499
867.503	0.0160551
867.581	0.0159560
867.659	0.0158109
867.737	0.0159753
867.815	0.0159476
867.893	0.0158755
867.971	0.0158524
868.049	0.0158958
868.128	0.0159493
868.206	0.0158495
868.284	0.0159557
868.362	0.0158884
868.440	0.0157668
868.518	0.0160442
868.596	0.0159500
868.674	0.0160869
868.753	0.0159555
868.831	0.0158047
868.909	0.0158342
868.987	0.0159800
869.065	0.0160643
869.143	0.0159576
869.221	0.0158492
869.299	0.0158064
869.378	0.0158845
869.456	0.0158662
869.534	0.0157536
869.612	0.0158074
869.690	0.0158555
869.768	0.0157291
869.846	0.0158199
869.924	0.0157768
870.003	0.0158023
870.081	0.0156667
870.159	0.0156942
870.237	0.0156927
870.315	0.0158286
870.393	0.0157585
870.471	0.0155697
870.549	0.0156996
870.628	0.0157828
870.706	0.0157802
870.784	0.0156478
870.862	0.0156367
870.940	0.0156197
871.018	0.0156585
871.096	0.0159093
871.174	0.0157061
871.253	0.0157646
871.331	0.0157807
871.409	0.0157154
871.487	0.0157475
871.565	0.0157915
871.643	0.0157617
871.721	0.0157316
871.799	0.0159216
871.878	0.0158341
871.956	0.0158234
872.034	0.0158870
872.112	0.0157074
872.190	0.0158213
872.268	0.0159439
872.346	0.0158425
872.424	0.0159203
872.503	0.0158363
872.581	0.0160421
872.659	0.0159641
872.737	0.0159698
872.815	0.0160070
872.893	0.0159618
872.971	0.0159134
873.049	0.0159505
873.128	0.0158118
873.206	0.0158866
873.284	0.0160070
873.362	0.0158838
873.440	0.0159395
873.518	0.0160374
873.596	0.0157890
873.674	0.0160334
873.753	0.0160345
873.831	0.0159704
873.909	0.0159072
873.987	0.0159681
874.065	0.0158808
874.143	0.0160050
874.221	0.0158842
874.299	0.0159063
874.378	0.0158171
874.456	0.0158951
874.534	0.0158640
874.612	0.0158504
874.690	0.0157668
874.768	0.0159186
874.846	0.0157878
874.924	0.0158611
875.003	0.0159833
875.081	0.0158071
875.159	0.0159464
875.237	0.0160518
875.315	0.0159170
875.393	0.0158386
875.471	0.0159219
875.549	0.0159774
875.628	0.0159396
875.706	0.0158353
875.784	0.0158482
875.862	0.0159109
875.940	0.0158907
876.018	0.0157619
876.096	0.0157029
876.174	0.0157238
876.253	0.0157240
876.331	0.0157580
876.409	0.0157101
876.487	0.0159002
876.565	0.0157786
876.643	0.0156551
876.721	0.0157365
876.799	0.0158465
876.878	0.0158408
876.956	0.0157495
877.034	0.0158137
877.112	0.0158471
877.190	0.0157881
877.268	0.0158092
877.346	0.0158074
877.424	0.0158178
877.503	0.0157639
877.581	0.0157989
877.659	0.0157752
877.737	0.0157732
877.815	0.0158966
877.893	0.0158456
877.971	0.0158202
878.049	0.0157651
878.128	0.0157496
878.206	0.0158051
878.284	0.0158286
878.362	0.0157466
878.440	0.0156568
878.518	0.0157732
878.596	0.0157474
878.674	0.0158815
878.753	0.0157967
878.831	0.0159196
878.909	0.0159119
878.987	0.0158459
879.065	0.0158591
879.143	0.0159569
879.221	0.0158899
879.299	0.0159832
879.378	0.0158828
879.456	0.0160006
879.534	0.0158230
879.612	0.0160330
879.690	0.0159364
879.768	0.0159029
879.846	0.0158943
879.924	0.0160120
880.003	0.0159294
880.081	0.0158141
880.159	0.0159820
880.237	0.0159656
880.315	0.0158407
880.393	0.0159362
880.471	0.0159225
880.549	0.0160027
880.628	0.0159289
880.706	0.0158732
880.784	0.0159338
880.862	0.0158790
880.940	0.0160030
881.018	0.0158852
881.096	0.0160013
881.174	0.0157263
881.253	0.0159544
881.331	0.0159991
881.409	0.0159059
881.487	0.0159610
881.565	0.0158881
881.643	0.0158708
881.721	0.0158762
881.799	0.0158488
881.878	0.0157852
881.956	0.0159422
882.034	0.0157537
882.112	0.0159684
882.190	0.0158673
882.268	0.0157985
882.346	0.0158018
882.424	0.0156838
882.503	0.0157730
882.581	0.0156625
882.659	0.0157746
882.737	0.0157571
882.815	0.0157503
882.893	0.0157962
882.971	0.0157795
883.049	0.0158118
883.128	0.0156542
883.206	0.0158591
883.284	0.0157918
883.362	0.0157608
883.440	0.0157961
883.518	0.0158699
883.596	0.0157819
883.674	0.0157481
883.753	0.0158115
883.831	0.0157289
883.909	0.0157607
883.987	0.0158266
884.065	0.0158250
884.143	0.0157063
884.221	0.0156272
884.299	0.0156736
884.378	0.0156461
884.456	0.0158351
884.534	0.0157558
884.612	0.0156245
884.690	0.0157336
884.768	0.0156923
884.846	0.0157955
884.924	0.0159092
885.003	0.0157217
885.081	0.0157970
885.159	0.0158040
885.237	0.0158787
885.315	0.0158881
885.393	0.0159323
885.471	0.0157653
885.549	0.0158821
885.628	0.0159691
885.706	0.0158531
885.784	0.0159635
885.862	0.0159064
885.940	0.0160118
886.018	0.0159669
886.096	0.0159938
886.174	0.0159763
886.253	0.0159517
886.331	0.0158501
886.409	0.0159893
886.487	0.0158530
886.565	0.0158891
886.643	0.0158437
886.721	0.0159412
886.799	0.0159937
886.878	0.0158618
886.956	0.0158882
887.034	0.0157980
887.112	0.0159830
887.190	0.0158915
887.268	0.0157998
887.346	0.0157712
887.424	0.0157448
887.503	0.0158395
887.581	0.0158633
887.659	0.0158299
887.737	0.0159512
887.815	0.0157716
887.893	0.0158614
887.971	0.0157026
888.049	0.0156915
888.128	0.0157460
888.206	0.0158094
888.284	0.0158262
888.362	0.0157404
888.440	0.0157075
888.518	0.0157790
888.596	0.0156545
888.674	0.0157462
888.753	0.0157507
888.831	0.0156816
888.909	0.0155688
888.987	0.0157581
889.065	0.0155693
889.143	0.0157348
889.221	0.0157407
889.299	0.0157700
889.378	0.0157305
889.456	0.0158401
889.534	0.0158170
889.612	0.0157897
889.690	0.0157549
889.768	0.0157082
889.846	0.0158506
889.924	0.0159401
890.003	0.0158395
890.081	0.0158998
890.159	0.0158997
890.237	0.0156916
890.315	0.0158623
890.393	0.0158594
890.471	0.0157404
890.549	0.0158718
890.628	0.0158678
890.706	0.0158545
890.784	0.0157217
890.862	0.0159343
890.940	0.0158376
891.018	0.0158499
891.096	0.0159064
891.174	0.0157910
891.253	0.0157812
891.331	0.0158648
891.409	0.0158445
891.487	0.0158766
891.565	0.0159383
891.643	0.0158223
891.721	0.0158514
891.799	0.0156703
891.878	0.0157919
891.956	0.0158250
892.034	0.0157710
892.112	0.0156883
892.190	0.0157591
892.268	0.0159338
892.346	0.0159218
892.424	0.0158056
892.503	0.0159090
892.581	0.0159370
892.659	0.0157589
892.737	0.0159246
892.815	0.0158739
892.893	0.0158584
892.971	0.0158912
893.049	0.0159088
893.128	0.0158238
893.206	0.0157227
893.284	0.0159075
893.362	0.0158646
893.440	0.0159332
893.518	0.0157729
893.596	0.0155988
893.674	0.0158009
893.753	0.0158386
893.831	0.0157659
893.909	0.0158861
893.987	0.0157352
894.065	0.0158526
894.143	0.0157418
894.221	0.0156970
894.299	0.0157994
894.378	0.0156886
894.456	0.0157085
894.534	0.0158707
894.612	0.0157608
894.690	0.0156362
894.768	0.0157571
894.846	0.0157854
894.924	0.0158522
895.003	0.0157369
895.081	0.0156535
895.159	0.0157275
895.237	0.0157603
895.315	0.0155959
895.393	0.0155682
895.471	0.0156560
895.549	0.0156227
895.628	0.0157219
895.706	0.0155796
895.784	0.0156001
895.862	0.0157172
895.940	0.0157111
896.018	0.0156282
896.096	0.0159589
896.174	0.0157674
896.253	0.0156805
896.331	0.0156994
896.409	0.0157895
896.487	0.0158693
896.565	0.0159553
896.643	0.0160049
896.721	0.0160036
896.799	0.0159465
896.878	0.0160947
896.956	0.0160741
897.034	0.0159547
897.112	0.0160405
897.190	0.0161081
897.268	0.0159359
897.346	0.0159588
897.424	0.0159833
897.503	0.0161192
897.581	0.0159384
897.659	0.0161000
897.737	0.0159433
897.815	0.0158939
897.893	0.0159023
897.971	0.0159639
898.049	0.0158335
898.128	0.0157829
898.206	0.0158318
898.284	0.0158823
898.362	0.0159037
898.440	0.0158706
898.518	0.0159116
898.596	0.0158868
898.674	0.0157578
898.753	0.0158105
898.831	0.0157584
898.909	0.0157679
898.987	0.0158182
899.065	0.0158387
899.143	0.0157359
899.221	0.0157053
899.299	0.0158183
899.378	0.0155872
899.456	0.0155928
899.534	0.0156650
899.612	0.0156534
899.690	0.0156750
899.768	0.0156581
899.846	0.0156731
899.924	0.0157533
900.003	0.0155497
900.081	0.0158575
900.159	0.0157656
900.237	0.0157149
900.315	0.0156216
900.393	0.0155208
900.471	0.0157661
900.549	0.0156905
900.628	0.0157774
900.706	0.0159040
900.784	0.0156921
900.862	0.0157801
900.940	0.0159767
901.018	0.0159008
901.096	0.0158820
901.174	0.0157624
901.253	0.0157800
901.331	0.0158297
901.409	0.0159775
901.487	0.0159161
901.565	0.0157485
901.643	0.0160049
901.721	0.0159260
901.799	0.0158812
901.878	0.0158213
901.956	0.0157708
902.034	0.0157718
902.112	0.0157169
902.190	0.0158062
902.268	0.0157664
902.346	0.0156876
902.424	0.0156979
902.503	0.0157462
902.581	0.0158105
902.659	0.0158472
902.737	0.0157256
902.815	0.0156470
902.893	0.0156866
902.971	0.0156950
903.049	0.0157399
903.128	0.0157325
903.206	0.0156919
903.284	0.0158231
903.362	0.0158165
903.440	0.0157676
903.518	0.0157890
903.596	0.0158264
903.674	0.0158805
903.753	0.0159489
903.831	0.0157919
903.909	0.0159010
903.987	0.0158286
904.065	0.0158517
904.143	0.0158928
904.221	0.0158968
904.299	0.0160165
904.378	0.0159271
904.456	0.0159193
904.534	0.0157787
904.612	0.0159589
904.690	0.0159464
904.768	0.0158092
904.846	0.0158203
904.924	0.0159273
905.003	0.0158851
905.081	0.0158696
905.159	0.0158994
905.237	0.0159193
905.315	0.0157766
905.393	0.0158080
905.471	0.0158508
905.549	0.0158174
905.628	0.0156955
905.706	0.0157606
905.784	0.0157388
905.862	0.0158862
905.940	0.0157906
906.018	0.0158300
906.096	0.0158937
906.174	0.0158333
906.253	0.0158343
906.331	0.0157695
906.409	0.0159103
906.487	0.0157645
906.565	0.0157682
906.643	0.0159164
906.721	0.0156862
906.799	0.0157858
906.878	0.0158105
906.956	0.0157182
907.034	0.0156216
907.112	0.0156406
907.190	0.0157223
907.268	0.0157207
907.346	0.0156931
907.424	0.0156970
907.503	0.0155203
907.581	0.0155937
907.659	0.0155693
907.737	0.0156444
907.815	0.0158015
907.893	0.0157180
907.971	0.0156519
908.049	0.0157101
908.128	0.0158488
908.206	0.0157995
908.284	0.0158778
908.362	0.0158748
908.440	0.0158831
908.518	0.0158132
908.596	0.0157971
908.674	0.0158614
908.753	0.0158736
908.831	0.0158121
908.909	0.0158945
908.987	0.0158749
909.065	0.0159180
909.143	0.0159308
909.221	0.0157970
909.299	0.0157780
909.378	0.0158868
909.456	0.0159206
909.534	0.0159372
909.612	0.0160418
909.690	0.0159125
909.768	0.0159446
909.846	0.0158106
909.924	0.0158595
910.003	0.0158743
910.081	0.0160699
910.159	0.0158583
910.237	0.0160113
910.315	0.0159186
910.393	0.0159405
910.471	0.0158659
910.549	0.0158458
910.628	0.0158424
910.706	0.0158366
910.784	0.0157358
910.862	0.0158493
910.940	0.0157185
911.018	0.0157401
911.096	0.0156039
911.174	0.0154473
911.253	0.0155891
911.331	0.0156435
911.409	0.0157497
911.487	0.0156519
911.565	0.0156725
911.643	0.0156503
911.721	0.0156888
911.799	0.0156774
911.878	0.0159152
911.956	0.0157956
912.034	0.0158711
912.112	0.0158434
912.190	0.0159174
912.268	0.0159193
912.346	0.0157111
912.424	0.0158834
912.503	0.0157383
912.581	0.0158201
912.659	0.0158813
912.737	0.0158831
912.815	0.0158405
912.893	0.0157023
912.971	0.0158039
913.049	0.0158208
913.128	0.0158358
913.206	0.0158173
913.284	0.0158910
913.362	0.0159029
913.440	0.0157870
913.518	0.0157808
913.596	0.0159287
913.674	0.0158661
913.753	0.0160065
913.831	0.0160179
913.909	0.0158313
913.987	0.0158958
914.065	0.0160513
914.143	0.0160010
914.221	0.0160456
914.299	0.0159880
914.378	0.0159815
914.456	0.0160053
914.534	0.0159545
914.612	0.0160526
914.690	0.0159163
914.768	0.0158813
914.846	0.0157777
914.924	0.0156903
915.003	0.0156828
915.081	0.0156052
915.159	0.0155672
915.237	0.0155161
915.315	0.0153575
915.393	0.0154961
915.471	0.0153829
915.549	0.0155474
915.628	0.0156866
915.706	0.0154832
915.784	0.0156397
915.862	0.0155534
915.940	0.0157381
916.018	0.0154698
916.096	0.0157465
916.174	0.0158289
916.253	0.0158502
916.331	0.0159053
916.409	0.0158823
916.487	0.0157996
916.565	0.0157185
916.643	0.0157755
916.721	0.0158563
916.799	0.0158777
916.878	0.0158802
916.956	0.0158586
917.034	0.0159280
917.112	0.0159566
917.190	0.0158121
917.268	0.0159464
917.346	0.0159367
917.424	0.0159644
917.503	0.0161670
917.581	0.0162307
917.659	0.0160925
917.737	0.0161967
917.815	0.0163450
917.893	0.0161569
917.971	0.0162202
918.049	0.0162612
918.128	0.0161801
918.206	0.0161034
918.284	0.0160084
918.362	0.0158969
918.440	0.0156932
918.518	0.0156616
918.596	0.0155363
918.674	0.0155247
918.753	0.0154670
918.831	0.0153680
918.909	0.0153616
918.987	0.0154216
919.065	0.0153580
919.143	0.0153640
919.221	0.0154774
919.299	0.0152165
919.378	0.0154256
919.456	0.0155309
919.534	0.0155650
919.612	0.0155018
919.690	0.0156717
919.768	0.0154762
919.846	0.0155263
919.924	0.0156337
920.003	0.0157679
920.081	0.0157323
920.159	0.0156993
920.237	0.0158559
920.315	0.0158778
920.393	0.0158787
920.471	0.0158409
920.549	0.0158704
920.628	0.0159779
920.706	0.0159817
920.784	0.0161667
920.862	0.0161211
920.940	0.0160148
921.018	0.0160622
921.096	0.0161857
921.174	0.0161615
921.253	0.0160973
921.331	0.0158298
921.409	0.0158745
921.487	0.0161034
921.565	0.0159194
921.643	0.0159486
921.721	0.0159896
921.799	0.0159908
921.878	0.0161227
921.956	0.0160462
922.034	0.0160881
922.112	0.0160400
922.190	0.0157871
922.268	0.0157818
922.346	0.0158654
922.424	0.0157986
922.503	0.0157465
922.581	0.0156216
922.659	0.0155896
922.737	0.0154839
922.815	0.0154845
922.893	0.0154346
922.971	0.0152783
923.049	0.0151727
923.128	0.0152953
923.206	0.0152336
923.284	0.0153801
923.362	0.0153294
923.440	0.0153190
923.518	0.0154901
923.596	0.0154308
923.674	0.0154951
923.753	0.0157008
923.831	0.0156493
923.909	0.0157655
923.987	0.0159329
924.065	0.0158409
924.143	0.0158841
924.221	0.0161655
924.299	0.0160074
924.378	0.0160976
924.456	0.0159807
924.534	0.0160680
924.612	0.0159828
924.690	0.0160629
924.768	0.0159822
924.846	0.0160336
924.924	0.0159133
925.003	0.0158533
925.081	0.0159335
925.159	0.0160053
925.237	0.0158548
925.315	0.0160454
925.393	0.0160750
925.471	0.0161738
925.549	0.0161712
925.628	0.0159905
925.706	0.0159851
925.784	0.0160894
925.862	0.0162636
925.940	0.0161581
926.018	0.0160754
926.096	0.0161035
926.174	0.0160085
926.253	0.0158728
926.331	0.0158746
926.409	0.0157422
926.487	0.0156387
926.565	0.0156000
926.643	0.0153995
926.721	0.0154675
926.799	0.0154444
926.878	0.0154340
926.956	0.0153054
927.034	0.0153941
927.112	0.0155599
927.190	0.0153416
927.268	0.0154793
927.346	0.0155153
927.424	0.0155889
927.503	0.0156664
927.581	0.0157397
927.659	0.0157890
927.737	0.0158749
927.815	0.0160078
927.893	0.0159856
927.971	0.0160204
928.049	0.0158982
928.128	0.0160028
928.206	0.0160222
928.284	0.0160809
928.362	0.0161229
928.440	0.0161299
928.518	0.0160638
928.596	0.0159807
928.674	0.0160290
928.753	0.0161295
928.831	0.0161040
928.909	0.0159970
928.987	0.0159218
929.065	0.0160764
929.143	0.0159463
929.221	0.0160644
929.299	0.0158614
929.378	0.0157980
929.456	0.0158292
929.534	0.0158349
929.612	0.0158488
929.690	0.0159021
929.768	0.0158208
929.846	0.0159102
929.924	0.0159632
930.003	0.0158988
930.081	0.0158939
930.159	0.0158657
930.237	0.0157159
930.315	0.0158544
930.393	0.0158255
930.471	0.0158353
930.549	0.0157522
930.628	0.0156633
930.706	0.0156493
930.784	0.0156720
930.862	0.0155589
930.940	0.0156532
931.018	0.0155694
931.096	0.0155840
931.174	0.0155518
931.253	0.0157556
931.331	0.0156900
931.409	0.0156100
931.487	0.0156425
931.565	0.0157346
931.643	0.0159965
931.721	0.0157076
931.799	0.0157770
931.878	0.0159464
931.956	0.0158336
932.034	0.0157873
932.112	0.0158092
932.190	0.0157696
932.268	0.0158548
932.346	0.0160581
932.424	0.0159586
932.503	0.0159607
932.581	0.0159772
932.659	0.0158881
932.737	0.0159828
932.815	0.0159578
932.893	0.0159297
932.971	0.0158016
933.049	0.0159266
933.128	0.0158459
933.206	0.0158054
933.284	0.0158308
933.362	0.0157501
933.440	0.0157550
933.518	0.0156776
933.596	0.0157200
933.674	0.0157149
933.753	0.0158581
933.831	0.0158846
933.909	0.0159547
933.987	0.0159293
934.065	0.0158644
934.143	0.0159280
934.221	0.0159666
934.299	0.0159812
934.378	0.0159621
934.456	0.0158928
934.534	0.0159354
934.612	0.0158932
934.690	0.0159125
934.768	0.0158707
934.846	0.0158756
934.924	0.0157628
935.003	0.0158318
935.081	0.0158677
935.159	0.0158578
935.237	0.0157018
935.315	0.0158768
935.393	0.0158020
935.471	0.0158514
935.549	0.0157921
935.628	0.0158707
935.706	0.0158221
935.784	0.0158539
935.862	0.0159471
935.940	0.0157279
936.018	0.0157588
936.096	0.0158325
936.174	0.0159391
936.253	0.0160248
936.331	0.0159236
936.409	0.0158698
936.487	0.0158473
936.565	0.0160732
936.643	0.0159343
936.721	0.0157981
936.799	0.0159119
936.878	0.0158648
936.956	0.0158227
937.034	0.0159345
937.112	0.0157261
937.190	0.0155714
937.268	0.0157747
937.346	0.0157294
937.424	0.0157227
937.503	0.0156780
937.581	0.0156925
937.659	0.0156409
937.737	0.0156436
937.815	0.0157633
937.893	0.0158519
937.971	0.0157757
938.049	0.0159763
938.128	0.0158832
938.206	0.0158395
938.284	0.0161004
938.362	0.0161197
938.440	0.0160069
938.518	0.0160509
938.596	0.0160905
938.674	0.0161550
938.753	0.0159174
938.831	0.0159437
938.909	0.0159545
938.987	0.0160621
939.065	0.0158193
939.143	0.0158051
939.221	0.0157196
939.299	0.0158258
939.378	0.0158291
939.456	0.0156136
939.534	0.0156624
939.612	0.0159159
939.690	0.0159063
939.768	0.0157479
939.846	0.0156710
939.924	0.0158531
940.003	0.0160810
940.081	0.0158195
940.159	0.0158829
940.237	0.0158851
940.315	0.0157223
940.393	0.0157604
940.471	0.0158099
940.549	0.0158379
940.628	0.0159012
940.706	0.0158025
940.784	0.0156753
940.862	0.0156802
940.940	0.0157404
941.018	0.0158715
941.096	0.0159348
941.174	0.0159256
941.253	0.0158280
941.331	0.0158747
941.409	0.0158305
941.487	0.0159810
941.565	0.0160908
941.643	0.0158404
941.721	0.0158905
941.799	0.0160338
941.878	0.0158530
941.956	0.0159006
942.034	0.0158640
942.112	0.0158167
942.190	0.0158462
942.268	0.0159599
942.346	0.0159124
942.424	0.0159787
942.503	0.0159208
942.581	0.0159987
942.659	0.0159769
942.737	0.0158405
942.815	0.0158938
942.893	0.0159381
942.971	0.0158273
943.049	0.0160078
943.128	0.0159300
943.206	0.0159579
943.284	0.0158353
943.362	0.0157349
943.440	0.0157147
943.518	0.0158907
943.596	0.0158434
943.674	0.0158005
943.753	0.0158727
943.831	0.0158325
943.909	0.0157167
943.987	0.0158146
944.065	0.0157560
944.143	0.0157393
944.221	0.0157165
944.299	0.0156379
944.378	0.0155995
944.456	0.0157246
944.534	0.0157201
944.612	0.0157528
944.690	0.0157449
944.768	0.0156114
944.846	0.0157531
944.924	0.0156897
945.003	0.0158281
945.081	0.0158457
945.159	0.0159848
945.237	0.0158475
945.315	0.0158270
945.393	0.0159645
945.471	0.0159693
945.549	0.0159940
945.628	0.0158910
945.706	0.0157598
945.784	0.0158984
945.862	0.0157938
945.940	0.0158877
946.018	0.0159032
946.096	0.0160192
946.174	0.0159689
946.253	0.0160360
946.331	0.0161625
946.409	0.0161247
946.487	0.0161020
946.565	0.0160497
946.643	0.0160204
946.721	0.0160415
946.799	0.0161349
946.878	0.0159811
946.956	0.0160476
947.034	0.0158906
947.112	0.0158306
947.190	0.0158990
947.268	0.0159551
947.346	0.0159113
947.424	0.0157611
947.503	0.0159438
947.581	0.0158700
947.659	0.0157448
947.737	0.0158941
947.815	0.0158040
947.893	0.0157645
947.971	0.0157240
948.049	0.0158034
948.128	0.0158833
948.206	0.0158556
948.284	0.0159388
948.362	0.0158983
948.440	0.0158914
948.518	0.0159400
948.596	0.0159396
948.674	0.0159560
948.753	0.0159010
948.831	0.0158493
948.909	0.0158273
948.987	0.0159886
949.065	0.0159698
949.143	0.0159049
949.221	0.0158648
949.299	0.0159457
949.378	0.0158358
949.456	0.0158556
949.534	0.0158453
949.612	0.0158580
949.690	0.0158868
949.768	0.0159329
949.846	0.0158809
949.924	0.0158242
