06/29/2022	22:53:30	Ver.	4.1	UNKNOWN
Optical Delay	630.002507	Delta X		0.078125	Sweeps	1	Scan Rate	0/0
Coordinates	Axis 1	NaN	Axis 2	NaN	Axis 3	NaN	Axis 4	NaN	Axis 5	NaN	Axis 6	0.000000
TX Power	0.000000	RX Power	0.000000

630.003	0.0154148
630.081	0.0154293
630.159	0.0153354
630.237	0.0153355
630.315	0.0154996
630.393	0.0152703
630.471	0.0153255
630.549	0.0153497
630.628	0.0154308
630.706	0.0153757
630.784	0.0153548
630.862	0.0153600
630.940	0.0152816
631.018	0.0154185
631.096	0.0152998
631.174	0.0154166
631.253	0.0153809
631.331	0.0153397
631.409	0.0153461
631.487	0.0153390
631.565	0.0153760
631.643	0.0152878
631.721	0.0153445
631.799	0.0153596
631.878	0.0153900
631.956	0.0154119
632.034	0.0154734
632.112	0.0151885
632.190	0.0153477
632.268	0.0153420
632.346	0.0153289
632.424	0.0154740
632.503	0.0154597
632.581	0.0153670
632.659	0.0154087
632.737	0.0154201
632.815	0.0153425
632.893	0.0152731
632.971	0.0154623
633.049	0.0153458
633.128	0.0153625
633.206	0.0154074
633.284	0.0154820
633.362	0.0153526
633.440	0.0153424
633.518	0.0153693
633.596	0.0152739
633.674	0.0153615
633.753	0.0152946
633.831	0.0155305
633.909	0.0153185
633.987	0.0153262
634.065	0.0154964
634.143	0.0153896
634.221	0.0154267
634.299	0.0154500
634.378	0.0154068
634.456	0.0153581
634.534	0.0154025
634.612	0.0153548
634.690	0.0153643
634.768	0.0153365
634.846	0.0155302
634.924	0.0154044
635.003	0.0153126
635.081	0.0154002
635.159	0.0153902
635.237	0.0154478
635.315	0.0154405
635.393	0.0154105
635.471	0.0152663
635.549	0.0155402
635.628	0.0153868
635.706	0.0153423
635.784	0.0154178
635.862	0.0154826
635.940	0.0154193
636.018	0.0153408
636.096	0.0154708
636.174	0.0154379
636.253	0.0153023
636.331	0.0153675
636.409	0.0153829
636.487	0.0154262
636.565	0.0153929
636.643	0.0153576
636.721	0.0155014
636.799	0.0154194
636.878	0.0154497
636.956	0.0153396
637.034	0.0154717
637.112	0.0153461
637.190	0.0153004
637.268	0.0153570
637.346	0.0153635
637.424	0.0153497
637.503	0.0154533
637.581	0.0154205
637.659	0.0155273
637.737	0.0154781
637.815	0.0154205
637.893	0.0153903
637.971	0.0152996
638.049	0.0154616
638.128	0.0155344
638.206	0.0153420
638.284	0.0153266
638.362	0.0154287
638.440	0.0155721
638.518	0.0152063
638.596	0.0154276
638.674	0.0153383
638.753	0.0154145
638.831	0.0154430
638.909	0.0155349
638.987	0.0154714
639.065	0.0153445
639.143	0.0154770
639.221	0.0153976
639.299	0.0152854
639.378	0.0154208
639.456	0.0152866
639.534	0.0154022
639.612	0.0155050
639.690	0.0154166
639.768	0.0153715
639.846	0.0154776
639.924	0.0154024
640.003	0.0153136
640.081	0.0154755
640.159	0.0153054
640.237	0.0153648
640.315	0.0154303
640.393	0.0153522
640.471	0.0154207
640.549	0.0153946
640.628	0.0154311
640.706	0.0153519
640.784	0.0154142
640.862	0.0155181
640.940	0.0153731
641.018	0.0152988
641.096	0.0154522
641.174	0.0154229
641.253	0.0154488
641.331	0.0153068
641.409	0.0154614
641.487	0.0156113
641.565	0.0153896
641.643	0.0153702
641.721	0.0153649
641.799	0.0152940
641.878	0.0155402
641.956	0.0154384
642.034	0.0152742
642.112	0.0153998
642.190	0.0154539
642.268	0.0153664
642.346	0.0153715
642.424	0.0154504
642.503	0.0155479
642.581	0.0154849
642.659	0.0154086
642.737	0.0154693
642.815	0.0153735
642.893	0.0153843
642.971	0.0154816
643.049	0.0154881
643.128	0.0154937
643.206	0.0154401
643.284	0.0154090
643.362	0.0153711
643.440	0.0154159
643.518	0.0154755
643.596	0.0154227
643.674	0.0154525
643.753	0.0154089
643.831	0.0154082
643.909	0.0153322
643.987	0.0154408
644.065	0.0155109
644.143	0.0154038
644.221	0.0153909
644.299	0.0153869
644.378	0.0153512
644.456	0.0154645
644.534	0.0154623
644.612	0.0152876
644.690	0.0154191
644.768	0.0153660
644.846	0.0154052
644.924	0.0153852
645.003	0.0154539
645.081	0.0154988
645.159	0.0155295
645.237	0.0154799
645.315	0.0153400
645.393	0.0153564
645.471	0.0153584
645.549	0.0152385
645.628	0.0154386
645.706	0.0155339
645.784	0.0154474
645.862	0.0153236
645.940	0.0153783
646.018	0.0153876
646.096	0.0155488
646.174	0.0153885
646.253	0.0154932
646.331	0.0153070
646.409	0.0152985
646.487	0.0154101
646.565	0.0152570
646.643	0.0155100
646.721	0.0153825
646.799	0.0153820
646.878	0.0155062
646.956	0.0153955
647.034	0.0154060
647.112	0.0154015
647.190	0.0153239
647.268	0.0154359
647.346	0.0153527
647.424	0.0153082
647.503	0.0153122
647.581	0.0154087
647.659	0.0153356
647.737	0.0152750
647.815	0.0152932
647.893	0.0153926
647.971	0.0154401
648.049	0.0154231
648.128	0.0154813
648.206	0.0153928
648.284	0.0153402
648.362	0.0154152
648.440	0.0153378
648.518	0.0153946
648.596	0.0154347
648.674	0.0154487
648.753	0.0153419
648.831	0.0154261
648.909	0.0153109
648.987	0.0154421
649.065	0.0152500
649.143	0.0154020
649.221	0.0154623
649.299	0.0153050
649.378	0.0154492
649.456	0.0153229
649.534	0.0154739
649.612	0.0154038
649.690	0.0153616
649.768	0.0153618
649.846	0.0153504
649.924	0.0153067
650.003	0.0154255
650.081	0.0154939
650.159	0.0153725
650.237	0.0155173
650.315	0.0153569
650.393	0.0153336
650.471	0.0154954
650.549	0.0154060
650.628	0.0151981
650.706	0.0153204
650.784	0.0153488
650.862	0.0153886
650.940	0.0153909
651.018	0.0154653
651.096	0.0153840
651.174	0.0154596
651.253	0.0154774
651.331	0.0154646
651.409	0.0152940
651.487	0.0152656
651.565	0.0153668
651.643	0.0154336
651.721	0.0153847
651.799	0.0154539
651.878	0.0152103
651.956	0.0154894
652.034	0.0154302
652.112	0.0154380
652.190	0.0154915
652.268	0.0154088
652.346	0.0154671
652.424	0.0153597
652.503	0.0154900
652.581	0.0153226
652.659	0.0153410
652.737	0.0152834
652.815	0.0153249
652.893	0.0155853
652.971	0.0154405
653.049	0.0152515
653.128	0.0153996
653.206	0.0154677
653.284	0.0153291
653.362	0.0153383
653.440	0.0154415
653.518	0.0153423
653.596	0.0153768
653.674	0.0153753
653.753	0.0153757
653.831	0.0153600
653.909	0.0153721
653.987	0.0153167
654.065	0.0153819
654.143	0.0153773
654.221	0.0153470
654.299	0.0153065
654.378	0.0153645
654.456	0.0155359
654.534	0.0153384
654.612	0.0153246
654.690	0.0155177
654.768	0.0152943
654.846	0.0154122
654.924	0.0154022
655.003	0.0155214
655.081	0.0153614
655.159	0.0153694
655.237	0.0153966
655.315	0.0154483
655.393	0.0153801
655.471	0.0153987
655.549	0.0153438
655.628	0.0154801
655.706	0.0154443
655.784	0.0153324
655.862	0.0154816
655.940	0.0153920
656.018	0.0153606
656.096	0.0154633
656.174	0.0152895
656.253	0.0154221
656.331	0.0153292
656.409	0.0154056
656.487	0.0153680
656.565	0.0154166
656.643	0.0154874
656.721	0.0154962
656.799	0.0152567
656.878	0.0153036
656.956	0.0153036
657.034	0.0154207
657.112	0.0154507
657.190	0.0154507
657.268	0.0153737
657.346	0.0152799
657.424	0.0154270
657.503	0.0153775
657.581	0.0155093
657.659	0.0153667
657.737	0.0154730
657.815	0.0154047
657.893	0.0153664
657.971	0.0154060
658.049	0.0153828
658.128	0.0152332
658.206	0.0152850
658.284	0.0154751
658.362	0.0154724
658.440	0.0154545
658.518	0.0155122
658.596	0.0154366
658.674	0.0155367
658.753	0.0153151
658.831	0.0154873
658.909	0.0155199
658.987	0.0152836
659.065	0.0154483
659.143	0.0154150
659.221	0.0153574
659.299	0.0154964
659.378	0.0155782
659.456	0.0153825
659.534	0.0152397
659.612	0.0153355
659.690	0.0153958
659.768	0.0154949
659.846	0.0153620
659.924	0.0153227
660.003	0.0154673
660.081	0.0153043
660.159	0.0154156
660.237	0.0153986
660.315	0.0154945
660.393	0.0154314
660.471	0.0154306
660.549	0.0153365
660.628	0.0154382
660.706	0.0154493
660.784	0.0153662
660.862	0.0153925
660.940	0.0153614
661.018	0.0154097
661.096	0.0153815
661.174	0.0154185
661.253	0.0155194
661.331	0.0155285
661.409	0.0155121
661.487	0.0155667
661.565	0.0153661
661.643	0.0153082
661.721	0.0154511
661.799	0.0153275
661.878	0.0153489
661.956	0.0153421
662.034	0.0153675
662.112	0.0153624
662.190	0.0154482
662.268	0.0153117
662.346	0.0155206
662.424	0.0155762
662.503	0.0152781
662.581	0.0154138
662.659	0.0152557
662.737	0.0153279
662.815	0.0153483
662.893	0.0153555
662.971	0.0154453
663.049	0.0153959
663.128	0.0154147
663.206	0.0154838
663.284	0.0153907
663.362	0.0153200
663.440	0.0154122
663.518	0.0154387
663.596	0.0153197
663.674	0.0154662
663.753	0.0153130
663.831	0.0154354
663.909	0.0153741
663.987	0.0154318
664.065	0.0154437
664.143	0.0153447
664.221	0.0153352
664.299	0.0154142
664.378	0.0154633
664.456	0.0153924
664.534	0.0154169
664.612	0.0154019
664.690	0.0153699
664.768	0.0155253
664.846	0.0154161
664.924	0.0153992
665.003	0.0153387
665.081	0.0152630
665.159	0.0153836
665.237	0.0154266
665.315	0.0154902
665.393	0.0154427
665.471	0.0155138
665.549	0.0154689
665.628	0.0153438
665.706	0.0152883
665.784	0.0154139
665.862	0.0153495
665.940	0.0153760
666.018	0.0153500
666.096	0.0154752
666.174	0.0153622
666.253	0.0154198
666.331	0.0155133
666.409	0.0154638
666.487	0.0152953
666.565	0.0154413
666.643	0.0154098
666.721	0.0153368
666.799	0.0154600
666.878	0.0153457
666.956	0.0153953
667.034	0.0155547
667.112	0.0154627
667.190	0.0154040
667.268	0.0153998
667.346	0.0154330
667.424	0.0154731
667.503	0.0154677
667.581	0.0152951
667.659	0.0155704
667.737	0.0153561
667.815	0.0153979
667.893	0.0154812
667.971	0.0153236
668.049	0.0153593
668.128	0.0154146
668.206	0.0154563
668.284	0.0154391
668.362	0.0153122
668.440	0.0153474
668.518	0.0153967
668.596	0.0154439
668.674	0.0154346
668.753	0.0154324
668.831	0.0153771
668.909	0.0154778
668.987	0.0155173
669.065	0.0154475
669.143	0.0154817
669.221	0.0154651
669.299	0.0155493
669.378	0.0153876
669.456	0.0154157
669.534	0.0152842
669.612	0.0153968
669.690	0.0153588
669.768	0.0153844
669.846	0.0153932
669.924	0.0155155
670.003	0.0154375
670.081	0.0153590
670.159	0.0154507
670.237	0.0152681
670.315	0.0154568
670.393	0.0155386
670.471	0.0153818
670.549	0.0154711
670.628	0.0154462
670.706	0.0152229
670.784	0.0152969
670.862	0.0153838
670.940	0.0154971
671.018	0.0153772
671.096	0.0154504
671.174	0.0155179
671.253	0.0155644
671.331	0.0154254
671.409	0.0153889
671.487	0.0153641
671.565	0.0153788
671.643	0.0155698
671.721	0.0154087
671.799	0.0154266
671.878	0.0154987
671.956	0.0154286
672.034	0.0152991
672.112	0.0153400
672.190	0.0153979
672.268	0.0155203
672.346	0.0155166
672.424	0.0154360
672.503	0.0153549
672.581	0.0153925
672.659	0.0154621
672.737	0.0153923
672.815	0.0154220
672.893	0.0155748
672.971	0.0154038
673.049	0.0154321
673.128	0.0154324
673.206	0.0154918
673.284	0.0155389
673.362	0.0154069
673.440	0.0155561
673.518	0.0153761
673.596	0.0154428
673.674	0.0154544
673.753	0.0153658
673.831	0.0153595
673.909	0.0154931
673.987	0.0154518
674.065	0.0153642
674.143	0.0154315
674.221	0.0154160
674.299	0.0154681
674.378	0.0153668
674.456	0.0154213
674.534	0.0154305
674.612	0.0154515
674.690	0.0153794
674.768	0.0153321
674.846	0.0153623
674.924	0.0153000
675.003	0.0153799
675.081	0.0155106
675.159	0.0154345
675.237	0.0152985
675.315	0.0153523
675.393	0.0153565
675.471	0.0153487
675.549	0.0154707
675.628	0.0154060
675.706	0.0155314
675.784	0.0155616
675.862	0.0154488
675.940	0.0151910
676.018	0.0154079
676.096	0.0153429
676.174	0.0153431
676.253	0.0154779
676.331	0.0154015
676.409	0.0154269
676.487	0.0152885
676.565	0.0155412
676.643	0.0154562
676.721	0.0154424
676.799	0.0155397
676.878	0.0153310
676.956	0.0153235
677.034	0.0154379
677.112	0.0155113
677.190	0.0154559
677.268	0.0153369
677.346	0.0154610
677.424	0.0154888
677.503	0.0155228
677.581	0.0154976
677.659	0.0154436
677.737	0.0154034
677.815	0.0154147
677.893	0.0154750
677.971	0.0152983
678.049	0.0154404
678.128	0.0154768
678.206	0.0153755
678.284	0.0154752
678.362	0.0153651
678.440	0.0153450
678.518	0.0154845
678.596	0.0153598
678.674	0.0154755
678.753	0.0153970
678.831	0.0154105
678.909	0.0153772
678.987	0.0154865
679.065	0.0154628
679.143	0.0153749
679.221	0.0153765
679.299	0.0155029
679.378	0.0155237
679.456	0.0154456
679.534	0.0153922
679.612	0.0155461
679.690	0.0155695
679.768	0.0152843
679.846	0.0155644
679.924	0.0153761
680.003	0.0155684
680.081	0.0155869
680.159	0.0153399
680.237	0.0154233
680.315	0.0154038
680.393	0.0154829
680.471	0.0155338
680.549	0.0154688
680.628	0.0153838
680.706	0.0154871
680.784	0.0154073
680.862	0.0154134
680.940	0.0154641
681.018	0.0153928
681.096	0.0152935
681.174	0.0153551
681.253	0.0153848
681.331	0.0156055
681.409	0.0154232
681.487	0.0154022
681.565	0.0154970
681.643	0.0155283
681.721	0.0153960
681.799	0.0154607
681.878	0.0154039
681.956	0.0153163
682.034	0.0153195
682.112	0.0154265
682.190	0.0154022
682.268	0.0155064
682.346	0.0153860
682.424	0.0155457
682.503	0.0153877
682.581	0.0153654
682.659	0.0152140
682.737	0.0152670
682.815	0.0153536
682.893	0.0153748
682.971	0.0153656
683.049	0.0153776
683.128	0.0156109
683.206	0.0154633
683.284	0.0153575
683.362	0.0154092
683.440	0.0154118
683.518	0.0154395
683.596	0.0154543
683.674	0.0154562
683.753	0.0154124
683.831	0.0154202
683.909	0.0154200
683.987	0.0155147
684.065	0.0154175
684.143	0.0154837
684.221	0.0154405
684.299	0.0153828
684.378	0.0153606
684.456	0.0154137
684.534	0.0154517
684.612	0.0154395
684.690	0.0154613
684.768	0.0152879
684.846	0.0154469
684.924	0.0154674
685.003	0.0152824
685.081	0.0153989
685.159	0.0154340
685.237	0.0153704
685.315	0.0153583
685.393	0.0154686
685.471	0.0154087
685.549	0.0154501
685.628	0.0154311
685.706	0.0155081
685.784	0.0153956
685.862	0.0153164
685.940	0.0154245
686.018	0.0154687
686.096	0.0155196
686.174	0.0155038
686.253	0.0154362
686.331	0.0153915
686.409	0.0154118
686.487	0.0154128
686.565	0.0154084
686.643	0.0155073
686.721	0.0155036
686.799	0.0153359
686.878	0.0153482
686.956	0.0154040
687.034	0.0154642
687.112	0.0154012
687.190	0.0154713
687.268	0.0151987
687.346	0.0155302
687.424	0.0155219
687.503	0.0154210
687.581	0.0154655
687.659	0.0153978
687.737	0.0151950
687.815	0.0154662
687.893	0.0153944
687.971	0.0153888
688.049	0.0152922
688.128	0.0154774
688.206	0.0155376
688.284	0.0154624
688.362	0.0154101
688.440	0.0154050
688.518	0.0154393
688.596	0.0154702
688.674	0.0153411
688.753	0.0154568
688.831	0.0153947
688.909	0.0154253
688.987	0.0155273
689.065	0.0155495
689.143	0.0154101
689.221	0.0155389
689.299	0.0155080
689.378	0.0153426
689.456	0.0154346
689.534	0.0154231
689.612	0.0154419
689.690	0.0154730
689.768	0.0153817
689.846	0.0152174
689.924	0.0153902
690.003	0.0154214
690.081	0.0154305
690.159	0.0154591
690.237	0.0154762
690.315	0.0153390
690.393	0.0153780
690.471	0.0153976
690.549	0.0154100
690.628	0.0151783
690.706	0.0153167
690.784	0.0153670
690.862	0.0154922
690.940	0.0154124
691.018	0.0153056
691.096	0.0154447
691.174	0.0154975
691.253	0.0154691
691.331	0.0154651
691.409	0.0153024
691.487	0.0153168
691.565	0.0154015
691.643	0.0153514
691.721	0.0153535
691.799	0.0154028
691.878	0.0154224
691.956	0.0153197
692.034	0.0153716
692.112	0.0154792
692.190	0.0154481
692.268	0.0153157
692.346	0.0153506
692.424	0.0154828
692.503	0.0154556
692.581	0.0155669
692.659	0.0154029
692.737	0.0154426
692.815	0.0153718
692.893	0.0152944
692.971	0.0153902
693.049	0.0153678
693.128	0.0152854
693.206	0.0154343
693.284	0.0153709
693.362	0.0153312
693.440	0.0154383
693.518	0.0154372
693.596	0.0153313
693.674	0.0152637
693.753	0.0154975
693.831	0.0155074
693.909	0.0154652
693.987	0.0154518
694.065	0.0152723
694.143	0.0152922
694.221	0.0155325
694.299	0.0152733
694.378	0.0155215
694.456	0.0154525
694.534	0.0154013
694.612	0.0153890
694.690	0.0153631
694.768	0.0154812
694.846	0.0152919
694.924	0.0153620
695.003	0.0155199
695.081	0.0153288
695.159	0.0153033
695.237	0.0154276
695.315	0.0153913
695.393	0.0155962
695.471	0.0154794
695.549	0.0154720
695.628	0.0153971
695.706	0.0153506
695.784	0.0155067
695.862	0.0155061
695.940	0.0154313
696.018	0.0153484
696.096	0.0154729
696.174	0.0155161
696.253	0.0153284
696.331	0.0154284
696.409	0.0154120
696.487	0.0153001
696.565	0.0154240
696.643	0.0153850
696.721	0.0154047
696.799	0.0154745
696.878	0.0154778
696.956	0.0154286
697.034	0.0154288
697.112	0.0154459
697.190	0.0153368
697.268	0.0154502
697.346	0.0153352
697.424	0.0154491
697.503	0.0155643
697.581	0.0154173
697.659	0.0154638
697.737	0.0153876
697.815	0.0154735
697.893	0.0154789
697.971	0.0154810
698.049	0.0154878
698.128	0.0154607
698.206	0.0154786
698.284	0.0154541
698.362	0.0152982
698.440	0.0155096
698.518	0.0153890
698.596	0.0153315
698.674	0.0154208
698.753	0.0154144
698.831	0.0153338
698.909	0.0154185
698.987	0.0152370
699.065	0.0154253
699.143	0.0153287
699.221	0.0152905
699.299	0.0153237
699.378	0.0153947
699.456	0.0154211
699.534	0.0153248
699.612	0.0153774
699.690	0.0152657
699.768	0.0152985
699.846	0.0151818
699.924	0.0153796
700.003	0.0152934
700.081	0.0153181
700.159	0.0154341
700.237	0.0156184
700.315	0.0153522
700.393	0.0154008
700.471	0.0154823
700.549	0.0153271
700.628	0.0155183
700.706	0.0155525
700.784	0.0154034
700.862	0.0153123
700.940	0.0155000
701.018	0.0154742
701.096	0.0154792
701.174	0.0153638
701.253	0.0154539
701.331	0.0154977
701.409	0.0154851
701.487	0.0154410
701.565	0.0153438
701.643	0.0154401
701.721	0.0155756
701.799	0.0155307
701.878	0.0154394
701.956	0.0154773
702.034	0.0154967
702.112	0.0155893
702.190	0.0155464
702.268	0.0154943
702.346	0.0153320
702.424	0.0153513
702.503	0.0153656
702.581	0.0152747
702.659	0.0152466
702.737	0.0154067
702.815	0.0153720
702.893	0.0153588
702.971	0.0153599
703.049	0.0152808
703.128	0.0153305
703.206	0.0153131
703.284	0.0152507
703.362	0.0153368
703.440	0.0156143
703.518	0.0152969
703.596	0.0153788
703.674	0.0153793
703.753	0.0152022
703.831	0.0152602
703.909	0.0152599
703.987	0.0152585
704.065	0.0152504
704.143	0.0152213
704.221	0.0153078
704.299	0.0153268
704.378	0.0153575
704.456	0.0154022
704.534	0.0153935
704.612	0.0154130
704.690	0.0155557
704.768	0.0154602
704.846	0.0155912
704.924	0.0154075
705.003	0.0155211
705.081	0.0156124
705.159	0.0155137
705.237	0.0154868
705.315	0.0156207
705.393	0.0155347
705.471	0.0154005
705.549	0.0153925
705.628	0.0153181
705.706	0.0151405
705.784	0.0150975
705.862	0.0150205
705.940	0.0149673
706.018	0.0150564
706.096	0.0151831
706.174	0.0152857
706.253	0.0152365
706.331	0.0155328
706.409	0.0157056
706.487	0.0158199
706.565	0.0157325
706.643	0.0158523
706.721	0.0157121
706.799	0.0157393
706.878	0.0156161
706.956	0.0154823
707.034	0.0153739
707.112	0.0151907
707.190	0.0151357
707.268	0.0150974
707.346	0.0150083
707.424	0.0149854
707.503	0.0148468
707.581	0.0150635
707.659	0.0150385
707.737	0.0152766
707.815	0.0152831
707.893	0.0155103
707.971	0.0156788
708.049	0.0158223
708.128	0.0159174
708.206	0.0159300
708.284	0.0158535
708.362	0.0158328
708.440	0.0157532
708.518	0.0157693
708.596	0.0156085
708.674	0.0155483
708.753	0.0152618
708.831	0.0152551
708.909	0.0152088
708.987	0.0150641
709.065	0.0149161
709.143	0.0149126
709.221	0.0149838
709.299	0.0149779
709.378	0.0150719
709.456	0.0152659
709.534	0.0154854
709.612	0.0155614
709.690	0.0158164
709.768	0.0158678
709.846	0.0160420
709.924	0.0159798
710.003	0.0159528
710.081	0.0159502
710.159	0.0158391
710.237	0.0157803
710.315	0.0156756
710.393	0.0154035
710.471	0.0153010
710.549	0.0151949
710.628	0.0151051
710.706	0.0150551
710.784	0.0152115
710.862	0.0151328
710.940	0.0152378
711.018	0.0152283
711.096	0.0153374
711.174	0.0155399
711.253	0.0155701
711.331	0.0156157
711.409	0.0156729
711.487	0.0156726
711.565	0.0155435
711.643	0.0154974
711.721	0.0155749
711.799	0.0155505
711.878	0.0155088
711.956	0.0156098
712.034	0.0156042
712.112	0.0155713
712.190	0.0156846
712.268	0.0156274
712.346	0.0155013
712.424	0.0154797
712.503	0.0152834
712.581	0.0151485
712.659	0.0150874
712.737	0.0150787
712.815	0.0150494
712.893	0.0149266
712.971	0.0150993
713.049	0.0152131
713.128	0.0153605
713.206	0.0153802
713.284	0.0157327
713.362	0.0158941
713.440	0.0159370
713.518	0.0160299
713.596	0.0159627
713.674	0.0159261
713.753	0.0160149
713.831	0.0159540
713.909	0.0156961
713.987	0.0156845
714.065	0.0155244
714.143	0.0154073
714.221	0.0152695
714.299	0.0151419
714.378	0.0153002
714.456	0.0150645
714.534	0.0151406
714.612	0.0150796
714.690	0.0151353
714.768	0.0151730
714.846	0.0151567
714.924	0.0152929
715.003	0.0153467
715.081	0.0154464
715.159	0.0155138
715.237	0.0156310
715.315	0.0155581
715.393	0.0156325
715.471	0.0155492
715.549	0.0157048
715.628	0.0156934
715.706	0.0155151
715.784	0.0154893
715.862	0.0153982
715.940	0.0154335
716.018	0.0153198
716.096	0.0151587
716.174	0.0151325
716.253	0.0153136
716.331	0.0149924
716.409	0.0152290
716.487	0.0152901
716.565	0.0152484
716.643	0.0153323
716.721	0.0156461
716.799	0.0155600
716.878	0.0154102
716.956	0.0156979
717.034	0.0158096
717.112	0.0158237
717.190	0.0159396
717.268	0.0159409
717.346	0.0159662
717.424	0.0158359
717.503	0.0160719
717.581	0.0158148
717.659	0.0157777
717.737	0.0159249
717.815	0.0157914
717.893	0.0156021
717.971	0.0152600
718.049	0.0149676
718.128	0.0149189
718.206	0.0148119
718.284	0.0146043
718.362	0.0144178
718.440	0.0143255
718.518	0.0142883
718.596	0.0142840
718.674	0.0143336
718.753	0.0145104
718.831	0.0146992
718.909	0.0149158
718.987	0.0153177
719.065	0.0153802
719.143	0.0155511
719.221	0.0157457
719.299	0.0159982
719.378	0.0161120
719.456	0.0160313
719.534	0.0161425
719.612	0.0161543
719.690	0.0161150
719.768	0.0159119
719.846	0.0157494
719.924	0.0156807
720.003	0.0156425
720.081	0.0154889
720.159	0.0154996
720.237	0.0155891
720.315	0.0155517
720.393	0.0156805
720.471	0.0157023
720.549	0.0157292
720.628	0.0156578
720.706	0.0158053
720.784	0.0157255
720.862	0.0156792
720.940	0.0154885
721.018	0.0153385
721.096	0.0151299
721.174	0.0149985
721.253	0.0146955
721.331	0.0144189
721.409	0.0144668
721.487	0.0144643
721.565	0.0143462
721.643	0.0146027
721.721	0.0147167
721.799	0.0148908
721.878	0.0151550
721.956	0.0154633
722.034	0.0159557
722.112	0.0162838
722.190	0.0165512
722.268	0.0168973
722.346	0.0169273
722.424	0.0167887
722.503	0.0168633
722.581	0.0169360
722.659	0.0164662
722.737	0.0162373
722.815	0.0159213
722.893	0.0156989
722.971	0.0153813
723.049	0.0148775
723.128	0.0147272
723.206	0.0145967
723.284	0.0143144
723.362	0.0143083
723.440	0.0144321
723.518	0.0143441
723.596	0.0144625
723.674	0.0145709
723.753	0.0146819
723.831	0.0148521
723.909	0.0149472
723.987	0.0149311
724.065	0.0150432
724.143	0.0149713
724.221	0.0149290
724.299	0.0147852
724.378	0.0147334
724.456	0.0146617
724.534	0.0146147
724.612	0.0145875
724.690	0.0147370
724.768	0.0149517
724.846	0.0151183
724.924	0.0154616
725.003	0.0157702
725.081	0.0160648
725.159	0.0164713
725.237	0.0167921
725.315	0.0170025
725.393	0.0171249
725.471	0.0173712
725.549	0.0172245
725.628	0.0171621
725.706	0.0170418
725.784	0.0169218
725.862	0.0168240
725.940	0.0163902
726.018	0.0161503
726.096	0.0159386
726.174	0.0157908
726.253	0.0154829
726.331	0.0154164
726.409	0.0152351
726.487	0.0149590
726.565	0.0148797
726.643	0.0149545
726.721	0.0147619
726.799	0.0147518
726.878	0.0147752
726.956	0.0148557
727.034	0.0149424
727.112	0.0149841
727.190	0.0150320
727.268	0.0152578
727.346	0.0152802
727.424	0.0156590
727.503	0.0156046
727.581	0.0155559
727.659	0.0155939
727.737	0.0154402
727.815	0.0153493
727.893	0.0151728
727.971	0.0150177
728.049	0.0146584
728.128	0.0143489
728.206	0.0140906
728.284	0.0137210
728.362	0.0134275
728.440	0.0132260
728.518	0.0131721
728.596	0.0129408
728.674	0.0130424
728.753	0.0132028
728.831	0.0134058
728.909	0.0137175
728.987	0.0141088
729.065	0.0144722
729.143	0.0149978
729.221	0.0156273
729.299	0.0159687
729.378	0.0165887
729.456	0.0168818
729.534	0.0173385
729.612	0.0176703
729.690	0.0178033
729.768	0.0181670
729.846	0.0182169
729.924	0.0182374
730.003	0.0181796
730.081	0.0180693
730.159	0.0178059
730.237	0.0176656
730.315	0.0174819
730.393	0.0170901
730.471	0.0170188
730.549	0.0165912
730.628	0.0163663
730.706	0.0159908
730.784	0.0158739
730.862	0.0156599
730.940	0.0153889
731.018	0.0153874
731.096	0.0154482
731.174	0.0153373
731.253	0.0153413
731.331	0.0153799
731.409	0.0154330
731.487	0.0154157
731.565	0.0154799
731.643	0.0153727
731.721	0.0153547
731.799	0.0151252
731.878	0.0150297
731.956	0.0148497
732.034	0.0143956
732.112	0.0141600
732.190	0.0138474
732.268	0.0134429
732.346	0.0132632
732.424	0.0128139
732.503	0.0124738
732.581	0.0122520
732.659	0.0121346
732.737	0.0121046
732.815	0.0120753
732.893	0.0121870
732.971	0.0122797
733.049	0.0127194
733.128	0.0128112
733.206	0.0132619
733.284	0.0137509
733.362	0.0142833
733.440	0.0149765
733.518	0.0156890
733.596	0.0162873
733.674	0.0169045
733.753	0.0173714
733.831	0.0179872
733.909	0.0184669
733.987	0.0188506
734.065	0.0189829
734.143	0.0190968
734.221	0.0189645
734.299	0.0187225
734.378	0.0183951
734.456	0.0181522
734.534	0.0177187
734.612	0.0171933
734.690	0.0169004
734.768	0.0167019
734.846	0.0162894
734.924	0.0159499
735.003	0.0158003
735.081	0.0157468
735.159	0.0157013
735.237	0.0156879
735.315	0.0157492
735.393	0.0158389
735.471	0.0159127
735.549	0.0161044
735.628	0.0160372
735.706	0.0162451
735.784	0.0161413
735.862	0.0159496
735.940	0.0159396
736.018	0.0156467
736.096	0.0157462
736.174	0.0156221
736.253	0.0152531
736.331	0.0148820
736.409	0.0146538
736.487	0.0144305
736.565	0.0140299
736.643	0.0137009
736.721	0.0135567
736.799	0.0132686
736.878	0.0128593
736.956	0.0125780
737.034	0.0123505
737.112	0.0121719
737.190	0.0119248
737.268	0.0118500
737.346	0.0118903
737.424	0.0119609
737.503	0.0121825
737.581	0.0124745
737.659	0.0128748
737.737	0.0135084
737.815	0.0139156
737.893	0.0143907
737.971	0.0151353
738.049	0.0157662
738.128	0.0163931
738.206	0.0170977
738.284	0.0175693
738.362	0.0180159
738.440	0.0181503
738.518	0.0183749
738.596	0.0187640
738.674	0.0187041
738.753	0.0183018
738.831	0.0182752
738.909	0.0182245
738.987	0.0178823
739.065	0.0175071
739.143	0.0170049
739.221	0.0166524
739.299	0.0165611
739.378	0.0162482
739.456	0.0160738
739.534	0.0160162
739.612	0.0160275
739.690	0.0159845
739.768	0.0161971
739.846	0.0162487
739.924	0.0162832
740.003	0.0163766
740.081	0.0163731
740.159	0.0163622
740.237	0.0163306
740.315	0.0163006
740.393	0.0159994
740.471	0.0160175
740.549	0.0156647
740.628	0.0155843
740.706	0.0153257
740.784	0.0151267
740.862	0.0149790
740.940	0.0148093
741.018	0.0144692
741.096	0.0144014
741.174	0.0141969
741.253	0.0138876
741.331	0.0135143
741.409	0.0134202
741.487	0.0132995
741.565	0.0129996
741.643	0.0126161
741.721	0.0124015
741.799	0.0122975
741.878	0.0121697
741.956	0.0123358
742.034	0.0123086
742.112	0.0125258
742.190	0.0128307
742.268	0.0132567
742.346	0.0137987
742.424	0.0142587
742.503	0.0149711
742.581	0.0154742
742.659	0.0160912
742.737	0.0166197
742.815	0.0171064
742.893	0.0172045
742.971	0.0176003
743.049	0.0178978
743.128	0.0180736
743.206	0.0180012
743.284	0.0180450
743.362	0.0178067
743.440	0.0175161
743.518	0.0174020
743.596	0.0170503
743.674	0.0167060
743.753	0.0163385
743.831	0.0162244
743.909	0.0159322
743.987	0.0158143
744.065	0.0156010
744.143	0.0155748
744.221	0.0155061
744.299	0.0155637
744.378	0.0156510
744.456	0.0156105
744.534	0.0159129
744.612	0.0159612
744.690	0.0160569
744.768	0.0162777
744.846	0.0162708
744.924	0.0162849
745.003	0.0162827
745.081	0.0163085
745.159	0.0161605
745.237	0.0163615
745.315	0.0161698
745.393	0.0161259
745.471	0.0159798
745.549	0.0158440
745.628	0.0157084
745.706	0.0155139
745.784	0.0154731
745.862	0.0151478
745.940	0.0147120
746.018	0.0148180
746.096	0.0145366
746.174	0.0142139
746.253	0.0140593
746.331	0.0137466
746.409	0.0135997
746.487	0.0133846
746.565	0.0132945
746.643	0.0131876
746.721	0.0130615
746.799	0.0129651
746.878	0.0129954
746.956	0.0128996
747.034	0.0131013
747.112	0.0132340
747.190	0.0136183
747.268	0.0138847
747.346	0.0143708
747.424	0.0147104
747.503	0.0151460
747.581	0.0155295
747.659	0.0160239
747.737	0.0162835
747.815	0.0165083
747.893	0.0168719
747.971	0.0170040
748.049	0.0173309
748.128	0.0174960
748.206	0.0175708
748.284	0.0176323
748.362	0.0174630
748.440	0.0174054
748.518	0.0170967
748.596	0.0170238
748.674	0.0169045
748.753	0.0165922
748.831	0.0164707
748.909	0.0162971
748.987	0.0162288
749.065	0.0160207
749.143	0.0157151
749.221	0.0157820
749.299	0.0155277
749.378	0.0156272
749.456	0.0153855
749.534	0.0153510
749.612	0.0153857
749.690	0.0150951
749.768	0.0151238
749.846	0.0154208
749.924	0.0152184
750.003	0.0152561
750.081	0.0152412
750.159	0.0153525
750.237	0.0154353
750.315	0.0153848
750.393	0.0155673
750.471	0.0155119
750.549	0.0157101
750.628	0.0157111
750.706	0.0154057
750.784	0.0153440
750.862	0.0151907
750.940	0.0150047
751.018	0.0147733
751.096	0.0145792
751.174	0.0144067
751.253	0.0141747
751.331	0.0139786
751.409	0.0137571
751.487	0.0137070
751.565	0.0137131
751.643	0.0137882
751.721	0.0138761
751.799	0.0139318
751.878	0.0142671
751.956	0.0142950
752.034	0.0145836
752.112	0.0149062
752.190	0.0149921
752.268	0.0152422
752.346	0.0155245
752.424	0.0157623
752.503	0.0159091
752.581	0.0159770
752.659	0.0161938
752.737	0.0161064
752.815	0.0161157
752.893	0.0160702
752.971	0.0158645
753.049	0.0158511
753.128	0.0158674
753.206	0.0160863
753.284	0.0158768
753.362	0.0158145
753.440	0.0160899
753.518	0.0160976
753.596	0.0161610
753.674	0.0162247
753.753	0.0163714
753.831	0.0164292
753.909	0.0164197
753.987	0.0163527
754.065	0.0163524
754.143	0.0164008
754.221	0.0163834
754.299	0.0162310
754.378	0.0160382
754.456	0.0159604
754.534	0.0157423
754.612	0.0155684
754.690	0.0154295
754.768	0.0154771
754.846	0.0152596
754.924	0.0152405
755.003	0.0152415
755.081	0.0150520
755.159	0.0151382
755.237	0.0150259
755.315	0.0149741
755.393	0.0149175
755.471	0.0149547
755.549	0.0151257
755.628	0.0150586
755.706	0.0149800
755.784	0.0148435
755.862	0.0149155
755.940	0.0148697
756.018	0.0149043
756.096	0.0147079
756.174	0.0146700
756.253	0.0147241
756.331	0.0147379
756.409	0.0147455
756.487	0.0145763
756.565	0.0146056
756.643	0.0146610
756.721	0.0146755
756.799	0.0148808
756.878	0.0148962
756.956	0.0149424
757.034	0.0150915
757.112	0.0150218
757.190	0.0151271
757.268	0.0152661
757.346	0.0154156
757.424	0.0154053
757.503	0.0153304
757.581	0.0154147
757.659	0.0154908
757.737	0.0156110
757.815	0.0154988
757.893	0.0154993
757.971	0.0155569
758.049	0.0155308
758.128	0.0156319
758.206	0.0157100
758.284	0.0157500
758.362	0.0156589
758.440	0.0156684
758.518	0.0157671
758.596	0.0158432
758.674	0.0159922
758.753	0.0159787
758.831	0.0160332
758.909	0.0161164
758.987	0.0161404
759.065	0.0163888
759.143	0.0163061
759.221	0.0163570
759.299	0.0164985
759.378	0.0165246
759.456	0.0165099
759.534	0.0163583
759.612	0.0163683
759.690	0.0160246
759.768	0.0159531
759.846	0.0160366
759.924	0.0159936
760.003	0.0156111
760.081	0.0154821
760.159	0.0153071
760.237	0.0149680
760.315	0.0146986
760.393	0.0147304
760.471	0.0143962
760.549	0.0142344
760.628	0.0142857
760.706	0.0142852
760.784	0.0142705
760.862	0.0143326
760.940	0.0142628
761.018	0.0144477
761.096	0.0146471
761.174	0.0146631
761.253	0.0147710
761.331	0.0147460
761.409	0.0150517
761.487	0.0150295
761.565	0.0152005
761.643	0.0153255
761.721	0.0153423
761.799	0.0155570
761.878	0.0154946
761.956	0.0153475
762.034	0.0154894
762.112	0.0155148
762.190	0.0154697
762.268	0.0154996
762.346	0.0154403
762.424	0.0153751
762.503	0.0152893
762.581	0.0152193
762.659	0.0152555
762.737	0.0152402
762.815	0.0152731
762.893	0.0152539
762.971	0.0153146
763.049	0.0153782
763.128	0.0154517
763.206	0.0155026
763.284	0.0155008
763.362	0.0156268
763.440	0.0156811
763.518	0.0155428
763.596	0.0158291
763.674	0.0158345
763.753	0.0156314
763.831	0.0157330
763.909	0.0156225
763.987	0.0156536
764.065	0.0157522
764.143	0.0157690
764.221	0.0158071
764.299	0.0155769
764.378	0.0156595
764.456	0.0155640
764.534	0.0156791
764.612	0.0157063
764.690	0.0156303
764.768	0.0156135
764.846	0.0156970
764.924	0.0156941
765.003	0.0155907
765.081	0.0156438
765.159	0.0155602
765.237	0.0155679
765.315	0.0155819
765.393	0.0156413
765.471	0.0155970
765.549	0.0155901
765.628	0.0155701
765.706	0.0154855
765.784	0.0153825
765.862	0.0153660
765.940	0.0152837
766.018	0.0152571
766.096	0.0150165
766.174	0.0151157
766.253	0.0150964
766.331	0.0149789
766.409	0.0149992
766.487	0.0150108
766.565	0.0150808
766.643	0.0150938
766.721	0.0151295
766.799	0.0154124
766.878	0.0153519
766.956	0.0153179
767.034	0.0153831
767.112	0.0155025
767.190	0.0155214
767.268	0.0155023
767.346	0.0154546
767.424	0.0153919
767.503	0.0153725
767.581	0.0152816
767.659	0.0152926
767.737	0.0151976
767.815	0.0151884
767.893	0.0151656
767.971	0.0151537
768.049	0.0151244
768.128	0.0152257
768.206	0.0151621
768.284	0.0153351
768.362	0.0153526
768.440	0.0153950
768.518	0.0154989
768.596	0.0154212
768.674	0.0153690
768.753	0.0154700
768.831	0.0155907
768.909	0.0155148
768.987	0.0154465
769.065	0.0153503
769.143	0.0154246
769.221	0.0153242
769.299	0.0151937
769.378	0.0151141
769.456	0.0152010
769.534	0.0150500
769.612	0.0150672
769.690	0.0148990
769.768	0.0150263
769.846	0.0151490
769.924	0.0151941
770.003	0.0153434
770.081	0.0152496
770.159	0.0152286
770.237	0.0154440
770.315	0.0156455
770.393	0.0155979
770.471	0.0156823
770.549	0.0157063
770.628	0.0157322
770.706	0.0158284
770.784	0.0159734
770.862	0.0159381
770.940	0.0162701
771.018	0.0161665
771.096	0.0161173
771.174	0.0162839
771.253	0.0162019
771.331	0.0161465
771.409	0.0162430
771.487	0.0160607
771.565	0.0158623
771.643	0.0157214
771.721	0.0157074
771.799	0.0156793
771.878	0.0155215
771.956	0.0154407
772.034	0.0154104
772.112	0.0152440
772.190	0.0151357
772.268	0.0151781
772.346	0.0149654
772.424	0.0147587
772.503	0.0148249
772.581	0.0147406
772.659	0.0146677
772.737	0.0148242
772.815	0.0147518
772.893	0.0149664
772.971	0.0149443
773.049	0.0149798
773.128	0.0150844
773.206	0.0150891
773.284	0.0150257
773.362	0.0151495
773.440	0.0152256
773.518	0.0153918
773.596	0.0152048
773.674	0.0150496
773.753	0.0153049
773.831	0.0152676
773.909	0.0153320
773.987	0.0154424
774.065	0.0153083
774.143	0.0155238
774.221	0.0154624
774.299	0.0155424
774.378	0.0156018
774.456	0.0156237
774.534	0.0157750
774.612	0.0157429
774.690	0.0156532
774.768	0.0157049
774.846	0.0158504
774.924	0.0157192
775.003	0.0157820
775.081	0.0157056
775.159	0.0156290
775.237	0.0155094
775.315	0.0156005
775.393	0.0154513
775.471	0.0153887
775.549	0.0152772
775.628	0.0152204
775.706	0.0150894
775.784	0.0153870
775.862	0.0152412
775.940	0.0153290
776.018	0.0154810
776.096	0.0153190
776.174	0.0154945
776.253	0.0157093
776.331	0.0157971
776.409	0.0157612
776.487	0.0158676
776.565	0.0157627
776.643	0.0158946
776.721	0.0158096
776.799	0.0158372
776.878	0.0158660
776.956	0.0157798
777.034	0.0158285
777.112	0.0155987
777.190	0.0153991
777.268	0.0154887
777.346	0.0153757
777.424	0.0153591
777.503	0.0152493
777.581	0.0151737
777.659	0.0151305
777.737	0.0151325
777.815	0.0150092
777.893	0.0150662
777.971	0.0152233
778.049	0.0151379
778.128	0.0151962
778.206	0.0152848
778.284	0.0152737
778.362	0.0151255
778.440	0.0152750
778.518	0.0153307
778.596	0.0152589
778.674	0.0154494
778.753	0.0154562
778.831	0.0154713
778.909	0.0154219
778.987	0.0154735
779.065	0.0154686
779.143	0.0155968
779.221	0.0155005
779.299	0.0155834
779.378	0.0155225
779.456	0.0155958
779.534	0.0157851
779.612	0.0155472
779.690	0.0154369
779.768	0.0157130
779.846	0.0155655
779.924	0.0156235
780.003	0.0156421
780.081	0.0157255
780.159	0.0156876
780.237	0.0155391
780.315	0.0154650
780.393	0.0154990
780.471	0.0155396
780.549	0.0155691
780.628	0.0155360
780.706	0.0155827
780.784	0.0154425
780.862	0.0154896
780.940	0.0154044
781.018	0.0152905
781.096	0.0152227
781.174	0.0152398
781.253	0.0152189
781.331	0.0151873
781.409	0.0152063
781.487	0.0150745
781.565	0.0151036
781.643	0.0152741
781.721	0.0151498
781.799	0.0151277
781.878	0.0152061
781.956	0.0153259
782.034	0.0153087
782.112	0.0153867
782.190	0.0154178
782.268	0.0154206
782.346	0.0155630
782.424	0.0154716
782.503	0.0155021
782.581	0.0156232
782.659	0.0155551
782.737	0.0156280
782.815	0.0156049
782.893	0.0157264
782.971	0.0156306
783.049	0.0155161
783.128	0.0154937
783.206	0.0155349
783.284	0.0156209
783.362	0.0155115
783.440	0.0155296
783.518	0.0154510
783.596	0.0156821
783.674	0.0155511
783.753	0.0156008
783.831	0.0157820
783.909	0.0158478
783.987	0.0156631
784.065	0.0158350
784.143	0.0157897
784.221	0.0157420
784.299	0.0154914
784.378	0.0157320
784.456	0.0156657
784.534	0.0155189
784.612	0.0154042
784.690	0.0152913
784.768	0.0151215
784.846	0.0151352
784.924	0.0149299
785.003	0.0148164
785.081	0.0146257
785.159	0.0145871
785.237	0.0146542
785.315	0.0147457
785.393	0.0146382
785.471	0.0147131
785.549	0.0147340
785.628	0.0149327
785.706	0.0149302
785.784	0.0150181
785.862	0.0152221
785.940	0.0153246
786.018	0.0151865
786.096	0.0154106
786.174	0.0154575
786.253	0.0153718
786.331	0.0155037
786.409	0.0156492
786.487	0.0156340
786.565	0.0155739
786.643	0.0156305
786.721	0.0157688
786.799	0.0157338
786.878	0.0156625
786.956	0.0156673
787.034	0.0156248
787.112	0.0157016
787.190	0.0157442
787.268	0.0156133
787.346	0.0157609
787.424	0.0155466
787.503	0.0156982
787.581	0.0157326
787.659	0.0155232
787.737	0.0155893
787.815	0.0156503
787.893	0.0156477
787.971	0.0155470
788.049	0.0155788
788.128	0.0155276
788.206	0.0153958
788.284	0.0154419
788.362	0.0153294
788.440	0.0154128
788.518	0.0154037
788.596	0.0152917
788.674	0.0152863
788.753	0.0152815
788.831	0.0152380
788.909	0.0152647
788.987	0.0153585
789.065	0.0151663
789.143	0.0153677
789.221	0.0153340
789.299	0.0153445
789.378	0.0152518
789.456	0.0155849
789.534	0.0155370
789.612	0.0156042
789.690	0.0155814
789.768	0.0154016
789.846	0.0157384
789.924	0.0154730
790.003	0.0154765
790.081	0.0155399
790.159	0.0154599
790.237	0.0154269
790.315	0.0154118
790.393	0.0152197
790.471	0.0152115
790.549	0.0150778
790.628	0.0152512
790.706	0.0152135
790.784	0.0150925
790.862	0.0150519
790.940	0.0151415
791.018	0.0149974
791.096	0.0151241
791.174	0.0151211
791.253	0.0152612
791.331	0.0154009
791.409	0.0154794
791.487	0.0154037
791.565	0.0154707
791.643	0.0155988
791.721	0.0155517
791.799	0.0156571
791.878	0.0157126
791.956	0.0156730
792.034	0.0157329
792.112	0.0156607
792.190	0.0157767
792.268	0.0158165
792.346	0.0155997
792.424	0.0154618
792.503	0.0156356
792.581	0.0154486
792.659	0.0155350
792.737	0.0154225
792.815	0.0153573
792.893	0.0153844
792.971	0.0151456
793.049	0.0153161
793.128	0.0152711
793.206	0.0152482
793.284	0.0152085
793.362	0.0150889
793.440	0.0151256
793.518	0.0153135
793.596	0.0152354
793.674	0.0153065
793.753	0.0154415
793.831	0.0153901
793.909	0.0152810
793.987	0.0154932
794.065	0.0154627
794.143	0.0154657
794.221	0.0155632
794.299	0.0155579
794.378	0.0154172
794.456	0.0154618
794.534	0.0155096
794.612	0.0157286
794.690	0.0155590
794.768	0.0155565
794.846	0.0156338
794.924	0.0156234
795.003	0.0156112
795.081	0.0157043
795.159	0.0156720
795.237	0.0156412
795.315	0.0156397
795.393	0.0156237
795.471	0.0156505
795.549	0.0156772
795.628	0.0154556
795.706	0.0156084
795.784	0.0155595
795.862	0.0156316
795.940	0.0155639
796.018	0.0156522
796.096	0.0156425
796.174	0.0155373
796.253	0.0153512
796.331	0.0154294
796.409	0.0154479
796.487	0.0155578
796.565	0.0154692
796.643	0.0154528
796.721	0.0153571
796.799	0.0154061
796.878	0.0153965
796.956	0.0152912
797.034	0.0152283
797.112	0.0151462
797.190	0.0151224
797.268	0.0150103
797.346	0.0151076
797.424	0.0149960
797.503	0.0150010
797.581	0.0151792
797.659	0.0150977
797.737	0.0150232
797.815	0.0151405
797.893	0.0153317
797.971	0.0152854
798.049	0.0153015
798.128	0.0154329
798.206	0.0154096
798.284	0.0155108
798.362	0.0157906
798.440	0.0157262
798.518	0.0157843
798.596	0.0157135
798.674	0.0157637
798.753	0.0158038
798.831	0.0159081
798.909	0.0157038
798.987	0.0156245
799.065	0.0157542
799.143	0.0155349
799.221	0.0154678
799.299	0.0155998
799.378	0.0155476
799.456	0.0153094
799.534	0.0152988
799.612	0.0153475
799.690	0.0150729
799.768	0.0152143
799.846	0.0153613
799.924	0.0153156
800.003	0.0151164
800.081	0.0153484
800.159	0.0153859
800.237	0.0154184
800.315	0.0154197
800.393	0.0155208
800.471	0.0153757
800.549	0.0154476
800.628	0.0156015
800.706	0.0155804
800.784	0.0155737
800.862	0.0155482
800.940	0.0155080
801.018	0.0154916
801.096	0.0155594
801.174	0.0154005
801.253	0.0155463
801.331	0.0153757
801.409	0.0153104
801.487	0.0152032
801.565	0.0152969
801.643	0.0153472
801.721	0.0152188
801.799	0.0153873
801.878	0.0152864
801.956	0.0152282
802.034	0.0153012
802.112	0.0154163
802.190	0.0154219
802.268	0.0153369
802.346	0.0154118
802.424	0.0155480
802.503	0.0155463
802.581	0.0154844
802.659	0.0154481
802.737	0.0155409
802.815	0.0155245
802.893	0.0156063
802.971	0.0156029
803.049	0.0155274
803.128	0.0155709
803.206	0.0154942
803.284	0.0155179
803.362	0.0154017
803.440	0.0154716
803.518	0.0154517
803.596	0.0153519
803.674	0.0154916
803.753	0.0155260
803.831	0.0153951
803.909	0.0153725
803.987	0.0153971
804.065	0.0153094
804.143	0.0156556
804.221	0.0154920
804.299	0.0153866
804.378	0.0154516
804.456	0.0154608
804.534	0.0155605
804.612	0.0154391
804.690	0.0155106
804.768	0.0154306
804.846	0.0154455
804.924	0.0154650
805.003	0.0153648
805.081	0.0153572
805.159	0.0153896
805.237	0.0153436
805.315	0.0152851
805.393	0.0153114
805.471	0.0153425
805.549	0.0153130
805.628	0.0152689
805.706	0.0154007
805.784	0.0154498
805.862	0.0153665
805.940	0.0151934
806.018	0.0152558
806.096	0.0153233
806.174	0.0151997
806.253	0.0154437
806.331	0.0154154
806.409	0.0153902
806.487	0.0153546
806.565	0.0153365
806.643	0.0153927
806.721	0.0153214
806.799	0.0154991
806.878	0.0154330
806.956	0.0154309
807.034	0.0155231
807.112	0.0156493
807.190	0.0154885
807.268	0.0154666
807.346	0.0155466
807.424	0.0156197
807.503	0.0155238
807.581	0.0155284
807.659	0.0155347
807.737	0.0155290
807.815	0.0155594
807.893	0.0155198
807.971	0.0154700
808.049	0.0154244
808.128	0.0154515
808.206	0.0154794
808.284	0.0154742
808.362	0.0154394
808.440	0.0152969
808.518	0.0154446
808.596	0.0154984
808.674	0.0153543
808.753	0.0153333
808.831	0.0152375
808.909	0.0155082
808.987	0.0153293
809.065	0.0153097
809.143	0.0154414
809.221	0.0153677
809.299	0.0153664
809.378	0.0154210
809.456	0.0153972
809.534	0.0152770
809.612	0.0153227
809.690	0.0153619
809.768	0.0153928
809.846	0.0152651
809.924	0.0153510
810.003	0.0151775
810.081	0.0151582
810.159	0.0153157
810.237	0.0152569
810.315	0.0152404
810.393	0.0154152
810.471	0.0153735
810.549	0.0152601
810.628	0.0153308
810.706	0.0153873
810.784	0.0155761
810.862	0.0155190
810.940	0.0155257
811.018	0.0154855
811.096	0.0154811
811.174	0.0154850
811.253	0.0154858
811.331	0.0155824
811.409	0.0155618
811.487	0.0155828
811.565	0.0155681
811.643	0.0155064
811.721	0.0154106
811.799	0.0154524
811.878	0.0156262
811.956	0.0154927
812.034	0.0154927
812.112	0.0155850
812.190	0.0153840
812.268	0.0154192
812.346	0.0154289
812.424	0.0153629
812.503	0.0152854
812.581	0.0154153
812.659	0.0153329
812.737	0.0153952
812.815	0.0152975
812.893	0.0153056
812.971	0.0153620
813.049	0.0153693
813.128	0.0154119
813.206	0.0154359
813.284	0.0154573
813.362	0.0153362
813.440	0.0154960
813.518	0.0154951
813.596	0.0153307
813.674	0.0155317
813.753	0.0154214
813.831	0.0154451
813.909	0.0155032
813.987	0.0155235
814.065	0.0153889
814.143	0.0154519
814.221	0.0152596
814.299	0.0153733
814.378	0.0155037
814.456	0.0154747
814.534	0.0154156
814.612	0.0153927
814.690	0.0154301
814.768	0.0154351
814.846	0.0154131
814.924	0.0153713
815.003	0.0153586
815.081	0.0152975
815.159	0.0152599
815.237	0.0152015
815.315	0.0152757
815.393	0.0153636
815.471	0.0152824
815.549	0.0151742
815.628	0.0152096
815.706	0.0153152
815.784	0.0152628
815.862	0.0152480
815.940	0.0152597
816.018	0.0152041
816.096	0.0152187
816.174	0.0152831
816.253	0.0153123
816.331	0.0153055
816.409	0.0152722
816.487	0.0153016
816.565	0.0154329
816.643	0.0152120
816.721	0.0152961
816.799	0.0152901
816.878	0.0154236
816.956	0.0153146
817.034	0.0152917
817.112	0.0153738
817.190	0.0155196
817.268	0.0153457
817.346	0.0152978
817.424	0.0154683
817.503	0.0153193
817.581	0.0154674
817.659	0.0154361
817.737	0.0154845
817.815	0.0155814
817.893	0.0155154
817.971	0.0155648
818.049	0.0156722
818.128	0.0156645
818.206	0.0155499
818.284	0.0156811
818.362	0.0157513
818.440	0.0156534
818.518	0.0156081
818.596	0.0156690
818.674	0.0156075
818.753	0.0156053
818.831	0.0156125
818.909	0.0155493
818.987	0.0155920
819.065	0.0156576
819.143	0.0155811
819.221	0.0154849
819.299	0.0155009
819.378	0.0153812
819.456	0.0154929
819.534	0.0153904
819.612	0.0153040
819.690	0.0153790
819.768	0.0153371
819.846	0.0152184
819.924	0.0152715
820.003	0.0152822
820.081	0.0151681
820.159	0.0150709
820.237	0.0151087
820.315	0.0151100
820.393	0.0150399
820.471	0.0150848
820.549	0.0149915
820.628	0.0150959
820.706	0.0151543
820.784	0.0150710
820.862	0.0149114
820.940	0.0151427
821.018	0.0152724
821.096	0.0151788
821.174	0.0152644
821.253	0.0152982
821.331	0.0153098
821.409	0.0153844
821.487	0.0154437
821.565	0.0155036
821.643	0.0155939
821.721	0.0157754
821.799	0.0157626
821.878	0.0158292
821.956	0.0158215
822.034	0.0155788
822.112	0.0157510
822.190	0.0157270
822.268	0.0157344
822.346	0.0157604
822.424	0.0159357
822.503	0.0157172
822.581	0.0157914
822.659	0.0157439
822.737	0.0157918
822.815	0.0156430
822.893	0.0157110
822.971	0.0156271
823.049	0.0155875
823.128	0.0154785
823.206	0.0155605
823.284	0.0154199
823.362	0.0155636
823.440	0.0153545
823.518	0.0154241
823.596	0.0153600
823.674	0.0154381
823.753	0.0153456
823.831	0.0153456
823.909	0.0153849
823.987	0.0153062
824.065	0.0153103
824.143	0.0151698
824.221	0.0152143
824.299	0.0151306
824.378	0.0150662
824.456	0.0151488
824.534	0.0150198
824.612	0.0150293
824.690	0.0150292
824.768	0.0148853
824.846	0.0149800
824.924	0.0149677
825.003	0.0149911
825.081	0.0149453
825.159	0.0151269
825.237	0.0151009
825.315	0.0149158
825.393	0.0150674
825.471	0.0150062
825.549	0.0150273
825.628	0.0152795
825.706	0.0153492
825.784	0.0153059
825.862	0.0153928
825.940	0.0154790
826.018	0.0156253
826.096	0.0155918
826.174	0.0155765
826.253	0.0156700
826.331	0.0157302
826.409	0.0155553
826.487	0.0158590
826.565	0.0159126
826.643	0.0157516
826.721	0.0157974
826.799	0.0160531
826.878	0.0160205
826.956	0.0158882
827.034	0.0159877
827.112	0.0158855
827.190	0.0159703
827.268	0.0158842
827.346	0.0158434
827.424	0.0159800
827.503	0.0159995
827.581	0.0157173
827.659	0.0158242
827.737	0.0157143
827.815	0.0155016
827.893	0.0155779
827.971	0.0156007
828.049	0.0155154
828.128	0.0153273
828.206	0.0153748
828.284	0.0152424
828.362	0.0151965
828.440	0.0152511
828.518	0.0150526
828.596	0.0149863
828.674	0.0149441
828.753	0.0151147
828.831	0.0150070
828.909	0.0149696
828.987	0.0150024
829.065	0.0148923
829.143	0.0148808
829.221	0.0149518
829.299	0.0148492
829.378	0.0148447
829.456	0.0148157
829.534	0.0149538
829.612	0.0149475
829.690	0.0148988
829.768	0.0148170
829.846	0.0149583
829.924	0.0150164
830.003	0.0150428
830.081	0.0151135
830.159	0.0152561
830.237	0.0152679
830.315	0.0153605
830.393	0.0155241
830.471	0.0157462
830.549	0.0157421
830.628	0.0157602
830.706	0.0158130
830.784	0.0158363
830.862	0.0159780
830.940	0.0160320
831.018	0.0160624
831.096	0.0160966
831.174	0.0160884
831.253	0.0159620
831.331	0.0161419
831.409	0.0161159
831.487	0.0160031
831.565	0.0160347
831.643	0.0158477
831.721	0.0158760
831.799	0.0158385
831.878	0.0156683
831.956	0.0156731
832.034	0.0155375
832.112	0.0155733
832.190	0.0154992
832.268	0.0153807
832.346	0.0152762
832.424	0.0152879
832.503	0.0152789
832.581	0.0152284
832.659	0.0151163
832.737	0.0152070
832.815	0.0152875
832.893	0.0151276
832.971	0.0151955
833.049	0.0150653
833.128	0.0151855
833.206	0.0151748
833.284	0.0151237
833.362	0.0151702
833.440	0.0150481
833.518	0.0150298
833.596	0.0149889
833.674	0.0150064
833.753	0.0147279
833.831	0.0149236
833.909	0.0149424
833.987	0.0148363
834.065	0.0150033
834.143	0.0149149
834.221	0.0149442
834.299	0.0150192
834.378	0.0152802
834.456	0.0150548
834.534	0.0152510
834.612	0.0154412
834.690	0.0154205
834.768	0.0154309
834.846	0.0155865
834.924	0.0156200
835.003	0.0157126
835.081	0.0157239
835.159	0.0159636
835.237	0.0160242
835.315	0.0161225
835.393	0.0160595
835.471	0.0159641
835.549	0.0159690
835.628	0.0160223
835.706	0.0159174
835.784	0.0158853
835.862	0.0159694
835.940	0.0157642
836.018	0.0158942
836.096	0.0157719
836.174	0.0156535
836.253	0.0156243
836.331	0.0157252
836.409	0.0155366
836.487	0.0155038
836.565	0.0156760
836.643	0.0156901
836.721	0.0154728
836.799	0.0155396
836.878	0.0154474
836.956	0.0154952
837.034	0.0153516
837.112	0.0154266
837.190	0.0153776
837.268	0.0151902
837.346	0.0152856
837.424	0.0152688
837.503	0.0152041
837.581	0.0151562
837.659	0.0151704
837.737	0.0151635
837.815	0.0150542
837.893	0.0151128
837.971	0.0151572
838.049	0.0153020
838.128	0.0150345
838.206	0.0150832
838.284	0.0149261
838.362	0.0151485
838.440	0.0151648
838.518	0.0150799
838.596	0.0150951
838.674	0.0151810
838.753	0.0150678
838.831	0.0153429
838.909	0.0152752
838.987	0.0152921
839.065	0.0152253
839.143	0.0153614
839.221	0.0153645
839.299	0.0154446
839.378	0.0154264
839.456	0.0154583
839.534	0.0154983
839.612	0.0155449
839.690	0.0155990
839.768	0.0156254
839.846	0.0156078
839.924	0.0156937
840.003	0.0156325
840.081	0.0158636
840.159	0.0156806
840.237	0.0157642
840.315	0.0157257
840.393	0.0156310
840.471	0.0155347
840.549	0.0155694
840.628	0.0155915
840.706	0.0155581
840.784	0.0156004
840.862	0.0155782
840.940	0.0156231
841.018	0.0155444
841.096	0.0156729
841.174	0.0157392
841.253	0.0155659
841.331	0.0155876
841.409	0.0156120
841.487	0.0155337
841.565	0.0155998
841.643	0.0156579
841.721	0.0155297
841.799	0.0156187
841.878	0.0156529
841.956	0.0155222
842.034	0.0155668
842.112	0.0154534
842.190	0.0154037
842.268	0.0153586
842.346	0.0152818
842.424	0.0154088
842.503	0.0153009
842.581	0.0151976
842.659	0.0151852
842.737	0.0152280
842.815	0.0151489
842.893	0.0149530
842.971	0.0149908
843.049	0.0149527
843.128	0.0149059
843.206	0.0151304
843.284	0.0148909
843.362	0.0148413
843.440	0.0150103
843.518	0.0150169
843.596	0.0149207
843.674	0.0149767
843.753	0.0149610
843.831	0.0151049
843.909	0.0151892
843.987	0.0152049
844.065	0.0153380
844.143	0.0153735
844.221	0.0153149
844.299	0.0155440
844.378	0.0155922
844.456	0.0155706
844.534	0.0155225
844.612	0.0155743
844.690	0.0155948
844.768	0.0156658
844.846	0.0157690
844.924	0.0157102
845.003	0.0156823
845.081	0.0157168
845.159	0.0156980
845.237	0.0156204
845.315	0.0157472
845.393	0.0156616
845.471	0.0157144
845.549	0.0157072
845.628	0.0157912
845.706	0.0156817
845.784	0.0156349
845.862	0.0156429
845.940	0.0157281
846.018	0.0157159
846.096	0.0158912
846.174	0.0156910
846.253	0.0156847
846.331	0.0158405
846.409	0.0156860
846.487	0.0156885
846.565	0.0157082
846.643	0.0155363
846.721	0.0155462
846.799	0.0155087
846.878	0.0154066
846.956	0.0153445
847.034	0.0154010
847.112	0.0152382
847.190	0.0151390
847.268	0.0150607
847.346	0.0151244
847.424	0.0151755
847.503	0.0150683
847.581	0.0148788
847.659	0.0150027
847.737	0.0151467
847.815	0.0148522
847.893	0.0150184
847.971	0.0151075
848.049	0.0150287
848.128	0.0150928
848.206	0.0149259
848.284	0.0150121
848.362	0.0151761
848.440	0.0152628
848.518	0.0151524
848.596	0.0153197
848.674	0.0154904
848.753	0.0153620
848.831	0.0153618
848.909	0.0153930
848.987	0.0154407
849.065	0.0156231
849.143	0.0153658
849.221	0.0154643
849.299	0.0154063
849.378	0.0155207
849.456	0.0155734
849.534	0.0154964
849.612	0.0156223
849.690	0.0155180
849.768	0.0154234
849.846	0.0156809
849.924	0.0155302
850.003	0.0156042
850.081	0.0155659
850.159	0.0156843
850.237	0.0155567
850.315	0.0157040
850.393	0.0157052
850.471	0.0156827
850.549	0.0157360
850.628	0.0158687
850.706	0.0157665
850.784	0.0158160
850.862	0.0157240
850.940	0.0156627
851.018	0.0157291
851.096	0.0157111
851.174	0.0156786
851.253	0.0156387
851.331	0.0156443
851.409	0.0156316
851.487	0.0155643
851.565	0.0155035
851.643	0.0154507
851.721	0.0155470
851.799	0.0153987
851.878	0.0152676
851.956	0.0153377
852.034	0.0152197
852.112	0.0152536
852.190	0.0152052
852.268	0.0152451
852.346	0.0152160
852.424	0.0151497
852.503	0.0152097
852.581	0.0151879
852.659	0.0151810
852.737	0.0152923
852.815	0.0152125
852.893	0.0152538
852.971	0.0152670
853.049	0.0152691
853.128	0.0151585
853.206	0.0152042
853.284	0.0152102
853.362	0.0151728
853.440	0.0153397
853.518	0.0152837
853.596	0.0152103
853.674	0.0151541
853.753	0.0152914
853.831	0.0152374
853.909	0.0152257
853.987	0.0152132
854.065	0.0152905
854.143	0.0153531
854.221	0.0152641
854.299	0.0152301
854.378	0.0153540
854.456	0.0153396
854.534	0.0153751
854.612	0.0154947
854.690	0.0155609
854.768	0.0155580
854.846	0.0155213
854.924	0.0155742
855.003	0.0156294
855.081	0.0156398
855.159	0.0156971
855.237	0.0156850
855.315	0.0155679
855.393	0.0155864
855.471	0.0155877
855.549	0.0155836
855.628	0.0156452
855.706	0.0156708
855.784	0.0156744
855.862	0.0156657
855.940	0.0156409
856.018	0.0157588
856.096	0.0155936
856.174	0.0155558
856.253	0.0154933
856.331	0.0156096
856.409	0.0155952
856.487	0.0155238
856.565	0.0153907
856.643	0.0154626
856.721	0.0155094
856.799	0.0155776
856.878	0.0154452
856.956	0.0153276
857.034	0.0152670
857.112	0.0154314
857.190	0.0152911
857.268	0.0153860
857.346	0.0152920
857.424	0.0152846
857.503	0.0153821
857.581	0.0153056
857.659	0.0153040
857.737	0.0152359
857.815	0.0153504
857.893	0.0154291
857.971	0.0151556
858.049	0.0152276
858.128	0.0154017
858.206	0.0152557
858.284	0.0151765
858.362	0.0152863
858.440	0.0152906
858.518	0.0153345
858.596	0.0153985
858.674	0.0152991
858.753	0.0154572
858.831	0.0152820
858.909	0.0152985
858.987	0.0152760
859.065	0.0154910
859.143	0.0154035
859.221	0.0153581
859.299	0.0155148
859.378	0.0155558
859.456	0.0154467
859.534	0.0153330
859.612	0.0154453
859.690	0.0154676
859.768	0.0153766
859.846	0.0153951
859.924	0.0154651
860.003	0.0153618
860.081	0.0153048
860.159	0.0153017
860.237	0.0153396
860.315	0.0154351
860.393	0.0154025
860.471	0.0154568
860.549	0.0153352
860.628	0.0151623
860.706	0.0152702
860.784	0.0152882
860.862	0.0153367
860.940	0.0154269
861.018	0.0153943
861.096	0.0154143
861.174	0.0153170
861.253	0.0155055
861.331	0.0155918
861.409	0.0156228
861.487	0.0155448
861.565	0.0154253
861.643	0.0155550
861.721	0.0156911
861.799	0.0155885
861.878	0.0156885
861.956	0.0156349
862.034	0.0155756
862.112	0.0156786
862.190	0.0156055
862.268	0.0156821
862.346	0.0155291
862.424	0.0154755
862.503	0.0154926
862.581	0.0155397
862.659	0.0154389
862.737	0.0155619
862.815	0.0154715
862.893	0.0155643
862.971	0.0154742
863.049	0.0153625
863.128	0.0154259
863.206	0.0153684
863.284	0.0154350
863.362	0.0154224
863.440	0.0155389
863.518	0.0155254
863.596	0.0154134
863.674	0.0155290
863.753	0.0155375
863.831	0.0154515
863.909	0.0155203
863.987	0.0154758
864.065	0.0153788
864.143	0.0154971
864.221	0.0152808
864.299	0.0153725
864.378	0.0153519
864.456	0.0153159
864.534	0.0153549
864.612	0.0153749
864.690	0.0151630
864.768	0.0153329
864.846	0.0152021
864.924	0.0151278
865.003	0.0151060
865.081	0.0152699
865.159	0.0152353
865.237	0.0151133
865.315	0.0152016
865.393	0.0152039
865.471	0.0153368
865.549	0.0153133
865.628	0.0153219
865.706	0.0153889
865.784	0.0152580
865.862	0.0154130
865.940	0.0153648
866.018	0.0153086
866.096	0.0153425
866.174	0.0155077
866.253	0.0154629
866.331	0.0157206
866.409	0.0155520
866.487	0.0154656
866.565	0.0156599
866.643	0.0155103
866.721	0.0155153
866.799	0.0155387
866.878	0.0156799
866.956	0.0156725
867.034	0.0155264
867.112	0.0156186
867.190	0.0154253
867.268	0.0155264
867.346	0.0155112
867.424	0.0155505
867.503	0.0154335
867.581	0.0155560
867.659	0.0155314
867.737	0.0154555
867.815	0.0155939
867.893	0.0155872
867.971	0.0156699
868.049	0.0156195
868.128	0.0156383
868.206	0.0155612
868.284	0.0154732
868.362	0.0154964
868.440	0.0154739
868.518	0.0155734
868.596	0.0155619
868.674	0.0155151
868.753	0.0153392
868.831	0.0155921
868.909	0.0155222
868.987	0.0152328
869.065	0.0152657
869.143	0.0154677
869.221	0.0153866
869.299	0.0152599
869.378	0.0153654
869.456	0.0154004
869.534	0.0151344
869.612	0.0154195
869.690	0.0152628
869.768	0.0153048
869.846	0.0153142
869.924	0.0152334
870.003	0.0152793
870.081	0.0151660
870.159	0.0152677
870.237	0.0153270
870.315	0.0152331
870.393	0.0153343
870.471	0.0153789
870.549	0.0152724
870.628	0.0153497
870.706	0.0154762
870.784	0.0154791
870.862	0.0153436
870.940	0.0154871
871.018	0.0155643
871.096	0.0154269
871.174	0.0153156
871.253	0.0154989
871.331	0.0154375
871.409	0.0155990
871.487	0.0153870
871.565	0.0153284
871.643	0.0155045
871.721	0.0155190
871.799	0.0154941
871.878	0.0154451
871.956	0.0155525
872.034	0.0156200
872.112	0.0156304
872.190	0.0155190
872.268	0.0155138
872.346	0.0155397
872.424	0.0155027
872.503	0.0155080
872.581	0.0155441
872.659	0.0157664
872.737	0.0156844
872.815	0.0155372
872.893	0.0155904
872.971	0.0155505
873.049	0.0156837
873.128	0.0154907
873.206	0.0155038
873.284	0.0155460
873.362	0.0154584
873.440	0.0154849
873.518	0.0155195
873.596	0.0155408
873.674	0.0154597
873.753	0.0154794
873.831	0.0154663
873.909	0.0153393
873.987	0.0153101
874.065	0.0153925
874.143	0.0152978
874.221	0.0153084
874.299	0.0153453
874.378	0.0152827
874.456	0.0153899
874.534	0.0153407
874.612	0.0152013
874.690	0.0154002
874.768	0.0153571
874.846	0.0153217
874.924	0.0155881
875.003	0.0153521
875.081	0.0154373
875.159	0.0154060
875.237	0.0153650
875.315	0.0155098
875.393	0.0154695
875.471	0.0152792
875.549	0.0154015
875.628	0.0154188
875.706	0.0153901
875.784	0.0152534
875.862	0.0153847
875.940	0.0153111
876.018	0.0153585
876.096	0.0154567
876.174	0.0154176
876.253	0.0153458
876.331	0.0154370
876.409	0.0154113
876.487	0.0153357
876.565	0.0153970
876.643	0.0153494
876.721	0.0155142
876.799	0.0154552
876.878	0.0154790
876.956	0.0154441
877.034	0.0153249
877.112	0.0154879
877.190	0.0156381
877.268	0.0154977
877.346	0.0154948
877.424	0.0155550
877.503	0.0154751
877.581	0.0155315
877.659	0.0154842
877.737	0.0154489
877.815	0.0155094
877.893	0.0154816
877.971	0.0153566
878.049	0.0154328
878.128	0.0154991
878.206	0.0154662
878.284	0.0153464
878.362	0.0154381
878.440	0.0153809
878.518	0.0152541
878.596	0.0152514
878.674	0.0151337
878.753	0.0152303
878.831	0.0153874
878.909	0.0152376
878.987	0.0152036
879.065	0.0152348
879.143	0.0154006
879.221	0.0151340
879.299	0.0152332
879.378	0.0153033
879.456	0.0153429
879.534	0.0152433
879.612	0.0153101
879.690	0.0153113
879.768	0.0152007
879.846	0.0152394
879.924	0.0153594
880.003	0.0152575
880.081	0.0153786
880.159	0.0154626
880.237	0.0153246
880.315	0.0154163
880.393	0.0152773
880.471	0.0155349
880.549	0.0154600
880.628	0.0153817
880.706	0.0153036
880.784	0.0154891
880.862	0.0155111
880.940	0.0154298
881.018	0.0154443
881.096	0.0154842
881.174	0.0154281
881.253	0.0153654
881.331	0.0153750
881.409	0.0154197
881.487	0.0152923
881.565	0.0154178
881.643	0.0154285
881.721	0.0153465
881.799	0.0154977
881.878	0.0153996
881.956	0.0154594
882.034	0.0155568
882.112	0.0154514
882.190	0.0154498
882.268	0.0155724
882.346	0.0153860
882.424	0.0153947
882.503	0.0156025
882.581	0.0155040
882.659	0.0155230
882.737	0.0154688
882.815	0.0153455
882.893	0.0153851
882.971	0.0155454
883.049	0.0154353
883.128	0.0153276
883.206	0.0152824
883.284	0.0153221
883.362	0.0153191
883.440	0.0153062
883.518	0.0153049
883.596	0.0153786
883.674	0.0153952
883.753	0.0153531
883.831	0.0153236
883.909	0.0154099
883.987	0.0152386
884.065	0.0153337
884.143	0.0153710
884.221	0.0154167
884.299	0.0153118
884.378	0.0153065
884.456	0.0153507
884.534	0.0152030
884.612	0.0153200
884.690	0.0154367
884.768	0.0153605
884.846	0.0152474
884.924	0.0152820
885.003	0.0152863
885.081	0.0153342
885.159	0.0152802
885.237	0.0153712
885.315	0.0154286
885.393	0.0153721
885.471	0.0153741
885.549	0.0154633
885.628	0.0154185
885.706	0.0154430
885.784	0.0154453
885.862	0.0154831
885.940	0.0153760
886.018	0.0155503
886.096	0.0154958
886.174	0.0154810
886.253	0.0154982
886.331	0.0152964
886.409	0.0153981
886.487	0.0154928
886.565	0.0153798
886.643	0.0154708
886.721	0.0155399
886.799	0.0154530
886.878	0.0153951
886.956	0.0154306
887.034	0.0153493
887.112	0.0153222
887.190	0.0154547
887.268	0.0154568
887.346	0.0153380
887.424	0.0153259
887.503	0.0154213
887.581	0.0153279
887.659	0.0152861
887.737	0.0153138
887.815	0.0153918
887.893	0.0153023
887.971	0.0154190
888.049	0.0153391
888.128	0.0153447
888.206	0.0154546
888.284	0.0153738
888.362	0.0153074
888.440	0.0153433
888.518	0.0153284
888.596	0.0153551
888.674	0.0154675
888.753	0.0154123
888.831	0.0153750
888.909	0.0153850
888.987	0.0154520
889.065	0.0154371
889.143	0.0153413
889.221	0.0153962
889.299	0.0154432
889.378	0.0154604
889.456	0.0154493
889.534	0.0153816
889.612	0.0154159
889.690	0.0153674
889.768	0.0154569
889.846	0.0152624
889.924	0.0153111
890.003	0.0153572
890.081	0.0153493
890.159	0.0153821
890.237	0.0154170
890.315	0.0152872
890.393	0.0152930
890.471	0.0153339
890.549	0.0154199
890.628	0.0153465
890.706	0.0153478
890.784	0.0153246
890.862	0.0153075
890.940	0.0153192
891.018	0.0153420
891.096	0.0154314
891.174	0.0153470
891.253	0.0154248
891.331	0.0154299
891.409	0.0152961
891.487	0.0152670
891.565	0.0153770
891.643	0.0153123
891.721	0.0153606
891.799	0.0152454
891.878	0.0154083
891.956	0.0154774
892.034	0.0155722
892.112	0.0153023
892.190	0.0152729
892.268	0.0152886
892.346	0.0153844
892.424	0.0153876
892.503	0.0153640
892.581	0.0153278
892.659	0.0153953
892.737	0.0154586
892.815	0.0153935
892.893	0.0154511
892.971	0.0153699
893.049	0.0154108
893.128	0.0153728
893.206	0.0153949
893.284	0.0154015
893.362	0.0154933
893.440	0.0153978
893.518	0.0152157
893.596	0.0152780
893.674	0.0153164
893.753	0.0153658
893.831	0.0153332
893.909	0.0153593
893.987	0.0152812
894.065	0.0152512
894.143	0.0155096
894.221	0.0153333
894.299	0.0154130
894.378	0.0153044
894.456	0.0154448
894.534	0.0152990
894.612	0.0153587
894.690	0.0153206
894.768	0.0153786
894.846	0.0152179
894.924	0.0151842
895.003	0.0154490
895.081	0.0153097
895.159	0.0154101
895.237	0.0152757
895.315	0.0151927
895.393	0.0152880
895.471	0.0154984
895.549	0.0153201
895.628	0.0153629
895.706	0.0153455
895.784	0.0153664
895.862	0.0152576
895.940	0.0154018
896.018	0.0153706
896.096	0.0154446
896.174	0.0154444
896.253	0.0154675
896.331	0.0155341
896.409	0.0154079
896.487	0.0154980
896.565	0.0155509
896.643	0.0154958
896.721	0.0155581
896.799	0.0155495
896.878	0.0154027
896.956	0.0154155
897.034	0.0155108
897.112	0.0155500
897.190	0.0155247
897.268	0.0154905
897.346	0.0154817
897.424	0.0154808
897.503	0.0155122
897.581	0.0155313
897.659	0.0153528
897.737	0.0154189
897.815	0.0155142
897.893	0.0154034
897.971	0.0155294
898.049	0.0154740
898.128	0.0153782
898.206	0.0153789
898.284	0.0155119
898.362	0.0154536
898.440	0.0154788
898.518	0.0153567
898.596	0.0154321
898.674	0.0153090
898.753	0.0153485
898.831	0.0152830
898.909	0.0153867
898.987	0.0153400
899.065	0.0152660
899.143	0.0152974
899.221	0.0154591
899.299	0.0155046
899.378	0.0152773
899.456	0.0153679
899.534	0.0154469
899.612	0.0153834
899.690	0.0153858
899.768	0.0152040
899.846	0.0152734
899.924	0.0153868
900.003	0.0153851
900.081	0.0152969
900.159	0.0152990
900.237	0.0153396
900.315	0.0153470
900.393	0.0152197
900.471	0.0152688
900.549	0.0152384
900.628	0.0154192
900.706	0.0152924
900.784	0.0155661
900.862	0.0153889
900.940	0.0154434
901.018	0.0154887
901.096	0.0155109
901.174	0.0155508
901.253	0.0155187
901.331	0.0154618
901.409	0.0156207
901.487	0.0157827
901.565	0.0157105
901.643	0.0156866
901.721	0.0156215
901.799	0.0156102
901.878	0.0154839
901.956	0.0154250
902.034	0.0154079
902.112	0.0154001
902.190	0.0155204
902.268	0.0155313
902.346	0.0153938
902.424	0.0153916
902.503	0.0154121
902.581	0.0154391
902.659	0.0155505
902.737	0.0153533
902.815	0.0154647
902.893	0.0154691
902.971	0.0153013
903.049	0.0154230
903.128	0.0153655
903.206	0.0154460
903.284	0.0153602
903.362	0.0153413
903.440	0.0152869
903.518	0.0154011
903.596	0.0154223
903.674	0.0154957
903.753	0.0154385
903.831	0.0153831
903.909	0.0154185
903.987	0.0155486
904.065	0.0154736
904.143	0.0152753
904.221	0.0154306
904.299	0.0153352
904.378	0.0152962
904.456	0.0153960
904.534	0.0153918
904.612	0.0153562
904.690	0.0153296
904.768	0.0152197
904.846	0.0153529
904.924	0.0154096
905.003	0.0153719
905.081	0.0153373
905.159	0.0153075
905.237	0.0154060
905.315	0.0153014
905.393	0.0152656
905.471	0.0155068
905.549	0.0153564
905.628	0.0153436
905.706	0.0154088
905.784	0.0152988
905.862	0.0155338
905.940	0.0153121
906.018	0.0153356
906.096	0.0154612
906.174	0.0154118
906.253	0.0153355
906.331	0.0154625
906.409	0.0152776
906.487	0.0154826
906.565	0.0154594
906.643	0.0155608
906.721	0.0153416
906.799	0.0154449
906.878	0.0153517
906.956	0.0153944
907.034	0.0153791
907.112	0.0154103
907.190	0.0153480
907.268	0.0152738
907.346	0.0153802
907.424	0.0153320
907.503	0.0154123
907.581	0.0153242
907.659	0.0153065
907.737	0.0153818
907.815	0.0151981
907.893	0.0153317
907.971	0.0155511
908.049	0.0155055
908.128	0.0155590
908.206	0.0155083
908.284	0.0154329
908.362	0.0153498
908.440	0.0155350
908.518	0.0156296
908.596	0.0154630
908.674	0.0155159
908.753	0.0156001
908.831	0.0154871
908.909	0.0154427
908.987	0.0155356
909.065	0.0154243
909.143	0.0153034
909.221	0.0154064
909.299	0.0154303
909.378	0.0153909
909.456	0.0152754
909.534	0.0153282
909.612	0.0153393
909.690	0.0153295
909.768	0.0153843
909.846	0.0153247
909.924	0.0152257
910.003	0.0152719
910.081	0.0153001
910.159	0.0152205
910.237	0.0153432
910.315	0.0152533
910.393	0.0152480
910.471	0.0153197
910.549	0.0154830
910.628	0.0152413
910.706	0.0153762
910.784	0.0154468
910.862	0.0153282
910.940	0.0155199
911.018	0.0154126
911.096	0.0154293
911.174	0.0154403
911.253	0.0154719
911.331	0.0154081
911.409	0.0153742
911.487	0.0154354
911.565	0.0153078
911.643	0.0154446
911.721	0.0154768
911.799	0.0152464
911.878	0.0153276
911.956	0.0154263
912.034	0.0153658
912.112	0.0153415
912.190	0.0153479
912.268	0.0154079
912.346	0.0152650
912.424	0.0152214
912.503	0.0153880
912.581	0.0152441
912.659	0.0152708
912.737	0.0154029
912.815	0.0154767
912.893	0.0152793
912.971	0.0154024
913.049	0.0153934
913.128	0.0152917
913.206	0.0154307
913.284	0.0154004
913.362	0.0154248
913.440	0.0154367
913.518	0.0154939
913.596	0.0156218
913.674	0.0155560
913.753	0.0155019
913.831	0.0157061
913.909	0.0156631
913.987	0.0155378
914.065	0.0155433
914.143	0.0155539
914.221	0.0156194
914.299	0.0154559
914.378	0.0153996
914.456	0.0153973
914.534	0.0154401
914.612	0.0153383
914.690	0.0153036
914.768	0.0152499
914.846	0.0152687
914.924	0.0153251
915.003	0.0153866
915.081	0.0151818
915.159	0.0153572
915.237	0.0154703
915.315	0.0153451
915.393	0.0154126
915.471	0.0155399
915.549	0.0154457
915.628	0.0153902
915.706	0.0153404
915.784	0.0153936
915.862	0.0154471
915.940	0.0155210
916.018	0.0154674
916.096	0.0154864
916.174	0.0153043
916.253	0.0154006
916.331	0.0153792
916.409	0.0153854
916.487	0.0155033
916.565	0.0155176
916.643	0.0155640
916.721	0.0153699
916.799	0.0155042
916.878	0.0155357
916.956	0.0155916
917.034	0.0155604
917.112	0.0155212
917.190	0.0153239
917.268	0.0155287
917.346	0.0154987
917.424	0.0154720
917.503	0.0154312
917.581	0.0153546
917.659	0.0154362
917.737	0.0154630
917.815	0.0153185
917.893	0.0153436
917.971	0.0153647
918.049	0.0152179
918.128	0.0153255
918.206	0.0152377
918.284	0.0152507
918.362	0.0153295
918.440	0.0152184
918.518	0.0153107
918.596	0.0153383
918.674	0.0153762
918.753	0.0152901
918.831	0.0153706
918.909	0.0153094
918.987	0.0154289
919.065	0.0154865
919.143	0.0155024
919.221	0.0154041
919.299	0.0154862
919.378	0.0153637
919.456	0.0155198
919.534	0.0154289
919.612	0.0153913
919.690	0.0154077
919.768	0.0153967
919.846	0.0153716
919.924	0.0153329
920.003	0.0152666
920.081	0.0154070
920.159	0.0151311
920.237	0.0153470
920.315	0.0153642
920.393	0.0152663
920.471	0.0153906
920.549	0.0155055
920.628	0.0154861
920.706	0.0155161
920.784	0.0155634
920.862	0.0155591
920.940	0.0157876
921.018	0.0157235
921.096	0.0156296
921.174	0.0156792
921.253	0.0158366
921.331	0.0156667
921.409	0.0156918
921.487	0.0156001
921.565	0.0156976
921.643	0.0156740
921.721	0.0156966
921.799	0.0155184
921.878	0.0154987
921.956	0.0154407
922.034	0.0153551
922.112	0.0154065
922.190	0.0153954
922.268	0.0151623
922.346	0.0152058
922.424	0.0151000
922.503	0.0152027
922.581	0.0152588
922.659	0.0150558
922.737	0.0150997
922.815	0.0151010
922.893	0.0152180
922.971	0.0152065
923.049	0.0153255
923.128	0.0152864
923.206	0.0152380
923.284	0.0154560
923.362	0.0155679
923.440	0.0154185
923.518	0.0152579
923.596	0.0154852
923.674	0.0154527
923.753	0.0155121
923.831	0.0155589
923.909	0.0155383
923.987	0.0155084
924.065	0.0155305
924.143	0.0154809
924.221	0.0155125
924.299	0.0154314
924.378	0.0153790
924.456	0.0153126
924.534	0.0152573
924.612	0.0152655
924.690	0.0154055
924.768	0.0152991
924.846	0.0154661
924.924	0.0154692
925.003	0.0156116
925.081	0.0154796
925.159	0.0155471
925.237	0.0155979
925.315	0.0157175
925.393	0.0158421
925.471	0.0157605
925.549	0.0158559
925.628	0.0159007
925.706	0.0158221
925.784	0.0158053
925.862	0.0157809
925.940	0.0155611
926.018	0.0157134
926.096	0.0157619
926.174	0.0156628
926.253	0.0154675
926.331	0.0153883
926.409	0.0153427
926.487	0.0151919
926.565	0.0152706
926.643	0.0152235
926.721	0.0151152
926.799	0.0151527
926.878	0.0150858
926.956	0.0151360
927.034	0.0152598
927.112	0.0151546
927.190	0.0151859
927.268	0.0154382
927.346	0.0151438
927.424	0.0152816
927.503	0.0154748
927.581	0.0152814
927.659	0.0154436
927.737	0.0155563
927.815	0.0153825
927.893	0.0153453
927.971	0.0154445
928.049	0.0155389
928.128	0.0155943
928.206	0.0155106
928.284	0.0155363
928.362	0.0154917
928.440	0.0155748
928.518	0.0153571
928.596	0.0154975
928.674	0.0154318
928.753	0.0153040
928.831	0.0153895
928.909	0.0153687
928.987	0.0152383
929.065	0.0152048
929.143	0.0151522
929.221	0.0152088
929.299	0.0153307
929.378	0.0153098
929.456	0.0151436
929.534	0.0152628
929.612	0.0152337
929.690	0.0153160
929.768	0.0154521
929.846	0.0154227
929.924	0.0156396
930.003	0.0157368
930.081	0.0155991
930.159	0.0157143
930.237	0.0157423
930.315	0.0156403
930.393	0.0157188
930.471	0.0156215
930.549	0.0155436
930.628	0.0155651
930.706	0.0155405
930.784	0.0154534
930.862	0.0152184
930.940	0.0153556
931.018	0.0153677
931.096	0.0153093
931.174	0.0153481
931.253	0.0152986
931.331	0.0152421
931.409	0.0153700
931.487	0.0154601
931.565	0.0155012
931.643	0.0155042
931.721	0.0155109
931.799	0.0154343
931.878	0.0154100
931.956	0.0154195
932.034	0.0155569
932.112	0.0154588
932.190	0.0153824
932.268	0.0153908
932.346	0.0155305
932.424	0.0154592
932.503	0.0152956
932.581	0.0153469
932.659	0.0154068
932.737	0.0154404
932.815	0.0153588
932.893	0.0154135
932.971	0.0154379
933.049	0.0154406
933.128	0.0153652
933.206	0.0153955
933.284	0.0153757
933.362	0.0154156
933.440	0.0152791
933.518	0.0153170
933.596	0.0153605
933.674	0.0153647
933.753	0.0152088
933.831	0.0152068
933.909	0.0153017
933.987	0.0152379
934.065	0.0151855
934.143	0.0153849
934.221	0.0152612
934.299	0.0153365
934.378	0.0155645
934.456	0.0156388
934.534	0.0154839
934.612	0.0155572
934.690	0.0156653
934.768	0.0155859
934.846	0.0154976
934.924	0.0155586
935.003	0.0155614
935.081	0.0156058
935.159	0.0153245
935.237	0.0153339
935.315	0.0154821
935.393	0.0154943
935.471	0.0152921
935.549	0.0152148
935.628	0.0153321
935.706	0.0153264
935.784	0.0153538
935.862	0.0153255
935.940	0.0154477
936.018	0.0153485
936.096	0.0154550
936.174	0.0154120
936.253	0.0154229
936.331	0.0154673
936.409	0.0156235
936.487	0.0156477
936.565	0.0155165
936.643	0.0156554
936.721	0.0156281
936.799	0.0156536
936.878	0.0155883
936.956	0.0153603
937.034	0.0152730
937.112	0.0154206
937.190	0.0153629
937.268	0.0155025
937.346	0.0154202
937.424	0.0153739
937.503	0.0154888
937.581	0.0154375
937.659	0.0154060
937.737	0.0153429
937.815	0.0152865
937.893	0.0155417
937.971	0.0153757
938.049	0.0154664
938.128	0.0153911
938.206	0.0153777
938.284	0.0153553
938.362	0.0154073
938.440	0.0152551
938.518	0.0153237
938.596	0.0153656
938.674	0.0152058
938.753	0.0152061
938.831	0.0153250
938.909	0.0153450
938.987	0.0152020
939.065	0.0153198
939.143	0.0153196
939.221	0.0153237
939.299	0.0154520
939.378	0.0153603
939.456	0.0154002
939.534	0.0155424
939.612	0.0155230
939.690	0.0155557
939.768	0.0155549
939.846	0.0154593
939.924	0.0152982
940.003	0.0155548
940.081	0.0154495
940.159	0.0154382
940.237	0.0154572
940.315	0.0154475
940.393	0.0153101
940.471	0.0154122
940.549	0.0153360
940.628	0.0154372
940.706	0.0154145
940.784	0.0154491
940.862	0.0155048
940.940	0.0154388
941.018	0.0154469
941.096	0.0156264
941.174	0.0154656
941.253	0.0154830
941.331	0.0154108
941.409	0.0155277
941.487	0.0155095
941.565	0.0154494
941.643	0.0152412
941.721	0.0152484
941.799	0.0152635
941.878	0.0152822
941.956	0.0153500
942.034	0.0152870
942.112	0.0152730
942.190	0.0155362
942.268	0.0152744
942.346	0.0152843
942.424	0.0152022
942.503	0.0153989
942.581	0.0153032
942.659	0.0154385
942.737	0.0153990
942.815	0.0153956
942.893	0.0153812
942.971	0.0154440
943.049	0.0154355
943.128	0.0154600
943.206	0.0153455
943.284	0.0153816
943.362	0.0154996
943.440	0.0154106
943.518	0.0153363
943.596	0.0154341
943.674	0.0152171
943.753	0.0152850
943.831	0.0155238
943.909	0.0154761
943.987	0.0152824
944.065	0.0154758
944.143	0.0154974
944.221	0.0154978
944.299	0.0153355
944.378	0.0154926
944.456	0.0155113
944.534	0.0155111
944.612	0.0153708
944.690	0.0154671
944.768	0.0154861
944.846	0.0154443
944.924	0.0153885
945.003	0.0153761
945.081	0.0152724
945.159	0.0155237
945.237	0.0154469
945.315	0.0153226
945.393	0.0153725
945.471	0.0154050
945.549	0.0154340
945.628	0.0154234
945.706	0.0154465
945.784	0.0154911
945.862	0.0154969
945.940	0.0154787
946.018	0.0155120
946.096	0.0155383
946.174	0.0155840
946.253	0.0154264
946.331	0.0154276
946.409	0.0154758
946.487	0.0154466
946.565	0.0154065
946.643	0.0152338
946.721	0.0153081
946.799	0.0153645
946.878	0.0153188
946.956	0.0153808
947.034	0.0152983
947.112	0.0153226
947.190	0.0154100
947.268	0.0153491
947.346	0.0152459
947.424	0.0153960
947.503	0.0153509
947.581	0.0155245
947.659	0.0154109
947.737	0.0154433
947.815	0.0153136
947.893	0.0153316
947.971	0.0155347
948.049	0.0154373
948.128	0.0153927
948.206	0.0154485
948.284	0.0155193
948.362	0.0155444
948.440	0.0154448
948.518	0.0153082
948.596	0.0154737
948.674	0.0154444
948.753	0.0155545
948.831	0.0155064
948.909	0.0155898
948.987	0.0154327
949.065	0.0154751
949.143	0.0155173
949.221	0.0154465
949.299	0.0154368
949.378	0.0155672
949.456	0.0154698
949.534	0.0154716
949.612	0.0154763
949.690	0.0154897
949.768	0.0153946
949.846	0.0154649
949.924	0.0153371
