06/29/2022	22:54:30	Ver.	4.1	UNKNOWN
Optical Delay	630.002507	Delta X		0.078125	Sweeps	1	Scan Rate	0/0
Coordinates	Axis 1	NaN	Axis 2	NaN	Axis 3	NaN	Axis 4	NaN	Axis 5	NaN	Axis 6	0.000000
TX Power	0.000000	RX Power	0.000000

630.003	0.0161038
630.081	0.0160582
630.159	0.0161172
630.237	0.0161227
630.315	0.0161271
630.393	0.0161217
630.471	0.0160537
630.549	0.0161407
630.628	0.0160552
630.706	0.0159839
630.784	0.0160078
630.862	0.0160072
630.940	0.0160364
631.018	0.0162043
631.096	0.0161390
631.174	0.0160931
631.253	0.0161333
631.331	0.0160288
631.409	0.0161328
631.487	0.0160832
631.565	0.0160516
631.643	0.0159654
631.721	0.0160320
631.799	0.0159910
631.878	0.0159762
631.956	0.0161399
632.034	0.0161288
632.112	0.0161331
632.190	0.0160493
632.268	0.0160395
632.346	0.0160251
632.424	0.0160679
632.503	0.0160470
632.581	0.0160725
632.659	0.0160323
632.737	0.0161308
632.815	0.0161837
632.893	0.0160277
632.971	0.0159444
633.049	0.0159899
633.128	0.0161089
633.206	0.0161985
633.284	0.0160609
633.362	0.0160742
633.440	0.0160345
633.518	0.0160552
633.596	0.0159912
633.674	0.0158885
633.753	0.0160256
633.831	0.0162170
633.909	0.0160231
633.987	0.0161207
634.065	0.0160560
634.143	0.0159597
634.221	0.0160732
634.299	0.0160840
634.378	0.0161776
634.456	0.0160241
634.534	0.0161081
634.612	0.0160882
634.690	0.0160343
634.768	0.0161449
634.846	0.0160465
634.924	0.0161279
635.003	0.0161652
635.081	0.0160207
635.159	0.0162137
635.237	0.0161425
635.315	0.0161201
635.393	0.0160828
635.471	0.0161419
635.549	0.0160861
635.628	0.0162890
635.706	0.0161111
635.784	0.0160497
635.862	0.0160811
635.940	0.0161133
636.018	0.0160832
636.096	0.0160136
636.174	0.0159431
636.253	0.0160439
636.331	0.0160905
636.409	0.0159847
636.487	0.0160061
636.565	0.0160480
636.643	0.0161744
636.721	0.0160106
636.799	0.0160794
636.878	0.0161234
636.956	0.0161285
637.034	0.0159909
637.112	0.0161001
637.190	0.0160419
637.268	0.0160740
637.346	0.0161790
637.424	0.0160471
637.503	0.0160548
637.581	0.0161152
637.659	0.0160571
637.737	0.0162335
637.815	0.0161207
637.893	0.0160748
637.971	0.0161755
638.049	0.0161222
638.128	0.0161406
638.206	0.0160506
638.284	0.0160384
638.362	0.0159744
638.440	0.0162067
638.518	0.0160851
638.596	0.0160519
638.674	0.0161490
638.753	0.0160905
638.831	0.0160708
638.909	0.0160491
638.987	0.0160831
639.065	0.0159713
639.143	0.0160670
639.221	0.0160537
639.299	0.0160963
639.378	0.0160813
639.456	0.0160794
639.534	0.0162315
639.612	0.0160367
639.690	0.0160298
639.768	0.0160408
639.846	0.0160830
639.924	0.0160638
640.003	0.0160450
640.081	0.0160517
640.159	0.0162160
640.237	0.0162534
640.315	0.0160191
640.393	0.0160911
640.471	0.0160245
640.549	0.0160931
640.628	0.0161702
640.706	0.0160159
640.784	0.0160681
640.862	0.0161977
640.940	0.0160967
641.018	0.0161694
641.096	0.0161345
641.174	0.0160855
641.253	0.0161621
641.331	0.0161237
641.409	0.0161882
641.487	0.0162179
641.565	0.0160041
641.643	0.0161169
641.721	0.0159734
641.799	0.0160760
641.878	0.0161484
641.956	0.0161211
642.034	0.0160202
642.112	0.0160123
642.190	0.0159895
642.268	0.0158897
642.346	0.0161600
642.424	0.0161145
642.503	0.0160784
642.581	0.0160262
642.659	0.0161381
642.737	0.0161200
642.815	0.0162289
642.893	0.0161952
642.971	0.0161008
643.049	0.0160291
643.128	0.0160478
643.206	0.0162007
643.284	0.0161358
643.362	0.0160979
643.440	0.0161951
643.518	0.0160250
643.596	0.0161112
643.674	0.0161305
643.753	0.0161646
643.831	0.0161267
643.909	0.0160835
643.987	0.0161740
644.065	0.0159731
644.143	0.0160873
644.221	0.0160823
644.299	0.0161597
644.378	0.0159989
644.456	0.0160728
644.534	0.0160867
644.612	0.0160799
644.690	0.0161395
644.768	0.0161473
644.846	0.0160896
644.924	0.0160056
645.003	0.0158900
645.081	0.0162206
645.159	0.0160714
645.237	0.0161304
645.315	0.0160757
645.393	0.0160291
645.471	0.0160670
645.549	0.0160416
645.628	0.0161085
645.706	0.0160634
645.784	0.0161742
645.862	0.0162337
645.940	0.0161951
646.018	0.0160981
646.096	0.0161228
646.174	0.0160303
646.253	0.0162061
646.331	0.0162015
646.409	0.0160516
646.487	0.0161322
646.565	0.0161267
646.643	0.0162617
646.721	0.0161382
646.799	0.0161210
646.878	0.0160693
646.956	0.0161925
647.034	0.0161358
647.112	0.0160446
647.190	0.0162632
647.268	0.0160934
647.346	0.0160202
647.424	0.0161198
647.503	0.0161505
647.581	0.0162325
647.659	0.0160973
647.737	0.0161571
647.815	0.0161179
647.893	0.0162241
647.971	0.0161192
648.049	0.0161005
648.128	0.0160633
648.206	0.0162007
648.284	0.0161533
648.362	0.0160486
648.440	0.0161024
648.518	0.0160936
648.596	0.0159788
648.674	0.0160423
648.753	0.0159835
648.831	0.0161940
648.909	0.0160316
648.987	0.0160366
649.065	0.0160457
649.143	0.0160295
649.221	0.0159637
649.299	0.0160672
649.378	0.0161124
649.456	0.0161124
649.534	0.0159682
649.612	0.0161246
649.690	0.0161655
649.768	0.0161313
649.846	0.0159904
649.924	0.0162292
650.003	0.0161445
650.081	0.0160310
650.159	0.0159882
650.237	0.0160929
650.315	0.0161079
650.393	0.0159570
650.471	0.0162341
650.549	0.0161722
650.628	0.0160601
650.706	0.0161073
650.784	0.0161357
650.862	0.0160612
650.940	0.0161337
651.018	0.0160946
651.096	0.0161319
651.174	0.0160810
651.253	0.0159966
651.331	0.0161434
651.409	0.0161302
651.487	0.0160259
651.565	0.0159629
651.643	0.0159064
651.721	0.0161599
651.799	0.0162039
651.878	0.0161927
651.956	0.0161080
652.034	0.0161456
652.112	0.0161430
652.190	0.0161597
652.268	0.0160487
652.346	0.0160842
652.424	0.0161272
652.503	0.0160860
652.581	0.0160578
652.659	0.0160565
652.737	0.0161205
652.815	0.0161384
652.893	0.0161089
652.971	0.0160683
653.049	0.0161315
653.128	0.0160417
653.206	0.0161693
653.284	0.0160992
653.362	0.0160778
653.440	0.0160081
653.518	0.0161896
653.596	0.0159988
653.674	0.0160626
653.753	0.0160378
653.831	0.0160885
653.909	0.0160741
653.987	0.0161859
654.065	0.0161391
654.143	0.0160955
654.221	0.0160985
654.299	0.0162080
654.378	0.0160390
654.456	0.0160804
654.534	0.0160072
654.612	0.0161658
654.690	0.0160165
654.768	0.0160942
654.846	0.0161778
654.924	0.0160105
655.003	0.0162528
655.081	0.0160973
655.159	0.0159512
655.237	0.0161096
655.315	0.0160601
655.393	0.0159202
655.471	0.0159682
655.549	0.0161437
655.628	0.0161269
655.706	0.0160907
655.784	0.0159815
655.862	0.0161403
655.940	0.0159801
656.018	0.0162416
656.096	0.0161272
656.174	0.0160287
656.253	0.0159859
656.331	0.0162040
656.409	0.0161169
656.487	0.0160731
656.565	0.0160336
656.643	0.0160371
656.721	0.0160288
656.799	0.0160806
656.878	0.0160774
656.956	0.0161406
657.034	0.0161523
657.112	0.0160248
657.190	0.0161530
657.268	0.0161518
657.346	0.0159538
657.424	0.0159682
657.503	0.0160423
657.581	0.0160853
657.659	0.0161208
657.737	0.0161104
657.815	0.0160112
657.893	0.0161812
657.971	0.0160559
658.049	0.0160794
658.128	0.0161517
658.206	0.0160931
658.284	0.0160271
658.362	0.0160767
658.440	0.0161253
658.518	0.0161704
658.596	0.0160149
658.674	0.0159502
658.753	0.0161599
658.831	0.0161297
658.909	0.0160722
658.987	0.0160934
659.065	0.0159416
659.143	0.0160891
659.221	0.0161495
659.299	0.0161518
659.378	0.0161662
659.456	0.0160685
659.534	0.0161512
659.612	0.0162606
659.690	0.0161378
659.768	0.0161217
659.846	0.0160211
659.924	0.0159554
660.003	0.0161333
660.081	0.0160356
660.159	0.0161041
660.237	0.0159723
660.315	0.0161749
660.393	0.0160824
660.471	0.0161884
660.549	0.0161197
660.628	0.0161082
660.706	0.0160564
660.784	0.0160613
660.862	0.0161295
660.940	0.0161392
661.018	0.0161784
661.096	0.0161684
661.174	0.0160482
661.253	0.0160607
661.331	0.0160035
661.409	0.0160358
661.487	0.0159843
661.565	0.0160329
661.643	0.0160947
661.721	0.0161836
661.799	0.0161330
661.878	0.0161475
661.956	0.0161173
662.034	0.0161242
662.112	0.0160918
662.190	0.0160442
662.268	0.0160286
662.346	0.0160944
662.424	0.0160162
662.503	0.0160773
662.581	0.0161237
662.659	0.0159885
662.737	0.0160094
662.815	0.0159669
662.893	0.0160770
662.971	0.0159595
663.049	0.0160665
663.128	0.0161900
663.206	0.0161639
663.284	0.0161790
663.362	0.0160449
663.440	0.0159998
663.518	0.0161207
663.596	0.0161224
663.674	0.0160323
663.753	0.0159711
663.831	0.0160029
663.909	0.0161857
663.987	0.0161348
664.065	0.0161692
664.143	0.0160234
664.221	0.0159516
664.299	0.0161053
664.378	0.0162100
664.456	0.0159852
664.534	0.0160720
664.612	0.0160233
664.690	0.0160957
664.768	0.0160822
664.846	0.0160194
664.924	0.0161803
665.003	0.0160722
665.081	0.0161275
665.159	0.0162032
665.237	0.0160400
665.315	0.0161021
665.393	0.0161118
665.471	0.0160178
665.549	0.0160885
665.628	0.0160322
665.706	0.0162189
665.784	0.0161763
665.862	0.0160757
665.940	0.0160998
666.018	0.0160477
666.096	0.0160834
666.174	0.0159827
666.253	0.0161848
666.331	0.0161214
666.409	0.0159893
666.487	0.0159077
666.565	0.0161731
666.643	0.0161162
666.721	0.0160336
666.799	0.0160107
666.878	0.0161327
666.956	0.0159964
667.034	0.0160816
667.112	0.0159728
667.190	0.0160101
667.268	0.0161794
667.346	0.0160136
667.424	0.0160383
667.503	0.0161053
667.581	0.0160059
667.659	0.0161064
667.737	0.0160271
667.815	0.0161328
667.893	0.0160233
667.971	0.0160390
668.049	0.0161263
668.128	0.0161229
668.206	0.0160197
668.284	0.0160743
668.362	0.0160578
668.440	0.0159692
668.518	0.0159792
668.596	0.0160583
668.674	0.0161954
668.753	0.0159111
668.831	0.0159683
668.909	0.0160902
668.987	0.0159903
669.065	0.0160416
669.143	0.0160109
669.221	0.0160889
669.299	0.0160938
669.378	0.0160382
669.456	0.0160915
669.534	0.0161225
669.612	0.0160184
669.690	0.0160452
669.768	0.0159862
669.846	0.0160080
669.924	0.0160232
670.003	0.0160751
670.081	0.0160658
670.159	0.0160413
670.237	0.0160246
670.315	0.0161341
670.393	0.0161923
670.471	0.0160867
670.549	0.0160740
670.628	0.0162118
670.706	0.0160789
670.784	0.0159877
670.862	0.0160902
670.940	0.0161521
671.018	0.0160160
671.096	0.0160352
671.174	0.0161982
671.253	0.0161769
671.331	0.0160384
671.409	0.0161200
671.487	0.0161039
671.565	0.0160762
671.643	0.0159947
671.721	0.0160281
671.799	0.0161806
671.878	0.0160729
671.956	0.0159682
672.034	0.0160090
672.112	0.0161353
672.190	0.0160744
672.268	0.0159724
672.346	0.0160020
672.424	0.0160781
672.503	0.0160442
672.581	0.0161584
672.659	0.0159833
672.737	0.0161249
672.815	0.0160598
672.893	0.0159913
672.971	0.0160656
673.049	0.0161217
673.128	0.0160679
673.206	0.0161285
673.284	0.0160941
673.362	0.0161108
673.440	0.0159915
673.518	0.0160635
673.596	0.0161452
673.674	0.0159980
673.753	0.0161568
673.831	0.0160592
673.909	0.0161914
673.987	0.0160635
674.065	0.0160377
674.143	0.0159534
674.221	0.0160603
674.299	0.0160703
674.378	0.0160886
674.456	0.0161871
674.534	0.0159845
674.612	0.0161232
674.690	0.0161604
674.768	0.0161035
674.846	0.0161523
674.924	0.0160963
675.003	0.0160986
675.081	0.0160678
675.159	0.0161183
675.237	0.0161996
675.315	0.0160262
675.393	0.0161961
675.471	0.0161941
675.549	0.0161723
675.628	0.0160254
675.706	0.0161066
675.784	0.0161185
675.862	0.0160129
675.940	0.0161302
676.018	0.0161784
676.096	0.0161498
676.174	0.0160707
676.253	0.0160430
676.331	0.0161971
676.409	0.0161218
676.487	0.0161341
676.565	0.0162026
676.643	0.0161274
676.721	0.0161945
676.799	0.0161319
676.878	0.0161935
676.956	0.0160624
677.034	0.0160336
677.112	0.0160072
677.190	0.0160964
677.268	0.0161462
677.346	0.0161028
677.424	0.0159347
677.503	0.0161284
677.581	0.0161811
677.659	0.0160500
677.737	0.0160542
677.815	0.0161481
677.893	0.0162173
677.971	0.0160398
678.049	0.0161756
678.128	0.0160845
678.206	0.0161999
678.284	0.0160361
678.362	0.0160672
678.440	0.0161847
678.518	0.0159973
678.596	0.0160968
678.674	0.0160204
678.753	0.0161378
678.831	0.0160844
678.909	0.0161310
678.987	0.0159824
679.065	0.0160464
679.143	0.0160027
679.221	0.0160448
679.299	0.0161464
679.378	0.0161699
679.456	0.0161275
679.534	0.0160974
679.612	0.0161879
679.690	0.0160714
679.768	0.0160439
679.846	0.0161147
679.924	0.0161015
680.003	0.0160903
680.081	0.0161068
680.159	0.0159398
680.237	0.0160667
680.315	0.0160310
680.393	0.0159970
680.471	0.0160690
680.549	0.0161580
680.628	0.0160186
680.706	0.0160909
680.784	0.0160790
680.862	0.0161119
680.940	0.0160719
681.018	0.0161543
681.096	0.0161340
681.174	0.0159644
681.253	0.0160960
681.331	0.0160314
681.409	0.0161935
681.487	0.0161584
681.565	0.0161452
681.643	0.0159330
681.721	0.0160332
681.799	0.0160490
681.878	0.0161786
681.956	0.0159499
682.034	0.0158881
682.112	0.0160017
682.190	0.0161065
682.268	0.0160942
682.346	0.0161680
682.424	0.0161504
682.503	0.0162003
682.581	0.0160232
682.659	0.0160880
682.737	0.0161456
682.815	0.0160836
682.893	0.0160653
682.971	0.0161221
683.049	0.0161933
683.128	0.0159843
683.206	0.0160164
683.284	0.0161267
683.362	0.0161888
683.440	0.0160783
683.518	0.0160570
683.596	0.0159737
683.674	0.0160715
683.753	0.0161276
683.831	0.0159971
683.909	0.0160973
683.987	0.0160747
684.065	0.0161244
684.143	0.0161767
684.221	0.0160038
684.299	0.0161346
684.378	0.0160773
684.456	0.0160104
684.534	0.0161249
684.612	0.0160964
684.690	0.0160471
684.768	0.0161736
684.846	0.0160670
684.924	0.0160883
685.003	0.0160430
685.081	0.0160986
685.159	0.0161221
685.237	0.0161285
685.315	0.0161584
685.393	0.0161243
685.471	0.0160037
685.549	0.0161102
685.628	0.0159438
685.706	0.0160133
685.784	0.0160900
685.862	0.0160826
685.940	0.0162538
686.018	0.0160658
686.096	0.0160396
686.174	0.0159946
686.253	0.0160870
686.331	0.0159003
686.409	0.0160844
686.487	0.0161219
686.565	0.0161015
686.643	0.0160728
686.721	0.0160455
686.799	0.0160606
686.878	0.0160838
686.956	0.0160543
687.034	0.0161280
687.112	0.0160120
687.190	0.0161022
687.268	0.0160340
687.346	0.0161235
687.424	0.0161542
687.503	0.0160258
687.581	0.0160390
687.659	0.0160421
687.737	0.0159842
687.815	0.0160410
687.893	0.0160178
687.971	0.0161846
688.049	0.0161164
688.128	0.0161122
688.206	0.0160983
688.284	0.0160088
688.362	0.0159734
688.440	0.0159556
688.518	0.0159653
688.596	0.0160788
688.674	0.0161180
688.753	0.0159254
688.831	0.0159674
688.909	0.0161179
688.987	0.0161040
689.065	0.0158960
689.143	0.0160874
689.221	0.0161115
689.299	0.0159812
689.378	0.0160513
689.456	0.0160526
689.534	0.0160733
689.612	0.0161951
689.690	0.0160701
689.768	0.0159836
689.846	0.0160390
689.924	0.0161868
690.003	0.0161861
690.081	0.0160647
690.159	0.0161931
690.237	0.0159373
690.315	0.0160447
690.393	0.0161263
690.471	0.0159402
690.549	0.0159583
690.628	0.0159908
690.706	0.0161875
690.784	0.0159517
690.862	0.0160680
690.940	0.0161510
691.018	0.0159826
691.096	0.0159185
691.174	0.0161032
691.253	0.0161796
691.331	0.0161950
691.409	0.0160892
691.487	0.0159803
691.565	0.0160453
691.643	0.0160639
691.721	0.0160948
691.799	0.0160452
691.878	0.0161686
691.956	0.0160429
692.034	0.0161967
692.112	0.0160630
692.190	0.0161779
692.268	0.0161100
692.346	0.0159770
692.424	0.0160545
692.503	0.0159145
692.581	0.0160185
692.659	0.0160321
692.737	0.0159457
692.815	0.0160047
692.893	0.0160415
692.971	0.0161089
693.049	0.0160104
693.128	0.0160637
693.206	0.0161238
693.284	0.0161390
693.362	0.0161003
693.440	0.0161727
693.518	0.0160937
693.596	0.0161083
693.674	0.0161520
693.753	0.0161703
693.831	0.0161063
693.909	0.0161694
693.987	0.0160858
694.065	0.0161308
694.143	0.0162229
694.221	0.0160841
694.299	0.0161791
694.378	0.0161638
694.456	0.0161282
694.534	0.0160212
694.612	0.0162285
694.690	0.0159920
694.768	0.0160358
694.846	0.0161424
694.924	0.0159665
695.003	0.0160499
695.081	0.0161185
695.159	0.0162064
695.237	0.0161607
695.315	0.0161617
695.393	0.0160954
695.471	0.0160587
695.549	0.0160459
695.628	0.0160543
695.706	0.0162337
695.784	0.0161736
695.862	0.0160289
695.940	0.0161615
696.018	0.0161143
696.096	0.0159779
696.174	0.0160603
696.253	0.0161255
696.331	0.0160414
696.409	0.0162286
696.487	0.0160719
696.565	0.0160668
696.643	0.0161435
696.721	0.0162659
696.799	0.0161079
696.878	0.0161158
696.956	0.0160985
697.034	0.0159822
697.112	0.0160558
697.190	0.0160349
697.268	0.0161055
697.346	0.0160793
697.424	0.0160763
697.503	0.0160482
697.581	0.0160429
697.659	0.0160699
697.737	0.0161156
697.815	0.0160891
697.893	0.0160950
697.971	0.0159866
698.049	0.0159184
698.128	0.0158590
698.206	0.0160844
698.284	0.0161037
698.362	0.0160197
698.440	0.0160242
698.518	0.0160841
698.596	0.0161221
698.674	0.0160837
698.753	0.0160890
698.831	0.0160713
698.909	0.0160740
698.987	0.0161464
699.065	0.0162276
699.143	0.0161981
699.221	0.0160728
699.299	0.0161168
699.378	0.0160402
699.456	0.0161405
699.534	0.0161016
699.612	0.0160252
699.690	0.0161295
699.768	0.0160160
699.846	0.0160049
699.924	0.0162927
700.003	0.0162397
700.081	0.0162859
700.159	0.0162131
700.237	0.0161694
700.315	0.0161700
700.393	0.0161785
700.471	0.0160820
700.549	0.0160797
700.628	0.0160968
700.706	0.0162668
700.784	0.0161826
700.862	0.0159730
700.940	0.0159924
701.018	0.0159351
701.096	0.0160320
701.174	0.0161525
701.253	0.0159846
701.331	0.0158823
701.409	0.0160428
701.487	0.0160771
701.565	0.0160058
701.643	0.0161678
701.721	0.0161504
701.799	0.0160138
701.878	0.0161703
701.956	0.0162112
702.034	0.0160410
702.112	0.0159438
702.190	0.0159715
702.268	0.0159589
702.346	0.0160098
702.424	0.0158591
702.503	0.0159827
702.581	0.0159750
702.659	0.0158730
702.737	0.0159428
702.815	0.0159238
702.893	0.0159765
702.971	0.0160020
703.049	0.0160075
703.128	0.0159489
703.206	0.0160423
703.284	0.0160049
703.362	0.0161868
703.440	0.0161765
703.518	0.0162013
703.596	0.0162324
703.674	0.0162520
703.753	0.0161933
703.831	0.0162493
703.909	0.0160714
703.987	0.0160375
704.065	0.0160921
704.143	0.0160603
704.221	0.0159739
704.299	0.0156866
704.378	0.0157165
704.456	0.0156570
704.534	0.0157711
704.612	0.0158275
704.690	0.0160531
704.768	0.0161596
704.846	0.0161691
704.924	0.0163087
705.003	0.0164790
705.081	0.0164793
705.159	0.0165765
705.237	0.0163998
705.315	0.0163811
705.393	0.0162867
705.471	0.0162280
705.549	0.0160445
705.628	0.0158376
705.706	0.0157731
705.784	0.0157066
705.862	0.0156588
705.940	0.0156284
706.018	0.0155167
706.096	0.0156857
706.174	0.0159100
706.253	0.0160804
706.331	0.0161569
706.409	0.0162555
706.487	0.0163737
706.565	0.0166156
706.643	0.0166229
706.721	0.0167085
706.799	0.0165789
706.878	0.0166705
706.956	0.0164437
707.034	0.0162895
707.112	0.0163165
707.190	0.0161866
707.268	0.0160348
707.346	0.0158836
707.424	0.0156059
707.503	0.0156818
707.581	0.0155423
707.659	0.0154877
707.737	0.0155280
707.815	0.0157336
707.893	0.0159605
707.971	0.0160647
708.049	0.0162038
708.128	0.0162988
708.206	0.0165038
708.284	0.0166054
708.362	0.0166570
708.440	0.0167040
708.518	0.0165486
708.596	0.0164742
708.674	0.0164301
708.753	0.0161817
708.831	0.0159926
708.909	0.0160147
708.987	0.0158544
709.065	0.0157752
709.143	0.0158849
709.221	0.0156802
709.299	0.0158533
709.378	0.0157064
709.456	0.0156815
709.534	0.0159412
709.612	0.0160227
709.690	0.0161546
709.768	0.0162960
709.846	0.0162965
709.924	0.0163393
710.003	0.0162323
710.081	0.0161938
710.159	0.0162912
710.237	0.0163519
710.315	0.0164409
710.393	0.0164252
710.471	0.0163965
710.549	0.0164492
710.628	0.0162424
710.706	0.0161318
710.784	0.0161896
710.862	0.0161602
710.940	0.0160729
711.018	0.0156261
711.096	0.0156448
711.174	0.0155914
711.253	0.0156007
711.331	0.0156434
711.409	0.0156744
711.487	0.0156483
711.565	0.0157131
711.643	0.0159074
711.721	0.0160923
711.799	0.0161185
711.878	0.0163631
711.956	0.0164617
712.034	0.0164520
712.112	0.0166498
712.190	0.0166600
712.268	0.0165614
712.346	0.0164028
712.424	0.0163457
712.503	0.0162156
712.581	0.0159846
712.659	0.0159723
712.737	0.0159683
712.815	0.0157780
712.893	0.0157041
712.971	0.0156093
713.049	0.0156085
713.128	0.0156038
713.206	0.0156989
713.284	0.0157598
713.362	0.0158546
713.440	0.0159702
713.518	0.0159612
713.596	0.0161456
713.674	0.0162879
713.753	0.0162160
713.831	0.0163342
713.909	0.0164552
713.987	0.0163752
714.065	0.0163176
714.143	0.0164447
714.221	0.0163702
714.299	0.0162804
714.378	0.0161258
714.456	0.0160086
714.534	0.0159018
714.612	0.0158788
714.690	0.0158985
714.768	0.0157049
714.846	0.0156039
714.924	0.0157143
715.003	0.0157996
715.081	0.0156770
715.159	0.0157129
715.237	0.0158358
715.315	0.0158774
715.393	0.0158306
715.471	0.0158929
715.549	0.0160006
715.628	0.0161058
715.706	0.0161449
715.784	0.0163072
715.862	0.0162286
715.940	0.0165269
716.018	0.0166075
716.096	0.0167007
716.174	0.0165887
716.253	0.0167850
716.331	0.0167735
716.409	0.0166776
716.487	0.0164752
716.565	0.0164760
716.643	0.0163467
716.721	0.0162286
716.799	0.0160014
716.878	0.0159099
716.956	0.0158414
717.034	0.0157819
717.112	0.0157888
717.190	0.0158050
717.268	0.0158462
717.346	0.0160312
717.424	0.0159494
717.503	0.0161330
717.581	0.0162159
717.659	0.0162250
717.737	0.0161785
717.815	0.0161934
717.893	0.0161848
717.971	0.0162251
718.049	0.0160616
718.128	0.0158455
718.206	0.0156387
718.284	0.0155074
718.362	0.0153153
718.440	0.0151549
718.518	0.0151384
718.596	0.0151171
718.674	0.0152586
718.753	0.0151555
718.831	0.0154008
718.909	0.0156969
718.987	0.0158633
719.065	0.0160092
719.143	0.0163717
719.221	0.0166868
719.299	0.0167665
719.378	0.0166958
719.456	0.0169521
719.534	0.0168206
719.612	0.0168181
719.690	0.0168021
719.768	0.0167889
719.846	0.0166316
719.924	0.0165990
720.003	0.0166835
720.081	0.0165495
720.159	0.0164528
720.237	0.0164378
720.315	0.0165047
720.393	0.0164232
720.471	0.0165354
720.549	0.0164737
720.628	0.0162914
720.706	0.0163869
720.784	0.0162578
720.862	0.0161019
720.940	0.0158327
721.018	0.0156593
721.096	0.0153756
721.174	0.0151853
721.253	0.0150288
721.331	0.0148796
721.409	0.0148784
721.487	0.0146391
721.565	0.0146246
721.643	0.0148974
721.721	0.0150154
721.799	0.0152114
721.878	0.0155959
721.956	0.0159627
722.034	0.0163996
722.112	0.0165838
722.190	0.0170105
722.268	0.0175028
722.346	0.0175345
722.424	0.0176894
722.503	0.0177017
722.581	0.0176577
722.659	0.0175713
722.737	0.0171305
722.815	0.0168715
722.893	0.0167043
722.971	0.0161626
723.049	0.0158421
723.128	0.0157009
723.206	0.0153474
723.284	0.0150912
723.362	0.0150279
723.440	0.0149306
723.518	0.0149071
723.596	0.0149348
723.674	0.0149487
723.753	0.0151202
723.831	0.0151084
723.909	0.0151086
723.987	0.0152616
724.065	0.0152261
724.143	0.0154384
724.221	0.0155470
724.299	0.0157552
724.378	0.0156832
724.456	0.0159812
724.534	0.0161497
724.612	0.0163165
724.690	0.0165207
724.768	0.0167412
724.846	0.0170069
724.924	0.0170992
725.003	0.0170975
725.081	0.0171671
725.159	0.0173383
725.237	0.0172955
725.315	0.0172268
725.393	0.0170867
725.471	0.0170215
725.549	0.0170174
725.628	0.0167867
725.706	0.0169687
725.784	0.0168602
725.862	0.0166759
725.940	0.0167301
726.018	0.0166297
726.096	0.0165591
726.174	0.0167070
726.253	0.0165586
726.331	0.0164246
726.409	0.0162266
726.487	0.0160189
726.565	0.0158971
726.643	0.0155585
726.721	0.0152531
726.799	0.0150198
726.878	0.0149444
726.956	0.0147662
727.034	0.0145856
727.112	0.0146076
727.190	0.0145091
727.268	0.0144950
727.346	0.0147338
727.424	0.0147677
727.503	0.0149010
727.581	0.0149673
727.659	0.0154845
727.737	0.0155365
727.815	0.0156945
727.893	0.0159236
727.971	0.0158794
728.049	0.0159148
728.128	0.0158865
728.206	0.0159895
728.284	0.0158920
728.362	0.0159745
728.440	0.0159007
728.518	0.0159588
728.596	0.0158846
728.674	0.0158864
728.753	0.0157634
728.831	0.0160064
728.909	0.0160009
728.987	0.0160519
729.065	0.0162867
729.143	0.0164207
729.221	0.0164539
729.299	0.0165968
729.378	0.0166298
729.456	0.0167020
729.534	0.0167948
729.612	0.0169136
729.690	0.0170620
729.768	0.0170974
729.846	0.0173003
729.924	0.0172556
730.003	0.0171886
730.081	0.0174060
730.159	0.0173059
730.237	0.0174673
730.315	0.0173048
730.393	0.0172710
730.471	0.0171579
730.549	0.0171370
730.628	0.0173379
730.706	0.0171436
730.784	0.0171266
730.862	0.0171978
730.940	0.0172216
731.018	0.0170931
731.096	0.0170611
731.174	0.0169759
731.253	0.0168401
731.331	0.0166028
731.409	0.0160999
731.487	0.0159364
731.565	0.0154887
731.643	0.0151277
731.721	0.0146194
731.799	0.0142148
731.878	0.0139265
731.956	0.0136545
732.034	0.0132536
732.112	0.0132702
732.190	0.0131234
732.268	0.0130277
732.346	0.0129657
732.424	0.0130824
732.503	0.0131791
732.581	0.0131538
732.659	0.0132474
732.737	0.0134937
732.815	0.0139471
732.893	0.0142488
732.971	0.0146420
733.049	0.0152305
733.128	0.0156392
733.206	0.0160819
733.284	0.0166137
733.362	0.0170505
733.440	0.0174520
733.518	0.0177820
733.596	0.0182713
733.674	0.0186042
733.753	0.0189002
733.831	0.0189227
733.909	0.0188181
733.987	0.0188750
734.065	0.0190099
734.143	0.0187729
734.221	0.0184385
734.299	0.0182284
734.378	0.0180399
734.456	0.0176861
734.534	0.0175134
734.612	0.0173322
734.690	0.0171373
734.768	0.0168982
734.846	0.0167462
734.924	0.0164831
735.003	0.0163589
735.081	0.0164297
735.159	0.0163550
735.237	0.0164081
735.315	0.0161973
735.393	0.0162074
735.471	0.0163950
735.549	0.0163512
735.628	0.0163783
735.706	0.0161533
735.784	0.0160976
735.862	0.0160861
735.940	0.0159164
736.018	0.0158968
736.096	0.0156960
736.174	0.0155981
736.253	0.0153844
736.331	0.0150835
736.409	0.0150433
736.487	0.0149470
736.565	0.0146095
736.643	0.0143458
736.721	0.0140186
736.799	0.0138057
736.878	0.0135924
736.956	0.0133493
737.034	0.0132474
737.112	0.0128792
737.190	0.0129346
737.268	0.0131038
737.346	0.0132513
737.424	0.0134499
737.503	0.0136636
737.581	0.0141187
737.659	0.0145243
737.737	0.0150286
737.815	0.0154668
737.893	0.0160725
737.971	0.0165769
738.049	0.0169330
738.128	0.0173151
738.206	0.0178838
738.284	0.0182065
738.362	0.0184632
738.440	0.0185410
738.518	0.0188441
738.596	0.0187453
738.674	0.0186249
738.753	0.0185844
738.831	0.0183846
738.909	0.0182618
738.987	0.0179845
739.065	0.0177746
739.143	0.0174097
739.221	0.0173536
739.299	0.0173177
739.378	0.0171501
739.456	0.0171751
739.534	0.0170237
739.612	0.0170388
739.690	0.0172612
739.768	0.0172968
739.846	0.0169823
739.924	0.0170414
740.003	0.0169196
740.081	0.0167786
740.159	0.0166886
740.237	0.0165337
740.315	0.0162817
740.393	0.0160504
740.471	0.0160870
740.549	0.0158064
740.628	0.0158009
740.706	0.0156382
740.784	0.0154477
740.862	0.0153470
740.940	0.0154036
741.018	0.0152032
741.096	0.0149564
741.174	0.0150275
741.253	0.0148066
741.331	0.0146176
741.409	0.0145723
741.487	0.0142092
741.565	0.0140588
741.643	0.0137024
741.721	0.0135893
741.799	0.0134354
741.878	0.0132684
741.956	0.0133135
742.034	0.0133620
742.112	0.0135278
742.190	0.0137373
742.268	0.0140169
742.346	0.0145222
742.424	0.0149415
742.503	0.0155827
742.581	0.0160748
742.659	0.0165537
742.737	0.0171208
742.815	0.0174354
742.893	0.0178584
742.971	0.0181671
743.049	0.0182716
743.128	0.0183410
743.206	0.0183418
743.284	0.0183424
743.362	0.0181203
743.440	0.0177792
743.518	0.0176246
743.596	0.0173375
743.674	0.0170164
743.753	0.0168855
743.831	0.0165795
743.909	0.0165714
743.987	0.0164275
744.065	0.0164637
744.143	0.0165273
744.221	0.0166310
744.299	0.0166827
744.378	0.0169133
744.456	0.0170324
744.534	0.0171731
744.612	0.0172850
744.690	0.0172449
744.768	0.0173624
744.846	0.0173331
744.924	0.0172515
745.003	0.0171946
745.081	0.0171543
745.159	0.0170195
745.237	0.0168827
745.315	0.0166502
745.393	0.0166655
745.471	0.0163969
745.549	0.0162389
745.628	0.0162214
745.706	0.0158417
745.784	0.0157622
745.862	0.0156183
745.940	0.0155248
746.018	0.0153177
746.096	0.0150784
746.174	0.0149908
746.253	0.0146430
746.331	0.0143998
746.409	0.0141386
746.487	0.0138685
746.565	0.0137163
746.643	0.0135796
746.721	0.0134309
746.799	0.0134310
746.878	0.0132643
746.956	0.0133539
747.034	0.0133977
747.112	0.0136597
747.190	0.0140557
747.268	0.0143412
747.346	0.0148223
747.424	0.0151304
747.503	0.0155052
747.581	0.0160395
747.659	0.0166353
747.737	0.0167749
747.815	0.0171780
747.893	0.0176272
747.971	0.0178928
748.049	0.0180032
748.128	0.0181818
748.206	0.0183134
748.284	0.0184021
748.362	0.0181651
748.440	0.0179990
748.518	0.0179102
748.596	0.0177671
748.674	0.0175125
748.753	0.0172296
748.831	0.0171275
748.909	0.0168562
748.987	0.0167596
749.065	0.0168139
749.143	0.0165876
749.221	0.0163919
749.299	0.0163665
749.378	0.0162814
749.456	0.0161963
749.534	0.0159923
749.612	0.0159811
749.690	0.0160484
749.768	0.0158947
749.846	0.0158921
749.924	0.0157761
750.003	0.0159158
750.081	0.0161241
750.159	0.0161475
750.237	0.0162247
750.315	0.0162999
750.393	0.0164153
750.471	0.0162128
750.549	0.0164909
750.628	0.0165744
750.706	0.0165038
750.784	0.0163250
750.862	0.0164295
750.940	0.0162765
751.018	0.0161135
751.096	0.0159395
751.174	0.0157621
751.253	0.0156075
751.331	0.0153786
751.409	0.0151913
751.487	0.0148737
751.565	0.0145826
751.643	0.0145000
751.721	0.0140992
751.799	0.0143179
751.878	0.0141729
751.956	0.0140756
752.034	0.0143259
752.112	0.0144907
752.190	0.0145860
752.268	0.0148490
752.346	0.0151537
752.424	0.0154025
752.503	0.0157241
752.581	0.0158556
752.659	0.0159681
752.737	0.0161949
752.815	0.0163406
752.893	0.0165677
752.971	0.0166283
753.049	0.0166351
753.128	0.0167567
753.206	0.0170742
753.284	0.0170890
753.362	0.0172086
753.440	0.0172421
753.518	0.0174749
753.596	0.0174994
753.674	0.0172334
753.753	0.0172800
753.831	0.0172653
753.909	0.0172713
753.987	0.0174133
754.065	0.0173896
754.143	0.0172355
754.221	0.0171599
754.299	0.0170621
754.378	0.0168568
754.456	0.0168806
754.534	0.0166379
754.612	0.0163395
754.690	0.0161218
754.768	0.0159126
754.846	0.0160000
754.924	0.0158819
755.003	0.0158196
755.081	0.0157102
755.159	0.0155834
755.237	0.0157460
755.315	0.0156985
755.393	0.0157079
755.471	0.0158166
755.549	0.0157790
755.628	0.0159306
755.706	0.0161222
755.784	0.0162312
755.862	0.0160808
755.940	0.0160857
756.018	0.0162504
756.096	0.0161199
756.174	0.0162354
756.253	0.0160818
756.331	0.0160629
756.409	0.0158266
756.487	0.0157331
756.565	0.0154763
756.643	0.0151317
756.721	0.0151669
756.799	0.0151698
756.878	0.0149223
756.956	0.0147527
757.034	0.0148725
757.112	0.0148682
757.190	0.0148795
757.268	0.0149839
757.346	0.0150147
757.424	0.0153294
757.503	0.0153474
757.581	0.0154026
757.659	0.0155916
757.737	0.0157063
757.815	0.0159238
757.893	0.0160224
757.971	0.0160055
758.049	0.0162169
758.128	0.0163135
758.206	0.0164594
758.284	0.0164453
758.362	0.0165094
758.440	0.0165628
758.518	0.0166451
758.596	0.0167196
758.674	0.0166193
758.753	0.0168702
758.831	0.0169531
758.909	0.0169282
758.987	0.0169569
759.065	0.0171159
759.143	0.0172791
759.221	0.0172725
759.299	0.0173254
759.378	0.0172606
759.456	0.0172250
759.534	0.0172075
759.612	0.0171232
759.690	0.0170862
759.768	0.0169705
759.846	0.0166118
759.924	0.0164005
760.003	0.0164445
760.081	0.0161246
760.159	0.0156886
760.237	0.0155157
760.315	0.0154829
760.393	0.0153158
760.471	0.0152201
760.549	0.0152251
760.628	0.0150913
760.706	0.0152149
760.784	0.0151695
760.862	0.0153288
760.940	0.0155740
761.018	0.0155302
761.096	0.0155000
761.174	0.0154257
761.253	0.0156213
761.331	0.0157603
761.409	0.0156069
761.487	0.0157040
761.565	0.0157761
761.643	0.0158044
761.721	0.0157842
761.799	0.0158576
761.878	0.0156789
761.956	0.0157847
762.034	0.0156583
762.112	0.0156521
762.190	0.0156644
762.268	0.0155804
762.346	0.0156635
762.424	0.0157299
762.503	0.0157420
762.581	0.0157317
762.659	0.0157843
762.737	0.0157626
762.815	0.0157725
762.893	0.0160093
762.971	0.0159692
763.049	0.0160533
763.128	0.0161606
763.206	0.0160957
763.284	0.0161433
763.362	0.0161241
763.440	0.0161768
763.518	0.0161371
763.596	0.0162350
763.674	0.0163342
763.753	0.0162917
763.831	0.0163005
763.909	0.0165282
763.987	0.0165667
764.065	0.0165717
764.143	0.0164866
764.221	0.0166136
764.299	0.0167227
764.378	0.0166716
764.456	0.0166657
764.534	0.0167046
764.612	0.0167233
764.690	0.0167247
764.768	0.0167432
764.846	0.0167069
764.924	0.0164098
765.003	0.0163634
765.081	0.0163284
765.159	0.0162147
765.237	0.0162608
765.315	0.0161972
765.393	0.0159507
765.471	0.0159740
765.549	0.0158424
765.628	0.0159177
765.706	0.0158971
765.784	0.0158881
765.862	0.0159187
765.940	0.0159177
766.018	0.0158629
766.096	0.0158518
766.174	0.0159308
766.253	0.0158652
766.331	0.0158088
766.409	0.0160613
766.487	0.0159760
766.565	0.0159737
766.643	0.0159288
766.721	0.0160201
766.799	0.0158671
766.878	0.0159102
766.956	0.0159898
767.034	0.0161442
767.112	0.0160818
767.190	0.0160500
767.268	0.0160239
767.346	0.0160981
767.424	0.0158387
767.503	0.0159249
767.581	0.0157180
767.659	0.0156513
767.737	0.0157563
767.815	0.0157765
767.893	0.0156552
767.971	0.0156905
768.049	0.0155627
768.128	0.0156981
768.206	0.0157608
768.284	0.0156346
768.362	0.0158681
768.440	0.0157584
768.518	0.0158784
768.596	0.0161398
768.674	0.0159527
768.753	0.0160532
768.831	0.0162084
768.909	0.0162325
768.987	0.0161893
769.065	0.0161909
769.143	0.0162492
769.221	0.0161687
769.299	0.0162193
769.378	0.0161366
769.456	0.0161456
769.534	0.0159733
769.612	0.0160308
769.690	0.0160460
769.768	0.0161246
769.846	0.0160326
769.924	0.0160872
770.003	0.0160987
770.081	0.0162682
770.159	0.0163354
770.237	0.0162564
770.315	0.0164159
770.393	0.0165123
770.471	0.0166421
770.549	0.0166091
770.628	0.0166921
770.706	0.0167328
770.784	0.0165974
770.862	0.0169218
770.940	0.0169041
771.018	0.0168073
771.096	0.0168639
771.174	0.0169422
771.253	0.0166985
771.331	0.0165439
771.409	0.0165720
771.487	0.0163647
771.565	0.0162239
771.643	0.0160925
771.721	0.0160061
771.799	0.0159321
771.878	0.0156747
771.956	0.0156680
772.034	0.0155654
772.112	0.0154876
772.190	0.0155939
772.268	0.0154394
772.346	0.0153824
772.424	0.0154462
772.503	0.0153481
772.581	0.0155392
772.659	0.0154849
772.737	0.0154018
772.815	0.0155414
772.893	0.0156872
772.971	0.0157404
773.049	0.0157973
773.128	0.0157919
773.206	0.0158645
773.284	0.0158593
773.362	0.0159253
773.440	0.0159899
773.518	0.0160294
773.596	0.0160848
773.674	0.0161386
773.753	0.0161649
773.831	0.0162833
773.909	0.0162534
773.987	0.0162466
774.065	0.0163077
774.143	0.0164548
774.221	0.0164141
774.299	0.0162683
774.378	0.0162110
774.456	0.0162854
774.534	0.0161903
774.612	0.0161747
774.690	0.0162176
774.768	0.0162480
774.846	0.0161353
774.924	0.0160512
775.003	0.0160357
775.081	0.0160187
775.159	0.0158450
775.237	0.0159800
775.315	0.0159769
775.393	0.0157629
775.471	0.0158487
775.549	0.0158149
775.628	0.0158141
775.706	0.0159946
775.784	0.0159602
775.862	0.0161114
775.940	0.0161659
776.018	0.0161865
776.096	0.0163212
776.174	0.0163225
776.253	0.0164596
776.331	0.0164595
776.409	0.0164692
776.487	0.0166352
776.565	0.0166238
776.643	0.0166761
776.721	0.0166096
776.799	0.0166265
776.878	0.0165974
776.956	0.0164886
777.034	0.0165611
777.112	0.0164725
777.190	0.0162556
777.268	0.0162502
777.346	0.0162596
777.424	0.0160438
777.503	0.0160017
777.581	0.0160293
777.659	0.0158231
777.737	0.0158205
777.815	0.0157212
777.893	0.0156842
777.971	0.0155688
778.049	0.0156895
778.128	0.0156409
778.206	0.0155313
778.284	0.0156158
778.362	0.0156416
778.440	0.0155775
778.518	0.0157945
778.596	0.0158227
778.674	0.0158276
778.753	0.0159708
778.831	0.0161874
778.909	0.0162811
778.987	0.0162657
779.065	0.0162771
779.143	0.0163932
779.221	0.0163863
779.299	0.0164614
779.378	0.0165935
779.456	0.0162967
779.534	0.0162547
779.612	0.0164663
779.690	0.0163477
779.768	0.0162352
779.846	0.0161056
779.924	0.0160533
780.003	0.0161108
780.081	0.0158789
780.159	0.0158727
780.237	0.0159243
780.315	0.0158050
780.393	0.0157843
780.471	0.0158721
780.549	0.0157127
780.628	0.0156921
780.706	0.0158993
780.784	0.0158558
780.862	0.0160664
780.940	0.0159669
781.018	0.0161952
781.096	0.0160047
781.174	0.0160655
781.253	0.0161186
781.331	0.0161681
781.409	0.0160271
781.487	0.0161606
781.565	0.0162358
781.643	0.0160517
781.721	0.0160686
781.799	0.0161220
781.878	0.0161188
781.956	0.0161350
782.034	0.0161571
782.112	0.0160331
782.190	0.0162662
782.268	0.0161650
782.346	0.0161201
782.424	0.0162060
782.503	0.0161205
782.581	0.0162788
782.659	0.0160497
782.737	0.0160130
782.815	0.0161694
782.893	0.0160754
782.971	0.0160186
783.049	0.0160855
783.128	0.0160560
783.206	0.0160469
783.284	0.0161759
783.362	0.0161320
783.440	0.0161623
783.518	0.0161385
783.596	0.0161381
783.674	0.0162012
783.753	0.0163478
783.831	0.0163935
783.909	0.0164301
783.987	0.0163114
784.065	0.0162328
784.143	0.0162076
784.221	0.0164005
784.299	0.0162247
784.378	0.0161757
784.456	0.0161359
784.534	0.0160667
784.612	0.0158435
784.690	0.0156528
784.768	0.0156635
784.846	0.0156081
784.924	0.0154529
785.003	0.0154028
785.081	0.0153613
785.159	0.0153703
785.237	0.0152498
785.315	0.0152593
785.393	0.0152550
785.471	0.0153757
785.549	0.0155334
785.628	0.0154572
785.706	0.0156636
785.784	0.0156942
785.862	0.0158362
785.940	0.0159896
786.018	0.0159854
786.096	0.0160558
786.174	0.0161736
786.253	0.0161612
786.331	0.0162333
786.409	0.0163294
786.487	0.0164735
786.565	0.0164009
786.643	0.0162670
786.721	0.0164667
786.799	0.0165336
786.878	0.0162985
786.956	0.0163101
787.034	0.0162866
787.112	0.0162822
787.190	0.0163871
787.268	0.0163206
787.346	0.0161905
787.424	0.0162640
787.503	0.0163528
787.581	0.0161546
787.659	0.0161450
787.737	0.0162466
787.815	0.0160759
787.893	0.0161273
787.971	0.0161147
788.049	0.0160490
788.128	0.0160616
788.206	0.0160474
788.284	0.0159682
788.362	0.0160520
788.440	0.0159393
788.518	0.0157641
788.596	0.0159953
788.674	0.0158690
788.753	0.0159480
788.831	0.0158920
788.909	0.0158714
788.987	0.0159058
789.065	0.0160877
789.143	0.0161626
789.221	0.0161330
789.299	0.0161404
789.378	0.0161026
789.456	0.0161919
789.534	0.0162225
789.612	0.0162584
789.690	0.0163893
789.768	0.0164233
789.846	0.0163115
789.924	0.0162721
790.003	0.0162717
790.081	0.0162504
790.159	0.0162786
790.237	0.0160629
790.315	0.0160291
790.393	0.0159708
790.471	0.0159901
790.549	0.0158644
790.628	0.0157697
790.706	0.0157673
790.784	0.0158511
790.862	0.0157816
790.940	0.0156873
791.018	0.0155979
791.096	0.0156400
791.174	0.0157417
791.253	0.0157977
791.331	0.0157230
791.409	0.0159235
791.487	0.0159133
791.565	0.0161429
791.643	0.0161632
791.721	0.0162447
791.799	0.0162608
791.878	0.0163446
791.956	0.0163618
792.034	0.0163540
792.112	0.0163811
792.190	0.0164188
792.268	0.0163597
792.346	0.0162124
792.424	0.0162815
792.503	0.0160813
792.581	0.0161881
792.659	0.0162317
792.737	0.0161314
792.815	0.0159899
792.893	0.0160419
792.971	0.0161277
793.049	0.0159245
793.128	0.0159155
793.206	0.0160152
793.284	0.0158341
793.362	0.0159184
793.440	0.0159275
793.518	0.0158186
793.596	0.0158707
793.674	0.0159962
793.753	0.0159735
793.831	0.0160915
793.909	0.0160007
793.987	0.0161413
794.065	0.0161729
794.143	0.0160891
794.221	0.0160484
794.299	0.0160665
794.378	0.0162773
794.456	0.0161821
794.534	0.0162800
794.612	0.0161355
794.690	0.0162992
794.768	0.0161543
794.846	0.0162622
794.924	0.0162366
795.003	0.0162730
795.081	0.0163116
795.159	0.0161727
795.237	0.0161533
795.315	0.0163824
795.393	0.0162953
795.471	0.0162943
795.549	0.0162610
795.628	0.0163081
795.706	0.0162610
795.784	0.0161420
795.862	0.0162212
795.940	0.0162820
796.018	0.0163511
796.096	0.0162029
796.174	0.0162213
796.253	0.0162825
796.331	0.0162048
796.409	0.0160905
796.487	0.0161595
796.565	0.0161192
796.643	0.0161118
796.721	0.0160909
796.799	0.0160117
796.878	0.0161021
796.956	0.0158543
797.034	0.0159675
797.112	0.0159405
797.190	0.0158818
797.268	0.0158404
797.346	0.0159094
797.424	0.0157548
797.503	0.0157841
797.581	0.0158142
797.659	0.0159406
797.737	0.0159461
797.815	0.0159891
797.893	0.0159419
797.971	0.0159674
798.049	0.0160493
798.128	0.0160970
798.206	0.0160680
798.284	0.0161934
798.362	0.0162354
798.440	0.0160654
798.518	0.0161383
798.596	0.0163122
798.674	0.0162924
798.753	0.0162686
798.831	0.0161444
798.909	0.0160576
798.987	0.0161992
799.065	0.0162746
799.143	0.0160629
799.221	0.0161929
799.299	0.0160551
799.378	0.0160043
799.456	0.0161296
799.534	0.0160773
799.612	0.0161138
799.690	0.0159592
799.768	0.0159660
799.846	0.0157880
799.924	0.0159247
800.003	0.0161224
800.081	0.0159988
800.159	0.0161557
800.237	0.0159683
800.315	0.0160346
800.393	0.0161207
800.471	0.0160449
800.549	0.0160803
800.628	0.0160747
800.706	0.0162015
800.784	0.0160683
800.862	0.0160703
800.940	0.0161963
801.018	0.0160399
801.096	0.0162873
801.174	0.0160704
801.253	0.0160202
801.331	0.0160818
801.409	0.0160764
801.487	0.0161375
801.565	0.0161080
801.643	0.0162866
801.721	0.0160548
801.799	0.0160425
801.878	0.0160410
801.956	0.0160268
802.034	0.0160510
802.112	0.0161057
802.190	0.0161316
802.268	0.0159731
802.346	0.0159470
802.424	0.0161588
802.503	0.0161284
802.581	0.0162309
802.659	0.0161015
802.737	0.0160940
802.815	0.0161552
802.893	0.0161215
802.971	0.0160461
803.049	0.0162624
803.128	0.0161497
803.206	0.0161276
803.284	0.0160339
803.362	0.0162469
803.440	0.0161211
803.518	0.0161072
803.596	0.0160381
803.674	0.0160677
803.753	0.0159915
803.831	0.0160198
803.909	0.0161849
803.987	0.0161055
804.065	0.0160099
804.143	0.0161283
804.221	0.0160300
804.299	0.0160977
804.378	0.0161435
804.456	0.0160091
804.534	0.0160793
804.612	0.0160229
804.690	0.0161436
804.768	0.0160636
804.846	0.0160329
804.924	0.0160344
805.003	0.0160611
805.081	0.0159335
805.159	0.0159702
805.237	0.0160678
805.315	0.0159666
805.393	0.0158719
805.471	0.0160519
805.549	0.0159624
805.628	0.0159846
805.706	0.0158817
805.784	0.0158685
805.862	0.0160374
805.940	0.0159473
806.018	0.0159285
806.096	0.0160290
806.174	0.0158964
806.253	0.0159048
806.331	0.0160661
806.409	0.0160221
806.487	0.0161094
806.565	0.0159504
806.643	0.0160542
806.721	0.0158961
806.799	0.0161492
806.878	0.0162435
806.956	0.0161604
807.034	0.0162749
807.112	0.0161932
807.190	0.0161288
807.268	0.0162180
807.346	0.0163062
807.424	0.0162979
807.503	0.0162054
807.581	0.0160629
807.659	0.0160760
807.737	0.0160862
807.815	0.0162297
807.893	0.0161855
807.971	0.0161355
808.049	0.0161083
808.128	0.0161388
808.206	0.0160333
808.284	0.0160959
808.362	0.0160032
808.440	0.0161266
808.518	0.0160075
808.596	0.0160523
808.674	0.0160560
808.753	0.0161207
808.831	0.0160336
808.909	0.0159797
808.987	0.0161047
809.065	0.0160003
809.143	0.0160024
809.221	0.0160121
809.299	0.0161434
809.378	0.0160886
809.456	0.0159703
809.534	0.0159964
809.612	0.0159645
809.690	0.0160651
809.768	0.0160175
809.846	0.0161371
809.924	0.0161349
810.003	0.0158819
810.081	0.0159319
810.159	0.0159911
810.237	0.0159886
810.315	0.0160150
810.393	0.0160815
810.471	0.0159975
810.549	0.0158660
810.628	0.0158898
810.706	0.0160514
810.784	0.0160089
810.862	0.0160909
810.940	0.0160445
811.018	0.0160381
811.096	0.0160507
811.174	0.0160372
811.253	0.0160339
811.331	0.0160049
811.409	0.0160894
811.487	0.0161853
811.565	0.0160855
811.643	0.0161118
811.721	0.0160992
811.799	0.0160249
811.878	0.0160477
811.956	0.0160473
812.034	0.0161498
812.112	0.0160874
812.190	0.0160948
812.268	0.0159781
812.346	0.0159695
812.424	0.0160278
812.503	0.0160796
812.581	0.0159705
812.659	0.0160299
812.737	0.0159890
812.815	0.0160168
812.893	0.0160271
812.971	0.0160342
813.049	0.0161723
813.128	0.0161750
813.206	0.0161821
813.284	0.0162043
813.362	0.0162216
813.440	0.0162740
813.518	0.0162822
813.596	0.0164074
813.674	0.0163158
813.753	0.0162967
813.831	0.0162337
813.909	0.0162826
813.987	0.0161664
814.065	0.0162026
814.143	0.0161759
814.221	0.0160167
814.299	0.0159424
814.378	0.0159740
814.456	0.0158591
814.534	0.0158074
814.612	0.0159666
814.690	0.0159016
814.768	0.0158669
814.846	0.0159563
814.924	0.0157806
815.003	0.0158693
815.081	0.0158372
815.159	0.0158736
815.237	0.0158763
815.315	0.0158720
815.393	0.0159197
815.471	0.0159193
815.549	0.0159872
815.628	0.0158571
815.706	0.0159313
815.784	0.0159481
815.862	0.0158316
815.940	0.0158044
816.018	0.0159991
816.096	0.0160067
816.174	0.0159520
816.253	0.0160600
816.331	0.0160112
816.409	0.0159472
816.487	0.0158627
816.565	0.0160522
816.643	0.0160558
816.721	0.0160899
816.799	0.0162664
816.878	0.0161121
816.956	0.0161813
817.034	0.0161295
817.112	0.0160439
817.190	0.0162585
817.268	0.0161766
817.346	0.0161002
817.424	0.0160314
817.503	0.0161552
817.581	0.0160928
817.659	0.0162415
817.737	0.0162428
817.815	0.0162454
817.893	0.0162309
817.971	0.0162290
818.049	0.0162489
818.128	0.0162992
818.206	0.0162063
818.284	0.0161987
818.362	0.0162868
818.440	0.0161212
818.518	0.0161072
818.596	0.0163056
818.674	0.0161903
818.753	0.0162064
818.831	0.0162331
818.909	0.0161720
818.987	0.0161539
819.065	0.0162211
819.143	0.0161639
819.221	0.0160262
819.299	0.0161021
819.378	0.0160309
819.456	0.0160683
819.534	0.0160816
819.612	0.0158636
819.690	0.0159168
819.768	0.0159602
819.846	0.0159299
819.924	0.0159566
820.003	0.0159332
820.081	0.0158304
820.159	0.0157661
820.237	0.0158742
820.315	0.0156200
820.393	0.0157061
820.471	0.0156919
820.549	0.0156226
820.628	0.0157382
820.706	0.0157822
820.784	0.0158191
820.862	0.0159895
820.940	0.0159260
821.018	0.0159983
821.096	0.0158501
821.174	0.0160677
821.253	0.0161491
821.331	0.0161687
821.409	0.0161961
821.487	0.0163288
821.565	0.0162218
821.643	0.0162616
821.721	0.0163721
821.799	0.0164143
821.878	0.0164972
821.956	0.0164059
822.034	0.0164291
822.112	0.0163992
822.190	0.0164409
822.268	0.0164419
822.346	0.0164374
822.424	0.0164227
822.503	0.0163439
822.581	0.0162971
822.659	0.0163430
822.737	0.0162524
822.815	0.0162964
822.893	0.0161474
822.971	0.0161120
823.049	0.0161263
823.128	0.0159368
823.206	0.0161515
823.284	0.0160100
823.362	0.0159990
823.440	0.0158584
823.518	0.0158737
823.596	0.0159344
823.674	0.0158512
823.753	0.0158404
823.831	0.0160332
823.909	0.0159814
823.987	0.0161201
824.065	0.0159814
824.143	0.0158620
824.221	0.0159875
824.299	0.0159766
824.378	0.0159470
824.456	0.0159468
824.534	0.0158497
824.612	0.0157907
824.690	0.0160464
824.768	0.0160085
824.846	0.0158175
824.924	0.0158183
825.003	0.0158102
825.081	0.0158608
825.159	0.0157881
825.237	0.0158533
825.315	0.0159946
825.393	0.0158435
825.471	0.0159696
825.549	0.0159631
825.628	0.0161515
825.706	0.0159873
825.784	0.0160540
825.862	0.0161905
825.940	0.0160879
826.018	0.0163741
826.096	0.0161637
826.174	0.0162760
826.253	0.0163277
826.331	0.0164275
826.409	0.0163747
826.487	0.0164855
826.565	0.0164643
826.643	0.0164564
826.721	0.0165485
826.799	0.0165632
826.878	0.0166026
826.956	0.0166064
827.034	0.0165578
827.112	0.0165772
827.190	0.0165888
827.268	0.0164520
827.346	0.0164050
827.424	0.0162901
827.503	0.0161648
827.581	0.0162247
827.659	0.0160870
827.737	0.0161939
827.815	0.0161376
827.893	0.0159267
827.971	0.0160664
828.049	0.0159851
828.128	0.0159703
828.206	0.0156644
828.284	0.0157494
828.362	0.0157124
828.440	0.0156903
828.518	0.0155711
828.596	0.0155698
828.674	0.0155709
828.753	0.0155585
828.831	0.0154750
828.909	0.0155629
828.987	0.0155930
829.065	0.0155038
829.143	0.0154715
829.221	0.0153983
829.299	0.0156335
829.378	0.0156361
829.456	0.0155775
829.534	0.0156971
829.612	0.0157099
829.690	0.0157832
829.768	0.0158480
829.846	0.0158141
829.924	0.0160768
830.003	0.0160867
830.081	0.0161208
830.159	0.0161202
830.237	0.0162691
830.315	0.0161644
830.393	0.0163446
830.471	0.0163223
830.549	0.0164954
830.628	0.0164736
830.706	0.0164626
830.784	0.0165383
830.862	0.0166074
830.940	0.0165110
831.018	0.0166875
831.096	0.0168922
831.174	0.0166610
831.253	0.0165643
831.331	0.0166277
831.409	0.0166634
831.487	0.0165719
831.565	0.0164886
831.643	0.0164586
831.721	0.0164169
831.799	0.0162747
831.878	0.0163061
831.956	0.0161056
832.034	0.0159883
832.112	0.0160373
832.190	0.0160448
832.268	0.0159888
832.346	0.0159323
832.424	0.0158231
832.503	0.0158423
832.581	0.0157079
832.659	0.0157112
832.737	0.0157198
832.815	0.0157934
832.893	0.0156596
832.971	0.0156677
833.049	0.0156359
833.128	0.0157172
833.206	0.0156640
833.284	0.0156686
833.362	0.0156241
833.440	0.0154887
833.518	0.0152977
833.596	0.0154794
833.674	0.0154456
833.753	0.0155295
833.831	0.0155286
833.909	0.0154872
833.987	0.0155606
834.065	0.0155358
834.143	0.0157270
834.221	0.0157699
834.299	0.0156361
834.378	0.0158549
834.456	0.0159244
834.534	0.0160223
834.612	0.0161057
834.690	0.0161660
834.768	0.0162809
834.846	0.0165382
834.924	0.0165492
835.003	0.0164481
835.081	0.0166526
835.159	0.0167799
835.237	0.0167818
835.315	0.0167250
835.393	0.0166986
835.471	0.0166753
835.549	0.0167477
835.628	0.0167146
835.706	0.0167024
835.784	0.0166153
835.862	0.0165778
835.940	0.0164732
836.018	0.0165351
836.096	0.0163591
836.174	0.0162601
836.253	0.0163312
836.331	0.0162502
836.409	0.0161711
836.487	0.0160285
836.565	0.0160115
836.643	0.0161020
836.721	0.0160345
836.799	0.0159160
836.878	0.0159689
836.956	0.0159998
837.034	0.0160529
837.112	0.0160630
837.190	0.0159203
837.268	0.0159010
837.346	0.0158061
837.424	0.0158517
837.503	0.0157613
837.581	0.0155338
837.659	0.0156500
837.737	0.0156367
837.815	0.0156596
837.893	0.0156878
837.971	0.0156152
838.049	0.0158091
838.128	0.0156721
838.206	0.0157083
838.284	0.0155032
838.362	0.0155933
838.440	0.0155493
838.518	0.0156625
838.596	0.0157967
838.674	0.0157711
838.753	0.0158574
838.831	0.0158733
838.909	0.0156925
838.987	0.0158320
839.065	0.0159328
839.143	0.0157967
839.221	0.0160280
839.299	0.0160454
839.378	0.0160151
839.456	0.0160400
839.534	0.0161100
839.612	0.0161739
839.690	0.0161501
839.768	0.0162136
839.846	0.0163036
839.924	0.0164299
840.003	0.0161959
840.081	0.0164678
840.159	0.0164283
840.237	0.0162983
840.315	0.0163933
840.393	0.0165654
840.471	0.0164254
840.549	0.0164088
840.628	0.0164441
840.706	0.0164162
840.784	0.0164914
840.862	0.0164295
840.940	0.0164647
841.018	0.0164381
841.096	0.0163444
841.174	0.0165007
841.253	0.0165604
841.331	0.0163688
841.409	0.0164785
841.487	0.0163812
841.565	0.0162778
841.643	0.0162856
841.721	0.0164299
841.799	0.0162675
841.878	0.0160898
841.956	0.0162284
842.034	0.0161668
842.112	0.0160392
842.190	0.0159853
842.268	0.0159352
842.346	0.0157914
842.424	0.0159280
842.503	0.0158008
842.581	0.0157475
842.659	0.0156976
842.737	0.0157128
842.815	0.0155068
842.893	0.0154311
842.971	0.0154419
843.049	0.0155180
843.128	0.0154106
843.206	0.0155659
843.284	0.0157410
843.362	0.0156376
843.440	0.0155923
843.518	0.0157171
843.596	0.0156635
843.674	0.0156563
843.753	0.0157227
843.831	0.0157583
843.909	0.0157508
843.987	0.0159413
844.065	0.0160087
844.143	0.0160624
844.221	0.0160345
844.299	0.0161948
844.378	0.0160767
844.456	0.0162783
844.534	0.0161943
844.612	0.0162067
844.690	0.0162234
844.768	0.0163892
844.846	0.0162764
844.924	0.0161983
845.003	0.0164182
845.081	0.0163020
845.159	0.0162372
845.237	0.0162016
845.315	0.0164017
845.393	0.0162944
845.471	0.0163239
845.549	0.0163472
845.628	0.0162518
845.706	0.0163406
845.784	0.0164135
845.862	0.0162830
845.940	0.0164179
846.018	0.0163624
846.096	0.0162569
846.174	0.0162936
846.253	0.0163361
846.331	0.0162762
846.409	0.0162815
846.487	0.0161553
846.565	0.0161414
846.643	0.0162617
846.721	0.0161144
846.799	0.0160938
846.878	0.0161448
846.956	0.0160806
847.034	0.0160497
847.112	0.0160933
847.190	0.0160330
847.268	0.0159865
847.346	0.0158741
847.424	0.0157764
847.503	0.0157780
847.581	0.0158366
847.659	0.0159069
847.737	0.0157047
847.815	0.0157550
847.893	0.0156712
847.971	0.0155629
848.049	0.0156636
848.128	0.0156041
848.206	0.0157162
848.284	0.0157716
848.362	0.0157012
848.440	0.0157836
848.518	0.0157333
848.596	0.0157124
848.674	0.0158891
848.753	0.0158688
848.831	0.0160391
848.909	0.0158677
848.987	0.0160268
849.065	0.0159898
849.143	0.0159324
849.221	0.0160640
849.299	0.0161199
849.378	0.0160376
849.456	0.0159353
849.534	0.0160089
849.612	0.0161615
849.690	0.0161155
849.768	0.0159400
849.846	0.0159908
849.924	0.0159759
850.003	0.0161697
850.081	0.0163090
850.159	0.0159905
850.237	0.0160798
850.315	0.0161897
850.393	0.0160468
850.471	0.0163911
850.549	0.0163747
850.628	0.0163359
850.706	0.0163576
850.784	0.0162959
850.862	0.0163166
850.940	0.0163772
851.018	0.0162964
851.096	0.0162865
851.174	0.0162303
851.253	0.0163473
851.331	0.0162950
851.409	0.0162950
851.487	0.0162685
851.565	0.0162573
851.643	0.0162085
851.721	0.0161510
851.799	0.0161609
851.878	0.0161131
851.956	0.0159833
852.034	0.0160515
852.112	0.0160796
852.190	0.0158945
852.268	0.0159338
852.346	0.0158762
852.424	0.0158424
852.503	0.0159554
852.581	0.0158511
852.659	0.0158495
852.737	0.0159160
852.815	0.0157860
852.893	0.0156288
852.971	0.0156965
853.049	0.0158709
853.128	0.0157806
853.206	0.0157964
853.284	0.0159946
853.362	0.0157825
853.440	0.0158468
853.518	0.0159129
853.596	0.0158861
853.674	0.0159153
853.753	0.0159706
853.831	0.0158936
853.909	0.0159222
853.987	0.0159105
854.065	0.0158914
854.143	0.0159772
854.221	0.0160212
854.299	0.0159792
854.378	0.0160661
854.456	0.0160259
854.534	0.0159284
854.612	0.0160433
854.690	0.0161636
854.768	0.0160398
854.846	0.0160861
854.924	0.0160208
855.003	0.0161705
855.081	0.0162276
855.159	0.0161182
855.237	0.0162579
855.315	0.0161026
855.393	0.0163139
855.471	0.0160902
855.549	0.0161760
855.628	0.0161682
855.706	0.0161367
855.784	0.0161908
855.862	0.0162473
855.940	0.0161646
856.018	0.0160683
856.096	0.0162003
856.174	0.0162444
856.253	0.0162360
856.331	0.0159651
856.409	0.0161655
856.487	0.0161109
856.565	0.0161538
856.643	0.0160691
856.721	0.0160373
856.799	0.0160987
856.878	0.0162186
856.956	0.0161691
857.034	0.0160170
857.112	0.0161327
857.190	0.0159728
857.268	0.0161341
857.346	0.0160136
857.424	0.0160768
857.503	0.0160515
857.581	0.0160775
857.659	0.0160450
857.737	0.0159325
857.815	0.0160274
857.893	0.0159578
857.971	0.0160028
858.049	0.0159735
858.128	0.0160532
858.206	0.0159060
858.284	0.0159184
858.362	0.0160519
858.440	0.0160986
858.518	0.0161207
858.596	0.0162084
858.674	0.0160519
858.753	0.0160189
858.831	0.0160511
858.909	0.0160660
858.987	0.0159817
859.065	0.0160674
859.143	0.0160616
859.221	0.0159948
859.299	0.0161022
859.378	0.0158760
859.456	0.0158609
859.534	0.0160786
859.612	0.0158688
859.690	0.0159782
859.768	0.0160120
859.846	0.0160416
859.924	0.0161411
860.003	0.0158816
860.081	0.0158781
860.159	0.0158484
860.237	0.0159966
860.315	0.0160140
860.393	0.0158378
860.471	0.0159570
860.549	0.0160581
860.628	0.0160344
860.706	0.0158484
860.784	0.0160661
860.862	0.0160529
860.940	0.0160473
861.018	0.0161674
861.096	0.0161574
861.174	0.0161924
861.253	0.0161954
861.331	0.0162412
861.409	0.0162234
861.487	0.0162387
861.565	0.0161909
861.643	0.0162559
861.721	0.0161486
861.799	0.0163056
861.878	0.0161616
861.956	0.0162065
862.034	0.0161532
862.112	0.0162268
862.190	0.0161696
862.268	0.0160283
862.346	0.0160278
862.424	0.0160880
862.503	0.0160335
862.581	0.0159000
862.659	0.0159733
862.737	0.0160033
862.815	0.0159224
862.893	0.0159577
862.971	0.0160355
863.049	0.0160001
863.128	0.0160133
863.206	0.0160915
863.284	0.0161423
863.362	0.0162138
863.440	0.0162691
863.518	0.0160941
863.596	0.0159722
863.674	0.0160728
863.753	0.0161250
863.831	0.0160117
863.909	0.0160478
863.987	0.0160344
864.065	0.0160060
864.143	0.0159291
864.221	0.0160579
864.299	0.0160508
864.378	0.0160554
864.456	0.0159995
864.534	0.0159203
864.612	0.0160617
864.690	0.0159337
864.768	0.0159290
864.846	0.0159196
864.924	0.0159715
865.003	0.0159429
865.081	0.0157442
865.159	0.0159789
865.237	0.0160337
865.315	0.0158961
865.393	0.0160120
865.471	0.0161233
865.549	0.0159637
865.628	0.0157993
865.706	0.0160616
865.784	0.0161917
865.862	0.0160278
865.940	0.0161792
866.018	0.0159389
866.096	0.0161389
866.174	0.0162153
866.253	0.0161086
866.331	0.0161039
866.409	0.0162409
866.487	0.0160685
866.565	0.0161369
866.643	0.0163329
866.721	0.0163071
866.799	0.0160909
866.878	0.0162436
866.956	0.0162007
867.034	0.0162016
867.112	0.0160295
867.190	0.0160793
867.268	0.0161826
867.346	0.0162299
867.424	0.0162253
867.503	0.0160444
867.581	0.0160543
867.659	0.0160271
867.737	0.0161549
867.815	0.0160641
867.893	0.0162466
867.971	0.0161623
868.049	0.0162131
868.128	0.0161029
868.206	0.0162360
868.284	0.0162100
868.362	0.0160081
868.440	0.0161633
868.518	0.0160386
868.596	0.0161493
868.674	0.0159342
868.753	0.0159720
868.831	0.0159431
868.909	0.0160176
868.987	0.0161166
869.065	0.0157596
869.143	0.0158669
869.221	0.0158334
869.299	0.0157947
869.378	0.0158100
869.456	0.0158680
869.534	0.0158056
869.612	0.0158360
869.690	0.0158683
869.768	0.0158951
869.846	0.0157334
869.924	0.0157983
870.003	0.0158569
870.081	0.0157541
870.159	0.0160082
870.237	0.0158899
870.315	0.0160013
870.393	0.0159734
870.471	0.0159241
870.549	0.0159848
870.628	0.0160172
870.706	0.0160115
870.784	0.0160493
870.862	0.0159985
870.940	0.0160384
871.018	0.0160085
871.096	0.0160627
871.174	0.0161590
871.253	0.0161240
871.331	0.0161256
871.409	0.0161176
871.487	0.0160835
871.565	0.0161310
871.643	0.0161391
871.721	0.0161168
871.799	0.0160894
871.878	0.0161496
871.956	0.0161568
872.034	0.0161684
872.112	0.0161042
872.190	0.0161263
872.268	0.0161072
872.346	0.0161535
872.424	0.0163274
872.503	0.0162423
872.581	0.0162152
872.659	0.0161568
872.737	0.0162107
872.815	0.0162192
872.893	0.0162407
872.971	0.0160251
873.049	0.0161689
873.128	0.0161059
873.206	0.0160922
873.284	0.0160960
873.362	0.0161214
873.440	0.0160242
873.518	0.0159605
873.596	0.0160117
873.674	0.0161027
873.753	0.0160124
873.831	0.0159500
873.909	0.0159463
873.987	0.0159299
874.065	0.0158870
874.143	0.0158625
874.221	0.0160445
874.299	0.0160418
874.378	0.0159761
874.456	0.0158184
874.534	0.0159063
874.612	0.0159781
874.690	0.0160326
874.768	0.0159628
874.846	0.0160165
874.924	0.0159782
875.003	0.0161476
875.081	0.0161148
875.159	0.0159814
875.237	0.0160495
875.315	0.0161236
875.393	0.0160050
875.471	0.0161468
875.549	0.0160459
875.628	0.0159528
875.706	0.0159869
875.784	0.0161403
875.862	0.0160303
875.940	0.0160902
876.018	0.0162124
876.096	0.0161485
876.174	0.0161574
876.253	0.0161636
876.331	0.0161877
876.409	0.0160068
876.487	0.0161703
876.565	0.0160716
876.643	0.0159837
876.721	0.0160167
876.799	0.0161705
876.878	0.0160078
876.956	0.0160441
877.034	0.0162196
877.112	0.0161755
877.190	0.0161967
877.268	0.0160906
877.346	0.0161802
877.424	0.0163503
877.503	0.0160979
877.581	0.0161161
877.659	0.0161073
877.737	0.0160410
877.815	0.0162375
877.893	0.0161486
877.971	0.0160577
878.049	0.0160886
878.128	0.0160711
878.206	0.0160407
878.284	0.0160729
878.362	0.0160790
878.440	0.0159512
878.518	0.0161688
878.596	0.0160582
878.674	0.0160181
878.753	0.0159348
878.831	0.0160461
878.909	0.0160048
878.987	0.0159460
879.065	0.0159937
879.143	0.0160120
879.221	0.0159331
879.299	0.0160221
879.378	0.0159299
879.456	0.0159433
879.534	0.0159701
879.612	0.0159706
879.690	0.0158965
879.768	0.0159772
879.846	0.0159597
879.924	0.0160444
880.003	0.0161456
880.081	0.0161271
880.159	0.0160785
880.237	0.0162288
880.315	0.0161275
880.393	0.0161093
880.471	0.0161460
880.549	0.0161234
880.628	0.0161069
880.706	0.0161916
880.784	0.0160085
880.862	0.0159863
880.940	0.0161108
881.018	0.0162054
881.096	0.0161627
881.174	0.0160806
881.253	0.0161213
881.331	0.0161698
881.409	0.0160888
881.487	0.0161516
881.565	0.0159254
881.643	0.0160730
881.721	0.0161322
881.799	0.0161046
881.878	0.0160876
881.956	0.0161898
882.034	0.0159514
882.112	0.0160973
882.190	0.0159626
882.268	0.0160577
882.346	0.0161167
882.424	0.0160502
882.503	0.0160574
882.581	0.0161607
882.659	0.0161848
882.737	0.0161909
882.815	0.0161756
882.893	0.0160192
882.971	0.0160498
883.049	0.0160580
883.128	0.0161283
883.206	0.0161076
883.284	0.0160583
883.362	0.0160175
883.440	0.0158870
883.518	0.0160283
883.596	0.0160548
883.674	0.0159761
883.753	0.0160603
883.831	0.0159053
883.909	0.0160215
883.987	0.0159435
884.065	0.0160788
884.143	0.0159081
884.221	0.0160962
884.299	0.0158965
884.378	0.0159674
884.456	0.0160571
884.534	0.0159775
884.612	0.0159286
884.690	0.0159017
884.768	0.0158324
884.846	0.0159340
884.924	0.0160072
885.003	0.0157464
885.081	0.0159834
885.159	0.0159011
885.237	0.0158775
885.315	0.0159320
885.393	0.0159129
885.471	0.0159240
885.549	0.0160418
885.628	0.0160697
885.706	0.0158997
885.784	0.0160390
885.862	0.0161271
885.940	0.0161076
886.018	0.0160864
886.096	0.0161004
886.174	0.0161537
886.253	0.0161971
886.331	0.0161504
886.409	0.0160577
886.487	0.0161446
886.565	0.0160692
886.643	0.0161327
886.721	0.0161140
886.799	0.0161932
886.878	0.0161622
886.956	0.0159600
887.034	0.0160252
887.112	0.0161101
887.190	0.0162406
887.268	0.0159318
887.346	0.0159641
887.424	0.0160431
887.503	0.0159631
887.581	0.0160474
887.659	0.0160419
887.737	0.0160504
887.815	0.0160216
887.893	0.0160405
887.971	0.0160823
888.049	0.0160963
888.128	0.0161131
888.206	0.0160519
888.284	0.0160038
888.362	0.0160256
888.440	0.0161628
888.518	0.0161600
888.596	0.0161064
888.674	0.0159725
888.753	0.0161261
888.831	0.0162191
888.909	0.0160784
888.987	0.0160323
889.065	0.0161229
889.143	0.0160381
889.221	0.0161431
889.299	0.0160258
889.378	0.0162145
889.456	0.0160578
889.534	0.0159795
889.612	0.0160483
889.690	0.0160766
889.768	0.0161126
889.846	0.0160383
889.924	0.0159525
890.003	0.0159952
890.081	0.0158489
890.159	0.0158133
890.237	0.0158870
890.315	0.0160472
890.393	0.0159820
890.471	0.0159477
890.549	0.0159035
890.628	0.0159361
890.706	0.0159646
890.784	0.0160786
890.862	0.0160207
890.940	0.0160624
891.018	0.0158350
891.096	0.0160117
891.174	0.0161037
891.253	0.0160678
891.331	0.0160310
891.409	0.0158813
891.487	0.0160445
891.565	0.0160724
891.643	0.0161854
891.721	0.0159986
891.799	0.0159829
891.878	0.0161250
891.956	0.0160709
892.034	0.0160021
892.112	0.0160811
892.190	0.0160995
892.268	0.0159571
892.346	0.0160797
892.424	0.0162105
892.503	0.0161008
892.581	0.0160933
892.659	0.0160618
892.737	0.0161002
892.815	0.0159738
892.893	0.0159687
892.971	0.0160906
893.049	0.0161269
893.128	0.0159795
893.206	0.0158335
893.284	0.0159904
893.362	0.0160422
893.440	0.0159412
893.518	0.0159393
893.596	0.0160314
893.674	0.0160163
893.753	0.0160853
893.831	0.0158276
893.909	0.0160789
893.987	0.0159174
894.065	0.0159941
894.143	0.0159743
894.221	0.0159953
894.299	0.0159834
894.378	0.0160184
894.456	0.0160996
894.534	0.0161105
894.612	0.0160825
894.690	0.0159666
894.768	0.0162180
894.846	0.0161877
894.924	0.0160451
895.003	0.0160719
895.081	0.0160119
895.159	0.0159740
895.237	0.0161016
895.315	0.0160557
895.393	0.0159300
895.471	0.0159815
895.549	0.0159825
895.628	0.0160407
895.706	0.0160280
895.784	0.0160596
895.862	0.0160296
895.940	0.0161716
896.018	0.0159911
896.096	0.0159653
896.174	0.0161111
896.253	0.0160311
896.331	0.0159906
896.409	0.0159994
896.487	0.0161328
896.565	0.0160881
896.643	0.0161370
896.721	0.0160928
896.799	0.0160822
896.878	0.0160205
896.956	0.0161730
897.034	0.0160661
897.112	0.0160561
897.190	0.0162194
897.268	0.0161526
897.346	0.0159888
897.424	0.0162003
897.503	0.0161762
897.581	0.0159974
897.659	0.0160437
897.737	0.0161021
897.815	0.0161641
897.893	0.0160762
897.971	0.0160854
898.049	0.0160748
898.128	0.0161334
898.206	0.0161658
898.284	0.0161967
898.362	0.0160736
898.440	0.0160471
898.518	0.0161129
898.596	0.0160442
898.674	0.0161459
898.753	0.0160323
898.831	0.0160876
898.909	0.0161006
898.987	0.0159219
899.065	0.0160419
899.143	0.0160657
899.221	0.0159776
899.299	0.0159708
899.378	0.0159808
899.456	0.0161547
899.534	0.0162022
899.612	0.0160603
899.690	0.0161333
899.768	0.0161317
899.846	0.0159804
899.924	0.0160545
900.003	0.0161685
900.081	0.0160448
900.159	0.0159424
900.237	0.0158010
900.315	0.0159867
900.393	0.0160682
900.471	0.0161141
900.549	0.0158814
900.628	0.0159841
900.706	0.0159206
900.784	0.0160444
900.862	0.0159795
900.940	0.0160129
901.018	0.0161336
901.096	0.0161874
901.174	0.0159684
901.253	0.0159816
901.331	0.0160406
901.409	0.0159966
901.487	0.0161578
901.565	0.0160519
901.643	0.0161111
901.721	0.0160051
901.799	0.0159484
901.878	0.0159964
901.956	0.0158736
902.034	0.0160654
902.112	0.0162288
902.190	0.0161782
902.268	0.0160574
902.346	0.0161324
902.424	0.0162113
902.503	0.0161920
902.581	0.0161535
902.659	0.0160697
902.737	0.0161748
902.815	0.0161056
902.893	0.0159673
902.971	0.0159758
903.049	0.0159403
903.128	0.0161784
903.206	0.0161343
903.284	0.0161002
903.362	0.0160384
903.440	0.0160912
903.518	0.0160571
903.596	0.0162227
903.674	0.0160936
903.753	0.0160624
903.831	0.0160262
903.909	0.0159502
903.987	0.0160528
904.065	0.0160561
904.143	0.0160314
904.221	0.0161221
904.299	0.0159851
904.378	0.0159325
904.456	0.0159353
904.534	0.0160894
904.612	0.0160923
904.690	0.0159663
904.768	0.0160326
904.846	0.0158273
904.924	0.0161086
905.003	0.0159192
905.081	0.0160579
905.159	0.0160542
905.237	0.0160011
905.315	0.0161175
905.393	0.0159766
905.471	0.0159155
905.549	0.0159261
905.628	0.0160938
905.706	0.0161009
905.784	0.0158777
905.862	0.0159513
905.940	0.0160651
906.018	0.0160303
906.096	0.0161553
906.174	0.0160755
906.253	0.0161298
906.331	0.0160880
906.409	0.0160552
906.487	0.0161456
906.565	0.0161781
906.643	0.0161117
906.721	0.0160474
906.799	0.0160089
906.878	0.0160630
906.956	0.0159423
907.034	0.0160001
907.112	0.0159499
907.190	0.0159879
907.268	0.0159477
907.346	0.0158803
907.424	0.0159077
907.503	0.0161828
907.581	0.0160699
907.659	0.0159207
907.737	0.0160436
907.815	0.0159538
907.893	0.0160683
907.971	0.0159309
908.049	0.0160812
908.128	0.0161440
908.206	0.0161796
908.284	0.0161246
908.362	0.0161243
908.440	0.0160043
908.518	0.0159670
908.596	0.0161011
908.674	0.0159838
908.753	0.0160777
908.831	0.0160905
908.909	0.0160230
908.987	0.0159659
909.065	0.0160665
909.143	0.0160684
909.221	0.0160966
909.299	0.0159921
909.378	0.0159825
909.456	0.0160461
909.534	0.0158886
909.612	0.0159238
909.690	0.0160488
909.768	0.0160586
909.846	0.0159361
909.924	0.0160458
910.003	0.0158918
910.081	0.0159854
910.159	0.0160040
910.237	0.0160439
910.315	0.0159289
910.393	0.0159484
910.471	0.0159692
910.549	0.0159960
910.628	0.0161051
910.706	0.0162097
910.784	0.0159637
910.862	0.0160263
910.940	0.0160500
911.018	0.0161875
911.096	0.0160574
911.174	0.0159531
911.253	0.0160387
911.331	0.0160857
911.409	0.0160750
911.487	0.0160336
911.565	0.0160670
911.643	0.0161321
911.721	0.0160885
911.799	0.0159880
911.878	0.0160240
911.956	0.0160136
912.034	0.0160722
912.112	0.0160320
912.190	0.0160468
912.268	0.0159217
912.346	0.0158856
912.424	0.0160419
912.503	0.0160172
912.581	0.0159848
912.659	0.0158165
912.737	0.0159919
912.815	0.0159770
912.893	0.0160526
912.971	0.0160699
913.049	0.0160477
913.128	0.0160862
913.206	0.0160216
913.284	0.0160976
913.362	0.0161086
913.440	0.0161845
913.518	0.0162739
913.596	0.0162404
913.674	0.0163602
913.753	0.0161826
913.831	0.0163198
913.909	0.0164060
913.987	0.0162341
914.065	0.0162942
914.143	0.0162658
914.221	0.0162141
914.299	0.0161134
914.378	0.0161364
914.456	0.0162283
914.534	0.0160175
914.612	0.0159727
914.690	0.0160087
914.768	0.0158345
914.846	0.0158157
914.924	0.0158940
915.003	0.0156963
915.081	0.0158778
915.159	0.0159462
915.237	0.0157052
915.315	0.0160455
915.393	0.0158177
915.471	0.0159788
915.549	0.0159045
915.628	0.0159644
915.706	0.0160089
915.784	0.0160956
915.862	0.0159597
915.940	0.0161967
916.018	0.0161923
916.096	0.0161767
916.174	0.0162002
916.253	0.0162099
916.331	0.0163300
916.409	0.0162870
916.487	0.0161241
916.565	0.0161734
916.643	0.0164092
916.721	0.0162253
916.799	0.0160249
916.878	0.0160967
916.956	0.0160635
917.034	0.0160539
917.112	0.0162099
917.190	0.0160197
917.268	0.0158243
917.346	0.0158347
917.424	0.0158993
917.503	0.0159898
917.581	0.0158813
917.659	0.0159979
917.737	0.0159912
917.815	0.0160352
917.893	0.0159842
917.971	0.0159931
918.049	0.0159869
918.128	0.0157180
918.206	0.0159211
918.284	0.0158302
918.362	0.0159164
918.440	0.0159341
918.518	0.0159747
918.596	0.0159702
918.674	0.0160474
918.753	0.0160527
918.831	0.0160587
918.909	0.0160758
918.987	0.0160841
919.065	0.0161194
919.143	0.0162084
919.221	0.0162250
919.299	0.0161511
919.378	0.0161008
919.456	0.0161849
919.534	0.0161279
919.612	0.0161692
919.690	0.0161787
919.768	0.0160693
919.846	0.0160110
919.924	0.0160585
920.003	0.0160309
920.081	0.0160567
920.159	0.0161718
920.237	0.0160803
920.315	0.0162193
920.393	0.0160130
920.471	0.0161179
920.549	0.0161478
920.628	0.0161012
920.706	0.0161198
920.784	0.0161391
920.862	0.0160583
920.940	0.0159164
921.018	0.0162569
921.096	0.0161180
921.174	0.0161170
921.253	0.0160480
921.331	0.0160210
921.409	0.0160782
921.487	0.0161481
921.565	0.0161414
921.643	0.0161517
921.721	0.0160813
921.799	0.0161161
921.878	0.0160412
921.956	0.0160223
922.034	0.0160032
922.112	0.0159409
922.190	0.0159048
922.268	0.0158323
922.346	0.0158395
922.424	0.0158272
922.503	0.0157857
922.581	0.0157684
922.659	0.0158102
922.737	0.0160107
922.815	0.0157866
922.893	0.0158945
922.971	0.0159252
923.049	0.0159218
923.128	0.0160251
923.206	0.0160054
923.284	0.0160122
923.362	0.0160417
923.440	0.0160939
923.518	0.0159918
923.596	0.0161062
923.674	0.0161108
923.753	0.0160747
923.831	0.0160464
923.909	0.0161581
923.987	0.0162125
924.065	0.0160760
924.143	0.0160291
924.221	0.0162177
924.299	0.0160592
924.378	0.0160571
924.456	0.0159592
924.534	0.0159253
924.612	0.0160580
924.690	0.0161131
924.768	0.0160925
924.846	0.0161005
924.924	0.0161903
925.003	0.0160838
925.081	0.0162244
925.159	0.0161278
925.237	0.0162829
925.315	0.0163189
925.393	0.0163940
925.471	0.0163589
925.549	0.0164635
925.628	0.0163414
925.706	0.0164130
925.784	0.0162766
925.862	0.0161683
925.940	0.0162418
926.018	0.0162383
926.096	0.0159704
926.174	0.0161029
926.253	0.0161789
926.331	0.0158445
926.409	0.0158147
926.487	0.0158141
926.565	0.0159265
926.643	0.0160165
926.721	0.0159843
926.799	0.0159365
926.878	0.0158391
926.956	0.0159382
927.034	0.0159289
927.112	0.0158800
927.190	0.0159556
927.268	0.0159212
927.346	0.0160486
927.424	0.0159599
927.503	0.0160475
927.581	0.0159865
927.659	0.0160127
927.737	0.0161750
927.815	0.0161586
927.893	0.0160799
927.971	0.0160426
928.049	0.0161670
928.128	0.0161798
928.206	0.0161951
928.284	0.0162429
928.362	0.0160848
928.440	0.0160490
928.518	0.0160783
928.596	0.0160874
928.674	0.0159708
928.753	0.0158285
928.831	0.0159176
928.909	0.0159650
928.987	0.0158455
929.065	0.0157557
929.143	0.0159270
929.221	0.0160289
929.299	0.0159350
929.378	0.0158940
929.456	0.0160033
929.534	0.0159881
929.612	0.0160676
929.690	0.0160301
929.768	0.0161039
929.846	0.0161519
929.924	0.0160731
930.003	0.0160522
930.081	0.0162125
930.159	0.0163277
930.237	0.0159877
930.315	0.0159409
930.393	0.0161655
930.471	0.0160725
930.549	0.0160303
930.628	0.0160966
930.706	0.0160342
930.784	0.0160057
930.862	0.0159549
930.940	0.0162065
931.018	0.0161417
931.096	0.0160648
931.174	0.0160598
931.253	0.0161431
931.331	0.0164169
931.409	0.0161729
931.487	0.0160835
931.565	0.0163915
931.643	0.0162180
931.721	0.0161741
931.799	0.0161837
931.878	0.0162114
931.956	0.0160374
932.034	0.0161169
932.112	0.0159351
932.190	0.0160306
932.268	0.0160854
932.346	0.0159785
932.424	0.0160331
932.503	0.0161007
932.581	0.0161182
932.659	0.0161343
932.737	0.0160667
932.815	0.0161178
932.893	0.0161378
932.971	0.0160949
933.049	0.0160089
933.128	0.0159109
933.206	0.0159046
933.284	0.0161594
933.362	0.0159872
933.440	0.0158981
933.518	0.0158998
933.596	0.0158832
933.674	0.0159190
933.753	0.0158127
933.831	0.0157789
933.909	0.0159457
933.987	0.0158640
934.065	0.0158702
934.143	0.0159499
934.221	0.0159844
934.299	0.0161189
934.378	0.0160465
934.456	0.0161517
934.534	0.0161176
934.612	0.0162640
934.690	0.0161832
934.768	0.0161805
934.846	0.0162558
934.924	0.0162619
935.003	0.0161778
935.081	0.0162804
935.159	0.0159661
935.237	0.0159029
935.315	0.0159791
935.393	0.0160003
935.471	0.0158817
935.549	0.0158965
935.628	0.0160017
935.706	0.0158963
935.784	0.0160341
935.862	0.0160167
935.940	0.0160932
936.018	0.0160548
936.096	0.0159928
936.174	0.0161613
936.253	0.0161606
936.331	0.0162666
936.409	0.0160609
936.487	0.0161617
936.565	0.0161388
936.643	0.0160898
936.721	0.0162263
936.799	0.0160319
936.878	0.0160292
936.956	0.0160530
937.034	0.0160159
937.112	0.0160927
937.190	0.0159550
937.268	0.0159818
937.346	0.0160104
937.424	0.0159303
937.503	0.0160883
937.581	0.0159729
937.659	0.0159586
937.737	0.0159578
937.815	0.0159731
937.893	0.0160483
937.971	0.0160411
938.049	0.0161359
938.128	0.0161471
938.206	0.0160613
938.284	0.0161127
938.362	0.0160310
938.440	0.0158748
938.518	0.0159405
938.596	0.0159692
938.674	0.0159198
938.753	0.0159642
938.831	0.0159437
938.909	0.0159627
938.987	0.0158862
939.065	0.0160366
939.143	0.0160030
939.221	0.0159391
939.299	0.0160854
939.378	0.0161896
939.456	0.0161605
939.534	0.0161944
939.612	0.0163278
939.690	0.0161902
939.768	0.0161665
939.846	0.0161967
939.924	0.0162980
940.003	0.0161408
940.081	0.0160712
940.159	0.0161019
940.237	0.0160724
940.315	0.0161757
940.393	0.0161182
940.471	0.0160499
940.549	0.0160258
940.628	0.0161762
940.706	0.0160995
940.784	0.0160499
940.862	0.0160439
940.940	0.0160621
941.018	0.0161558
941.096	0.0160303
941.174	0.0160689
941.253	0.0161618
941.331	0.0160787
941.409	0.0161073
941.487	0.0161060
941.565	0.0160332
941.643	0.0159233
941.721	0.0158993
941.799	0.0159189
941.878	0.0158545
941.956	0.0158691
942.034	0.0159991
942.112	0.0158942
942.190	0.0158432
942.268	0.0158890
942.346	0.0158664
942.424	0.0159486
942.503	0.0158675
942.581	0.0160199
942.659	0.0160121
942.737	0.0161276
942.815	0.0159896
942.893	0.0162607
942.971	0.0162223
943.049	0.0159756
943.128	0.0161743
943.206	0.0164229
943.284	0.0161930
943.362	0.0162331
943.440	0.0161279
943.518	0.0159874
943.596	0.0161151
943.674	0.0160884
943.753	0.0162250
943.831	0.0160444
943.909	0.0160153
943.987	0.0162264
944.065	0.0159727
944.143	0.0160155
944.221	0.0161197
944.299	0.0160474
944.378	0.0161117
944.456	0.0160729
944.534	0.0161350
944.612	0.0161504
944.690	0.0161911
944.768	0.0160754
944.846	0.0161722
944.924	0.0161206
945.003	0.0160783
945.081	0.0161210
945.159	0.0161591
945.237	0.0161257
945.315	0.0160686
945.393	0.0160958
945.471	0.0160828
945.549	0.0160028
945.628	0.0160343
945.706	0.0161681
945.784	0.0160988
945.862	0.0161252
945.940	0.0160693
946.018	0.0161835
946.096	0.0159777
946.174	0.0161494
946.253	0.0161021
946.331	0.0159859
946.409	0.0161259
946.487	0.0160106
946.565	0.0159097
946.643	0.0160488
946.721	0.0159008
946.799	0.0159700
946.878	0.0158329
946.956	0.0159466
947.034	0.0158268
947.112	0.0158817
947.190	0.0160085
947.268	0.0160298
947.346	0.0159894
947.424	0.0160742
947.503	0.0160082
947.581	0.0159455
947.659	0.0160538
947.737	0.0160746
947.815	0.0161021
947.893	0.0161704
947.971	0.0161933
948.049	0.0161720
948.128	0.0160899
948.206	0.0161799
948.284	0.0160963
948.362	0.0160536
948.440	0.0160219
948.518	0.0161145
948.596	0.0161892
948.674	0.0161655
948.753	0.0161614
948.831	0.0161085
948.909	0.0160896
948.987	0.0161460
949.065	0.0162112
949.143	0.0160262
949.221	0.0161511
949.299	0.0161353
949.378	0.0161617
949.456	0.0160818
949.534	0.0160618
949.612	0.0161300
949.690	0.0161481
949.768	0.0161306
949.846	0.0161516
949.924	0.0161955
