06/29/2022	22:59:20	Ver.	4.1	UNKNOWN
Optical Delay	630.002507	Delta X		0.078125	Sweeps	1	Scan Rate	0/0
Coordinates	Axis 1	NaN	Axis 2	NaN	Axis 3	NaN	Axis 4	NaN	Axis 5	NaN	Axis 6	0.000000
TX Power	0.000000	RX Power	0.000000

630.003	0.0152010
630.081	0.0152184
630.159	0.0152184
630.237	0.0153143
630.315	0.0152330
630.393	0.0152399
630.471	0.0150952
630.549	0.0152306
630.628	0.0152935
630.706	0.0152570
630.784	0.0151804
630.862	0.0152126
630.940	0.0151717
631.018	0.0152155
631.096	0.0151704
631.174	0.0153010
631.253	0.0152985
631.331	0.0152391
631.409	0.0152103
631.487	0.0152068
631.565	0.0152239
631.643	0.0152095
631.721	0.0152467
631.799	0.0152149
631.878	0.0151141
631.956	0.0153772
632.034	0.0152553
632.112	0.0151839
632.190	0.0152598
632.268	0.0152705
632.346	0.0151923
632.424	0.0151089
632.503	0.0151972
632.581	0.0153205
632.659	0.0151980
632.737	0.0153205
632.815	0.0152210
632.893	0.0152065
632.971	0.0152861
633.049	0.0153372
633.128	0.0151840
633.206	0.0151792
633.284	0.0152398
633.362	0.0151373
633.440	0.0152070
633.518	0.0153358
633.596	0.0152600
633.674	0.0151405
633.753	0.0150797
633.831	0.0152345
633.909	0.0153573
633.987	0.0152994
634.065	0.0151754
634.143	0.0152908
634.221	0.0153485
634.299	0.0153233
634.378	0.0152338
634.456	0.0151845
634.534	0.0151997
634.612	0.0152983
634.690	0.0152355
634.768	0.0151373
634.846	0.0152794
634.924	0.0152035
635.003	0.0151599
635.081	0.0152699
635.159	0.0150741
635.237	0.0152802
635.315	0.0154064
635.393	0.0153400
635.471	0.0152380
635.549	0.0151478
635.628	0.0152676
635.706	0.0152100
635.784	0.0151435
635.862	0.0152666
635.940	0.0152724
636.018	0.0152962
636.096	0.0151028
636.174	0.0153971
636.253	0.0153519
636.331	0.0152872
636.409	0.0152064
636.487	0.0151849
636.565	0.0152689
636.643	0.0153415
636.721	0.0152106
636.799	0.0152394
636.878	0.0151882
636.956	0.0152461
637.034	0.0152212
637.112	0.0152241
637.190	0.0152332
637.268	0.0152261
637.346	0.0153713
637.424	0.0152127
637.503	0.0151570
637.581	0.0151965
637.659	0.0152533
637.737	0.0151234
637.815	0.0151046
637.893	0.0151273
637.971	0.0153076
638.049	0.0153133
638.128	0.0152375
638.206	0.0151147
638.284	0.0151968
638.362	0.0152028
638.440	0.0153086
638.518	0.0151748
638.596	0.0152058
638.674	0.0152143
638.753	0.0152820
638.831	0.0151613
638.909	0.0152013
638.987	0.0153496
639.065	0.0152309
639.143	0.0151607
639.221	0.0151321
639.299	0.0151960
639.378	0.0151113
639.456	0.0152099
639.534	0.0152108
639.612	0.0151868
639.690	0.0152944
639.768	0.0152204
639.846	0.0150838
639.924	0.0152010
640.003	0.0152741
640.081	0.0151299
640.159	0.0152480
640.237	0.0152277
640.315	0.0152514
640.393	0.0152695
640.471	0.0151877
640.549	0.0153632
640.628	0.0150858
640.706	0.0151271
640.784	0.0153118
640.862	0.0152723
640.940	0.0151968
641.018	0.0152981
641.096	0.0152100
641.174	0.0152252
641.253	0.0152616
641.331	0.0152439
641.409	0.0152519
641.487	0.0151981
641.565	0.0153124
641.643	0.0153027
641.721	0.0151360
641.799	0.0151527
641.878	0.0152423
641.956	0.0151499
642.034	0.0151737
642.112	0.0152271
642.190	0.0152361
642.268	0.0152471
642.346	0.0153118
642.424	0.0152705
642.503	0.0151103
642.581	0.0152461
642.659	0.0152334
642.737	0.0150529
642.815	0.0153480
642.893	0.0152804
642.971	0.0152631
643.049	0.0152213
643.128	0.0151973
643.206	0.0152148
643.284	0.0152064
643.362	0.0152322
643.440	0.0151894
643.518	0.0151698
643.596	0.0152192
643.674	0.0152337
643.753	0.0152026
643.831	0.0151664
643.909	0.0152607
643.987	0.0152240
644.065	0.0152138
644.143	0.0152103
644.221	0.0151759
644.299	0.0152486
644.378	0.0151383
644.456	0.0150285
644.534	0.0153591
644.612	0.0151776
644.690	0.0151122
644.768	0.0151557
644.846	0.0150666
644.924	0.0152902
645.003	0.0151552
645.081	0.0152763
645.159	0.0152879
645.237	0.0151524
645.315	0.0151627
645.393	0.0151627
645.471	0.0152322
645.549	0.0151495
645.628	0.0152863
645.706	0.0154087
645.784	0.0151808
645.862	0.0151875
645.940	0.0152282
646.018	0.0152621
646.096	0.0152280
646.174	0.0151407
646.253	0.0152276
646.331	0.0151761
646.409	0.0151195
646.487	0.0150746
646.565	0.0151705
646.643	0.0152861
646.721	0.0151964
646.799	0.0151288
646.878	0.0152026
646.956	0.0152267
647.034	0.0151992
647.112	0.0151852
647.190	0.0152241
647.268	0.0151823
647.346	0.0151846
647.424	0.0151879
647.503	0.0151963
647.581	0.0151280
647.659	0.0151904
647.737	0.0151281
647.815	0.0152812
647.893	0.0151881
647.971	0.0153443
648.049	0.0152929
648.128	0.0152746
648.206	0.0151476
648.284	0.0151833
648.362	0.0153764
648.440	0.0152702
648.518	0.0151687
648.596	0.0153081
648.674	0.0152859
648.753	0.0153311
648.831	0.0152062
648.909	0.0151652
648.987	0.0152042
649.065	0.0151146
649.143	0.0152046
649.221	0.0152238
649.299	0.0152300
649.378	0.0153014
649.456	0.0153622
649.534	0.0152396
649.612	0.0152540
649.690	0.0152525
649.768	0.0153462
649.846	0.0151367
649.924	0.0151910
650.003	0.0151844
650.081	0.0152912
650.159	0.0152055
650.237	0.0152456
650.315	0.0151513
650.393	0.0151748
650.471	0.0152465
650.549	0.0152512
650.628	0.0150827
650.706	0.0152229
650.784	0.0153205
650.862	0.0152610
650.940	0.0151553
651.018	0.0152255
651.096	0.0152539
651.174	0.0150922
651.253	0.0153531
651.331	0.0153435
651.409	0.0151570
651.487	0.0151534
651.565	0.0153026
651.643	0.0152686
651.721	0.0152045
651.799	0.0152339
651.878	0.0150982
651.956	0.0151598
652.034	0.0151534
652.112	0.0150696
652.190	0.0151384
652.268	0.0151324
652.346	0.0152664
652.424	0.0151588
652.503	0.0150524
652.581	0.0152061
652.659	0.0153098
652.737	0.0153288
652.815	0.0151962
652.893	0.0152592
652.971	0.0150881
653.049	0.0151859
653.128	0.0151727
653.206	0.0151771
653.284	0.0151299
653.362	0.0151875
653.440	0.0151950
653.518	0.0151952
653.596	0.0151179
653.674	0.0153207
653.753	0.0152538
653.831	0.0151549
653.909	0.0151641
653.987	0.0153219
654.065	0.0152419
654.143	0.0150935
654.221	0.0152527
654.299	0.0152097
654.378	0.0151328
654.456	0.0152952
654.534	0.0150979
654.612	0.0151033
654.690	0.0152424
654.768	0.0152045
654.846	0.0152106
654.924	0.0152969
655.003	0.0152432
655.081	0.0152656
655.159	0.0151548
655.237	0.0153512
655.315	0.0151464
655.393	0.0152678
655.471	0.0152625
655.549	0.0153150
655.628	0.0152059
655.706	0.0152111
655.784	0.0152207
655.862	0.0152200
655.940	0.0152846
656.018	0.0152136
656.096	0.0152266
656.174	0.0152180
656.253	0.0150793
656.331	0.0152637
656.409	0.0152039
656.487	0.0151270
656.565	0.0152715
656.643	0.0151019
656.721	0.0152191
656.799	0.0153145
656.878	0.0152621
656.956	0.0152809
657.034	0.0152910
657.112	0.0152500
657.190	0.0152454
657.268	0.0152083
657.346	0.0152130
657.424	0.0152441
657.503	0.0152252
657.581	0.0151849
657.659	0.0151472
657.737	0.0153065
657.815	0.0152769
657.893	0.0152075
657.971	0.0152357
658.049	0.0153034
658.128	0.0153719
658.206	0.0151557
658.284	0.0152191
658.362	0.0153535
658.440	0.0151308
658.518	0.0152455
658.596	0.0153722
658.674	0.0152964
658.753	0.0153051
658.831	0.0152183
658.909	0.0152028
658.987	0.0153257
659.065	0.0153235
659.143	0.0151234
659.221	0.0152500
659.299	0.0151653
659.378	0.0152991
659.456	0.0151590
659.534	0.0152959
659.612	0.0153465
659.690	0.0151638
659.768	0.0152529
659.846	0.0153783
659.924	0.0151782
660.003	0.0152489
660.081	0.0153566
660.159	0.0152797
660.237	0.0151212
660.315	0.0152310
660.393	0.0152277
660.471	0.0151356
660.549	0.0151740
660.628	0.0151465
660.706	0.0151335
660.784	0.0151043
660.862	0.0151945
660.940	0.0151797
661.018	0.0151816
661.096	0.0153135
661.174	0.0151461
661.253	0.0150506
661.331	0.0152143
661.409	0.0152135
661.487	0.0151102
661.565	0.0150622
661.643	0.0152509
661.721	0.0152626
661.799	0.0151211
661.878	0.0152100
661.956	0.0151520
662.034	0.0152272
662.112	0.0152755
662.190	0.0151427
662.268	0.0151962
662.346	0.0152109
662.424	0.0152065
662.503	0.0151509
662.581	0.0150959
662.659	0.0152430
662.737	0.0152139
662.815	0.0151990
662.893	0.0152192
662.971	0.0150443
663.049	0.0152993
663.128	0.0153139
663.206	0.0153514
663.284	0.0152605
663.362	0.0151735
663.440	0.0153000
663.518	0.0153040
663.596	0.0152276
663.674	0.0151642
663.753	0.0152481
663.831	0.0152623
663.909	0.0152182
663.987	0.0152660
664.065	0.0152361
664.143	0.0152853
664.221	0.0152709
664.299	0.0152367
664.378	0.0151759
664.456	0.0151528
664.534	0.0151768
664.612	0.0153092
664.690	0.0151920
664.768	0.0152748
664.846	0.0152562
664.924	0.0151672
665.003	0.0151858
665.081	0.0151943
665.159	0.0152037
665.237	0.0152046
665.315	0.0152000
665.393	0.0152867
665.471	0.0151746
665.549	0.0153866
665.628	0.0152628
665.706	0.0151373
665.784	0.0152921
665.862	0.0151266
665.940	0.0152315
666.018	0.0152949
666.096	0.0152107
666.174	0.0152914
666.253	0.0153173
666.331	0.0152319
666.409	0.0152270
666.487	0.0152536
666.565	0.0152245
666.643	0.0153061
666.721	0.0152936
666.799	0.0151691
666.878	0.0151804
666.956	0.0152934
667.034	0.0153231
667.112	0.0152503
667.190	0.0153253
667.268	0.0151461
667.346	0.0151458
667.424	0.0151579
667.503	0.0152219
667.581	0.0152033
667.659	0.0152120
667.737	0.0152235
667.815	0.0151669
667.893	0.0152824
667.971	0.0151415
668.049	0.0152496
668.128	0.0151884
668.206	0.0151747
668.284	0.0152579
668.362	0.0152187
668.440	0.0151758
668.518	0.0153230
668.596	0.0151891
668.674	0.0151981
668.753	0.0152445
668.831	0.0151704
668.909	0.0152873
668.987	0.0153860
669.065	0.0153397
669.143	0.0151503
669.221	0.0152616
669.299	0.0153075
669.378	0.0152964
669.456	0.0152163
669.534	0.0151637
669.612	0.0152380
669.690	0.0151830
669.768	0.0151839
669.846	0.0153793
669.924	0.0153371
670.003	0.0152061
670.081	0.0150567
670.159	0.0152194
670.237	0.0153255
670.315	0.0153031
670.393	0.0152285
670.471	0.0152801
670.549	0.0152768
670.628	0.0151993
670.706	0.0152073
670.784	0.0153123
670.862	0.0151754
670.940	0.0152187
671.018	0.0152578
671.096	0.0152175
671.174	0.0152164
671.253	0.0152158
671.331	0.0151638
671.409	0.0152764
671.487	0.0151957
671.565	0.0151563
671.643	0.0153006
671.721	0.0152431
671.799	0.0151910
671.878	0.0151779
671.956	0.0152266
672.034	0.0152853
672.112	0.0152431
672.190	0.0152830
672.268	0.0152847
672.346	0.0152666
672.424	0.0152483
672.503	0.0152827
672.581	0.0151727
672.659	0.0151802
672.737	0.0152075
672.815	0.0151652
672.893	0.0152110
672.971	0.0153051
673.049	0.0153004
673.128	0.0153516
673.206	0.0153631
673.284	0.0153661
673.362	0.0153159
673.440	0.0152200
673.518	0.0151925
673.596	0.0153032
673.674	0.0151737
673.753	0.0152213
673.831	0.0152922
673.909	0.0152386
673.987	0.0152724
674.065	0.0152625
674.143	0.0153418
674.221	0.0154014
674.299	0.0152747
674.378	0.0152333
674.456	0.0151954
674.534	0.0152625
674.612	0.0152627
674.690	0.0154244
674.768	0.0153024
674.846	0.0151981
674.924	0.0152133
675.003	0.0152378
675.081	0.0151802
675.159	0.0152635
675.237	0.0151518
675.315	0.0151350
675.393	0.0153860
675.471	0.0151830
675.549	0.0151020
675.628	0.0152767
675.706	0.0154552
675.784	0.0152681
675.862	0.0152434
675.940	0.0152674
676.018	0.0151970
676.096	0.0152241
676.174	0.0152785
676.253	0.0152477
676.331	0.0152258
676.409	0.0153662
676.487	0.0152175
676.565	0.0152776
676.643	0.0151986
676.721	0.0152075
676.799	0.0154008
676.878	0.0152278
676.956	0.0152554
677.034	0.0153558
677.112	0.0151701
677.190	0.0152221
677.268	0.0152929
677.346	0.0151830
677.424	0.0152753
677.503	0.0151878
677.581	0.0150845
677.659	0.0152995
677.737	0.0153014
677.815	0.0152732
677.893	0.0151899
677.971	0.0151337
678.049	0.0151698
678.128	0.0153138
678.206	0.0152531
678.284	0.0151799
678.362	0.0152462
678.440	0.0152332
678.518	0.0153136
678.596	0.0153172
678.674	0.0152879
678.753	0.0150376
678.831	0.0151689
678.909	0.0152007
678.987	0.0152722
679.065	0.0151844
679.143	0.0152162
679.221	0.0151314
679.299	0.0153316
679.378	0.0152190
679.456	0.0152351
679.534	0.0151586
679.612	0.0152060
679.690	0.0153082
679.768	0.0153711
679.846	0.0153092
679.924	0.0152978
680.003	0.0152493
680.081	0.0152593
680.159	0.0151637
680.237	0.0152391
680.315	0.0151575
680.393	0.0151286
680.471	0.0152212
680.549	0.0151166
680.628	0.0152886
680.706	0.0152647
680.784	0.0152738
680.862	0.0152078
680.940	0.0151790
681.018	0.0153640
681.096	0.0153661
681.174	0.0152753
681.253	0.0151832
681.331	0.0155077
681.409	0.0152762
681.487	0.0152895
681.565	0.0153282
681.643	0.0152840
681.721	0.0153011
681.799	0.0152293
681.878	0.0152235
681.956	0.0153464
682.034	0.0153165
682.112	0.0152601
682.190	0.0152394
682.268	0.0151646
682.346	0.0153168
682.424	0.0152937
682.503	0.0152268
682.581	0.0151867
682.659	0.0152448
682.737	0.0152477
682.815	0.0152594
682.893	0.0154089
682.971	0.0151237
683.049	0.0152588
683.128	0.0152884
683.206	0.0152099
683.284	0.0151587
683.362	0.0151802
683.440	0.0152399
683.518	0.0152341
683.596	0.0152970
683.674	0.0151984
683.753	0.0151418
683.831	0.0153828
683.909	0.0152395
683.987	0.0151545
684.065	0.0150787
684.143	0.0152341
684.221	0.0152021
684.299	0.0151615
684.378	0.0152231
684.456	0.0151953
684.534	0.0152581
684.612	0.0151467
684.690	0.0151416
684.768	0.0150958
684.846	0.0152537
684.924	0.0153272
685.003	0.0152794
685.081	0.0151565
685.159	0.0151993
685.237	0.0152728
685.315	0.0153131
685.393	0.0152920
685.471	0.0152279
685.549	0.0151517
685.628	0.0151574
685.706	0.0152808
685.784	0.0152131
685.862	0.0153549
685.940	0.0153810
686.018	0.0153647
686.096	0.0152019
686.174	0.0152872
686.253	0.0152118
686.331	0.0152026
686.409	0.0152870
686.487	0.0151308
686.565	0.0150835
686.643	0.0153563
686.721	0.0152032
686.799	0.0151835
686.878	0.0151957
686.956	0.0152233
687.034	0.0151977
687.112	0.0152764
687.190	0.0151574
687.268	0.0152777
687.346	0.0152176
687.424	0.0151642
687.503	0.0153046
687.581	0.0153305
687.659	0.0153190
687.737	0.0153571
687.815	0.0152814
687.893	0.0152837
687.971	0.0151682
688.049	0.0151673
688.128	0.0151992
688.206	0.0152352
688.284	0.0152778
688.362	0.0152162
688.440	0.0151604
688.518	0.0152404
688.596	0.0151912
688.674	0.0152718
688.753	0.0153249
688.831	0.0153368
688.909	0.0152389
688.987	0.0151398
689.065	0.0152219
689.143	0.0150434
689.221	0.0151908
689.299	0.0151939
689.378	0.0149741
689.456	0.0151555
689.534	0.0151556
689.612	0.0151107
689.690	0.0150668
689.768	0.0151682
689.846	0.0152361
689.924	0.0151053
690.003	0.0150145
690.081	0.0150778
690.159	0.0151466
690.237	0.0152337
690.315	0.0151984
690.393	0.0152047
690.471	0.0152699
690.549	0.0153407
690.628	0.0153487
690.706	0.0154555
690.784	0.0154082
690.862	0.0153174
690.940	0.0152443
691.018	0.0151736
691.096	0.0152921
691.174	0.0151079
691.253	0.0149866
691.331	0.0149762
691.409	0.0149184
691.487	0.0149726
691.565	0.0151102
691.643	0.0149904
691.721	0.0151063
691.799	0.0151669
691.878	0.0152779
691.956	0.0153825
692.034	0.0155511
692.112	0.0155820
692.190	0.0155706
692.268	0.0155032
692.346	0.0154790
692.424	0.0153168
692.503	0.0152427
692.581	0.0152457
692.659	0.0151664
692.737	0.0150169
692.815	0.0150639
692.893	0.0150168
692.971	0.0149763
693.049	0.0148943
693.128	0.0150752
693.206	0.0150155
693.284	0.0150182
693.362	0.0152119
693.440	0.0153613
693.518	0.0154038
693.596	0.0154945
693.674	0.0155821
693.753	0.0157072
693.831	0.0156018
693.909	0.0157880
693.987	0.0154881
694.065	0.0155768
694.143	0.0154539
694.221	0.0153621
694.299	0.0151484
694.378	0.0150605
694.456	0.0149870
694.534	0.0150521
694.612	0.0149574
694.690	0.0149367
694.768	0.0148493
694.846	0.0148359
694.924	0.0151265
695.003	0.0150912
695.081	0.0152175
695.159	0.0153634
695.237	0.0155248
695.315	0.0155692
695.393	0.0156927
695.471	0.0155173
695.549	0.0156568
695.628	0.0157071
695.706	0.0157177
695.784	0.0154700
695.862	0.0154749
695.940	0.0151532
696.018	0.0150774
696.096	0.0148980
696.174	0.0147757
696.253	0.0147972
696.331	0.0149673
696.409	0.0149755
696.487	0.0150673
696.565	0.0149972
696.643	0.0152003
696.721	0.0151553
696.799	0.0152670
696.878	0.0153060
696.956	0.0153999
697.034	0.0154131
697.112	0.0154259
697.190	0.0154153
697.268	0.0153807
697.346	0.0154735
697.424	0.0155838
697.503	0.0154168
697.581	0.0155655
697.659	0.0155465
697.737	0.0154027
697.815	0.0153242
697.893	0.0152104
697.971	0.0151446
698.049	0.0150180
698.128	0.0148762
698.206	0.0147478
698.284	0.0149155
698.362	0.0149255
698.440	0.0149142
698.518	0.0148792
698.596	0.0150693
698.674	0.0150823
698.753	0.0151166
698.831	0.0153555
698.909	0.0153879
698.987	0.0155164
699.065	0.0155322
699.143	0.0154794
699.221	0.0155628
699.299	0.0155403
699.378	0.0154346
699.456	0.0154537
699.534	0.0153059
699.612	0.0151768
699.690	0.0150629
699.768	0.0149541
699.846	0.0148319
699.924	0.0147836
700.003	0.0148124
700.081	0.0149486
700.159	0.0149409
700.237	0.0149277
700.315	0.0150575
700.393	0.0151049
700.471	0.0152117
700.549	0.0151099
700.628	0.0151969
700.706	0.0153512
700.784	0.0153121
700.862	0.0154045
700.940	0.0155141
701.018	0.0156458
701.096	0.0154507
701.174	0.0155186
701.253	0.0154620
701.331	0.0155363
701.409	0.0153719
701.487	0.0152017
701.565	0.0152720
701.643	0.0151604
701.721	0.0150319
701.799	0.0149769
701.878	0.0148368
701.956	0.0148829
702.034	0.0149030
702.112	0.0150220
702.190	0.0151376
702.268	0.0152113
702.346	0.0152467
702.424	0.0152296
702.503	0.0151775
702.581	0.0152074
702.659	0.0154195
702.737	0.0152902
702.815	0.0153151
702.893	0.0155714
702.971	0.0155952
703.049	0.0155499
703.128	0.0154938
703.206	0.0155115
703.284	0.0155588
703.362	0.0156272
703.440	0.0155817
703.518	0.0153036
703.596	0.0151334
703.674	0.0150504
703.753	0.0148823
703.831	0.0148201
703.909	0.0148186
703.987	0.0147591
704.065	0.0146027
704.143	0.0146790
704.221	0.0149384
704.299	0.0150108
704.378	0.0151292
704.456	0.0152198
704.534	0.0154809
704.612	0.0155579
704.690	0.0157945
704.768	0.0159141
704.846	0.0157558
704.924	0.0156864
705.003	0.0157146
705.081	0.0156280
705.159	0.0154700
705.237	0.0153378
705.315	0.0152341
705.393	0.0150855
705.471	0.0150867
705.549	0.0148616
705.628	0.0149575
705.706	0.0148470
705.784	0.0147440
705.862	0.0147997
705.940	0.0148074
706.018	0.0149279
706.096	0.0151037
706.174	0.0153319
706.253	0.0153709
706.331	0.0154737
706.409	0.0156112
706.487	0.0157333
706.565	0.0156693
706.643	0.0155316
706.721	0.0152814
706.799	0.0153848
706.878	0.0153313
706.956	0.0152138
707.034	0.0150112
707.112	0.0149243
707.190	0.0149357
707.268	0.0150515
707.346	0.0148229
707.424	0.0149978
707.503	0.0150748
707.581	0.0152525
707.659	0.0155145
707.737	0.0155357
707.815	0.0155421
707.893	0.0156007
707.971	0.0156865
708.049	0.0155426
708.128	0.0155213
708.206	0.0154070
708.284	0.0153074
708.362	0.0152945
708.440	0.0151610
708.518	0.0150385
708.596	0.0148272
708.674	0.0148100
708.753	0.0147343
708.831	0.0149242
708.909	0.0149628
708.987	0.0148534
709.065	0.0149736
709.143	0.0152845
709.221	0.0153673
709.299	0.0153899
709.378	0.0156168
709.456	0.0157360
709.534	0.0157564
709.612	0.0155744
709.690	0.0155692
709.768	0.0156464
709.846	0.0154803
709.924	0.0152505
710.003	0.0152099
710.081	0.0149955
710.159	0.0148909
710.237	0.0148061
710.315	0.0148105
710.393	0.0148673
710.471	0.0150376
710.549	0.0150362
710.628	0.0149316
710.706	0.0149889
710.784	0.0151727
710.862	0.0153847
710.940	0.0154285
711.018	0.0154691
711.096	0.0154632
711.174	0.0155514
711.253	0.0156361
711.331	0.0155064
711.409	0.0155119
711.487	0.0155540
711.565	0.0156863
711.643	0.0155442
711.721	0.0154647
711.799	0.0153706
711.878	0.0153522
711.956	0.0153046
712.034	0.0152132
712.112	0.0150108
712.190	0.0148318
712.268	0.0149146
712.346	0.0147444
712.424	0.0146758
712.503	0.0146862
712.581	0.0147281
712.659	0.0146817
712.737	0.0147947
712.815	0.0148881
712.893	0.0149982
712.971	0.0150553
713.049	0.0152113
713.128	0.0151960
713.206	0.0152493
713.284	0.0156430
713.362	0.0155864
713.440	0.0155508
713.518	0.0156267
713.596	0.0154103
713.674	0.0154292
713.753	0.0153020
713.831	0.0151342
713.909	0.0151763
713.987	0.0151266
714.065	0.0149483
714.143	0.0148139
714.221	0.0148649
714.299	0.0149904
714.378	0.0150586
714.456	0.0152166
714.534	0.0152097
714.612	0.0152872
714.690	0.0153164
714.768	0.0153591
714.846	0.0154066
714.924	0.0154228
715.003	0.0153804
715.081	0.0154591
715.159	0.0153160
715.237	0.0152866
715.315	0.0152855
715.393	0.0152338
715.471	0.0152067
715.549	0.0150280
715.628	0.0149792
715.706	0.0151418
715.784	0.0151625
715.862	0.0151611
715.940	0.0151762
716.018	0.0151410
716.096	0.0152116
716.174	0.0152696
716.253	0.0153571
716.331	0.0153102
716.409	0.0153010
716.487	0.0154662
716.565	0.0153824
716.643	0.0153545
716.721	0.0154192
716.799	0.0153849
716.878	0.0153597
716.956	0.0152856
717.034	0.0152895
717.112	0.0150729
717.190	0.0150967
717.268	0.0147686
717.346	0.0148744
717.424	0.0146092
717.503	0.0145966
717.581	0.0148073
717.659	0.0147727
717.737	0.0148199
717.815	0.0150560
717.893	0.0150455
717.971	0.0152931
718.049	0.0153934
718.128	0.0155487
718.206	0.0157033
718.284	0.0158102
718.362	0.0157008
718.440	0.0156117
718.518	0.0156641
718.596	0.0156864
718.674	0.0155909
718.753	0.0155221
718.831	0.0154043
718.909	0.0154031
718.987	0.0153008
719.065	0.0153111
719.143	0.0151194
719.221	0.0150448
719.299	0.0150906
719.378	0.0151772
719.456	0.0149635
719.534	0.0147867
719.612	0.0148729
719.690	0.0147371
719.768	0.0147014
719.846	0.0146943
719.924	0.0148288
720.003	0.0146925
720.081	0.0147097
720.159	0.0147751
720.237	0.0148069
720.315	0.0149432
720.393	0.0149989
720.471	0.0150506
720.549	0.0152412
720.628	0.0153223
720.706	0.0155560
720.784	0.0157310
720.862	0.0158926
720.940	0.0158672
721.018	0.0160590
721.096	0.0160527
721.174	0.0159248
721.253	0.0160185
721.331	0.0159454
721.409	0.0157874
721.487	0.0157742
721.565	0.0156413
721.643	0.0155336
721.721	0.0152025
721.799	0.0152060
721.878	0.0151107
721.956	0.0149170
722.034	0.0147370
722.112	0.0148054
722.190	0.0147375
722.268	0.0146821
722.346	0.0147639
722.424	0.0147137
722.503	0.0147270
722.581	0.0148688
722.659	0.0149155
722.737	0.0149049
722.815	0.0150172
722.893	0.0152330
722.971	0.0152676
723.049	0.0152685
723.128	0.0152094
723.206	0.0153350
723.284	0.0155038
723.362	0.0155383
723.440	0.0153228
723.518	0.0154629
723.596	0.0155344
723.674	0.0155511
723.753	0.0155593
723.831	0.0155470
723.909	0.0155686
723.987	0.0155872
724.065	0.0156741
724.143	0.0156255
724.221	0.0155853
724.299	0.0156181
724.378	0.0155003
724.456	0.0153376
724.534	0.0154263
724.612	0.0151881
724.690	0.0150993
724.768	0.0149445
724.846	0.0147704
724.924	0.0146567
725.003	0.0144695
725.081	0.0145049
725.159	0.0144548
725.237	0.0144098
725.315	0.0143905
725.393	0.0144858
725.471	0.0146864
725.549	0.0147784
725.628	0.0149754
725.706	0.0150439
725.784	0.0151961
725.862	0.0151778
725.940	0.0153189
726.018	0.0155209
726.096	0.0154945
726.174	0.0157321
726.253	0.0156959
726.331	0.0156757
726.409	0.0158633
726.487	0.0158224
726.565	0.0159669
726.643	0.0158908
726.721	0.0158045
726.799	0.0157334
726.878	0.0157112
726.956	0.0157071
727.034	0.0157233
727.112	0.0155649
727.190	0.0157552
727.268	0.0156377
727.346	0.0155570
727.424	0.0155847
727.503	0.0152669
727.581	0.0151984
727.659	0.0151467
727.737	0.0151134
727.815	0.0149472
727.893	0.0148292
727.971	0.0148730
728.049	0.0147280
728.128	0.0146521
728.206	0.0146507
728.284	0.0146882
728.362	0.0146178
728.440	0.0146021
728.518	0.0147341
728.596	0.0146472
728.674	0.0146569
728.753	0.0145219
728.831	0.0147285
728.909	0.0147298
728.987	0.0146697
729.065	0.0147781
729.143	0.0147096
729.221	0.0148123
729.299	0.0147093
729.378	0.0147399
729.456	0.0148866
729.534	0.0149004
729.612	0.0148168
729.690	0.0148094
729.768	0.0150142
729.846	0.0151391
729.924	0.0151861
730.003	0.0154204
730.081	0.0153685
730.159	0.0155567
730.237	0.0157332
730.315	0.0159757
730.393	0.0161871
730.471	0.0163924
730.549	0.0164302
730.628	0.0164619
730.706	0.0165227
730.784	0.0165415
730.862	0.0165997
730.940	0.0164693
731.018	0.0163302
731.096	0.0162930
731.174	0.0161907
731.253	0.0159545
731.331	0.0158627
731.409	0.0156218
731.487	0.0153674
731.565	0.0152485
731.643	0.0152589
731.721	0.0149653
731.799	0.0147260
731.878	0.0146918
731.956	0.0146861
732.034	0.0145427
732.112	0.0145039
732.190	0.0144399
732.268	0.0143925
732.346	0.0143858
732.424	0.0143708
732.503	0.0144291
732.581	0.0144063
732.659	0.0143467
732.737	0.0143997
732.815	0.0145427
732.893	0.0144649
732.971	0.0146913
733.049	0.0146974
733.128	0.0147834
733.206	0.0149408
733.284	0.0152750
733.362	0.0153263
733.440	0.0152871
733.518	0.0157144
733.596	0.0157980
733.674	0.0158411
733.753	0.0158955
733.831	0.0158268
733.909	0.0160106
733.987	0.0160007
734.065	0.0160093
734.143	0.0159446
734.221	0.0158290
734.299	0.0158764
734.378	0.0158858
734.456	0.0159294
734.534	0.0159200
734.612	0.0159330
734.690	0.0157955
734.768	0.0158926
734.846	0.0159675
734.924	0.0160389
735.003	0.0159689
735.081	0.0157336
735.159	0.0157719
735.237	0.0157485
735.315	0.0155849
735.393	0.0154395
735.471	0.0155033
735.549	0.0151841
735.628	0.0150197
735.706	0.0149824
735.784	0.0148146
735.862	0.0146178
735.940	0.0142775
736.018	0.0143096
736.096	0.0140729
736.174	0.0137911
736.253	0.0137591
736.331	0.0136417
736.409	0.0135674
736.487	0.0134753
736.565	0.0135297
736.643	0.0135590
736.721	0.0137347
736.799	0.0139895
736.878	0.0141515
736.956	0.0143336
737.034	0.0146214
737.112	0.0147437
737.190	0.0152804
737.268	0.0154340
737.346	0.0156515
737.424	0.0159459
737.503	0.0161198
737.581	0.0162377
737.659	0.0164298
737.737	0.0165918
737.815	0.0167330
737.893	0.0167056
737.971	0.0168178
738.049	0.0167374
738.128	0.0168056
738.206	0.0167614
738.284	0.0166295
738.362	0.0165447
738.440	0.0165749
738.518	0.0165142
738.596	0.0164146
738.674	0.0163312
738.753	0.0163739
738.831	0.0164156
738.909	0.0162367
738.987	0.0162824
739.065	0.0163225
739.143	0.0162457
739.221	0.0159729
739.299	0.0157391
739.378	0.0155615
739.456	0.0153442
739.534	0.0149848
739.612	0.0146344
739.690	0.0143655
739.768	0.0139571
739.846	0.0137858
739.924	0.0134866
740.003	0.0132841
740.081	0.0131457
740.159	0.0131393
740.237	0.0130422
740.315	0.0130588
740.393	0.0130625
740.471	0.0130348
740.549	0.0130882
740.628	0.0132648
740.706	0.0133231
740.784	0.0135870
740.862	0.0138142
740.940	0.0140166
741.018	0.0143053
741.096	0.0145715
741.174	0.0147916
741.253	0.0149273
741.331	0.0152534
741.409	0.0156429
741.487	0.0157619
741.565	0.0160041
741.643	0.0162657
741.721	0.0163116
741.799	0.0162669
741.878	0.0161991
741.956	0.0163670
742.034	0.0163606
742.112	0.0162144
742.190	0.0163988
742.268	0.0161243
742.346	0.0160172
742.424	0.0160022
742.503	0.0158717
742.581	0.0157195
742.659	0.0157117
742.737	0.0156801
742.815	0.0158013
742.893	0.0156992
742.971	0.0157642
743.049	0.0158372
743.128	0.0157874
743.206	0.0157719
743.284	0.0157845
743.362	0.0159369
743.440	0.0159948
743.518	0.0160749
743.596	0.0160709
743.674	0.0160173
743.753	0.0160986
743.831	0.0161663
743.909	0.0160478
743.987	0.0159131
744.065	0.0159023
744.143	0.0156654
744.221	0.0154525
744.299	0.0152843
744.378	0.0152654
744.456	0.0150521
744.534	0.0150202
744.612	0.0148102
744.690	0.0145748
744.768	0.0146909
744.846	0.0144778
744.924	0.0143670
745.003	0.0145079
745.081	0.0143510
745.159	0.0142323
745.237	0.0142286
745.315	0.0141843
745.393	0.0142488
745.471	0.0141772
745.549	0.0141665
745.628	0.0142471
745.706	0.0141624
745.784	0.0139405
745.862	0.0140144
745.940	0.0139204
746.018	0.0139588
746.096	0.0141364
746.174	0.0139555
746.253	0.0141084
746.331	0.0144131
746.409	0.0144523
746.487	0.0146505
746.565	0.0145895
746.643	0.0149662
746.721	0.0150623
746.799	0.0153123
746.878	0.0154043
746.956	0.0154865
747.034	0.0157684
747.112	0.0156681
747.190	0.0158651
747.268	0.0160755
747.346	0.0163596
747.424	0.0163750
747.503	0.0166020
747.581	0.0166450
747.659	0.0167342
747.737	0.0169273
747.815	0.0167998
747.893	0.0169186
747.971	0.0168678
748.049	0.0168204
748.128	0.0166618
748.206	0.0165433
748.284	0.0163467
748.362	0.0161486
748.440	0.0159697
748.518	0.0157014
748.596	0.0155992
748.674	0.0152636
748.753	0.0151185
748.831	0.0148948
748.909	0.0147906
748.987	0.0146838
749.065	0.0143824
749.143	0.0142963
749.221	0.0142868
749.299	0.0143721
749.378	0.0144650
749.456	0.0144320
749.534	0.0145060
749.612	0.0145113
749.690	0.0148167
749.768	0.0148304
749.846	0.0150377
749.924	0.0151080
750.003	0.0152699
750.081	0.0152676
750.159	0.0155136
750.237	0.0154826
750.315	0.0155908
750.393	0.0156908
750.471	0.0156886
750.549	0.0156545
750.628	0.0158769
750.706	0.0157979
750.784	0.0156801
750.862	0.0156543
750.940	0.0155641
751.018	0.0154737
751.096	0.0153096
751.174	0.0152673
751.253	0.0149709
751.331	0.0149568
751.409	0.0147984
751.487	0.0145335
751.565	0.0144369
751.643	0.0143086
751.721	0.0140592
751.799	0.0139671
751.878	0.0137448
751.956	0.0134827
752.034	0.0133731
752.112	0.0133723
752.190	0.0132523
752.268	0.0132143
752.346	0.0135133
752.424	0.0136769
752.503	0.0138716
752.581	0.0142458
752.659	0.0146231
752.737	0.0149305
752.815	0.0154558
752.893	0.0158536
752.971	0.0163744
753.049	0.0166440
753.128	0.0169322
753.206	0.0172253
753.284	0.0174847
753.362	0.0176088
753.440	0.0176212
753.518	0.0175745
753.596	0.0174235
753.674	0.0172026
753.753	0.0169551
753.831	0.0166455
753.909	0.0163058
753.987	0.0160014
754.065	0.0154633
754.143	0.0152464
754.221	0.0150365
754.299	0.0146072
754.378	0.0143744
754.456	0.0141914
754.534	0.0142039
754.612	0.0141524
754.690	0.0140759
754.768	0.0141693
754.846	0.0142772
754.924	0.0143796
755.003	0.0144044
755.081	0.0146644
755.159	0.0148949
755.237	0.0150080
755.315	0.0152135
755.393	0.0154993
755.471	0.0155027
755.549	0.0155536
755.628	0.0157525
755.706	0.0159125
755.784	0.0158833
755.862	0.0157925
755.940	0.0158958
756.018	0.0158868
756.096	0.0159322
756.174	0.0160278
756.253	0.0159398
756.331	0.0159958
756.409	0.0158022
756.487	0.0160134
756.565	0.0159647
756.643	0.0157241
756.721	0.0157036
756.799	0.0155717
756.878	0.0153630
756.956	0.0154721
757.034	0.0154011
757.112	0.0152155
757.190	0.0150483
757.268	0.0147881
757.346	0.0145998
757.424	0.0145745
757.503	0.0142948
757.581	0.0141152
757.659	0.0137189
757.737	0.0132914
757.815	0.0131236
757.893	0.0128654
757.971	0.0126835
758.049	0.0126221
758.128	0.0126187
758.206	0.0126408
758.284	0.0126492
758.362	0.0128980
758.440	0.0132758
758.518	0.0137884
758.596	0.0142160
758.674	0.0145512
758.753	0.0151625
758.831	0.0156575
758.909	0.0161054
758.987	0.0166000
759.065	0.0169919
759.143	0.0172896
759.221	0.0176867
759.299	0.0180645
759.378	0.0181726
759.456	0.0181159
759.534	0.0181933
759.612	0.0180277
759.690	0.0177844
759.768	0.0175056
759.846	0.0171812
759.924	0.0167872
760.003	0.0162926
760.081	0.0159083
760.159	0.0155284
760.237	0.0152792
760.315	0.0149393
760.393	0.0148753
760.471	0.0148158
760.549	0.0147689
760.628	0.0146377
760.706	0.0147274
760.784	0.0145518
760.862	0.0148312
760.940	0.0146973
761.018	0.0148798
761.096	0.0148077
761.174	0.0148972
761.253	0.0150504
761.331	0.0149902
761.409	0.0151104
761.487	0.0149790
761.565	0.0150114
761.643	0.0151730
761.721	0.0150954
761.799	0.0152501
761.878	0.0152925
761.956	0.0153683
762.034	0.0154240
762.112	0.0154073
762.190	0.0153554
762.268	0.0154303
762.346	0.0154570
762.424	0.0154736
762.503	0.0153783
762.581	0.0154122
762.659	0.0152729
762.737	0.0153349
762.815	0.0153112
762.893	0.0151304
762.971	0.0151779
763.049	0.0151733
763.128	0.0150963
763.206	0.0148595
763.284	0.0148976
763.362	0.0146053
763.440	0.0144898
763.518	0.0143645
763.596	0.0140347
763.674	0.0137756
763.753	0.0136814
763.831	0.0132812
763.909	0.0130666
763.987	0.0130912
764.065	0.0131335
764.143	0.0131661
764.221	0.0134197
764.299	0.0136407
764.378	0.0139981
764.456	0.0144270
764.534	0.0147823
764.612	0.0151486
764.690	0.0155293
764.768	0.0160600
764.846	0.0163680
764.924	0.0169116
765.003	0.0171523
765.081	0.0173623
765.159	0.0174705
765.237	0.0176185
765.315	0.0177400
765.393	0.0175897
765.471	0.0175145
765.549	0.0173815
765.628	0.0171911
765.706	0.0169020
765.784	0.0167163
765.862	0.0164194
765.940	0.0159800
766.018	0.0157173
766.096	0.0157076
766.174	0.0155110
766.253	0.0152637
766.331	0.0150488
766.409	0.0149694
766.487	0.0148454
766.565	0.0148434
766.643	0.0149194
766.721	0.0148031
766.799	0.0147594
766.878	0.0147073
766.956	0.0146500
767.034	0.0144498
767.112	0.0144234
767.190	0.0143510
767.268	0.0143658
767.346	0.0144981
767.424	0.0144303
767.503	0.0144211
767.581	0.0148051
767.659	0.0149562
767.737	0.0149219
767.815	0.0152592
767.893	0.0153311
767.971	0.0156029
768.049	0.0158279
768.128	0.0159132
768.206	0.0159875
768.284	0.0160836
768.362	0.0161221
768.440	0.0160969
768.518	0.0158930
768.596	0.0158527
768.674	0.0158826
768.753	0.0157612
768.831	0.0155618
768.909	0.0155879
768.987	0.0153460
769.065	0.0150470
769.143	0.0149061
769.221	0.0147054
769.299	0.0146247
769.378	0.0143480
769.456	0.0140212
769.534	0.0139653
769.612	0.0136559
769.690	0.0133904
769.768	0.0131705
769.846	0.0131036
769.924	0.0131924
770.003	0.0133051
770.081	0.0133552
770.159	0.0135644
770.237	0.0137742
770.315	0.0141589
770.393	0.0144352
770.471	0.0147468
770.549	0.0151218
770.628	0.0154236
770.706	0.0157773
770.784	0.0160580
770.862	0.0162803
770.940	0.0165639
771.018	0.0167537
771.096	0.0169258
771.174	0.0171029
771.253	0.0170471
771.331	0.0170848
771.409	0.0172322
771.487	0.0170438
771.565	0.0168981
771.643	0.0168614
771.721	0.0166352
771.799	0.0162820
771.878	0.0162035
771.956	0.0158960
772.034	0.0158253
772.112	0.0156373
772.190	0.0156155
772.268	0.0155431
772.346	0.0152242
772.424	0.0152344
772.503	0.0151215
772.581	0.0148694
772.659	0.0147762
772.737	0.0147306
772.815	0.0145286
772.893	0.0146143
772.971	0.0144598
773.049	0.0142828
773.128	0.0143420
773.206	0.0145495
773.284	0.0145228
773.362	0.0145912
773.440	0.0148011
773.518	0.0149102
773.596	0.0152289
773.674	0.0153120
773.753	0.0152940
773.831	0.0152636
773.909	0.0156415
773.987	0.0156401
774.065	0.0156113
774.143	0.0157249
774.221	0.0155581
774.299	0.0156273
774.378	0.0153924
774.456	0.0154432
774.534	0.0154482
774.612	0.0152742
774.690	0.0150716
774.768	0.0150069
774.846	0.0149449
774.924	0.0149589
775.003	0.0150393
775.081	0.0149680
775.159	0.0150711
775.237	0.0150081
775.315	0.0148875
775.393	0.0148047
775.471	0.0144820
775.549	0.0144317
775.628	0.0144466
775.706	0.0141598
775.784	0.0139770
775.862	0.0140034
775.940	0.0140789
776.018	0.0139825
776.096	0.0141663
776.174	0.0142882
776.253	0.0145079
776.331	0.0145969
776.409	0.0148633
776.487	0.0151485
776.565	0.0154202
776.643	0.0154545
776.721	0.0157967
776.799	0.0161658
776.878	0.0162882
776.956	0.0162761
777.034	0.0163559
777.112	0.0165186
777.190	0.0165656
777.268	0.0165755
777.346	0.0165968
777.424	0.0164709
777.503	0.0163401
777.581	0.0160474
777.659	0.0159081
777.737	0.0157478
777.815	0.0156488
777.893	0.0155941
777.971	0.0152847
778.049	0.0152743
778.128	0.0150668
778.206	0.0151242
778.284	0.0150194
778.362	0.0148322
778.440	0.0147765
778.518	0.0149190
778.596	0.0148763
778.674	0.0148438
778.753	0.0148787
778.831	0.0149056
778.909	0.0149004
778.987	0.0150854
779.065	0.0151424
779.143	0.0153033
779.221	0.0152792
779.299	0.0155003
779.378	0.0155753
779.456	0.0156061
779.534	0.0155228
779.612	0.0157690
779.690	0.0156781
779.768	0.0156657
779.846	0.0156882
779.924	0.0157087
780.003	0.0155318
780.081	0.0152826
780.159	0.0153664
780.237	0.0153217
780.315	0.0150038
780.393	0.0149879
780.471	0.0148222
780.549	0.0148458
780.628	0.0145522
780.706	0.0145714
780.784	0.0147235
780.862	0.0145853
780.940	0.0145901
781.018	0.0147517
781.096	0.0149309
781.174	0.0148147
781.253	0.0149308
781.331	0.0146960
781.409	0.0148818
781.487	0.0147443
781.565	0.0147034
781.643	0.0146511
781.721	0.0143421
781.799	0.0144393
781.878	0.0143465
781.956	0.0143131
782.034	0.0143173
782.112	0.0145972
782.190	0.0146066
782.268	0.0147100
782.346	0.0148566
782.424	0.0149629
782.503	0.0151953
782.581	0.0155006
782.659	0.0156157
782.737	0.0158255
782.815	0.0159293
782.893	0.0160743
782.971	0.0164072
783.049	0.0164812
783.128	0.0164899
783.206	0.0166194
783.284	0.0164400
783.362	0.0163763
783.440	0.0163681
783.518	0.0162222
783.596	0.0161757
783.674	0.0158308
783.753	0.0157782
783.831	0.0157853
783.909	0.0155130
783.987	0.0153697
784.065	0.0152284
784.143	0.0151741
784.221	0.0150507
784.299	0.0150772
784.378	0.0148444
784.456	0.0148758
784.534	0.0148200
784.612	0.0146287
784.690	0.0145590
784.768	0.0145855
784.846	0.0145919
784.924	0.0146242
785.003	0.0146852
785.081	0.0147531
785.159	0.0147834
785.237	0.0149641
785.315	0.0151298
785.393	0.0151440
785.471	0.0154156
785.549	0.0154861
785.628	0.0155107
785.706	0.0156007
785.784	0.0155253
785.862	0.0157239
785.940	0.0157148
786.018	0.0156111
786.096	0.0155656
786.174	0.0154527
786.253	0.0154179
786.331	0.0154607
786.409	0.0153656
786.487	0.0153816
786.565	0.0153043
786.643	0.0152335
786.721	0.0152828
786.799	0.0152372
786.878	0.0152180
786.956	0.0151598
787.034	0.0151211
787.112	0.0151454
787.190	0.0151103
787.268	0.0151560
787.346	0.0150586
787.424	0.0150296
787.503	0.0149260
787.581	0.0149566
787.659	0.0148153
787.737	0.0147121
787.815	0.0145804
787.893	0.0146491
787.971	0.0144696
788.049	0.0144514
788.128	0.0143935
788.206	0.0144136
788.284	0.0145122
788.362	0.0146509
788.440	0.0145168
788.518	0.0147569
788.596	0.0150189
788.674	0.0151656
788.753	0.0154620
788.831	0.0154521
788.909	0.0156399
788.987	0.0157350
789.065	0.0157984
789.143	0.0159653
789.221	0.0161166
789.299	0.0161859
789.378	0.0162230
789.456	0.0162874
789.534	0.0161889
789.612	0.0160526
789.690	0.0160239
789.768	0.0160334
789.846	0.0158252
789.924	0.0156810
790.003	0.0154871
790.081	0.0153546
790.159	0.0154290
790.237	0.0151588
790.315	0.0151548
790.393	0.0151565
790.471	0.0150311
790.549	0.0149116
790.628	0.0148479
790.706	0.0148494
790.784	0.0148229
790.862	0.0147182
790.940	0.0148223
791.018	0.0148592
791.096	0.0150117
791.174	0.0151354
791.253	0.0151871
791.331	0.0151575
791.409	0.0153261
791.487	0.0155026
791.565	0.0155519
791.643	0.0155351
791.721	0.0155058
791.799	0.0155767
791.878	0.0154306
791.956	0.0154665
792.034	0.0155336
792.112	0.0155642
792.190	0.0155061
792.268	0.0155327
792.346	0.0154291
792.424	0.0153601
792.503	0.0153122
792.581	0.0152209
792.659	0.0150961
792.737	0.0150747
792.815	0.0150423
792.893	0.0151225
792.971	0.0151585
793.049	0.0150857
793.128	0.0151367
793.206	0.0151349
793.284	0.0148971
793.362	0.0148746
793.440	0.0150146
793.518	0.0148592
793.596	0.0146889
793.674	0.0146412
793.753	0.0147754
793.831	0.0146626
793.909	0.0144391
793.987	0.0145412
794.065	0.0144176
794.143	0.0145309
794.221	0.0145805
794.299	0.0144642
794.378	0.0146332
794.456	0.0147010
794.534	0.0147176
794.612	0.0149003
794.690	0.0149084
794.768	0.0151777
794.846	0.0153269
794.924	0.0154254
795.003	0.0156084
795.081	0.0157056
795.159	0.0158369
795.237	0.0160867
795.315	0.0159991
795.393	0.0160415
795.471	0.0160941
795.549	0.0161858
795.628	0.0160991
795.706	0.0161189
795.784	0.0161407
795.862	0.0159528
795.940	0.0157805
796.018	0.0157658
796.096	0.0157156
796.174	0.0155352
796.253	0.0155112
796.331	0.0152148
796.409	0.0152457
796.487	0.0151878
796.565	0.0151759
796.643	0.0149289
796.721	0.0147654
796.799	0.0148158
796.878	0.0149013
796.956	0.0146981
797.034	0.0147556
797.112	0.0148883
797.190	0.0150159
797.268	0.0150246
797.346	0.0149448
797.424	0.0151371
797.503	0.0151244
797.581	0.0152262
797.659	0.0151596
797.737	0.0152396
797.815	0.0151897
797.893	0.0152156
797.971	0.0152262
798.049	0.0151598
798.128	0.0152573
798.206	0.0151567
798.284	0.0151001
798.362	0.0150940
798.440	0.0152287
798.518	0.0151908
798.596	0.0150875
798.674	0.0151300
798.753	0.0151874
798.831	0.0151867
798.909	0.0152408
798.987	0.0153636
799.065	0.0153189
799.143	0.0154346
799.221	0.0153869
799.299	0.0153410
799.378	0.0153973
799.456	0.0154615
799.534	0.0152965
799.612	0.0153581
799.690	0.0152673
799.768	0.0151408
799.846	0.0153011
799.924	0.0151395
800.003	0.0151311
800.081	0.0149372
800.159	0.0150250
800.237	0.0150518
800.315	0.0148732
800.393	0.0149371
800.471	0.0147691
800.549	0.0147329
800.628	0.0146748
800.706	0.0146680
800.784	0.0146063
800.862	0.0146920
800.940	0.0148091
801.018	0.0147318
801.096	0.0148226
801.174	0.0149458
801.253	0.0151784
801.331	0.0152682
801.409	0.0153830
801.487	0.0154147
801.565	0.0155099
801.643	0.0157222
801.721	0.0158468
801.799	0.0158843
801.878	0.0160379
801.956	0.0159290
802.034	0.0158743
802.112	0.0159171
802.190	0.0157382
802.268	0.0155579
802.346	0.0155435
802.424	0.0154942
802.503	0.0153172
802.581	0.0152340
802.659	0.0150929
802.737	0.0148845
802.815	0.0149498
802.893	0.0150235
802.971	0.0149640
803.049	0.0150725
803.128	0.0152357
803.206	0.0150801
803.284	0.0151042
803.362	0.0151427
803.440	0.0153218
803.518	0.0154344
803.596	0.0153427
803.674	0.0153129
803.753	0.0153181
803.831	0.0154221
803.909	0.0154708
803.987	0.0153304
804.065	0.0154685
804.143	0.0154099
804.221	0.0152629
804.299	0.0152676
804.378	0.0150918
804.456	0.0150426
804.534	0.0149813
804.612	0.0150092
804.690	0.0149590
804.768	0.0149675
804.846	0.0147440
804.924	0.0149443
805.003	0.0150233
805.081	0.0150356
805.159	0.0149757
805.237	0.0151756
805.315	0.0150715
805.393	0.0150751
805.471	0.0152135
805.549	0.0152492
805.628	0.0152537
805.706	0.0152538
805.784	0.0153036
805.862	0.0153423
805.940	0.0152487
806.018	0.0150572
806.096	0.0152586
806.174	0.0152324
806.253	0.0150443
806.331	0.0151163
806.409	0.0151721
806.487	0.0150143
806.565	0.0150867
806.643	0.0149866
806.721	0.0150101
806.799	0.0148934
806.878	0.0150489
806.956	0.0150185
807.034	0.0150168
807.112	0.0151347
807.190	0.0151558
807.268	0.0152003
807.346	0.0152967
807.424	0.0154033
807.503	0.0155178
807.581	0.0155588
807.659	0.0155506
807.737	0.0157993
807.815	0.0158604
807.893	0.0158584
807.971	0.0156482
808.049	0.0157516
808.128	0.0157450
808.206	0.0157550
808.284	0.0154651
808.362	0.0154912
808.440	0.0154826
808.518	0.0155265
808.596	0.0152953
808.674	0.0152062
808.753	0.0152008
808.831	0.0150295
808.909	0.0148954
808.987	0.0149994
809.065	0.0149617
809.143	0.0149569
809.221	0.0150812
809.299	0.0149853
809.378	0.0150359
809.456	0.0151183
809.534	0.0151230
809.612	0.0151223
809.690	0.0151118
809.768	0.0150520
809.846	0.0150349
809.924	0.0152099
810.003	0.0150938
810.081	0.0151737
810.159	0.0150524
810.237	0.0151268
810.315	0.0152017
810.393	0.0152924
810.471	0.0152130
810.549	0.0151917
810.628	0.0151324
810.706	0.0151801
810.784	0.0153338
810.862	0.0154031
810.940	0.0153423
811.018	0.0153185
811.096	0.0152801
811.174	0.0152242
811.253	0.0152563
811.331	0.0153678
811.409	0.0153861
811.487	0.0153358
811.565	0.0152724
811.643	0.0154072
811.721	0.0152456
811.799	0.0152433
811.878	0.0152541
811.956	0.0152519
812.034	0.0153151
812.112	0.0151461
812.190	0.0150162
812.268	0.0150259
812.346	0.0151399
812.424	0.0150999
812.503	0.0150072
812.581	0.0150275
812.659	0.0148994
812.737	0.0149142
812.815	0.0149249
812.893	0.0150739
812.971	0.0149809
813.049	0.0149139
813.128	0.0150255
813.206	0.0151744
813.284	0.0151122
813.362	0.0150378
813.440	0.0152946
813.518	0.0153563
813.596	0.0153654
813.674	0.0153962
813.753	0.0155467
813.831	0.0154033
813.909	0.0155293
813.987	0.0155366
814.065	0.0154838
814.143	0.0154430
814.221	0.0152779
814.299	0.0155424
814.378	0.0155272
814.456	0.0153081
814.534	0.0154221
814.612	0.0153129
814.690	0.0153194
814.768	0.0153687
814.846	0.0153427
814.924	0.0154079
815.003	0.0154144
815.081	0.0153658
815.159	0.0154790
815.237	0.0155678
815.315	0.0154696
815.393	0.0156404
815.471	0.0154515
815.549	0.0154340
815.628	0.0153255
815.706	0.0152711
815.784	0.0153827
815.862	0.0150581
815.940	0.0150533
816.018	0.0150829
816.096	0.0149193
816.174	0.0148553
816.253	0.0149400
816.331	0.0149316
816.409	0.0149284
816.487	0.0149342
816.565	0.0149163
816.643	0.0148730
816.721	0.0149139
816.799	0.0149587
816.878	0.0151096
816.956	0.0152080
817.034	0.0152327
817.112	0.0153044
817.190	0.0152732
817.268	0.0153969
817.346	0.0153528
817.424	0.0154556
817.503	0.0155276
817.581	0.0155693
817.659	0.0153826
817.737	0.0154455
817.815	0.0153664
817.893	0.0154465
817.971	0.0153941
818.049	0.0153593
818.128	0.0153537
818.206	0.0151624
818.284	0.0151718
818.362	0.0153056
818.440	0.0150185
818.518	0.0150483
818.596	0.0152476
818.674	0.0151709
818.753	0.0150026
818.831	0.0150511
818.909	0.0151926
818.987	0.0152512
819.065	0.0151644
819.143	0.0151696
819.221	0.0151122
819.299	0.0152366
819.378	0.0152279
819.456	0.0151711
819.534	0.0152780
819.612	0.0152395
819.690	0.0152556
819.768	0.0152718
819.846	0.0152236
819.924	0.0152856
820.003	0.0153555
820.081	0.0150829
820.159	0.0152386
820.237	0.0151877
820.315	0.0151838
820.393	0.0149667
820.471	0.0151518
820.549	0.0151048
820.628	0.0151851
820.706	0.0150675
820.784	0.0151149
820.862	0.0150423
820.940	0.0151274
821.018	0.0152699
821.096	0.0152065
821.174	0.0152684
821.253	0.0152437
821.331	0.0153230
821.409	0.0152228
821.487	0.0153804
821.565	0.0152953
821.643	0.0152585
821.721	0.0153039
821.799	0.0153683
821.878	0.0152119
821.956	0.0153418
822.034	0.0154733
822.112	0.0155122
822.190	0.0153399
822.268	0.0151222
822.346	0.0152993
822.424	0.0152595
822.503	0.0152833
822.581	0.0152125
822.659	0.0152320
822.737	0.0153044
822.815	0.0154376
822.893	0.0152911
822.971	0.0151743
823.049	0.0153810
823.128	0.0154775
823.206	0.0154311
823.284	0.0153260
823.362	0.0153737
823.440	0.0154282
823.518	0.0154929
823.596	0.0154131
823.674	0.0154282
823.753	0.0152655
823.831	0.0153069
823.909	0.0153049
823.987	0.0153673
824.065	0.0152207
824.143	0.0152936
824.221	0.0152295
824.299	0.0151462
824.378	0.0150668
824.456	0.0151414
824.534	0.0149614
824.612	0.0149439
824.690	0.0149346
824.768	0.0150063
824.846	0.0148833
824.924	0.0149623
825.003	0.0148038
825.081	0.0147912
825.159	0.0147221
825.237	0.0149624
825.315	0.0150041
825.393	0.0149361
825.471	0.0151328
825.549	0.0150568
825.628	0.0150057
825.706	0.0150341
825.784	0.0151743
825.862	0.0151807
825.940	0.0152424
826.018	0.0152567
826.096	0.0151700
826.174	0.0152095
826.253	0.0153583
826.331	0.0153875
826.409	0.0153471
826.487	0.0155201
826.565	0.0156749
826.643	0.0155533
826.721	0.0156657
826.799	0.0155712
826.878	0.0156141
826.956	0.0155976
827.034	0.0156853
827.112	0.0157024
827.190	0.0156122
827.268	0.0156576
827.346	0.0157546
827.424	0.0155518
827.503	0.0156236
827.581	0.0156581
827.659	0.0154983
827.737	0.0153484
827.815	0.0154755
827.893	0.0152480
827.971	0.0151453
828.049	0.0152030
828.128	0.0152777
828.206	0.0151696
828.284	0.0150216
828.362	0.0149939
828.440	0.0148289
828.518	0.0148279
828.596	0.0149245
828.674	0.0150132
828.753	0.0149828
828.831	0.0147477
828.909	0.0147226
828.987	0.0149348
829.065	0.0148721
829.143	0.0149100
829.221	0.0149788
829.299	0.0150529
829.378	0.0149895
829.456	0.0151012
829.534	0.0150375
829.612	0.0151297
829.690	0.0153453
829.768	0.0151626
829.846	0.0152946
829.924	0.0152249
830.003	0.0154385
830.081	0.0153712
830.159	0.0153661
830.237	0.0153332
830.315	0.0154630
830.393	0.0154450
830.471	0.0156675
830.549	0.0155364
830.628	0.0156321
830.706	0.0155224
830.784	0.0155443
830.862	0.0153542
830.940	0.0153986
831.018	0.0153596
831.096	0.0153192
831.174	0.0153264
831.253	0.0153801
831.331	0.0151617
831.409	0.0151667
831.487	0.0151024
831.565	0.0151559
831.643	0.0151348
831.721	0.0151735
831.799	0.0151489
831.878	0.0149200
831.956	0.0150387
832.034	0.0150996
832.112	0.0149957
832.190	0.0149924
832.268	0.0150555
832.346	0.0150340
832.424	0.0150002
832.503	0.0150731
832.581	0.0150517
832.659	0.0150526
832.737	0.0150105
832.815	0.0150047
832.893	0.0150456
832.971	0.0150526
833.049	0.0149776
833.128	0.0150015
833.206	0.0151534
833.284	0.0150571
833.362	0.0150174
833.440	0.0150720
833.518	0.0151920
833.596	0.0152157
833.674	0.0152316
833.753	0.0152971
833.831	0.0153820
833.909	0.0153908
833.987	0.0155093
834.065	0.0155988
834.143	0.0154230
834.221	0.0155104
834.299	0.0156543
834.378	0.0157051
834.456	0.0156021
834.534	0.0156713
834.612	0.0157630
834.690	0.0157640
834.768	0.0155641
834.846	0.0156200
834.924	0.0154427
835.003	0.0154759
835.081	0.0154394
835.159	0.0154909
835.237	0.0153742
835.315	0.0153490
835.393	0.0153393
835.471	0.0152778
835.549	0.0153109
835.628	0.0151234
835.706	0.0151270
835.784	0.0152373
835.862	0.0151775
835.940	0.0150522
836.018	0.0152655
836.096	0.0151286
836.174	0.0150065
836.253	0.0150951
836.331	0.0150356
836.409	0.0150407
836.487	0.0149180
836.565	0.0148045
836.643	0.0147909
836.721	0.0147647
836.799	0.0147293
836.878	0.0148546
836.956	0.0148496
837.034	0.0148134
837.112	0.0147082
837.190	0.0148603
837.268	0.0148751
837.346	0.0148721
837.424	0.0149646
837.503	0.0149804
837.581	0.0150148
837.659	0.0151135
837.737	0.0150613
837.815	0.0151208
837.893	0.0152988
837.971	0.0151428
838.049	0.0152158
838.128	0.0153158
838.206	0.0153698
838.284	0.0153596
838.362	0.0153505
838.440	0.0155769
838.518	0.0154616
838.596	0.0155554
838.674	0.0155514
838.753	0.0154264
838.831	0.0155566
838.909	0.0155612
838.987	0.0155342
839.065	0.0157174
839.143	0.0156822
839.221	0.0155775
839.299	0.0155194
839.378	0.0156317
839.456	0.0155756
839.534	0.0155025
839.612	0.0155090
839.690	0.0155713
839.768	0.0156002
839.846	0.0154431
839.924	0.0155087
840.003	0.0154739
840.081	0.0154295
840.159	0.0153376
840.237	0.0155131
840.315	0.0154913
840.393	0.0154409
840.471	0.0154674
840.549	0.0154104
840.628	0.0153138
840.706	0.0153985
840.784	0.0152724
840.862	0.0152963
840.940	0.0151317
841.018	0.0152305
841.096	0.0152172
841.174	0.0150681
841.253	0.0149900
841.331	0.0150239
841.409	0.0150792
841.487	0.0150625
841.565	0.0149637
841.643	0.0148092
841.721	0.0148480
841.799	0.0150000
841.878	0.0148715
841.956	0.0149041
842.034	0.0149258
842.112	0.0149406
842.190	0.0148174
842.268	0.0149216
842.346	0.0149252
842.424	0.0148299
842.503	0.0149627
842.581	0.0147993
842.659	0.0149960
842.737	0.0150171
842.815	0.0149537
842.893	0.0150705
842.971	0.0149737
843.049	0.0149553
843.128	0.0150044
843.206	0.0151592
843.284	0.0151296
843.362	0.0151324
843.440	0.0152647
843.518	0.0153136
843.596	0.0152960
843.674	0.0153967
843.753	0.0154554
843.831	0.0153851
843.909	0.0154548
843.987	0.0155640
844.065	0.0154509
844.143	0.0156106
844.221	0.0156794
844.299	0.0155581
844.378	0.0156164
844.456	0.0155957
844.534	0.0157095
844.612	0.0156414
844.690	0.0156138
844.768	0.0156652
844.846	0.0155432
844.924	0.0154851
845.003	0.0153588
845.081	0.0153443
845.159	0.0152781
845.237	0.0154179
845.315	0.0152806
845.393	0.0152159
845.471	0.0149993
845.549	0.0151131
845.628	0.0151093
845.706	0.0150371
845.784	0.0150198
845.862	0.0149886
845.940	0.0150643
846.018	0.0151263
846.096	0.0149805
846.174	0.0150947
846.253	0.0150872
846.331	0.0150713
846.409	0.0150590
846.487	0.0151508
846.565	0.0153524
846.643	0.0153249
846.721	0.0152211
846.799	0.0153294
846.878	0.0152577
846.956	0.0153829
847.034	0.0153661
847.112	0.0152924
847.190	0.0152225
847.268	0.0152498
847.346	0.0153432
847.424	0.0152051
847.503	0.0151479
847.581	0.0151004
847.659	0.0150989
847.737	0.0150698
847.815	0.0149824
847.893	0.0150745
847.971	0.0150664
848.049	0.0150070
848.128	0.0149957
848.206	0.0150230
848.284	0.0150370
848.362	0.0151152
848.440	0.0148907
848.518	0.0148934
848.596	0.0150182
848.674	0.0149309
848.753	0.0149402
848.831	0.0149904
848.909	0.0149583
848.987	0.0150822
849.065	0.0150336
849.143	0.0150601
849.221	0.0152271
849.299	0.0152048
849.378	0.0151028
849.456	0.0153679
849.534	0.0154778
849.612	0.0153649
849.690	0.0154908
849.768	0.0154637
849.846	0.0155694
849.924	0.0153764
850.003	0.0154733
850.081	0.0155389
850.159	0.0154102
850.237	0.0153931
850.315	0.0156306
850.393	0.0155999
850.471	0.0154973
850.549	0.0154019
850.628	0.0153770
850.706	0.0153913
850.784	0.0155143
850.862	0.0154188
850.940	0.0154529
851.018	0.0152262
851.096	0.0153669
851.174	0.0154655
851.253	0.0153336
851.331	0.0153108
851.409	0.0152901
851.487	0.0152968
851.565	0.0152302
851.643	0.0151208
851.721	0.0152814
851.799	0.0151975
851.878	0.0151421
851.956	0.0152271
852.034	0.0150339
852.112	0.0150472
852.190	0.0152060
852.268	0.0151312
852.346	0.0151983
852.424	0.0152972
852.503	0.0150799
852.581	0.0150086
852.659	0.0152277
852.737	0.0151261
852.815	0.0151345
852.893	0.0152811
852.971	0.0151579
853.049	0.0153297
853.128	0.0152781
853.206	0.0152449
853.284	0.0152412
853.362	0.0153317
853.440	0.0153571
853.518	0.0153683
853.596	0.0152511
853.674	0.0151974
853.753	0.0151743
853.831	0.0150359
853.909	0.0151927
853.987	0.0152749
854.065	0.0151067
854.143	0.0151560
854.221	0.0151014
854.299	0.0151856
854.378	0.0150468
854.456	0.0150173
854.534	0.0150780
854.612	0.0151867
854.690	0.0152585
854.768	0.0152573
854.846	0.0150699
854.924	0.0151519
855.003	0.0152443
855.081	0.0151405
855.159	0.0153286
855.237	0.0150806
855.315	0.0152242
855.393	0.0152570
855.471	0.0152020
855.549	0.0153276
855.628	0.0153117
855.706	0.0153287
855.784	0.0153927
855.862	0.0154068
855.940	0.0154303
856.018	0.0154496
856.096	0.0154318
856.174	0.0154835
856.253	0.0155020
856.331	0.0154748
856.409	0.0154717
856.487	0.0156349
856.565	0.0154973
856.643	0.0154608
856.721	0.0154905
856.799	0.0156015
856.878	0.0155678
856.956	0.0154485
857.034	0.0154625
857.112	0.0153125
857.190	0.0154274
857.268	0.0154256
857.346	0.0153556
857.424	0.0153152
857.503	0.0153452
857.581	0.0151917
857.659	0.0151221
857.737	0.0150723
857.815	0.0150618
857.893	0.0151218
857.971	0.0150592
858.049	0.0149715
858.128	0.0150842
858.206	0.0150925
858.284	0.0150593
858.362	0.0150085
858.440	0.0150450
858.518	0.0150587
858.596	0.0149680
858.674	0.0151840
858.753	0.0151408
858.831	0.0150158
858.909	0.0151416
858.987	0.0150358
859.065	0.0151413
859.143	0.0151263
859.221	0.0150694
859.299	0.0151852
859.378	0.0150475
859.456	0.0149287
859.534	0.0149306
859.612	0.0149192
859.690	0.0149450
859.768	0.0150446
859.846	0.0149377
859.924	0.0149898
860.003	0.0149738
860.081	0.0149873
860.159	0.0150733
860.237	0.0151540
860.315	0.0151255
860.393	0.0150090
860.471	0.0150967
860.549	0.0152194
860.628	0.0152655
860.706	0.0152087
860.784	0.0152821
860.862	0.0153159
860.940	0.0154207
861.018	0.0152782
861.096	0.0152042
861.174	0.0153734
861.253	0.0154541
861.331	0.0154236
861.409	0.0155173
861.487	0.0154776
861.565	0.0155900
861.643	0.0155591
861.721	0.0154905
861.799	0.0155145
861.878	0.0155406
861.956	0.0155978
862.034	0.0156156
862.112	0.0155137
862.190	0.0155173
862.268	0.0153802
862.346	0.0156171
862.424	0.0156393
862.503	0.0154176
862.581	0.0155756
862.659	0.0155354
862.737	0.0153469
862.815	0.0153912
862.893	0.0153288
862.971	0.0153294
863.049	0.0153493
863.128	0.0154011
863.206	0.0152922
863.284	0.0151322
863.362	0.0152464
863.440	0.0152483
863.518	0.0150813
863.596	0.0151842
863.674	0.0149918
863.753	0.0149696
863.831	0.0151252
863.909	0.0150780
863.987	0.0150551
864.065	0.0149443
864.143	0.0150557
864.221	0.0149409
864.299	0.0150440
864.378	0.0150736
864.456	0.0150193
864.534	0.0151122
864.612	0.0148254
864.690	0.0149245
864.768	0.0150500
864.846	0.0149457
864.924	0.0151472
865.003	0.0150736
865.081	0.0149669
865.159	0.0149824
865.237	0.0150333
865.315	0.0151729
865.393	0.0151604
865.471	0.0150439
865.549	0.0152742
865.628	0.0151097
865.706	0.0151705
865.784	0.0152191
865.862	0.0150986
865.940	0.0151402
866.018	0.0151028
866.096	0.0150795
866.174	0.0152705
866.253	0.0151093
866.331	0.0150337
866.409	0.0151648
866.487	0.0151066
866.565	0.0151501
866.643	0.0151826
866.721	0.0152205
866.799	0.0151049
866.878	0.0151541
866.956	0.0152073
867.034	0.0152510
867.112	0.0151810
867.190	0.0154079
867.268	0.0153917
867.346	0.0154177
867.424	0.0156163
867.503	0.0155407
867.581	0.0154963
867.659	0.0156200
867.737	0.0154742
867.815	0.0155051
867.893	0.0156798
867.971	0.0156097
868.049	0.0155980
868.128	0.0155501
868.206	0.0154877
868.284	0.0155052
868.362	0.0154511
868.440	0.0154194
868.518	0.0154222
868.596	0.0155063
868.674	0.0153313
868.753	0.0152293
868.831	0.0153914
868.909	0.0154425
868.987	0.0152181
869.065	0.0152127
869.143	0.0152357
869.221	0.0152682
869.299	0.0150031
869.378	0.0151197
869.456	0.0151526
869.534	0.0152789
869.612	0.0152028
869.690	0.0148987
869.768	0.0150806
869.846	0.0150412
869.924	0.0150659
870.003	0.0151222
870.081	0.0151143
870.159	0.0151080
870.237	0.0151262
870.315	0.0152015
870.393	0.0150726
870.471	0.0151829
870.549	0.0150848
870.628	0.0150336
870.706	0.0150759
870.784	0.0152161
870.862	0.0152006
870.940	0.0150835
871.018	0.0151740
871.096	0.0150937
871.174	0.0151224
871.253	0.0151528
871.331	0.0152613
871.409	0.0151723
871.487	0.0153797
871.565	0.0150430
871.643	0.0149789
871.721	0.0151752
871.799	0.0151389
871.878	0.0152100
871.956	0.0150650
872.034	0.0150759
872.112	0.0151604
872.190	0.0151793
872.268	0.0150994
872.346	0.0150887
872.424	0.0150677
872.503	0.0150502
872.581	0.0151840
872.659	0.0151778
872.737	0.0150738
872.815	0.0149975
872.893	0.0150189
872.971	0.0152910
873.049	0.0152037
873.128	0.0152287
873.206	0.0151992
873.284	0.0152257
873.362	0.0153173
873.440	0.0152737
873.518	0.0153097
873.596	0.0153383
873.674	0.0152875
873.753	0.0155206
873.831	0.0154030
873.909	0.0154819
873.987	0.0155644
874.065	0.0154596
874.143	0.0155188
874.221	0.0154408
874.299	0.0154507
874.378	0.0154972
874.456	0.0155112
874.534	0.0155315
874.612	0.0153844
874.690	0.0154355
874.768	0.0154247
874.846	0.0153487
874.924	0.0153355
875.003	0.0153226
875.081	0.0153735
875.159	0.0153188
875.237	0.0152564
875.315	0.0151792
875.393	0.0151571
875.471	0.0152264
875.549	0.0150817
875.628	0.0151491
875.706	0.0152013
875.784	0.0151637
875.862	0.0151806
875.940	0.0151038
876.018	0.0150594
876.096	0.0151163
876.174	0.0152647
876.253	0.0151865
876.331	0.0151823
876.409	0.0152177
876.487	0.0152171
876.565	0.0152911
876.643	0.0152344
876.721	0.0151346
876.799	0.0153104
876.878	0.0152481
876.956	0.0151235
877.034	0.0151635
877.112	0.0151106
877.190	0.0152304
877.268	0.0151072
877.346	0.0150502
877.424	0.0152161
877.503	0.0151232
877.581	0.0150967
877.659	0.0151012
877.737	0.0150976
877.815	0.0151350
877.893	0.0152190
877.971	0.0151550
878.049	0.0150744
878.128	0.0152616
878.206	0.0152129
878.284	0.0151299
878.362	0.0150608
878.440	0.0151250
878.518	0.0151564
878.596	0.0150770
878.674	0.0151203
878.753	0.0152693
878.831	0.0150301
878.909	0.0152573
878.987	0.0151695
879.065	0.0152789
879.143	0.0151434
879.221	0.0153445
879.299	0.0152988
879.378	0.0151915
879.456	0.0151727
879.534	0.0152530
879.612	0.0153019
879.690	0.0154322
879.768	0.0153030
879.846	0.0153422
879.924	0.0154626
880.003	0.0154958
880.081	0.0155312
880.159	0.0155803
880.237	0.0154951
880.315	0.0152980
880.393	0.0153603
880.471	0.0153981
880.549	0.0154128
880.628	0.0152909
880.706	0.0154195
880.784	0.0153452
880.862	0.0152892
880.940	0.0153695
881.018	0.0154124
881.096	0.0151469
881.174	0.0152553
881.253	0.0154504
881.331	0.0152559
881.409	0.0152311
881.487	0.0151552
881.565	0.0151041
881.643	0.0152441
881.721	0.0152560
881.799	0.0151636
881.878	0.0152345
881.956	0.0152718
882.034	0.0151776
882.112	0.0152511
882.190	0.0152430
882.268	0.0152564
882.346	0.0152219
882.424	0.0151640
882.503	0.0151416
882.581	0.0151063
882.659	0.0151343
882.737	0.0152071
882.815	0.0150437
882.893	0.0150506
882.971	0.0150455
883.049	0.0152327
883.128	0.0152098
883.206	0.0152371
883.284	0.0151015
883.362	0.0150766
883.440	0.0151858
883.518	0.0151745
883.596	0.0152726
883.674	0.0151611
883.753	0.0152377
883.831	0.0152258
883.909	0.0152737
883.987	0.0153468
884.065	0.0152005
884.143	0.0152142
884.221	0.0151921
884.299	0.0152448
884.378	0.0152213
884.456	0.0150406
884.534	0.0151109
884.612	0.0151544
884.690	0.0151579
884.768	0.0151808
884.846	0.0151671
884.924	0.0151870
885.003	0.0152128
885.081	0.0151942
885.159	0.0153312
885.237	0.0152740
885.315	0.0152779
885.393	0.0153607
885.471	0.0153096
885.549	0.0154190
885.628	0.0152243
885.706	0.0151987
885.784	0.0153030
885.862	0.0152570
885.940	0.0153052
886.018	0.0153291
886.096	0.0153623
886.174	0.0154143
886.253	0.0154098
886.331	0.0154115
886.409	0.0153201
886.487	0.0153354
886.565	0.0153509
886.643	0.0152603
886.721	0.0153372
886.799	0.0153734
886.878	0.0154575
886.956	0.0154285
887.034	0.0154089
887.112	0.0152369
887.190	0.0153791
887.268	0.0151870
887.346	0.0151538
887.424	0.0152007
887.503	0.0150595
887.581	0.0150920
887.659	0.0151119
887.737	0.0151186
887.815	0.0150777
887.893	0.0151614
887.971	0.0151520
888.049	0.0151436
888.128	0.0151675
888.206	0.0152785
888.284	0.0153055
888.362	0.0153815
888.440	0.0151481
888.518	0.0150137
888.596	0.0153024
888.674	0.0151780
888.753	0.0151765
888.831	0.0152835
888.909	0.0152228
888.987	0.0152405
889.065	0.0152521
889.143	0.0153506
889.221	0.0151953
889.299	0.0151515
889.378	0.0151421
889.456	0.0151977
889.534	0.0153097
889.612	0.0152205
889.690	0.0151990
889.768	0.0151685
889.846	0.0152877
889.924	0.0150738
890.003	0.0152425
890.081	0.0151089
890.159	0.0152077
890.237	0.0152075
890.315	0.0151365
890.393	0.0152790
890.471	0.0151212
890.549	0.0151811
890.628	0.0151247
890.706	0.0150529
890.784	0.0150993
890.862	0.0151970
890.940	0.0152086
891.018	0.0151387
891.096	0.0151239
891.174	0.0151917
891.253	0.0151642
891.331	0.0150667
891.409	0.0151398
891.487	0.0150912
891.565	0.0152255
891.643	0.0153053
891.721	0.0153476
891.799	0.0152262
891.878	0.0154359
891.956	0.0153835
892.034	0.0153567
892.112	0.0154795
892.190	0.0152859
892.268	0.0154232
892.346	0.0155946
892.424	0.0154371
892.503	0.0152212
892.581	0.0153270
892.659	0.0155939
892.737	0.0153138
892.815	0.0154610
892.893	0.0153111
892.971	0.0152596
893.049	0.0151955
893.128	0.0151487
893.206	0.0150847
893.284	0.0151447
893.362	0.0150050
893.440	0.0151647
893.518	0.0151791
893.596	0.0151611
893.674	0.0149603
893.753	0.0151558
893.831	0.0151111
893.909	0.0152456
893.987	0.0151151
894.065	0.0151496
894.143	0.0151362
894.221	0.0152417
894.299	0.0151377
894.378	0.0151051
894.456	0.0151118
894.534	0.0151212
894.612	0.0151252
894.690	0.0150201
894.768	0.0151869
894.846	0.0151191
894.924	0.0151049
895.003	0.0151807
895.081	0.0151380
895.159	0.0150072
895.237	0.0151745
895.315	0.0150994
895.393	0.0151767
895.471	0.0151881
895.549	0.0151115
895.628	0.0150822
895.706	0.0151879
895.784	0.0151665
895.862	0.0152570
895.940	0.0152289
896.018	0.0151789
896.096	0.0151901
896.174	0.0149575
896.253	0.0151961
896.331	0.0151297
896.409	0.0150919
896.487	0.0150377
896.565	0.0151940
896.643	0.0151594
896.721	0.0151007
896.799	0.0150275
896.878	0.0151491
896.956	0.0152104
897.034	0.0151373
897.112	0.0152447
897.190	0.0151051
897.268	0.0152002
897.346	0.0152818
897.424	0.0151094
897.503	0.0151881
897.581	0.0152236
897.659	0.0152003
897.737	0.0152606
897.815	0.0152889
897.893	0.0153503
897.971	0.0153899
898.049	0.0152415
898.128	0.0154033
898.206	0.0153635
898.284	0.0154316
898.362	0.0154086
898.440	0.0153481
898.518	0.0152766
898.596	0.0153944
898.674	0.0153262
898.753	0.0152290
898.831	0.0152375
898.909	0.0151888
898.987	0.0153040
899.065	0.0152055
899.143	0.0152544
899.221	0.0152583
899.299	0.0152104
899.378	0.0151707
899.456	0.0151675
899.534	0.0152168
899.612	0.0152387
899.690	0.0151661
899.768	0.0152563
899.846	0.0152713
899.924	0.0153162
900.003	0.0151929
900.081	0.0152420
900.159	0.0152549
900.237	0.0152690
900.315	0.0152302
900.393	0.0153390
900.471	0.0151865
900.549	0.0152053
900.628	0.0152294
900.706	0.0152161
900.784	0.0152860
900.862	0.0153700
900.940	0.0151295
901.018	0.0152969
901.096	0.0152795
901.174	0.0152849
901.253	0.0153411
901.331	0.0152353
901.409	0.0151292
901.487	0.0152453
901.565	0.0151895
901.643	0.0152744
901.721	0.0151604
901.799	0.0151625
901.878	0.0150582
901.956	0.0151779
902.034	0.0152014
902.112	0.0151372
902.190	0.0150931
902.268	0.0151751
902.346	0.0152763
902.424	0.0150008
902.503	0.0150204
902.581	0.0150124
902.659	0.0150726
902.737	0.0152090
902.815	0.0151517
902.893	0.0150857
902.971	0.0151571
903.049	0.0151621
903.128	0.0152380
903.206	0.0152553
903.284	0.0153839
903.362	0.0152869
903.440	0.0152365
903.518	0.0152026
903.596	0.0153122
903.674	0.0152790
903.753	0.0151109
903.831	0.0150733
903.909	0.0151182
903.987	0.0152897
904.065	0.0152347
904.143	0.0152209
904.221	0.0153459
904.299	0.0151932
904.378	0.0153300
904.456	0.0151523
904.534	0.0152757
904.612	0.0154160
904.690	0.0153749
904.768	0.0154373
904.846	0.0152612
904.924	0.0154984
905.003	0.0153271
905.081	0.0153093
905.159	0.0153576
905.237	0.0152378
905.315	0.0153854
905.393	0.0152094
905.471	0.0152539
905.549	0.0151836
905.628	0.0153427
905.706	0.0151913
905.784	0.0152366
905.862	0.0152671
905.940	0.0152409
906.018	0.0152547
906.096	0.0153246
906.174	0.0152265
906.253	0.0152759
906.331	0.0153290
906.409	0.0152998
906.487	0.0152062
906.565	0.0152305
906.643	0.0151286
906.721	0.0151861
906.799	0.0152641
906.878	0.0152888
906.956	0.0151826
907.034	0.0151389
907.112	0.0152149
907.190	0.0152029
907.268	0.0150055
907.346	0.0151964
907.424	0.0151327
907.503	0.0151655
907.581	0.0152643
907.659	0.0149012
907.737	0.0150173
907.815	0.0152888
907.893	0.0151315
907.971	0.0151978
908.049	0.0152107
908.128	0.0152010
908.206	0.0150713
908.284	0.0152621
908.362	0.0152262
908.440	0.0151978
908.518	0.0151706
908.596	0.0152207
908.674	0.0152233
908.753	0.0153245
908.831	0.0152744
908.909	0.0152455
908.987	0.0153503
909.065	0.0152618
909.143	0.0152001
909.221	0.0151228
909.299	0.0153570
909.378	0.0152512
909.456	0.0152969
909.534	0.0151895
909.612	0.0153690
909.690	0.0151479
909.768	0.0152576
909.846	0.0151792
909.924	0.0152951
910.003	0.0153114
910.081	0.0153067
910.159	0.0152695
910.237	0.0151576
910.315	0.0151239
910.393	0.0151360
910.471	0.0151454
910.549	0.0152114
910.628	0.0151613
910.706	0.0150938
910.784	0.0150604
910.862	0.0151259
910.940	0.0150685
911.018	0.0151102
911.096	0.0152773
911.174	0.0150727
911.253	0.0151151
911.331	0.0152898
911.409	0.0152483
911.487	0.0151676
911.565	0.0150599
911.643	0.0152255
911.721	0.0152538
911.799	0.0151366
911.878	0.0152415
911.956	0.0153399
912.034	0.0153143
912.112	0.0152914
912.190	0.0152374
912.268	0.0152746
912.346	0.0151653
912.424	0.0152860
912.503	0.0153982
912.581	0.0151994
912.659	0.0153364
912.737	0.0153037
912.815	0.0152338
912.893	0.0153204
912.971	0.0152678
913.049	0.0152230
913.128	0.0151952
913.206	0.0152489
913.284	0.0151943
913.362	0.0152840
913.440	0.0151198
913.518	0.0153279
913.596	0.0151589
913.674	0.0151501
913.753	0.0152000
913.831	0.0150999
913.909	0.0151559
913.987	0.0152191
914.065	0.0151031
914.143	0.0152981
914.221	0.0152277
914.299	0.0151954
914.378	0.0154230
914.456	0.0151814
914.534	0.0153622
914.612	0.0151299
914.690	0.0153319
914.768	0.0152161
914.846	0.0151992
914.924	0.0152567
915.003	0.0152307
915.081	0.0152984
915.159	0.0152442
915.237	0.0152568
915.315	0.0151510
915.393	0.0152615
915.471	0.0152446
915.549	0.0152151
915.628	0.0151914
915.706	0.0152269
915.784	0.0152628
915.862	0.0152015
915.940	0.0151617
916.018	0.0150372
916.096	0.0151783
916.174	0.0151646
916.253	0.0150316
916.331	0.0151695
916.409	0.0150758
916.487	0.0150922
916.565	0.0151559
916.643	0.0150478
916.721	0.0151246
916.799	0.0151260
916.878	0.0149890
916.956	0.0150572
917.034	0.0150307
917.112	0.0151215
917.190	0.0152322
917.268	0.0151997
917.346	0.0152525
917.424	0.0153608
917.503	0.0152400
917.581	0.0151565
917.659	0.0151303
917.737	0.0153054
917.815	0.0151669
917.893	0.0152540
917.971	0.0153065
918.049	0.0151441
918.128	0.0153565
918.206	0.0151453
918.284	0.0152774
918.362	0.0152487
918.440	0.0150298
918.518	0.0152463
918.596	0.0152424
918.674	0.0153403
918.753	0.0151989
918.831	0.0152313
918.909	0.0152272
918.987	0.0153044
919.065	0.0153027
919.143	0.0152422
919.221	0.0152911
919.299	0.0153626
919.378	0.0151508
919.456	0.0151872
919.534	0.0153571
919.612	0.0153010
919.690	0.0153214
919.768	0.0152957
919.846	0.0152377
919.924	0.0151492
920.003	0.0152414
920.081	0.0154256
920.159	0.0152035
920.237	0.0153227
920.315	0.0154313
920.393	0.0153905
920.471	0.0153423
920.549	0.0153544
920.628	0.0153125
920.706	0.0154759
920.784	0.0153452
920.862	0.0153952
920.940	0.0153984
921.018	0.0153632
921.096	0.0152702
921.174	0.0153427
921.253	0.0154248
921.331	0.0153348
921.409	0.0153954
921.487	0.0152390
921.565	0.0152892
921.643	0.0152595
921.721	0.0152099
921.799	0.0151367
921.878	0.0152319
921.956	0.0151659
922.034	0.0153418
922.112	0.0152330
922.190	0.0150495
922.268	0.0151871
922.346	0.0151980
922.424	0.0152558
922.503	0.0152164
922.581	0.0152006
922.659	0.0152311
922.737	0.0151115
922.815	0.0152437
922.893	0.0152202
922.971	0.0151878
923.049	0.0151350
923.128	0.0152239
923.206	0.0151611
923.284	0.0151453
923.362	0.0152029
923.440	0.0152557
923.518	0.0149345
923.596	0.0150383
923.674	0.0150884
923.753	0.0151373
923.831	0.0151833
923.909	0.0152103
923.987	0.0150569
924.065	0.0150016
924.143	0.0153271
924.221	0.0153941
924.299	0.0152049
924.378	0.0152631
924.456	0.0153109
924.534	0.0153442
924.612	0.0154369
924.690	0.0154359
924.768	0.0154359
924.846	0.0154017
924.924	0.0153172
925.003	0.0154943
925.081	0.0153438
925.159	0.0152915
925.237	0.0153477
925.315	0.0152266
925.393	0.0152695
925.471	0.0154301
925.549	0.0152282
925.628	0.0152290
925.706	0.0152208
925.784	0.0152664
925.862	0.0152264
925.940	0.0153513
926.018	0.0152112
926.096	0.0152087
926.174	0.0151445
926.253	0.0151091
926.331	0.0152030
926.409	0.0152909
926.487	0.0151466
926.565	0.0152355
926.643	0.0151802
926.721	0.0151664
926.799	0.0151999
926.878	0.0152521
926.956	0.0152577
927.034	0.0152597
927.112	0.0152267
927.190	0.0151031
927.268	0.0152984
927.346	0.0152251
927.424	0.0151471
927.503	0.0152448
927.581	0.0152597
927.659	0.0152226
927.737	0.0152181
927.815	0.0153262
927.893	0.0151760
927.971	0.0151882
928.049	0.0152804
928.128	0.0154487
928.206	0.0152816
928.284	0.0151874
928.362	0.0151147
928.440	0.0152472
928.518	0.0152869
928.596	0.0152973
928.674	0.0153977
928.753	0.0154267
928.831	0.0153033
928.909	0.0154238
928.987	0.0154533
929.065	0.0153590
929.143	0.0155000
929.221	0.0154803
929.299	0.0154055
929.378	0.0154253
929.456	0.0154848
929.534	0.0152858
929.612	0.0152350
929.690	0.0154604
929.768	0.0152427
929.846	0.0152483
929.924	0.0152514
930.003	0.0151716
930.081	0.0152682
930.159	0.0152427
930.237	0.0151824
930.315	0.0152480
930.393	0.0152602
930.471	0.0153130
930.549	0.0153213
930.628	0.0152142
930.706	0.0152079
930.784	0.0152506
930.862	0.0152232
930.940	0.0152662
931.018	0.0152991
931.096	0.0151424
931.174	0.0152076
931.253	0.0151761
931.331	0.0152483
931.409	0.0151519
931.487	0.0152522
931.565	0.0151202
931.643	0.0152341
931.721	0.0154245
931.799	0.0152050
931.878	0.0151263
931.956	0.0151121
932.034	0.0152906
932.112	0.0151478
932.190	0.0150371
932.268	0.0152386
932.346	0.0152941
932.424	0.0151989
932.503	0.0152706
932.581	0.0152077
932.659	0.0151975
932.737	0.0153104
932.815	0.0154086
932.893	0.0153936
932.971	0.0152345
933.049	0.0151806
933.128	0.0152947
933.206	0.0152779
933.284	0.0153045
933.362	0.0153420
933.440	0.0153333
933.518	0.0152671
933.596	0.0153151
933.674	0.0151515
933.753	0.0153682
933.831	0.0152406
933.909	0.0153095
933.987	0.0153957
934.065	0.0150466
934.143	0.0151334
934.221	0.0153768
934.299	0.0151992
934.378	0.0151753
934.456	0.0151216
934.534	0.0151238
934.612	0.0152380
934.690	0.0152114
934.768	0.0152594
934.846	0.0151799
934.924	0.0151337
935.003	0.0151318
935.081	0.0151465
935.159	0.0151804
935.237	0.0151828
935.315	0.0153698
935.393	0.0154789
935.471	0.0151482
935.549	0.0153394
935.628	0.0153547
935.706	0.0152568
935.784	0.0153224
935.862	0.0152922
935.940	0.0151641
936.018	0.0153035
936.096	0.0153984
936.174	0.0152600
936.253	0.0153226
936.331	0.0153313
936.409	0.0153172
936.487	0.0153587
936.565	0.0152950
936.643	0.0153085
936.721	0.0151222
936.799	0.0152699
936.878	0.0153568
936.956	0.0150533
937.034	0.0151171
937.112	0.0151945
937.190	0.0153353
937.268	0.0152402
937.346	0.0150912
937.424	0.0150676
937.503	0.0152074
937.581	0.0151875
937.659	0.0150381
937.737	0.0151541
937.815	0.0151209
937.893	0.0152613
937.971	0.0152266
938.049	0.0153529
938.128	0.0151839
938.206	0.0150727
938.284	0.0153059
938.362	0.0151863
938.440	0.0150768
938.518	0.0151696
938.596	0.0152566
938.674	0.0151771
938.753	0.0150314
938.831	0.0151970
938.909	0.0152178
938.987	0.0152277
939.065	0.0152094
939.143	0.0152962
939.221	0.0152506
939.299	0.0152950
939.378	0.0154949
939.456	0.0153475
939.534	0.0152596
939.612	0.0153125
939.690	0.0153057
939.768	0.0153473
939.846	0.0152510
939.924	0.0151768
940.003	0.0151041
940.081	0.0153202
940.159	0.0152187
940.237	0.0151110
940.315	0.0152489
940.393	0.0152052
940.471	0.0151122
940.549	0.0150539
940.628	0.0152003
940.706	0.0152165
940.784	0.0152337
940.862	0.0153362
940.940	0.0151897
941.018	0.0151684
941.096	0.0152373
941.174	0.0153226
941.253	0.0152003
941.331	0.0153908
941.409	0.0153536
941.487	0.0153602
941.565	0.0153901
941.643	0.0153897
941.721	0.0153625
941.799	0.0153631
941.878	0.0153674
941.956	0.0152370
942.034	0.0154777
942.112	0.0153701
942.190	0.0153984
942.268	0.0153696
942.346	0.0153018
942.424	0.0153069
942.503	0.0152679
942.581	0.0153721
942.659	0.0152715
942.737	0.0151875
942.815	0.0151025
942.893	0.0152687
942.971	0.0152020
943.049	0.0152803
943.128	0.0151759
943.206	0.0152303
943.284	0.0153236
943.362	0.0152466
943.440	0.0151429
943.518	0.0152529
943.596	0.0151672
943.674	0.0152872
943.753	0.0151566
943.831	0.0152322
943.909	0.0152677
943.987	0.0150554
944.065	0.0150684
944.143	0.0150703
944.221	0.0152489
944.299	0.0150557
944.378	0.0151500
944.456	0.0151676
944.534	0.0153177
944.612	0.0150400
944.690	0.0151543
944.768	0.0151963
944.846	0.0153362
944.924	0.0153029
945.003	0.0153860
945.081	0.0153288
945.159	0.0155463
945.237	0.0153936
945.315	0.0154585
945.393	0.0153461
945.471	0.0152751
945.549	0.0152008
945.628	0.0154102
945.706	0.0153608
945.784	0.0151633
945.862	0.0151180
945.940	0.0151707
946.018	0.0150828
946.096	0.0150533
946.174	0.0150485
946.253	0.0151215
946.331	0.0150714
946.409	0.0149905
946.487	0.0150406
946.565	0.0151931
946.643	0.0151363
946.721	0.0151733
946.799	0.0153124
946.878	0.0152102
946.956	0.0151263
947.034	0.0151344
947.112	0.0151226
947.190	0.0152302
947.268	0.0152269
947.346	0.0152264
947.424	0.0152092
947.503	0.0153530
947.581	0.0151893
947.659	0.0150681
947.737	0.0151723
947.815	0.0153139
947.893	0.0152978
947.971	0.0154662
948.049	0.0154492
948.128	0.0152231
948.206	0.0153498
948.284	0.0153726
948.362	0.0152065
948.440	0.0152720
948.518	0.0153860
948.596	0.0152789
948.674	0.0151506
948.753	0.0152949
948.831	0.0151325
948.909	0.0153008
948.987	0.0150413
949.065	0.0152781
949.143	0.0151727
949.221	0.0150838
949.299	0.0150686
949.378	0.0150757
949.456	0.0150713
949.534	0.0149902
949.612	0.0149739
949.690	0.0150182
949.768	0.0150166
949.846	0.0150361
949.924	0.0150411
