06/29/2022	23:00:55	Ver.	4.1	UNKNOWN
Optical Delay	629.995835	Delta X		0.078125	Sweeps	1	Scan Rate	0/0
Coordinates	Axis 1	NaN	Axis 2	NaN	Axis 3	NaN	Axis 4	NaN	Axis 5	NaN	Axis 6	0.000000
TX Power	0.000000	RX Power	0.000000

629.996	0.0163154
630.074	0.0163680
630.152	0.0163818
630.230	0.0164012
630.308	0.0163352
630.386	0.0162012
630.465	0.0163747
630.543	0.0163763
630.621	0.0162682
630.699	0.0164281
630.777	0.0164022
630.855	0.0162860
630.933	0.0163786
631.011	0.0163004
631.090	0.0162650
631.168	0.0162458
631.246	0.0163348
631.324	0.0162234
631.402	0.0162763
631.480	0.0163608
631.558	0.0164108
631.636	0.0163409
631.715	0.0161908
631.793	0.0163333
631.871	0.0162901
631.949	0.0163779
632.027	0.0162943
632.105	0.0162412
632.183	0.0163029
632.261	0.0163184
632.340	0.0161482
632.418	0.0162607
632.496	0.0163104
632.574	0.0161806
632.652	0.0163094
632.730	0.0163294
632.808	0.0164605
632.886	0.0161900
632.965	0.0162883
633.043	0.0161927
633.121	0.0162444
633.199	0.0163671
633.277	0.0163262
633.355	0.0163182
633.433	0.0161629
633.511	0.0163065
633.590	0.0163091
633.668	0.0163252
633.746	0.0162598
633.824	0.0162849
633.902	0.0164180
633.980	0.0162668
634.058	0.0162859
634.136	0.0162225
634.215	0.0163462
634.293	0.0162823
634.371	0.0163831
634.449	0.0163603
634.527	0.0163003
634.605	0.0162072
634.683	0.0162982
634.761	0.0163775
634.840	0.0164274
634.918	0.0162376
634.996	0.0163464
635.074	0.0163897
635.152	0.0162367
635.230	0.0163317
635.308	0.0163352
635.386	0.0163258
635.465	0.0163150
635.543	0.0162755
635.621	0.0164083
635.699	0.0163676
635.777	0.0163280
635.855	0.0164957
635.933	0.0162905
636.011	0.0162944
636.090	0.0162909
636.168	0.0164058
636.246	0.0162767
636.324	0.0162596
636.402	0.0162889
636.480	0.0164028
636.558	0.0163743
636.636	0.0162354
636.715	0.0163246
636.793	0.0164279
636.871	0.0162553
636.949	0.0163476
637.027	0.0163029
637.105	0.0161848
637.183	0.0162419
637.261	0.0163933
637.340	0.0164101
637.418	0.0162378
637.496	0.0163175
637.574	0.0163501
637.652	0.0163509
637.730	0.0162081
637.808	0.0162826
637.886	0.0163270
637.965	0.0164264
638.043	0.0165022
638.121	0.0163892
638.199	0.0162623
638.277	0.0162066
638.355	0.0163548
638.433	0.0163392
638.511	0.0163642
638.590	0.0162961
638.668	0.0163280
638.746	0.0163274
638.824	0.0163374
638.902	0.0163439
638.980	0.0163184
639.058	0.0163667
639.136	0.0162248
639.215	0.0162976
639.293	0.0162173
639.371	0.0161562
639.449	0.0162939
639.527	0.0164216
639.605	0.0163168
639.683	0.0164217
639.761	0.0162142
639.840	0.0162243
639.918	0.0162502
639.996	0.0163312
640.074	0.0160696
640.152	0.0162946
640.230	0.0162637
640.308	0.0163256
640.386	0.0162855
640.465	0.0162993
640.543	0.0162321
640.621	0.0162872
640.699	0.0162846
640.777	0.0163011
640.855	0.0164402
640.933	0.0163895
641.011	0.0162099
641.090	0.0163580
641.168	0.0162737
641.246	0.0162831
641.324	0.0161595
641.402	0.0162292
641.480	0.0162852
641.558	0.0163694
641.636	0.0162528
641.715	0.0162080
641.793	0.0161891
641.871	0.0162403
641.949	0.0164355
642.027	0.0162606
642.105	0.0163580
642.183	0.0162042
642.261	0.0161784
642.340	0.0163047
642.418	0.0163245
642.496	0.0162265
642.574	0.0163985
642.652	0.0163114
642.730	0.0162502
642.808	0.0162325
642.886	0.0162099
642.965	0.0163199
643.043	0.0162325
643.121	0.0162519
643.199	0.0163391
643.277	0.0163730
643.355	0.0162835
643.433	0.0162989
643.511	0.0163202
643.590	0.0162977
643.668	0.0163106
643.746	0.0163609
643.824	0.0162940
643.902	0.0162668
643.980	0.0164061
644.058	0.0164059
644.136	0.0162886
644.215	0.0164130
644.293	0.0163055
644.371	0.0162439
644.449	0.0163346
644.527	0.0163584
644.605	0.0162553
644.683	0.0164146
644.761	0.0162222
644.840	0.0163070
644.918	0.0164394
644.996	0.0162762
645.074	0.0163702
645.152	0.0162487
645.230	0.0162974
645.308	0.0162704
645.386	0.0163400
645.465	0.0162476
645.543	0.0162701
645.621	0.0163062
645.699	0.0163408
645.777	0.0163326
645.855	0.0162759
645.933	0.0163557
646.011	0.0161818
646.090	0.0163684
646.168	0.0163853
646.246	0.0162608
646.324	0.0161730
646.402	0.0162246
646.480	0.0163831
646.558	0.0163565
646.636	0.0162608
646.715	0.0162688
646.793	0.0163159
646.871	0.0163818
646.949	0.0163542
647.027	0.0163344
647.105	0.0164258
647.183	0.0162233
647.261	0.0161880
647.340	0.0164191
647.418	0.0163335
647.496	0.0163483
647.574	0.0163100
647.652	0.0161771
647.730	0.0163711
647.808	0.0163664
647.886	0.0162456
647.965	0.0161945
648.043	0.0163103
648.121	0.0163393
648.199	0.0162286
648.277	0.0161922
648.355	0.0162611
648.433	0.0163948
648.511	0.0163995
648.590	0.0161878
648.668	0.0162370
648.746	0.0163438
648.824	0.0164536
648.902	0.0162856
648.980	0.0163596
649.058	0.0163276
649.136	0.0164405
649.215	0.0162466
649.293	0.0163093
649.371	0.0162599
649.449	0.0163103
649.527	0.0163491
649.605	0.0162761
649.683	0.0161761
649.761	0.0163602
649.840	0.0163493
649.918	0.0163473
649.996	0.0164200
650.074	0.0162769
650.152	0.0162837
650.230	0.0163178
650.308	0.0163961
650.386	0.0162605
650.465	0.0162992
650.543	0.0162875
650.621	0.0162659
650.699	0.0164112
650.777	0.0162276
650.855	0.0162830
650.933	0.0162793
651.011	0.0162785
651.090	0.0163789
651.168	0.0163883
651.246	0.0163336
651.324	0.0164095
651.402	0.0163130
651.480	0.0162823
651.558	0.0162762
651.636	0.0163232
651.715	0.0164244
651.793	0.0163211
651.871	0.0163771
651.949	0.0162738
652.027	0.0163274
652.105	0.0162885
652.183	0.0162659
652.261	0.0162157
652.340	0.0163332
652.418	0.0163079
652.496	0.0163451
652.574	0.0164169
652.652	0.0164387
652.730	0.0164225
652.808	0.0164391
652.886	0.0163018
652.965	0.0163009
653.043	0.0162737
653.121	0.0163554
653.199	0.0162934
653.277	0.0162788
653.355	0.0162818
653.433	0.0164790
653.511	0.0162844
653.590	0.0162341
653.668	0.0161391
653.746	0.0163043
653.824	0.0164012
653.902	0.0162943
653.980	0.0162408
654.058	0.0162966
654.136	0.0163409
654.215	0.0162927
654.293	0.0162492
654.371	0.0162914
654.449	0.0163577
654.527	0.0162843
654.605	0.0163245
654.683	0.0164375
654.761	0.0163532
654.840	0.0163148
654.918	0.0162537
654.996	0.0164111
655.074	0.0163333
655.152	0.0164427
655.230	0.0162761
655.308	0.0162749
655.386	0.0163672
655.465	0.0163726
655.543	0.0163788
655.621	0.0163728
655.699	0.0162874
655.777	0.0162576
655.855	0.0164308
655.933	0.0164952
656.011	0.0162323
656.090	0.0164484
656.168	0.0163345
656.246	0.0162662
656.324	0.0163274
656.402	0.0162024
656.480	0.0163561
656.558	0.0164338
656.636	0.0163757
656.715	0.0161073
656.793	0.0163451
656.871	0.0165206
656.949	0.0164012
657.027	0.0161803
657.105	0.0164206
657.183	0.0163249
657.261	0.0162623
657.340	0.0164557
657.418	0.0163667
657.496	0.0161926
657.574	0.0164269
657.652	0.0163745
657.730	0.0164252
657.808	0.0162053
657.886	0.0162523
657.965	0.0161748
658.043	0.0163104
658.121	0.0164970
658.199	0.0163992
658.277	0.0164027
658.355	0.0162985
658.433	0.0163895
658.511	0.0163810
658.590	0.0163448
658.668	0.0163703
658.746	0.0163703
658.824	0.0162860
658.902	0.0162421
658.980	0.0164632
659.058	0.0164773
659.136	0.0162575
659.215	0.0162759
659.293	0.0164240
659.371	0.0162989
659.449	0.0163092
659.527	0.0162666
659.605	0.0162298
659.683	0.0162897
659.761	0.0162288
659.840	0.0162293
659.918	0.0163725
659.996	0.0163754
660.074	0.0164136
660.152	0.0163007
660.230	0.0162858
660.308	0.0163291
660.386	0.0164164
660.465	0.0162056
660.543	0.0163206
660.621	0.0164658
660.699	0.0164148
660.777	0.0164135
660.855	0.0161802
660.933	0.0163231
661.011	0.0163736
661.090	0.0163998
661.168	0.0163398
661.246	0.0162789
661.324	0.0162299
661.402	0.0162858
661.480	0.0162861
661.558	0.0164212
661.636	0.0162878
661.715	0.0162286
661.793	0.0162031
661.871	0.0163092
661.949	0.0163268
662.027	0.0162294
662.105	0.0162007
662.183	0.0162948
662.261	0.0163329
662.340	0.0163608
662.418	0.0162893
662.496	0.0161956
662.574	0.0162806
662.652	0.0162895
662.730	0.0162832
662.808	0.0162219
662.886	0.0162717
662.965	0.0163580
663.043	0.0162268
663.121	0.0162142
663.199	0.0162546
663.277	0.0163254
663.355	0.0162917
663.433	0.0163587
663.511	0.0163544
663.590	0.0163466
663.668	0.0162866
663.746	0.0163295
663.824	0.0162765
663.902	0.0161864
663.980	0.0162682
664.058	0.0162405
664.136	0.0162794
664.215	0.0163014
664.293	0.0163299
664.371	0.0163738
664.449	0.0163827
664.527	0.0162688
664.605	0.0162159
664.683	0.0163712
664.761	0.0163256
664.840	0.0164371
664.918	0.0162083
664.996	0.0162303
665.074	0.0163234
665.152	0.0162003
665.230	0.0162653
665.308	0.0162090
665.386	0.0162855
665.465	0.0162710
665.543	0.0163409
665.621	0.0163594
665.699	0.0162938
665.777	0.0165100
665.855	0.0164336
665.933	0.0163282
666.011	0.0164100
666.090	0.0163693
666.168	0.0162898
666.246	0.0162832
666.324	0.0162347
666.402	0.0162473
666.480	0.0162921
666.558	0.0163253
666.636	0.0162556
666.715	0.0163911
666.793	0.0163177
666.871	0.0163374
666.949	0.0163118
667.027	0.0162521
667.105	0.0163483
667.183	0.0162863
667.261	0.0162379
667.340	0.0163810
667.418	0.0163656
667.496	0.0162582
667.574	0.0162016
667.652	0.0162139
667.730	0.0162814
667.808	0.0161633
667.886	0.0165112
667.965	0.0162376
668.043	0.0161670
668.121	0.0164352
668.199	0.0162578
668.277	0.0162576
668.355	0.0162999
668.433	0.0162979
668.511	0.0162539
668.590	0.0162083
668.668	0.0163390
668.746	0.0163355
668.824	0.0162445
668.902	0.0163286
668.980	0.0163358
669.058	0.0162652
669.136	0.0163366
669.215	0.0163896
669.293	0.0162163
669.371	0.0162408
669.449	0.0162411
669.527	0.0163052
669.605	0.0162698
669.683	0.0163007
669.761	0.0162050
669.840	0.0162753
669.918	0.0163465
669.996	0.0163753
670.074	0.0163975
670.152	0.0163657
670.230	0.0163844
670.308	0.0162950
670.386	0.0162519
670.465	0.0163963
670.543	0.0162270
670.621	0.0163187
670.699	0.0163998
670.777	0.0163161
670.855	0.0162807
670.933	0.0163976
671.011	0.0162859
671.090	0.0161782
671.168	0.0162661
671.246	0.0163107
671.324	0.0163402
671.402	0.0162994
671.480	0.0162990
671.558	0.0162901
671.636	0.0162273
671.715	0.0163100
671.793	0.0162589
671.871	0.0163190
671.949	0.0161431
672.027	0.0163307
672.105	0.0163071
672.183	0.0161895
672.261	0.0163553
672.340	0.0161520
672.418	0.0163013
672.496	0.0164217
672.574	0.0162185
672.652	0.0162675
672.730	0.0162137
672.808	0.0164171
672.886	0.0162492
672.965	0.0162949
673.043	0.0162721
673.121	0.0163273
673.199	0.0164026
673.277	0.0164185
673.355	0.0162633
673.433	0.0162829
673.511	0.0163876
673.590	0.0163480
673.668	0.0163208
673.746	0.0162520
673.824	0.0162617
673.902	0.0162637
673.980	0.0163953
674.058	0.0162939
674.136	0.0163445
674.215	0.0163931
674.293	0.0162083
674.371	0.0163375
674.449	0.0163517
674.527	0.0161905
674.605	0.0163216
674.683	0.0162997
674.761	0.0163005
674.840	0.0163564
674.918	0.0163547
674.996	0.0162849
675.074	0.0163217
675.152	0.0162923
675.230	0.0162617
675.308	0.0163993
675.386	0.0162892
675.465	0.0162921
675.543	0.0163904
675.621	0.0163066
675.699	0.0163464
675.777	0.0163522
675.855	0.0162822
675.933	0.0162978
676.011	0.0162622
676.090	0.0163430
676.168	0.0162616
676.246	0.0163667
676.324	0.0162022
676.402	0.0162840
676.480	0.0164760
676.558	0.0162431
676.636	0.0161661
676.715	0.0162783
676.793	0.0163496
676.871	0.0162601
676.949	0.0164245
677.027	0.0163566
677.105	0.0162794
677.183	0.0163602
677.261	0.0163061
677.340	0.0163005
677.418	0.0164135
677.496	0.0163564
677.574	0.0164368
677.652	0.0164077
677.730	0.0163272
677.808	0.0163705
677.886	0.0163277
677.965	0.0163638
678.043	0.0161865
678.121	0.0162848
678.199	0.0163436
678.277	0.0162798
678.355	0.0164023
678.433	0.0162861
678.511	0.0164438
678.590	0.0162109
678.668	0.0164301
678.746	0.0163431
678.824	0.0163490
678.902	0.0163749
678.980	0.0164027
679.058	0.0163342
679.136	0.0164321
679.215	0.0164319
679.293	0.0163778
679.371	0.0161493
679.449	0.0163161
679.527	0.0163454
679.605	0.0163351
679.683	0.0162634
679.761	0.0163435
679.840	0.0163165
679.918	0.0164120
679.996	0.0161750
680.074	0.0162895
680.152	0.0163293
680.230	0.0163912
680.308	0.0163059
680.386	0.0163537
680.465	0.0163174
680.543	0.0161588
680.621	0.0161893
680.699	0.0162275
680.777	0.0164104
680.855	0.0164986
680.933	0.0161799
681.011	0.0163194
681.090	0.0163866
681.168	0.0164503
681.246	0.0163514
681.324	0.0164082
681.402	0.0163345
681.480	0.0163331
681.558	0.0162974
681.636	0.0163192
681.715	0.0164002
681.793	0.0162093
681.871	0.0162817
681.949	0.0163934
682.027	0.0163876
682.105	0.0163361
682.183	0.0163000
682.261	0.0164513
682.340	0.0164212
682.418	0.0162843
682.496	0.0162453
682.574	0.0163519
682.652	0.0163128
682.730	0.0163858
682.808	0.0163462
682.886	0.0165379
682.965	0.0163290
683.043	0.0162912
683.121	0.0163960
683.199	0.0163655
683.277	0.0163586
683.355	0.0163206
683.433	0.0163731
683.511	0.0163220
683.590	0.0162045
683.668	0.0161911
683.746	0.0163509
683.824	0.0163175
683.902	0.0162270
683.980	0.0162714
684.058	0.0161794
684.136	0.0163021
684.215	0.0164429
684.293	0.0163362
684.371	0.0162854
684.449	0.0162679
684.527	0.0161393
684.605	0.0161815
684.683	0.0162125
684.761	0.0161953
684.840	0.0160922
684.918	0.0161736
684.996	0.0161986
685.074	0.0163295
685.152	0.0161765
685.230	0.0162095
685.308	0.0162148
685.386	0.0162560
685.465	0.0162341
685.543	0.0163290
685.621	0.0162326
685.699	0.0162328
685.777	0.0162241
685.855	0.0163112
685.933	0.0163895
686.011	0.0165331
686.090	0.0164814
686.168	0.0164416
686.246	0.0163911
686.324	0.0163447
686.402	0.0164246
686.480	0.0162478
686.558	0.0161973
686.636	0.0160112
686.715	0.0159797
686.793	0.0160281
686.871	0.0160312
686.949	0.0160618
687.027	0.0160284
687.105	0.0160442
687.183	0.0162989
687.261	0.0165577
687.340	0.0163275
687.418	0.0163651
687.496	0.0165180
687.574	0.0165366
687.652	0.0166178
687.730	0.0165350
687.808	0.0163541
687.886	0.0163985
687.965	0.0162495
688.043	0.0161168
688.121	0.0161594
688.199	0.0160268
688.277	0.0159718
688.355	0.0160365
688.433	0.0159746
688.511	0.0159767
688.590	0.0160762
688.668	0.0161172
688.746	0.0162608
688.824	0.0162608
688.902	0.0163595
688.980	0.0165428
689.058	0.0167966
689.136	0.0167015
689.215	0.0165578
689.293	0.0166558
689.371	0.0166323
689.449	0.0165860
689.527	0.0165287
689.605	0.0162309
689.683	0.0162594
689.761	0.0163250
689.840	0.0160805
689.918	0.0159976
689.996	0.0161510
690.074	0.0160072
690.152	0.0160344
690.230	0.0160760
690.308	0.0159940
690.386	0.0160552
690.465	0.0163687
690.543	0.0163990
690.621	0.0164267
690.699	0.0165783
690.777	0.0166670
690.855	0.0167922
690.933	0.0166342
691.011	0.0167410
691.090	0.0165524
691.168	0.0164996
691.246	0.0164919
691.324	0.0162518
691.402	0.0162442
691.480	0.0160792
691.558	0.0160201
691.636	0.0160582
691.715	0.0159816
691.793	0.0161073
691.871	0.0161701
691.949	0.0161383
692.027	0.0161119
692.105	0.0161411
692.183	0.0164589
692.261	0.0163599
692.340	0.0164423
692.418	0.0164117
692.496	0.0163767
692.574	0.0165696
692.652	0.0164176
692.730	0.0164449
692.808	0.0165630
692.886	0.0165353
692.965	0.0165856
693.043	0.0165881
693.121	0.0165800
693.199	0.0164272
693.277	0.0164821
693.355	0.0162592
693.433	0.0161161
693.511	0.0159882
693.590	0.0160652
693.668	0.0161081
693.746	0.0158824
693.824	0.0159457
693.902	0.0159016
693.980	0.0162446
694.058	0.0162874
694.136	0.0162072
694.215	0.0163403
694.293	0.0165001
694.371	0.0166776
694.449	0.0165600
694.527	0.0166859
694.605	0.0166951
694.683	0.0166867
694.761	0.0164165
694.840	0.0165329
694.918	0.0163911
694.996	0.0162463
695.074	0.0161513
695.152	0.0159338
695.230	0.0160602
695.308	0.0160249
695.386	0.0159646
695.465	0.0159686
695.543	0.0160410
695.621	0.0160013
695.699	0.0161005
695.777	0.0161257
695.855	0.0161887
695.933	0.0161746
696.011	0.0163517
696.090	0.0164559
696.168	0.0164429
696.246	0.0164182
696.324	0.0165366
696.402	0.0165514
696.480	0.0165399
696.558	0.0163647
696.636	0.0164529
696.715	0.0164308
696.793	0.0162484
696.871	0.0161552
696.949	0.0161824
697.027	0.0161349
697.105	0.0161223
697.183	0.0160454
697.261	0.0159302
697.340	0.0160448
697.418	0.0160953
697.496	0.0161149
697.574	0.0162305
697.652	0.0162025
697.730	0.0162505
697.808	0.0162716
697.886	0.0163764
697.965	0.0163563
698.043	0.0163506
698.121	0.0163126
698.199	0.0164372
698.277	0.0164886
698.355	0.0164401
698.433	0.0165112
698.511	0.0163644
698.590	0.0165049
698.668	0.0166814
698.746	0.0164571
698.824	0.0163708
698.902	0.0163349
698.980	0.0164429
699.058	0.0163174
699.136	0.0161256
699.215	0.0160381
699.293	0.0159459
699.371	0.0158718
699.449	0.0160320
699.527	0.0158849
699.605	0.0158920
699.683	0.0160142
699.761	0.0161697
699.840	0.0162281
699.918	0.0164703
699.996	0.0166941
700.074	0.0165339
700.152	0.0167424
700.230	0.0167715
700.308	0.0166106
700.386	0.0166364
700.465	0.0167110
700.543	0.0165262
700.621	0.0164007
700.699	0.0163397
700.777	0.0163830
700.855	0.0162098
700.933	0.0160583
701.011	0.0160104
701.090	0.0158546
701.168	0.0159676
701.246	0.0159052
701.324	0.0160194
701.402	0.0163230
701.480	0.0162213
701.558	0.0164111
701.636	0.0164751
701.715	0.0165302
701.793	0.0167281
701.871	0.0165616
701.949	0.0165519
702.027	0.0164473
702.105	0.0164503
702.183	0.0163250
702.261	0.0161782
702.340	0.0160503
702.418	0.0161903
702.496	0.0161319
702.574	0.0161293
702.652	0.0161423
702.730	0.0160692
702.808	0.0161569
702.886	0.0162398
702.965	0.0163967
703.043	0.0165488
703.121	0.0165517
703.199	0.0165186
703.277	0.0166293
703.355	0.0165965
703.433	0.0166442
703.511	0.0166831
703.590	0.0165326
703.668	0.0163931
703.746	0.0164613
703.824	0.0160829
703.902	0.0161556
703.980	0.0160342
704.058	0.0159950
704.136	0.0160918
704.215	0.0159622
704.293	0.0161224
704.371	0.0161000
704.449	0.0161456
704.527	0.0163772
704.605	0.0164964
704.683	0.0165381
704.761	0.0168338
704.840	0.0167990
704.918	0.0167934
704.996	0.0169115
705.074	0.0167737
705.152	0.0166893
705.230	0.0165149
705.308	0.0162932
705.386	0.0160040
705.465	0.0161111
705.543	0.0161645
705.621	0.0159260
705.699	0.0159535
705.777	0.0159598
705.855	0.0159459
705.933	0.0160248
706.011	0.0161404
706.090	0.0162506
706.168	0.0162415
706.246	0.0164418
706.324	0.0165640
706.402	0.0165305
706.480	0.0166815
706.558	0.0166605
706.636	0.0165233
706.715	0.0165847
706.793	0.0167573
706.871	0.0166821
706.949	0.0164903
707.027	0.0163837
707.105	0.0164791
707.183	0.0163406
707.261	0.0163622
707.340	0.0162345
707.418	0.0162140
707.496	0.0161420
707.574	0.0159476
707.652	0.0159702
707.730	0.0159832
707.808	0.0158984
707.886	0.0158634
707.965	0.0157848
708.043	0.0159483
708.121	0.0161454
708.199	0.0160398
708.277	0.0161887
708.355	0.0161943
708.433	0.0164283
708.511	0.0166985
708.590	0.0166492
708.668	0.0167815
708.746	0.0168639
708.824	0.0168832
708.902	0.0168629
708.980	0.0166749
709.058	0.0167145
709.136	0.0165982
709.215	0.0164057
709.293	0.0163534
709.371	0.0161340
709.449	0.0160767
709.527	0.0158361
709.605	0.0159421
709.683	0.0160163
709.761	0.0159862
709.840	0.0160468
709.918	0.0161684
709.996	0.0163284
710.074	0.0164337
710.152	0.0165829
710.230	0.0166737
710.308	0.0164590
710.386	0.0166299
710.465	0.0166446
710.543	0.0164928
710.621	0.0164890
710.699	0.0164777
710.777	0.0163316
710.855	0.0163006
710.933	0.0161814
711.011	0.0161018
711.090	0.0160034
711.168	0.0159953
711.246	0.0160256
711.324	0.0160230
711.402	0.0159985
711.480	0.0159464
711.558	0.0160328
711.636	0.0161267
711.715	0.0162320
711.793	0.0162975
711.871	0.0161430
711.949	0.0162859
712.027	0.0162543
712.105	0.0163044
712.183	0.0163348
712.261	0.0163156
712.340	0.0163890
712.418	0.0164495
712.496	0.0164326
712.574	0.0165087
712.652	0.0164111
712.730	0.0162899
712.808	0.0162801
712.886	0.0162319
712.965	0.0162296
713.043	0.0162071
713.121	0.0163425
713.199	0.0162688
713.277	0.0164397
713.355	0.0163866
713.433	0.0162756
713.511	0.0165685
713.590	0.0165840
713.668	0.0164632
713.746	0.0166614
713.824	0.0165775
713.902	0.0164594
713.980	0.0164026
714.058	0.0162967
714.136	0.0161261
714.215	0.0162806
714.293	0.0162570
714.371	0.0162878
714.449	0.0162464
714.527	0.0162398
714.605	0.0163602
714.683	0.0164433
714.761	0.0163494
714.840	0.0164856
714.918	0.0164864
714.996	0.0163732
715.074	0.0165279
715.152	0.0164258
715.230	0.0163850
715.308	0.0162759
715.386	0.0162286
715.465	0.0161500
715.543	0.0162054
715.621	0.0160064
715.699	0.0161551
715.777	0.0160959
715.855	0.0163204
715.933	0.0162498
716.011	0.0162337
716.090	0.0164896
716.168	0.0165329
716.246	0.0164556
716.324	0.0165096
716.402	0.0165088
716.480	0.0165393
716.558	0.0164017
716.636	0.0162852
716.715	0.0162592
716.793	0.0161604
716.871	0.0159150
716.949	0.0158099
717.027	0.0158820
717.105	0.0157424
717.183	0.0157652
717.261	0.0158261
717.340	0.0158935
717.418	0.0159435
717.496	0.0159977
717.574	0.0161588
717.652	0.0163863
717.730	0.0164473
717.808	0.0165084
717.886	0.0166473
717.965	0.0168684
718.043	0.0169685
718.121	0.0170400
718.199	0.0170938
718.277	0.0170646
718.355	0.0168987
718.433	0.0169849
718.511	0.0168913
718.590	0.0168714
718.668	0.0168110
718.746	0.0166530
718.824	0.0164555
718.902	0.0163017
718.980	0.0162044
719.058	0.0160636
719.136	0.0160003
719.215	0.0157410
719.293	0.0157029
719.371	0.0156299
719.449	0.0155396
719.527	0.0155156
719.605	0.0155461
719.683	0.0154547
719.761	0.0155415
719.840	0.0157025
719.918	0.0159654
719.996	0.0159285
720.074	0.0161906
720.152	0.0161588
720.230	0.0164245
720.308	0.0166095
720.386	0.0166415
720.465	0.0167947
720.543	0.0168619
720.621	0.0169040
720.699	0.0169097
720.777	0.0170069
720.855	0.0170303
720.933	0.0169086
721.011	0.0170634
721.090	0.0168749
721.168	0.0168035
721.246	0.0167690
721.324	0.0166063
721.402	0.0167032
721.480	0.0165089
721.558	0.0162265
721.636	0.0161804
721.715	0.0160692
721.793	0.0158781
721.871	0.0157546
721.949	0.0156822
722.027	0.0156300
722.105	0.0157013
722.183	0.0156092
722.261	0.0156810
722.340	0.0157589
722.418	0.0159335
722.496	0.0158704
722.574	0.0160493
722.652	0.0159162
722.730	0.0160427
722.808	0.0160825
722.886	0.0160953
722.965	0.0161361
723.043	0.0159986
723.121	0.0161382
723.199	0.0162374
723.277	0.0161691
723.355	0.0162847
723.433	0.0162807
723.511	0.0163787
723.590	0.0165057
723.668	0.0165036
723.746	0.0167888
723.824	0.0167220
723.902	0.0167465
723.980	0.0167455
724.058	0.0169203
724.136	0.0169220
724.215	0.0168349
724.293	0.0168397
724.371	0.0167238
724.449	0.0166812
724.527	0.0164719
724.605	0.0163531
724.683	0.0163538
724.761	0.0161990
724.840	0.0160850
724.918	0.0162208
724.996	0.0161958
725.074	0.0161308
725.152	0.0160638
725.230	0.0160418
725.308	0.0161799
725.386	0.0160445
725.465	0.0160485
725.543	0.0160133
725.621	0.0163019
725.699	0.0163445
725.777	0.0162391
725.855	0.0163989
725.933	0.0163179
726.011	0.0162122
726.090	0.0163248
726.168	0.0163116
726.246	0.0162711
726.324	0.0162402
726.402	0.0161404
726.480	0.0160968
726.558	0.0160411
726.636	0.0160199
726.715	0.0160866
726.793	0.0161755
726.871	0.0160851
726.949	0.0161681
727.027	0.0162658
727.105	0.0161189
727.183	0.0162884
727.261	0.0163582
727.340	0.0162510
727.418	0.0162651
727.496	0.0163911
727.574	0.0164652
727.652	0.0164481
727.730	0.0164902
727.808	0.0165082
727.886	0.0164055
727.965	0.0163649
728.043	0.0160781
728.121	0.0160725
728.199	0.0161876
728.277	0.0160976
728.355	0.0159826
728.433	0.0158756
728.511	0.0159772
728.590	0.0159296
728.668	0.0158797
728.746	0.0158809
728.824	0.0160444
728.902	0.0160077
728.980	0.0161120
729.058	0.0162510
729.136	0.0162061
729.215	0.0164302
729.293	0.0163525
729.371	0.0163554
729.449	0.0164069
729.527	0.0164910
729.605	0.0164816
729.683	0.0165584
729.761	0.0167410
729.840	0.0166408
729.918	0.0166154
729.996	0.0165966
730.074	0.0166599
730.152	0.0166144
730.230	0.0166296
730.308	0.0166429
730.386	0.0165647
730.465	0.0164543
730.543	0.0165358
730.621	0.0165002
730.699	0.0164369
730.777	0.0165549
730.855	0.0165730
730.933	0.0167628
731.011	0.0166669
731.090	0.0167253
731.168	0.0168494
731.246	0.0166328
731.324	0.0166901
731.402	0.0167633
731.480	0.0166120
731.558	0.0165977
731.636	0.0165688
731.715	0.0165205
731.793	0.0163726
731.871	0.0163104
731.949	0.0161482
732.027	0.0162743
732.105	0.0160017
732.183	0.0159444
732.261	0.0159945
732.340	0.0158408
732.418	0.0156538
732.496	0.0158022
732.574	0.0157287
732.652	0.0159020
732.730	0.0157481
732.808	0.0158060
732.886	0.0158184
732.965	0.0157069
733.043	0.0157365
733.121	0.0157556
733.199	0.0157234
733.277	0.0156388
733.355	0.0157259
733.433	0.0155471
733.511	0.0156513
733.590	0.0156790
733.668	0.0156071
733.746	0.0156834
733.824	0.0158244
733.902	0.0160658
733.980	0.0160726
734.058	0.0162145
734.136	0.0163706
734.215	0.0165599
734.293	0.0167767
734.371	0.0168198
734.449	0.0169978
734.527	0.0170926
734.605	0.0172331
734.683	0.0173972
734.761	0.0175066
734.840	0.0176110
734.918	0.0176134
734.996	0.0173925
735.074	0.0174982
735.152	0.0175681
735.230	0.0175893
735.308	0.0174147
735.386	0.0173917
735.465	0.0172495
735.543	0.0171009
735.621	0.0169654
735.699	0.0166711
735.777	0.0165627
735.855	0.0164150
735.933	0.0161231
736.011	0.0159846
736.090	0.0157351
736.168	0.0155608
736.246	0.0152463
736.324	0.0152275
736.402	0.0151231
736.480	0.0151118
736.558	0.0149350
736.636	0.0150731
736.715	0.0150901
736.793	0.0151480
736.871	0.0152962
736.949	0.0153020
737.027	0.0156974
737.105	0.0156802
737.183	0.0157887
737.261	0.0160306
737.340	0.0160612
737.418	0.0161508
737.496	0.0163036
737.574	0.0163949
737.652	0.0163983
737.730	0.0164587
737.808	0.0163048
737.886	0.0164133
737.965	0.0164789
738.043	0.0164584
738.121	0.0166172
738.199	0.0166393
738.277	0.0165694
738.355	0.0168098
738.433	0.0168163
738.511	0.0168385
738.590	0.0168324
738.668	0.0168665
738.746	0.0169902
738.824	0.0168914
738.902	0.0169417
738.980	0.0171204
739.058	0.0171291
739.136	0.0170515
739.215	0.0170924
739.293	0.0170573
739.371	0.0171383
739.449	0.0169754
739.527	0.0170144
739.605	0.0169212
739.683	0.0168407
739.761	0.0167024
739.840	0.0166737
739.918	0.0164263
739.996	0.0164651
740.074	0.0163337
740.152	0.0161565
740.230	0.0160367
740.308	0.0158184
740.386	0.0157530
740.465	0.0156283
740.543	0.0153477
740.621	0.0151775
740.699	0.0150578
740.777	0.0149959
740.855	0.0147990
740.933	0.0148571
741.011	0.0149316
741.090	0.0148914
741.168	0.0149810
741.246	0.0151054
741.324	0.0151797
741.402	0.0153645
741.480	0.0155682
741.558	0.0155666
741.636	0.0158191
741.715	0.0158079
741.793	0.0162673
741.871	0.0163023
741.949	0.0162709
742.027	0.0164912
742.105	0.0167461
742.183	0.0167983
742.261	0.0170524
742.340	0.0171329
742.418	0.0173164
742.496	0.0174418
742.574	0.0174902
742.652	0.0175011
742.730	0.0175076
742.808	0.0175392
742.886	0.0173273
742.965	0.0174579
743.043	0.0173534
743.121	0.0172980
743.199	0.0173568
743.277	0.0170549
743.355	0.0171877
743.433	0.0172073
743.511	0.0172549
743.590	0.0170885
743.668	0.0170509
743.746	0.0169937
743.824	0.0169682
743.902	0.0170452
743.980	0.0168956
744.058	0.0168525
744.136	0.0164941
744.215	0.0164236
744.293	0.0163640
744.371	0.0160723
744.449	0.0159171
744.527	0.0157193
744.605	0.0156347
744.683	0.0154830
744.761	0.0153024
744.840	0.0152562
744.918	0.0151530
744.996	0.0150478
745.074	0.0148310
745.152	0.0147176
745.230	0.0148659
745.308	0.0149802
745.386	0.0148357
745.465	0.0148507
745.543	0.0150880
745.621	0.0150607
745.699	0.0152886
745.777	0.0151324
745.855	0.0154234
745.933	0.0156928
746.011	0.0157768
746.090	0.0159198
746.168	0.0159741
746.246	0.0160857
746.324	0.0163985
746.402	0.0163323
746.480	0.0166263
746.558	0.0166384
746.636	0.0167096
746.715	0.0168358
746.793	0.0168956
746.871	0.0169099
746.949	0.0168305
747.027	0.0169293
747.105	0.0169915
747.183	0.0169401
747.261	0.0168571
747.340	0.0169515
747.418	0.0169411
747.496	0.0169498
747.574	0.0168655
747.652	0.0167329
747.730	0.0169192
747.808	0.0169370
747.886	0.0169883
747.965	0.0170418
748.043	0.0170625
748.121	0.0170505
748.199	0.0172644
748.277	0.0174133
748.355	0.0172783
748.433	0.0173264
748.511	0.0173991
748.590	0.0174028
748.668	0.0173636
748.746	0.0171932
748.824	0.0170885
748.902	0.0168872
748.980	0.0169666
749.058	0.0168149
749.136	0.0164276
749.215	0.0165445
749.293	0.0163533
749.371	0.0161328
749.449	0.0161404
749.527	0.0158713
749.605	0.0156295
749.683	0.0155996
749.761	0.0155386
749.840	0.0153954
749.918	0.0152766
749.996	0.0152988
750.074	0.0152522
750.152	0.0150504
750.230	0.0149157
750.308	0.0149730
750.386	0.0148212
750.465	0.0147335
750.543	0.0146898
750.621	0.0148722
750.699	0.0147571
750.777	0.0147977
750.855	0.0149022
750.933	0.0149780
751.011	0.0151050
751.090	0.0151025
751.168	0.0154231
751.246	0.0156342
751.324	0.0158565
751.402	0.0160742
751.480	0.0161482
751.558	0.0164941
751.636	0.0167015
751.715	0.0167808
751.793	0.0169673
751.871	0.0171001
751.949	0.0171368
752.027	0.0173268
752.105	0.0173034
752.183	0.0172453
752.261	0.0172958
752.340	0.0175272
752.418	0.0175365
752.496	0.0173804
752.574	0.0172860
752.652	0.0174340
752.730	0.0173528
752.808	0.0172064
752.886	0.0172230
752.965	0.0172541
753.043	0.0171135
753.121	0.0171245
753.199	0.0171176
753.277	0.0170558
753.355	0.0168553
753.433	0.0167692
753.511	0.0169363
753.590	0.0168021
753.668	0.0167900
753.746	0.0166515
753.824	0.0164967
753.902	0.0164590
753.980	0.0163625
754.058	0.0163158
754.136	0.0160693
754.215	0.0160932
754.293	0.0161309
754.371	0.0160744
754.449	0.0160822
754.527	0.0160701
754.605	0.0161398
754.683	0.0160438
754.761	0.0161407
754.840	0.0160567
754.918	0.0160181
754.996	0.0159995
755.074	0.0159528
755.152	0.0159669
755.230	0.0160255
755.308	0.0160205
755.386	0.0158154
755.465	0.0158606
755.543	0.0159851
755.621	0.0160419
755.699	0.0160455
755.777	0.0160799
755.855	0.0159511
755.933	0.0160046
756.011	0.0160455
756.090	0.0161436
756.168	0.0160753
756.246	0.0161835
756.324	0.0159978
756.402	0.0160972
756.480	0.0160189
756.558	0.0159315
756.636	0.0158397
756.715	0.0156880
756.793	0.0158099
756.871	0.0156861
756.949	0.0156036
757.027	0.0155067
757.105	0.0157445
757.183	0.0156009
757.261	0.0155459
757.340	0.0156603
757.418	0.0156948
757.496	0.0158552
757.574	0.0158919
757.652	0.0162920
757.730	0.0164143
757.808	0.0166051
757.886	0.0167589
757.965	0.0167844
758.043	0.0171703
758.121	0.0173206
758.199	0.0174557
758.277	0.0175103
758.355	0.0175284
758.433	0.0175434
758.511	0.0179425
758.590	0.0177219
758.668	0.0176788
758.746	0.0176137
758.824	0.0175309
758.902	0.0174437
758.980	0.0172769
759.058	0.0170351
759.136	0.0168383
759.215	0.0167023
759.293	0.0166620
759.371	0.0164049
759.449	0.0161734
759.527	0.0159556
759.605	0.0160349
759.683	0.0158476
759.761	0.0156243
759.840	0.0155481
759.918	0.0154937
759.996	0.0155677
760.074	0.0154531
760.152	0.0154329
760.230	0.0155727
760.308	0.0156366
760.386	0.0155247
760.465	0.0157509
760.543	0.0158250
760.621	0.0158212
760.699	0.0161250
760.777	0.0161581
760.855	0.0162521
760.933	0.0163416
761.011	0.0163760
761.090	0.0164270
761.168	0.0165190
761.246	0.0166399
761.324	0.0165911
761.402	0.0167559
761.480	0.0167165
761.558	0.0166711
761.636	0.0168343
761.715	0.0167988
761.793	0.0169328
761.871	0.0169587
761.949	0.0168970
762.027	0.0168964
762.105	0.0167422
762.183	0.0166672
762.261	0.0167171
762.340	0.0166666
762.418	0.0164742
762.496	0.0162504
762.574	0.0162623
762.652	0.0162784
762.730	0.0159553
762.808	0.0157553
762.886	0.0154996
762.965	0.0153217
763.043	0.0151469
763.121	0.0149083
763.199	0.0147485
763.277	0.0147382
763.355	0.0145751
763.433	0.0145256
763.511	0.0146294
763.590	0.0144936
763.668	0.0147474
763.746	0.0148425
763.824	0.0151021
763.902	0.0155931
763.980	0.0157802
764.058	0.0161567
764.136	0.0166052
764.215	0.0170277
764.293	0.0173930
764.371	0.0177367
764.449	0.0180174
764.527	0.0182171
764.605	0.0184692
764.683	0.0186683
764.761	0.0186234
764.840	0.0185937
764.918	0.0183573
764.996	0.0181358
765.074	0.0180285
765.152	0.0177398
765.230	0.0174478
765.308	0.0169266
765.386	0.0166338
765.465	0.0163634
765.543	0.0159898
765.621	0.0156856
765.699	0.0154877
765.777	0.0153872
765.855	0.0153013
765.933	0.0151795
766.011	0.0153419
766.090	0.0153653
766.168	0.0155533
766.246	0.0156315
766.324	0.0157054
766.402	0.0159059
766.480	0.0162339
766.558	0.0163115
766.636	0.0164966
766.715	0.0165372
766.793	0.0166059
766.871	0.0167128
766.949	0.0168363
767.027	0.0167095
767.105	0.0167623
767.183	0.0167505
767.261	0.0166293
767.340	0.0166369
767.418	0.0166759
767.496	0.0165827
767.574	0.0163748
767.652	0.0163580
767.730	0.0165673
767.808	0.0164963
767.886	0.0163768
767.965	0.0163739
768.043	0.0163698
768.121	0.0164739
768.199	0.0164244
768.277	0.0163129
768.355	0.0165005
768.433	0.0162351
768.511	0.0160587
768.590	0.0162009
768.668	0.0161057
768.746	0.0160449
768.824	0.0159087
768.902	0.0158611
768.980	0.0155420
769.058	0.0155779
769.136	0.0153368
769.215	0.0150454
769.293	0.0149929
769.371	0.0148479
769.449	0.0144810
769.527	0.0144300
769.605	0.0145150
769.683	0.0144208
769.761	0.0144171
769.840	0.0144759
769.918	0.0148660
769.996	0.0152229
770.074	0.0157169
770.152	0.0160143
770.230	0.0164878
770.308	0.0168961
770.386	0.0175533
770.465	0.0178441
770.543	0.0181905
770.621	0.0183897
770.699	0.0186954
770.777	0.0188970
770.855	0.0189397
770.933	0.0189220
771.011	0.0186573
771.090	0.0186185
771.168	0.0184796
771.246	0.0180086
771.324	0.0178114
771.402	0.0174976
771.480	0.0169486
771.558	0.0166534
771.636	0.0162292
771.715	0.0160847
771.793	0.0159265
771.871	0.0155598
771.949	0.0156287
772.027	0.0155809
772.105	0.0155957
772.183	0.0155516
772.261	0.0156029
772.340	0.0157960
772.418	0.0157583
772.496	0.0158148
772.574	0.0160976
772.652	0.0159951
772.730	0.0160389
772.808	0.0160441
772.886	0.0161150
772.965	0.0160622
773.043	0.0160735
773.121	0.0161175
773.199	0.0160042
773.277	0.0162032
773.355	0.0160974
773.433	0.0161827
773.511	0.0162560
773.590	0.0162568
773.668	0.0160970
773.746	0.0163377
773.824	0.0162893
773.902	0.0163013
773.980	0.0163596
774.058	0.0163956
774.136	0.0164566
774.215	0.0164785
774.293	0.0163866
774.371	0.0163518
774.449	0.0164384
774.527	0.0164423
774.605	0.0163977
774.683	0.0163214
774.761	0.0164077
774.840	0.0163460
774.918	0.0162709
774.996	0.0162913
775.074	0.0159955
775.152	0.0160802
775.230	0.0158595
775.308	0.0156551
775.386	0.0154500
775.465	0.0153127
775.543	0.0152907
775.621	0.0151434
775.699	0.0148727
775.777	0.0149020
775.855	0.0149072
775.933	0.0151198
776.011	0.0152034
776.090	0.0154015
776.168	0.0155363
776.246	0.0157497
776.324	0.0162398
776.402	0.0164085
776.480	0.0167178
776.558	0.0170252
776.636	0.0173280
776.715	0.0176744
776.793	0.0177888
776.871	0.0180036
776.949	0.0182796
777.027	0.0182536
777.105	0.0183585
777.183	0.0182139
777.261	0.0179969
777.340	0.0179382
777.418	0.0177521
777.496	0.0174700
777.574	0.0172872
777.652	0.0170122
777.730	0.0169203
777.808	0.0164972
777.886	0.0162022
777.965	0.0160165
778.043	0.0159395
778.121	0.0157878
778.199	0.0155630
778.277	0.0155402
778.355	0.0153820
778.433	0.0152849
778.511	0.0152652
778.590	0.0152147
778.668	0.0152854
778.746	0.0152763
778.824	0.0152983
778.902	0.0153890
778.980	0.0154665
779.058	0.0155785
779.136	0.0157882
779.215	0.0159791
779.293	0.0159774
779.371	0.0162003
779.449	0.0162788
779.527	0.0162962
779.605	0.0164767
779.683	0.0167030
779.761	0.0166082
779.840	0.0166109
779.918	0.0167448
779.996	0.0167501
780.074	0.0168220
780.152	0.0166483
780.230	0.0165973
780.308	0.0166824
780.386	0.0167024
780.465	0.0167654
780.543	0.0164661
780.621	0.0165258
780.699	0.0163792
780.777	0.0165272
780.855	0.0164622
780.933	0.0163294
781.011	0.0161337
781.090	0.0162663
781.168	0.0161239
781.246	0.0162029
781.324	0.0159752
781.402	0.0158913
781.480	0.0157562
781.558	0.0156528
781.636	0.0152981
781.715	0.0153802
781.793	0.0152316
781.871	0.0150474
781.949	0.0152342
782.027	0.0152032
782.105	0.0152763
782.183	0.0151968
782.261	0.0153503
782.340	0.0154481
782.418	0.0154807
782.496	0.0157003
782.574	0.0160853
782.652	0.0162475
782.730	0.0165498
782.808	0.0168343
782.886	0.0170171
782.965	0.0172613
783.043	0.0175174
783.121	0.0176928
783.199	0.0178730
783.277	0.0179742
783.355	0.0179713
783.433	0.0179324
783.511	0.0178552
783.590	0.0177686
783.668	0.0176566
783.746	0.0175294
783.824	0.0173480
783.902	0.0170808
783.980	0.0170019
784.058	0.0167929
784.136	0.0165050
784.215	0.0163966
784.293	0.0163142
784.371	0.0162724
784.449	0.0161130
784.527	0.0158910
784.605	0.0158512
784.683	0.0158757
784.761	0.0157655
784.840	0.0156717
784.918	0.0157259
784.996	0.0155553
785.074	0.0155936
785.152	0.0156093
785.230	0.0156075
785.308	0.0158751
785.386	0.0159718
785.465	0.0158379
785.543	0.0160426
785.621	0.0159161
785.699	0.0160878
785.777	0.0160607
785.855	0.0160024
785.933	0.0162286
786.011	0.0160366
786.090	0.0163062
786.168	0.0162915
786.246	0.0162733
786.324	0.0163512
786.402	0.0162482
786.480	0.0163647
786.558	0.0162099
786.636	0.0163490
786.715	0.0163657
786.793	0.0167080
786.871	0.0164178
786.949	0.0163811
787.027	0.0166922
787.105	0.0166586
787.183	0.0165726
787.261	0.0165191
787.340	0.0164970
787.418	0.0164558
787.496	0.0164308
787.574	0.0163869
787.652	0.0162445
787.730	0.0162363
787.808	0.0161588
787.886	0.0159549
787.965	0.0157648
788.043	0.0157903
788.121	0.0157581
788.199	0.0155598
788.277	0.0154359
788.355	0.0154764
788.433	0.0155896
788.511	0.0155717
788.590	0.0155516
788.668	0.0158127
788.746	0.0158338
788.824	0.0159934
788.902	0.0160642
788.980	0.0163472
789.058	0.0164639
789.136	0.0166643
789.215	0.0168547
789.293	0.0170782
789.371	0.0170988
789.449	0.0171283
789.527	0.0172009
789.605	0.0172343
789.683	0.0173215
789.761	0.0172755
789.840	0.0170649
789.918	0.0170869
789.996	0.0170525
790.074	0.0169777
790.152	0.0168570
790.230	0.0165047
790.308	0.0164567
790.386	0.0166150
790.465	0.0164536
790.543	0.0163567
790.621	0.0162419
790.699	0.0162138
790.777	0.0162440
790.855	0.0160996
790.933	0.0161069
791.011	0.0159234
791.090	0.0160578
791.168	0.0161811
791.246	0.0161813
791.324	0.0161352
791.402	0.0160678
791.480	0.0159951
791.558	0.0161243
791.636	0.0161610
791.715	0.0161550
791.793	0.0159857
791.871	0.0161086
791.949	0.0161090
792.027	0.0161733
792.105	0.0159767
792.183	0.0160006
792.261	0.0160097
792.340	0.0160550
792.418	0.0162241
792.496	0.0160542
792.574	0.0162515
792.652	0.0162103
792.730	0.0162978
792.808	0.0162760
792.886	0.0164128
792.965	0.0165160
793.043	0.0165022
793.121	0.0163929
793.199	0.0164556
793.277	0.0163948
793.355	0.0165647
793.433	0.0165131
793.511	0.0164217
793.590	0.0163227
793.668	0.0164009
793.746	0.0164193
793.824	0.0163491
793.902	0.0161874
793.980	0.0160874
794.058	0.0158382
794.136	0.0158527
794.215	0.0156649
794.293	0.0156654
794.371	0.0156413
794.449	0.0156083
794.527	0.0156942
794.605	0.0156007
794.683	0.0155704
794.761	0.0156216
794.840	0.0156854
794.918	0.0158458
794.996	0.0160420
795.074	0.0160825
795.152	0.0163041
795.230	0.0164496
795.308	0.0166644
795.386	0.0168694
795.465	0.0169786
795.543	0.0171941
795.621	0.0172512
795.699	0.0172859
795.777	0.0173804
795.855	0.0172689
795.933	0.0170866
796.011	0.0171001
796.090	0.0171458
796.168	0.0169971
796.246	0.0167742
796.324	0.0167136
796.402	0.0165910
796.480	0.0163812
796.558	0.0164302
796.636	0.0162847
796.715	0.0161229
796.793	0.0161397
796.871	0.0160763
796.949	0.0160998
797.027	0.0160719
797.105	0.0160660
797.183	0.0162322
797.261	0.0162226
797.340	0.0160274
797.418	0.0161128
797.496	0.0161630
797.574	0.0162074
797.652	0.0161102
797.730	0.0161738
797.808	0.0161584
797.886	0.0160428
797.965	0.0162200
798.043	0.0162090
798.121	0.0161134
798.199	0.0158980
798.277	0.0160122
798.355	0.0160654
798.433	0.0160064
798.511	0.0159094
798.590	0.0160670
798.668	0.0159624
798.746	0.0161192
798.824	0.0161530
798.902	0.0160574
798.980	0.0161626
799.058	0.0162795
799.136	0.0163760
799.215	0.0163624
799.293	0.0163358
799.371	0.0164571
799.449	0.0164350
799.527	0.0165951
799.605	0.0164740
799.683	0.0163796
799.761	0.0164711
799.840	0.0164580
799.918	0.0165501
799.996	0.0164295
800.074	0.0162836
800.152	0.0163929
800.230	0.0162292
800.308	0.0161266
800.386	0.0161102
800.465	0.0161598
800.543	0.0160888
800.621	0.0160784
800.699	0.0158502
800.777	0.0157655
800.855	0.0157722
800.933	0.0158172
801.011	0.0157356
801.090	0.0158868
801.168	0.0160471
801.246	0.0159113
801.324	0.0160823
801.402	0.0160925
801.480	0.0161504
801.558	0.0163078
801.636	0.0165025
801.715	0.0164304
801.793	0.0165614
801.871	0.0166404
801.949	0.0166637
802.027	0.0166543
802.105	0.0166930
802.183	0.0166976
802.261	0.0167406
802.340	0.0167046
802.418	0.0165096
802.496	0.0165324
802.574	0.0165628
802.652	0.0164186
802.730	0.0162767
802.808	0.0161849
802.886	0.0163142
802.965	0.0163087
803.043	0.0162024
803.121	0.0161939
803.199	0.0163259
803.277	0.0163605
803.355	0.0162750
803.433	0.0163217
803.511	0.0163294
803.590	0.0164948
803.668	0.0163955
803.746	0.0163657
803.824	0.0165166
803.902	0.0163725
803.980	0.0162723
804.058	0.0165298
804.136	0.0164613
804.215	0.0163975
804.293	0.0165826
804.371	0.0164768
804.449	0.0165595
804.527	0.0163779
804.605	0.0162122
804.683	0.0163308
804.761	0.0163478
804.840	0.0162855
804.918	0.0162831
804.996	0.0162255
805.074	0.0162901
805.152	0.0161879
805.230	0.0162257
805.308	0.0163091
805.386	0.0161620
805.465	0.0160301
805.543	0.0161318
805.621	0.0161237
805.699	0.0162173
805.777	0.0161803
805.855	0.0162208
805.933	0.0163724
806.011	0.0162384
806.090	0.0161040
806.168	0.0161944
806.246	0.0162342
806.324	0.0162174
806.402	0.0162438
806.480	0.0162431
806.558	0.0162220
806.636	0.0161911
806.715	0.0161243
806.793	0.0161093
806.871	0.0160132
806.949	0.0160249
807.027	0.0158974
807.105	0.0159981
807.183	0.0160716
807.261	0.0160594
807.340	0.0161027
807.418	0.0161095
807.496	0.0162138
807.574	0.0163199
807.652	0.0163252
807.730	0.0162994
807.808	0.0165321
807.886	0.0165984
807.965	0.0166404
808.043	0.0166621
808.121	0.0167624
808.199	0.0167915
808.277	0.0168601
808.355	0.0167658
808.433	0.0166849
808.511	0.0168132
808.590	0.0168033
808.668	0.0166615
808.746	0.0166795
808.824	0.0164651
808.902	0.0165308
808.980	0.0165212
809.058	0.0165507
809.136	0.0164397
809.215	0.0163136
809.293	0.0163796
809.371	0.0162055
809.449	0.0162399
809.527	0.0161054
809.605	0.0160362
809.683	0.0161349
809.761	0.0159946
809.840	0.0160755
809.918	0.0160783
809.996	0.0160880
810.074	0.0161085
810.152	0.0159892
810.230	0.0160975
810.308	0.0161673
810.386	0.0159885
810.465	0.0163129
810.543	0.0162154
810.621	0.0162845
810.699	0.0161728
810.777	0.0162700
810.855	0.0163400
810.933	0.0163406
811.011	0.0164716
811.090	0.0163319
811.168	0.0163967
811.246	0.0162430
811.324	0.0162627
811.402	0.0163545
811.480	0.0164744
811.558	0.0163554
811.636	0.0163485
811.715	0.0164147
811.793	0.0163802
811.871	0.0163478
811.949	0.0164246
812.027	0.0164910
812.105	0.0163422
812.183	0.0163441
812.261	0.0163450
812.340	0.0164340
812.418	0.0163977
812.496	0.0162354
812.574	0.0162812
812.652	0.0163001
812.730	0.0160978
812.808	0.0160730
812.886	0.0159976
812.965	0.0161345
813.043	0.0159978
813.121	0.0160905
813.199	0.0159138
813.277	0.0158898
813.355	0.0159112
813.433	0.0159812
813.511	0.0160407
813.590	0.0159455
813.668	0.0159663
813.746	0.0160756
813.824	0.0160600
813.902	0.0160843
813.980	0.0161913
814.058	0.0163614
814.136	0.0164269
814.215	0.0165047
814.293	0.0165466
814.371	0.0164964
814.449	0.0165952
814.527	0.0166544
814.605	0.0168582
814.683	0.0167489
814.761	0.0165649
814.840	0.0166193
814.918	0.0167847
814.996	0.0167422
815.074	0.0167659
815.152	0.0168127
815.230	0.0165115
815.308	0.0166618
815.386	0.0165452
815.465	0.0164322
815.543	0.0165792
815.621	0.0163324
815.699	0.0162215
815.777	0.0161781
815.855	0.0161445
815.933	0.0161270
816.011	0.0161337
816.090	0.0160285
816.168	0.0159677
816.246	0.0160629
816.324	0.0159344
816.402	0.0160159
816.480	0.0160153
816.558	0.0159544
816.636	0.0161386
816.715	0.0161697
816.793	0.0160900
816.871	0.0161034
816.949	0.0162588
817.027	0.0162842
817.105	0.0163971
817.183	0.0163408
817.261	0.0164901
817.340	0.0165277
817.418	0.0164219
817.496	0.0164163
817.574	0.0163972
817.652	0.0162335
817.730	0.0163611
817.808	0.0163351
817.886	0.0163756
817.965	0.0161878
818.043	0.0161259
818.121	0.0161224
818.199	0.0161225
818.277	0.0162395
818.355	0.0161856
818.433	0.0162912
818.511	0.0162273
818.590	0.0163111
818.668	0.0162562
818.746	0.0161703
818.824	0.0161797
818.902	0.0163248
818.980	0.0162946
819.058	0.0162272
819.136	0.0162333
819.215	0.0162670
819.293	0.0162075
819.371	0.0162057
819.449	0.0161622
819.527	0.0161313
819.605	0.0160632
819.683	0.0161695
819.761	0.0160638
819.840	0.0160362
819.918	0.0160402
819.996	0.0162112
820.074	0.0161480
820.152	0.0160397
820.230	0.0162891
820.308	0.0162733
820.386	0.0161842
820.465	0.0164466
820.543	0.0164082
820.621	0.0165706
820.699	0.0164616
820.777	0.0165011
820.855	0.0165959
820.933	0.0166318
821.011	0.0166930
821.090	0.0167164
821.168	0.0167085
821.246	0.0166936
821.324	0.0165405
821.402	0.0165816
821.480	0.0165273
821.558	0.0165779
821.636	0.0163686
821.715	0.0164669
821.793	0.0163028
821.871	0.0161604
821.949	0.0161944
822.027	0.0161904
822.105	0.0161646
822.183	0.0161345
822.261	0.0160583
822.340	0.0160103
822.418	0.0160978
822.496	0.0162177
822.574	0.0161527
822.652	0.0162273
822.730	0.0161791
822.808	0.0164086
822.886	0.0162123
822.965	0.0162848
823.043	0.0162985
823.121	0.0164657
823.199	0.0162807
823.277	0.0163126
823.355	0.0163235
823.433	0.0162257
823.511	0.0162192
823.590	0.0162549
823.668	0.0162759
823.746	0.0162813
823.824	0.0160938
823.902	0.0160780
823.980	0.0162419
824.058	0.0161984
824.136	0.0161460
824.215	0.0161868
824.293	0.0161549
824.371	0.0161784
824.449	0.0163296
824.527	0.0162270
824.605	0.0162984
824.683	0.0161396
824.761	0.0161561
824.840	0.0162837
824.918	0.0163232
824.996	0.0164072
825.074	0.0163762
825.152	0.0164344
825.230	0.0162699
825.308	0.0163063
825.386	0.0161681
825.465	0.0162570
825.543	0.0162890
825.621	0.0161906
825.699	0.0163059
825.777	0.0161597
825.855	0.0162045
825.933	0.0161521
826.011	0.0161237
826.090	0.0161769
826.168	0.0162040
826.246	0.0161305
826.324	0.0161198
826.402	0.0161307
826.480	0.0161618
826.558	0.0161655
826.636	0.0163419
826.715	0.0162777
826.793	0.0164058
826.871	0.0163354
826.949	0.0164243
827.027	0.0166139
827.105	0.0165203
827.183	0.0166845
827.261	0.0166080
827.340	0.0166589
827.418	0.0166403
827.496	0.0167430
827.574	0.0166958
827.652	0.0167248
827.730	0.0166923
827.808	0.0165469
827.886	0.0165102
827.965	0.0165046
828.043	0.0166345
828.121	0.0165916
828.199	0.0163271
828.277	0.0163074
828.355	0.0162305
828.433	0.0162665
828.511	0.0161970
828.590	0.0160718
828.668	0.0160252
828.746	0.0160679
828.824	0.0159774
828.902	0.0161565
828.980	0.0159863
829.058	0.0161411
829.136	0.0161824
829.215	0.0160858
829.293	0.0159861
829.371	0.0160760
829.449	0.0161100
829.527	0.0160947
829.605	0.0161850
829.683	0.0160895
829.761	0.0161600
829.840	0.0161906
829.918	0.0163683
829.996	0.0161971
830.074	0.0162389
830.152	0.0161623
830.230	0.0162061
830.308	0.0162395
830.386	0.0162279
830.465	0.0162567
830.543	0.0162189
830.621	0.0162834
830.699	0.0162917
830.777	0.0163194
830.855	0.0163031
830.933	0.0163340
831.011	0.0163991
831.090	0.0164384
831.168	0.0165249
831.246	0.0165758
831.324	0.0166006
831.402	0.0165904
831.480	0.0165589
831.558	0.0165897
831.636	0.0165492
831.715	0.0166669
831.793	0.0165821
831.871	0.0166816
831.949	0.0165590
832.027	0.0165757
832.105	0.0164336
832.183	0.0166209
832.261	0.0165576
832.340	0.0163098
832.418	0.0162920
832.496	0.0163423
832.574	0.0161971
832.652	0.0162337
832.730	0.0162296
832.808	0.0162115
832.886	0.0161032
832.965	0.0159570
833.043	0.0160858
833.121	0.0160784
833.199	0.0160863
833.277	0.0159557
833.355	0.0160748
833.433	0.0159624
833.511	0.0161174
833.590	0.0161922
833.668	0.0161536
833.746	0.0161479
833.824	0.0161889
833.902	0.0161053
833.980	0.0163017
834.058	0.0162230
834.136	0.0163329
834.215	0.0164127
834.293	0.0162431
834.371	0.0162476
834.449	0.0164274
834.527	0.0162931
834.605	0.0163431
834.683	0.0163509
834.761	0.0165290
834.840	0.0164009
834.918	0.0163815
834.996	0.0164578
835.074	0.0163795
835.152	0.0162959
835.230	0.0163383
835.308	0.0162418
835.386	0.0163234
835.465	0.0164506
835.543	0.0163440
835.621	0.0164648
835.699	0.0165155
835.777	0.0164999
835.855	0.0164233
835.933	0.0164713
836.011	0.0165572
836.090	0.0165665
836.168	0.0164072
836.246	0.0163938
836.324	0.0163727
836.402	0.0164227
836.480	0.0164182
836.558	0.0164066
836.636	0.0162912
836.715	0.0161400
836.793	0.0161360
836.871	0.0163273
836.949	0.0161175
837.027	0.0160310
837.105	0.0159795
837.183	0.0161737
837.261	0.0160306
837.340	0.0159373
837.418	0.0160921
837.496	0.0159041
837.574	0.0159036
837.652	0.0161334
837.730	0.0160804
837.808	0.0160709
837.886	0.0162943
837.965	0.0163188
838.043	0.0162468
838.121	0.0160963
838.199	0.0163555
838.277	0.0163748
838.355	0.0164969
838.433	0.0165702
838.511	0.0165316
838.590	0.0166127
838.668	0.0165978
838.746	0.0165538
838.824	0.0164648
838.902	0.0165134
838.980	0.0163490
839.058	0.0165067
839.136	0.0163734
839.215	0.0164439
839.293	0.0165063
839.371	0.0163907
839.449	0.0164522
839.527	0.0164544
839.605	0.0165483
839.683	0.0164324
839.761	0.0163707
839.840	0.0164191
839.918	0.0164050
839.996	0.0163300
840.074	0.0163279
840.152	0.0163100
840.230	0.0162611
840.308	0.0164877
840.386	0.0164557
840.465	0.0164510
840.543	0.0164386
840.621	0.0164148
840.699	0.0162300
840.777	0.0163815
840.855	0.0163383
840.933	0.0163499
841.011	0.0160897
841.090	0.0161090
841.168	0.0162831
841.246	0.0160928
841.324	0.0161575
841.402	0.0161333
841.480	0.0160342
841.558	0.0161398
841.636	0.0160811
841.715	0.0161596
841.793	0.0160071
841.871	0.0160763
841.949	0.0161820
842.027	0.0161897
842.105	0.0160767
842.183	0.0161034
842.261	0.0161895
842.340	0.0163284
842.418	0.0163663
842.496	0.0162756
842.574	0.0163879
842.652	0.0163419
842.730	0.0162791
842.808	0.0164342
842.886	0.0163745
842.965	0.0163776
843.043	0.0164158
843.121	0.0163393
843.199	0.0164410
843.277	0.0163881
843.355	0.0163583
843.433	0.0162537
843.511	0.0163563
843.590	0.0163905
843.668	0.0165055
843.746	0.0162374
843.824	0.0163651
843.902	0.0163833
843.980	0.0164378
844.058	0.0164664
844.136	0.0165163
844.215	0.0164641
844.293	0.0166342
844.371	0.0165075
844.449	0.0164672
844.527	0.0163937
844.605	0.0165696
844.683	0.0166299
844.761	0.0164863
844.840	0.0164713
844.918	0.0165880
844.996	0.0163699
845.074	0.0162818
845.152	0.0164743
845.230	0.0163827
845.308	0.0162764
845.386	0.0163266
845.465	0.0161418
845.543	0.0163139
845.621	0.0163591
845.699	0.0163031
845.777	0.0161312
845.855	0.0161337
845.933	0.0161416
846.011	0.0161755
846.090	0.0160619
846.168	0.0161024
846.246	0.0161775
846.324	0.0162023
846.402	0.0161572
846.480	0.0161029
846.558	0.0160862
846.636	0.0160532
846.715	0.0161211
846.793	0.0161272
846.871	0.0160625
846.949	0.0161661
847.027	0.0159963
847.105	0.0160168
847.183	0.0161196
847.261	0.0160828
847.340	0.0159560
847.418	0.0162093
847.496	0.0160384
847.574	0.0162419
847.652	0.0160858
847.730	0.0162133
847.808	0.0162119
847.886	0.0162011
847.965	0.0161601
848.043	0.0161562
848.121	0.0163212
848.199	0.0162768
848.277	0.0163715
848.355	0.0164565
848.433	0.0164902
848.511	0.0164938
848.590	0.0164328
848.668	0.0166888
848.746	0.0166233
848.824	0.0165842
848.902	0.0166096
848.980	0.0165095
849.058	0.0166795
849.136	0.0166045
849.215	0.0166103
849.293	0.0166273
849.371	0.0165599
849.449	0.0165155
849.527	0.0165094
849.605	0.0166074
849.683	0.0166928
849.761	0.0165276
849.840	0.0165013
849.918	0.0165097
849.996	0.0164128
850.074	0.0164693
850.152	0.0163429
850.230	0.0163818
850.308	0.0164125
850.386	0.0162584
850.465	0.0162949
850.543	0.0162115
850.621	0.0162910
850.699	0.0163276
850.777	0.0162074
850.855	0.0160947
850.933	0.0162473
851.011	0.0161078
851.090	0.0162044
851.168	0.0162672
851.246	0.0160944
851.324	0.0160981
851.402	0.0162945
851.480	0.0160900
851.558	0.0161995
851.636	0.0162170
851.715	0.0161958
851.793	0.0163168
851.871	0.0160762
851.949	0.0162360
852.027	0.0162026
852.105	0.0162654
852.183	0.0162716
852.261	0.0163610
852.340	0.0163391
852.418	0.0163406
852.496	0.0163773
852.574	0.0163109
852.652	0.0161684
852.730	0.0162168
852.808	0.0161372
852.886	0.0161832
852.965	0.0161844
853.043	0.0161773
853.121	0.0161239
853.199	0.0160103
853.277	0.0162252
853.355	0.0161161
853.433	0.0161544
853.511	0.0162480
853.590	0.0161123
853.668	0.0160584
853.746	0.0162475
853.824	0.0161954
853.902	0.0162668
853.980	0.0162035
854.058	0.0162164
854.136	0.0163437
854.215	0.0164091
854.293	0.0163184
854.371	0.0164697
854.449	0.0165081
854.527	0.0164205
854.605	0.0165194
854.683	0.0165884
854.761	0.0166469
854.840	0.0166390
854.918	0.0167258
854.996	0.0165067
855.074	0.0165146
855.152	0.0164803
855.230	0.0165395
855.308	0.0165234
855.386	0.0165118
855.465	0.0163624
855.543	0.0165208
855.621	0.0164984
855.699	0.0164244
855.777	0.0163043
855.855	0.0164074
855.933	0.0163242
856.011	0.0162225
856.090	0.0162589
856.168	0.0162898
856.246	0.0162073
856.324	0.0162846
856.402	0.0163389
856.480	0.0161997
856.558	0.0160477
856.636	0.0160108
856.715	0.0160422
856.793	0.0160574
856.871	0.0161050
856.949	0.0159960
857.027	0.0159573
857.105	0.0162052
857.183	0.0160606
857.261	0.0160628
857.340	0.0161598
857.418	0.0160557
857.496	0.0161360
857.574	0.0160773
857.652	0.0160930
857.730	0.0160948
857.808	0.0163234
857.886	0.0162206
857.965	0.0163194
858.043	0.0163952
858.121	0.0162586
858.199	0.0162914
858.277	0.0164104
858.355	0.0164642
858.433	0.0165251
858.511	0.0164874
858.590	0.0163972
858.668	0.0163289
858.746	0.0163248
858.824	0.0162638
858.902	0.0163642
858.980	0.0162881
859.058	0.0162557
859.136	0.0163873
859.215	0.0163194
859.293	0.0162327
859.371	0.0161079
859.449	0.0162293
859.527	0.0162235
859.605	0.0161659
859.683	0.0162788
859.761	0.0161193
859.840	0.0162072
859.918	0.0162249
859.996	0.0161304
860.074	0.0161155
860.152	0.0162005
860.230	0.0163113
860.308	0.0162384
860.386	0.0161389
860.465	0.0161710
860.543	0.0163101
860.621	0.0162511
860.699	0.0163683
860.777	0.0163136
860.855	0.0163106
860.933	0.0163824
861.011	0.0165072
861.090	0.0164295
861.168	0.0165028
861.246	0.0165504
861.324	0.0165579
861.402	0.0164708
861.480	0.0164905
861.558	0.0164703
861.636	0.0165747
861.715	0.0166535
861.793	0.0165115
861.871	0.0165665
861.949	0.0164356
862.027	0.0165263
862.105	0.0165173
862.183	0.0164001
862.261	0.0163720
862.340	0.0162878
862.418	0.0163099
862.496	0.0162646
862.574	0.0162408
862.652	0.0161839
862.730	0.0162576
862.808	0.0162003
862.886	0.0160599
862.965	0.0161003
863.043	0.0162406
863.121	0.0161862
863.199	0.0162021
863.277	0.0161751
863.355	0.0163662
863.433	0.0162305
863.511	0.0162025
863.590	0.0162600
863.668	0.0162321
863.746	0.0162603
863.824	0.0162265
863.902	0.0163853
863.980	0.0163266
864.058	0.0163772
864.136	0.0161428
864.215	0.0162137
864.293	0.0162720
864.371	0.0163863
864.449	0.0163564
864.527	0.0161826
864.605	0.0163193
864.683	0.0162735
864.761	0.0162272
864.840	0.0162139
864.918	0.0162551
864.996	0.0161115
865.074	0.0161696
865.152	0.0164330
865.230	0.0162373
865.308	0.0162969
865.386	0.0163680
865.465	0.0161243
865.543	0.0161295
865.621	0.0162540
865.699	0.0162649
865.777	0.0160923
865.855	0.0161836
865.933	0.0162309
866.011	0.0160979
866.090	0.0160735
866.168	0.0161260
866.246	0.0161211
866.324	0.0160545
866.402	0.0160401
866.480	0.0160814
866.558	0.0161127
866.636	0.0162350
866.715	0.0162701
866.793	0.0162848
866.871	0.0163575
866.949	0.0162929
867.027	0.0164882
867.105	0.0164650
867.183	0.0164786
867.261	0.0165990
867.340	0.0166912
867.418	0.0165528
867.496	0.0166579
867.574	0.0166887
867.652	0.0167536
867.730	0.0166642
867.808	0.0166178
867.886	0.0166861
867.965	0.0167360
868.043	0.0165916
868.121	0.0166325
868.199	0.0166154
868.277	0.0167004
868.355	0.0165231
868.433	0.0163441
868.511	0.0163718
868.590	0.0161913
868.668	0.0161197
868.746	0.0162925
868.824	0.0161517
868.902	0.0159878
868.980	0.0159972
869.058	0.0161467
869.136	0.0159973
869.215	0.0158493
869.293	0.0160313
869.371	0.0159987
869.449	0.0160360
869.527	0.0158300
869.605	0.0160165
869.683	0.0160114
869.761	0.0159859
869.840	0.0160551
869.918	0.0161045
869.996	0.0162244
870.074	0.0160934
870.152	0.0161349
870.230	0.0161583
870.308	0.0162295
870.386	0.0161940
870.465	0.0163786
870.543	0.0163972
870.621	0.0162053
870.699	0.0163956
870.777	0.0162798
870.855	0.0164138
870.933	0.0163913
871.011	0.0162480
871.090	0.0163196
871.168	0.0163055
871.246	0.0163097
871.324	0.0163458
871.402	0.0163783
871.480	0.0163840
871.558	0.0163721
871.636	0.0163667
871.715	0.0163848
871.793	0.0162863
871.871	0.0164738
871.949	0.0164171
872.027	0.0162925
872.105	0.0162754
872.183	0.0163170
872.261	0.0163596
872.340	0.0162060
872.418	0.0162631
872.496	0.0162891
872.574	0.0161815
872.652	0.0162642
872.730	0.0162444
872.808	0.0162827
872.886	0.0162875
872.965	0.0162497
873.043	0.0164031
873.121	0.0162856
873.199	0.0164768
873.277	0.0164788
873.355	0.0165199
873.433	0.0163834
873.511	0.0165353
873.590	0.0163522
873.668	0.0165460
873.746	0.0165436
873.824	0.0165602
873.902	0.0165793
873.980	0.0165128
874.058	0.0164485
874.136	0.0165569
874.215	0.0165952
874.293	0.0164297
874.371	0.0164365
874.449	0.0164474
874.527	0.0164420
874.605	0.0162911
874.683	0.0163583
874.761	0.0164461
874.840	0.0162326
874.918	0.0162994
874.996	0.0162430
875.074	0.0161804
875.152	0.0161494
875.230	0.0160392
875.308	0.0160732
875.386	0.0160633
875.465	0.0160928
875.543	0.0160111
875.621	0.0159313
875.699	0.0160239
875.777	0.0160220
875.855	0.0160313
875.933	0.0161523
876.011	0.0160735
876.090	0.0160432
876.168	0.0161711
876.246	0.0162211
876.324	0.0162307
876.402	0.0163405
876.480	0.0163779
876.558	0.0163906
876.636	0.0163538
876.715	0.0164929
876.793	0.0164604
876.871	0.0163530
876.949	0.0164105
877.027	0.0164342
877.105	0.0164012
877.183	0.0164192
877.261	0.0164147
877.340	0.0163586
877.418	0.0164385
877.496	0.0163309
877.574	0.0162057
877.652	0.0162844
877.730	0.0161254
877.808	0.0161162
877.886	0.0162950
877.965	0.0162894
878.043	0.0162826
878.121	0.0162462
878.199	0.0162774
878.277	0.0161001
878.355	0.0161518
878.433	0.0161350
878.511	0.0162184
878.590	0.0161239
878.668	0.0162160
878.746	0.0164026
878.824	0.0162326
878.902	0.0164303
878.980	0.0163015
879.058	0.0163787
879.136	0.0163754
879.215	0.0164816
879.293	0.0163350
879.371	0.0163795
879.449	0.0163760
879.527	0.0163320
879.605	0.0165187
879.683	0.0164926
879.761	0.0162665
879.840	0.0164191
879.918	0.0165140
879.996	0.0165704
880.074	0.0164773
880.152	0.0164330
880.230	0.0165693
880.308	0.0164329
880.386	0.0162595
880.465	0.0164424
880.543	0.0163679
880.621	0.0165397
880.699	0.0164529
880.777	0.0164683
880.855	0.0164703
880.933	0.0162834
881.011	0.0162553
881.090	0.0162502
881.168	0.0162595
881.246	0.0162017
881.324	0.0161795
881.402	0.0161558
881.480	0.0160000
881.558	0.0160496
881.636	0.0162022
881.715	0.0162526
881.793	0.0159462
881.871	0.0160252
881.949	0.0160894
882.027	0.0160669
882.105	0.0160860
882.183	0.0160263
882.261	0.0160802
882.340	0.0161754
882.418	0.0160490
882.496	0.0161852
882.574	0.0160707
882.652	0.0162099
882.730	0.0161977
882.808	0.0161945
882.886	0.0160776
882.965	0.0161406
883.043	0.0161543
883.121	0.0161211
883.199	0.0161407
883.277	0.0163171
883.355	0.0162840
883.433	0.0162885
883.511	0.0162933
883.590	0.0162800
883.668	0.0164065
883.746	0.0164261
883.824	0.0164088
883.902	0.0163040
883.980	0.0162370
884.058	0.0162774
884.136	0.0163209
884.215	0.0162492
884.293	0.0163230
884.371	0.0163597
884.449	0.0163380
884.527	0.0162836
884.605	0.0163393
884.683	0.0163811
884.761	0.0163466
884.840	0.0164132
884.918	0.0162386
884.996	0.0162085
885.074	0.0164304
885.152	0.0163676
885.230	0.0163240
885.308	0.0161792
885.386	0.0162657
885.465	0.0165511
885.543	0.0163130
885.621	0.0162701
885.699	0.0163194
885.777	0.0164753
885.855	0.0164104
885.933	0.0164092
886.011	0.0163432
886.090	0.0163171
886.168	0.0164346
886.246	0.0164484
886.324	0.0164163
886.402	0.0162365
886.480	0.0162643
886.558	0.0162215
886.636	0.0162726
886.715	0.0160942
886.793	0.0162037
886.871	0.0163495
886.949	0.0161730
887.027	0.0162039
887.105	0.0160382
887.183	0.0162138
887.261	0.0162326
887.340	0.0160914
887.418	0.0160979
887.496	0.0163516
887.574	0.0162139
887.652	0.0162312
887.730	0.0162183
887.808	0.0162651
887.886	0.0162054
887.965	0.0162302
888.043	0.0162317
888.121	0.0163115
888.199	0.0162077
888.277	0.0162102
888.355	0.0160248
888.433	0.0160968
888.511	0.0161612
888.590	0.0162091
888.668	0.0161837
888.746	0.0160520
888.824	0.0161668
888.902	0.0162383
888.980	0.0161732
889.058	0.0160823
889.136	0.0161568
889.215	0.0161930
889.293	0.0163094
889.371	0.0163083
889.449	0.0162506
889.527	0.0162833
889.605	0.0162441
889.683	0.0163068
889.761	0.0163565
889.840	0.0163066
889.918	0.0163558
889.996	0.0164061
890.074	0.0162755
890.152	0.0163781
890.230	0.0163433
890.308	0.0163136
890.386	0.0162835
890.465	0.0163029
890.543	0.0164780
890.621	0.0163925
890.699	0.0163248
890.777	0.0163928
890.855	0.0163564
890.933	0.0163172
891.011	0.0162120
891.090	0.0163524
891.168	0.0163051
891.246	0.0161566
891.324	0.0162999
891.402	0.0163782
891.480	0.0162526
891.558	0.0162992
891.636	0.0163317
891.715	0.0164229
891.793	0.0164172
891.871	0.0164679
891.949	0.0164679
892.027	0.0164237
892.105	0.0163115
892.183	0.0163309
892.261	0.0162960
892.340	0.0162682
892.418	0.0163837
892.496	0.0162083
892.574	0.0162199
892.652	0.0161895
892.730	0.0162305
892.808	0.0162644
892.886	0.0161793
892.965	0.0162173
893.043	0.0162081
893.121	0.0160993
893.199	0.0162296
893.277	0.0162503
893.355	0.0161745
893.433	0.0160679
893.511	0.0160555
893.590	0.0162640
893.668	0.0161058
893.746	0.0162256
893.824	0.0163046
893.902	0.0161587
893.980	0.0163190
894.058	0.0162493
894.136	0.0163226
894.215	0.0162373
894.293	0.0162495
894.371	0.0162521
894.449	0.0162162
894.527	0.0163293
894.605	0.0162231
894.683	0.0163046
894.761	0.0162551
894.840	0.0162173
894.918	0.0163388
894.996	0.0163416
895.074	0.0162894
895.152	0.0163806
895.230	0.0163077
895.308	0.0163335
895.386	0.0163329
895.465	0.0163262
895.543	0.0163553
895.621	0.0164042
895.699	0.0164387
895.777	0.0163232
895.855	0.0163636
895.933	0.0163370
896.011	0.0163640
896.090	0.0162936
896.168	0.0163210
896.246	0.0164091
896.324	0.0163831
896.402	0.0163392
896.480	0.0163803
896.558	0.0163151
896.636	0.0164957
896.715	0.0164529
896.793	0.0163051
896.871	0.0163563
896.949	0.0163420
897.027	0.0163345
897.105	0.0163252
897.183	0.0163475
897.261	0.0163186
897.340	0.0163446
897.418	0.0164149
897.496	0.0164410
897.574	0.0162929
897.652	0.0163308
897.730	0.0164520
897.808	0.0163060
897.886	0.0164893
897.965	0.0163258
898.043	0.0165836
898.121	0.0165004
898.199	0.0165744
898.277	0.0162411
898.355	0.0164621
898.433	0.0163989
898.511	0.0164363
898.590	0.0163302
898.668	0.0164547
898.746	0.0164271
898.824	0.0163223
898.902	0.0162743
898.980	0.0163290
899.058	0.0163029
899.136	0.0163290
899.215	0.0161759
899.293	0.0162709
899.371	0.0161346
899.449	0.0162164
899.527	0.0162430
899.605	0.0160974
899.683	0.0160965
899.761	0.0162854
899.840	0.0164188
899.918	0.0163597
899.996	0.0163224
900.074	0.0163317
900.152	0.0163319
900.230	0.0163539
900.308	0.0163422
900.386	0.0163887
900.465	0.0162661
900.543	0.0162777
900.621	0.0163586
900.699	0.0163158
900.777	0.0162546
900.855	0.0163735
900.933	0.0164361
901.011	0.0163239
901.090	0.0163432
901.168	0.0162711
901.246	0.0162685
901.324	0.0163808
901.402	0.0164046
901.480	0.0162418
901.558	0.0162521
901.636	0.0164462
901.715	0.0163934
901.793	0.0162462
901.871	0.0164054
901.949	0.0164316
902.027	0.0163245
902.105	0.0164085
902.183	0.0164701
902.261	0.0162084
902.340	0.0162882
902.418	0.0162617
902.496	0.0163589
902.574	0.0163847
902.652	0.0164433
902.730	0.0164231
902.808	0.0163894
902.886	0.0163898
902.965	0.0163686
903.043	0.0163810
903.121	0.0164140
903.199	0.0163303
903.277	0.0162354
903.355	0.0163155
903.433	0.0164094
903.511	0.0162608
903.590	0.0162695
903.668	0.0163203
903.746	0.0161190
903.824	0.0161565
903.902	0.0162144
903.980	0.0161039
904.058	0.0161752
904.136	0.0162823
904.215	0.0161917
904.293	0.0162462
904.371	0.0162477
904.449	0.0163796
904.527	0.0163422
904.605	0.0162610
904.683	0.0162576
904.761	0.0161917
904.840	0.0161056
904.918	0.0162824
904.996	0.0162392
905.074	0.0162664
905.152	0.0162985
905.230	0.0162189
905.308	0.0162397
905.386	0.0162519
905.465	0.0162140
905.543	0.0163967
905.621	0.0162073
905.699	0.0161912
905.777	0.0162093
905.855	0.0162248
905.933	0.0162067
906.011	0.0162968
906.090	0.0161244
906.168	0.0163823
906.246	0.0163915
906.324	0.0163911
906.402	0.0162986
906.480	0.0163976
906.558	0.0162695
906.636	0.0161290
906.715	0.0162560
906.793	0.0163434
906.871	0.0161777
906.949	0.0162207
907.027	0.0162328
907.105	0.0161126
907.183	0.0163293
907.261	0.0162815
907.340	0.0161428
907.418	0.0161993
907.496	0.0162917
907.574	0.0163815
907.652	0.0163177
907.730	0.0164014
907.808	0.0163805
907.886	0.0163124
907.965	0.0162927
908.043	0.0162072
908.121	0.0164468
908.199	0.0163528
908.277	0.0163941
908.355	0.0163013
908.433	0.0163065
908.511	0.0163831
908.590	0.0162719
908.668	0.0162924
908.746	0.0164404
908.824	0.0163215
908.902	0.0162569
908.980	0.0163415
909.058	0.0164170
909.136	0.0163751
909.215	0.0163250
909.293	0.0165013
909.371	0.0162300
909.449	0.0162100
909.527	0.0164103
909.605	0.0163278
909.683	0.0164575
909.761	0.0163443
909.840	0.0163409
909.918	0.0161240
909.996	0.0162559
910.074	0.0162817
910.152	0.0162783
910.230	0.0161185
910.308	0.0161248
910.386	0.0161918
910.465	0.0159971
910.543	0.0160609
910.621	0.0161187
910.699	0.0159592
910.777	0.0161375
910.855	0.0161680
910.933	0.0160916
911.011	0.0162692
911.090	0.0161559
911.168	0.0162675
911.246	0.0162463
911.324	0.0162261
911.402	0.0163280
911.480	0.0163425
911.558	0.0162792
911.636	0.0163168
911.715	0.0162458
911.793	0.0163270
911.871	0.0163702
911.949	0.0163818
912.027	0.0163835
912.105	0.0163455
912.183	0.0163659
912.261	0.0162782
912.340	0.0162813
912.418	0.0162753
912.496	0.0163053
912.574	0.0162644
912.652	0.0163333
912.730	0.0162764
912.808	0.0162573
912.886	0.0162928
912.965	0.0163197
913.043	0.0162837
913.121	0.0163110
913.199	0.0162914
913.277	0.0164439
913.355	0.0162534
913.433	0.0162089
913.511	0.0162003
913.590	0.0162645
913.668	0.0163646
913.746	0.0163136
913.824	0.0162840
913.902	0.0164063
913.980	0.0163732
914.058	0.0162599
914.136	0.0162696
914.215	0.0163390
914.293	0.0163681
914.371	0.0164097
914.449	0.0164931
914.527	0.0163099
914.605	0.0164988
914.683	0.0164959
914.761	0.0165189
914.840	0.0165031
914.918	0.0164245
914.996	0.0164196
915.074	0.0164175
915.152	0.0163071
915.230	0.0163182
915.308	0.0163164
915.386	0.0162788
915.465	0.0164097
915.543	0.0162932
915.621	0.0162882
915.699	0.0162659
915.777	0.0162347
915.855	0.0162066
915.933	0.0161986
916.011	0.0161575
916.090	0.0162234
916.168	0.0161922
916.246	0.0161431
916.324	0.0162412
916.402	0.0161549
916.480	0.0162112
916.558	0.0161581
916.636	0.0160773
916.715	0.0162297
916.793	0.0162289
916.871	0.0162072
916.949	0.0162439
917.027	0.0162768
917.105	0.0161774
917.183	0.0163060
917.261	0.0161642
917.340	0.0162540
917.418	0.0163355
917.496	0.0162630
917.574	0.0160933
917.652	0.0162083
917.730	0.0163592
917.808	0.0162560
917.886	0.0162586
917.965	0.0162709
918.043	0.0163689
918.121	0.0162570
918.199	0.0162800
918.277	0.0162875
918.355	0.0162730
918.433	0.0162487
918.511	0.0161901
918.590	0.0163080
918.668	0.0162387
918.746	0.0164262
918.824	0.0163001
918.902	0.0163290
918.980	0.0163424
919.058	0.0163387
919.136	0.0162955
919.215	0.0163288
919.293	0.0162437
919.371	0.0163573
919.449	0.0162907
919.527	0.0163433
919.605	0.0162583
919.683	0.0162824
919.761	0.0162490
919.840	0.0162251
919.918	0.0162979
919.996	0.0162642
920.074	0.0161622
920.152	0.0163368
920.230	0.0163010
920.308	0.0162633
920.386	0.0162565
920.465	0.0162720
920.543	0.0163328
920.621	0.0163641
920.699	0.0164187
920.777	0.0164616
920.855	0.0164236
920.933	0.0162846
921.011	0.0163673
921.090	0.0163905
921.168	0.0164211
921.246	0.0163416
921.324	0.0163760
921.402	0.0163374
921.480	0.0162972
921.558	0.0163096
921.636	0.0163284
921.715	0.0164026
921.793	0.0162837
921.871	0.0163606
921.949	0.0164115
922.027	0.0162097
922.105	0.0162740
922.183	0.0164883
922.261	0.0163938
922.340	0.0164037
922.418	0.0163205
922.496	0.0163773
922.574	0.0162890
922.652	0.0163139
922.730	0.0163469
922.808	0.0162606
922.886	0.0162448
922.965	0.0163236
923.043	0.0162460
923.121	0.0163173
923.199	0.0162827
923.277	0.0162238
923.355	0.0160568
923.433	0.0161851
923.511	0.0162031
923.590	0.0161237
923.668	0.0162353
923.746	0.0162225
923.824	0.0162206
923.902	0.0161797
923.980	0.0162584
924.058	0.0161826
924.136	0.0163397
924.215	0.0161511
924.293	0.0162096
924.371	0.0162581
924.449	0.0162795
924.527	0.0162332
924.605	0.0161884
924.683	0.0162646
924.761	0.0162840
924.840	0.0162259
924.918	0.0162252
924.996	0.0163094
925.074	0.0163436
925.152	0.0162348
925.230	0.0163577
925.308	0.0163185
925.386	0.0162184
925.465	0.0165162
925.543	0.0164626
925.621	0.0163985
925.699	0.0165538
925.777	0.0164124
925.855	0.0164805
925.933	0.0165176
926.011	0.0164116
926.090	0.0163612
926.168	0.0163355
926.246	0.0163046
926.324	0.0163407
926.402	0.0164461
926.480	0.0163342
926.558	0.0164328
926.636	0.0163167
926.715	0.0164287
926.793	0.0162758
926.871	0.0163388
926.949	0.0163161
927.027	0.0163374
927.105	0.0162829
927.183	0.0164595
927.261	0.0162362
927.340	0.0163025
927.418	0.0163041
927.496	0.0163127
927.574	0.0162923
927.652	0.0162379
927.730	0.0162249
927.808	0.0163728
927.886	0.0163253
927.965	0.0162653
928.043	0.0161261
928.121	0.0161504
928.199	0.0161767
928.277	0.0161044
928.355	0.0161600
928.433	0.0163510
928.511	0.0164127
928.590	0.0161361
928.668	0.0161780
928.746	0.0163375
928.824	0.0162982
928.902	0.0163274
928.980	0.0163366
929.058	0.0162354
929.136	0.0162259
929.215	0.0162801
929.293	0.0164692
929.371	0.0163512
929.449	0.0164725
929.527	0.0164147
929.605	0.0164386
929.683	0.0163138
929.761	0.0163016
929.840	0.0163933
929.918	0.0163406
929.996	0.0162767
930.074	0.0163188
930.152	0.0162711
930.230	0.0162508
930.308	0.0163571
930.386	0.0162704
930.465	0.0161755
930.543	0.0162279
930.621	0.0163331
930.699	0.0161702
930.777	0.0162797
930.855	0.0162046
930.933	0.0163058
931.011	0.0162595
931.090	0.0162510
931.168	0.0163283
931.246	0.0161588
931.324	0.0163602
931.402	0.0162284
931.480	0.0163750
931.558	0.0162580
931.636	0.0163358
931.715	0.0162284
931.793	0.0163570
931.871	0.0162455
931.949	0.0162633
932.027	0.0164894
932.105	0.0163970
932.183	0.0163009
932.261	0.0163164
932.340	0.0163715
932.418	0.0161683
932.496	0.0163125
932.574	0.0161848
932.652	0.0162071
932.730	0.0163076
932.808	0.0162830
932.886	0.0161070
932.965	0.0162629
933.043	0.0163464
933.121	0.0164745
933.199	0.0163999
933.277	0.0163071
933.355	0.0162137
933.433	0.0163559
933.511	0.0163847
933.590	0.0165150
933.668	0.0163662
933.746	0.0163425
933.824	0.0164060
933.902	0.0163040
933.980	0.0162679
934.058	0.0163948
934.136	0.0161397
934.215	0.0163156
934.293	0.0163084
934.371	0.0162566
934.449	0.0161385
934.527	0.0162118
934.605	0.0163016
934.683	0.0163055
934.761	0.0162448
934.840	0.0160797
934.918	0.0163311
934.996	0.0163029
935.074	0.0162943
935.152	0.0163211
935.230	0.0162408
935.308	0.0163319
935.386	0.0161590
935.465	0.0161993
935.543	0.0163319
935.621	0.0163983
935.699	0.0163166
935.777	0.0163216
935.855	0.0163366
935.933	0.0162530
936.011	0.0162064
936.090	0.0162411
936.168	0.0161952
936.246	0.0163843
936.324	0.0162708
936.402	0.0162326
936.480	0.0162930
936.558	0.0162294
936.636	0.0162507
936.715	0.0162519
936.793	0.0161548
936.871	0.0161842
936.949	0.0162293
937.027	0.0162810
937.105	0.0163296
937.183	0.0163035
937.261	0.0163068
937.340	0.0163101
937.418	0.0162791
937.496	0.0162988
937.574	0.0162999
937.652	0.0164051
937.730	0.0162507
937.808	0.0162688
937.886	0.0163850
937.965	0.0164480
938.043	0.0163343
938.121	0.0163020
938.199	0.0164465
938.277	0.0162701
938.355	0.0164590
938.433	0.0163731
938.511	0.0164413
938.590	0.0163066
938.668	0.0161722
938.746	0.0162956
938.824	0.0162750
938.902	0.0162945
938.980	0.0161949
939.058	0.0163084
939.136	0.0161170
939.215	0.0162419
939.293	0.0162381
939.371	0.0162302
939.449	0.0163839
939.527	0.0162766
939.605	0.0161282
939.683	0.0162858
939.761	0.0162608
939.840	0.0162590
939.918	0.0161694
939.996	0.0162928
940.074	0.0161699
940.152	0.0163161
940.230	0.0162269
940.308	0.0161018
940.386	0.0162528
940.465	0.0164335
940.543	0.0163028
940.621	0.0162791
940.699	0.0163381
940.777	0.0163258
940.855	0.0162522
940.933	0.0162479
941.011	0.0162639
941.090	0.0162088
941.168	0.0162569
941.246	0.0163199
941.324	0.0162170
941.402	0.0162442
941.480	0.0162553
941.558	0.0161467
941.636	0.0162623
941.715	0.0163689
941.793	0.0162960
941.871	0.0162039
941.949	0.0162027
942.027	0.0162814
942.105	0.0163187
942.183	0.0161990
942.261	0.0162389
942.340	0.0162659
942.418	0.0163410
942.496	0.0162470
942.574	0.0163727
942.652	0.0161997
942.730	0.0162523
942.808	0.0162530
942.886	0.0162517
942.965	0.0162220
943.043	0.0161285
943.121	0.0162415
943.199	0.0162110
943.277	0.0163181
943.355	0.0162048
943.433	0.0163620
943.511	0.0163777
943.590	0.0164046
943.668	0.0162986
943.746	0.0164108
943.824	0.0164882
943.902	0.0164222
943.980	0.0165002
944.058	0.0163782
944.136	0.0163509
944.215	0.0164742
944.293	0.0163343
944.371	0.0163039
944.449	0.0164042
944.527	0.0162420
944.605	0.0163290
944.683	0.0163506
944.761	0.0162354
944.840	0.0162775
944.918	0.0162991
944.996	0.0163644
945.074	0.0163109
945.152	0.0162782
945.230	0.0163567
945.308	0.0163305
945.386	0.0162763
945.465	0.0161045
945.543	0.0162676
945.621	0.0164687
945.699	0.0162674
945.777	0.0163671
945.855	0.0164341
945.933	0.0163409
946.011	0.0163030
946.090	0.0163032
946.168	0.0161312
946.246	0.0162874
946.324	0.0162048
946.402	0.0162978
946.480	0.0161674
946.558	0.0163376
946.636	0.0164312
946.715	0.0163677
946.793	0.0161597
946.871	0.0164066
946.949	0.0164553
947.027	0.0163927
947.105	0.0163710
947.183	0.0164365
947.261	0.0162579
947.340	0.0164738
947.418	0.0164207
947.496	0.0163553
947.574	0.0162639
947.652	0.0163450
947.730	0.0163535
947.808	0.0163060
947.886	0.0162865
947.965	0.0162820
948.043	0.0161120
948.121	0.0162936
948.199	0.0161277
948.277	0.0162650
948.355	0.0163123
948.433	0.0162084
948.511	0.0163052
948.590	0.0162024
948.668	0.0161295
948.746	0.0161221
948.824	0.0163564
948.902	0.0162156
948.980	0.0161568
949.058	0.0162176
949.136	0.0162904
949.215	0.0162462
949.293	0.0163615
949.371	0.0164402
949.449	0.0162265
949.527	0.0162747
949.605	0.0162292
949.683	0.0163226
949.761	0.0164307
949.840	0.0164645
949.918	0.0164504
