06/29/2022	23:01:15	Ver.	4.1	UNKNOWN
Optical Delay	630.002507	Delta X		0.078125	Sweeps	1	Scan Rate	0/0
Coordinates	Axis 1	NaN	Axis 2	NaN	Axis 3	NaN	Axis 4	NaN	Axis 5	NaN	Axis 6	0.000000
TX Power	0.000000	RX Power	0.000000

630.003	0.0163460
630.081	0.0163557
630.159	0.0163299
630.237	0.0164266
630.315	0.0163007
630.393	0.0164545
630.471	0.0163653
630.549	0.0163129
630.628	0.0164121
630.706	0.0164358
630.784	0.0164246
630.862	0.0164432
630.940	0.0164042
631.018	0.0163915
631.096	0.0164149
631.174	0.0162922
631.253	0.0162933
631.331	0.0165614
631.409	0.0166061
631.487	0.0162711
631.565	0.0163248
631.643	0.0163515
631.721	0.0162855
631.799	0.0164879
631.878	0.0163900
631.956	0.0164349
632.034	0.0163897
632.112	0.0164488
632.190	0.0164808
632.268	0.0163697
632.346	0.0162970
632.424	0.0163187
632.503	0.0163482
632.581	0.0163027
632.659	0.0164243
632.737	0.0163870
632.815	0.0164139
632.893	0.0165526
632.971	0.0164195
633.049	0.0163493
633.128	0.0164610
633.206	0.0162243
633.284	0.0162716
633.362	0.0163351
633.440	0.0164405
633.518	0.0162547
633.596	0.0161938
633.674	0.0163912
633.753	0.0164512
633.831	0.0163508
633.909	0.0164127
633.987	0.0165112
634.065	0.0164194
634.143	0.0163440
634.221	0.0163962
634.299	0.0164008
634.378	0.0163715
634.456	0.0163029
634.534	0.0163168
634.612	0.0164127
634.690	0.0163731
634.768	0.0163079
634.846	0.0162852
634.924	0.0164133
635.003	0.0162596
635.081	0.0164325
635.159	0.0163144
635.237	0.0162808
635.315	0.0162492
635.393	0.0163998
635.471	0.0163678
635.549	0.0163410
635.628	0.0162829
635.706	0.0162934
635.784	0.0163067
635.862	0.0163567
635.940	0.0163584
636.018	0.0162730
636.096	0.0163048
636.174	0.0163647
636.253	0.0163866
636.331	0.0162684
636.409	0.0162594
636.487	0.0162693
636.565	0.0161576
636.643	0.0164460
636.721	0.0164778
636.799	0.0163342
636.878	0.0163533
636.956	0.0164150
637.034	0.0164070
637.112	0.0163060
637.190	0.0162798
637.268	0.0165366
637.346	0.0163184
637.424	0.0163421
637.503	0.0163233
637.581	0.0164438
637.659	0.0165198
637.737	0.0163301
637.815	0.0165107
637.893	0.0162112
637.971	0.0163214
638.049	0.0164030
638.128	0.0163535
638.206	0.0163251
638.284	0.0164246
638.362	0.0163609
638.440	0.0164133
638.518	0.0163002
638.596	0.0163976
638.674	0.0163744
638.753	0.0164324
638.831	0.0162736
638.909	0.0164072
638.987	0.0164160
639.065	0.0164416
639.143	0.0164197
639.221	0.0163152
639.299	0.0164546
639.378	0.0164153
639.456	0.0163536
639.534	0.0163264
639.612	0.0163286
639.690	0.0163381
639.768	0.0162599
639.846	0.0164058
639.924	0.0165002
640.003	0.0163416
640.081	0.0163543
640.159	0.0162920
640.237	0.0163839
640.315	0.0163355
640.393	0.0164610
640.471	0.0164526
640.549	0.0163000
640.628	0.0163807
640.706	0.0163600
640.784	0.0164077
640.862	0.0163610
640.940	0.0164366
641.018	0.0163105
641.096	0.0162464
641.174	0.0163211
641.253	0.0164198
641.331	0.0163714
641.409	0.0163293
641.487	0.0164278
641.565	0.0164595
641.643	0.0164716
641.721	0.0163847
641.799	0.0163436
641.878	0.0163354
641.956	0.0165039
642.034	0.0163593
642.112	0.0163998
642.190	0.0163797
642.268	0.0162053
642.346	0.0164256
642.424	0.0164103
642.503	0.0163715
642.581	0.0162779
642.659	0.0163441
642.737	0.0163760
642.815	0.0162844
642.893	0.0161162
642.971	0.0162773
643.049	0.0163476
643.128	0.0163623
643.206	0.0164408
643.284	0.0163472
643.362	0.0162305
643.440	0.0162925
643.518	0.0163358
643.596	0.0162555
643.674	0.0163178
643.753	0.0164649
643.831	0.0163644
643.909	0.0162933
643.987	0.0163924
644.065	0.0164462
644.143	0.0162932
644.221	0.0162818
644.299	0.0163383
644.378	0.0163905
644.456	0.0164641
644.534	0.0162743
644.612	0.0162389
644.690	0.0163933
644.768	0.0162586
644.846	0.0163132
644.924	0.0163090
645.003	0.0162278
645.081	0.0163491
645.159	0.0162419
645.237	0.0162361
645.315	0.0164160
645.393	0.0163437
645.471	0.0164497
645.549	0.0163995
645.628	0.0164536
645.706	0.0162815
645.784	0.0163731
645.862	0.0163600
645.940	0.0162386
646.018	0.0163739
646.096	0.0164136
646.174	0.0162878
646.253	0.0164207
646.331	0.0163651
646.409	0.0162241
646.487	0.0162810
646.565	0.0162808
646.643	0.0163707
646.721	0.0162958
646.799	0.0163943
646.878	0.0162753
646.956	0.0162715
647.034	0.0164518
647.112	0.0164289
647.190	0.0163896
647.268	0.0162904
647.346	0.0162975
647.424	0.0163672
647.503	0.0163856
647.581	0.0163875
647.659	0.0164368
647.737	0.0163202
647.815	0.0163695
647.893	0.0163688
647.971	0.0162828
648.049	0.0163141
648.128	0.0162127
648.206	0.0162820
648.284	0.0164142
648.362	0.0163054
648.440	0.0162788
648.518	0.0164124
648.596	0.0163758
648.674	0.0163467
648.753	0.0163573
648.831	0.0164206
648.909	0.0163943
648.987	0.0163438
649.065	0.0163985
649.143	0.0164211
649.221	0.0162800
649.299	0.0162360
649.378	0.0164301
649.456	0.0164017
649.534	0.0162643
649.612	0.0163038
649.690	0.0163470
649.768	0.0164524
649.846	0.0161210
649.924	0.0163253
650.003	0.0163612
650.081	0.0162772
650.159	0.0164590
650.237	0.0162744
650.315	0.0163939
650.393	0.0164522
650.471	0.0163270
650.549	0.0163275
650.628	0.0163585
650.706	0.0164124
650.784	0.0163219
650.862	0.0162309
650.940	0.0163852
651.018	0.0163685
651.096	0.0163596
651.174	0.0164243
651.253	0.0163321
651.331	0.0163149
651.409	0.0164410
651.487	0.0162543
651.565	0.0163513
651.643	0.0163539
651.721	0.0164282
651.799	0.0163899
651.878	0.0164137
651.956	0.0163200
652.034	0.0162468
652.112	0.0163996
652.190	0.0164043
652.268	0.0164009
652.346	0.0164548
652.424	0.0164310
652.503	0.0163369
652.581	0.0163836
652.659	0.0164721
652.737	0.0164699
652.815	0.0164320
652.893	0.0164101
652.971	0.0163593
653.049	0.0164692
653.128	0.0163975
653.206	0.0164022
653.284	0.0164683
653.362	0.0162964
653.440	0.0163497
653.518	0.0163773
653.596	0.0164978
653.674	0.0165238
653.753	0.0164841
653.831	0.0163550
653.909	0.0164616
653.987	0.0163590
654.065	0.0163483
654.143	0.0163422
654.221	0.0163869
654.299	0.0162878
654.378	0.0163326
654.456	0.0162179
654.534	0.0163496
654.612	0.0164663
654.690	0.0163206
654.768	0.0164066
654.846	0.0163480
654.924	0.0163783
655.003	0.0164250
655.081	0.0163910
655.159	0.0163293
655.237	0.0164162
655.315	0.0163229
655.393	0.0163608
655.471	0.0165363
655.549	0.0163438
655.628	0.0164058
655.706	0.0163770
655.784	0.0164049
655.862	0.0163706
655.940	0.0163880
656.018	0.0164909
656.096	0.0163820
656.174	0.0162566
656.253	0.0163518
656.331	0.0163673
656.409	0.0162807
656.487	0.0162996
656.565	0.0163216
656.643	0.0162787
656.721	0.0163618
656.799	0.0162769
656.878	0.0163674
656.956	0.0164248
657.034	0.0163626
657.112	0.0162465
657.190	0.0164265
657.268	0.0163154
657.346	0.0164072
657.424	0.0163991
657.503	0.0163654
657.581	0.0164503
657.659	0.0163131
657.737	0.0163715
657.815	0.0165370
657.893	0.0162797
657.971	0.0162639
658.049	0.0163737
658.128	0.0163881
658.206	0.0165425
658.284	0.0165239
658.362	0.0165084
658.440	0.0163328
658.518	0.0164028
658.596	0.0162498
658.674	0.0164217
658.753	0.0164002
658.831	0.0165235
658.909	0.0163171
658.987	0.0162289
659.065	0.0164476
659.143	0.0163313
659.221	0.0163350
659.299	0.0163486
659.378	0.0163847
659.456	0.0163953
659.534	0.0163518
659.612	0.0162934
659.690	0.0164059
659.768	0.0165202
659.846	0.0164977
659.924	0.0162941
660.003	0.0163893
660.081	0.0163261
660.159	0.0163474
660.237	0.0163393
660.315	0.0163516
660.393	0.0165180
660.471	0.0162595
660.549	0.0163582
660.628	0.0163834
660.706	0.0163670
660.784	0.0163291
660.862	0.0164852
660.940	0.0164770
661.018	0.0164616
661.096	0.0164680
661.174	0.0162952
661.253	0.0164352
661.331	0.0163211
661.409	0.0162761
661.487	0.0164481
661.565	0.0164641
661.643	0.0162901
661.721	0.0163623
661.799	0.0164516
661.878	0.0164285
661.956	0.0163988
662.034	0.0164040
662.112	0.0163522
662.190	0.0163051
662.268	0.0163779
662.346	0.0164729
662.424	0.0163448
662.503	0.0163486
662.581	0.0163289
662.659	0.0162856
662.737	0.0162783
662.815	0.0163724
662.893	0.0162730
662.971	0.0162605
663.049	0.0164434
663.128	0.0163673
663.206	0.0164410
663.284	0.0162376
663.362	0.0164070
663.440	0.0163440
663.518	0.0163106
663.596	0.0163966
663.674	0.0162843
663.753	0.0165528
663.831	0.0163390
663.909	0.0162308
663.987	0.0162610
664.065	0.0164906
664.143	0.0163793
664.221	0.0162590
664.299	0.0163568
664.378	0.0162915
664.456	0.0163612
664.534	0.0164222
664.612	0.0163052
664.690	0.0163444
664.768	0.0164574
664.846	0.0163741
664.924	0.0163477
665.003	0.0161539
665.081	0.0162799
665.159	0.0163503
665.237	0.0163249
665.315	0.0164418
665.393	0.0164043
665.471	0.0163573
665.549	0.0163843
665.628	0.0163869
665.706	0.0163193
665.784	0.0162599
665.862	0.0163754
665.940	0.0164160
666.018	0.0164404
666.096	0.0164996
666.174	0.0164529
666.253	0.0163127
666.331	0.0163664
666.409	0.0163261
666.487	0.0163699
666.565	0.0164008
666.643	0.0163518
666.721	0.0163149
666.799	0.0164057
666.878	0.0163232
666.956	0.0164459
667.034	0.0163919
667.112	0.0164225
667.190	0.0163393
667.268	0.0164507
667.346	0.0164909
667.424	0.0163451
667.503	0.0164377
667.581	0.0164485
667.659	0.0163582
667.737	0.0162447
667.815	0.0164794
667.893	0.0164383
667.971	0.0163432
668.049	0.0161893
668.128	0.0163665
668.206	0.0164050
668.284	0.0164793
668.362	0.0165206
668.440	0.0164366
668.518	0.0162553
668.596	0.0162678
668.674	0.0164366
668.753	0.0163602
668.831	0.0164689
668.909	0.0164178
668.987	0.0163044
669.065	0.0163560
669.143	0.0163189
669.221	0.0163799
669.299	0.0162692
669.378	0.0163396
669.456	0.0164097
669.534	0.0163348
669.612	0.0163110
669.690	0.0164726
669.768	0.0163469
669.846	0.0163454
669.924	0.0163669
670.003	0.0164471
670.081	0.0163849
670.159	0.0162656
670.237	0.0162122
670.315	0.0163592
670.393	0.0163014
670.471	0.0164266
670.549	0.0164341
670.628	0.0164276
670.706	0.0163696
670.784	0.0164220
670.862	0.0163429
670.940	0.0163297
671.018	0.0161748
671.096	0.0164495
671.174	0.0162309
671.253	0.0162107
671.331	0.0162349
671.409	0.0161899
671.487	0.0163122
671.565	0.0163593
671.643	0.0164250
671.721	0.0163576
671.799	0.0163879
671.878	0.0163171
671.956	0.0161976
672.034	0.0163284
672.112	0.0163850
672.190	0.0163818
672.268	0.0163548
672.346	0.0163634
672.424	0.0162878
672.503	0.0162632
672.581	0.0162956
672.659	0.0162920
672.737	0.0164111
672.815	0.0163995
672.893	0.0162302
672.971	0.0165318
673.049	0.0164565
673.128	0.0163462
673.206	0.0163851
673.284	0.0162874
673.362	0.0163686
673.440	0.0164117
673.518	0.0162642
673.596	0.0162739
673.674	0.0163602
673.753	0.0164951
673.831	0.0163305
673.909	0.0164009
673.987	0.0163254
674.065	0.0162962
674.143	0.0163646
674.221	0.0163565
674.299	0.0164174
674.378	0.0164527
674.456	0.0162890
674.534	0.0162930
674.612	0.0163490
674.690	0.0163625
674.768	0.0164095
674.846	0.0162387
674.924	0.0163631
675.003	0.0162597
675.081	0.0163878
675.159	0.0164858
675.237	0.0163704
675.315	0.0163017
675.393	0.0164246
675.471	0.0163519
675.549	0.0164137
675.628	0.0163017
675.706	0.0163369
675.784	0.0163045
675.862	0.0163644
675.940	0.0163416
676.018	0.0164088
676.096	0.0162807
676.174	0.0162838
676.253	0.0164523
676.331	0.0164129
676.409	0.0163181
676.487	0.0163889
676.565	0.0164436
676.643	0.0163939
676.721	0.0163736
676.799	0.0162946
676.878	0.0163554
676.956	0.0163608
677.034	0.0164236
677.112	0.0163486
677.190	0.0163839
677.268	0.0164699
677.346	0.0164137
677.424	0.0162870
677.503	0.0163207
677.581	0.0162808
677.659	0.0163013
677.737	0.0163389
677.815	0.0164154
677.893	0.0164227
677.971	0.0163068
678.049	0.0163474
678.128	0.0163494
678.206	0.0163776
678.284	0.0162817
678.362	0.0163046
678.440	0.0164286
678.518	0.0163256
678.596	0.0164498
678.674	0.0164628
678.753	0.0164068
678.831	0.0163095
678.909	0.0163656
678.987	0.0164082
679.065	0.0162339
679.143	0.0163872
679.221	0.0164190
679.299	0.0162974
679.378	0.0163577
679.456	0.0163554
679.534	0.0162880
679.612	0.0163313
679.690	0.0164433
679.768	0.0164486
679.846	0.0162546
679.924	0.0163232
680.003	0.0164203
680.081	0.0164908
680.159	0.0164649
680.237	0.0163834
680.315	0.0164179
680.393	0.0162788
680.471	0.0162757
680.549	0.0165030
680.628	0.0163747
680.706	0.0165271
680.784	0.0162182
680.862	0.0164757
680.940	0.0164660
681.018	0.0164605
681.096	0.0164359
681.174	0.0163689
681.253	0.0162757
681.331	0.0165280
681.409	0.0164209
681.487	0.0164350
681.565	0.0163847
681.643	0.0165498
681.721	0.0162511
681.799	0.0163638
681.878	0.0165463
681.956	0.0162988
682.034	0.0164217
682.112	0.0164518
682.190	0.0164066
682.268	0.0164240
682.346	0.0163902
682.424	0.0165376
682.503	0.0164091
682.581	0.0163568
682.659	0.0163464
682.737	0.0163129
682.815	0.0162539
682.893	0.0164167
682.971	0.0163855
683.049	0.0163873
683.128	0.0163697
683.206	0.0163821
683.284	0.0164896
683.362	0.0163142
683.440	0.0163142
683.518	0.0163573
683.596	0.0163171
683.674	0.0162720
683.753	0.0163413
683.831	0.0162940
683.909	0.0162754
683.987	0.0162386
684.065	0.0162418
684.143	0.0162507
684.221	0.0162612
684.299	0.0162730
684.378	0.0162796
684.456	0.0160881
684.534	0.0163556
684.612	0.0161967
684.690	0.0163493
684.768	0.0164922
684.846	0.0164394
684.924	0.0164870
685.003	0.0164651
685.081	0.0164098
685.159	0.0164478
685.237	0.0163658
685.315	0.0162919
685.393	0.0163461
685.471	0.0162669
685.549	0.0163039
685.628	0.0160586
685.706	0.0160407
685.784	0.0162108
685.862	0.0161897
685.940	0.0160691
686.018	0.0161359
686.096	0.0162564
686.174	0.0162528
686.253	0.0164874
686.331	0.0166254
686.409	0.0165174
686.487	0.0166908
686.565	0.0166867
686.643	0.0165832
686.721	0.0165843
686.799	0.0164531
686.878	0.0164651
686.956	0.0162180
687.034	0.0162626
687.112	0.0160281
687.190	0.0162518
687.268	0.0161087
687.346	0.0159554
687.424	0.0160685
687.503	0.0161435
687.581	0.0161720
687.659	0.0164738
687.737	0.0165439
687.815	0.0164750
687.893	0.0165638
687.971	0.0166293
688.049	0.0167177
688.128	0.0166850
688.206	0.0167390
688.284	0.0167213
688.362	0.0166251
688.440	0.0164696
688.518	0.0163406
688.596	0.0162812
688.674	0.0162234
688.753	0.0162537
688.831	0.0160526
688.909	0.0160028
688.987	0.0160706
689.065	0.0161092
689.143	0.0162626
689.221	0.0161445
689.299	0.0162636
689.378	0.0162196
689.456	0.0164102
689.534	0.0164626
689.612	0.0166447
689.690	0.0167735
689.768	0.0167285
689.846	0.0166945
689.924	0.0166695
690.003	0.0166020
690.081	0.0165982
690.159	0.0164810
690.237	0.0162996
690.315	0.0162243
690.393	0.0161563
690.471	0.0160801
690.549	0.0161943
690.628	0.0161293
690.706	0.0160719
690.784	0.0161913
690.862	0.0163155
690.940	0.0163679
691.018	0.0163181
691.096	0.0163369
691.174	0.0164040
691.253	0.0165089
691.331	0.0165603
691.409	0.0163794
691.487	0.0166512
691.565	0.0166499
691.643	0.0164737
691.721	0.0165295
691.799	0.0164973
691.878	0.0164911
691.956	0.0165773
692.034	0.0165472
692.112	0.0165218
692.190	0.0163948
692.268	0.0162618
692.346	0.0162109
692.424	0.0161343
692.503	0.0160574
692.581	0.0160065
692.659	0.0159097
692.737	0.0158891
692.815	0.0160339
692.893	0.0162381
692.971	0.0162260
693.049	0.0161646
693.128	0.0164504
693.206	0.0165491
693.284	0.0165594
693.362	0.0166159
693.440	0.0167539
693.518	0.0164790
693.596	0.0166576
693.674	0.0166555
693.753	0.0166417
693.831	0.0164989
693.909	0.0163425
693.987	0.0162334
694.065	0.0159723
694.143	0.0161231
694.221	0.0162078
694.299	0.0158353
694.378	0.0159422
694.456	0.0160841
694.534	0.0161176
694.612	0.0160911
694.690	0.0161886
694.768	0.0162589
694.846	0.0163663
694.924	0.0163441
695.003	0.0165511
695.081	0.0164882
695.159	0.0164576
695.237	0.0165826
695.315	0.0165075
695.393	0.0165024
695.471	0.0165880
695.549	0.0165561
695.628	0.0163845
695.706	0.0163265
695.784	0.0164066
695.862	0.0163442
695.940	0.0162409
696.018	0.0160661
696.096	0.0160032
696.174	0.0161557
696.253	0.0160128
696.331	0.0161391
696.409	0.0161255
696.487	0.0163693
696.565	0.0161551
696.643	0.0163046
696.721	0.0162330
696.799	0.0162898
696.878	0.0163256
696.956	0.0163805
697.034	0.0164202
697.112	0.0164351
697.190	0.0164893
697.268	0.0165761
697.346	0.0165116
697.424	0.0164472
697.503	0.0166937
697.581	0.0166303
697.659	0.0164825
697.737	0.0165600
697.815	0.0165370
697.893	0.0164412
697.971	0.0163423
698.049	0.0162347
698.128	0.0160002
698.206	0.0160394
698.284	0.0160698
698.362	0.0159989
698.440	0.0160535
698.518	0.0160493
698.596	0.0162015
698.674	0.0161169
698.753	0.0163104
698.831	0.0164706
698.909	0.0165482
698.987	0.0165749
699.065	0.0166981
699.143	0.0166276
699.221	0.0167822
699.299	0.0166644
699.378	0.0166503
699.456	0.0166669
699.534	0.0164848
699.612	0.0162844
699.690	0.0162637
699.768	0.0162254
699.846	0.0162535
699.924	0.0160712
700.003	0.0161175
700.081	0.0160336
700.159	0.0159253
700.237	0.0161659
700.315	0.0161517
700.393	0.0162407
700.471	0.0164016
700.549	0.0165862
700.628	0.0164835
700.706	0.0167685
700.784	0.0167329
700.862	0.0165939
700.940	0.0166469
701.018	0.0164212
701.096	0.0162402
701.174	0.0165446
701.253	0.0164691
701.331	0.0162332
701.409	0.0162338
701.487	0.0162162
701.565	0.0161653
701.643	0.0161512
701.721	0.0162992
701.799	0.0163129
701.878	0.0163719
701.956	0.0165829
702.034	0.0165352
702.112	0.0164587
702.190	0.0165670
702.268	0.0165822
702.346	0.0166113
702.424	0.0164960
702.503	0.0164836
702.581	0.0164104
702.659	0.0163521
702.737	0.0162352
702.815	0.0162019
702.893	0.0160988
702.971	0.0159321
703.049	0.0159279
703.128	0.0160573
703.206	0.0160770
703.284	0.0162415
703.362	0.0163322
703.440	0.0165828
703.518	0.0166345
703.596	0.0167000
703.674	0.0168089
703.753	0.0167970
703.831	0.0168676
703.909	0.0168815
703.987	0.0168276
704.065	0.0166634
704.143	0.0165290
704.221	0.0163927
704.299	0.0162632
704.378	0.0161236
704.456	0.0159181
704.534	0.0159239
704.612	0.0157778
704.690	0.0160506
704.768	0.0160685
704.846	0.0160328
704.924	0.0161809
705.003	0.0161875
705.081	0.0163497
705.159	0.0164296
705.237	0.0165598
705.315	0.0164648
705.393	0.0165575
705.471	0.0165801
705.549	0.0166296
705.628	0.0166891
705.706	0.0166889
705.784	0.0168104
705.862	0.0167217
705.940	0.0166011
706.018	0.0164845
706.096	0.0166857
706.174	0.0165624
706.253	0.0163966
706.331	0.0162104
706.409	0.0161738
706.487	0.0162532
706.565	0.0160809
706.643	0.0158872
706.721	0.0159780
706.799	0.0159414
706.878	0.0158489
706.956	0.0158455
707.034	0.0159491
707.112	0.0161184
707.190	0.0162807
707.268	0.0163586
707.346	0.0164099
707.424	0.0164452
707.503	0.0166500
707.581	0.0167325
707.659	0.0167725
707.737	0.0167457
707.815	0.0167083
707.893	0.0166202
707.971	0.0165569
708.049	0.0164618
708.128	0.0163874
708.206	0.0161170
708.284	0.0160013
708.362	0.0159126
708.440	0.0159582
708.518	0.0159282
708.596	0.0158821
708.674	0.0159286
708.753	0.0160992
708.831	0.0161405
708.909	0.0162777
708.987	0.0164858
709.065	0.0165391
709.143	0.0166718
709.221	0.0166525
709.299	0.0166441
709.378	0.0166531
709.456	0.0167693
709.534	0.0167977
709.612	0.0166304
709.690	0.0167667
709.768	0.0163076
709.846	0.0164632
709.924	0.0162514
710.003	0.0161356
710.081	0.0160979
710.159	0.0160880
710.237	0.0159611
710.315	0.0159372
710.393	0.0161365
710.471	0.0158977
710.549	0.0159405
710.628	0.0161890
710.706	0.0160894
710.784	0.0159921
710.862	0.0160878
710.940	0.0161732
711.018	0.0162006
711.096	0.0163241
711.174	0.0165396
711.253	0.0162939
711.331	0.0163811
711.409	0.0164023
711.487	0.0165179
711.565	0.0162668
711.643	0.0163596
711.721	0.0162713
711.799	0.0161208
711.878	0.0161784
711.956	0.0162482
712.034	0.0162068
712.112	0.0163449
712.190	0.0164355
712.268	0.0164214
712.346	0.0164703
712.424	0.0166023
712.503	0.0166267
712.581	0.0165657
712.659	0.0164828
712.737	0.0165582
712.815	0.0164593
712.893	0.0164224
712.971	0.0163080
713.049	0.0161620
713.128	0.0161626
713.206	0.0161054
713.284	0.0162051
713.362	0.0162896
713.440	0.0164054
713.518	0.0163895
713.596	0.0164362
713.674	0.0165371
713.753	0.0166013
713.831	0.0167004
713.909	0.0166998
713.987	0.0166688
714.065	0.0166218
714.143	0.0165612
714.221	0.0166776
714.299	0.0165416
714.378	0.0165906
714.456	0.0163580
714.534	0.0162388
714.612	0.0161021
714.690	0.0161332
714.768	0.0160828
714.846	0.0159231
714.924	0.0161718
715.003	0.0161218
715.081	0.0161919
715.159	0.0162371
715.237	0.0163313
715.315	0.0163820
715.393	0.0163395
715.471	0.0162801
715.549	0.0163925
715.628	0.0163586
715.706	0.0164515
715.784	0.0164701
715.862	0.0163314
715.940	0.0164423
716.018	0.0163321
716.096	0.0164146
716.174	0.0163332
716.253	0.0164479
716.331	0.0163367
716.409	0.0163418
716.487	0.0164352
716.565	0.0162849
716.643	0.0162129
716.721	0.0160802
716.799	0.0161132
716.878	0.0159438
716.956	0.0159862
717.034	0.0160810
717.112	0.0158966
717.190	0.0159975
717.268	0.0159451
717.346	0.0159384
717.424	0.0161230
717.503	0.0162063
717.581	0.0164010
717.659	0.0166480
717.737	0.0164777
717.815	0.0166705
717.893	0.0167447
717.971	0.0169756
718.049	0.0168774
718.128	0.0170197
718.206	0.0170850
718.284	0.0169682
718.362	0.0169976
718.440	0.0168997
718.518	0.0167996
718.596	0.0167612
718.674	0.0165446
718.753	0.0164946
718.831	0.0164360
718.909	0.0161637
718.987	0.0160554
719.065	0.0160284
719.143	0.0159435
719.221	0.0156921
719.299	0.0157082
719.378	0.0156530
719.456	0.0155463
719.534	0.0155784
719.612	0.0157372
719.690	0.0157037
719.768	0.0156528
719.846	0.0157655
719.924	0.0159783
720.003	0.0160677
720.081	0.0162376
720.159	0.0164310
720.237	0.0166214
720.315	0.0167305
720.393	0.0167517
720.471	0.0168114
720.549	0.0169968
720.628	0.0169923
720.706	0.0170041
720.784	0.0170869
720.862	0.0170634
720.940	0.0172169
721.018	0.0171353
721.096	0.0169926
721.174	0.0169627
721.253	0.0168973
721.331	0.0165920
721.409	0.0166296
721.487	0.0164197
721.565	0.0162552
721.643	0.0160326
721.721	0.0159294
721.799	0.0158099
721.878	0.0156277
721.956	0.0154778
722.034	0.0155974
722.112	0.0154857
722.190	0.0155456
722.268	0.0155071
722.346	0.0156930
722.424	0.0157973
722.503	0.0160140
722.581	0.0159886
722.659	0.0161289
722.737	0.0163576
722.815	0.0165240
722.893	0.0164848
722.971	0.0164314
723.049	0.0164665
723.128	0.0165133
723.206	0.0164429
723.284	0.0164744
723.362	0.0164269
723.440	0.0163016
723.518	0.0163444
723.596	0.0162726
723.674	0.0162953
723.753	0.0164172
723.831	0.0165062
723.909	0.0164631
723.987	0.0166728
724.065	0.0168272
724.143	0.0166364
724.221	0.0168129
724.299	0.0168761
724.378	0.0170036
724.456	0.0170158
724.534	0.0168970
724.612	0.0168658
724.690	0.0168070
724.768	0.0166729
724.846	0.0164861
724.924	0.0165903
725.003	0.0162918
725.081	0.0162627
725.159	0.0160680
725.237	0.0159381
725.315	0.0159321
725.393	0.0159804
725.471	0.0158724
725.549	0.0158308
725.628	0.0159888
725.706	0.0159948
725.784	0.0161105
725.862	0.0159587
725.940	0.0160536
726.018	0.0162579
726.096	0.0162859
726.174	0.0163183
726.253	0.0164532
726.331	0.0164534
726.409	0.0164654
726.487	0.0165822
726.565	0.0163977
726.643	0.0163444
726.721	0.0163538
726.799	0.0164036
726.878	0.0162846
726.956	0.0161820
727.034	0.0161992
727.112	0.0161642
727.190	0.0162431
727.268	0.0163281
727.346	0.0162676
727.424	0.0162768
727.503	0.0162005
727.581	0.0164259
727.659	0.0165572
727.737	0.0165582
727.815	0.0165323
727.893	0.0166609
727.971	0.0165981
728.049	0.0165107
728.128	0.0165433
728.206	0.0165717
728.284	0.0164855
728.362	0.0164214
728.440	0.0163428
728.518	0.0163146
728.596	0.0163037
728.674	0.0162313
728.753	0.0162878
728.831	0.0162396
728.909	0.0162609
728.987	0.0162037
729.065	0.0161248
729.143	0.0162199
729.221	0.0162431
729.299	0.0161525
729.378	0.0161106
729.456	0.0160984
729.534	0.0161543
729.612	0.0161623
729.690	0.0161878
729.768	0.0162197
729.846	0.0162367
729.924	0.0165258
730.003	0.0165545
730.081	0.0165110
730.159	0.0167013
730.237	0.0167195
730.315	0.0168225
730.393	0.0169115
730.471	0.0169792
730.549	0.0169290
730.628	0.0167700
730.706	0.0167667
730.784	0.0167988
730.862	0.0166545
730.940	0.0166271
731.018	0.0165524
731.096	0.0163597
731.174	0.0163283
731.253	0.0161863
731.331	0.0161839
731.409	0.0162699
731.487	0.0163024
731.565	0.0162875
731.643	0.0161750
731.721	0.0162267
731.799	0.0162244
731.878	0.0162741
731.956	0.0163181
732.034	0.0164951
732.112	0.0164494
732.190	0.0162740
732.268	0.0163905
732.346	0.0163136
732.424	0.0163486
732.503	0.0162849
732.581	0.0161025
732.659	0.0161016
732.737	0.0160431
732.815	0.0159093
732.893	0.0159251
732.971	0.0158631
733.049	0.0158322
733.128	0.0157250
733.206	0.0157938
733.284	0.0157507
733.362	0.0157214
733.440	0.0157599
733.518	0.0158064
733.596	0.0159119
733.674	0.0159602
733.753	0.0158865
733.831	0.0160156
733.909	0.0160165
733.987	0.0162410
734.065	0.0162267
734.143	0.0164550
734.221	0.0164184
734.299	0.0166696
734.378	0.0166142
734.456	0.0166238
734.534	0.0168991
734.612	0.0167997
734.690	0.0169594
734.768	0.0171564
734.846	0.0171912
734.924	0.0170959
735.003	0.0172872
735.081	0.0173130
735.159	0.0173237
735.237	0.0175367
735.315	0.0175200
735.393	0.0173610
735.471	0.0172795
735.549	0.0173151
735.628	0.0170078
735.706	0.0169315
735.784	0.0168361
735.862	0.0166491
735.940	0.0163698
736.018	0.0161823
736.096	0.0160607
736.174	0.0159176
736.253	0.0157103
736.331	0.0155915
736.409	0.0153356
736.487	0.0153305
736.565	0.0153078
736.643	0.0151903
736.721	0.0152969
736.799	0.0153138
736.878	0.0153276
736.956	0.0155060
737.034	0.0156700
737.112	0.0156269
737.190	0.0156494
737.268	0.0157742
737.346	0.0160629
737.424	0.0161057
737.503	0.0159701
737.581	0.0160432
737.659	0.0161621
737.737	0.0161646
737.815	0.0161673
737.893	0.0161781
737.971	0.0162218
738.049	0.0162834
738.128	0.0162939
738.206	0.0162093
738.284	0.0166245
738.362	0.0166271
738.440	0.0166869
738.518	0.0168670
738.596	0.0169158
738.674	0.0168669
738.753	0.0170864
738.831	0.0172432
738.909	0.0172102
738.987	0.0171922
739.065	0.0174259
739.143	0.0172210
739.221	0.0172690
739.299	0.0172951
739.378	0.0172128
739.456	0.0172935
739.534	0.0172299
739.612	0.0170484
739.690	0.0168726
739.768	0.0168626
739.846	0.0166212
739.924	0.0165914
740.003	0.0164542
740.081	0.0163816
740.159	0.0161585
740.237	0.0160130
740.315	0.0158591
740.393	0.0157198
740.471	0.0154740
740.549	0.0152512
740.628	0.0152747
740.706	0.0151361
740.784	0.0149840
740.862	0.0150636
740.940	0.0149435
741.018	0.0148111
741.096	0.0150895
741.174	0.0150923
741.253	0.0152441
741.331	0.0155426
741.409	0.0156374
741.487	0.0158053
741.565	0.0159219
741.643	0.0160411
741.721	0.0162086
741.799	0.0164670
741.878	0.0166211
741.956	0.0165269
742.034	0.0166635
742.112	0.0167281
742.190	0.0168369
742.268	0.0168715
742.346	0.0170090
742.424	0.0170555
742.503	0.0171518
742.581	0.0172124
742.659	0.0171828
742.737	0.0173861
742.815	0.0171754
742.893	0.0173647
742.971	0.0172443
743.049	0.0172418
743.128	0.0172243
743.206	0.0171510
743.284	0.0172236
743.362	0.0170211
743.440	0.0169355
743.518	0.0168658
743.596	0.0168018
743.674	0.0166359
743.753	0.0165320
743.831	0.0165929
743.909	0.0164966
743.987	0.0163023
744.065	0.0164532
744.143	0.0164602
744.221	0.0162527
744.299	0.0161386
744.378	0.0160845
744.456	0.0161807
744.534	0.0160339
744.612	0.0159873
744.690	0.0158312
744.768	0.0156289
744.846	0.0156634
744.924	0.0157238
745.003	0.0157040
745.081	0.0155264
745.159	0.0155011
745.237	0.0155015
745.315	0.0155850
745.393	0.0154958
745.471	0.0153454
745.549	0.0154261
745.628	0.0155469
745.706	0.0155010
745.784	0.0154041
745.862	0.0154491
745.940	0.0154327
746.018	0.0156184
746.096	0.0156042
746.174	0.0156068
746.253	0.0158151
746.331	0.0157815
746.409	0.0159811
746.487	0.0160027
746.565	0.0162130
746.643	0.0162406
746.721	0.0162808
746.799	0.0164077
746.878	0.0166400
746.956	0.0166293
747.034	0.0167867
747.112	0.0168733
747.190	0.0166870
747.268	0.0167480
747.346	0.0169418
747.424	0.0170329
747.503	0.0168156
747.581	0.0170238
747.659	0.0171376
747.737	0.0171591
747.815	0.0172437
747.893	0.0174214
747.971	0.0173890
748.049	0.0174439
748.128	0.0176086
748.206	0.0176139
748.284	0.0175801
748.362	0.0174805
748.440	0.0175720
748.518	0.0175843
748.596	0.0174268
748.674	0.0174200
748.753	0.0174194
748.831	0.0170983
748.909	0.0169831
748.987	0.0168321
749.065	0.0166256
749.143	0.0164713
749.221	0.0162077
749.299	0.0161421
749.378	0.0160226
749.456	0.0158253
749.534	0.0157368
749.612	0.0156564
749.690	0.0155862
749.768	0.0154642
749.846	0.0151212
749.924	0.0151930
750.003	0.0150430
750.081	0.0149384
750.159	0.0149617
750.237	0.0148516
750.315	0.0148041
750.393	0.0148811
750.471	0.0148633
750.549	0.0147772
750.628	0.0147542
750.706	0.0148779
750.784	0.0148861
750.862	0.0149364
750.940	0.0151179
751.018	0.0153053
751.096	0.0155733
751.174	0.0157243
751.253	0.0157384
751.331	0.0162348
751.409	0.0163019
751.487	0.0164147
751.565	0.0167265
751.643	0.0169952
751.721	0.0170578
751.799	0.0169651
751.878	0.0170673
751.956	0.0173705
752.034	0.0173252
752.112	0.0172639
752.190	0.0171176
752.268	0.0172387
752.346	0.0170965
752.424	0.0170670
752.503	0.0172314
752.581	0.0170074
752.659	0.0170798
752.737	0.0169288
752.815	0.0169495
752.893	0.0171140
752.971	0.0170500
753.049	0.0169318
753.128	0.0170250
753.206	0.0169709
753.284	0.0169768
753.362	0.0170076
753.440	0.0170977
753.518	0.0172166
753.596	0.0169851
753.674	0.0169946
753.753	0.0170364
753.831	0.0169936
753.909	0.0169748
753.987	0.0169274
754.065	0.0168318
754.143	0.0165578
754.221	0.0165016
754.299	0.0163589
754.378	0.0163708
754.456	0.0160663
754.534	0.0159792
754.612	0.0160396
754.690	0.0158990
754.768	0.0158518
754.846	0.0158818
754.924	0.0158619
755.003	0.0158179
755.081	0.0157661
755.159	0.0156593
755.237	0.0157359
755.315	0.0158131
755.393	0.0156393
755.471	0.0156016
755.549	0.0156096
755.628	0.0156742
755.706	0.0153691
755.784	0.0155899
755.862	0.0156376
755.940	0.0156032
756.018	0.0155062
756.096	0.0155157
756.174	0.0155927
756.253	0.0155479
756.331	0.0155972
756.409	0.0157947
756.487	0.0157291
756.565	0.0158648
756.643	0.0158844
756.721	0.0157734
756.799	0.0159007
756.878	0.0159333
756.956	0.0161450
757.034	0.0162563
757.112	0.0162943
757.190	0.0163864
757.268	0.0165312
757.346	0.0165444
757.424	0.0167331
757.503	0.0168379
757.581	0.0169441
757.659	0.0170818
757.737	0.0172491
757.815	0.0173731
757.893	0.0175158
757.971	0.0175381
758.049	0.0175692
758.128	0.0174640
758.206	0.0175110
758.284	0.0174944
758.362	0.0174429
758.440	0.0173328
758.518	0.0172412
758.596	0.0171831
758.674	0.0170932
758.753	0.0169838
758.831	0.0168576
758.909	0.0166439
758.987	0.0167381
759.065	0.0165182
759.143	0.0162540
759.221	0.0163203
759.299	0.0161243
759.378	0.0161161
759.456	0.0159649
759.534	0.0159057
759.612	0.0158817
759.690	0.0159077
759.768	0.0159792
759.846	0.0159932
759.924	0.0157978
760.003	0.0158521
760.081	0.0158181
760.159	0.0158577
760.237	0.0158389
760.315	0.0158577
760.393	0.0159247
760.471	0.0159785
760.549	0.0160514
760.628	0.0160537
760.706	0.0159149
760.784	0.0161362
760.862	0.0161552
760.940	0.0162013
761.018	0.0163052
761.096	0.0162504
761.174	0.0163905
761.253	0.0164629
761.331	0.0164162
761.409	0.0164767
761.487	0.0164041
761.565	0.0165054
761.643	0.0168302
761.721	0.0167889
761.799	0.0168314
761.878	0.0169124
761.956	0.0168047
762.034	0.0167513
762.112	0.0166196
762.190	0.0166318
762.268	0.0165447
762.346	0.0164326
762.424	0.0161749
762.503	0.0161023
762.581	0.0159437
762.659	0.0158237
762.737	0.0157119
762.815	0.0155375
762.893	0.0154250
762.971	0.0152023
763.049	0.0151830
763.128	0.0151095
763.206	0.0151147
763.284	0.0150327
763.362	0.0151865
763.440	0.0151548
763.518	0.0153446
763.596	0.0156610
763.674	0.0156936
763.753	0.0160067
763.831	0.0163448
763.909	0.0167111
763.987	0.0168686
764.065	0.0171712
764.143	0.0174870
764.221	0.0177051
764.299	0.0178259
764.378	0.0179256
764.456	0.0180750
764.534	0.0181847
764.612	0.0182035
764.690	0.0179897
764.768	0.0179704
764.846	0.0177281
764.924	0.0174901
765.003	0.0173815
765.081	0.0169685
765.159	0.0167116
765.237	0.0163786
765.315	0.0161539
765.393	0.0158771
765.471	0.0156472
765.549	0.0156532
765.628	0.0154427
765.706	0.0154760
765.784	0.0155331
765.862	0.0154411
765.940	0.0154552
766.018	0.0156361
766.096	0.0157812
766.174	0.0158950
766.253	0.0160724
766.331	0.0161401
766.409	0.0162339
766.487	0.0165149
766.565	0.0165961
766.643	0.0165598
766.721	0.0165209
766.799	0.0166925
766.878	0.0168242
766.956	0.0166615
767.034	0.0166518
767.112	0.0167594
767.190	0.0167186
767.268	0.0167255
767.346	0.0168269
767.424	0.0168616
767.503	0.0167854
767.581	0.0165786
767.659	0.0166861
767.737	0.0167547
767.815	0.0165816
767.893	0.0166698
767.971	0.0167024
768.049	0.0166195
768.128	0.0163440
768.206	0.0163866
768.284	0.0162805
768.362	0.0161732
768.440	0.0162746
768.518	0.0160664
768.596	0.0158658
768.674	0.0157447
768.753	0.0157517
768.831	0.0153656
768.909	0.0152264
768.987	0.0152464
769.065	0.0150605
769.143	0.0148576
769.221	0.0145398
769.299	0.0146371
769.378	0.0144290
769.456	0.0144881
769.534	0.0144866
769.612	0.0145437
769.690	0.0149577
769.768	0.0151757
769.846	0.0153381
769.924	0.0157257
770.003	0.0162180
770.081	0.0166206
770.159	0.0171264
770.237	0.0175005
770.315	0.0177468
770.393	0.0181588
770.471	0.0186317
770.549	0.0187137
770.628	0.0189094
770.706	0.0190364
770.784	0.0188986
770.862	0.0188492
770.940	0.0185534
771.018	0.0182798
771.096	0.0180386
771.174	0.0176314
771.253	0.0173226
771.331	0.0169232
771.409	0.0166855
771.487	0.0161092
771.565	0.0159914
771.643	0.0156815
771.721	0.0154783
771.799	0.0152272
771.878	0.0151923
771.956	0.0152966
772.034	0.0153442
772.112	0.0154310
772.190	0.0156712
772.268	0.0157077
772.346	0.0157932
772.424	0.0160275
772.503	0.0161528
772.581	0.0161636
772.659	0.0162710
772.737	0.0164288
772.815	0.0163026
772.893	0.0163352
772.971	0.0162751
773.049	0.0164780
773.128	0.0164646
773.206	0.0163999
773.284	0.0163247
773.362	0.0162329
773.440	0.0161639
773.518	0.0163734
773.596	0.0163216
773.674	0.0161681
773.753	0.0164072
773.831	0.0162863
773.909	0.0162833
773.987	0.0163546
774.065	0.0162742
774.143	0.0164718
774.221	0.0164693
774.299	0.0163648
774.378	0.0163586
774.456	0.0163344
774.534	0.0163808
774.612	0.0164243
774.690	0.0164043
774.768	0.0163003
774.846	0.0162637
774.924	0.0162492
775.003	0.0161473
775.081	0.0158826
775.159	0.0157377
775.237	0.0155573
775.315	0.0154086
775.393	0.0152863
775.471	0.0148848
775.549	0.0147132
775.628	0.0147278
775.706	0.0146980
775.784	0.0146363
775.862	0.0150537
775.940	0.0151942
776.018	0.0153516
776.096	0.0157693
776.174	0.0159093
776.253	0.0163401
776.331	0.0168241
776.409	0.0173074
776.487	0.0177416
776.565	0.0178616
776.643	0.0182214
776.721	0.0183562
776.799	0.0185497
776.878	0.0184820
776.956	0.0185284
777.034	0.0185145
777.112	0.0183839
777.190	0.0180103
777.268	0.0178539
777.346	0.0177191
777.424	0.0173488
777.503	0.0170912
777.581	0.0167811
777.659	0.0162948
777.737	0.0162326
777.815	0.0160001
777.893	0.0157192
777.971	0.0156696
778.049	0.0153620
778.128	0.0154917
778.206	0.0153307
778.284	0.0154552
778.362	0.0154335
778.440	0.0154923
778.518	0.0154015
778.596	0.0155772
778.674	0.0156098
778.753	0.0157011
778.831	0.0156606
778.909	0.0157225
778.987	0.0159637
779.065	0.0158707
779.143	0.0160365
779.221	0.0161197
779.299	0.0161821
779.378	0.0163114
779.456	0.0162030
779.534	0.0163301
779.612	0.0163200
779.690	0.0164529
779.768	0.0163892
779.846	0.0166255
779.924	0.0164697
780.003	0.0164359
780.081	0.0166255
780.159	0.0166273
780.237	0.0165626
780.315	0.0166467
780.393	0.0166656
780.471	0.0165211
780.549	0.0167579
780.628	0.0166381
780.706	0.0166731
780.784	0.0166322
780.862	0.0165043
780.940	0.0164067
781.018	0.0164935
781.096	0.0163649
781.174	0.0162437
781.253	0.0161377
781.331	0.0161583
781.409	0.0158370
781.487	0.0157393
781.565	0.0154951
781.643	0.0154393
781.721	0.0152574
781.799	0.0151868
781.878	0.0151718
781.956	0.0150952
782.034	0.0150930
782.112	0.0152618
782.190	0.0154797
782.268	0.0153896
782.346	0.0157612
782.424	0.0160348
782.503	0.0163363
782.581	0.0163082
782.659	0.0166586
782.737	0.0171033
782.815	0.0172390
782.893	0.0174572
782.971	0.0176419
783.049	0.0177179
783.128	0.0178461
783.206	0.0179456
783.284	0.0178468
783.362	0.0179000
783.440	0.0176417
783.518	0.0176827
783.596	0.0176114
783.674	0.0172781
783.753	0.0170902
783.831	0.0169908
783.909	0.0169166
783.987	0.0166424
784.065	0.0164126
784.143	0.0162640
784.221	0.0161974
784.299	0.0161130
784.378	0.0160487
784.456	0.0159788
784.534	0.0157754
784.612	0.0157205
784.690	0.0157657
784.768	0.0158096
784.846	0.0157801
784.924	0.0158141
785.003	0.0156979
785.081	0.0158952
785.159	0.0159499
785.237	0.0159315
785.315	0.0161317
785.393	0.0161006
785.471	0.0161082
785.549	0.0161700
785.628	0.0164255
785.706	0.0164324
785.784	0.0164684
785.862	0.0164104
785.940	0.0162742
786.018	0.0163963
786.096	0.0163746
786.174	0.0163174
786.253	0.0163454
786.331	0.0162522
786.409	0.0162853
786.487	0.0163406
786.565	0.0163528
786.643	0.0165340
786.721	0.0164935
786.799	0.0164119
786.878	0.0164638
786.956	0.0165458
787.034	0.0164697
787.112	0.0165163
787.190	0.0164526
787.268	0.0163951
787.346	0.0165952
787.424	0.0165526
787.503	0.0162489
787.581	0.0163413
787.659	0.0161826
787.737	0.0161903
787.815	0.0160055
787.893	0.0159331
787.971	0.0157701
788.049	0.0156438
788.128	0.0156858
788.206	0.0156547
788.284	0.0155888
788.362	0.0156326
788.440	0.0158193
788.518	0.0157510
788.596	0.0157983
788.674	0.0158659
788.753	0.0160728
788.831	0.0163879
788.909	0.0164639
788.987	0.0167106
789.065	0.0168328
789.143	0.0169012
789.221	0.0170872
789.299	0.0172128
789.378	0.0172634
789.456	0.0174225
789.534	0.0172855
789.612	0.0174660
789.690	0.0173464
789.768	0.0172173
789.846	0.0171851
789.924	0.0170760
790.003	0.0169941
790.081	0.0168236
790.159	0.0167662
790.237	0.0166962
790.315	0.0167027
790.393	0.0164664
790.471	0.0162600
790.549	0.0163234
790.628	0.0162608
790.706	0.0160607
790.784	0.0160109
790.862	0.0160191
790.940	0.0160732
791.018	0.0159222
791.096	0.0158910
791.174	0.0158749
791.253	0.0158186
791.331	0.0158630
791.409	0.0160060
791.487	0.0159624
791.565	0.0159868
791.643	0.0159165
791.721	0.0161153
791.799	0.0160133
791.878	0.0161160
791.956	0.0161270
792.034	0.0161661
792.112	0.0164370
792.190	0.0161536
792.268	0.0163076
792.346	0.0163839
792.424	0.0164935
792.503	0.0165010
792.581	0.0164978
792.659	0.0166750
792.737	0.0164260
792.815	0.0165842
792.893	0.0165835
792.971	0.0167682
793.049	0.0166644
793.128	0.0165788
793.206	0.0166425
793.284	0.0166664
793.362	0.0166270
793.440	0.0166900
793.518	0.0166020
793.596	0.0165984
793.674	0.0165133
793.753	0.0162460
793.831	0.0162322
793.909	0.0162167
793.987	0.0160576
794.065	0.0157895
794.143	0.0158318
794.221	0.0155669
794.299	0.0155936
794.378	0.0156429
794.456	0.0156744
794.534	0.0156618
794.612	0.0155772
794.690	0.0157251
794.768	0.0157648
794.846	0.0157609
794.924	0.0158848
795.003	0.0160692
795.081	0.0161491
795.159	0.0162587
795.237	0.0166185
795.315	0.0168813
795.393	0.0168001
795.471	0.0169498
795.549	0.0171992
795.628	0.0170862
795.706	0.0172648
795.784	0.0171676
795.862	0.0171741
795.940	0.0172398
796.018	0.0172984
796.096	0.0171505
796.174	0.0169966
796.253	0.0169617
796.331	0.0169361
796.409	0.0170279
796.487	0.0167814
796.565	0.0166611
796.643	0.0165730
796.721	0.0165600
796.799	0.0164400
796.878	0.0162514
796.956	0.0162550
797.034	0.0162246
797.112	0.0161882
797.190	0.0161210
797.268	0.0160354
797.346	0.0159336
797.424	0.0158839
797.503	0.0160119
797.581	0.0160383
797.659	0.0159973
797.737	0.0159179
797.815	0.0159393
797.893	0.0159808
797.971	0.0159805
798.049	0.0160014
798.128	0.0160986
798.206	0.0160073
798.284	0.0160461
798.362	0.0161935
798.440	0.0160635
798.518	0.0161936
798.596	0.0161459
798.674	0.0161899
798.753	0.0163229
798.831	0.0162019
798.909	0.0164240
798.987	0.0162688
799.065	0.0164501
799.143	0.0164548
799.221	0.0164891
799.299	0.0166610
799.378	0.0166916
799.456	0.0165739
799.534	0.0167203
799.612	0.0167554
799.690	0.0166022
799.768	0.0166408
799.846	0.0169002
799.924	0.0165218
800.003	0.0163928
800.081	0.0164523
800.159	0.0165359
800.237	0.0163081
800.315	0.0160828
800.393	0.0160498
800.471	0.0160448
800.549	0.0158901
800.628	0.0157410
800.706	0.0158315
800.784	0.0158895
800.862	0.0158271
800.940	0.0158513
801.018	0.0157829
801.096	0.0158691
801.174	0.0159311
801.253	0.0158628
801.331	0.0161292
801.409	0.0161651
801.487	0.0163648
801.565	0.0164716
801.643	0.0166553
801.721	0.0165950
801.799	0.0167168
801.878	0.0167402
801.956	0.0169541
802.034	0.0169177
802.112	0.0167523
802.190	0.0168738
802.268	0.0169125
802.346	0.0167411
802.424	0.0166006
802.503	0.0165583
802.581	0.0165023
802.659	0.0165260
802.737	0.0164630
802.815	0.0164639
802.893	0.0164211
802.971	0.0163541
803.049	0.0163119
803.128	0.0162774
803.206	0.0163817
803.284	0.0164490
803.362	0.0165683
803.440	0.0165054
803.518	0.0163790
803.596	0.0164056
803.674	0.0165563
803.753	0.0164339
803.831	0.0165457
803.909	0.0164287
803.987	0.0163670
804.065	0.0164168
804.143	0.0164726
804.221	0.0163319
804.299	0.0162719
804.378	0.0162626
804.456	0.0161308
804.534	0.0161295
804.612	0.0161436
804.690	0.0162888
804.768	0.0161394
804.846	0.0161550
804.924	0.0161196
805.003	0.0162617
805.081	0.0161895
805.159	0.0162162
805.237	0.0162289
805.315	0.0162649
805.393	0.0162128
805.471	0.0162273
805.549	0.0162496
805.628	0.0162847
805.706	0.0162824
805.784	0.0162766
805.862	0.0164605
805.940	0.0163223
806.018	0.0163812
806.096	0.0164835
806.174	0.0164888
806.253	0.0164243
806.331	0.0163144
806.409	0.0163991
806.487	0.0163374
806.565	0.0162782
806.643	0.0162309
806.721	0.0162280
806.799	0.0161208
806.878	0.0161771
806.956	0.0158825
807.034	0.0162095
807.112	0.0161352
807.190	0.0160217
807.268	0.0160357
807.346	0.0160995
807.424	0.0160788
807.503	0.0161716
807.581	0.0161617
807.659	0.0162837
807.737	0.0162701
807.815	0.0166741
807.893	0.0164700
807.971	0.0165678
808.049	0.0166702
808.128	0.0167461
808.206	0.0166928
808.284	0.0168415
808.362	0.0167233
808.440	0.0167310
808.518	0.0166935
808.596	0.0168547
808.674	0.0166177
808.753	0.0166068
808.831	0.0165464
808.909	0.0166541
808.987	0.0164279
809.065	0.0163477
809.143	0.0164406
809.221	0.0165649
809.299	0.0163113
809.378	0.0163357
809.456	0.0165086
809.534	0.0163527
809.612	0.0162914
809.690	0.0163754
809.768	0.0163863
809.846	0.0162453
809.924	0.0162875
810.003	0.0163412
810.081	0.0162894
810.159	0.0162479
810.237	0.0162447
810.315	0.0162630
810.393	0.0162489
810.471	0.0163091
810.549	0.0162408
810.628	0.0162351
810.706	0.0162695
810.784	0.0161604
810.862	0.0164731
810.940	0.0163027
811.018	0.0162848
811.096	0.0162807
811.174	0.0163663
811.253	0.0163966
811.331	0.0163264
811.409	0.0163538
811.487	0.0162248
811.565	0.0162413
811.643	0.0163820
811.721	0.0162966
811.799	0.0163141
811.878	0.0164585
811.956	0.0163386
812.034	0.0163583
812.112	0.0163053
812.190	0.0162410
812.268	0.0164836
812.346	0.0164666
812.424	0.0162945
812.503	0.0164799
812.581	0.0164089
812.659	0.0163443
812.737	0.0163438
812.815	0.0162775
812.893	0.0163297
812.971	0.0161709
813.049	0.0161903
813.128	0.0162193
813.206	0.0161246
813.284	0.0159708
813.362	0.0160873
813.440	0.0159435
813.518	0.0159364
813.596	0.0159527
813.674	0.0160103
813.753	0.0159735
813.831	0.0160689
813.909	0.0161793
813.987	0.0162743
814.065	0.0163739
814.143	0.0164231
814.221	0.0163478
814.299	0.0165194
814.378	0.0165985
814.456	0.0166927
814.534	0.0166168
814.612	0.0167163
814.690	0.0166645
814.768	0.0165940
814.846	0.0166880
814.924	0.0168705
815.003	0.0167545
815.081	0.0168092
815.159	0.0166247
815.237	0.0166991
815.315	0.0166645
815.393	0.0165437
815.471	0.0165156
815.549	0.0166168
815.628	0.0164044
815.706	0.0163225
815.784	0.0163627
815.862	0.0161768
815.940	0.0162640
816.018	0.0163367
816.096	0.0163011
816.174	0.0161103
816.253	0.0161397
816.331	0.0161861
816.409	0.0161448
816.487	0.0163221
816.565	0.0162168
816.643	0.0163400
816.721	0.0164079
816.799	0.0163670
816.878	0.0165217
816.956	0.0164408
817.034	0.0165122
817.112	0.0164135
817.190	0.0163889
817.268	0.0163941
817.346	0.0162968
817.424	0.0164146
817.503	0.0164301
817.581	0.0163087
817.659	0.0163525
817.737	0.0163964
817.815	0.0163516
817.893	0.0162637
817.971	0.0163493
818.049	0.0162656
818.128	0.0163219
818.206	0.0162930
818.284	0.0164155
818.362	0.0162679
818.440	0.0162094
818.518	0.0162275
818.596	0.0164426
818.674	0.0162031
818.753	0.0162919
818.831	0.0163672
818.909	0.0162173
818.987	0.0162841
819.065	0.0163158
819.143	0.0163816
819.221	0.0161781
819.299	0.0161654
819.378	0.0162496
819.456	0.0162448
819.534	0.0161622
819.612	0.0162706
819.690	0.0161770
819.768	0.0160829
819.846	0.0163451
819.924	0.0164404
820.003	0.0161884
820.081	0.0162245
820.159	0.0162714
820.237	0.0162579
820.315	0.0161909
820.393	0.0164446
820.471	0.0165495
820.549	0.0164893
820.628	0.0165631
820.706	0.0164040
820.784	0.0166270
820.862	0.0166445
820.940	0.0166403
821.018	0.0166378
821.096	0.0168472
821.174	0.0168320
821.253	0.0166747
821.331	0.0166450
821.409	0.0167065
821.487	0.0167813
821.565	0.0166772
821.643	0.0166695
821.721	0.0164417
821.799	0.0166545
821.878	0.0165276
821.956	0.0165905
822.034	0.0163709
822.112	0.0161672
822.190	0.0162406
822.268	0.0162677
822.346	0.0162325
822.424	0.0163526
822.503	0.0162977
822.581	0.0162410
822.659	0.0162337
822.737	0.0162466
822.815	0.0162103
822.893	0.0162891
822.971	0.0163306
823.049	0.0162111
823.128	0.0162818
823.206	0.0163509
823.284	0.0162461
823.362	0.0164153
823.440	0.0163222
823.518	0.0164788
823.596	0.0163893
823.674	0.0163796
823.753	0.0161625
823.831	0.0162024
823.909	0.0161986
823.987	0.0162693
824.065	0.0161165
824.143	0.0162652
824.221	0.0161562
824.299	0.0162297
824.378	0.0162630
824.456	0.0163658
824.534	0.0163940
824.612	0.0164125
824.690	0.0163298
824.768	0.0165598
824.846	0.0164506
824.924	0.0164089
825.003	0.0165015
825.081	0.0165726
825.159	0.0163731
825.237	0.0164459
825.315	0.0164608
825.393	0.0163695
825.471	0.0163251
825.549	0.0163827
825.628	0.0161413
825.706	0.0162514
825.784	0.0162218
825.862	0.0162518
825.940	0.0161634
826.018	0.0162082
826.096	0.0163477
826.174	0.0162400
826.253	0.0161658
826.331	0.0162621
826.409	0.0163248
826.487	0.0163945
826.565	0.0162125
826.643	0.0163618
826.721	0.0164594
826.799	0.0165366
826.878	0.0165445
826.956	0.0166727
827.034	0.0164371
827.112	0.0166899
827.190	0.0167641
827.268	0.0167825
827.346	0.0167970
827.424	0.0167368
827.503	0.0167445
827.581	0.0166024
827.659	0.0166357
827.737	0.0166586
827.815	0.0166793
827.893	0.0164864
827.971	0.0164188
828.049	0.0163628
828.128	0.0164521
828.206	0.0163969
828.284	0.0163278
828.362	0.0161935
828.440	0.0162054
828.518	0.0162807
828.596	0.0163355
828.674	0.0162625
828.753	0.0162506
828.831	0.0161880
828.909	0.0162333
828.987	0.0163474
829.065	0.0164379
829.143	0.0161761
829.221	0.0162523
829.299	0.0161749
829.378	0.0162411
829.456	0.0162120
829.534	0.0161709
829.612	0.0162623
829.690	0.0160143
829.768	0.0161029
829.846	0.0161012
829.924	0.0160443
830.003	0.0161779
830.081	0.0161511
830.159	0.0161608
830.237	0.0161909
830.315	0.0162162
830.393	0.0163349
830.471	0.0162999
830.549	0.0163112
830.628	0.0163665
830.706	0.0163422
830.784	0.0164819
830.862	0.0163925
830.940	0.0164056
831.018	0.0164721
831.096	0.0165174
831.174	0.0164960
831.253	0.0165984
831.331	0.0165706
831.409	0.0166348
831.487	0.0165858
831.565	0.0165000
831.643	0.0166008
831.721	0.0164529
831.799	0.0166581
831.878	0.0166439
831.956	0.0165839
832.034	0.0167773
832.112	0.0167355
832.190	0.0164661
832.268	0.0165256
832.346	0.0164973
832.424	0.0163964
832.503	0.0163826
832.581	0.0162421
832.659	0.0162084
832.737	0.0160649
832.815	0.0162285
832.893	0.0160969
832.971	0.0160489
833.049	0.0160889
833.128	0.0160599
833.206	0.0160884
833.284	0.0160119
833.362	0.0160655
833.440	0.0162737
833.518	0.0162016
833.596	0.0162241
833.674	0.0161878
833.753	0.0161066
833.831	0.0162793
833.909	0.0163725
833.987	0.0163203
834.065	0.0163371
834.143	0.0162895
834.221	0.0164416
834.299	0.0163337
834.378	0.0163385
834.456	0.0163810
834.534	0.0164529
834.612	0.0163059
834.690	0.0163781
834.768	0.0164584
834.846	0.0164877
834.924	0.0165947
835.003	0.0164018
835.081	0.0164833
835.159	0.0164851
835.237	0.0163924
835.315	0.0163353
835.393	0.0164481
835.471	0.0165003
835.549	0.0166957
835.628	0.0164524
835.706	0.0165184
835.784	0.0165172
835.862	0.0166538
835.940	0.0167087
836.018	0.0165616
836.096	0.0165752
836.174	0.0166140
836.253	0.0165074
836.331	0.0164568
836.409	0.0164465
836.487	0.0164937
836.565	0.0162668
836.643	0.0162788
836.721	0.0162315
836.799	0.0163042
836.878	0.0163025
836.956	0.0161922
837.034	0.0161343
837.112	0.0160233
837.190	0.0160451
837.268	0.0161761
837.346	0.0162177
837.424	0.0160603
837.503	0.0160265
837.581	0.0161418
837.659	0.0162421
837.737	0.0162279
837.815	0.0161947
837.893	0.0162756
837.971	0.0164159
838.049	0.0164938
838.128	0.0165122
838.206	0.0164381
838.284	0.0165388
838.362	0.0164191
838.440	0.0166302
838.518	0.0166332
838.596	0.0166562
838.674	0.0166615
838.753	0.0165087
838.831	0.0164636
838.909	0.0165547
838.987	0.0165726
839.065	0.0163628
839.143	0.0165185
839.221	0.0164465
839.299	0.0164522
839.378	0.0164087
839.456	0.0163686
839.534	0.0164268
839.612	0.0163430
839.690	0.0163444
839.768	0.0164097
839.846	0.0164551
839.924	0.0163773
840.003	0.0163936
840.081	0.0164080
840.159	0.0164615
840.237	0.0165521
840.315	0.0164354
840.393	0.0163947
840.471	0.0164524
840.549	0.0164780
840.628	0.0164161
840.706	0.0164661
840.784	0.0164260
840.862	0.0164037
840.940	0.0163648
841.018	0.0162071
841.096	0.0164080
841.174	0.0163863
841.253	0.0162491
841.331	0.0162074
841.409	0.0162845
841.487	0.0161753
841.565	0.0162067
841.643	0.0161588
841.721	0.0163037
841.799	0.0161250
841.878	0.0161616
841.956	0.0160283
842.034	0.0162646
842.112	0.0162665
842.190	0.0162608
842.268	0.0163528
842.346	0.0161963
842.424	0.0161293
842.503	0.0164326
842.581	0.0164705
842.659	0.0164522
842.737	0.0163975
842.815	0.0164320
842.893	0.0165028
842.971	0.0165612
843.049	0.0165401
843.128	0.0163767
843.206	0.0164617
843.284	0.0165081
843.362	0.0163927
843.440	0.0164355
843.518	0.0164750
843.596	0.0165359
843.674	0.0165450
843.753	0.0164594
843.831	0.0164737
843.909	0.0165002
843.987	0.0165213
844.065	0.0167036
844.143	0.0165754
844.221	0.0166085
844.299	0.0165781
844.378	0.0167755
844.456	0.0167231
844.534	0.0165636
844.612	0.0166219
844.690	0.0165427
844.768	0.0167091
844.846	0.0167241
844.924	0.0165678
845.003	0.0164286
845.081	0.0166234
845.159	0.0165125
845.237	0.0165040
845.315	0.0164543
845.393	0.0162025
845.471	0.0163673
845.549	0.0162833
845.628	0.0162204
845.706	0.0163129
845.784	0.0162371
845.862	0.0162207
845.940	0.0160663
846.018	0.0161731
846.096	0.0162174
846.174	0.0161437
846.253	0.0160926
846.331	0.0162180
846.409	0.0162112
846.487	0.0160449
846.565	0.0160291
846.643	0.0163205
846.721	0.0161555
846.799	0.0160714
846.878	0.0160446
846.956	0.0161777
847.034	0.0162268
847.112	0.0162469
847.190	0.0161373
847.268	0.0160934
847.346	0.0162860
847.424	0.0162430
847.503	0.0163113
847.581	0.0163770
847.659	0.0164100
847.737	0.0164410
847.815	0.0164053
847.893	0.0163327
847.971	0.0164288
848.049	0.0163877
848.128	0.0165256
848.206	0.0165299
848.284	0.0165405
848.362	0.0164192
848.440	0.0164602
848.518	0.0164988
848.596	0.0166282
848.674	0.0165697
848.753	0.0165340
848.831	0.0165554
848.909	0.0166216
848.987	0.0166505
849.065	0.0167547
849.143	0.0168532
849.221	0.0166834
849.299	0.0166936
849.378	0.0166816
849.456	0.0167333
849.534	0.0167458
849.612	0.0169498
849.690	0.0167233
849.768	0.0166100
849.846	0.0166724
849.924	0.0165540
850.003	0.0166777
850.081	0.0165986
850.159	0.0163878
850.237	0.0164020
850.315	0.0163551
850.393	0.0162738
850.471	0.0163197
850.549	0.0162579
850.628	0.0162213
850.706	0.0162224
850.784	0.0162437
850.862	0.0161606
850.940	0.0161818
851.018	0.0161685
851.096	0.0162164
851.174	0.0162363
851.253	0.0161480
851.331	0.0161798
851.409	0.0164642
851.487	0.0163577
851.565	0.0164330
851.643	0.0161883
851.721	0.0162137
851.799	0.0163049
851.878	0.0162292
851.956	0.0160831
852.034	0.0162302
852.112	0.0161856
852.190	0.0161671
852.268	0.0161777
852.346	0.0162113
852.424	0.0161211
852.503	0.0162165
852.581	0.0162846
852.659	0.0161311
852.737	0.0162524
852.815	0.0161202
852.893	0.0162903
852.971	0.0162562
853.049	0.0163084
853.128	0.0162669
853.206	0.0162375
853.284	0.0163019
853.362	0.0163520
853.440	0.0163436
853.518	0.0163576
853.596	0.0165687
853.674	0.0164472
853.753	0.0164375
853.831	0.0164635
853.909	0.0163646
853.987	0.0164644
854.065	0.0164231
854.143	0.0166203
854.221	0.0166220
854.299	0.0165489
854.378	0.0166261
854.456	0.0167971
854.534	0.0164955
854.612	0.0165512
854.690	0.0167700
854.768	0.0165490
854.846	0.0166312
854.924	0.0165884
855.003	0.0166000
855.081	0.0165821
855.159	0.0166429
855.237	0.0166891
855.315	0.0165105
855.393	0.0164598
855.471	0.0164539
855.549	0.0164080
855.628	0.0163325
855.706	0.0164894
855.784	0.0164111
855.862	0.0165118
855.940	0.0163608
856.018	0.0162846
856.096	0.0162576
856.174	0.0161977
856.253	0.0161527
856.331	0.0163779
856.409	0.0161643
856.487	0.0161909
856.565	0.0161269
856.643	0.0160320
856.721	0.0160555
856.799	0.0160581
856.878	0.0160611
856.956	0.0159479
857.034	0.0161430
857.112	0.0160696
857.190	0.0162607
857.268	0.0162198
857.346	0.0160984
857.424	0.0161008
857.503	0.0162400
857.581	0.0163248
857.659	0.0161894
857.737	0.0161884
857.815	0.0163250
857.893	0.0163750
857.971	0.0163073
858.049	0.0162820
858.128	0.0164179
858.206	0.0164948
858.284	0.0164156
858.362	0.0163356
858.440	0.0164449
858.518	0.0163925
858.596	0.0164243
858.674	0.0162930
858.753	0.0164259
858.831	0.0163441
858.909	0.0164072
858.987	0.0163270
859.065	0.0162679
859.143	0.0162789
859.221	0.0162512
859.299	0.0162809
859.378	0.0163679
859.456	0.0161142
859.534	0.0162688
859.612	0.0164297
859.690	0.0162240
859.768	0.0162156
859.846	0.0161650
859.924	0.0163538
860.003	0.0163576
860.081	0.0164129
860.159	0.0163327
860.237	0.0164201
860.315	0.0165280
860.393	0.0165166
860.471	0.0166232
860.549	0.0165401
860.628	0.0165134
860.706	0.0164687
860.784	0.0165310
860.862	0.0164645
860.940	0.0164626
861.018	0.0165836
861.096	0.0164217
861.174	0.0163950
861.253	0.0165118
861.331	0.0164876
861.409	0.0165550
861.487	0.0163308
861.565	0.0165594
861.643	0.0164405
861.721	0.0162195
861.799	0.0163828
861.878	0.0164601
861.956	0.0164505
862.034	0.0164101
862.112	0.0162813
862.190	0.0164014
862.268	0.0163324
862.346	0.0164539
862.424	0.0165105
862.503	0.0163664
862.581	0.0162960
862.659	0.0163266
862.737	0.0163912
862.815	0.0162781
862.893	0.0162611
862.971	0.0164009
863.049	0.0162114
863.128	0.0162636
863.206	0.0161920
863.284	0.0162655
863.362	0.0163422
863.440	0.0162203
863.518	0.0163672
863.596	0.0162692
863.674	0.0162438
863.753	0.0163223
863.831	0.0162576
863.909	0.0162843
863.987	0.0164381
864.065	0.0163252
864.143	0.0162651
864.221	0.0163114
864.299	0.0163275
864.378	0.0163750
864.456	0.0163354
864.534	0.0163469
864.612	0.0163941
864.690	0.0164619
864.768	0.0163624
864.846	0.0163584
864.924	0.0163458
865.003	0.0164233
865.081	0.0162023
865.159	0.0163688
865.237	0.0162073
865.315	0.0162672
865.393	0.0162207
865.471	0.0163042
865.549	0.0162895
865.628	0.0163213
865.706	0.0163750
865.784	0.0163749
865.862	0.0162283
865.940	0.0163478
866.018	0.0162832
866.096	0.0162804
866.174	0.0163950
866.253	0.0163294
866.331	0.0163068
866.409	0.0164251
866.487	0.0163315
866.565	0.0164383
866.643	0.0164812
866.721	0.0164785
866.799	0.0164913
866.878	0.0165466
866.956	0.0164820
867.034	0.0166611
867.112	0.0166561
867.190	0.0167429
867.268	0.0165877
867.346	0.0167597
867.424	0.0166027
867.503	0.0166927
867.581	0.0165136
867.659	0.0166689
867.737	0.0166830
867.815	0.0166313
867.893	0.0165589
867.971	0.0164900
868.049	0.0165724
868.128	0.0165263
868.206	0.0164308
868.284	0.0164583
868.362	0.0163748
868.440	0.0163317
868.518	0.0164691
868.596	0.0164481
868.674	0.0163093
868.753	0.0163184
868.831	0.0163737
868.909	0.0161798
868.987	0.0163421
869.065	0.0162526
869.143	0.0161589
869.221	0.0161555
869.299	0.0161214
869.378	0.0161825
869.456	0.0161579
869.534	0.0160246
869.612	0.0160831
869.690	0.0162037
869.768	0.0161391
869.846	0.0160770
869.924	0.0162135
870.003	0.0160701
870.081	0.0161253
870.159	0.0161983
870.237	0.0162177
870.315	0.0162419
870.393	0.0162480
870.471	0.0163840
870.549	0.0163272
870.628	0.0163422
870.706	0.0164523
870.784	0.0164150
870.862	0.0164828
870.940	0.0164309
871.018	0.0163879
871.096	0.0163675
871.174	0.0165678
871.253	0.0164211
871.331	0.0165172
871.409	0.0165142
871.487	0.0165243
871.565	0.0163641
871.643	0.0164254
871.721	0.0165356
871.799	0.0165178
871.878	0.0163723
871.956	0.0162930
872.034	0.0163501
872.112	0.0162758
872.190	0.0163716
872.268	0.0162318
872.346	0.0163699
872.424	0.0163420
872.503	0.0162790
872.581	0.0163716
872.659	0.0164259
872.737	0.0162711
872.815	0.0163143
872.893	0.0164584
872.971	0.0165032
873.049	0.0164858
873.128	0.0163731
873.206	0.0165136
873.284	0.0166543
873.362	0.0165712
873.440	0.0167028
873.518	0.0166011
873.596	0.0165002
873.674	0.0166988
873.753	0.0166344
873.831	0.0165387
873.909	0.0166257
873.987	0.0164874
874.065	0.0164950
874.143	0.0163920
874.221	0.0163421
874.299	0.0166018
874.378	0.0164249
874.456	0.0162255
874.534	0.0163347
874.612	0.0163622
874.690	0.0162688
874.768	0.0163085
874.846	0.0162708
874.924	0.0161389
875.003	0.0162476
875.081	0.0161723
875.159	0.0161674
875.237	0.0162343
875.315	0.0161922
875.393	0.0162067
875.471	0.0161597
875.549	0.0161503
875.628	0.0161078
875.706	0.0161655
875.784	0.0162505
875.862	0.0162054
875.940	0.0161346
876.018	0.0161363
876.096	0.0162603
876.174	0.0162653
876.253	0.0164396
876.331	0.0163506
876.409	0.0163129
876.487	0.0162520
876.565	0.0163004
876.643	0.0162035
876.721	0.0163264
876.799	0.0165699
876.878	0.0164187
876.956	0.0163565
877.034	0.0164036
877.112	0.0163530
877.190	0.0164880
877.268	0.0163570
877.346	0.0162650
877.424	0.0162714
877.503	0.0164310
877.581	0.0164218
877.659	0.0164005
877.737	0.0164233
877.815	0.0163030
877.893	0.0162917
877.971	0.0163974
878.049	0.0164780
878.128	0.0162921
878.206	0.0163496
878.284	0.0163117
878.362	0.0164006
878.440	0.0163290
878.518	0.0163099
878.596	0.0162870
878.674	0.0162225
878.753	0.0163282
878.831	0.0163705
878.909	0.0165460
878.987	0.0163895
879.065	0.0164748
879.143	0.0164694
879.221	0.0162817
879.299	0.0164906
879.378	0.0165736
879.456	0.0164848
879.534	0.0165565
879.612	0.0166149
879.690	0.0166096
879.768	0.0166463
879.846	0.0165232
879.924	0.0164281
880.003	0.0165897
880.081	0.0164555
880.159	0.0164988
880.237	0.0163892
880.315	0.0163478
880.393	0.0164267
880.471	0.0163686
880.549	0.0163406
880.628	0.0161439
880.706	0.0163325
880.784	0.0162794
880.862	0.0163859
880.940	0.0164036
881.018	0.0162843
881.096	0.0162927
881.174	0.0162100
881.253	0.0162556
881.331	0.0162225
881.409	0.0163081
881.487	0.0162897
881.565	0.0161644
881.643	0.0162296
881.721	0.0162431
881.799	0.0160896
881.878	0.0161615
881.956	0.0163503
882.034	0.0162627
882.112	0.0162498
882.190	0.0162302
882.268	0.0162057
882.346	0.0161669
882.424	0.0161464
882.503	0.0162503
882.581	0.0161941
882.659	0.0162840
882.737	0.0162942
882.815	0.0162293
882.893	0.0163550
882.971	0.0163994
883.049	0.0162725
883.128	0.0162846
883.206	0.0161880
883.284	0.0162945
883.362	0.0163467
883.440	0.0163916
883.518	0.0165813
883.596	0.0163041
883.674	0.0163165
883.753	0.0163335
883.831	0.0163544
883.909	0.0164231
883.987	0.0164198
884.065	0.0163645
884.143	0.0163371
884.221	0.0164499
884.299	0.0164796
884.378	0.0163388
884.456	0.0164127
884.534	0.0164204
884.612	0.0163917
884.690	0.0164237
884.768	0.0163979
884.846	0.0162898
884.924	0.0164593
885.003	0.0165041
885.081	0.0162884
885.159	0.0163821
885.237	0.0164014
885.315	0.0164041
885.393	0.0164471
885.471	0.0164777
885.549	0.0165009
885.628	0.0163524
885.706	0.0163703
885.784	0.0163990
885.862	0.0164863
885.940	0.0165431
886.018	0.0163853
886.096	0.0164526
886.174	0.0163934
886.253	0.0164682
886.331	0.0165285
886.409	0.0165112
886.487	0.0164465
886.565	0.0164396
886.643	0.0164078
886.721	0.0163567
886.799	0.0163762
886.878	0.0164118
886.956	0.0163811
887.034	0.0162437
887.112	0.0162906
887.190	0.0163982
887.268	0.0163805
887.346	0.0161682
887.424	0.0162154
887.503	0.0162100
887.581	0.0161830
887.659	0.0162463
887.737	0.0161606
887.815	0.0162634
887.893	0.0161716
887.971	0.0161801
888.049	0.0161273
888.128	0.0162405
888.206	0.0161576
888.284	0.0162685
888.362	0.0162073
888.440	0.0162305
888.518	0.0162810
888.596	0.0161943
888.674	0.0162411
888.753	0.0162588
888.831	0.0163464
888.909	0.0163734
888.987	0.0163683
889.065	0.0162807
889.143	0.0162869
889.221	0.0162497
889.299	0.0164339
889.378	0.0163884
889.456	0.0163457
889.534	0.0164219
889.612	0.0163543
889.690	0.0164369
889.768	0.0164430
889.846	0.0162724
889.924	0.0163631
890.003	0.0163481
890.081	0.0165108
890.159	0.0163783
890.237	0.0165021
890.315	0.0164832
890.393	0.0163634
890.471	0.0163894
890.549	0.0164129
890.628	0.0165089
890.706	0.0165165
890.784	0.0164861
890.862	0.0162965
890.940	0.0164867
891.018	0.0164748
891.096	0.0165354
891.174	0.0164494
891.253	0.0162979
891.331	0.0163909
891.409	0.0166087
891.487	0.0164753
891.565	0.0164518
891.643	0.0164612
891.721	0.0165785
891.799	0.0165055
891.878	0.0162477
891.956	0.0165981
892.034	0.0164307
892.112	0.0164426
892.190	0.0164528
892.268	0.0164082
892.346	0.0164275
892.424	0.0165437
892.503	0.0163991
892.581	0.0162617
892.659	0.0162804
892.737	0.0162576
892.815	0.0163369
892.893	0.0161626
892.971	0.0162733
893.049	0.0161564
893.128	0.0161807
893.206	0.0162602
893.284	0.0162044
893.362	0.0162785
893.440	0.0162440
893.518	0.0162365
893.596	0.0163261
893.674	0.0164071
893.753	0.0163168
893.831	0.0164199
893.909	0.0163074
893.987	0.0164447
894.065	0.0162696
894.143	0.0163133
894.221	0.0163549
894.299	0.0163329
894.378	0.0162796
894.456	0.0161935
894.534	0.0164678
894.612	0.0163155
894.690	0.0163024
894.768	0.0162364
894.846	0.0162381
894.924	0.0163674
895.003	0.0162002
895.081	0.0162890
895.159	0.0164091
895.237	0.0163508
895.315	0.0163752
895.393	0.0164106
895.471	0.0164169
895.549	0.0164545
895.628	0.0163895
895.706	0.0163844
895.784	0.0165177
895.862	0.0163934
895.940	0.0164884
896.018	0.0164565
896.096	0.0163623
896.174	0.0163215
896.253	0.0165236
896.331	0.0165109
896.409	0.0164172
896.487	0.0163220
896.565	0.0163303
896.643	0.0164259
896.721	0.0164359
896.799	0.0163126
896.878	0.0162936
896.956	0.0164303
897.034	0.0164537
897.112	0.0162225
897.190	0.0163051
897.268	0.0163287
897.346	0.0165140
897.424	0.0162660
897.503	0.0162765
897.581	0.0163352
897.659	0.0164320
897.737	0.0164755
897.815	0.0164050
897.893	0.0163876
897.971	0.0164355
898.049	0.0164220
898.128	0.0163050
898.206	0.0162555
898.284	0.0163452
898.362	0.0163601
898.440	0.0163216
898.518	0.0162988
898.596	0.0162189
898.674	0.0164215
898.753	0.0165025
898.831	0.0163174
898.909	0.0163322
898.987	0.0164293
899.065	0.0164015
899.143	0.0163043
899.221	0.0164410
899.299	0.0164746
899.378	0.0162733
899.456	0.0163218
899.534	0.0163905
899.612	0.0163001
899.690	0.0163725
899.768	0.0163039
899.846	0.0164248
899.924	0.0163408
900.003	0.0162782
900.081	0.0162341
900.159	0.0161993
900.237	0.0163680
900.315	0.0163744
900.393	0.0162588
900.471	0.0162697
900.549	0.0163875
900.628	0.0163306
900.706	0.0164626
900.784	0.0165620
900.862	0.0164349
900.940	0.0163143
901.018	0.0163609
901.096	0.0162846
901.174	0.0163426
901.253	0.0163112
901.331	0.0164015
901.409	0.0165205
901.487	0.0163137
901.565	0.0163253
901.643	0.0163148
901.721	0.0164369
901.799	0.0164345
901.878	0.0163362
901.956	0.0164465
902.034	0.0165726
902.112	0.0163927
902.190	0.0163387
902.268	0.0164828
902.346	0.0164350
902.424	0.0164478
902.503	0.0163525
902.581	0.0163686
902.659	0.0164009
902.737	0.0163081
902.815	0.0162772
902.893	0.0162797
902.971	0.0163847
903.049	0.0164648
903.128	0.0162695
903.206	0.0164513
903.284	0.0164077
903.362	0.0163903
903.440	0.0163472
903.518	0.0162867
903.596	0.0163749
903.674	0.0162748
903.753	0.0162289
903.831	0.0163995
903.909	0.0162810
903.987	0.0162304
904.065	0.0163776
904.143	0.0164849
904.221	0.0164398
904.299	0.0163847
904.378	0.0163721
904.456	0.0164041
904.534	0.0163629
904.612	0.0163125
904.690	0.0162981
904.768	0.0163206
904.846	0.0164767
904.924	0.0162817
905.003	0.0164143
905.081	0.0163773
905.159	0.0163744
905.237	0.0163679
905.315	0.0163353
905.393	0.0163081
905.471	0.0163428
905.549	0.0162794
905.628	0.0162074
905.706	0.0162817
905.784	0.0163741
905.862	0.0162744
905.940	0.0162864
906.018	0.0162859
906.096	0.0163849
906.174	0.0164129
906.253	0.0163268
906.331	0.0164053
906.409	0.0163975
906.487	0.0164477
906.565	0.0164164
906.643	0.0163382
906.721	0.0165885
906.799	0.0164662
906.878	0.0163564
906.956	0.0163231
907.034	0.0163935
907.112	0.0163931
907.190	0.0162749
907.268	0.0163445
907.346	0.0163512
907.424	0.0163228
907.503	0.0163681
907.581	0.0162829
907.659	0.0163618
907.737	0.0164062
907.815	0.0164485
907.893	0.0164215
907.971	0.0164602
908.049	0.0164831
908.128	0.0164373
908.206	0.0165747
908.284	0.0165385
908.362	0.0165727
908.440	0.0164246
908.518	0.0164180
908.596	0.0164072
908.674	0.0165720
908.753	0.0164953
908.831	0.0165247
908.909	0.0165764
908.987	0.0164227
909.065	0.0164507
909.143	0.0164967
909.221	0.0164982
909.299	0.0163450
909.378	0.0162706
909.456	0.0162977
909.534	0.0164277
909.612	0.0162835
909.690	0.0162100
909.768	0.0163654
909.846	0.0163575
909.924	0.0162932
910.003	0.0163175
910.081	0.0161760
910.159	0.0163207
910.237	0.0162262
910.315	0.0161361
910.393	0.0163187
910.471	0.0162492
910.549	0.0164552
910.628	0.0163910
910.706	0.0163453
910.784	0.0162390
910.862	0.0162267
910.940	0.0162625
911.018	0.0163824
911.096	0.0163549
911.174	0.0163218
911.253	0.0163815
911.331	0.0163442
911.409	0.0164161
911.487	0.0164134
911.565	0.0163734
911.643	0.0165175
911.721	0.0163017
911.799	0.0164491
911.878	0.0164260
911.956	0.0164469
912.034	0.0164792
912.112	0.0165038
912.190	0.0163943
912.268	0.0163952
912.346	0.0163744
912.424	0.0164456
912.503	0.0163996
912.581	0.0164068
912.659	0.0162750
912.737	0.0163701
912.815	0.0164295
912.893	0.0163903
912.971	0.0162547
913.049	0.0163426
913.128	0.0164004
913.206	0.0163731
913.284	0.0163435
913.362	0.0163205
913.440	0.0162198
913.518	0.0163080
913.596	0.0163628
913.674	0.0163561
913.753	0.0164804
913.831	0.0163348
913.909	0.0164658
913.987	0.0164030
914.065	0.0164577
914.143	0.0165462
914.221	0.0166286
914.299	0.0165888
914.378	0.0165386
914.456	0.0165083
914.534	0.0166191
914.612	0.0164757
914.690	0.0164881
914.768	0.0165586
914.846	0.0165632
914.924	0.0162634
915.003	0.0163648
915.081	0.0165133
915.159	0.0163477
915.237	0.0165559
915.315	0.0164979
915.393	0.0164545
915.471	0.0163987
915.549	0.0163458
915.628	0.0164096
915.706	0.0163400
915.784	0.0162027
915.862	0.0162354
915.940	0.0164156
916.018	0.0163149
916.096	0.0162364
916.174	0.0161372
916.253	0.0162866
916.331	0.0162631
916.409	0.0162239
916.487	0.0162447
916.565	0.0161901
916.643	0.0162517
916.721	0.0162079
916.799	0.0162524
916.878	0.0163604
916.956	0.0161814
917.034	0.0161683
917.112	0.0162207
917.190	0.0163898
917.268	0.0163245
917.346	0.0164503
917.424	0.0163598
917.503	0.0163958
917.581	0.0163013
917.659	0.0164619
917.737	0.0164449
917.815	0.0165775
917.893	0.0164151
917.971	0.0165308
918.049	0.0164941
918.128	0.0164788
918.206	0.0163657
918.284	0.0164760
918.362	0.0165769
918.440	0.0163407
918.518	0.0165263
918.596	0.0163668
918.674	0.0164921
918.753	0.0163744
918.831	0.0162905
918.909	0.0163926
918.987	0.0163686
919.065	0.0164713
919.143	0.0165186
919.221	0.0164378
919.299	0.0164787
919.378	0.0165330
919.456	0.0163905
919.534	0.0164074
919.612	0.0165355
919.690	0.0165958
919.768	0.0165791
919.846	0.0164279
919.924	0.0164037
920.003	0.0164993
920.081	0.0164984
920.159	0.0163212
920.237	0.0163688
920.315	0.0163726
920.393	0.0162857
920.471	0.0163572
920.549	0.0164367
920.628	0.0164510
920.706	0.0163813
920.784	0.0162814
920.862	0.0164332
920.940	0.0163741
921.018	0.0164809
921.096	0.0164452
921.174	0.0164908
921.253	0.0164355
921.331	0.0165250
921.409	0.0165209
921.487	0.0165437
921.565	0.0166296
921.643	0.0165416
921.721	0.0164024
921.799	0.0165324
921.878	0.0165374
921.956	0.0164494
922.034	0.0162320
922.112	0.0164211
922.190	0.0163570
922.268	0.0164389
922.346	0.0164261
922.424	0.0163100
922.503	0.0162853
922.581	0.0163481
922.659	0.0163847
922.737	0.0163598
922.815	0.0163339
922.893	0.0162637
922.971	0.0162495
923.049	0.0163182
923.128	0.0163615
923.206	0.0162078
923.284	0.0163998
923.362	0.0162108
923.440	0.0162621
923.518	0.0164281
923.596	0.0162463
923.674	0.0162328
923.753	0.0162400
923.831	0.0163859
923.909	0.0163916
923.987	0.0162460
924.065	0.0162981
924.143	0.0164532
924.221	0.0163647
924.299	0.0163799
924.378	0.0163308
924.456	0.0162784
924.534	0.0163467
924.612	0.0163895
924.690	0.0164694
924.768	0.0164286
924.846	0.0163164
924.924	0.0164827
925.003	0.0164203
925.081	0.0164190
925.159	0.0164102
925.237	0.0163564
925.315	0.0163516
925.393	0.0163921
925.471	0.0163985
925.549	0.0165102
925.628	0.0164781
925.706	0.0163483
925.784	0.0164589
925.862	0.0164590
925.940	0.0165422
926.018	0.0165799
926.096	0.0164177
926.174	0.0165009
926.253	0.0164770
926.331	0.0163597
926.409	0.0164236
926.487	0.0162916
926.565	0.0163996
926.643	0.0163715
926.721	0.0163551
926.799	0.0162329
926.878	0.0165044
926.956	0.0163095
927.034	0.0162999
927.112	0.0164941
927.190	0.0163858
927.268	0.0162243
927.346	0.0164476
927.424	0.0163797
927.503	0.0163008
927.581	0.0163330
927.659	0.0163015
927.737	0.0163157
927.815	0.0161990
927.893	0.0162878
927.971	0.0162008
928.049	0.0162608
928.128	0.0162347
928.206	0.0163422
928.284	0.0161805
928.362	0.0163969
928.440	0.0165863
928.518	0.0164526
928.596	0.0164175
928.674	0.0163287
928.753	0.0163090
928.831	0.0165430
928.909	0.0165047
928.987	0.0165024
929.065	0.0163997
929.143	0.0164382
929.221	0.0164494
929.299	0.0162824
929.378	0.0163946
929.456	0.0164779
929.534	0.0164243
929.612	0.0164169
929.690	0.0163802
929.768	0.0163292
929.846	0.0163095
929.924	0.0162934
930.003	0.0164304
930.081	0.0163137
930.159	0.0161785
930.237	0.0161832
930.315	0.0163098
930.393	0.0162110
930.471	0.0163456
930.549	0.0163370
930.628	0.0162408
930.706	0.0163257
930.784	0.0163229
930.862	0.0163254
930.940	0.0163058
931.018	0.0163312
931.096	0.0164418
931.174	0.0163371
931.253	0.0164689
931.331	0.0164315
931.409	0.0163646
931.487	0.0164528
931.565	0.0163975
931.643	0.0163802
931.721	0.0163510
931.799	0.0164593
931.878	0.0163326
931.956	0.0163437
932.034	0.0162696
932.112	0.0163688
932.190	0.0162305
932.268	0.0162368
932.346	0.0162801
932.424	0.0162504
932.503	0.0162785
932.581	0.0161378
932.659	0.0162794
932.737	0.0163271
932.815	0.0163911
932.893	0.0163204
932.971	0.0163462
933.049	0.0164001
933.128	0.0163345
933.206	0.0163166
933.284	0.0163205
933.362	0.0164259
933.440	0.0164639
933.518	0.0164076
933.596	0.0163033
933.674	0.0165347
933.753	0.0165497
933.831	0.0164294
933.909	0.0164902
933.987	0.0163876
934.065	0.0165435
934.143	0.0164684
934.221	0.0164501
934.299	0.0163837
934.378	0.0164297
934.456	0.0163588
934.534	0.0164153
934.612	0.0161491
934.690	0.0163417
934.768	0.0163335
934.846	0.0163067
934.924	0.0162872
935.003	0.0162798
935.081	0.0162437
935.159	0.0163347
935.237	0.0162675
935.315	0.0163516
935.393	0.0163907
935.471	0.0163142
935.549	0.0163235
935.628	0.0163583
935.706	0.0164468
935.784	0.0162971
935.862	0.0163605
935.940	0.0163052
936.018	0.0164123
936.096	0.0163511
936.174	0.0163662
936.253	0.0162837
936.331	0.0162299
936.409	0.0163794
936.487	0.0162607
936.565	0.0162086
936.643	0.0162991
936.721	0.0163416
936.799	0.0162578
936.878	0.0161990
936.956	0.0162540
937.034	0.0162701
937.112	0.0162834
937.190	0.0163298
937.268	0.0162996
937.346	0.0163452
937.424	0.0163313
937.503	0.0163763
937.581	0.0163976
937.659	0.0163239
937.737	0.0164150
937.815	0.0163740
937.893	0.0164199
937.971	0.0165419
938.049	0.0164085
938.128	0.0164416
938.206	0.0164487
938.284	0.0163491
938.362	0.0163469
938.440	0.0164389
938.518	0.0163612
938.596	0.0163730
938.674	0.0164151
938.753	0.0162794
938.831	0.0162969
938.909	0.0164427
938.987	0.0163934
939.065	0.0163534
939.143	0.0163441
939.221	0.0162756
939.299	0.0163548
939.378	0.0164411
939.456	0.0162852
939.534	0.0163879
939.612	0.0164410
939.690	0.0164217
939.768	0.0162909
939.846	0.0162878
939.924	0.0164445
940.003	0.0163776
940.081	0.0165247
940.159	0.0163497
940.237	0.0163010
940.315	0.0163990
940.393	0.0164901
940.471	0.0163808
940.549	0.0164469
940.628	0.0164622
940.706	0.0164116
940.784	0.0164487
940.862	0.0164025
940.940	0.0163619
941.018	0.0163860
941.096	0.0164005
941.174	0.0163551
941.253	0.0164235
941.331	0.0163882
941.409	0.0163472
941.487	0.0164147
941.565	0.0163501
941.643	0.0163066
941.721	0.0163225
941.799	0.0161666
941.878	0.0161225
941.956	0.0161230
942.034	0.0162210
942.112	0.0161452
942.190	0.0163247
942.268	0.0162911
942.346	0.0163347
942.424	0.0164016
942.503	0.0162333
942.581	0.0163921
942.659	0.0163819
942.737	0.0164063
942.815	0.0162318
942.893	0.0163104
942.971	0.0163795
943.049	0.0162995
943.128	0.0163290
943.206	0.0164176
943.284	0.0163029
943.362	0.0163010
943.440	0.0162925
943.518	0.0164762
943.596	0.0162655
943.674	0.0163158
943.753	0.0164318
943.831	0.0166254
943.909	0.0165630
943.987	0.0164972
944.065	0.0165124
944.143	0.0165006
944.221	0.0164592
944.299	0.0165601
944.378	0.0163618
944.456	0.0165014
944.534	0.0163921
944.612	0.0164452
944.690	0.0163515
944.768	0.0163451
944.846	0.0164227
944.924	0.0164135
945.003	0.0161815
945.081	0.0164320
945.159	0.0163763
945.237	0.0163177
945.315	0.0163280
945.393	0.0163244
945.471	0.0163901
945.549	0.0164230
945.628	0.0161961
945.706	0.0163198
945.784	0.0164590
945.862	0.0163805
945.940	0.0162778
946.018	0.0163183
946.096	0.0164128
946.174	0.0161600
946.253	0.0163933
946.331	0.0163081
946.409	0.0162283
946.487	0.0163469
946.565	0.0163894
946.643	0.0164068
946.721	0.0163844
946.799	0.0164536
946.878	0.0163676
946.956	0.0164448
947.034	0.0164110
947.112	0.0163933
947.190	0.0163800
947.268	0.0163426
947.346	0.0163210
947.424	0.0163023
947.503	0.0162790
947.581	0.0162947
947.659	0.0163928
947.737	0.0163190
947.815	0.0162833
947.893	0.0163068
947.971	0.0164153
948.049	0.0163106
948.128	0.0162360
948.206	0.0162761
948.284	0.0163477
948.362	0.0162714
948.440	0.0162731
948.518	0.0162526
948.596	0.0162601
948.674	0.0163307
948.753	0.0162267
948.831	0.0162379
948.909	0.0162380
948.987	0.0161766
949.065	0.0162942
949.143	0.0164295
949.221	0.0162928
949.299	0.0162714
949.378	0.0163328
949.456	0.0165244
949.534	0.0165446
949.612	0.0165347
949.690	0.0164804
949.768	0.0164913
949.846	0.0164573
949.924	0.0163242
