06/29/2022	22:42:29	Ver.	4.1	UNKNOWN
Optical Delay	630.002507	Delta X		0.078125	Sweeps	1	Scan Rate	0/0
Coordinates	Axis 1	NaN	Axis 2	NaN	Axis 3	NaN	Axis 4	NaN	Axis 5	NaN	Axis 6	0.000000
TX Power	0.000000	RX Power	0.000000

630.003	0.0159526
630.081	0.0160522
630.159	0.0158381
630.237	0.0158033
630.315	0.0158966
630.393	0.0159075
630.471	0.0160039
630.549	0.0159760
630.628	0.0159901
630.706	0.0158430
630.784	0.0158586
630.862	0.0158856
630.940	0.0160053
631.018	0.0159393
631.096	0.0158833
631.174	0.0158385
631.253	0.0159375
631.331	0.0158924
631.409	0.0159619
631.487	0.0159937
631.565	0.0161001
631.643	0.0158119
631.721	0.0159087
631.799	0.0158127
631.878	0.0158999
631.956	0.0160820
632.034	0.0158748
632.112	0.0159144
632.190	0.0158234
632.268	0.0158464
632.346	0.0160426
632.424	0.0160860
632.503	0.0159096
632.581	0.0159610
632.659	0.0158871
632.737	0.0158695
632.815	0.0159707
632.893	0.0160035
632.971	0.0159714
633.049	0.0159191
633.128	0.0159538
633.206	0.0159503
633.284	0.0158803
633.362	0.0160573
633.440	0.0160327
633.518	0.0158866
633.596	0.0158959
633.674	0.0158817
633.753	0.0160493
633.831	0.0158964
633.909	0.0158780
633.987	0.0159930
634.065	0.0159998
634.143	0.0158188
634.221	0.0157557
634.299	0.0159324
634.378	0.0159825
634.456	0.0158449
634.534	0.0159544
634.612	0.0159713
634.690	0.0159944
634.768	0.0159341
634.846	0.0159872
634.924	0.0160117
635.003	0.0159203
635.081	0.0159055
635.159	0.0158781
635.237	0.0159087
635.315	0.0158070
635.393	0.0159544
635.471	0.0159714
635.549	0.0158804
635.628	0.0158253
635.706	0.0158705
635.784	0.0160199
635.862	0.0159582
635.940	0.0159792
636.018	0.0158920
636.096	0.0159299
636.174	0.0158758
636.253	0.0159061
636.331	0.0159782
636.409	0.0160568
636.487	0.0158971
636.565	0.0158403
636.643	0.0159180
636.721	0.0158549
636.799	0.0159801
636.878	0.0159286
636.956	0.0159659
637.034	0.0159552
637.112	0.0159061
637.190	0.0159100
637.268	0.0160444
637.346	0.0159068
637.424	0.0159853
637.503	0.0159954
637.581	0.0159724
637.659	0.0159779
637.737	0.0158009
637.815	0.0159584
637.893	0.0159238
637.971	0.0159466
638.049	0.0160360
638.128	0.0159203
638.206	0.0159487
638.284	0.0158985
638.362	0.0158801
638.440	0.0159193
638.518	0.0157940
638.596	0.0157935
638.674	0.0159425
638.753	0.0159630
638.831	0.0159425
638.909	0.0157853
638.987	0.0159279
639.065	0.0159339
639.143	0.0158337
639.221	0.0159769
639.299	0.0159782
639.378	0.0158752
639.456	0.0160058
639.534	0.0159177
639.612	0.0158857
639.690	0.0158477
639.768	0.0158146
639.846	0.0158913
639.924	0.0158117
640.003	0.0159877
640.081	0.0158785
640.159	0.0159917
640.237	0.0160149
640.315	0.0159673
640.393	0.0159238
640.471	0.0159557
640.549	0.0159379
640.628	0.0159227
640.706	0.0158820
640.784	0.0159756
640.862	0.0158417
640.940	0.0159927
641.018	0.0159113
641.096	0.0159368
641.174	0.0159634
641.253	0.0159628
641.331	0.0159444
641.409	0.0158950
641.487	0.0158380
641.565	0.0158810
641.643	0.0159782
641.721	0.0159675
641.799	0.0159200
641.878	0.0158735
641.956	0.0159400
642.034	0.0159270
642.112	0.0157851
642.190	0.0159032
642.268	0.0159309
642.346	0.0159761
642.424	0.0160573
642.503	0.0159335
642.581	0.0158471
642.659	0.0157884
642.737	0.0157903
642.815	0.0158974
642.893	0.0159360
642.971	0.0160591
643.049	0.0159638
643.128	0.0159695
643.206	0.0158670
643.284	0.0159253
643.362	0.0158392
643.440	0.0159959
643.518	0.0159019
643.596	0.0158792
643.674	0.0158035
643.753	0.0159755
643.831	0.0159534
643.909	0.0159606
643.987	0.0159056
644.065	0.0157905
644.143	0.0158824
644.221	0.0158849
644.299	0.0158463
644.378	0.0159090
644.456	0.0158538
644.534	0.0159660
644.612	0.0159021
644.690	0.0159637
644.768	0.0159258
644.846	0.0159483
644.924	0.0160700
645.003	0.0160320
645.081	0.0159544
645.159	0.0158724
645.237	0.0160636
645.315	0.0161140
645.393	0.0159036
645.471	0.0159521
645.549	0.0160802
645.628	0.0159508
645.706	0.0159200
645.784	0.0159724
645.862	0.0159939
645.940	0.0159314
646.018	0.0161379
646.096	0.0160105
646.174	0.0157603
646.253	0.0159819
646.331	0.0159566
646.409	0.0158659
646.487	0.0160459
646.565	0.0158952
646.643	0.0158562
646.721	0.0158902
646.799	0.0159373
646.878	0.0160286
646.956	0.0159676
647.034	0.0159900
647.112	0.0159191
647.190	0.0159460
647.268	0.0160016
647.346	0.0158728
647.424	0.0159969
647.503	0.0160799
647.581	0.0160575
647.659	0.0158385
647.737	0.0159016
647.815	0.0159621
647.893	0.0159955
647.971	0.0159801
648.049	0.0158748
648.128	0.0159483
648.206	0.0160041
648.284	0.0159906
648.362	0.0160016
648.440	0.0159851
648.518	0.0159452
648.596	0.0159351
648.674	0.0159329
648.753	0.0159563
648.831	0.0160085
648.909	0.0159864
648.987	0.0158836
649.065	0.0158816
649.143	0.0158836
649.221	0.0160108
649.299	0.0159644
649.378	0.0160178
649.456	0.0159566
649.534	0.0158805
649.612	0.0160931
649.690	0.0159461
649.768	0.0159628
649.846	0.0158912
649.924	0.0158698
650.003	0.0158047
650.081	0.0159969
650.159	0.0159704
650.237	0.0160811
650.315	0.0160575
650.393	0.0159774
650.471	0.0157934
650.549	0.0159141
650.628	0.0159628
650.706	0.0160374
650.784	0.0160094
650.862	0.0159697
650.940	0.0158931
651.018	0.0159184
651.096	0.0159712
651.174	0.0160482
651.253	0.0158692
651.331	0.0159517
651.409	0.0159821
651.487	0.0159685
651.565	0.0158669
651.643	0.0159010
651.721	0.0161067
651.799	0.0159960
651.878	0.0159098
651.956	0.0157970
652.034	0.0159313
652.112	0.0159736
652.190	0.0159476
652.268	0.0159644
652.346	0.0158995
652.424	0.0160008
652.503	0.0159784
652.581	0.0159518
652.659	0.0158272
652.737	0.0157610
652.815	0.0159919
652.893	0.0158269
652.971	0.0159576
653.049	0.0159817
653.128	0.0158521
653.206	0.0160047
653.284	0.0159042
653.362	0.0159629
653.440	0.0159842
653.518	0.0159092
653.596	0.0158249
653.674	0.0158660
653.753	0.0160039
653.831	0.0160409
653.909	0.0161774
653.987	0.0160896
654.065	0.0159904
654.143	0.0157874
654.221	0.0159000
654.299	0.0160134
654.378	0.0159743
654.456	0.0160028
654.534	0.0159956
654.612	0.0158551
654.690	0.0160015
654.768	0.0159929
654.846	0.0159441
654.924	0.0160216
655.003	0.0160383
655.081	0.0159345
655.159	0.0160310
655.237	0.0159229
655.315	0.0159985
655.393	0.0160781
655.471	0.0160687
655.549	0.0159666
655.628	0.0159762
655.706	0.0159675
655.784	0.0159201
655.862	0.0158338
655.940	0.0159004
656.018	0.0158788
656.096	0.0159657
656.174	0.0159543
656.253	0.0158689
656.331	0.0159805
656.409	0.0159217
656.487	0.0160190
656.565	0.0160372
656.643	0.0159680
656.721	0.0161004
656.799	0.0160806
656.878	0.0157835
656.956	0.0159256
657.034	0.0159926
657.112	0.0160480
657.190	0.0159146
657.268	0.0158960
657.346	0.0160212
657.424	0.0159147
657.503	0.0159852
657.581	0.0160167
657.659	0.0159052
657.737	0.0159161
657.815	0.0158395
657.893	0.0160430
657.971	0.0159884
658.049	0.0159280
658.128	0.0160993
658.206	0.0160442
658.284	0.0159717
658.362	0.0159156
658.440	0.0160870
658.518	0.0158633
658.596	0.0159001
658.674	0.0159058
658.753	0.0161122
658.831	0.0159044
658.909	0.0159957
658.987	0.0159956
659.065	0.0159423
659.143	0.0159505
659.221	0.0160194
659.299	0.0159436
659.378	0.0160294
659.456	0.0158204
659.534	0.0159834
659.612	0.0160289
659.690	0.0159238
659.768	0.0158607
659.846	0.0160332
659.924	0.0159791
660.003	0.0159815
660.081	0.0159515
660.159	0.0158622
660.237	0.0159141
660.315	0.0160225
660.393	0.0159357
660.471	0.0159269
660.549	0.0158936
660.628	0.0158047
660.706	0.0158547
660.784	0.0158678
660.862	0.0159558
660.940	0.0159447
661.018	0.0157917
661.096	0.0158978
661.174	0.0159650
661.253	0.0159792
661.331	0.0158871
661.409	0.0157382
661.487	0.0158449
661.565	0.0159357
661.643	0.0159600
661.721	0.0158853
661.799	0.0158526
661.878	0.0159412
661.956	0.0159059
662.034	0.0158109
662.112	0.0158687
662.190	0.0159464
662.268	0.0160442
662.346	0.0159179
662.424	0.0159200
662.503	0.0158740
662.581	0.0158837
662.659	0.0159027
662.737	0.0159531
662.815	0.0158801
662.893	0.0158843
662.971	0.0159516
663.049	0.0160483
663.128	0.0159441
663.206	0.0158450
663.284	0.0159589
663.362	0.0157459
663.440	0.0158704
663.518	0.0160852
663.596	0.0159719
663.674	0.0159064
663.753	0.0159840
663.831	0.0159483
663.909	0.0159397
663.987	0.0158475
664.065	0.0159027
664.143	0.0159724
664.221	0.0159430
664.299	0.0159555
664.378	0.0159988
664.456	0.0159448
664.534	0.0158502
664.612	0.0159235
664.690	0.0158326
664.768	0.0158791
664.846	0.0158945
664.924	0.0159417
665.003	0.0160212
665.081	0.0160033
665.159	0.0160078
665.237	0.0159871
665.315	0.0159502
665.393	0.0159626
665.471	0.0158666
665.549	0.0160168
665.628	0.0159886
665.706	0.0160211
665.784	0.0158582
665.862	0.0159055
665.940	0.0160254
666.018	0.0159547
666.096	0.0160072
666.174	0.0159640
666.253	0.0158782
666.331	0.0159617
666.409	0.0159039
666.487	0.0161179
666.565	0.0160318
666.643	0.0159995
666.721	0.0158791
666.799	0.0158595
666.878	0.0158748
666.956	0.0158195
667.034	0.0158138
667.112	0.0159927
667.190	0.0160720
667.268	0.0158701
667.346	0.0159814
667.424	0.0158901
667.503	0.0159098
667.581	0.0158627
667.659	0.0158483
667.737	0.0159443
667.815	0.0158706
667.893	0.0158480
667.971	0.0158873
668.049	0.0159817
668.128	0.0160005
668.206	0.0159022
668.284	0.0158785
668.362	0.0159089
668.440	0.0159109
668.518	0.0158906
668.596	0.0160242
668.674	0.0159003
668.753	0.0158507
668.831	0.0158588
668.909	0.0158888
668.987	0.0158433
669.065	0.0159396
669.143	0.0159925
669.221	0.0159032
669.299	0.0159129
669.378	0.0159731
669.456	0.0158154
669.534	0.0158443
669.612	0.0158686
669.690	0.0158244
669.768	0.0158701
669.846	0.0159689
669.924	0.0161289
670.003	0.0160429
670.081	0.0158089
670.159	0.0159557
670.237	0.0160085
670.315	0.0159625
670.393	0.0159290
670.471	0.0160996
670.549	0.0158276
670.628	0.0160757
670.706	0.0159716
670.784	0.0158704
670.862	0.0158240
670.940	0.0159925
671.018	0.0159389
671.096	0.0159146
671.174	0.0159412
671.253	0.0158201
671.331	0.0158882
671.409	0.0159686
671.487	0.0158591
671.565	0.0158078
671.643	0.0158909
671.721	0.0160980
671.799	0.0160614
671.878	0.0157830
671.956	0.0159839
672.034	0.0159834
672.112	0.0159399
672.190	0.0159332
672.268	0.0159113
672.346	0.0160147
672.424	0.0159076
672.503	0.0159398
672.581	0.0159457
672.659	0.0159630
672.737	0.0159351
672.815	0.0159681
672.893	0.0160590
672.971	0.0159871
673.049	0.0159055
673.128	0.0159705
673.206	0.0160040
673.284	0.0158816
673.362	0.0158461
673.440	0.0158781
673.518	0.0159513
673.596	0.0160390
673.674	0.0159673
673.753	0.0159077
673.831	0.0159196
673.909	0.0159940
673.987	0.0158648
674.065	0.0159379
674.143	0.0158522
674.221	0.0159466
674.299	0.0159953
674.378	0.0160465
674.456	0.0159530
674.534	0.0158905
674.612	0.0160819
674.690	0.0159086
674.768	0.0159706
674.846	0.0160218
674.924	0.0160683
675.003	0.0158337
675.081	0.0159307
675.159	0.0159322
675.237	0.0159902
675.315	0.0158257
675.393	0.0159767
675.471	0.0159995
675.549	0.0158606
675.628	0.0158117
675.706	0.0160297
675.784	0.0159731
675.862	0.0160056
675.940	0.0158968
676.018	0.0159691
676.096	0.0159214
676.174	0.0159549
676.253	0.0159184
676.331	0.0159121
676.409	0.0159545
676.487	0.0159939
676.565	0.0158249
676.643	0.0160729
676.721	0.0160442
676.799	0.0158710
676.878	0.0159202
676.956	0.0159490
677.034	0.0159959
677.112	0.0158758
677.190	0.0160541
677.268	0.0160646
677.346	0.0159126
677.424	0.0160033
677.503	0.0160967
677.581	0.0160264
677.659	0.0159288
677.737	0.0158973
677.815	0.0159787
677.893	0.0159995
677.971	0.0161441
678.049	0.0160246
678.128	0.0160007
678.206	0.0159074
678.284	0.0159250
678.362	0.0159671
678.440	0.0160266
678.518	0.0158011
678.596	0.0159986
678.674	0.0158160
678.753	0.0159796
678.831	0.0160063
678.909	0.0160464
678.987	0.0159958
679.065	0.0158752
679.143	0.0159158
679.221	0.0159100
679.299	0.0160758
679.378	0.0161187
679.456	0.0160896
679.534	0.0159783
679.612	0.0161043
679.690	0.0160111
679.768	0.0159320
679.846	0.0159035
679.924	0.0159712
680.003	0.0159814
680.081	0.0160352
680.159	0.0160638
680.237	0.0158987
680.315	0.0158337
680.393	0.0160002
680.471	0.0158311
680.549	0.0159412
680.628	0.0159328
680.706	0.0160318
680.784	0.0160783
680.862	0.0160100
680.940	0.0159829
681.018	0.0159665
681.096	0.0159680
681.174	0.0159262
681.253	0.0159738
681.331	0.0159988
681.409	0.0160193
681.487	0.0160455
681.565	0.0159590
681.643	0.0159644
681.721	0.0159573
681.799	0.0159245
681.878	0.0160340
681.956	0.0158542
682.034	0.0159033
682.112	0.0159299
682.190	0.0159203
682.268	0.0158241
682.346	0.0159904
682.424	0.0160632
682.503	0.0159211
682.581	0.0159846
682.659	0.0160905
682.737	0.0159637
682.815	0.0160337
682.893	0.0159306
682.971	0.0159850
683.049	0.0160014
683.128	0.0159634
683.206	0.0159626
683.284	0.0158886
683.362	0.0159055
683.440	0.0159401
683.518	0.0160172
683.596	0.0159423
683.674	0.0159623
683.753	0.0159360
683.831	0.0160577
683.909	0.0160034
683.987	0.0159450
684.065	0.0160645
684.143	0.0160273
684.221	0.0160257
684.299	0.0159822
684.378	0.0158720
684.456	0.0159383
684.534	0.0159613
684.612	0.0158718
684.690	0.0159132
684.768	0.0159354
684.846	0.0158846
684.924	0.0158975
685.003	0.0159383
685.081	0.0160172
685.159	0.0160004
685.237	0.0159082
685.315	0.0159631
685.393	0.0160388
685.471	0.0159389
685.549	0.0159418
685.628	0.0158685
685.706	0.0159651
685.784	0.0160044
685.862	0.0161182
685.940	0.0157969
686.018	0.0159815
686.096	0.0158981
686.174	0.0159167
686.253	0.0159081
686.331	0.0159114
686.409	0.0159065
686.487	0.0160090
686.565	0.0159361
686.643	0.0159046
686.721	0.0159574
686.799	0.0159361
686.878	0.0157842
686.956	0.0160168
687.034	0.0160990
687.112	0.0159970
687.190	0.0158849
687.268	0.0159843
687.346	0.0159823
687.424	0.0159428
687.503	0.0159439
687.581	0.0159753
687.659	0.0158261
687.737	0.0160332
687.815	0.0160479
687.893	0.0159268
687.971	0.0158961
688.049	0.0161198
688.128	0.0160487
688.206	0.0160521
688.284	0.0159164
688.362	0.0159557
688.440	0.0158464
688.518	0.0159267
688.596	0.0158504
688.674	0.0159245
688.753	0.0160142
688.831	0.0159501
688.909	0.0159736
688.987	0.0159406
689.065	0.0158057
689.143	0.0160175
689.221	0.0160023
689.299	0.0159856
689.378	0.0159865
689.456	0.0158438
689.534	0.0159991
689.612	0.0159673
689.690	0.0159628
689.768	0.0159520
689.846	0.0159398
689.924	0.0159410
690.003	0.0160697
690.081	0.0160786
690.159	0.0160459
690.237	0.0160361
690.315	0.0159245
690.393	0.0160098
690.471	0.0161263
690.549	0.0159007
690.628	0.0159241
690.706	0.0159378
690.784	0.0157789
690.862	0.0159768
690.940	0.0160108
691.018	0.0159248
691.096	0.0159470
691.174	0.0158250
691.253	0.0159557
691.331	0.0158843
691.409	0.0158305
691.487	0.0159064
691.565	0.0159660
691.643	0.0159713
691.721	0.0160052
691.799	0.0160128
691.878	0.0158608
691.956	0.0159651
692.034	0.0160572
692.112	0.0159750
692.190	0.0158462
692.268	0.0160080
692.346	0.0159561
692.424	0.0159380
692.503	0.0158333
692.581	0.0159198
692.659	0.0158461
692.737	0.0160011
692.815	0.0160343
692.893	0.0159139
692.971	0.0158511
693.049	0.0159937
693.128	0.0160632
693.206	0.0158998
693.284	0.0159586
693.362	0.0159015
693.440	0.0159238
693.518	0.0160507
693.596	0.0159186
693.674	0.0159772
693.753	0.0160028
693.831	0.0158631
693.909	0.0159288
693.987	0.0159436
694.065	0.0159644
694.143	0.0159382
694.221	0.0160132
694.299	0.0159339
694.378	0.0159289
694.456	0.0159621
694.534	0.0159570
694.612	0.0158605
694.690	0.0160036
694.768	0.0159042
694.846	0.0159985
694.924	0.0158511
695.003	0.0158473
695.081	0.0159707
695.159	0.0159775
695.237	0.0158808
695.315	0.0158609
695.393	0.0159702
695.471	0.0158527
695.549	0.0159319
695.628	0.0160464
695.706	0.0159853
695.784	0.0160228
695.862	0.0159107
695.940	0.0159272
696.018	0.0159437
696.096	0.0159801
696.174	0.0159997
696.253	0.0158795
696.331	0.0159139
696.409	0.0160117
696.487	0.0159282
696.565	0.0159407
696.643	0.0160327
696.721	0.0158722
696.799	0.0160512
696.878	0.0160095
696.956	0.0160035
697.034	0.0159376
697.112	0.0159391
697.190	0.0159371
697.268	0.0159169
697.346	0.0159945
697.424	0.0159064
697.503	0.0158954
697.581	0.0160530
697.659	0.0160223
697.737	0.0159975
697.815	0.0158124
697.893	0.0159811
697.971	0.0158862
698.049	0.0159959
698.128	0.0158276
698.206	0.0159820
698.284	0.0158613
698.362	0.0157894
698.440	0.0159715
698.518	0.0159027
698.596	0.0159354
698.674	0.0159680
698.753	0.0160335
698.831	0.0158859
698.909	0.0159302
698.987	0.0159043
699.065	0.0159488
699.143	0.0159956
699.221	0.0160068
699.299	0.0160407
699.378	0.0159389
699.456	0.0157913
699.534	0.0159483
699.612	0.0159084
699.690	0.0159067
699.768	0.0159348
699.846	0.0160246
699.924	0.0159680
700.003	0.0160179
700.081	0.0159863
700.159	0.0159444
700.237	0.0159415
700.315	0.0158078
700.393	0.0159354
700.471	0.0160579
700.549	0.0159892
700.628	0.0158618
700.706	0.0159215
700.784	0.0159824
700.862	0.0157535
700.940	0.0159830
701.018	0.0160015
701.096	0.0159223
701.174	0.0158975
701.253	0.0160355
701.331	0.0158195
701.409	0.0159826
701.487	0.0158323
701.565	0.0159982
701.643	0.0159234
701.721	0.0159881
701.799	0.0158904
701.878	0.0158598
701.956	0.0159532
702.034	0.0160218
702.112	0.0158454
702.190	0.0159906
702.268	0.0158662
702.346	0.0159555
702.424	0.0160182
702.503	0.0158945
702.581	0.0159357
702.659	0.0159295
702.737	0.0158604
702.815	0.0159597
702.893	0.0159852
702.971	0.0160845
703.049	0.0159818
703.128	0.0159904
703.206	0.0159974
703.284	0.0160049
703.362	0.0159262
703.440	0.0160281
703.518	0.0159066
703.596	0.0158672
703.674	0.0158425
703.753	0.0159496
703.831	0.0160411
703.909	0.0158694
703.987	0.0160292
704.065	0.0160461
704.143	0.0158174
704.221	0.0158479
704.299	0.0159754
704.378	0.0160073
704.456	0.0159616
704.534	0.0158334
704.612	0.0159255
704.690	0.0159911
704.768	0.0159911
704.846	0.0159573
704.924	0.0158975
705.003	0.0158778
705.081	0.0160925
705.159	0.0159052
705.237	0.0159768
705.315	0.0158268
705.393	0.0158363
705.471	0.0161126
705.549	0.0159652
705.628	0.0159325
705.706	0.0159936
705.784	0.0159103
705.862	0.0159328
705.940	0.0160787
706.018	0.0158597
706.096	0.0159866
706.174	0.0158023
706.253	0.0158703
706.331	0.0160152
706.409	0.0159159
706.487	0.0159313
706.565	0.0159643
706.643	0.0159585
706.721	0.0159833
706.799	0.0159259
706.878	0.0160550
706.956	0.0158839
707.034	0.0159154
707.112	0.0157551
707.190	0.0159503
707.268	0.0159486
707.346	0.0160220
707.424	0.0159537
707.503	0.0160349
707.581	0.0160157
707.659	0.0160239
707.737	0.0159700
707.815	0.0159743
707.893	0.0158974
707.971	0.0160349
708.049	0.0158693
708.128	0.0158855
708.206	0.0159621
708.284	0.0159773
708.362	0.0158268
708.440	0.0159734
708.518	0.0159211
708.596	0.0160490
708.674	0.0159393
708.753	0.0161077
708.831	0.0158910
708.909	0.0158143
708.987	0.0158973
709.065	0.0158481
709.143	0.0159504
709.221	0.0158453
709.299	0.0159908
709.378	0.0160727
709.456	0.0159695
709.534	0.0158608
709.612	0.0158829
709.690	0.0160111
709.768	0.0159162
709.846	0.0158064
709.924	0.0157970
710.003	0.0159893
710.081	0.0159391
710.159	0.0159904
710.237	0.0160544
710.315	0.0159732
710.393	0.0159830
710.471	0.0159165
710.549	0.0158657
710.628	0.0158650
710.706	0.0158515
710.784	0.0158052
710.862	0.0158776
710.940	0.0159644
711.018	0.0158681
711.096	0.0158591
711.174	0.0159313
711.253	0.0158819
711.331	0.0159377
711.409	0.0159334
711.487	0.0159088
711.565	0.0159733
711.643	0.0159924
711.721	0.0158960
711.799	0.0160216
711.878	0.0160093
711.956	0.0161160
712.034	0.0158783
712.112	0.0159946
712.190	0.0160359
712.268	0.0161628
712.346	0.0159451
712.424	0.0158845
712.503	0.0160679
712.581	0.0160275
712.659	0.0158904
712.737	0.0159548
712.815	0.0159245
712.893	0.0158561
712.971	0.0159806
713.049	0.0158704
713.128	0.0161165
713.206	0.0160172
713.284	0.0159096
713.362	0.0160096
713.440	0.0158941
713.518	0.0160079
713.596	0.0158681
713.674	0.0159877
713.753	0.0160380
713.831	0.0158592
713.909	0.0159914
713.987	0.0158883
714.065	0.0160066
714.143	0.0159966
714.221	0.0161636
714.299	0.0160428
714.378	0.0158897
714.456	0.0160398
714.534	0.0160087
714.612	0.0158624
714.690	0.0158894
714.768	0.0159161
714.846	0.0160032
714.924	0.0159476
715.003	0.0159023
715.081	0.0158251
715.159	0.0158205
715.237	0.0159241
715.315	0.0160442
715.393	0.0158990
715.471	0.0159709
715.549	0.0160422
715.628	0.0159409
715.706	0.0159365
715.784	0.0159427
715.862	0.0158952
715.940	0.0160095
716.018	0.0159021
716.096	0.0160561
716.174	0.0160323
716.253	0.0160249
716.331	0.0157530
716.409	0.0159414
716.487	0.0159824
716.565	0.0160133
716.643	0.0162083
716.721	0.0159165
716.799	0.0159665
716.878	0.0160226
716.956	0.0161996
717.034	0.0161360
717.112	0.0162315
717.190	0.0160376
717.268	0.0162743
717.346	0.0162648
717.424	0.0161092
717.503	0.0160206
717.581	0.0161714
717.659	0.0161027
717.737	0.0160541
717.815	0.0159448
717.893	0.0160641
717.971	0.0160469
718.049	0.0160100
718.128	0.0158911
718.206	0.0159128
718.284	0.0159205
718.362	0.0157891
718.440	0.0158899
718.518	0.0157003
718.596	0.0157504
718.674	0.0157265
718.753	0.0158302
718.831	0.0154685
718.909	0.0157072
718.987	0.0157862
719.065	0.0158226
719.143	0.0158430
719.221	0.0159335
719.299	0.0156759
719.378	0.0156411
719.456	0.0158959
719.534	0.0160485
719.612	0.0159400
719.690	0.0158443
719.768	0.0158326
719.846	0.0160709
719.924	0.0160695
720.003	0.0158925
720.081	0.0158443
720.159	0.0158685
720.237	0.0158749
720.315	0.0158710
720.393	0.0158484
720.471	0.0159221
720.549	0.0159835
720.628	0.0158889
720.706	0.0159516
720.784	0.0160111
720.862	0.0160830
720.940	0.0159639
721.018	0.0159461
721.096	0.0159876
721.174	0.0160788
721.253	0.0161868
721.331	0.0161726
721.409	0.0161044
721.487	0.0160761
721.565	0.0162255
721.643	0.0163550
721.721	0.0162974
721.799	0.0162222
721.878	0.0162167
721.956	0.0160394
722.034	0.0160180
722.112	0.0159520
722.190	0.0158199
722.268	0.0158437
722.346	0.0157576
722.424	0.0155969
722.503	0.0156074
722.581	0.0154987
722.659	0.0155080
722.737	0.0155830
722.815	0.0154879
722.893	0.0154722
722.971	0.0155317
723.049	0.0155798
723.128	0.0157549
723.206	0.0159149
723.284	0.0157475
723.362	0.0159357
723.440	0.0160155
723.518	0.0159535
723.596	0.0162000
723.674	0.0161796
723.753	0.0162032
723.831	0.0163202
723.909	0.0162675
723.987	0.0164063
724.065	0.0162572
724.143	0.0162342
724.221	0.0163162
724.299	0.0161189
724.378	0.0161900
724.456	0.0160184
724.534	0.0161046
724.612	0.0160216
724.690	0.0159889
724.768	0.0158985
724.846	0.0157968
724.924	0.0156392
725.003	0.0156200
725.081	0.0156398
725.159	0.0156780
725.237	0.0156375
725.315	0.0157361
725.393	0.0156413
725.471	0.0157062
725.549	0.0156775
725.628	0.0157608
725.706	0.0158267
725.784	0.0157082
725.862	0.0157948
725.940	0.0158694
726.018	0.0160085
726.096	0.0159869
726.174	0.0160175
726.253	0.0161483
726.331	0.0161913
726.409	0.0161877
726.487	0.0162350
726.565	0.0162639
726.643	0.0161710
726.721	0.0160896
726.799	0.0161500
726.878	0.0160682
726.956	0.0160033
727.034	0.0162353
727.112	0.0160618
727.190	0.0159789
727.268	0.0158082
727.346	0.0157702
727.424	0.0159313
727.503	0.0159580
727.581	0.0158283
727.659	0.0158835
727.737	0.0158944
727.815	0.0159837
727.893	0.0158885
727.971	0.0160609
728.049	0.0160169
728.128	0.0159661
728.206	0.0160436
728.284	0.0158192
728.362	0.0159567
728.440	0.0159776
728.518	0.0158395
728.596	0.0158572
728.674	0.0159115
728.753	0.0159517
728.831	0.0157143
728.909	0.0156643
728.987	0.0158031
729.065	0.0156277
729.143	0.0157712
729.221	0.0158739
729.299	0.0158321
729.378	0.0158131
729.456	0.0158112
729.534	0.0157561
729.612	0.0159870
729.690	0.0160036
729.768	0.0160512
729.846	0.0162492
729.924	0.0159796
730.003	0.0160715
730.081	0.0160462
730.159	0.0160564
730.237	0.0160370
730.315	0.0160948
730.393	0.0160262
730.471	0.0159592
730.549	0.0158902
730.628	0.0159120
730.706	0.0159773
730.784	0.0158795
730.862	0.0159020
730.940	0.0159364
731.018	0.0159384
731.096	0.0159479
731.174	0.0160593
731.253	0.0161668
731.331	0.0160963
731.409	0.0161067
731.487	0.0162601
731.565	0.0161608
731.643	0.0160703
731.721	0.0162899
731.799	0.0163434
731.878	0.0162105
731.956	0.0162606
732.034	0.0160825
732.112	0.0160999
732.190	0.0160033
732.268	0.0159156
732.346	0.0159152
732.424	0.0158678
732.503	0.0158095
732.581	0.0157546
732.659	0.0156400
732.737	0.0156838
732.815	0.0158382
732.893	0.0157241
732.971	0.0157882
733.049	0.0158633
733.128	0.0157796
733.206	0.0158028
733.284	0.0158266
733.362	0.0158673
733.440	0.0160128
733.518	0.0160134
733.596	0.0158289
733.674	0.0160751
733.753	0.0160735
733.831	0.0160517
733.909	0.0161225
733.987	0.0161452
734.065	0.0160810
734.143	0.0159443
734.221	0.0159688
734.299	0.0158310
734.378	0.0158899
734.456	0.0158035
734.534	0.0157664
734.612	0.0157714
734.690	0.0157723
734.768	0.0157842
734.846	0.0155211
734.924	0.0156208
735.003	0.0156811
735.081	0.0158443
735.159	0.0158022
735.237	0.0157921
735.315	0.0158688
735.393	0.0160368
735.471	0.0161961
735.549	0.0161039
735.628	0.0160118
735.706	0.0162461
735.784	0.0163405
735.862	0.0162493
735.940	0.0161689
736.018	0.0162428
736.096	0.0163069
736.174	0.0162390
736.253	0.0160341
736.331	0.0160214
736.409	0.0161402
736.487	0.0159157
736.565	0.0158501
736.643	0.0157660
736.721	0.0158323
736.799	0.0158781
736.878	0.0156476
736.956	0.0158717
737.034	0.0157405
737.112	0.0156520
737.190	0.0157825
737.268	0.0158676
737.346	0.0157964
737.424	0.0159709
737.503	0.0159604
737.581	0.0158170
737.659	0.0159319
737.737	0.0161288
737.815	0.0159781
737.893	0.0160511
737.971	0.0158942
738.049	0.0160263
738.128	0.0160917
738.206	0.0158143
738.284	0.0159306
738.362	0.0158102
738.440	0.0158800
738.518	0.0156944
738.596	0.0158080
738.674	0.0157629
738.753	0.0157621
738.831	0.0158929
738.909	0.0157849
738.987	0.0158436
739.065	0.0158447
739.143	0.0158916
739.221	0.0158824
739.299	0.0159635
739.378	0.0160435
739.456	0.0160344
739.534	0.0160928
739.612	0.0161257
739.690	0.0160645
739.768	0.0161424
739.846	0.0160888
739.924	0.0162193
740.003	0.0161446
740.081	0.0162543
740.159	0.0161404
740.237	0.0162048
740.315	0.0161392
740.393	0.0160639
740.471	0.0160592
740.549	0.0161022
740.628	0.0159957
740.706	0.0159569
740.784	0.0160250
740.862	0.0160299
740.940	0.0158738
741.018	0.0158514
741.096	0.0160320
741.174	0.0158802
741.253	0.0159564
741.331	0.0158308
741.409	0.0158774
741.487	0.0159926
741.565	0.0158138
741.643	0.0158645
741.721	0.0158900
741.799	0.0159660
741.878	0.0159714
741.956	0.0158680
742.034	0.0158861
742.112	0.0160580
742.190	0.0160325
742.268	0.0159875
742.346	0.0160604
742.424	0.0159077
742.503	0.0159943
742.581	0.0160262
742.659	0.0158987
742.737	0.0158748
742.815	0.0158311
742.893	0.0158861
742.971	0.0158206
743.049	0.0157154
743.128	0.0158147
743.206	0.0158683
743.284	0.0158829
743.362	0.0158840
743.440	0.0157654
743.518	0.0157972
743.596	0.0158996
743.674	0.0159834
743.753	0.0160760
743.831	0.0161187
743.909	0.0160314
743.987	0.0159880
744.065	0.0160689
744.143	0.0161439
744.221	0.0161559
744.299	0.0161158
744.378	0.0159744
744.456	0.0160924
744.534	0.0160443
744.612	0.0161124
744.690	0.0159221
744.768	0.0160378
744.846	0.0159087
744.924	0.0158533
745.003	0.0158354
745.081	0.0157816
745.159	0.0157650
745.237	0.0157870
745.315	0.0157308
745.393	0.0158070
745.471	0.0158483
745.549	0.0157327
745.628	0.0158189
745.706	0.0158253
745.784	0.0159119
745.862	0.0159123
745.940	0.0160597
746.018	0.0159268
746.096	0.0160616
746.174	0.0161173
746.253	0.0161866
746.331	0.0160417
746.409	0.0160318
746.487	0.0159801
746.565	0.0160553
746.643	0.0158805
746.721	0.0159208
746.799	0.0158505
746.878	0.0157813
746.956	0.0157209
747.034	0.0160492
747.112	0.0158096
747.190	0.0158048
747.268	0.0160997
747.346	0.0160290
747.424	0.0160390
747.503	0.0159181
747.581	0.0160442
747.659	0.0160441
747.737	0.0160798
747.815	0.0160396
747.893	0.0160168
747.971	0.0160880
748.049	0.0160915
748.128	0.0159571
748.206	0.0161185
748.284	0.0159267
748.362	0.0159726
748.440	0.0157753
748.518	0.0157726
748.596	0.0158252
748.674	0.0158494
748.753	0.0157243
748.831	0.0157790
748.909	0.0158908
748.987	0.0157596
749.065	0.0159394
749.143	0.0158813
749.221	0.0158757
749.299	0.0158630
749.378	0.0159982
749.456	0.0160771
749.534	0.0160056
749.612	0.0161286
749.690	0.0161767
749.768	0.0160840
749.846	0.0158765
749.924	0.0160963
750.003	0.0161420
750.081	0.0161258
750.159	0.0159937
750.237	0.0159159
750.315	0.0161024
750.393	0.0158553
750.471	0.0158890
750.549	0.0160318
750.628	0.0158276
750.706	0.0159826
750.784	0.0158913
750.862	0.0159189
750.940	0.0158771
751.018	0.0159422
751.096	0.0158961
751.174	0.0158997
751.253	0.0160330
751.331	0.0158778
751.409	0.0159690
751.487	0.0160295
751.565	0.0158945
751.643	0.0159641
751.721	0.0158244
751.799	0.0158985
751.878	0.0158226
751.956	0.0160439
752.034	0.0161295
752.112	0.0159021
752.190	0.0158914
752.268	0.0159842
752.346	0.0158463
752.424	0.0159697
752.503	0.0159529
752.581	0.0160533
752.659	0.0160838
752.737	0.0160638
752.815	0.0159190
752.893	0.0159702
752.971	0.0160446
753.049	0.0161288
753.128	0.0160707
753.206	0.0159747
753.284	0.0160527
753.362	0.0160482
753.440	0.0159373
753.518	0.0159600
753.596	0.0159709
753.674	0.0160226
753.753	0.0159013
753.831	0.0158748
753.909	0.0158506
753.987	0.0158321
754.065	0.0159709
754.143	0.0158103
754.221	0.0159254
754.299	0.0158666
754.378	0.0158775
754.456	0.0158789
754.534	0.0158386
754.612	0.0159469
754.690	0.0159867
754.768	0.0159896
754.846	0.0160349
754.924	0.0158322
755.003	0.0159678
755.081	0.0160136
755.159	0.0161272
755.237	0.0159995
755.315	0.0160643
755.393	0.0160177
755.471	0.0159518
755.549	0.0161521
755.628	0.0159624
755.706	0.0159752
755.784	0.0159019
755.862	0.0158488
755.940	0.0158728
756.018	0.0158852
756.096	0.0159355
756.174	0.0157031
756.253	0.0158373
756.331	0.0159400
756.409	0.0157658
756.487	0.0158867
756.565	0.0160293
756.643	0.0160804
756.721	0.0161342
756.799	0.0159775
756.878	0.0160059
756.956	0.0161423
757.034	0.0161681
757.112	0.0161088
757.190	0.0160229
757.268	0.0160709
757.346	0.0160327
757.424	0.0160267
757.503	0.0159485
757.581	0.0158060
757.659	0.0159139
757.737	0.0159511
757.815	0.0158452
757.893	0.0158873
757.971	0.0158546
758.049	0.0159248
758.128	0.0157608
758.206	0.0158860
758.284	0.0159431
758.362	0.0159651
758.440	0.0158664
758.518	0.0161624
758.596	0.0159525
758.674	0.0158604
758.753	0.0160133
758.831	0.0158807
758.909	0.0159521
758.987	0.0160856
759.065	0.0158869
759.143	0.0161089
759.221	0.0159582
759.299	0.0161019
759.378	0.0159238
759.456	0.0158488
759.534	0.0159742
759.612	0.0159432
759.690	0.0159033
759.768	0.0159113
759.846	0.0157785
759.924	0.0159389
760.003	0.0160241
760.081	0.0159820
760.159	0.0158128
760.237	0.0159186
760.315	0.0160081
760.393	0.0159829
760.471	0.0159306
760.549	0.0160397
760.628	0.0160518
760.706	0.0159699
760.784	0.0160168
760.862	0.0158710
760.940	0.0160497
761.018	0.0160883
761.096	0.0160234
761.174	0.0159850
761.253	0.0160219
761.331	0.0159175
761.409	0.0159782
761.487	0.0161137
761.565	0.0159557
761.643	0.0158990
761.721	0.0159923
761.799	0.0158821
761.878	0.0159708
761.956	0.0158253
762.034	0.0158933
762.112	0.0157784
762.190	0.0157780
762.268	0.0158702
762.346	0.0159092
762.424	0.0158416
762.503	0.0156757
762.581	0.0159862
762.659	0.0161826
762.737	0.0159060
762.815	0.0159995
762.893	0.0159093
762.971	0.0160887
763.049	0.0159707
763.128	0.0160075
763.206	0.0160100
763.284	0.0159960
763.362	0.0159663
763.440	0.0160162
763.518	0.0161021
763.596	0.0159250
763.674	0.0158181
763.753	0.0158655
763.831	0.0159537
763.909	0.0158790
763.987	0.0159917
764.065	0.0159438
764.143	0.0158969
764.221	0.0158757
764.299	0.0159808
764.378	0.0159527
764.456	0.0159925
764.534	0.0161222
764.612	0.0160934
764.690	0.0160393
764.768	0.0159566
764.846	0.0160829
764.924	0.0161832
765.003	0.0160637
765.081	0.0158448
765.159	0.0160152
765.237	0.0159396
765.315	0.0159872
765.393	0.0160226
765.471	0.0159319
765.549	0.0158438
765.628	0.0158752
765.706	0.0158904
765.784	0.0158825
765.862	0.0158939
765.940	0.0159734
766.018	0.0158517
766.096	0.0159970
766.174	0.0158553
766.253	0.0157846
766.331	0.0159866
766.409	0.0159796
766.487	0.0160415
766.565	0.0160521
766.643	0.0159741
766.721	0.0159641
766.799	0.0160600
766.878	0.0160041
766.956	0.0158747
767.034	0.0160252
767.112	0.0161068
767.190	0.0159053
767.268	0.0159389
767.346	0.0159821
767.424	0.0159855
767.503	0.0159007
767.581	0.0158707
767.659	0.0159252
767.737	0.0158288
767.815	0.0158141
767.893	0.0159644
767.971	0.0159354
768.049	0.0159781
768.128	0.0159007
768.206	0.0158846
768.284	0.0160044
768.362	0.0158831
768.440	0.0160071
768.518	0.0159490
768.596	0.0159686
768.674	0.0158844
768.753	0.0160146
768.831	0.0160473
768.909	0.0160184
768.987	0.0160515
769.065	0.0161132
769.143	0.0160023
769.221	0.0158383
769.299	0.0159561
769.378	0.0159425
769.456	0.0157581
769.534	0.0158148
769.612	0.0158278
769.690	0.0157943
769.768	0.0158375
769.846	0.0158775
769.924	0.0158616
770.003	0.0158548
770.081	0.0158396
770.159	0.0159229
770.237	0.0158389
770.315	0.0161558
770.393	0.0161181
770.471	0.0158324
770.549	0.0159979
770.628	0.0160054
770.706	0.0160069
770.784	0.0158194
770.862	0.0158038
770.940	0.0159857
771.018	0.0159888
771.096	0.0159547
771.174	0.0158470
771.253	0.0159470
771.331	0.0159428
771.409	0.0159046
771.487	0.0158712
771.565	0.0159461
771.643	0.0158338
771.721	0.0159852
771.799	0.0160026
771.878	0.0160769
771.956	0.0160638
772.034	0.0158884
772.112	0.0161478
772.190	0.0159982
772.268	0.0159525
772.346	0.0161668
772.424	0.0161538
772.503	0.0161033
772.581	0.0159643
772.659	0.0159828
772.737	0.0158301
772.815	0.0158110
772.893	0.0158811
772.971	0.0157841
773.049	0.0158091
773.128	0.0158038
773.206	0.0159419
773.284	0.0157465
773.362	0.0156835
773.440	0.0158483
773.518	0.0158120
773.596	0.0158923
773.674	0.0160352
773.753	0.0159528
773.831	0.0160181
773.909	0.0159458
773.987	0.0158329
774.065	0.0160631
774.143	0.0158618
774.221	0.0157700
774.299	0.0158852
774.378	0.0157895
774.456	0.0157159
774.534	0.0157894
774.612	0.0158393
774.690	0.0159284
774.768	0.0159463
774.846	0.0158339
774.924	0.0158116
775.003	0.0157814
775.081	0.0158787
775.159	0.0157948
775.237	0.0160461
775.315	0.0158072
775.393	0.0158196
775.471	0.0159533
775.549	0.0158861
775.628	0.0158759
775.706	0.0159644
775.784	0.0159339
775.862	0.0159900
775.940	0.0160099
776.018	0.0160574
776.096	0.0159655
776.174	0.0159731
776.253	0.0158121
776.331	0.0159561
776.409	0.0160253
776.487	0.0158447
776.565	0.0159757
776.643	0.0158073
776.721	0.0159473
776.799	0.0158952
776.878	0.0158314
776.956	0.0157735
777.034	0.0157626
777.112	0.0158870
777.190	0.0159364
777.268	0.0158302
777.346	0.0157678
777.424	0.0158259
777.503	0.0159301
777.581	0.0158447
777.659	0.0158232
777.737	0.0159162
777.815	0.0158907
777.893	0.0158661
777.971	0.0159261
778.049	0.0159497
778.128	0.0160329
778.206	0.0160209
778.284	0.0159190
778.362	0.0158865
778.440	0.0159346
778.518	0.0159521
778.596	0.0159380
778.674	0.0158224
778.753	0.0159434
778.831	0.0158206
778.909	0.0158452
778.987	0.0158838
779.065	0.0159679
779.143	0.0159893
779.221	0.0159053
779.299	0.0160027
779.378	0.0160284
779.456	0.0158209
779.534	0.0159772
779.612	0.0160043
779.690	0.0159776
779.768	0.0160812
779.846	0.0159264
779.924	0.0159917
780.003	0.0160789
780.081	0.0160287
780.159	0.0158878
780.237	0.0161466
780.315	0.0160080
780.393	0.0161137
780.471	0.0159715
780.549	0.0159470
780.628	0.0158791
780.706	0.0159319
780.784	0.0160934
780.862	0.0160262
780.940	0.0161950
781.018	0.0161512
781.096	0.0160693
781.174	0.0161721
781.253	0.0160152
781.331	0.0160085
781.409	0.0159112
781.487	0.0159486
781.565	0.0158975
781.643	0.0159718
781.721	0.0158424
781.799	0.0156884
781.878	0.0157372
781.956	0.0158704
782.034	0.0158224
782.112	0.0159393
782.190	0.0157704
782.268	0.0158013
782.346	0.0156583
782.424	0.0157681
782.503	0.0157620
782.581	0.0159451
782.659	0.0158363
782.737	0.0159084
782.815	0.0158869
782.893	0.0160258
782.971	0.0159104
783.049	0.0160321
783.128	0.0159603
783.206	0.0159702
783.284	0.0160542
783.362	0.0159990
783.440	0.0157847
783.518	0.0159504
783.596	0.0160143
783.674	0.0160075
783.753	0.0158981
783.831	0.0159892
783.909	0.0159254
783.987	0.0158170
784.065	0.0158434
784.143	0.0159673
784.221	0.0159307
784.299	0.0158755
784.378	0.0158914
784.456	0.0159724
784.534	0.0159402
784.612	0.0159975
784.690	0.0160040
784.768	0.0159801
784.846	0.0161042
784.924	0.0158404
785.003	0.0161210
785.081	0.0159586
785.159	0.0160168
785.237	0.0160576
785.315	0.0159926
785.393	0.0160309
785.471	0.0160575
785.549	0.0159480
785.628	0.0159171
785.706	0.0159441
785.784	0.0159098
785.862	0.0159993
785.940	0.0160027
786.018	0.0158604
786.096	0.0158439
786.174	0.0157886
786.253	0.0158079
786.331	0.0158591
786.409	0.0159946
786.487	0.0159669
786.565	0.0158511
786.643	0.0159579
786.721	0.0159441
786.799	0.0160369
786.878	0.0158743
786.956	0.0158756
787.034	0.0159579
787.112	0.0159396
787.190	0.0160574
787.268	0.0159761
787.346	0.0160207
787.424	0.0159451
787.503	0.0158141
787.581	0.0158968
787.659	0.0158853
787.737	0.0159867
787.815	0.0160085
787.893	0.0159359
787.971	0.0158868
788.049	0.0159880
788.128	0.0158901
788.206	0.0159081
788.284	0.0159089
788.362	0.0159762
788.440	0.0158992
788.518	0.0160126
788.596	0.0160477
788.674	0.0158749
788.753	0.0160487
788.831	0.0160111
788.909	0.0160567
788.987	0.0160003
789.065	0.0158989
789.143	0.0159927
789.221	0.0159682
789.299	0.0159131
789.378	0.0160184
789.456	0.0159518
789.534	0.0158775
789.612	0.0158745
789.690	0.0158044
789.768	0.0159531
789.846	0.0159699
789.924	0.0158074
790.003	0.0160268
790.081	0.0159946
790.159	0.0158570
790.237	0.0160432
790.315	0.0158674
790.393	0.0159129
790.471	0.0162040
790.549	0.0160773
790.628	0.0159045
790.706	0.0158420
790.784	0.0159814
790.862	0.0159345
790.940	0.0159955
791.018	0.0158208
791.096	0.0158614
791.174	0.0158019
791.253	0.0157768
791.331	0.0159131
791.409	0.0159148
791.487	0.0157723
791.565	0.0158736
791.643	0.0157762
791.721	0.0158283
791.799	0.0157840
791.878	0.0158749
791.956	0.0160731
792.034	0.0159590
792.112	0.0160067
792.190	0.0159543
792.268	0.0159534
792.346	0.0160534
792.424	0.0159946
792.503	0.0161171
792.581	0.0161359
792.659	0.0161252
792.737	0.0161281
792.815	0.0160384
792.893	0.0160166
792.971	0.0160040
793.049	0.0159310
793.128	0.0160330
793.206	0.0159743
793.284	0.0160657
793.362	0.0160120
793.440	0.0160335
793.518	0.0160081
793.596	0.0160172
793.674	0.0159760
793.753	0.0159178
793.831	0.0160429
793.909	0.0157649
793.987	0.0159483
794.065	0.0159487
794.143	0.0159520
794.221	0.0158480
794.299	0.0160375
794.378	0.0160147
794.456	0.0158882
794.534	0.0159334
794.612	0.0160152
794.690	0.0158919
794.768	0.0159010
794.846	0.0158593
794.924	0.0157732
795.003	0.0158826
795.081	0.0157558
795.159	0.0158514
795.237	0.0158836
795.315	0.0159978
795.393	0.0159557
795.471	0.0159142
795.549	0.0159635
795.628	0.0159688
795.706	0.0159827
795.784	0.0160308
795.862	0.0159207
795.940	0.0159425
796.018	0.0161858
796.096	0.0160361
796.174	0.0158408
796.253	0.0158642
796.331	0.0159243
796.409	0.0159077
796.487	0.0159659
796.565	0.0159349
796.643	0.0159181
796.721	0.0158936
796.799	0.0157200
796.878	0.0158675
796.956	0.0159463
797.034	0.0159303
797.112	0.0159429
797.190	0.0158685
797.268	0.0158028
797.346	0.0158926
797.424	0.0158049
797.503	0.0159308
797.581	0.0160324
797.659	0.0159315
797.737	0.0159409
797.815	0.0160784
797.893	0.0159824
797.971	0.0159317
798.049	0.0159467
798.128	0.0162297
798.206	0.0161796
798.284	0.0159953
798.362	0.0160067
798.440	0.0161389
798.518	0.0160627
798.596	0.0159319
798.674	0.0160417
798.753	0.0159311
798.831	0.0159739
798.909	0.0160065
798.987	0.0159669
799.065	0.0158496
799.143	0.0159427
799.221	0.0159454
799.299	0.0159447
799.378	0.0158944
799.456	0.0159182
799.534	0.0160713
799.612	0.0158885
799.690	0.0158365
799.768	0.0158253
799.846	0.0158702
799.924	0.0159570
800.003	0.0159908
800.081	0.0158245
800.159	0.0159562
800.237	0.0159489
800.315	0.0158893
800.393	0.0159454
800.471	0.0158968
800.549	0.0161208
800.628	0.0160081
800.706	0.0159231
800.784	0.0158727
800.862	0.0160758
800.940	0.0158237
801.018	0.0159525
801.096	0.0158677
801.174	0.0158996
801.253	0.0160100
801.331	0.0158865
801.409	0.0158994
801.487	0.0160090
801.565	0.0160060
801.643	0.0160693
801.721	0.0161288
801.799	0.0159675
801.878	0.0159487
801.956	0.0160541
802.034	0.0159796
802.112	0.0160911
802.190	0.0159577
802.268	0.0158939
802.346	0.0158673
802.424	0.0160020
802.503	0.0159851
802.581	0.0158485
802.659	0.0160145
802.737	0.0159615
802.815	0.0159837
802.893	0.0159109
802.971	0.0159317
803.049	0.0160336
803.128	0.0159541
803.206	0.0160483
803.284	0.0160155
803.362	0.0159891
803.440	0.0159550
803.518	0.0159479
803.596	0.0159721
803.674	0.0159554
803.753	0.0159948
803.831	0.0159992
803.909	0.0159650
803.987	0.0160558
804.065	0.0160674
804.143	0.0160533
804.221	0.0160233
804.299	0.0158215
804.378	0.0160406
804.456	0.0160316
804.534	0.0158274
804.612	0.0158398
804.690	0.0159078
804.768	0.0160002
804.846	0.0159278
804.924	0.0158032
805.003	0.0159184
805.081	0.0158944
805.159	0.0158572
805.237	0.0160155
805.315	0.0159364
805.393	0.0159391
805.471	0.0159862
805.549	0.0159763
805.628	0.0159988
805.706	0.0158505
805.784	0.0160024
805.862	0.0158724
805.940	0.0158304
806.018	0.0158582
806.096	0.0158454
806.174	0.0159110
806.253	0.0160023
806.331	0.0160062
806.409	0.0159674
806.487	0.0158429
806.565	0.0159999
806.643	0.0159270
806.721	0.0158448
806.799	0.0158999
806.878	0.0160747
806.956	0.0160111
807.034	0.0159135
807.112	0.0160318
807.190	0.0160123
807.268	0.0159364
807.346	0.0159628
807.424	0.0160321
807.503	0.0159703
807.581	0.0159641
807.659	0.0160159
807.737	0.0160869
807.815	0.0159365
807.893	0.0158614
807.971	0.0160966
808.049	0.0159319
808.128	0.0160293
808.206	0.0159741
808.284	0.0158436
808.362	0.0159337
808.440	0.0158644
808.518	0.0159997
808.596	0.0159929
808.674	0.0159788
808.753	0.0160272
808.831	0.0159200
808.909	0.0160220
808.987	0.0158910
809.065	0.0159868
809.143	0.0160857
809.221	0.0161285
809.299	0.0160340
809.378	0.0160555
809.456	0.0159922
809.534	0.0160366
809.612	0.0160548
809.690	0.0159534
809.768	0.0160569
809.846	0.0160783
809.924	0.0160862
810.003	0.0159824
810.081	0.0160944
810.159	0.0159543
810.237	0.0159073
810.315	0.0158636
810.393	0.0158735
810.471	0.0159689
810.549	0.0158874
810.628	0.0159361
810.706	0.0159159
810.784	0.0159124
810.862	0.0158407
810.940	0.0157870
811.018	0.0159072
811.096	0.0158517
811.174	0.0158693
811.253	0.0158623
811.331	0.0158727
811.409	0.0157596
811.487	0.0158878
811.565	0.0158435
811.643	0.0158801
811.721	0.0160090
811.799	0.0159100
811.878	0.0160001
811.956	0.0160221
812.034	0.0159346
812.112	0.0158452
812.190	0.0159339
812.268	0.0161381
812.346	0.0160184
812.424	0.0159747
812.503	0.0159682
812.581	0.0159768
812.659	0.0159155
812.737	0.0160976
812.815	0.0161160
812.893	0.0159865
812.971	0.0160434
813.049	0.0160129
813.128	0.0158923
813.206	0.0160072
813.284	0.0160993
813.362	0.0161198
813.440	0.0160730
813.518	0.0160710
813.596	0.0160241
813.674	0.0160837
813.753	0.0161223
813.831	0.0160497
813.909	0.0161171
813.987	0.0160886
814.065	0.0158911
814.143	0.0161268
814.221	0.0160488
814.299	0.0159390
814.378	0.0160529
814.456	0.0160050
814.534	0.0160194
814.612	0.0160584
814.690	0.0158585
814.768	0.0159322
814.846	0.0159548
814.924	0.0158931
815.003	0.0157735
815.081	0.0158395
815.159	0.0160804
815.237	0.0159604
815.315	0.0157906
815.393	0.0159207
815.471	0.0159119
815.549	0.0160029
815.628	0.0159365
815.706	0.0158613
815.784	0.0158363
815.862	0.0159335
815.940	0.0161643
816.018	0.0159085
816.096	0.0159990
816.174	0.0160840
816.253	0.0158835
816.331	0.0159018
816.409	0.0160143
816.487	0.0159791
816.565	0.0160285
816.643	0.0159026
816.721	0.0159577
816.799	0.0160384
816.878	0.0159913
816.956	0.0158620
817.034	0.0158411
817.112	0.0158562
817.190	0.0159700
817.268	0.0159881
817.346	0.0160149
817.424	0.0159224
817.503	0.0159552
817.581	0.0159531
817.659	0.0160163
817.737	0.0159625
817.815	0.0160791
817.893	0.0159179
817.971	0.0159434
818.049	0.0160593
818.128	0.0161119
818.206	0.0160462
818.284	0.0159944
818.362	0.0160637
818.440	0.0160554
818.518	0.0159193
818.596	0.0158771
818.674	0.0160323
818.753	0.0159045
818.831	0.0158541
818.909	0.0160302
818.987	0.0158581
819.065	0.0158816
819.143	0.0159897
819.221	0.0158731
819.299	0.0159724
819.378	0.0159801
819.456	0.0159206
819.534	0.0159512
819.612	0.0159808
819.690	0.0158829
819.768	0.0157525
819.846	0.0159840
819.924	0.0158949
820.003	0.0158949
820.081	0.0159418
820.159	0.0159050
820.237	0.0159045
820.315	0.0159377
820.393	0.0159262
820.471	0.0159342
820.549	0.0159499
820.628	0.0159174
820.706	0.0159776
820.784	0.0160438
820.862	0.0159690
820.940	0.0159357
821.018	0.0158511
821.096	0.0158513
821.174	0.0158874
821.253	0.0160046
821.331	0.0159288
821.409	0.0159381
821.487	0.0159708
821.565	0.0159367
821.643	0.0158640
821.721	0.0159525
821.799	0.0160824
821.878	0.0158618
821.956	0.0158652
822.034	0.0159780
822.112	0.0159178
822.190	0.0157954
822.268	0.0159022
822.346	0.0159892
822.424	0.0159676
822.503	0.0158769
822.581	0.0158667
822.659	0.0159115
822.737	0.0158881
822.815	0.0158257
822.893	0.0159496
822.971	0.0158967
823.049	0.0159839
823.128	0.0159367
823.206	0.0159161
823.284	0.0160523
823.362	0.0160207
823.440	0.0160540
823.518	0.0158879
823.596	0.0159440
823.674	0.0160883
823.753	0.0159750
823.831	0.0160818
823.909	0.0160702
823.987	0.0160653
824.065	0.0159914
824.143	0.0159206
824.221	0.0160355
824.299	0.0159363
824.378	0.0159066
824.456	0.0159654
824.534	0.0159422
824.612	0.0159763
824.690	0.0160040
824.768	0.0159303
824.846	0.0160373
824.924	0.0157915
825.003	0.0159588
825.081	0.0159171
825.159	0.0158714
825.237	0.0157423
825.315	0.0159291
825.393	0.0159557
825.471	0.0159386
825.549	0.0159409
825.628	0.0160308
825.706	0.0159568
825.784	0.0158449
825.862	0.0159429
825.940	0.0159985
826.018	0.0160019
826.096	0.0159795
826.174	0.0159538
826.253	0.0160194
826.331	0.0160085
826.409	0.0160966
826.487	0.0160070
826.565	0.0160084
826.643	0.0159785
826.721	0.0159683
826.799	0.0160378
826.878	0.0159512
826.956	0.0159353
827.034	0.0160126
827.112	0.0159803
827.190	0.0159790
827.268	0.0160103
827.346	0.0158829
827.424	0.0159037
827.503	0.0158380
827.581	0.0159615
827.659	0.0160017
827.737	0.0159645
827.815	0.0159931
827.893	0.0160323
827.971	0.0160419
828.049	0.0159727
828.128	0.0159320
828.206	0.0159928
828.284	0.0159372
828.362	0.0159692
828.440	0.0159983
828.518	0.0158797
828.596	0.0159485
828.674	0.0160825
828.753	0.0159244
828.831	0.0159492
828.909	0.0158917
828.987	0.0158475
829.065	0.0159977
829.143	0.0162294
829.221	0.0159897
829.299	0.0159764
829.378	0.0159785
829.456	0.0160265
829.534	0.0159863
829.612	0.0160308
829.690	0.0160005
829.768	0.0160262
829.846	0.0160155
829.924	0.0160059
830.003	0.0158826
830.081	0.0159895
830.159	0.0160326
830.237	0.0159174
830.315	0.0159283
830.393	0.0160091
830.471	0.0157909
830.549	0.0159917
830.628	0.0160255
830.706	0.0158662
830.784	0.0159216
830.862	0.0159441
830.940	0.0159052
831.018	0.0159337
831.096	0.0158783
831.174	0.0159132
831.253	0.0160041
831.331	0.0158611
831.409	0.0159686
831.487	0.0158474
831.565	0.0157333
831.643	0.0159229
831.721	0.0158617
831.799	0.0160105
831.878	0.0161386
831.956	0.0158730
832.034	0.0160734
832.112	0.0161015
832.190	0.0161423
832.268	0.0160360
832.346	0.0160163
832.424	0.0161240
832.503	0.0161818
832.581	0.0160758
832.659	0.0160332
832.737	0.0161041
832.815	0.0160810
832.893	0.0160175
832.971	0.0159820
833.049	0.0160249
833.128	0.0161068
833.206	0.0160498
833.284	0.0160152
833.362	0.0158759
833.440	0.0157997
833.518	0.0160936
833.596	0.0159955
833.674	0.0160058
833.753	0.0159695
833.831	0.0159738
833.909	0.0158923
833.987	0.0159156
834.065	0.0159077
834.143	0.0159247
834.221	0.0160352
834.299	0.0157345
834.378	0.0157555
834.456	0.0160051
834.534	0.0159369
834.612	0.0159737
834.690	0.0159397
834.768	0.0158265
834.846	0.0158981
834.924	0.0159382
835.003	0.0159920
835.081	0.0158517
835.159	0.0158630
835.237	0.0158325
835.315	0.0157543
835.393	0.0159141
835.471	0.0159528
835.549	0.0158714
835.628	0.0160043
835.706	0.0158121
835.784	0.0159824
835.862	0.0159874
835.940	0.0159622
836.018	0.0158479
836.096	0.0158506
836.174	0.0161044
836.253	0.0158267
836.331	0.0159505
836.409	0.0160557
836.487	0.0159492
836.565	0.0160396
836.643	0.0160382
836.721	0.0159100
836.799	0.0159095
836.878	0.0159608
836.956	0.0160596
837.034	0.0159960
837.112	0.0158660
837.190	0.0158801
837.268	0.0158281
837.346	0.0159566
837.424	0.0158765
837.503	0.0158854
837.581	0.0159525
837.659	0.0160069
837.737	0.0159052
837.815	0.0160439
837.893	0.0160151
837.971	0.0159968
838.049	0.0159175
838.128	0.0159737
838.206	0.0160209
838.284	0.0160370
838.362	0.0160705
838.440	0.0159510
838.518	0.0159530
838.596	0.0159472
838.674	0.0159919
838.753	0.0158522
838.831	0.0158783
838.909	0.0158716
838.987	0.0158451
839.065	0.0160464
839.143	0.0158355
839.221	0.0157008
839.299	0.0157992
839.378	0.0157864
839.456	0.0158865
839.534	0.0157536
839.612	0.0158674
839.690	0.0158673
839.768	0.0156931
839.846	0.0158191
839.924	0.0158109
840.003	0.0158508
840.081	0.0158603
840.159	0.0157722
840.237	0.0158791
840.315	0.0158652
840.393	0.0161059
840.471	0.0159256
840.549	0.0159275
840.628	0.0161305
840.706	0.0160753
840.784	0.0159586
840.862	0.0161712
840.940	0.0161423
841.018	0.0160211
841.096	0.0160453
841.174	0.0160715
841.253	0.0160234
841.331	0.0159586
841.409	0.0159880
841.487	0.0160007
841.565	0.0160259
841.643	0.0160041
841.721	0.0158669
841.799	0.0158964
841.878	0.0159485
841.956	0.0159447
842.034	0.0159568
842.112	0.0159837
842.190	0.0159543
842.268	0.0160117
842.346	0.0159779
842.424	0.0159615
842.503	0.0160133
842.581	0.0161672
842.659	0.0160456
842.737	0.0159440
842.815	0.0159150
842.893	0.0159873
842.971	0.0159070
843.049	0.0158965
843.128	0.0158549
843.206	0.0158648
843.284	0.0158862
843.362	0.0157966
843.440	0.0158687
843.518	0.0156922
843.596	0.0157800
843.674	0.0158772
843.753	0.0158137
843.831	0.0157882
843.909	0.0157455
843.987	0.0158263
844.065	0.0158320
844.143	0.0159083
844.221	0.0157861
844.299	0.0159074
844.378	0.0159386
844.456	0.0158867
844.534	0.0158656
844.612	0.0160332
844.690	0.0159811
844.768	0.0158518
844.846	0.0159846
844.924	0.0160386
845.003	0.0161286
845.081	0.0159545
845.159	0.0160699
845.237	0.0162641
845.315	0.0160804
845.393	0.0161082
845.471	0.0161424
845.549	0.0161777
845.628	0.0161282
845.706	0.0161080
845.784	0.0160930
845.862	0.0160609
845.940	0.0160229
846.018	0.0160596
846.096	0.0160813
846.174	0.0160406
846.253	0.0160461
846.331	0.0160340
846.409	0.0159467
846.487	0.0158546
846.565	0.0158352
846.643	0.0156967
846.721	0.0157130
846.799	0.0157600
846.878	0.0159334
846.956	0.0157764
847.034	0.0157423
847.112	0.0158284
847.190	0.0157169
847.268	0.0157456
847.346	0.0157600
847.424	0.0157624
847.503	0.0158230
847.581	0.0158361
847.659	0.0157380
847.737	0.0157761
847.815	0.0156647
847.893	0.0157347
847.971	0.0158372
848.049	0.0158076
848.128	0.0159124
848.206	0.0159745
848.284	0.0159177
848.362	0.0157872
848.440	0.0159100
848.518	0.0161135
848.596	0.0160696
848.674	0.0160909
848.753	0.0160693
848.831	0.0160221
848.909	0.0160368
848.987	0.0159486
849.065	0.0160703
849.143	0.0161316
849.221	0.0161517
849.299	0.0161187
849.378	0.0161830
849.456	0.0161870
849.534	0.0161797
849.612	0.0161630
849.690	0.0160410
849.768	0.0161397
849.846	0.0161203
849.924	0.0162402
850.003	0.0160728
850.081	0.0160118
850.159	0.0160408
850.237	0.0159642
850.315	0.0160548
850.393	0.0160178
850.471	0.0159734
850.549	0.0160487
850.628	0.0159913
850.706	0.0159594
850.784	0.0159048
850.862	0.0160793
850.940	0.0158437
851.018	0.0158686
851.096	0.0159332
851.174	0.0158894
851.253	0.0157333
851.331	0.0157901
851.409	0.0159071
851.487	0.0160529
851.565	0.0158212
851.643	0.0156814
851.721	0.0157752
851.799	0.0156994
851.878	0.0156040
851.956	0.0157124
852.034	0.0157566
852.112	0.0158172
852.190	0.0156895
852.268	0.0158273
852.346	0.0158723
852.424	0.0159609
852.503	0.0158104
852.581	0.0158102
852.659	0.0159666
852.737	0.0159325
852.815	0.0160000
852.893	0.0159999
852.971	0.0157450
853.049	0.0159541
853.128	0.0160543
853.206	0.0160395
853.284	0.0159837
853.362	0.0160660
853.440	0.0160848
853.518	0.0161150
853.596	0.0160109
853.674	0.0160847
853.753	0.0159856
853.831	0.0160429
853.909	0.0159764
853.987	0.0159904
854.065	0.0160027
854.143	0.0159669
854.221	0.0160610
854.299	0.0160528
854.378	0.0159999
854.456	0.0158675
854.534	0.0159853
854.612	0.0159636
854.690	0.0159048
854.768	0.0157829
854.846	0.0158800
854.924	0.0159815
855.003	0.0159499
855.081	0.0158734
855.159	0.0159023
855.237	0.0161005
855.315	0.0160805
855.393	0.0160302
855.471	0.0159536
855.549	0.0158995
855.628	0.0158649
855.706	0.0159450
855.784	0.0159690
855.862	0.0158873
855.940	0.0158823
856.018	0.0158432
856.096	0.0158096
856.174	0.0158816
856.253	0.0159205
856.331	0.0159868
856.409	0.0158668
856.487	0.0157956
856.565	0.0159570
856.643	0.0159019
856.721	0.0159399
856.799	0.0159367
856.878	0.0159304
856.956	0.0160052
857.034	0.0159865
857.112	0.0158742
857.190	0.0159438
857.268	0.0160370
857.346	0.0160244
857.424	0.0160468
857.503	0.0159340
857.581	0.0160686
857.659	0.0158747
857.737	0.0159306
857.815	0.0161131
857.893	0.0160970
857.971	0.0160989
858.049	0.0159563
858.128	0.0160733
858.206	0.0159709
858.284	0.0159052
858.362	0.0159525
858.440	0.0161179
858.518	0.0160181
858.596	0.0161245
858.674	0.0160916
858.753	0.0158826
858.831	0.0158038
858.909	0.0159703
858.987	0.0160653
859.065	0.0159753
859.143	0.0158911
859.221	0.0159456
859.299	0.0159946
859.378	0.0159384
859.456	0.0158798
859.534	0.0159386
859.612	0.0158352
859.690	0.0158710
859.768	0.0158913
859.846	0.0159852
859.924	0.0159725
860.003	0.0159003
860.081	0.0158942
860.159	0.0159873
860.237	0.0158700
860.315	0.0158677
860.393	0.0158015
860.471	0.0160612
860.549	0.0159126
860.628	0.0158925
860.706	0.0159393
860.784	0.0158054
860.862	0.0159573
860.940	0.0158398
861.018	0.0160224
861.096	0.0158778
861.174	0.0158975
861.253	0.0158458
861.331	0.0158601
861.409	0.0157754
861.487	0.0158266
861.565	0.0160360
861.643	0.0160313
861.721	0.0158734
861.799	0.0160429
861.878	0.0159963
861.956	0.0159618
862.034	0.0159831
862.112	0.0159864
862.190	0.0160039
862.268	0.0159401
862.346	0.0161811
862.424	0.0160095
862.503	0.0160522
862.581	0.0160942
862.659	0.0160143
862.737	0.0160615
862.815	0.0161597
862.893	0.0160818
862.971	0.0160268
863.049	0.0161100
863.128	0.0162471
863.206	0.0159715
863.284	0.0159342
863.362	0.0160120
863.440	0.0159883
863.518	0.0160600
863.596	0.0160608
863.674	0.0159579
863.753	0.0159296
863.831	0.0159719
863.909	0.0159122
863.987	0.0158340
864.065	0.0158888
864.143	0.0157851
864.221	0.0159533
864.299	0.0158239
864.378	0.0158775
864.456	0.0158321
864.534	0.0158123
864.612	0.0158698
864.690	0.0157815
864.768	0.0156385
864.846	0.0158347
864.924	0.0157684
865.003	0.0158765
865.081	0.0157378
865.159	0.0157686
865.237	0.0157656
865.315	0.0157171
865.393	0.0157816
865.471	0.0159019
865.549	0.0158930
865.628	0.0157868
865.706	0.0158636
865.784	0.0159485
865.862	0.0158489
865.940	0.0159016
866.018	0.0160803
866.096	0.0158884
866.174	0.0158179
866.253	0.0160382
866.331	0.0160924
866.409	0.0159006
866.487	0.0160495
866.565	0.0161053
866.643	0.0161552
866.721	0.0160242
866.799	0.0161133
866.878	0.0161906
866.956	0.0160464
867.034	0.0162383
867.112	0.0160875
867.190	0.0161826
867.268	0.0161767
867.346	0.0160553
867.424	0.0160108
867.503	0.0161477
867.581	0.0160708
867.659	0.0161144
867.737	0.0158781
867.815	0.0160753
867.893	0.0159624
867.971	0.0159331
868.049	0.0159370
868.128	0.0160477
868.206	0.0159395
868.284	0.0158871
868.362	0.0159504
868.440	0.0157986
868.518	0.0158733
868.596	0.0158965
868.674	0.0159592
868.753	0.0159514
868.831	0.0159865
868.909	0.0159621
868.987	0.0158665
869.065	0.0158454
869.143	0.0158308
869.221	0.0159404
869.299	0.0160279
869.378	0.0157619
869.456	0.0159045
869.534	0.0158057
869.612	0.0157928
869.690	0.0159259
869.768	0.0159805
869.846	0.0155722
869.924	0.0157869
870.003	0.0158899
870.081	0.0157369
870.159	0.0159261
870.237	0.0157997
870.315	0.0159197
870.393	0.0157864
870.471	0.0158504
870.549	0.0158228
870.628	0.0159320
870.706	0.0158237
870.784	0.0158877
870.862	0.0159865
870.940	0.0159445
871.018	0.0160371
871.096	0.0159126
871.174	0.0159623
871.253	0.0159245
871.331	0.0159177
871.409	0.0159698
871.487	0.0161326
871.565	0.0160554
871.643	0.0159705
871.721	0.0160864
871.799	0.0159628
871.878	0.0160719
871.956	0.0160135
872.034	0.0159365
872.112	0.0160947
872.190	0.0160253
872.268	0.0161070
872.346	0.0161459
872.424	0.0161111
872.503	0.0160134
872.581	0.0161094
872.659	0.0161393
872.737	0.0160000
872.815	0.0160844
872.893	0.0160446
872.971	0.0160739
873.049	0.0160124
873.128	0.0160353
873.206	0.0160641
873.284	0.0160998
873.362	0.0160447
873.440	0.0160490
873.518	0.0160998
873.596	0.0159371
873.674	0.0160017
873.753	0.0161048
873.831	0.0159932
873.909	0.0159727
873.987	0.0160341
874.065	0.0159707
874.143	0.0159644
874.221	0.0159318
874.299	0.0159821
874.378	0.0160320
874.456	0.0158415
874.534	0.0158739
874.612	0.0159479
874.690	0.0158772
874.768	0.0157867
874.846	0.0157920
874.924	0.0158903
875.003	0.0159423
875.081	0.0158453
875.159	0.0158328
875.237	0.0157629
875.315	0.0158898
875.393	0.0158362
875.471	0.0157472
875.549	0.0157636
875.628	0.0156997
875.706	0.0157021
875.784	0.0156963
875.862	0.0158255
875.940	0.0156641
876.018	0.0157067
876.096	0.0158210
876.174	0.0159606
876.253	0.0159368
876.331	0.0157661
876.409	0.0159093
876.487	0.0159114
876.565	0.0158426
876.643	0.0158805
876.721	0.0158630
876.799	0.0159473
876.878	0.0160400
876.956	0.0159782
877.034	0.0160459
877.112	0.0159531
877.190	0.0159389
877.268	0.0160359
877.346	0.0159079
877.424	0.0159904
877.503	0.0160791
877.581	0.0159796
877.659	0.0160552
877.737	0.0160651
877.815	0.0161399
877.893	0.0160392
877.971	0.0159567
878.049	0.0159338
878.128	0.0160175
878.206	0.0160869
878.284	0.0160914
878.362	0.0160135
878.440	0.0159863
878.518	0.0158508
878.596	0.0160410
878.674	0.0160093
878.753	0.0159387
878.831	0.0160439
878.909	0.0159561
878.987	0.0159864
879.065	0.0158951
879.143	0.0158554
879.221	0.0160741
879.299	0.0160833
879.378	0.0159352
879.456	0.0158374
879.534	0.0158836
879.612	0.0159666
879.690	0.0158308
879.768	0.0159303
879.846	0.0158871
879.924	0.0158630
880.003	0.0157338
880.081	0.0158975
880.159	0.0160268
880.237	0.0158931
880.315	0.0157282
880.393	0.0159055
880.471	0.0159253
880.549	0.0157552
880.628	0.0158788
880.706	0.0158919
880.784	0.0159230
880.862	0.0159914
880.940	0.0158956
881.018	0.0159074
881.096	0.0159554
881.174	0.0159071
881.253	0.0157561
881.331	0.0158995
881.409	0.0159116
881.487	0.0157684
881.565	0.0158970
881.643	0.0158698
881.721	0.0158694
881.799	0.0159248
881.878	0.0158871
881.956	0.0159915
882.034	0.0159191
882.112	0.0159296
882.190	0.0159580
882.268	0.0159229
882.346	0.0160203
882.424	0.0159164
882.503	0.0159823
882.581	0.0158762
882.659	0.0160067
882.737	0.0159743
882.815	0.0160980
882.893	0.0159930
882.971	0.0159846
883.049	0.0161712
883.128	0.0160840
883.206	0.0160037
883.284	0.0159990
883.362	0.0159873
883.440	0.0161406
883.518	0.0158816
883.596	0.0159208
883.674	0.0160239
883.753	0.0159171
883.831	0.0160253
883.909	0.0159834
883.987	0.0159793
884.065	0.0160106
884.143	0.0159707
884.221	0.0160088
884.299	0.0159457
884.378	0.0160557
884.456	0.0159726
884.534	0.0159164
884.612	0.0160308
884.690	0.0159843
884.768	0.0160355
884.846	0.0160407
884.924	0.0160057
885.003	0.0159237
885.081	0.0159233
885.159	0.0159483
885.237	0.0158556
885.315	0.0159253
885.393	0.0158635
885.471	0.0159015
885.549	0.0159657
885.628	0.0159885
885.706	0.0158217
885.784	0.0157332
885.862	0.0158566
885.940	0.0159146
886.018	0.0159331
886.096	0.0159142
886.174	0.0158728
886.253	0.0157676
886.331	0.0159992
886.409	0.0159983
886.487	0.0158052
886.565	0.0159835
886.643	0.0161069
886.721	0.0158979
886.799	0.0158797
886.878	0.0160212
886.956	0.0159258
887.034	0.0158538
887.112	0.0158341
887.190	0.0159835
887.268	0.0158813
887.346	0.0158855
887.424	0.0160145
887.503	0.0158606
887.581	0.0157962
887.659	0.0158609
887.737	0.0160030
887.815	0.0159251
887.893	0.0161108
887.971	0.0159692
888.049	0.0158511
888.128	0.0160184
888.206	0.0160065
888.284	0.0159296
888.362	0.0160209
888.440	0.0160228
888.518	0.0158849
888.596	0.0158463
888.674	0.0159258
888.753	0.0160369
888.831	0.0158923
888.909	0.0160765
888.987	0.0158711
889.065	0.0158910
889.143	0.0159637
889.221	0.0160171
889.299	0.0159282
889.378	0.0160202
889.456	0.0159345
889.534	0.0158284
889.612	0.0159460
889.690	0.0159640
889.768	0.0160026
889.846	0.0160626
889.924	0.0158459
890.003	0.0160799
890.081	0.0159525
890.159	0.0160838
890.237	0.0160658
890.315	0.0159984
890.393	0.0159533
890.471	0.0160679
890.549	0.0160161
890.628	0.0158601
890.706	0.0160574
890.784	0.0160257
890.862	0.0159541
890.940	0.0160356
891.018	0.0159978
891.096	0.0159275
891.174	0.0159686
891.253	0.0160065
891.331	0.0159606
891.409	0.0158869
891.487	0.0158614
891.565	0.0159168
891.643	0.0160043
891.721	0.0158719
891.799	0.0159839
891.878	0.0159023
891.956	0.0159645
892.034	0.0158807
892.112	0.0158724
892.190	0.0157483
892.268	0.0159608
892.346	0.0159738
892.424	0.0157826
892.503	0.0159103
892.581	0.0157614
892.659	0.0159631
892.737	0.0159139
892.815	0.0158807
892.893	0.0159871
892.971	0.0158968
893.049	0.0158399
893.128	0.0159109
893.206	0.0159261
893.284	0.0158406
893.362	0.0158882
893.440	0.0160474
893.518	0.0159263
893.596	0.0159682
893.674	0.0160847
893.753	0.0159341
893.831	0.0159187
893.909	0.0159474
893.987	0.0159278
894.065	0.0160055
894.143	0.0160919
894.221	0.0160024
894.299	0.0160141
894.378	0.0159774
894.456	0.0159241
894.534	0.0159559
894.612	0.0161684
894.690	0.0159511
894.768	0.0160035
894.846	0.0160852
894.924	0.0159966
895.003	0.0158693
895.081	0.0159926
895.159	0.0159743
895.237	0.0160743
895.315	0.0160448
895.393	0.0159735
895.471	0.0159628
895.549	0.0159467
895.628	0.0158068
895.706	0.0157761
895.784	0.0158742
895.862	0.0159678
895.940	0.0158585
896.018	0.0158070
896.096	0.0160352
896.174	0.0157757
896.253	0.0158592
896.331	0.0158911
896.409	0.0158450
896.487	0.0158601
896.565	0.0158564
896.643	0.0159159
896.721	0.0159780
896.799	0.0160635
896.878	0.0159357
896.956	0.0159998
897.034	0.0159618
897.112	0.0160330
897.190	0.0160027
897.268	0.0159623
897.346	0.0160365
897.424	0.0160406
897.503	0.0159524
897.581	0.0161216
897.659	0.0160332
897.737	0.0158720
897.815	0.0159678
897.893	0.0160229
897.971	0.0159968
898.049	0.0159332
898.128	0.0160098
898.206	0.0160318
898.284	0.0159249
898.362	0.0159201
898.440	0.0159200
898.518	0.0160324
898.596	0.0158392
898.674	0.0159575
898.753	0.0160482
898.831	0.0159074
898.909	0.0158789
898.987	0.0159097
899.065	0.0158906
899.143	0.0159301
899.221	0.0158755
899.299	0.0159956
899.378	0.0158909
899.456	0.0159567
899.534	0.0159321
899.612	0.0158372
899.690	0.0158677
899.768	0.0160013
899.846	0.0158972
899.924	0.0159162
900.003	0.0159850
900.081	0.0159422
900.159	0.0158361
900.237	0.0158879
900.315	0.0159842
900.393	0.0159868
900.471	0.0159511
900.549	0.0158890
900.628	0.0158237
900.706	0.0159743
900.784	0.0160488
900.862	0.0159991
900.940	0.0159764
901.018	0.0159994
901.096	0.0160993
901.174	0.0160932
901.253	0.0158997
901.331	0.0160501
901.409	0.0160509
901.487	0.0159861
901.565	0.0161116
901.643	0.0161199
901.721	0.0160626
901.799	0.0159518
901.878	0.0160432
901.956	0.0160312
902.034	0.0159058
902.112	0.0160866
902.190	0.0160642
902.268	0.0158921
902.346	0.0159414
902.424	0.0160876
902.503	0.0160921
902.581	0.0159948
902.659	0.0160744
902.737	0.0160209
902.815	0.0159308
902.893	0.0159731
902.971	0.0159864
903.049	0.0159851
903.128	0.0161306
903.206	0.0160761
903.284	0.0158660
903.362	0.0158350
903.440	0.0162025
903.518	0.0159457
903.596	0.0159501
903.674	0.0160406
903.753	0.0159572
903.831	0.0159741
903.909	0.0159196
903.987	0.0159943
904.065	0.0159131
904.143	0.0158999
904.221	0.0158913
904.299	0.0159108
904.378	0.0159314
904.456	0.0157602
904.534	0.0157841
904.612	0.0159283
904.690	0.0159118
904.768	0.0159151
904.846	0.0157751
904.924	0.0158819
905.003	0.0160733
905.081	0.0159526
905.159	0.0159451
905.237	0.0160320
905.315	0.0159007
905.393	0.0158712
905.471	0.0161700
905.549	0.0159456
905.628	0.0158789
905.706	0.0160042
905.784	0.0160643
905.862	0.0157645
905.940	0.0158459
906.018	0.0158902
906.096	0.0159441
906.174	0.0158733
906.253	0.0160049
906.331	0.0159778
906.409	0.0157771
906.487	0.0159676
906.565	0.0160278
906.643	0.0160566
906.721	0.0159232
906.799	0.0161623
906.878	0.0159715
906.956	0.0160336
907.034	0.0159874
907.112	0.0159959
907.190	0.0160068
907.268	0.0159982
907.346	0.0159624
907.424	0.0160435
907.503	0.0160076
907.581	0.0159818
907.659	0.0159888
907.737	0.0160218
907.815	0.0159586
907.893	0.0160319
907.971	0.0159690
908.049	0.0159024
908.128	0.0159677
908.206	0.0160112
908.284	0.0159991
908.362	0.0160262
908.440	0.0160038
908.518	0.0159238
908.596	0.0159150
908.674	0.0159869
908.753	0.0160406
908.831	0.0159864
908.909	0.0159982
908.987	0.0159294
909.065	0.0159418
909.143	0.0160804
909.221	0.0161552
909.299	0.0159349
909.378	0.0159917
909.456	0.0159357
909.534	0.0159613
909.612	0.0160709
909.690	0.0160358
909.768	0.0159249
909.846	0.0159055
909.924	0.0160702
910.003	0.0159956
910.081	0.0159291
910.159	0.0158536
910.237	0.0160376
910.315	0.0159264
910.393	0.0158817
910.471	0.0160053
910.549	0.0159750
910.628	0.0160938
910.706	0.0160072
910.784	0.0160545
910.862	0.0159323
910.940	0.0160485
911.018	0.0159972
911.096	0.0159504
911.174	0.0160109
911.253	0.0159251
911.331	0.0159908
911.409	0.0159339
911.487	0.0158662
911.565	0.0157986
911.643	0.0160013
911.721	0.0160936
911.799	0.0158842
911.878	0.0158953
911.956	0.0158823
912.034	0.0158899
912.112	0.0159543
912.190	0.0159134
912.268	0.0159110
912.346	0.0158264
912.424	0.0158530
912.503	0.0159645
912.581	0.0159888
912.659	0.0159296
912.737	0.0157888
912.815	0.0159908
912.893	0.0160063
912.971	0.0160259
913.049	0.0159739
913.128	0.0159936
913.206	0.0160194
913.284	0.0159480
913.362	0.0158777
913.440	0.0160101
913.518	0.0159156
913.596	0.0160519
913.674	0.0159555
913.753	0.0158853
913.831	0.0159458
913.909	0.0158787
913.987	0.0158354
914.065	0.0159882
914.143	0.0158376
914.221	0.0158511
914.299	0.0159512
914.378	0.0158961
914.456	0.0159293
914.534	0.0159401
914.612	0.0159055
914.690	0.0160007
914.768	0.0160809
914.846	0.0160166
914.924	0.0160131
915.003	0.0159566
915.081	0.0159577
915.159	0.0160153
915.237	0.0159974
915.315	0.0159903
915.393	0.0161095
915.471	0.0160076
915.549	0.0159409
915.628	0.0159637
915.706	0.0159827
915.784	0.0159993
915.862	0.0160351
915.940	0.0159653
916.018	0.0158809
916.096	0.0159231
916.174	0.0158997
916.253	0.0159971
916.331	0.0159464
916.409	0.0158672
916.487	0.0159204
916.565	0.0158806
916.643	0.0158604
916.721	0.0159217
916.799	0.0157619
916.878	0.0158665
916.956	0.0159482
917.034	0.0158730
917.112	0.0157996
917.190	0.0159190
917.268	0.0159018
917.346	0.0157231
917.424	0.0159240
917.503	0.0158976
917.581	0.0158733
917.659	0.0158703
917.737	0.0157832
917.815	0.0159255
917.893	0.0159745
917.971	0.0160788
918.049	0.0160104
918.128	0.0159973
918.206	0.0159898
918.284	0.0160494
918.362	0.0159895
918.440	0.0159005
918.518	0.0160181
918.596	0.0159573
918.674	0.0160164
918.753	0.0159565
918.831	0.0159151
918.909	0.0159647
918.987	0.0159299
919.065	0.0159677
919.143	0.0158611
919.221	0.0159837
919.299	0.0158378
919.378	0.0158125
919.456	0.0159017
919.534	0.0160271
919.612	0.0159652
919.690	0.0160602
919.768	0.0160446
919.846	0.0160349
919.924	0.0159924
920.003	0.0160289
920.081	0.0160359
920.159	0.0160568
920.237	0.0159385
920.315	0.0159903
920.393	0.0159502
920.471	0.0159382
920.549	0.0158194
920.628	0.0160097
920.706	0.0159529
920.784	0.0159175
920.862	0.0159003
920.940	0.0160154
921.018	0.0157842
921.096	0.0158807
921.174	0.0158453
921.253	0.0160348
921.331	0.0159465
921.409	0.0159575
921.487	0.0158932
921.565	0.0159117
921.643	0.0158940
921.721	0.0160602
921.799	0.0161609
921.878	0.0160091
921.956	0.0159846
922.034	0.0158450
922.112	0.0158992
922.190	0.0160079
922.268	0.0160344
922.346	0.0159367
922.424	0.0160881
922.503	0.0160106
922.581	0.0158353
922.659	0.0159252
922.737	0.0161321
922.815	0.0160632
922.893	0.0158889
922.971	0.0159168
923.049	0.0160017
923.128	0.0159348
923.206	0.0159183
923.284	0.0159531
923.362	0.0158488
923.440	0.0158253
923.518	0.0158218
923.596	0.0159255
923.674	0.0158684
923.753	0.0159046
923.831	0.0159216
923.909	0.0157827
923.987	0.0158458
924.065	0.0159264
924.143	0.0158371
924.221	0.0158971
924.299	0.0158356
924.378	0.0158491
924.456	0.0158487
924.534	0.0159745
924.612	0.0160043
924.690	0.0158051
924.768	0.0159417
924.846	0.0160317
924.924	0.0158392
925.003	0.0159656
925.081	0.0158827
925.159	0.0159892
925.237	0.0158537
925.315	0.0158746
925.393	0.0158686
925.471	0.0158328
925.549	0.0159167
925.628	0.0159397
925.706	0.0158990
925.784	0.0159211
925.862	0.0159776
925.940	0.0159538
926.018	0.0158125
926.096	0.0158339
926.174	0.0159314
926.253	0.0157920
926.331	0.0160012
926.409	0.0159467
926.487	0.0159615
926.565	0.0159956
926.643	0.0159450
926.721	0.0159840
926.799	0.0160604
926.878	0.0159430
926.956	0.0160097
927.034	0.0160204
927.112	0.0159836
927.190	0.0159560
927.268	0.0158665
927.346	0.0159344
927.424	0.0160158
927.503	0.0159230
927.581	0.0159717
927.659	0.0159736
927.737	0.0160548
927.815	0.0158468
927.893	0.0159880
927.971	0.0159212
928.049	0.0159019
928.128	0.0158178
928.206	0.0158827
928.284	0.0157623
928.362	0.0159570
928.440	0.0157996
928.518	0.0159005
928.596	0.0158656
928.674	0.0158755
928.753	0.0158846
928.831	0.0158238
928.909	0.0158902
928.987	0.0160136
929.065	0.0159345
929.143	0.0159012
929.221	0.0158853
929.299	0.0158280
929.378	0.0159594
929.456	0.0159005
929.534	0.0159699
929.612	0.0159831
929.690	0.0159431
929.768	0.0160323
929.846	0.0160638
929.924	0.0160165
930.003	0.0160135
930.081	0.0160703
930.159	0.0159748
930.237	0.0158877
930.315	0.0158475
930.393	0.0159149
930.471	0.0161206
930.549	0.0156419
930.628	0.0157069
930.706	0.0159363
930.784	0.0158607
930.862	0.0158729
930.940	0.0160143
931.018	0.0158842
931.096	0.0158270
931.174	0.0158708
931.253	0.0160349
931.331	0.0159113
931.409	0.0158070
931.487	0.0159289
931.565	0.0159377
931.643	0.0160738
931.721	0.0159241
931.799	0.0160300
931.878	0.0159562
931.956	0.0160950
932.034	0.0160137
932.112	0.0159949
932.190	0.0160052
932.268	0.0159326
932.346	0.0159496
932.424	0.0159138
932.503	0.0160475
932.581	0.0160684
932.659	0.0159946
932.737	0.0160401
932.815	0.0159954
932.893	0.0160045
932.971	0.0160279
933.049	0.0158971
933.128	0.0158908
933.206	0.0159095
933.284	0.0158990
933.362	0.0159895
933.440	0.0159192
933.518	0.0159897
933.596	0.0159062
933.674	0.0160625
933.753	0.0161004
933.831	0.0160142
933.909	0.0159278
933.987	0.0160656
934.065	0.0160681
934.143	0.0159782
934.221	0.0160400
934.299	0.0160239
934.378	0.0159892
934.456	0.0161720
934.534	0.0160461
934.612	0.0159409
934.690	0.0159913
934.768	0.0160847
934.846	0.0159410
934.924	0.0158701
935.003	0.0160605
935.081	0.0159167
935.159	0.0159102
935.237	0.0159389
935.315	0.0159615
935.393	0.0159348
935.471	0.0160313
935.549	0.0159150
935.628	0.0160091
935.706	0.0159692
935.784	0.0160536
935.862	0.0159806
935.940	0.0159937
936.018	0.0159927
936.096	0.0160162
936.174	0.0160322
936.253	0.0159930
936.331	0.0159634
936.409	0.0160085
936.487	0.0159314
936.565	0.0160194
936.643	0.0159235
936.721	0.0159949
936.799	0.0157607
936.878	0.0158114
936.956	0.0158498
937.034	0.0159937
937.112	0.0160473
937.190	0.0159691
937.268	0.0159462
937.346	0.0158733
937.424	0.0158972
937.503	0.0159529
937.581	0.0159408
937.659	0.0160024
937.737	0.0158730
937.815	0.0158379
937.893	0.0160381
937.971	0.0160488
938.049	0.0160263
938.128	0.0160747
938.206	0.0159125
938.284	0.0161556
938.362	0.0159039
938.440	0.0160300
938.518	0.0159992
938.596	0.0160416
938.674	0.0159414
938.753	0.0159257
938.831	0.0160248
938.909	0.0159491
938.987	0.0160151
939.065	0.0159264
939.143	0.0158378
939.221	0.0160242
939.299	0.0158662
939.378	0.0159563
939.456	0.0160052
939.534	0.0159387
939.612	0.0160201
939.690	0.0159954
939.768	0.0158437
939.846	0.0159193
939.924	0.0159431
940.003	0.0159989
940.081	0.0157740
940.159	0.0158855
940.237	0.0159050
940.315	0.0159980
940.393	0.0157397
940.471	0.0158085
940.549	0.0159274
940.628	0.0158534
940.706	0.0159167
940.784	0.0159057
940.862	0.0157893
940.940	0.0159608
941.018	0.0159633
941.096	0.0158319
941.174	0.0160346
941.253	0.0160316
941.331	0.0161157
941.409	0.0160537
941.487	0.0161124
941.565	0.0160159
941.643	0.0160593
941.721	0.0160056
941.799	0.0161260
941.878	0.0161275
941.956	0.0161028
942.034	0.0160735
942.112	0.0161644
942.190	0.0159826
942.268	0.0160378
942.346	0.0160759
942.424	0.0161134
942.503	0.0160468
942.581	0.0160129
942.659	0.0160687
942.737	0.0161153
942.815	0.0159752
942.893	0.0159060
942.971	0.0160716
943.049	0.0159431
943.128	0.0159074
943.206	0.0159929
943.284	0.0159695
943.362	0.0160157
943.440	0.0159686
943.518	0.0156684
943.596	0.0158486
943.674	0.0158752
943.753	0.0158825
943.831	0.0160892
943.909	0.0160339
943.987	0.0159483
944.065	0.0158694
944.143	0.0159918
944.221	0.0158346
944.299	0.0159586
944.378	0.0159853
944.456	0.0158556
944.534	0.0158507
944.612	0.0158650
944.690	0.0159649
944.768	0.0160123
944.846	0.0158677
944.924	0.0158793
945.003	0.0159988
945.081	0.0159825
945.159	0.0160302
945.237	0.0159697
945.315	0.0159214
945.393	0.0159431
945.471	0.0161058
945.549	0.0160670
945.628	0.0160067
945.706	0.0160103
945.784	0.0159626
945.862	0.0159251
945.940	0.0159531
946.018	0.0160339
946.096	0.0159430
946.174	0.0159225
946.253	0.0160006
946.331	0.0159665
946.409	0.0159890
946.487	0.0159974
946.565	0.0161533
946.643	0.0159493
946.721	0.0159726
946.799	0.0159834
946.878	0.0160526
946.956	0.0160001
947.034	0.0160832
947.112	0.0160177
947.190	0.0158434
947.268	0.0159638
947.346	0.0158625
947.424	0.0159991
947.503	0.0158459
947.581	0.0160498
947.659	0.0159404
947.737	0.0159426
947.815	0.0158099
947.893	0.0158276
947.971	0.0158469
948.049	0.0159226
948.128	0.0158588
948.206	0.0159865
948.284	0.0159788
948.362	0.0159012
948.440	0.0159071
948.518	0.0158373
948.596	0.0158009
948.674	0.0158925
948.753	0.0158834
948.831	0.0159321
948.909	0.0158592
948.987	0.0158047
949.065	0.0159601
949.143	0.0158816
949.221	0.0158879
949.299	0.0159499
949.378	0.0158939
949.456	0.0159473
949.534	0.0160220
949.612	0.0159582
949.690	0.0158529
949.768	0.0159440
949.846	0.0159837
949.924	0.0158870
