06/29/2022	23:01:35	Ver.	4.1	UNKNOWN
Optical Delay	630.002507	Delta X		0.078125	Sweeps	1	Scan Rate	0/0
Coordinates	Axis 1	NaN	Axis 2	NaN	Axis 3	NaN	Axis 4	NaN	Axis 5	NaN	Axis 6	0.000000
TX Power	0.000000	RX Power	0.000000

630.003	0.0163881
630.081	0.0163286
630.159	0.0163422
630.237	0.0162247
630.315	0.0164335
630.393	0.0164427
630.471	0.0164127
630.549	0.0163998
630.628	0.0163290
630.706	0.0163682
630.784	0.0163560
630.862	0.0163138
630.940	0.0163417
631.018	0.0163415
631.096	0.0163424
631.174	0.0165088
631.253	0.0164150
631.331	0.0163781
631.409	0.0164028
631.487	0.0163482
631.565	0.0164979
631.643	0.0164893
631.721	0.0164429
631.799	0.0163701
631.878	0.0164182
631.956	0.0163995
632.034	0.0163494
632.112	0.0163443
632.190	0.0164181
632.268	0.0164021
632.346	0.0164455
632.424	0.0164294
632.503	0.0162689
632.581	0.0163284
632.659	0.0163657
632.737	0.0163961
632.815	0.0162801
632.893	0.0163113
632.971	0.0164513
633.049	0.0164163
633.128	0.0164061
633.206	0.0163474
633.284	0.0163618
633.362	0.0162804
633.440	0.0163013
633.518	0.0163387
633.596	0.0164390
633.674	0.0163322
633.753	0.0164188
633.831	0.0163908
633.909	0.0162659
633.987	0.0163468
634.065	0.0164535
634.143	0.0162677
634.221	0.0163998
634.299	0.0162791
634.378	0.0163418
634.456	0.0165047
634.534	0.0164266
634.612	0.0164796
634.690	0.0164283
634.768	0.0162811
634.846	0.0163611
634.924	0.0164695
635.003	0.0163401
635.081	0.0163848
635.159	0.0163000
635.237	0.0163409
635.315	0.0163465
635.393	0.0163516
635.471	0.0164893
635.549	0.0162994
635.628	0.0163508
635.706	0.0164158
635.784	0.0163393
635.862	0.0163393
635.940	0.0163731
636.018	0.0163499
636.096	0.0163127
636.174	0.0163966
636.253	0.0163652
636.331	0.0164527
636.409	0.0165250
636.487	0.0163073
636.565	0.0165212
636.643	0.0163937
636.721	0.0164218
636.799	0.0164608
636.878	0.0163757
636.956	0.0163194
637.034	0.0163609
637.112	0.0163267
637.190	0.0164024
637.268	0.0163623
637.346	0.0164558
637.424	0.0164142
637.503	0.0163617
637.581	0.0162630
637.659	0.0165076
637.737	0.0164266
637.815	0.0163293
637.893	0.0165019
637.971	0.0164117
638.049	0.0164647
638.128	0.0163741
638.206	0.0162962
638.284	0.0163600
638.362	0.0163335
638.440	0.0163325
638.518	0.0163893
638.596	0.0164442
638.674	0.0165325
638.753	0.0163339
638.831	0.0163197
638.909	0.0163808
638.987	0.0163591
639.065	0.0163519
639.143	0.0161802
639.221	0.0164079
639.299	0.0165709
639.378	0.0164634
639.456	0.0163309
639.534	0.0162692
639.612	0.0162836
639.690	0.0163564
639.768	0.0164819
639.846	0.0163462
639.924	0.0163522
640.003	0.0163880
640.081	0.0164551
640.159	0.0163861
640.237	0.0163636
640.315	0.0162682
640.393	0.0164402
640.471	0.0164554
640.549	0.0163592
640.628	0.0163766
640.706	0.0164206
640.784	0.0163766
640.862	0.0163170
640.940	0.0164313
641.018	0.0163848
641.096	0.0165276
641.174	0.0163297
641.253	0.0163965
641.331	0.0165251
641.409	0.0163676
641.487	0.0162135
641.565	0.0163604
641.643	0.0164478
641.721	0.0164382
641.799	0.0162525
641.878	0.0164269
641.956	0.0164028
642.034	0.0164199
642.112	0.0164958
642.190	0.0164059
642.268	0.0163700
642.346	0.0163930
642.424	0.0164528
642.503	0.0163284
642.581	0.0163236
642.659	0.0164690
642.737	0.0162789
642.815	0.0162914
642.893	0.0164862
642.971	0.0163673
643.049	0.0163712
643.128	0.0163689
643.206	0.0163352
643.284	0.0164315
643.362	0.0164614
643.440	0.0163127
643.518	0.0164001
643.596	0.0163844
643.674	0.0165040
643.753	0.0162919
643.831	0.0161726
643.909	0.0164309
643.987	0.0164223
644.065	0.0164378
644.143	0.0163227
644.221	0.0164334
644.299	0.0163882
644.378	0.0163597
644.456	0.0163403
644.534	0.0163687
644.612	0.0163947
644.690	0.0164396
644.768	0.0163773
644.846	0.0164490
644.924	0.0163750
645.003	0.0163594
645.081	0.0163524
645.159	0.0164531
645.237	0.0165337
645.315	0.0164381
645.393	0.0163216
645.471	0.0163778
645.549	0.0164580
645.628	0.0163934
645.706	0.0164202
645.784	0.0165756
645.862	0.0163726
645.940	0.0162886
646.018	0.0163372
646.096	0.0163892
646.174	0.0163069
646.253	0.0163733
646.331	0.0163758
646.409	0.0164375
646.487	0.0163037
646.565	0.0165574
646.643	0.0163211
646.721	0.0162580
646.799	0.0163446
646.878	0.0162859
646.956	0.0164532
647.034	0.0163927
647.112	0.0163176
647.190	0.0163496
647.268	0.0164738
647.346	0.0162513
647.424	0.0164230
647.503	0.0163794
647.581	0.0164096
647.659	0.0163988
647.737	0.0163707
647.815	0.0163535
647.893	0.0163551
647.971	0.0163809
648.049	0.0165193
648.128	0.0164144
648.206	0.0163382
648.284	0.0163506
648.362	0.0163422
648.440	0.0164024
648.518	0.0164513
648.596	0.0163042
648.674	0.0163529
648.753	0.0164978
648.831	0.0163750
648.909	0.0162501
648.987	0.0162230
649.065	0.0163649
649.143	0.0164005
649.221	0.0163295
649.299	0.0163675
649.378	0.0164287
649.456	0.0163359
649.534	0.0163438
649.612	0.0164500
649.690	0.0162927
649.768	0.0163203
649.846	0.0163477
649.924	0.0164746
650.003	0.0162920
650.081	0.0164616
650.159	0.0163889
650.237	0.0163886
650.315	0.0164322
650.393	0.0162790
650.471	0.0163567
650.549	0.0164240
650.628	0.0163081
650.706	0.0163419
650.784	0.0163857
650.862	0.0164278
650.940	0.0164504
651.018	0.0163504
651.096	0.0163271
651.174	0.0163474
651.253	0.0163788
651.331	0.0163477
651.409	0.0164382
651.487	0.0162891
651.565	0.0163763
651.643	0.0164301
651.721	0.0165076
651.799	0.0164752
651.878	0.0163971
651.956	0.0163457
652.034	0.0163264
652.112	0.0164313
652.190	0.0162984
652.268	0.0164590
652.346	0.0164813
652.424	0.0163913
652.503	0.0161912
652.581	0.0164075
652.659	0.0163758
652.737	0.0162658
652.815	0.0164285
652.893	0.0163852
652.971	0.0163602
653.049	0.0162872
653.128	0.0163844
653.206	0.0163965
653.284	0.0164266
653.362	0.0165508
653.440	0.0165454
653.518	0.0164207
653.596	0.0162955
653.674	0.0162937
653.753	0.0164149
653.831	0.0164235
653.909	0.0163226
653.987	0.0163673
654.065	0.0163432
654.143	0.0163703
654.221	0.0163980
654.299	0.0164037
654.378	0.0162996
654.456	0.0163505
654.534	0.0162783
654.612	0.0163773
654.690	0.0164756
654.768	0.0164292
654.846	0.0164397
654.924	0.0164015
655.003	0.0163143
655.081	0.0164256
655.159	0.0164221
655.237	0.0164359
655.315	0.0162952
655.393	0.0165026
655.471	0.0163716
655.549	0.0165057
655.628	0.0164250
655.706	0.0162614
655.784	0.0164091
655.862	0.0163125
655.940	0.0163244
656.018	0.0163866
656.096	0.0163541
656.174	0.0164294
656.253	0.0162479
656.331	0.0164599
656.409	0.0165094
656.487	0.0163019
656.565	0.0163845
656.643	0.0164474
656.721	0.0162565
656.799	0.0163731
656.878	0.0163384
656.956	0.0164236
657.034	0.0164012
657.112	0.0164387
657.190	0.0163632
657.268	0.0163746
657.346	0.0160905
657.424	0.0163463
657.503	0.0164604
657.581	0.0162373
657.659	0.0163418
657.737	0.0165586
657.815	0.0162815
657.893	0.0162885
657.971	0.0162842
658.049	0.0162640
658.128	0.0163515
658.206	0.0163612
658.284	0.0163892
658.362	0.0163417
658.440	0.0163641
658.518	0.0164182
658.596	0.0163919
658.674	0.0163816
658.753	0.0163224
658.831	0.0162202
658.909	0.0164793
658.987	0.0163966
659.065	0.0164619
659.143	0.0162978
659.221	0.0162973
659.299	0.0163764
659.378	0.0162587
659.456	0.0162512
659.534	0.0162553
659.612	0.0163699
659.690	0.0163943
659.768	0.0163589
659.846	0.0163487
659.924	0.0163480
660.003	0.0161505
660.081	0.0163088
660.159	0.0164260
660.237	0.0164027
660.315	0.0163862
660.393	0.0164152
660.471	0.0162836
660.549	0.0164109
660.628	0.0163023
660.706	0.0162244
660.784	0.0163536
660.862	0.0163699
660.940	0.0163029
661.018	0.0164109
661.096	0.0164301
661.174	0.0165209
661.253	0.0163893
661.331	0.0165260
661.409	0.0163364
661.487	0.0164842
661.565	0.0163783
661.643	0.0162048
661.721	0.0163649
661.799	0.0165041
661.878	0.0163134
661.956	0.0162078
662.034	0.0163523
662.112	0.0164512
662.190	0.0163625
662.268	0.0162388
662.346	0.0164514
662.424	0.0163566
662.503	0.0164178
662.581	0.0164224
662.659	0.0163640
662.737	0.0163567
662.815	0.0163699
662.893	0.0164749
662.971	0.0164004
663.049	0.0164059
663.128	0.0163348
663.206	0.0163462
663.284	0.0164304
663.362	0.0163715
663.440	0.0163641
663.518	0.0164588
663.596	0.0162997
663.674	0.0164253
663.753	0.0163327
663.831	0.0163494
663.909	0.0164239
663.987	0.0163783
664.065	0.0164232
664.143	0.0164295
664.221	0.0164533
664.299	0.0164347
664.378	0.0163233
664.456	0.0164487
664.534	0.0163628
664.612	0.0162374
664.690	0.0161879
664.768	0.0163615
664.846	0.0162927
664.924	0.0163855
665.003	0.0163484
665.081	0.0163255
665.159	0.0163621
665.237	0.0163398
665.315	0.0164580
665.393	0.0163161
665.471	0.0164070
665.549	0.0161705
665.628	0.0163797
665.706	0.0163432
665.784	0.0163303
665.862	0.0164471
665.940	0.0163303
666.018	0.0164323
666.096	0.0162943
666.174	0.0163621
666.253	0.0163334
666.331	0.0163997
666.409	0.0163723
666.487	0.0163441
666.565	0.0163403
666.643	0.0164867
666.721	0.0162884
666.799	0.0163840
666.878	0.0163974
666.956	0.0164979
667.034	0.0163922
667.112	0.0165508
667.190	0.0163637
667.268	0.0163696
667.346	0.0164745
667.424	0.0163219
667.503	0.0163396
667.581	0.0163193
667.659	0.0164034
667.737	0.0163853
667.815	0.0163145
667.893	0.0163499
667.971	0.0164290
668.049	0.0164336
668.128	0.0163538
668.206	0.0164386
668.284	0.0163449
668.362	0.0163544
668.440	0.0164681
668.518	0.0164407
668.596	0.0163413
668.674	0.0163185
668.753	0.0164207
668.831	0.0163752
668.909	0.0163126
668.987	0.0163760
669.065	0.0163408
669.143	0.0164243
669.221	0.0165565
669.299	0.0165321
669.378	0.0162766
669.456	0.0162444
669.534	0.0163924
669.612	0.0163854
669.690	0.0163167
669.768	0.0164762
669.846	0.0164893
669.924	0.0163451
670.003	0.0163024
670.081	0.0163532
670.159	0.0162351
670.237	0.0163200
670.315	0.0164492
670.393	0.0163769
670.471	0.0162848
670.549	0.0163162
670.628	0.0163350
670.706	0.0162413
670.784	0.0163863
670.862	0.0163683
670.940	0.0163132
671.018	0.0163269
671.096	0.0163301
671.174	0.0163792
671.253	0.0162807
671.331	0.0163967
671.409	0.0163084
671.487	0.0163840
671.565	0.0164173
671.643	0.0162675
671.721	0.0164520
671.799	0.0163673
671.878	0.0163823
671.956	0.0164535
672.034	0.0164278
672.112	0.0163065
672.190	0.0163790
672.268	0.0165020
672.346	0.0163208
672.424	0.0163699
672.503	0.0164825
672.581	0.0163474
672.659	0.0164342
672.737	0.0162775
672.815	0.0164043
672.893	0.0163022
672.971	0.0162244
673.049	0.0162673
673.128	0.0165024
673.206	0.0162902
673.284	0.0164336
673.362	0.0165073
673.440	0.0164697
673.518	0.0164030
673.596	0.0164104
673.674	0.0163480
673.753	0.0164243
673.831	0.0164555
673.909	0.0163637
673.987	0.0163935
674.065	0.0163660
674.143	0.0163393
674.221	0.0163006
674.299	0.0162510
674.378	0.0163793
674.456	0.0165205
674.534	0.0163290
674.612	0.0163801
674.690	0.0163264
674.768	0.0164723
674.846	0.0163867
674.924	0.0163265
675.003	0.0163783
675.081	0.0163152
675.159	0.0165648
675.237	0.0163997
675.315	0.0164313
675.393	0.0164841
675.471	0.0164761
675.549	0.0164877
675.628	0.0164202
675.706	0.0162863
675.784	0.0162995
675.862	0.0164677
675.940	0.0164757
676.018	0.0162753
676.096	0.0163692
676.174	0.0164636
676.253	0.0162844
676.331	0.0163520
676.409	0.0164639
676.487	0.0163937
676.565	0.0163120
676.643	0.0163253
676.721	0.0164262
676.799	0.0163263
676.878	0.0162814
676.956	0.0163339
677.034	0.0163372
677.112	0.0163667
677.190	0.0163740
677.268	0.0163736
677.346	0.0163531
677.424	0.0163683
677.503	0.0163651
677.581	0.0163291
677.659	0.0162968
677.737	0.0163446
677.815	0.0163884
677.893	0.0163919
677.971	0.0163671
678.049	0.0162897
678.128	0.0162886
678.206	0.0163093
678.284	0.0163568
678.362	0.0163780
678.440	0.0162411
678.518	0.0162203
678.596	0.0162800
678.674	0.0162933
678.753	0.0162100
678.831	0.0163258
678.909	0.0163332
678.987	0.0163197
679.065	0.0163393
679.143	0.0164279
679.221	0.0164644
679.299	0.0164723
679.378	0.0160777
679.456	0.0162779
679.534	0.0164775
679.612	0.0164407
679.690	0.0163341
679.768	0.0163699
679.846	0.0164044
679.924	0.0164183
680.003	0.0163775
680.081	0.0163056
680.159	0.0163486
680.237	0.0163673
680.315	0.0164268
680.393	0.0164161
680.471	0.0163311
680.549	0.0163185
680.628	0.0163227
680.706	0.0164584
680.784	0.0163413
680.862	0.0163717
680.940	0.0163913
681.018	0.0164896
681.096	0.0164586
681.174	0.0163506
681.253	0.0164073
681.331	0.0165426
681.409	0.0163169
681.487	0.0164536
681.565	0.0163604
681.643	0.0162453
681.721	0.0164168
681.799	0.0162473
681.878	0.0164121
681.956	0.0164364
682.034	0.0163258
682.112	0.0164227
682.190	0.0164608
682.268	0.0163418
682.346	0.0164242
682.424	0.0163893
682.503	0.0163633
682.581	0.0164413
682.659	0.0164002
682.737	0.0163194
682.815	0.0163484
682.893	0.0161777
682.971	0.0161932
683.049	0.0162760
683.128	0.0164125
683.206	0.0162708
683.284	0.0163864
683.362	0.0163271
683.440	0.0163567
683.518	0.0162400
683.596	0.0162965
683.674	0.0163342
683.753	0.0163392
683.831	0.0163206
683.909	0.0163659
683.987	0.0164545
684.065	0.0162733
684.143	0.0163135
684.221	0.0165529
684.299	0.0166058
684.378	0.0163166
684.456	0.0164719
684.534	0.0163699
684.612	0.0163976
684.690	0.0162605
684.768	0.0160974
684.846	0.0162210
684.924	0.0161832
685.003	0.0161225
685.081	0.0161014
685.159	0.0160885
685.237	0.0162370
685.315	0.0162749
685.393	0.0163695
685.471	0.0164458
685.549	0.0163696
685.628	0.0167125
685.706	0.0166994
685.784	0.0166671
685.862	0.0165993
685.940	0.0165429
686.018	0.0165159
686.096	0.0163596
686.174	0.0162129
686.253	0.0162110
686.331	0.0162025
686.409	0.0160984
686.487	0.0161932
686.565	0.0161773
686.643	0.0161575
686.721	0.0161993
686.799	0.0161581
686.878	0.0163378
686.956	0.0164273
687.034	0.0164944
687.112	0.0166417
687.190	0.0167187
687.268	0.0166883
687.346	0.0166034
687.424	0.0167395
687.503	0.0165806
687.581	0.0165401
687.659	0.0164284
687.737	0.0163540
687.815	0.0162664
687.893	0.0162126
687.971	0.0160807
688.049	0.0160854
688.128	0.0162572
688.206	0.0160709
688.284	0.0161874
688.362	0.0161726
688.440	0.0161873
688.518	0.0161708
688.596	0.0162427
688.674	0.0164354
688.753	0.0164668
688.831	0.0165502
688.909	0.0166929
688.987	0.0166657
689.065	0.0166711
689.143	0.0168194
689.221	0.0167659
689.299	0.0166682
689.378	0.0163909
689.456	0.0161551
689.534	0.0162325
689.612	0.0161483
689.690	0.0161269
689.768	0.0160980
689.846	0.0161904
689.924	0.0161136
690.003	0.0162759
690.081	0.0162971
690.159	0.0162624
690.237	0.0163563
690.315	0.0164944
690.393	0.0164411
690.471	0.0164423
690.549	0.0166174
690.628	0.0166006
690.706	0.0165383
690.784	0.0165990
690.862	0.0164025
690.940	0.0165054
691.018	0.0166718
691.096	0.0167492
691.174	0.0165938
691.253	0.0164889
691.331	0.0166217
691.409	0.0165688
691.487	0.0163457
691.565	0.0162309
691.643	0.0161019
691.721	0.0161716
691.799	0.0159680
691.878	0.0160532
691.956	0.0160574
692.034	0.0160132
692.112	0.0161146
692.190	0.0160860
692.268	0.0163077
692.346	0.0164132
692.424	0.0166640
692.503	0.0165302
692.581	0.0166499
692.659	0.0165923
692.737	0.0167367
692.815	0.0166934
692.893	0.0166357
692.971	0.0164212
693.049	0.0165245
693.128	0.0164347
693.206	0.0161926
693.284	0.0162111
693.362	0.0160606
693.440	0.0159896
693.518	0.0160357
693.596	0.0159441
693.674	0.0161701
693.753	0.0161081
693.831	0.0160560
693.909	0.0162054
693.987	0.0164414
694.065	0.0164962
694.143	0.0164948
694.221	0.0164676
694.299	0.0165668
694.378	0.0166594
694.456	0.0165925
694.534	0.0166531
694.612	0.0166211
694.690	0.0166138
694.768	0.0166296
694.846	0.0165225
694.924	0.0166277
695.003	0.0165119
695.081	0.0163654
695.159	0.0162210
695.237	0.0160577
695.315	0.0163208
695.393	0.0161899
695.471	0.0161370
695.549	0.0161510
695.628	0.0163135
695.706	0.0162594
695.784	0.0162854
695.862	0.0163314
695.940	0.0163833
696.018	0.0163149
696.096	0.0164104
696.174	0.0164866
696.253	0.0165444
696.331	0.0164641
696.409	0.0164925
696.487	0.0166029
696.565	0.0165823
696.643	0.0165658
696.721	0.0166119
696.799	0.0167281
696.878	0.0167015
696.956	0.0165292
697.034	0.0165391
697.112	0.0164040
697.190	0.0163230
697.268	0.0162068
697.346	0.0162334
697.424	0.0159912
697.503	0.0159801
697.581	0.0160661
697.659	0.0160649
697.737	0.0160947
697.815	0.0162527
697.893	0.0163489
697.971	0.0164200
698.049	0.0164815
698.128	0.0165607
698.206	0.0167058
698.284	0.0166222
698.362	0.0167074
698.440	0.0166725
698.518	0.0166805
698.596	0.0166880
698.674	0.0166229
698.753	0.0165865
698.831	0.0162975
698.909	0.0161969
698.987	0.0162019
699.065	0.0161434
699.143	0.0162801
699.221	0.0160970
699.299	0.0159701
699.378	0.0160563
699.456	0.0161968
699.534	0.0163664
699.612	0.0163719
699.690	0.0164342
699.768	0.0165287
699.846	0.0165862
699.924	0.0165373
700.003	0.0166996
700.081	0.0166667
700.159	0.0164764
700.237	0.0165404
700.315	0.0164725
700.393	0.0164051
700.471	0.0162399
700.549	0.0162064
700.628	0.0161668
700.706	0.0162041
700.784	0.0161449
700.862	0.0161786
700.940	0.0162849
701.018	0.0163892
701.096	0.0164902
701.174	0.0163921
701.253	0.0166044
701.331	0.0166375
701.409	0.0167211
701.487	0.0165434
701.565	0.0166738
701.643	0.0165222
701.721	0.0164663
701.799	0.0163428
701.878	0.0163297
701.956	0.0162074
702.034	0.0161116
702.112	0.0161106
702.190	0.0159994
702.268	0.0160244
702.346	0.0160591
702.424	0.0159360
702.503	0.0162392
702.581	0.0163232
702.659	0.0163080
702.737	0.0165120
702.815	0.0166132
702.893	0.0168220
702.971	0.0168506
703.049	0.0168704
703.128	0.0168950
703.206	0.0166599
703.284	0.0166070
703.362	0.0164572
703.440	0.0164484
703.518	0.0162871
703.596	0.0161455
703.674	0.0159859
703.753	0.0159291
703.831	0.0158846
703.909	0.0159772
703.987	0.0158942
704.065	0.0159953
704.143	0.0162022
704.221	0.0161922
704.299	0.0163354
704.378	0.0163647
704.456	0.0165137
704.534	0.0165322
704.612	0.0166763
704.690	0.0166199
704.768	0.0165569
704.846	0.0165132
704.924	0.0165944
705.003	0.0166338
705.081	0.0166132
705.159	0.0165203
705.237	0.0167068
705.315	0.0165652
705.393	0.0165485
705.471	0.0164813
705.549	0.0163146
705.628	0.0162595
705.706	0.0161702
705.784	0.0161568
705.862	0.0160905
705.940	0.0160020
706.018	0.0159732
706.096	0.0159028
706.174	0.0161327
706.253	0.0160670
706.331	0.0162144
706.409	0.0163506
706.487	0.0164203
706.565	0.0165271
706.643	0.0165509
706.721	0.0166709
706.799	0.0166715
706.878	0.0168387
706.956	0.0166978
707.034	0.0167468
707.112	0.0166912
707.190	0.0165773
707.268	0.0163669
707.346	0.0162138
707.424	0.0160711
707.503	0.0160897
707.581	0.0158286
707.659	0.0157606
707.737	0.0157717
707.815	0.0159492
707.893	0.0160762
707.971	0.0160036
708.049	0.0161640
708.128	0.0163486
708.206	0.0165095
708.284	0.0165702
708.362	0.0166290
708.440	0.0167368
708.518	0.0166389
708.596	0.0167135
708.674	0.0168758
708.753	0.0168147
708.831	0.0167329
708.909	0.0166116
708.987	0.0165259
709.065	0.0165738
709.143	0.0163805
709.221	0.0162831
709.299	0.0163251
709.378	0.0161904
709.456	0.0162611
709.534	0.0162585
709.612	0.0160922
709.690	0.0160837
709.768	0.0161666
709.846	0.0162135
709.924	0.0162193
710.003	0.0161839
710.081	0.0161192
710.159	0.0162056
710.237	0.0163364
710.315	0.0163056
710.393	0.0162560
710.471	0.0162759
710.549	0.0162479
710.628	0.0163357
710.706	0.0162743
710.784	0.0162804
710.862	0.0162789
710.940	0.0160150
711.018	0.0162138
711.096	0.0161576
711.174	0.0161196
711.253	0.0162630
711.331	0.0162570
711.409	0.0164020
711.487	0.0164501
711.565	0.0164611
711.643	0.0165812
711.721	0.0165109
711.799	0.0165199
711.878	0.0165554
711.956	0.0165735
712.034	0.0166486
712.112	0.0164610
712.190	0.0163623
712.268	0.0163342
712.346	0.0161720
712.424	0.0162776
712.503	0.0162450
712.581	0.0162043
712.659	0.0162944
712.737	0.0162774
712.815	0.0163024
712.893	0.0163570
712.971	0.0163604
713.049	0.0164626
713.128	0.0165980
713.206	0.0165494
713.284	0.0165663
713.362	0.0166586
713.440	0.0165388
713.518	0.0165372
713.596	0.0164706
713.674	0.0164544
713.753	0.0164147
713.831	0.0162603
713.909	0.0164127
713.987	0.0165105
714.065	0.0163536
714.143	0.0164875
714.221	0.0165050
714.299	0.0163136
714.378	0.0164516
714.456	0.0165632
714.534	0.0164097
714.612	0.0165383
714.690	0.0162991
714.768	0.0163721
714.846	0.0163624
714.924	0.0162914
715.003	0.0160649
715.081	0.0162438
715.159	0.0162191
715.237	0.0162399
715.315	0.0162614
715.393	0.0162919
715.471	0.0162538
715.549	0.0163387
715.628	0.0165149
715.706	0.0166204
715.784	0.0165304
715.862	0.0165395
715.940	0.0166138
716.018	0.0165637
716.096	0.0165030
716.174	0.0163791
716.253	0.0164297
716.331	0.0164198
716.409	0.0163639
716.487	0.0161738
716.565	0.0161331
716.643	0.0160880
716.721	0.0160586
716.799	0.0159528
716.878	0.0160040
716.956	0.0160573
717.034	0.0158724
717.112	0.0159456
717.190	0.0159814
717.268	0.0160780
717.346	0.0161483
717.424	0.0162417
717.503	0.0163538
717.581	0.0164662
717.659	0.0166109
717.737	0.0166499
717.815	0.0166593
717.893	0.0168194
717.971	0.0168736
718.049	0.0169157
718.128	0.0169940
718.206	0.0171909
718.284	0.0171491
718.362	0.0169487
718.440	0.0170215
718.518	0.0167429
718.596	0.0166662
718.674	0.0166018
718.753	0.0165343
718.831	0.0161558
718.909	0.0163258
718.987	0.0161743
719.065	0.0161527
719.143	0.0159435
719.221	0.0157335
719.299	0.0156989
719.378	0.0156498
719.456	0.0156432
719.534	0.0156895
719.612	0.0157948
719.690	0.0157851
719.768	0.0156525
719.846	0.0158765
719.924	0.0159503
720.003	0.0161076
720.081	0.0163718
720.159	0.0163405
720.237	0.0167020
720.315	0.0168227
720.393	0.0167992
720.471	0.0170950
720.549	0.0171973
720.628	0.0171616
720.706	0.0173453
720.784	0.0172195
720.862	0.0172375
720.940	0.0170689
721.018	0.0169459
721.096	0.0168493
721.174	0.0167257
721.253	0.0166897
721.331	0.0164266
721.409	0.0163223
721.487	0.0160332
721.565	0.0160146
721.643	0.0161186
721.721	0.0160129
721.799	0.0159163
721.878	0.0156825
721.956	0.0157837
722.034	0.0157550
722.112	0.0158094
722.190	0.0159361
722.268	0.0157806
722.346	0.0159373
722.424	0.0160242
722.503	0.0159428
722.581	0.0160038
722.659	0.0160198
722.737	0.0160358
722.815	0.0160722
722.893	0.0162143
722.971	0.0162201
723.049	0.0162016
723.128	0.0164458
723.206	0.0164565
723.284	0.0165649
723.362	0.0166517
723.440	0.0165490
723.518	0.0166776
723.596	0.0167823
723.674	0.0167506
723.753	0.0168001
723.831	0.0169890
723.909	0.0168582
723.987	0.0168087
724.065	0.0169063
724.143	0.0169949
724.221	0.0168790
724.299	0.0167529
724.378	0.0167302
724.456	0.0166818
724.534	0.0166425
724.612	0.0166045
724.690	0.0164640
724.768	0.0163895
724.846	0.0162559
724.924	0.0162161
725.003	0.0162277
725.081	0.0162690
725.159	0.0160870
725.237	0.0161753
725.315	0.0160811
725.393	0.0159363
725.471	0.0159978
725.549	0.0161626
725.628	0.0161665
725.706	0.0162427
725.784	0.0163161
725.862	0.0162665
725.940	0.0163324
726.018	0.0163747
726.096	0.0163678
726.174	0.0163870
726.253	0.0163009
726.331	0.0163200
726.409	0.0162496
726.487	0.0161346
726.565	0.0161456
726.643	0.0160222
726.721	0.0161337
726.799	0.0161177
726.878	0.0160088
726.956	0.0161296
727.034	0.0161004
727.112	0.0162392
727.190	0.0162411
727.268	0.0163934
727.346	0.0164215
727.424	0.0164143
727.503	0.0165987
727.581	0.0166073
727.659	0.0166420
727.737	0.0167741
727.815	0.0168438
727.893	0.0167084
727.971	0.0168562
728.049	0.0169553
728.128	0.0166817
728.206	0.0167592
728.284	0.0166248
728.362	0.0165506
728.440	0.0165094
728.518	0.0163758
728.596	0.0161551
728.674	0.0161767
728.753	0.0161300
728.831	0.0160870
728.909	0.0159680
728.987	0.0160422
729.065	0.0160707
729.143	0.0159826
729.221	0.0161392
729.299	0.0162337
729.378	0.0160388
729.456	0.0161700
729.534	0.0161771
729.612	0.0162502
729.690	0.0163318
729.768	0.0164676
729.846	0.0164368
729.924	0.0164283
730.003	0.0165530
730.081	0.0165665
730.159	0.0166232
730.237	0.0166372
730.315	0.0166559
730.393	0.0167036
730.471	0.0166598
730.549	0.0166494
730.628	0.0166316
730.706	0.0167268
730.784	0.0167201
730.862	0.0166878
730.940	0.0166251
731.018	0.0165495
731.096	0.0165147
731.174	0.0164021
731.253	0.0164020
731.331	0.0162701
731.409	0.0162070
731.487	0.0162392
731.565	0.0161673
731.643	0.0162146
731.721	0.0162563
731.799	0.0161880
731.878	0.0160844
731.956	0.0162436
732.034	0.0163090
732.112	0.0163058
732.190	0.0162623
732.268	0.0161852
732.346	0.0163161
732.424	0.0163203
732.503	0.0163737
732.581	0.0163728
732.659	0.0163276
732.737	0.0161326
732.815	0.0162553
732.893	0.0162347
732.971	0.0161736
733.049	0.0160531
733.128	0.0158174
733.206	0.0159185
733.284	0.0158599
733.362	0.0159145
733.440	0.0158263
733.518	0.0158198
733.596	0.0158669
733.674	0.0159451
733.753	0.0159677
733.831	0.0159073
733.909	0.0160044
733.987	0.0161143
734.065	0.0161842
734.143	0.0161942
734.221	0.0164593
734.299	0.0164518
734.378	0.0165261
734.456	0.0166509
734.534	0.0168352
734.612	0.0169065
734.690	0.0169673
734.768	0.0170465
734.846	0.0172963
734.924	0.0172877
735.003	0.0172272
735.081	0.0174319
735.159	0.0174077
735.237	0.0173407
735.315	0.0173212
735.393	0.0171580
735.471	0.0171232
735.549	0.0170883
735.628	0.0170390
735.706	0.0169965
735.784	0.0167953
735.862	0.0167632
735.940	0.0165320
736.018	0.0164626
736.096	0.0161812
736.174	0.0161319
736.253	0.0158989
736.331	0.0158986
736.409	0.0159177
736.487	0.0156751
736.565	0.0157408
736.643	0.0156078
736.721	0.0157328
736.799	0.0155781
736.878	0.0155158
736.956	0.0154362
737.034	0.0155276
737.112	0.0156804
737.190	0.0156912
737.268	0.0157108
737.346	0.0156472
737.424	0.0156045
737.503	0.0157372
737.581	0.0157664
737.659	0.0158211
737.737	0.0158295
737.815	0.0159090
737.893	0.0159364
737.971	0.0162019
738.049	0.0162465
738.128	0.0163831
738.206	0.0164030
738.284	0.0166361
738.362	0.0165864
738.440	0.0169167
738.518	0.0168646
738.596	0.0169974
738.674	0.0171998
738.753	0.0171713
738.831	0.0172192
738.909	0.0171838
738.987	0.0174020
739.065	0.0173506
739.143	0.0174450
739.221	0.0174008
739.299	0.0174103
739.378	0.0173461
739.456	0.0173267
739.534	0.0171754
739.612	0.0169769
739.690	0.0170435
739.768	0.0169565
739.846	0.0169402
739.924	0.0167478
740.003	0.0164233
740.081	0.0162434
740.159	0.0161015
740.237	0.0161105
740.315	0.0158567
740.393	0.0157590
740.471	0.0154598
740.549	0.0154074
740.628	0.0152879
740.706	0.0153575
740.784	0.0152170
740.862	0.0151302
740.940	0.0153886
741.018	0.0152021
741.096	0.0153810
741.174	0.0153411
741.253	0.0153127
741.331	0.0155420
741.409	0.0157404
741.487	0.0159187
741.565	0.0159975
741.643	0.0161897
741.721	0.0162846
741.799	0.0163553
741.878	0.0164063
741.956	0.0167919
742.034	0.0168178
742.112	0.0169529
742.190	0.0169680
742.268	0.0170977
742.346	0.0170525
742.424	0.0170831
742.503	0.0169650
742.581	0.0170275
742.659	0.0170254
742.737	0.0169534
742.815	0.0169409
742.893	0.0168757
742.971	0.0167663
743.049	0.0166952
743.128	0.0170035
743.206	0.0167083
743.284	0.0167958
743.362	0.0167813
743.440	0.0168058
743.518	0.0167847
743.596	0.0167223
743.674	0.0167097
743.753	0.0166529
743.831	0.0167242
743.909	0.0164396
743.987	0.0163715
744.065	0.0163801
744.143	0.0164095
744.221	0.0163317
744.299	0.0162778
744.378	0.0162168
744.456	0.0162416
744.534	0.0162485
744.612	0.0161828
744.690	0.0163280
744.768	0.0163049
744.846	0.0161330
744.924	0.0161746
745.003	0.0161393
745.081	0.0162327
745.159	0.0160352
745.237	0.0158873
745.315	0.0159158
745.393	0.0159102
745.471	0.0157792
745.549	0.0156538
745.628	0.0156514
745.706	0.0155868
745.784	0.0153289
745.862	0.0153867
745.940	0.0154591
746.018	0.0153904
746.096	0.0153360
746.174	0.0154123
746.253	0.0155726
746.331	0.0155795
746.409	0.0157747
746.487	0.0158679
746.565	0.0159249
746.643	0.0160822
746.721	0.0162794
746.799	0.0164154
746.878	0.0165514
746.956	0.0166605
747.034	0.0167194
747.112	0.0167881
747.190	0.0169238
747.268	0.0169582
747.346	0.0170190
747.424	0.0170846
747.503	0.0170371
747.581	0.0172183
747.659	0.0172121
747.737	0.0171413
747.815	0.0173618
747.893	0.0174538
747.971	0.0175201
748.049	0.0173610
748.128	0.0175600
748.206	0.0175301
748.284	0.0174891
748.362	0.0175048
748.440	0.0174239
748.518	0.0175125
748.596	0.0173733
748.674	0.0173423
748.753	0.0173529
748.831	0.0171681
748.909	0.0171267
748.987	0.0169555
749.065	0.0166735
749.143	0.0163789
749.221	0.0163973
749.299	0.0161664
749.378	0.0159792
749.456	0.0157207
749.534	0.0156091
749.612	0.0154702
749.690	0.0152940
749.768	0.0152424
749.846	0.0151640
749.924	0.0150058
750.003	0.0149857
750.081	0.0148093
750.159	0.0148089
750.237	0.0148106
750.315	0.0148513
750.393	0.0148840
750.471	0.0148489
750.549	0.0150686
750.628	0.0150506
750.706	0.0151852
750.784	0.0153614
750.862	0.0154358
750.940	0.0156135
751.018	0.0157231
751.096	0.0159071
751.174	0.0160550
751.253	0.0162922
751.331	0.0164066
751.409	0.0165041
751.487	0.0166460
751.565	0.0166746
751.643	0.0167636
751.721	0.0169555
751.799	0.0169526
751.878	0.0169900
751.956	0.0170457
752.034	0.0170090
752.112	0.0170036
752.190	0.0171072
752.268	0.0168403
752.346	0.0168674
752.424	0.0168892
752.503	0.0168407
752.581	0.0168429
752.659	0.0169237
752.737	0.0170191
752.815	0.0171424
752.893	0.0170061
752.971	0.0170156
753.049	0.0170027
753.128	0.0171477
753.206	0.0171322
753.284	0.0173176
753.362	0.0173347
753.440	0.0172161
753.518	0.0171356
753.596	0.0171327
753.674	0.0170458
753.753	0.0171122
753.831	0.0169651
753.909	0.0168988
753.987	0.0169009
754.065	0.0168463
754.143	0.0168282
754.221	0.0166045
754.299	0.0167613
754.378	0.0165579
754.456	0.0163427
754.534	0.0162464
754.612	0.0162085
754.690	0.0162071
754.768	0.0160301
754.846	0.0158350
754.924	0.0157499
755.003	0.0156843
755.081	0.0155153
755.159	0.0155264
755.237	0.0155103
755.315	0.0154527
755.393	0.0153902
755.471	0.0153422
755.549	0.0154891
755.628	0.0154379
755.706	0.0153333
755.784	0.0153154
755.862	0.0154238
755.940	0.0154021
756.018	0.0153574
756.096	0.0153400
756.174	0.0153912
756.253	0.0154394
756.331	0.0154167
756.409	0.0154784
756.487	0.0156586
756.565	0.0157678
756.643	0.0158215
756.721	0.0160549
756.799	0.0161530
756.878	0.0162708
756.956	0.0164465
757.034	0.0165874
757.112	0.0168176
757.190	0.0169884
757.268	0.0169612
757.346	0.0171333
757.424	0.0172308
757.503	0.0174458
757.581	0.0174928
757.659	0.0174139
757.737	0.0173902
757.815	0.0175723
757.893	0.0174564
757.971	0.0175194
758.049	0.0174930
758.128	0.0172681
758.206	0.0173848
758.284	0.0173348
758.362	0.0173033
758.440	0.0170757
758.518	0.0169702
758.596	0.0168298
758.674	0.0167654
758.753	0.0167173
758.831	0.0165182
758.909	0.0166144
758.987	0.0164619
759.065	0.0163440
759.143	0.0163227
759.221	0.0162349
759.299	0.0160793
759.378	0.0161063
759.456	0.0162471
759.534	0.0162316
759.612	0.0161951
759.690	0.0161561
759.768	0.0162713
759.846	0.0162846
759.924	0.0162634
760.003	0.0162778
760.081	0.0162664
760.159	0.0162430
760.237	0.0161432
760.315	0.0162680
760.393	0.0163292
760.471	0.0161604
760.549	0.0160025
760.628	0.0160350
760.706	0.0160107
760.784	0.0160483
760.862	0.0158625
760.940	0.0159699
761.018	0.0159713
761.096	0.0161591
761.174	0.0160455
761.253	0.0161893
761.331	0.0161852
761.409	0.0163016
761.487	0.0165453
761.565	0.0165475
761.643	0.0164694
761.721	0.0165925
761.799	0.0169120
761.878	0.0166434
761.956	0.0166953
762.034	0.0167711
762.112	0.0166863
762.190	0.0165296
762.268	0.0162626
762.346	0.0162041
762.424	0.0162423
762.503	0.0159793
762.581	0.0159332
762.659	0.0158340
762.737	0.0156478
762.815	0.0155437
762.893	0.0155818
762.971	0.0155202
763.049	0.0154556
763.128	0.0155022
763.206	0.0155380
763.284	0.0156317
763.362	0.0157318
763.440	0.0158274
763.518	0.0162020
763.596	0.0164926
763.674	0.0165207
763.753	0.0165661
763.831	0.0169932
763.909	0.0171403
763.987	0.0172147
764.065	0.0173297
764.143	0.0174257
764.221	0.0175858
764.299	0.0176525
764.378	0.0176777
764.456	0.0175782
764.534	0.0176266
764.612	0.0176617
764.690	0.0174767
764.768	0.0171785
764.846	0.0172723
764.924	0.0170416
765.003	0.0168462
765.081	0.0167464
765.159	0.0163785
765.237	0.0162603
765.315	0.0160992
765.393	0.0158658
765.471	0.0158642
765.549	0.0157980
765.628	0.0156985
765.706	0.0155319
765.784	0.0155448
765.862	0.0158487
765.940	0.0157677
766.018	0.0158430
766.096	0.0159191
766.174	0.0161086
766.253	0.0162248
766.331	0.0163091
766.409	0.0163438
766.487	0.0163996
766.565	0.0164416
766.643	0.0165601
766.721	0.0165134
766.799	0.0164828
766.878	0.0166405
766.956	0.0166438
767.034	0.0165230
767.112	0.0166293
767.190	0.0166947
767.268	0.0167491
767.346	0.0166924
767.424	0.0167499
767.503	0.0168319
767.581	0.0167767
767.659	0.0167554
767.737	0.0168417
767.815	0.0166550
767.893	0.0166646
767.971	0.0166321
768.049	0.0164940
768.128	0.0163871
768.206	0.0162983
768.284	0.0164137
768.362	0.0162630
768.440	0.0160632
768.518	0.0161348
768.596	0.0159243
768.674	0.0157494
768.753	0.0155968
768.831	0.0154145
768.909	0.0152751
768.987	0.0149647
769.065	0.0149281
769.143	0.0149268
769.221	0.0147243
769.299	0.0147510
769.378	0.0148033
769.456	0.0148588
769.534	0.0149297
769.612	0.0151997
769.690	0.0155854
769.768	0.0157423
769.846	0.0160365
769.924	0.0164302
770.003	0.0169854
770.081	0.0172758
770.159	0.0176509
770.237	0.0180006
770.315	0.0182701
770.393	0.0185133
770.471	0.0186342
770.549	0.0186893
770.628	0.0187526
770.706	0.0186192
770.784	0.0184083
770.862	0.0183434
770.940	0.0179158
771.018	0.0177523
771.096	0.0172204
771.174	0.0169788
771.253	0.0165742
771.331	0.0162886
771.409	0.0160074
771.487	0.0156596
771.565	0.0154860
771.643	0.0152523
771.721	0.0153323
771.799	0.0151944
771.878	0.0151938
771.956	0.0153268
772.034	0.0153824
772.112	0.0155238
772.190	0.0157529
772.268	0.0159734
772.346	0.0162150
772.424	0.0164071
772.503	0.0164866
772.581	0.0164208
772.659	0.0166814
772.737	0.0166658
772.815	0.0165173
772.893	0.0166021
772.971	0.0165897
773.049	0.0164965
773.128	0.0164867
773.206	0.0164687
773.284	0.0163852
773.362	0.0164545
773.440	0.0164217
773.518	0.0163882
773.596	0.0163165
773.674	0.0163792
773.753	0.0163416
773.831	0.0164406
773.909	0.0164243
773.987	0.0164716
774.065	0.0163874
774.143	0.0164219
774.221	0.0163010
774.299	0.0164874
774.378	0.0164223
774.456	0.0161586
774.534	0.0163054
774.612	0.0164796
774.690	0.0161489
774.768	0.0161906
774.846	0.0161488
774.924	0.0158405
775.003	0.0156979
775.081	0.0155623
775.159	0.0153505
775.237	0.0152177
775.315	0.0149522
775.393	0.0148940
775.471	0.0148958
775.549	0.0147134
775.628	0.0148193
775.706	0.0148190
775.784	0.0149143
775.862	0.0151188
775.940	0.0153914
776.018	0.0157391
776.096	0.0162365
776.174	0.0165271
776.253	0.0170782
776.331	0.0173812
776.409	0.0178342
776.487	0.0180927
776.565	0.0183162
776.643	0.0185654
776.721	0.0187408
776.799	0.0187300
776.878	0.0186862
776.956	0.0186024
777.034	0.0185352
777.112	0.0181995
777.190	0.0179205
777.268	0.0176080
777.346	0.0173010
777.424	0.0169392
777.503	0.0165880
777.581	0.0162466
777.659	0.0158647
777.737	0.0156841
777.815	0.0155149
777.893	0.0153011
777.971	0.0153177
778.049	0.0152304
778.128	0.0151930
778.206	0.0153658
778.284	0.0153395
778.362	0.0153691
778.440	0.0153571
778.518	0.0155161
778.596	0.0158169
778.674	0.0157964
778.753	0.0158821
778.831	0.0159642
778.909	0.0161227
778.987	0.0161105
779.065	0.0162012
779.143	0.0163197
779.221	0.0163080
779.299	0.0163200
779.378	0.0163740
779.456	0.0162581
779.534	0.0164164
779.612	0.0164541
779.690	0.0163424
779.768	0.0164013
779.846	0.0163314
779.924	0.0162637
780.003	0.0164143
780.081	0.0165426
780.159	0.0166406
780.237	0.0166273
780.315	0.0166998
780.393	0.0166821
780.471	0.0167118
780.549	0.0167907
780.628	0.0169394
780.706	0.0167440
780.784	0.0167348
780.862	0.0168671
780.940	0.0166889
781.018	0.0165521
781.096	0.0163654
781.174	0.0163757
781.253	0.0162072
781.331	0.0161417
781.409	0.0157312
781.487	0.0155564
781.565	0.0153773
781.643	0.0152349
781.721	0.0151047
781.799	0.0149504
781.878	0.0149429
781.956	0.0148712
782.034	0.0151618
782.112	0.0152213
782.190	0.0154532
782.268	0.0155531
782.346	0.0158951
782.424	0.0162903
782.503	0.0166009
782.581	0.0168631
782.659	0.0172080
782.737	0.0174319
782.815	0.0177438
782.893	0.0178868
782.971	0.0179717
783.049	0.0179481
783.128	0.0181200
783.206	0.0182203
783.284	0.0179340
783.362	0.0177757
783.440	0.0178088
783.518	0.0175370
783.596	0.0173251
783.674	0.0170345
783.753	0.0168073
783.831	0.0167320
783.909	0.0163518
783.987	0.0163741
784.065	0.0161108
784.143	0.0160052
784.221	0.0160231
784.299	0.0160065
784.378	0.0157948
784.456	0.0157790
784.534	0.0157150
784.612	0.0158347
784.690	0.0157632
784.768	0.0158302
784.846	0.0159420
784.924	0.0159103
785.003	0.0159631
785.081	0.0160941
785.159	0.0160962
785.237	0.0161856
785.315	0.0162150
785.393	0.0163195
785.471	0.0162349
785.549	0.0163131
785.628	0.0163192
785.706	0.0162450
785.784	0.0163059
785.862	0.0164329
785.940	0.0163010
786.018	0.0165253
786.096	0.0163258
786.174	0.0162741
786.253	0.0162851
786.331	0.0162894
786.409	0.0164648
786.487	0.0163638
786.565	0.0163601
786.643	0.0165415
786.721	0.0166213
786.799	0.0164187
786.878	0.0164054
786.956	0.0165276
787.034	0.0166437
787.112	0.0166382
787.190	0.0166353
787.268	0.0165303
787.346	0.0163744
787.424	0.0163399
787.503	0.0164027
787.581	0.0162302
787.659	0.0160437
787.737	0.0159260
787.815	0.0159544
787.893	0.0158604
787.971	0.0158446
788.049	0.0156526
788.128	0.0156846
788.206	0.0155934
788.284	0.0155861
788.362	0.0158302
788.440	0.0158439
788.518	0.0159010
788.596	0.0160834
788.674	0.0162696
788.753	0.0164378
788.831	0.0165508
788.909	0.0167356
788.987	0.0168369
789.065	0.0169510
789.143	0.0171101
789.221	0.0172244
789.299	0.0173152
789.378	0.0171559
789.456	0.0173450
789.534	0.0172607
789.612	0.0174158
789.690	0.0172226
789.768	0.0171292
789.846	0.0169945
789.924	0.0170659
790.003	0.0168938
790.081	0.0167924
790.159	0.0167371
790.237	0.0166004
790.315	0.0164761
790.393	0.0164021
790.471	0.0163550
790.549	0.0162097
790.628	0.0161417
790.706	0.0160381
790.784	0.0159734
790.862	0.0159077
790.940	0.0159207
791.018	0.0158721
791.096	0.0158783
791.174	0.0157239
791.253	0.0157836
791.331	0.0158950
791.409	0.0158652
791.487	0.0158595
791.565	0.0159660
791.643	0.0160065
791.721	0.0160480
791.799	0.0161076
791.878	0.0161757
791.956	0.0161916
792.034	0.0164247
792.112	0.0163045
792.190	0.0163814
792.268	0.0164832
792.346	0.0166170
792.424	0.0165290
792.503	0.0165208
792.581	0.0165804
792.659	0.0167651
792.737	0.0165635
792.815	0.0165016
792.893	0.0166850
792.971	0.0167270
793.049	0.0165647
793.128	0.0165425
793.206	0.0165569
793.284	0.0165998
793.362	0.0165287
793.440	0.0165833
793.518	0.0163651
793.596	0.0165924
793.674	0.0165424
793.753	0.0164005
793.831	0.0163540
793.909	0.0161829
793.987	0.0161246
794.065	0.0159358
794.143	0.0158001
794.221	0.0156429
794.299	0.0158811
794.378	0.0157292
794.456	0.0156918
794.534	0.0156757
794.612	0.0156688
794.690	0.0155696
794.768	0.0156774
794.846	0.0157876
794.924	0.0156950
795.003	0.0161052
795.081	0.0161480
795.159	0.0162969
795.237	0.0164510
795.315	0.0167798
795.393	0.0169469
795.471	0.0169224
795.549	0.0171555
795.628	0.0173154
795.706	0.0174171
795.784	0.0173140
795.862	0.0173374
795.940	0.0172759
796.018	0.0175233
796.096	0.0173015
796.174	0.0172543
796.253	0.0171149
796.331	0.0170026
796.409	0.0168898
796.487	0.0167741
796.565	0.0167929
796.643	0.0166511
796.721	0.0165199
796.799	0.0164513
796.878	0.0162671
796.956	0.0162729
797.034	0.0162331
797.112	0.0160614
797.190	0.0158303
797.268	0.0160065
797.346	0.0160223
797.424	0.0160423
797.503	0.0158566
797.581	0.0158669
797.659	0.0159000
797.737	0.0159106
797.815	0.0158765
797.893	0.0159235
797.971	0.0158228
798.049	0.0158799
798.128	0.0159502
798.206	0.0159515
798.284	0.0161131
798.362	0.0161678
798.440	0.0162483
798.518	0.0161816
798.596	0.0162804
798.674	0.0162509
798.753	0.0163176
798.831	0.0164901
798.909	0.0163552
798.987	0.0164455
799.065	0.0164256
799.143	0.0165472
799.221	0.0164381
799.299	0.0165130
799.378	0.0165432
799.456	0.0164748
799.534	0.0166149
799.612	0.0166745
799.690	0.0166087
799.768	0.0164936
799.846	0.0164907
799.924	0.0165949
800.003	0.0166439
800.081	0.0164645
800.159	0.0163383
800.237	0.0163527
800.315	0.0160872
800.393	0.0160320
800.471	0.0160720
800.549	0.0160217
800.628	0.0158186
800.706	0.0159777
800.784	0.0157053
800.862	0.0156835
800.940	0.0157115
801.018	0.0156540
801.096	0.0158196
801.174	0.0159039
801.253	0.0159760
801.331	0.0159631
801.409	0.0162398
801.487	0.0162913
801.565	0.0163931
801.643	0.0165304
801.721	0.0165604
801.799	0.0166884
801.878	0.0167598
801.956	0.0168482
802.034	0.0169072
802.112	0.0167650
802.190	0.0168570
802.268	0.0167930
802.346	0.0167537
802.424	0.0168521
802.503	0.0167999
802.581	0.0166575
802.659	0.0166035
802.737	0.0166517
802.815	0.0166016
802.893	0.0166605
802.971	0.0164950
803.049	0.0164823
803.128	0.0164191
803.206	0.0165270
803.284	0.0165798
803.362	0.0162610
803.440	0.0161896
803.518	0.0163123
803.596	0.0163123
803.674	0.0162393
803.753	0.0163471
803.831	0.0162659
803.909	0.0163242
803.987	0.0162822
804.065	0.0163558
804.143	0.0162881
804.221	0.0163062
804.299	0.0162846
804.378	0.0162389
804.456	0.0161093
804.534	0.0162524
804.612	0.0163441
804.690	0.0162428
804.768	0.0161225
804.846	0.0162009
804.924	0.0162587
805.003	0.0162105
805.081	0.0164021
805.159	0.0162090
805.237	0.0161286
805.315	0.0161350
805.393	0.0161604
805.471	0.0162799
805.549	0.0162598
805.628	0.0163074
805.706	0.0163081
805.784	0.0163666
805.862	0.0163283
805.940	0.0163198
806.018	0.0163424
806.096	0.0164402
806.174	0.0163785
806.253	0.0164012
806.331	0.0163214
806.409	0.0163832
806.487	0.0163045
806.565	0.0162326
806.643	0.0161845
806.721	0.0162495
806.799	0.0161398
806.878	0.0161078
806.956	0.0159403
807.034	0.0159787
807.112	0.0159348
807.190	0.0158591
807.268	0.0158673
807.346	0.0159035
807.424	0.0160046
807.503	0.0160490
807.581	0.0161518
807.659	0.0161298
807.737	0.0162910
807.815	0.0163258
807.893	0.0164684
807.971	0.0164913
808.049	0.0165584
808.128	0.0165752
808.206	0.0166676
808.284	0.0168080
808.362	0.0168962
808.440	0.0168775
808.518	0.0168934
808.596	0.0167246
808.674	0.0167035
808.753	0.0168513
808.831	0.0168784
808.909	0.0166973
808.987	0.0166132
809.065	0.0167331
809.143	0.0166584
809.221	0.0165785
809.299	0.0164021
809.378	0.0164320
809.456	0.0164101
809.534	0.0162936
809.612	0.0162029
809.690	0.0162771
809.768	0.0163676
809.846	0.0162710
809.924	0.0161932
810.003	0.0162624
810.081	0.0162033
810.159	0.0162371
810.237	0.0162288
810.315	0.0161487
810.393	0.0161905
810.471	0.0161632
810.549	0.0161490
810.628	0.0161966
810.706	0.0161694
810.784	0.0160551
810.862	0.0162959
810.940	0.0162872
811.018	0.0163221
811.096	0.0161746
811.174	0.0162066
811.253	0.0162368
811.331	0.0162820
811.409	0.0162393
811.487	0.0162662
811.565	0.0163395
811.643	0.0163847
811.721	0.0162185
811.799	0.0161821
811.878	0.0164111
811.956	0.0163420
812.034	0.0164472
812.112	0.0165897
812.190	0.0164191
812.268	0.0165003
812.346	0.0163432
812.424	0.0164759
812.503	0.0166001
812.581	0.0164553
812.659	0.0164314
812.737	0.0164516
812.815	0.0164230
812.893	0.0163608
812.971	0.0162717
813.049	0.0161600
813.128	0.0162861
813.206	0.0162765
813.284	0.0162637
813.362	0.0160788
813.440	0.0160972
813.518	0.0159497
813.596	0.0161190
813.674	0.0162231
813.753	0.0162164
813.831	0.0160158
813.909	0.0160407
813.987	0.0162434
814.065	0.0162101
814.143	0.0162045
814.221	0.0162926
814.299	0.0164420
814.378	0.0164322
814.456	0.0164694
814.534	0.0164563
814.612	0.0165759
814.690	0.0164722
814.768	0.0166665
814.846	0.0165915
814.924	0.0166993
815.003	0.0166369
815.081	0.0168031
815.159	0.0168981
815.237	0.0166284
815.315	0.0165012
815.393	0.0165491
815.471	0.0166522
815.549	0.0164129
815.628	0.0165222
815.706	0.0165340
815.784	0.0164013
815.862	0.0163000
815.940	0.0163463
816.018	0.0163113
816.096	0.0162300
816.174	0.0161792
816.253	0.0162382
816.331	0.0162359
816.409	0.0162443
816.487	0.0162786
816.565	0.0161960
816.643	0.0162788
816.721	0.0163231
816.799	0.0165052
816.878	0.0163013
816.956	0.0164249
817.034	0.0164735
817.112	0.0164371
817.190	0.0164464
817.268	0.0164442
817.346	0.0164530
817.424	0.0164990
817.503	0.0165396
817.581	0.0163108
817.659	0.0163094
817.737	0.0163203
817.815	0.0163063
817.893	0.0162708
817.971	0.0162402
818.049	0.0163057
818.128	0.0162325
818.206	0.0161387
818.284	0.0161421
818.362	0.0162198
818.440	0.0161082
818.518	0.0161897
818.596	0.0163477
818.674	0.0162392
818.753	0.0162789
818.831	0.0163190
818.909	0.0162048
818.987	0.0163363
819.065	0.0163684
819.143	0.0163383
819.221	0.0164756
819.299	0.0164116
819.378	0.0163601
819.456	0.0163876
819.534	0.0163248
819.612	0.0162181
819.690	0.0162297
819.768	0.0162982
819.846	0.0161521
819.924	0.0160898
820.003	0.0163036
820.081	0.0163879
820.159	0.0163531
820.237	0.0163588
820.315	0.0163438
820.393	0.0164384
820.471	0.0164903
820.549	0.0165620
820.628	0.0166614
820.706	0.0165709
820.784	0.0165289
820.862	0.0166650
820.940	0.0166936
821.018	0.0166003
821.096	0.0167226
821.174	0.0168419
821.253	0.0168311
821.331	0.0167590
821.409	0.0166947
821.487	0.0166851
821.565	0.0166574
821.643	0.0167560
821.721	0.0166309
821.799	0.0166527
821.878	0.0165408
821.956	0.0164355
822.034	0.0164911
822.112	0.0163736
822.190	0.0164665
822.268	0.0164085
822.346	0.0162366
822.424	0.0163245
822.503	0.0163952
822.581	0.0162924
822.659	0.0161491
822.737	0.0163915
822.815	0.0163545
822.893	0.0162817
822.971	0.0163799
823.049	0.0161684
823.128	0.0162293
823.206	0.0162325
823.284	0.0161995
823.362	0.0162144
823.440	0.0163459
823.518	0.0162510
823.596	0.0161208
823.674	0.0162325
823.753	0.0162579
823.831	0.0163312
823.909	0.0161659
823.987	0.0162162
824.065	0.0162612
824.143	0.0162564
824.221	0.0161658
824.299	0.0162881
824.378	0.0162636
824.456	0.0162494
824.534	0.0161582
824.612	0.0163014
824.690	0.0164237
824.768	0.0164440
824.846	0.0163589
824.924	0.0163980
825.003	0.0165257
825.081	0.0162925
825.159	0.0164305
825.237	0.0165094
825.315	0.0163495
825.393	0.0162886
825.471	0.0161952
825.549	0.0163618
825.628	0.0162460
825.706	0.0162415
825.784	0.0162882
825.862	0.0162492
825.940	0.0162122
826.018	0.0163577
826.096	0.0162710
826.174	0.0162765
826.253	0.0164300
826.331	0.0164970
826.409	0.0164055
826.487	0.0162325
826.565	0.0163162
826.643	0.0162328
826.721	0.0163737
826.799	0.0163456
826.878	0.0164978
826.956	0.0165325
827.034	0.0164165
827.112	0.0164854
827.190	0.0164588
827.268	0.0165217
827.346	0.0166054
827.424	0.0164803
827.503	0.0166993
827.581	0.0164862
827.659	0.0164962
827.737	0.0166007
827.815	0.0166559
827.893	0.0166055
827.971	0.0165382
828.049	0.0164605
828.128	0.0163725
828.206	0.0164035
828.284	0.0165412
828.362	0.0164790
828.440	0.0162268
828.518	0.0163119
828.596	0.0162482
828.674	0.0161897
828.753	0.0162079
828.831	0.0163143
828.909	0.0161442
828.987	0.0162624
829.065	0.0162594
829.143	0.0162775
829.221	0.0160318
829.299	0.0162503
829.378	0.0162359
829.456	0.0161677
829.534	0.0162037
829.612	0.0162067
829.690	0.0161457
829.768	0.0162104
829.846	0.0162002
829.924	0.0160937
830.003	0.0160445
830.081	0.0162262
830.159	0.0161685
830.237	0.0160072
830.315	0.0161588
830.393	0.0162431
830.471	0.0162954
830.549	0.0162889
830.628	0.0163428
830.706	0.0163689
830.784	0.0163338
830.862	0.0164384
830.940	0.0165045
831.018	0.0164925
831.096	0.0165615
831.174	0.0164766
831.253	0.0164851
831.331	0.0165894
831.409	0.0165603
831.487	0.0165986
831.565	0.0165333
831.643	0.0166578
831.721	0.0165456
831.799	0.0165261
831.878	0.0166426
831.956	0.0164922
832.034	0.0164946
832.112	0.0165004
832.190	0.0164518
832.268	0.0165321
832.346	0.0164246
832.424	0.0162856
832.503	0.0163378
832.581	0.0163277
832.659	0.0162197
832.737	0.0160729
832.815	0.0160971
832.893	0.0161700
832.971	0.0160770
833.049	0.0160374
833.128	0.0161891
833.206	0.0162449
833.284	0.0160793
833.362	0.0162125
833.440	0.0160561
833.518	0.0161124
833.596	0.0162642
833.674	0.0163238
833.753	0.0162859
833.831	0.0162218
833.909	0.0163547
833.987	0.0163487
834.065	0.0162357
834.143	0.0163424
834.221	0.0164086
834.299	0.0165141
834.378	0.0162610
834.456	0.0163074
834.534	0.0163867
834.612	0.0164200
834.690	0.0165131
834.768	0.0163438
834.846	0.0163894
834.924	0.0164036
835.003	0.0163817
835.081	0.0164268
835.159	0.0164348
835.237	0.0164114
835.315	0.0164203
835.393	0.0164021
835.471	0.0165070
835.549	0.0165371
835.628	0.0164644
835.706	0.0165340
835.784	0.0165648
835.862	0.0164134
835.940	0.0165465
836.018	0.0165439
836.096	0.0164668
836.174	0.0164397
836.253	0.0164169
836.331	0.0164990
836.409	0.0162860
836.487	0.0163821
836.565	0.0162426
836.643	0.0163101
836.721	0.0164674
836.799	0.0163219
836.878	0.0163445
836.956	0.0162852
837.034	0.0161752
837.112	0.0161012
837.190	0.0161561
837.268	0.0162064
837.346	0.0162088
837.424	0.0162498
837.503	0.0160930
837.581	0.0160677
837.659	0.0162217
837.737	0.0164071
837.815	0.0162789
837.893	0.0162630
837.971	0.0164365
838.049	0.0163587
838.128	0.0163837
838.206	0.0163625
838.284	0.0163562
838.362	0.0164096
838.440	0.0166782
838.518	0.0165929
838.596	0.0165701
838.674	0.0165282
838.753	0.0165286
838.831	0.0164011
838.909	0.0164329
838.987	0.0164836
839.065	0.0164948
839.143	0.0162605
839.221	0.0163187
839.299	0.0163725
839.378	0.0162566
839.456	0.0162305
839.534	0.0162923
839.612	0.0163286
839.690	0.0162135
839.768	0.0162965
839.846	0.0163451
839.924	0.0161940
840.003	0.0164415
840.081	0.0163873
840.159	0.0164685
840.237	0.0165112
840.315	0.0163392
840.393	0.0165195
840.471	0.0165127
840.549	0.0164485
840.628	0.0164272
840.706	0.0163928
840.784	0.0164753
840.862	0.0165189
840.940	0.0164764
841.018	0.0163815
841.096	0.0163092
841.174	0.0162534
841.253	0.0163435
841.331	0.0162791
841.409	0.0162093
841.487	0.0163280
841.565	0.0162425
841.643	0.0162743
841.721	0.0162426
841.799	0.0161897
841.878	0.0160812
841.956	0.0163139
842.034	0.0161584
842.112	0.0162022
842.190	0.0161263
842.268	0.0161683
842.346	0.0161919
842.424	0.0161402
842.503	0.0162719
842.581	0.0163071
842.659	0.0163474
842.737	0.0162769
842.815	0.0162868
842.893	0.0164608
842.971	0.0163658
843.049	0.0163766
843.128	0.0164766
843.206	0.0164618
843.284	0.0164331
843.362	0.0164083
843.440	0.0164716
843.518	0.0164567
843.596	0.0164773
843.674	0.0164095
843.753	0.0164892
843.831	0.0165617
843.909	0.0164503
843.987	0.0164995
844.065	0.0164942
844.143	0.0165863
844.221	0.0166103
844.299	0.0165368
844.378	0.0164890
844.456	0.0165253
844.534	0.0165055
844.612	0.0167818
844.690	0.0166503
844.768	0.0165999
844.846	0.0165950
844.924	0.0166262
845.003	0.0164428
845.081	0.0164764
845.159	0.0163972
845.237	0.0165227
845.315	0.0165163
845.393	0.0163055
845.471	0.0162888
845.549	0.0161840
845.628	0.0162489
845.706	0.0160700
845.784	0.0161887
845.862	0.0162376
845.940	0.0162582
846.018	0.0160581
846.096	0.0158807
846.174	0.0159733
846.253	0.0160922
846.331	0.0160575
846.409	0.0160252
846.487	0.0160535
846.565	0.0160634
846.643	0.0160629
846.721	0.0161429
846.799	0.0159817
846.878	0.0160846
846.956	0.0163418
847.034	0.0163750
847.112	0.0162418
847.190	0.0163311
847.268	0.0162653
847.346	0.0163842
847.424	0.0164595
847.503	0.0163033
847.581	0.0165768
847.659	0.0163674
847.737	0.0162730
847.815	0.0163715
847.893	0.0164444
847.971	0.0164323
848.049	0.0165901
848.128	0.0163737
848.206	0.0163575
848.284	0.0164445
848.362	0.0164879
848.440	0.0165410
848.518	0.0165041
848.596	0.0165953
848.674	0.0165791
848.753	0.0165150
848.831	0.0166422
848.909	0.0167464
848.987	0.0167469
849.065	0.0166005
849.143	0.0165500
849.221	0.0167853
849.299	0.0166499
849.378	0.0165759
849.456	0.0166398
849.534	0.0167663
849.612	0.0166292
849.690	0.0166039
849.768	0.0166178
849.846	0.0165293
849.924	0.0166856
850.003	0.0164943
850.081	0.0162495
850.159	0.0164413
850.237	0.0164417
850.315	0.0163263
850.393	0.0162514
850.471	0.0162673
850.549	0.0162811
850.628	0.0161755
850.706	0.0162619
850.784	0.0162698
850.862	0.0161829
850.940	0.0161590
851.018	0.0161862
851.096	0.0162575
851.174	0.0162710
851.253	0.0160869
851.331	0.0161367
851.409	0.0163552
851.487	0.0160998
851.565	0.0161139
851.643	0.0162012
851.721	0.0162422
851.799	0.0160528
851.878	0.0160218
851.956	0.0161008
852.034	0.0161079
852.112	0.0161671
852.190	0.0161395
852.268	0.0161403
852.346	0.0160852
852.424	0.0160682
852.503	0.0159991
852.581	0.0160904
852.659	0.0160577
852.737	0.0161871
852.815	0.0160320
852.893	0.0161204
852.971	0.0163197
853.049	0.0162030
853.128	0.0161856
853.206	0.0162687
853.284	0.0163496
853.362	0.0163914
853.440	0.0164012
853.518	0.0165098
853.596	0.0165058
853.674	0.0165997
853.753	0.0165542
853.831	0.0166962
853.909	0.0166068
853.987	0.0167160
854.065	0.0167004
854.143	0.0167215
854.221	0.0167318
854.299	0.0167148
854.378	0.0166902
854.456	0.0166802
854.534	0.0166404
854.612	0.0167449
854.690	0.0166504
854.768	0.0165155
854.846	0.0164056
854.924	0.0166238
855.003	0.0164380
855.081	0.0165897
855.159	0.0164828
855.237	0.0163750
855.315	0.0163933
855.393	0.0163670
855.471	0.0164004
855.549	0.0164503
855.628	0.0165761
855.706	0.0165475
855.784	0.0164504
855.862	0.0165127
855.940	0.0165054
856.018	0.0163930
856.096	0.0164451
856.174	0.0162894
856.253	0.0163258
856.331	0.0164231
856.409	0.0163277
856.487	0.0162975
856.565	0.0161095
856.643	0.0161702
856.721	0.0161404
856.799	0.0160391
856.878	0.0160284
856.956	0.0160982
857.034	0.0160762
857.112	0.0160034
857.190	0.0161191
857.268	0.0161778
857.346	0.0162063
857.424	0.0163146
857.503	0.0161852
857.581	0.0162363
857.659	0.0163232
857.737	0.0163524
857.815	0.0164238
857.893	0.0163864
857.971	0.0163815
858.049	0.0164314
858.128	0.0166107
858.206	0.0166454
858.284	0.0165382
858.362	0.0165527
858.440	0.0162379
858.518	0.0164211
858.596	0.0163714
858.674	0.0164261
858.753	0.0163377
858.831	0.0163212
858.909	0.0162260
858.987	0.0162176
859.065	0.0162486
859.143	0.0163263
859.221	0.0162329
859.299	0.0163490
859.378	0.0163136
859.456	0.0164171
859.534	0.0163917
859.612	0.0162497
859.690	0.0164431
859.768	0.0163947
859.846	0.0163473
859.924	0.0166910
860.003	0.0164938
860.081	0.0165005
860.159	0.0165617
860.237	0.0165536
860.315	0.0166349
860.393	0.0165622
860.471	0.0165423
860.549	0.0165996
860.628	0.0166363
860.706	0.0165282
860.784	0.0164928
860.862	0.0164412
860.940	0.0165747
861.018	0.0165808
861.096	0.0166060
861.174	0.0165176
861.253	0.0163599
861.331	0.0165775
861.409	0.0165456
861.487	0.0164777
861.565	0.0162965
861.643	0.0163411
861.721	0.0164079
861.799	0.0164094
861.878	0.0164985
861.956	0.0164503
862.034	0.0163709
862.112	0.0164289
862.190	0.0164034
862.268	0.0163247
862.346	0.0164126
862.424	0.0164075
862.503	0.0163917
862.581	0.0163165
862.659	0.0163185
862.737	0.0164555
862.815	0.0163076
862.893	0.0162446
862.971	0.0163991
863.049	0.0164034
863.128	0.0161491
863.206	0.0162638
863.284	0.0162967
863.362	0.0164090
863.440	0.0162789
863.518	0.0162289
863.596	0.0162047
863.674	0.0161800
863.753	0.0163345
863.831	0.0162916
863.909	0.0162363
863.987	0.0162432
864.065	0.0163032
864.143	0.0163435
864.221	0.0163641
864.299	0.0162916
864.378	0.0163817
864.456	0.0164125
864.534	0.0162840
864.612	0.0164065
864.690	0.0164034
864.768	0.0163782
864.846	0.0163412
864.924	0.0164541
865.003	0.0163924
865.081	0.0164013
865.159	0.0162743
865.237	0.0162557
865.315	0.0162141
865.393	0.0162767
865.471	0.0163189
865.549	0.0163637
865.628	0.0162225
865.706	0.0162773
865.784	0.0162903
865.862	0.0163693
865.940	0.0163520
866.018	0.0163802
866.096	0.0162799
866.174	0.0164305
866.253	0.0164305
866.331	0.0164310
866.409	0.0164423
866.487	0.0165430
866.565	0.0165693
866.643	0.0164835
866.721	0.0165896
866.799	0.0166393
866.878	0.0166016
866.956	0.0166385
867.034	0.0165729
867.112	0.0166174
867.190	0.0166085
867.268	0.0166074
867.346	0.0165680
867.424	0.0164989
867.503	0.0165430
867.581	0.0165348
867.659	0.0164629
867.737	0.0163698
867.815	0.0165612
867.893	0.0164227
867.971	0.0161877
868.049	0.0163864
868.128	0.0162951
868.206	0.0163485
868.284	0.0163797
868.362	0.0162948
868.440	0.0163548
868.518	0.0162174
868.596	0.0162654
868.674	0.0161864
868.753	0.0162497
868.831	0.0163237
868.909	0.0162342
868.987	0.0162707
869.065	0.0162283
869.143	0.0162305
869.221	0.0161368
869.299	0.0161357
869.378	0.0162089
869.456	0.0162356
869.534	0.0161815
869.612	0.0162592
869.690	0.0163279
869.768	0.0161417
869.846	0.0161671
869.924	0.0160899
870.003	0.0161971
870.081	0.0162657
870.159	0.0161448
870.237	0.0162817
870.315	0.0162894
870.393	0.0162295
870.471	0.0162785
870.549	0.0162140
870.628	0.0162429
870.706	0.0163787
870.784	0.0162943
870.862	0.0161964
870.940	0.0162526
871.018	0.0163831
871.096	0.0162419
871.174	0.0162933
871.253	0.0163890
871.331	0.0163815
871.409	0.0163287
871.487	0.0161435
871.565	0.0163551
871.643	0.0163796
871.721	0.0164445
871.799	0.0163557
871.878	0.0164063
871.956	0.0163184
872.034	0.0163535
872.112	0.0163203
872.190	0.0163869
872.268	0.0162916
872.346	0.0162770
872.424	0.0163498
872.503	0.0163821
872.581	0.0163669
872.659	0.0163754
872.737	0.0163613
872.815	0.0163640
872.893	0.0162723
872.971	0.0163956
873.049	0.0164932
873.128	0.0165850
873.206	0.0165184
873.284	0.0165884
873.362	0.0166078
873.440	0.0165799
873.518	0.0165516
873.596	0.0165125
873.674	0.0167494
873.753	0.0165318
873.831	0.0163515
873.909	0.0164513
873.987	0.0164079
874.065	0.0163470
874.143	0.0165054
874.221	0.0163066
874.299	0.0162785
874.378	0.0162824
874.456	0.0163278
874.534	0.0162124
874.612	0.0161318
874.690	0.0161904
874.768	0.0160876
874.846	0.0161165
874.924	0.0161445
875.003	0.0160925
875.081	0.0161584
875.159	0.0162125
875.237	0.0161452
875.315	0.0161646
875.393	0.0161380
875.471	0.0162354
875.549	0.0162633
875.628	0.0161833
875.706	0.0162866
875.784	0.0161818
875.862	0.0162579
875.940	0.0162041
876.018	0.0161771
876.096	0.0162502
876.174	0.0164294
876.253	0.0162264
876.331	0.0163050
876.409	0.0162553
876.487	0.0163078
876.565	0.0163985
876.643	0.0163520
876.721	0.0163059
876.799	0.0163469
876.878	0.0164162
876.956	0.0164344
877.034	0.0163418
877.112	0.0163693
877.190	0.0163960
877.268	0.0163794
877.346	0.0164417
877.424	0.0164598
877.503	0.0163481
877.581	0.0164442
877.659	0.0164417
877.737	0.0163301
877.815	0.0164066
877.893	0.0164094
877.971	0.0164218
878.049	0.0163445
878.128	0.0163670
878.206	0.0163661
878.284	0.0164526
878.362	0.0163866
878.440	0.0163591
878.518	0.0164127
878.596	0.0164613
878.674	0.0164177
878.753	0.0164536
878.831	0.0164404
878.909	0.0164458
878.987	0.0165604
879.065	0.0164810
879.143	0.0165543
879.221	0.0165847
879.299	0.0164889
879.378	0.0165340
879.456	0.0164669
879.534	0.0165388
879.612	0.0165044
879.690	0.0164489
879.768	0.0165402
879.846	0.0165146
879.924	0.0164940
880.003	0.0165108
880.081	0.0164894
880.159	0.0165441
880.237	0.0165411
880.315	0.0164748
880.393	0.0162268
880.471	0.0165816
880.549	0.0165456
880.628	0.0164173
880.706	0.0163597
880.784	0.0163316
880.862	0.0163522
880.940	0.0162651
881.018	0.0162591
881.096	0.0164301
881.174	0.0161964
881.253	0.0161587
881.331	0.0162033
881.409	0.0160411
881.487	0.0161469
881.565	0.0161093
881.643	0.0161077
881.721	0.0161956
881.799	0.0163242
881.878	0.0162933
881.956	0.0163243
882.034	0.0163276
882.112	0.0162530
882.190	0.0160672
882.268	0.0163593
882.346	0.0163501
882.424	0.0163245
882.503	0.0162798
882.581	0.0163793
882.659	0.0164105
882.737	0.0163037
882.815	0.0162370
882.893	0.0163322
882.971	0.0163428
883.049	0.0162459
883.128	0.0162943
883.206	0.0162019
883.284	0.0162712
883.362	0.0163015
883.440	0.0162327
883.518	0.0163017
883.596	0.0164145
883.674	0.0163788
883.753	0.0163361
883.831	0.0162945
883.909	0.0164111
883.987	0.0163848
884.065	0.0164785
884.143	0.0164172
884.221	0.0163753
884.299	0.0164483
884.378	0.0163238
884.456	0.0164254
884.534	0.0165795
884.612	0.0165596
884.690	0.0162465
884.768	0.0164772
884.846	0.0163612
884.924	0.0163556
885.003	0.0164027
885.081	0.0164554
885.159	0.0164919
885.237	0.0164058
885.315	0.0163954
885.393	0.0165972
885.471	0.0164474
885.549	0.0164570
885.628	0.0165031
885.706	0.0164046
885.784	0.0165745
885.862	0.0165731
885.940	0.0165297
886.018	0.0165277
886.096	0.0165991
886.174	0.0163450
886.253	0.0165170
886.331	0.0165993
886.409	0.0164647
886.487	0.0163644
886.565	0.0163848
886.643	0.0164024
886.721	0.0162650
886.799	0.0162900
886.878	0.0164213
886.956	0.0163809
887.034	0.0161343
887.112	0.0162762
887.190	0.0162472
887.268	0.0161490
887.346	0.0161839
887.424	0.0161459
887.503	0.0160904
887.581	0.0161030
887.659	0.0160990
887.737	0.0161639
887.815	0.0160145
887.893	0.0162069
887.971	0.0161459
888.049	0.0161588
888.128	0.0162041
888.206	0.0162975
888.284	0.0162909
888.362	0.0161401
888.440	0.0163184
888.518	0.0163157
888.596	0.0163631
888.674	0.0163341
888.753	0.0164555
888.831	0.0163866
888.909	0.0162615
888.987	0.0162568
889.065	0.0164125
889.143	0.0163062
889.221	0.0164655
889.299	0.0163973
889.378	0.0162160
889.456	0.0164105
889.534	0.0163316
889.612	0.0162994
889.690	0.0162468
889.768	0.0163976
889.846	0.0162561
889.924	0.0163815
890.003	0.0163663
890.081	0.0163312
890.159	0.0162868
890.237	0.0163676
890.315	0.0163993
890.393	0.0163494
890.471	0.0163168
890.549	0.0162356
890.628	0.0163244
890.706	0.0164355
890.784	0.0163333
890.862	0.0163207
890.940	0.0163673
891.018	0.0163806
891.096	0.0164947
891.174	0.0164735
891.253	0.0164811
891.331	0.0164452
891.409	0.0164915
891.487	0.0164316
891.565	0.0166344
891.643	0.0165770
891.721	0.0163499
891.799	0.0165889
891.878	0.0164918
891.956	0.0163435
892.034	0.0162846
892.112	0.0163799
892.190	0.0164172
892.268	0.0163953
892.346	0.0163046
892.424	0.0162120
892.503	0.0163102
892.581	0.0164922
892.659	0.0163393
892.737	0.0162657
892.815	0.0164159
892.893	0.0165328
892.971	0.0162919
893.049	0.0163542
893.128	0.0162909
893.206	0.0164861
893.284	0.0163779
893.362	0.0162488
893.440	0.0163322
893.518	0.0162791
893.596	0.0162834
893.674	0.0164023
893.753	0.0162572
893.831	0.0162685
893.909	0.0162141
893.987	0.0163740
894.065	0.0162636
894.143	0.0161538
894.221	0.0163242
894.299	0.0163358
894.378	0.0163322
894.456	0.0163181
894.534	0.0163666
894.612	0.0163538
894.690	0.0164655
894.768	0.0164902
894.846	0.0163424
894.924	0.0163469
895.003	0.0164460
895.081	0.0164865
895.159	0.0165045
895.237	0.0164581
895.315	0.0164787
895.393	0.0165366
895.471	0.0163871
895.549	0.0164444
895.628	0.0165497
895.706	0.0164638
895.784	0.0163861
895.862	0.0164932
895.940	0.0165557
896.018	0.0164417
896.096	0.0163891
896.174	0.0164182
896.253	0.0163622
896.331	0.0163051
896.409	0.0163510
896.487	0.0162927
896.565	0.0163318
896.643	0.0161939
896.721	0.0162467
896.799	0.0163538
896.878	0.0162835
896.956	0.0163310
897.034	0.0162347
897.112	0.0163874
897.190	0.0165393
897.268	0.0165186
897.346	0.0163555
897.424	0.0162167
897.503	0.0163356
897.581	0.0163454
897.659	0.0162543
897.737	0.0164565
897.815	0.0163993
897.893	0.0163979
897.971	0.0163786
898.049	0.0164491
898.128	0.0164583
898.206	0.0166061
898.284	0.0164729
898.362	0.0163713
898.440	0.0164322
898.518	0.0164709
898.596	0.0163243
898.674	0.0163096
898.753	0.0164651
898.831	0.0163749
898.909	0.0162438
898.987	0.0163235
899.065	0.0163615
899.143	0.0163588
899.221	0.0164554
899.299	0.0163655
899.378	0.0163342
899.456	0.0163958
899.534	0.0163852
899.612	0.0163823
899.690	0.0163071
899.768	0.0163833
899.846	0.0164391
899.924	0.0163019
900.003	0.0162429
900.081	0.0163165
900.159	0.0163171
900.237	0.0161639
900.315	0.0162087
900.393	0.0162495
900.471	0.0162483
900.549	0.0162901
900.628	0.0162463
900.706	0.0162660
900.784	0.0162463
900.862	0.0162418
900.940	0.0163463
901.018	0.0162541
901.096	0.0161680
901.174	0.0162977
901.253	0.0163309
901.331	0.0163084
901.409	0.0163052
901.487	0.0163591
901.565	0.0163335
901.643	0.0162823
901.721	0.0162683
901.799	0.0163727
901.878	0.0163136
901.956	0.0163586
902.034	0.0164671
902.112	0.0165110
902.190	0.0165047
902.268	0.0163855
902.346	0.0164513
902.424	0.0165333
902.503	0.0163751
902.581	0.0163928
902.659	0.0163721
902.737	0.0163232
902.815	0.0163051
902.893	0.0164822
902.971	0.0163255
903.049	0.0163207
903.128	0.0164360
903.206	0.0162940
903.284	0.0162453
903.362	0.0163354
903.440	0.0162817
903.518	0.0162920
903.596	0.0162790
903.674	0.0162164
903.753	0.0162914
903.831	0.0163612
903.909	0.0163804
903.987	0.0163434
904.065	0.0163752
904.143	0.0164774
904.221	0.0164160
904.299	0.0163532
904.378	0.0162876
904.456	0.0164307
904.534	0.0163461
904.612	0.0161613
904.690	0.0162237
904.768	0.0164304
904.846	0.0163399
904.924	0.0163398
905.003	0.0162720
905.081	0.0162441
905.159	0.0162223
905.237	0.0162457
905.315	0.0162831
905.393	0.0163234
905.471	0.0162338
905.549	0.0162566
905.628	0.0162908
905.706	0.0164516
905.784	0.0162071
905.862	0.0164193
905.940	0.0161808
906.018	0.0164421
906.096	0.0163921
906.174	0.0164182
906.253	0.0163424
906.331	0.0163167
906.409	0.0164275
906.487	0.0162824
906.565	0.0163548
906.643	0.0162614
906.721	0.0162737
906.799	0.0163658
906.878	0.0163315
906.956	0.0163850
907.034	0.0164337
907.112	0.0163770
907.190	0.0162772
907.268	0.0164094
907.346	0.0165036
907.424	0.0163634
907.503	0.0163660
907.581	0.0164167
907.659	0.0163516
907.737	0.0162815
907.815	0.0164377
907.893	0.0163783
907.971	0.0163713
908.049	0.0164120
908.128	0.0164009
908.206	0.0163850
908.284	0.0164141
908.362	0.0165347
908.440	0.0164229
908.518	0.0165253
908.596	0.0166174
908.674	0.0165579
908.753	0.0163924
908.831	0.0164543
908.909	0.0164475
908.987	0.0164201
909.065	0.0164434
909.143	0.0162810
909.221	0.0163469
909.299	0.0163315
909.378	0.0163369
909.456	0.0164320
909.534	0.0163775
909.612	0.0163059
909.690	0.0162840
909.768	0.0164576
909.846	0.0163531
909.924	0.0162489
910.003	0.0163184
910.081	0.0163841
910.159	0.0163479
910.237	0.0161776
910.315	0.0162174
910.393	0.0162780
910.471	0.0162814
910.549	0.0162370
910.628	0.0161991
910.706	0.0164417
910.784	0.0163242
910.862	0.0162288
910.940	0.0162946
911.018	0.0163458
911.096	0.0162629
911.174	0.0162541
911.253	0.0162613
911.331	0.0163404
911.409	0.0164025
911.487	0.0162981
911.565	0.0163116
911.643	0.0163143
911.721	0.0162721
911.799	0.0164089
911.878	0.0164366
911.956	0.0164129
912.034	0.0164357
912.112	0.0165060
912.190	0.0162956
912.268	0.0163639
912.346	0.0162689
912.424	0.0164828
912.503	0.0163876
912.581	0.0162800
912.659	0.0163861
912.737	0.0163104
912.815	0.0164193
912.893	0.0163192
912.971	0.0163223
913.049	0.0163809
913.128	0.0164407
913.206	0.0163544
913.284	0.0163639
913.362	0.0163368
913.440	0.0163395
913.518	0.0163373
913.596	0.0164004
913.674	0.0164420
913.753	0.0163803
913.831	0.0163293
913.909	0.0162904
913.987	0.0163552
914.065	0.0163396
914.143	0.0164122
914.221	0.0165202
914.299	0.0164681
914.378	0.0165092
914.456	0.0165120
914.534	0.0164864
914.612	0.0166093
914.690	0.0165585
914.768	0.0165191
914.846	0.0164739
914.924	0.0165886
915.003	0.0165615
915.081	0.0163724
915.159	0.0164674
915.237	0.0164008
915.315	0.0163097
915.393	0.0162342
915.471	0.0163792
915.549	0.0162305
915.628	0.0162170
915.706	0.0163194
915.784	0.0162091
915.862	0.0161623
915.940	0.0163169
916.018	0.0162021
916.096	0.0162723
916.174	0.0162904
916.253	0.0162656
916.331	0.0161707
916.409	0.0160844
916.487	0.0162914
916.565	0.0162444
916.643	0.0163038
916.721	0.0162139
916.799	0.0161610
916.878	0.0163559
916.956	0.0162641
917.034	0.0163525
917.112	0.0163577
917.190	0.0162364
917.268	0.0162034
917.346	0.0161951
917.424	0.0163464
917.503	0.0163654
917.581	0.0163074
917.659	0.0163910
917.737	0.0163661
917.815	0.0162423
917.893	0.0163432
917.971	0.0164082
918.049	0.0164333
918.128	0.0163015
918.206	0.0162680
918.284	0.0164592
918.362	0.0162973
918.440	0.0163041
918.518	0.0163646
918.596	0.0164397
918.674	0.0163537
918.753	0.0164886
918.831	0.0164081
918.909	0.0164394
918.987	0.0164758
919.065	0.0163288
919.143	0.0163763
919.221	0.0163641
919.299	0.0164257
919.378	0.0164648
919.456	0.0163801
919.534	0.0163521
919.612	0.0163416
919.690	0.0164184
919.768	0.0163319
919.846	0.0163982
919.924	0.0163682
920.003	0.0162969
920.081	0.0164577
920.159	0.0163446
920.237	0.0163165
920.315	0.0163599
920.393	0.0162916
920.471	0.0163943
920.549	0.0163169
920.628	0.0163725
920.706	0.0165211
920.784	0.0163625
920.862	0.0163085
920.940	0.0162733
921.018	0.0164485
921.096	0.0164175
921.174	0.0163882
921.253	0.0164203
921.331	0.0163538
921.409	0.0163557
921.487	0.0162820
921.565	0.0163449
921.643	0.0164405
921.721	0.0164484
921.799	0.0163509
921.878	0.0163873
921.956	0.0163103
922.034	0.0162410
922.112	0.0163578
922.190	0.0163068
922.268	0.0163098
922.346	0.0162589
922.424	0.0162745
922.503	0.0162560
922.581	0.0163394
922.659	0.0162859
922.737	0.0163068
922.815	0.0162392
922.893	0.0161879
922.971	0.0163416
923.049	0.0162880
923.128	0.0163785
923.206	0.0162296
923.284	0.0162165
923.362	0.0162038
923.440	0.0162701
923.518	0.0162724
923.596	0.0162319
923.674	0.0162720
923.753	0.0164394
923.831	0.0163464
923.909	0.0162862
923.987	0.0163707
924.065	0.0163845
924.143	0.0163350
924.221	0.0164185
924.299	0.0163328
924.378	0.0164845
924.456	0.0163704
924.534	0.0162726
924.612	0.0163803
924.690	0.0163749
924.768	0.0163976
924.846	0.0163245
924.924	0.0163966
925.003	0.0164370
925.081	0.0163887
925.159	0.0162815
925.237	0.0162525
925.315	0.0162824
925.393	0.0163019
925.471	0.0164538
925.549	0.0164627
925.628	0.0164884
925.706	0.0163510
925.784	0.0164446
925.862	0.0163112
925.940	0.0163071
926.018	0.0164490
926.096	0.0165484
926.174	0.0163824
926.253	0.0164360
926.331	0.0163266
926.409	0.0164631
926.487	0.0165273
926.565	0.0165227
926.643	0.0163571
926.721	0.0164301
926.799	0.0163820
926.878	0.0164187
926.956	0.0163585
927.034	0.0163944
927.112	0.0163572
927.190	0.0164001
927.268	0.0163855
927.346	0.0164227
927.424	0.0162080
927.503	0.0162929
927.581	0.0164482
927.659	0.0164117
927.737	0.0162659
927.815	0.0162562
927.893	0.0164816
927.971	0.0162713
928.049	0.0163242
928.128	0.0163668
928.206	0.0162289
928.284	0.0162423
928.362	0.0163134
928.440	0.0163653
928.518	0.0162643
928.596	0.0163203
928.674	0.0163294
928.753	0.0164489
928.831	0.0163565
928.909	0.0163453
928.987	0.0165220
929.065	0.0163937
929.143	0.0162950
929.221	0.0163272
929.299	0.0163113
929.378	0.0164537
929.456	0.0164059
929.534	0.0163885
929.612	0.0162959
929.690	0.0164285
929.768	0.0163976
929.846	0.0164938
929.924	0.0163451
930.003	0.0163111
930.081	0.0163179
930.159	0.0163438
930.237	0.0163205
930.315	0.0163501
930.393	0.0163614
930.471	0.0163921
930.549	0.0161759
930.628	0.0163938
930.706	0.0162650
930.784	0.0162469
930.862	0.0162248
930.940	0.0162815
931.018	0.0162968
931.096	0.0163158
931.174	0.0164302
931.253	0.0163649
931.331	0.0165326
931.409	0.0164889
931.487	0.0164863
931.565	0.0164523
931.643	0.0164755
931.721	0.0165344
931.799	0.0163701
931.878	0.0164587
931.956	0.0164102
932.034	0.0163975
932.112	0.0163799
932.190	0.0165105
932.268	0.0163244
932.346	0.0162704
932.424	0.0163158
932.503	0.0163224
932.581	0.0164280
932.659	0.0163934
932.737	0.0164183
932.815	0.0163737
932.893	0.0161847
932.971	0.0162719
933.049	0.0162812
933.128	0.0162135
933.206	0.0162766
933.284	0.0162908
933.362	0.0162566
933.440	0.0163132
933.518	0.0163474
933.596	0.0163144
933.674	0.0164437
933.753	0.0165067
933.831	0.0163770
933.909	0.0164546
933.987	0.0164242
934.065	0.0164718
934.143	0.0163276
934.221	0.0164482
934.299	0.0164260
934.378	0.0164893
934.456	0.0163438
934.534	0.0163013
934.612	0.0164427
934.690	0.0162338
934.768	0.0163515
934.846	0.0163316
934.924	0.0162782
935.003	0.0162182
935.081	0.0163965
935.159	0.0162806
935.237	0.0163125
935.315	0.0162466
935.393	0.0163374
935.471	0.0163190
935.549	0.0163134
935.628	0.0163528
935.706	0.0163446
935.784	0.0161784
935.862	0.0163895
935.940	0.0163802
936.018	0.0163699
936.096	0.0163890
936.174	0.0162311
936.253	0.0163178
936.331	0.0163599
936.409	0.0162781
936.487	0.0163998
936.565	0.0164156
936.643	0.0162813
936.721	0.0162634
936.799	0.0162610
936.878	0.0164102
936.956	0.0164005
937.034	0.0163038
937.112	0.0163654
937.190	0.0163623
937.268	0.0163935
937.346	0.0162802
937.424	0.0161246
937.503	0.0162420
937.581	0.0163625
937.659	0.0163956
937.737	0.0162766
937.815	0.0164108
937.893	0.0163988
937.971	0.0163180
938.049	0.0163808
938.128	0.0163546
938.206	0.0163535
938.284	0.0164021
938.362	0.0163663
938.440	0.0163820
938.518	0.0163689
938.596	0.0163277
938.674	0.0163148
938.753	0.0164259
938.831	0.0163650
938.909	0.0162550
938.987	0.0164122
939.065	0.0164529
939.143	0.0164258
939.221	0.0163361
939.299	0.0163908
939.378	0.0163128
939.456	0.0163966
939.534	0.0163329
939.612	0.0163083
939.690	0.0162464
939.768	0.0162570
939.846	0.0163803
939.924	0.0164612
940.003	0.0164690
940.081	0.0164516
940.159	0.0163911
940.237	0.0163545
940.315	0.0164348
940.393	0.0165379
940.471	0.0164246
940.549	0.0163911
940.628	0.0164335
940.706	0.0164588
940.784	0.0163836
940.862	0.0162694
940.940	0.0162998
941.018	0.0162382
941.096	0.0163866
941.174	0.0161493
941.253	0.0162125
941.331	0.0162746
941.409	0.0162530
941.487	0.0162977
941.565	0.0163338
941.643	0.0162806
941.721	0.0164806
941.799	0.0162517
941.878	0.0163595
941.956	0.0162283
942.034	0.0162907
942.112	0.0163898
942.190	0.0162162
942.268	0.0162445
942.346	0.0162789
942.424	0.0161871
942.503	0.0162532
942.581	0.0161790
942.659	0.0162251
942.737	0.0162126
942.815	0.0162586
942.893	0.0162796
942.971	0.0163153
943.049	0.0163168
943.128	0.0164501
943.206	0.0164249
943.284	0.0163751
943.362	0.0164397
943.440	0.0163905
943.518	0.0164606
943.596	0.0163756
943.674	0.0165148
943.753	0.0163728
943.831	0.0164839
943.909	0.0165443
943.987	0.0164436
944.065	0.0165692
944.143	0.0164547
944.221	0.0163514
944.299	0.0164089
944.378	0.0165320
944.456	0.0164355
944.534	0.0164264
944.612	0.0163996
944.690	0.0163291
944.768	0.0164133
944.846	0.0164520
944.924	0.0164217
945.003	0.0164780
945.081	0.0164582
945.159	0.0163818
945.237	0.0162765
945.315	0.0161980
945.393	0.0163779
945.471	0.0164174
945.549	0.0163117
945.628	0.0162684
945.706	0.0163882
945.784	0.0162489
945.862	0.0163067
945.940	0.0163958
946.018	0.0164268
946.096	0.0163198
946.174	0.0162572
946.253	0.0162898
946.331	0.0162461
946.409	0.0163608
946.487	0.0163187
946.565	0.0164001
946.643	0.0163062
946.721	0.0164196
946.799	0.0163610
946.878	0.0163964
946.956	0.0164216
947.034	0.0164385
947.112	0.0163725
947.190	0.0162679
947.268	0.0163491
947.346	0.0164462
947.424	0.0163795
947.503	0.0161577
947.581	0.0163482
947.659	0.0163506
947.737	0.0163471
947.815	0.0162222
947.893	0.0162827
947.971	0.0163847
948.049	0.0161398
948.128	0.0162128
948.206	0.0162441
948.284	0.0162395
948.362	0.0161688
948.440	0.0162311
948.518	0.0162057
948.596	0.0161234
948.674	0.0163247
948.753	0.0161626
948.831	0.0161846
948.909	0.0162989
948.987	0.0164764
949.065	0.0162840
949.143	0.0161845
949.221	0.0163242
949.299	0.0163802
949.378	0.0164046
949.456	0.0163126
949.534	0.0163947
949.612	0.0162334
949.690	0.0164690
949.768	0.0164614
949.846	0.0161975
949.924	0.0162378
