06/29/2022	23:06:01	Ver.	4.1	UNKNOWN
Optical Delay	630.002507	Delta X		0.078125	Sweeps	1	Scan Rate	0/0
Coordinates	Axis 1	NaN	Axis 2	NaN	Axis 3	NaN	Axis 4	NaN	Axis 5	NaN	Axis 6	0.000000
TX Power	0.000000	RX Power	0.000000

630.003	0.0159432
630.081	0.0157992
630.159	0.0158665
630.237	0.0160789
630.315	0.0159869
630.393	0.0162093
630.471	0.0159541
630.549	0.0158668
630.628	0.0160204
630.706	0.0160445
630.784	0.0158440
630.862	0.0157796
630.940	0.0157726
631.018	0.0159521
631.096	0.0160625
631.174	0.0159908
631.253	0.0159963
631.331	0.0160660
631.409	0.0160207
631.487	0.0159428
631.565	0.0159010
631.643	0.0159274
631.721	0.0158504
631.799	0.0160351
631.878	0.0160270
631.956	0.0160686
632.034	0.0159106
632.112	0.0158566
632.190	0.0158736
632.268	0.0159589
632.346	0.0158591
632.424	0.0159874
632.503	0.0159785
632.581	0.0159681
632.659	0.0158954
632.737	0.0160267
632.815	0.0159582
632.893	0.0159924
632.971	0.0159895
633.049	0.0159835
633.128	0.0159713
633.206	0.0160923
633.284	0.0158655
633.362	0.0159274
633.440	0.0158561
633.518	0.0158721
633.596	0.0159662
633.674	0.0159646
633.753	0.0159570
633.831	0.0158146
633.909	0.0160312
633.987	0.0159269
634.065	0.0160107
634.143	0.0160176
634.221	0.0159499
634.299	0.0159757
634.378	0.0159680
634.456	0.0160065
634.534	0.0158594
634.612	0.0159578
634.690	0.0159804
634.768	0.0159726
634.846	0.0158959
634.924	0.0160465
635.003	0.0160281
635.081	0.0160232
635.159	0.0159827
635.237	0.0159398
635.315	0.0159304
635.393	0.0159882
635.471	0.0159971
635.549	0.0159611
635.628	0.0159409
635.706	0.0158870
635.784	0.0159393
635.862	0.0160336
635.940	0.0160362
636.018	0.0158611
636.096	0.0158672
636.174	0.0159206
636.253	0.0159650
636.331	0.0159554
636.409	0.0158624
636.487	0.0159533
636.565	0.0159962
636.643	0.0158661
636.721	0.0158838
636.799	0.0159837
636.878	0.0159274
636.956	0.0159556
637.034	0.0159432
637.112	0.0159467
637.190	0.0159959
637.268	0.0158668
637.346	0.0158907
637.424	0.0160431
637.503	0.0159437
637.581	0.0158947
637.659	0.0160308
637.737	0.0160772
637.815	0.0160007
637.893	0.0158507
637.971	0.0159016
638.049	0.0159113
638.128	0.0159509
638.206	0.0159932
638.284	0.0159913
638.362	0.0160365
638.440	0.0160551
638.518	0.0158752
638.596	0.0158383
638.674	0.0159462
638.753	0.0160509
638.831	0.0157993
638.909	0.0160030
638.987	0.0159786
639.065	0.0158761
639.143	0.0159662
639.221	0.0159487
639.299	0.0160807
639.378	0.0159233
639.456	0.0157796
639.534	0.0159534
639.612	0.0159082
639.690	0.0158665
639.768	0.0160108
639.846	0.0159662
639.924	0.0158526
640.003	0.0159512
640.081	0.0158661
640.159	0.0159386
640.237	0.0158971
640.315	0.0159605
640.393	0.0159464
640.471	0.0158623
640.549	0.0159535
640.628	0.0158578
640.706	0.0160523
640.784	0.0160651
640.862	0.0158952
640.940	0.0158653
641.018	0.0158855
641.096	0.0159837
641.174	0.0160009
641.253	0.0159074
641.331	0.0159686
641.409	0.0159392
641.487	0.0159451
641.565	0.0160804
641.643	0.0158872
641.721	0.0159151
641.799	0.0159445
641.878	0.0159045
641.956	0.0160139
642.034	0.0159561
642.112	0.0159883
642.190	0.0159372
642.268	0.0159772
642.346	0.0157960
642.424	0.0156988
642.503	0.0159718
642.581	0.0159600
642.659	0.0159386
642.737	0.0157977
642.815	0.0158346
642.893	0.0160107
642.971	0.0159062
643.049	0.0158118
643.128	0.0158759
643.206	0.0160012
643.284	0.0160247
643.362	0.0158791
643.440	0.0158260
643.518	0.0159194
643.596	0.0159557
643.674	0.0158156
643.753	0.0159853
643.831	0.0159545
643.909	0.0158932
643.987	0.0158996
644.065	0.0158749
644.143	0.0158644
644.221	0.0159576
644.299	0.0160184
644.378	0.0159992
644.456	0.0158740
644.534	0.0159388
644.612	0.0159105
644.690	0.0159717
644.768	0.0159466
644.846	0.0158167
644.924	0.0158254
645.003	0.0159280
645.081	0.0159560
645.159	0.0159624
645.237	0.0158746
645.315	0.0160313
645.393	0.0160278
645.471	0.0159660
645.549	0.0159164
645.628	0.0158672
645.706	0.0158794
645.784	0.0158494
645.862	0.0158150
645.940	0.0159494
646.018	0.0159111
646.096	0.0159481
646.174	0.0159012
646.253	0.0159184
646.331	0.0159637
646.409	0.0160052
646.487	0.0159953
646.565	0.0159696
646.643	0.0159092
646.721	0.0159896
646.799	0.0159270
646.878	0.0159878
646.956	0.0159959
647.034	0.0160863
647.112	0.0159656
647.190	0.0158430
647.268	0.0158543
647.346	0.0160033
647.424	0.0160462
647.503	0.0159824
647.581	0.0160223
647.659	0.0159387
647.737	0.0159329
647.815	0.0159769
647.893	0.0158952
647.971	0.0160263
648.049	0.0158824
648.128	0.0159612
648.206	0.0159388
648.284	0.0161476
648.362	0.0159621
648.440	0.0159737
648.518	0.0158554
648.596	0.0158891
648.674	0.0159817
648.753	0.0159637
648.831	0.0158937
648.909	0.0158703
648.987	0.0160035
649.065	0.0158580
649.143	0.0159008
649.221	0.0160484
649.299	0.0160451
649.378	0.0159059
649.456	0.0159485
649.534	0.0159435
649.612	0.0159978
649.690	0.0159747
649.768	0.0161079
649.846	0.0159920
649.924	0.0159731
650.003	0.0158418
650.081	0.0159522
650.159	0.0161381
650.237	0.0159430
650.315	0.0160069
650.393	0.0159241
650.471	0.0158900
650.549	0.0159499
650.628	0.0159620
650.706	0.0160193
650.784	0.0159434
650.862	0.0160659
650.940	0.0160110
651.018	0.0159551
651.096	0.0159861
651.174	0.0160905
651.253	0.0160287
651.331	0.0160738
651.409	0.0160298
651.487	0.0161105
651.565	0.0159032
651.643	0.0158903
651.721	0.0160185
651.799	0.0160101
651.878	0.0158690
651.956	0.0159238
652.034	0.0159760
652.112	0.0160954
652.190	0.0159866
652.268	0.0159071
652.346	0.0160531
652.424	0.0159960
652.503	0.0158920
652.581	0.0158968
652.659	0.0160249
652.737	0.0159132
652.815	0.0159997
652.893	0.0159281
652.971	0.0159441
653.049	0.0160741
653.128	0.0159870
653.206	0.0160509
653.284	0.0159843
653.362	0.0159205
653.440	0.0159940
653.518	0.0159654
653.596	0.0159280
653.674	0.0159309
653.753	0.0158858
653.831	0.0158717
653.909	0.0159433
653.987	0.0159995
654.065	0.0158660
654.143	0.0159548
654.221	0.0158523
654.299	0.0159000
654.378	0.0159325
654.456	0.0160007
654.534	0.0159959
654.612	0.0159861
654.690	0.0159771
654.768	0.0159272
654.846	0.0157144
654.924	0.0158453
655.003	0.0160092
655.081	0.0159165
655.159	0.0159541
655.237	0.0158528
655.315	0.0158709
655.393	0.0158459
655.471	0.0159026
655.549	0.0158234
655.628	0.0159751
655.706	0.0160436
655.784	0.0160204
655.862	0.0158083
655.940	0.0159046
656.018	0.0159487
656.096	0.0159733
656.174	0.0160047
656.253	0.0159267
656.331	0.0159340
656.409	0.0160463
656.487	0.0159724
656.565	0.0160114
656.643	0.0160105
656.721	0.0158575
656.799	0.0158485
656.878	0.0158764
656.956	0.0158973
657.034	0.0158965
657.112	0.0158007
657.190	0.0159380
657.268	0.0161793
657.346	0.0159638
657.424	0.0159565
657.503	0.0158961
657.581	0.0159815
657.659	0.0158303
657.737	0.0158603
657.815	0.0160365
657.893	0.0159125
657.971	0.0159103
658.049	0.0159710
658.128	0.0159974
658.206	0.0159097
658.284	0.0159135
658.362	0.0160241
658.440	0.0160195
658.518	0.0159738
658.596	0.0159467
658.674	0.0159186
658.753	0.0159165
658.831	0.0158862
658.909	0.0158875
658.987	0.0159132
659.065	0.0159357
659.143	0.0159770
659.221	0.0159643
659.299	0.0160273
659.378	0.0159464
659.456	0.0158748
659.534	0.0160248
659.612	0.0159785
659.690	0.0159859
659.768	0.0158540
659.846	0.0159914
659.924	0.0159731
660.003	0.0158647
660.081	0.0159775
660.159	0.0159817
660.237	0.0159261
660.315	0.0159589
660.393	0.0158558
660.471	0.0159248
660.549	0.0159655
660.628	0.0159432
660.706	0.0159223
660.784	0.0158513
660.862	0.0158907
660.940	0.0159728
661.018	0.0160027
661.096	0.0159097
661.174	0.0157641
661.253	0.0158595
661.331	0.0160088
661.409	0.0159125
661.487	0.0159622
661.565	0.0158352
661.643	0.0160217
661.721	0.0158267
661.799	0.0159775
661.878	0.0158386
661.956	0.0158748
662.034	0.0159463
662.112	0.0160603
662.190	0.0158614
662.268	0.0160208
662.346	0.0159072
662.424	0.0158974
662.503	0.0157299
662.581	0.0158652
662.659	0.0161197
662.737	0.0159977
662.815	0.0159129
662.893	0.0159229
662.971	0.0159051
663.049	0.0159948
663.128	0.0159740
663.206	0.0159754
663.284	0.0159077
663.362	0.0159792
663.440	0.0159417
663.518	0.0158998
663.596	0.0160438
663.674	0.0159846
663.753	0.0159253
663.831	0.0160718
663.909	0.0160167
663.987	0.0160078
664.065	0.0159884
664.143	0.0158657
664.221	0.0159272
664.299	0.0158983
664.378	0.0160020
664.456	0.0158846
664.534	0.0160625
664.612	0.0159501
664.690	0.0160102
664.768	0.0157717
664.846	0.0158541
664.924	0.0158694
665.003	0.0157727
665.081	0.0158804
665.159	0.0157703
665.237	0.0158965
665.315	0.0159179
665.393	0.0159329
665.471	0.0160008
665.549	0.0159890
665.628	0.0158470
665.706	0.0159450
665.784	0.0158721
665.862	0.0158801
665.940	0.0160083
666.018	0.0158877
666.096	0.0156938
666.174	0.0158598
666.253	0.0161727
666.331	0.0159348
666.409	0.0157795
666.487	0.0160383
666.565	0.0158181
666.643	0.0158977
666.721	0.0158981
666.799	0.0159464
666.878	0.0160269
666.956	0.0159673
667.034	0.0160049
667.112	0.0159233
667.190	0.0159494
667.268	0.0160683
667.346	0.0159000
667.424	0.0158801
667.503	0.0160061
667.581	0.0160638
667.659	0.0160176
667.737	0.0160574
667.815	0.0159823
667.893	0.0160540
667.971	0.0159788
668.049	0.0160193
668.128	0.0160493
668.206	0.0160513
668.284	0.0160814
668.362	0.0160185
668.440	0.0160035
668.518	0.0159173
668.596	0.0159264
668.674	0.0159861
668.753	0.0160519
668.831	0.0158884
668.909	0.0158971
668.987	0.0159554
669.065	0.0159017
669.143	0.0159710
669.221	0.0159579
669.299	0.0159464
669.378	0.0159187
669.456	0.0159278
669.534	0.0159708
669.612	0.0158884
669.690	0.0158521
669.768	0.0159559
669.846	0.0159743
669.924	0.0159084
670.003	0.0159918
670.081	0.0158823
670.159	0.0159950
670.237	0.0160934
670.315	0.0160407
670.393	0.0158971
670.471	0.0160207
670.549	0.0158550
670.628	0.0159647
670.706	0.0159153
670.784	0.0159142
670.862	0.0161828
670.940	0.0160300
671.018	0.0159034
671.096	0.0158868
671.174	0.0159637
671.253	0.0161293
671.331	0.0159728
671.409	0.0159805
671.487	0.0160804
671.565	0.0160864
671.643	0.0160408
671.721	0.0158793
671.799	0.0160719
671.878	0.0161133
671.956	0.0160747
672.034	0.0159264
672.112	0.0160030
672.190	0.0159680
672.268	0.0159754
672.346	0.0157700
672.424	0.0159492
672.503	0.0158965
672.581	0.0158028
672.659	0.0158141
672.737	0.0158766
672.815	0.0160047
672.893	0.0160145
672.971	0.0159537
673.049	0.0158612
673.128	0.0159998
673.206	0.0160720
673.284	0.0160271
673.362	0.0160477
673.440	0.0160402
673.518	0.0159691
673.596	0.0160186
673.674	0.0161158
673.753	0.0160485
673.831	0.0159573
673.909	0.0160187
673.987	0.0160246
674.065	0.0161223
674.143	0.0160085
674.221	0.0159295
674.299	0.0158833
674.378	0.0159865
674.456	0.0160658
674.534	0.0159944
674.612	0.0159370
674.690	0.0159373
674.768	0.0160374
674.846	0.0160353
674.924	0.0158844
675.003	0.0160520
675.081	0.0159776
675.159	0.0159679
675.237	0.0161530
675.315	0.0159837
675.393	0.0161321
675.471	0.0160960
675.549	0.0159675
675.628	0.0159608
675.706	0.0159589
675.784	0.0158599
675.862	0.0158823
675.940	0.0160070
676.018	0.0158871
676.096	0.0158656
676.174	0.0159229
676.253	0.0158525
676.331	0.0158429
676.409	0.0159608
676.487	0.0158199
676.565	0.0159513
676.643	0.0160126
676.721	0.0160307
676.799	0.0161063
676.878	0.0160835
676.956	0.0159918
677.034	0.0159528
677.112	0.0160530
677.190	0.0160258
677.268	0.0159888
677.346	0.0159307
677.424	0.0160757
677.503	0.0159399
677.581	0.0160697
677.659	0.0159180
677.737	0.0157137
677.815	0.0157658
677.893	0.0158372
677.971	0.0159342
678.049	0.0159328
678.128	0.0158714
678.206	0.0158251
678.284	0.0157820
678.362	0.0159444
678.440	0.0159550
678.518	0.0159373
678.596	0.0160659
678.674	0.0158957
678.753	0.0159930
678.831	0.0160108
678.909	0.0159895
678.987	0.0159977
679.065	0.0159552
679.143	0.0159830
679.221	0.0158721
679.299	0.0157756
679.378	0.0159279
679.456	0.0159779
679.534	0.0157944
679.612	0.0157345
679.690	0.0158066
679.768	0.0157589
679.846	0.0158866
679.924	0.0159128
680.003	0.0160370
680.081	0.0158063
680.159	0.0158602
680.237	0.0160223
680.315	0.0160014
680.393	0.0160227
680.471	0.0159110
680.549	0.0160736
680.628	0.0159404
680.706	0.0160132
680.784	0.0159449
680.862	0.0159378
680.940	0.0160638
681.018	0.0161717
681.096	0.0159136
681.174	0.0159465
681.253	0.0161210
681.331	0.0158736
681.409	0.0158398
681.487	0.0158681
681.565	0.0159243
681.643	0.0159411
681.721	0.0160034
681.799	0.0158649
681.878	0.0158405
681.956	0.0160538
682.034	0.0159564
682.112	0.0159018
682.190	0.0159205
682.268	0.0160303
682.346	0.0158907
682.424	0.0159681
682.503	0.0161390
682.581	0.0160222
682.659	0.0160569
682.737	0.0160090
682.815	0.0159935
682.893	0.0159906
682.971	0.0158718
683.049	0.0159892
683.128	0.0159221
683.206	0.0159342
683.284	0.0158876
683.362	0.0159111
683.440	0.0158220
683.518	0.0159109
683.596	0.0158042
683.674	0.0158395
683.753	0.0157211
683.831	0.0158924
683.909	0.0159763
683.987	0.0159735
684.065	0.0160500
684.143	0.0161091
684.221	0.0160411
684.299	0.0159908
684.378	0.0161265
684.456	0.0160741
684.534	0.0161400
684.612	0.0161768
684.690	0.0162193
684.768	0.0160010
684.846	0.0158668
684.924	0.0159993
685.003	0.0158978
685.081	0.0158224
685.159	0.0159190
685.237	0.0159120
685.315	0.0158903
685.393	0.0157681
685.471	0.0160060
685.549	0.0158932
685.628	0.0159004
685.706	0.0160638
685.784	0.0160010
685.862	0.0159740
685.940	0.0160567
686.018	0.0161933
686.096	0.0160381
686.174	0.0160062
686.253	0.0160044
686.331	0.0159724
686.409	0.0160546
686.487	0.0159849
686.565	0.0159721
686.643	0.0158706
686.721	0.0158178
686.799	0.0158588
686.878	0.0159130
686.956	0.0160456
687.034	0.0160361
687.112	0.0159928
687.190	0.0159660
687.268	0.0159688
687.346	0.0159785
687.424	0.0159054
687.503	0.0159796
687.581	0.0160314
687.659	0.0160360
687.737	0.0160639
687.815	0.0160464
687.893	0.0160145
687.971	0.0158652
688.049	0.0158868
688.128	0.0160260
688.206	0.0159836
688.284	0.0160579
688.362	0.0157378
688.440	0.0157899
688.518	0.0158578
688.596	0.0156376
688.674	0.0160326
688.753	0.0158792
688.831	0.0160110
688.909	0.0159958
688.987	0.0160706
689.065	0.0160883
689.143	0.0159504
689.221	0.0161004
689.299	0.0160824
689.378	0.0160841
689.456	0.0160947
689.534	0.0161209
689.612	0.0160785
689.690	0.0160215
689.768	0.0159791
689.846	0.0159377
689.924	0.0159334
690.003	0.0159289
690.081	0.0160180
690.159	0.0159457
690.237	0.0159675
690.315	0.0160052
690.393	0.0159660
690.471	0.0158839
690.549	0.0160140
690.628	0.0158454
690.706	0.0160256
690.784	0.0160342
690.862	0.0161736
690.940	0.0160945
691.018	0.0161262
691.096	0.0160016
691.174	0.0160760
691.253	0.0161191
691.331	0.0161322
691.409	0.0161952
691.487	0.0160238
691.565	0.0160531
691.643	0.0160287
691.721	0.0160020
691.799	0.0160026
691.878	0.0159554
691.956	0.0158875
692.034	0.0158999
692.112	0.0159388
692.190	0.0157243
692.268	0.0158891
692.346	0.0159127
692.424	0.0161082
692.503	0.0159913
692.581	0.0159822
692.659	0.0159638
692.737	0.0160674
692.815	0.0161227
692.893	0.0160858
692.971	0.0159161
693.049	0.0162381
693.128	0.0161564
693.206	0.0160011
693.284	0.0160056
693.362	0.0160571
693.440	0.0159035
693.518	0.0160217
693.596	0.0159969
693.674	0.0158309
693.753	0.0158562
693.831	0.0159122
693.909	0.0158895
693.987	0.0158163
694.065	0.0158465
694.143	0.0158797
694.221	0.0158422
694.299	0.0158676
694.378	0.0159452
694.456	0.0158891
694.534	0.0159806
694.612	0.0159730
694.690	0.0159993
694.768	0.0160951
694.846	0.0160531
694.924	0.0160435
695.003	0.0160606
695.081	0.0161069
695.159	0.0159212
695.237	0.0158569
695.315	0.0160468
695.393	0.0159863
695.471	0.0159624
695.549	0.0159582
695.628	0.0157706
695.706	0.0158574
695.784	0.0158270
695.862	0.0159324
695.940	0.0159061
696.018	0.0159433
696.096	0.0158434
696.174	0.0159678
696.253	0.0158984
696.331	0.0158260
696.409	0.0159621
696.487	0.0159401
696.565	0.0160135
696.643	0.0161160
696.721	0.0160796
696.799	0.0160201
696.878	0.0160345
696.956	0.0160442
697.034	0.0160131
697.112	0.0159745
697.190	0.0159840
697.268	0.0159787
697.346	0.0158118
697.424	0.0159599
697.503	0.0160746
697.581	0.0159194
697.659	0.0159190
697.737	0.0159547
697.815	0.0159199
697.893	0.0160287
697.971	0.0159708
698.049	0.0159132
698.128	0.0159692
698.206	0.0159969
698.284	0.0161490
698.362	0.0160604
698.440	0.0159886
698.518	0.0158849
698.596	0.0160007
698.674	0.0159966
698.753	0.0159124
698.831	0.0159627
698.909	0.0159376
698.987	0.0161230
699.065	0.0159643
699.143	0.0158045
699.221	0.0159721
699.299	0.0158723
699.378	0.0159331
699.456	0.0159914
699.534	0.0159734
699.612	0.0158612
699.690	0.0160636
699.768	0.0159412
699.846	0.0159277
699.924	0.0159802
700.003	0.0160153
700.081	0.0161602
700.159	0.0160701
700.237	0.0159597
700.315	0.0159278
700.393	0.0159588
700.471	0.0159170
700.549	0.0160902
700.628	0.0159850
700.706	0.0159953
700.784	0.0159960
700.862	0.0159515
700.940	0.0158945
701.018	0.0159226
701.096	0.0159937
701.174	0.0159704
701.253	0.0159533
701.331	0.0159287
701.409	0.0158628
701.487	0.0159132
701.565	0.0158964
701.643	0.0158449
701.721	0.0160166
701.799	0.0159032
701.878	0.0158827
701.956	0.0157893
702.034	0.0158726
702.112	0.0158463
702.190	0.0158666
702.268	0.0157829
702.346	0.0156859
702.424	0.0157469
702.503	0.0159966
702.581	0.0160015
702.659	0.0158652
702.737	0.0158116
702.815	0.0158797
702.893	0.0159409
702.971	0.0160544
703.049	0.0159602
703.128	0.0158934
703.206	0.0161771
703.284	0.0160597
703.362	0.0161401
703.440	0.0161980
703.518	0.0162189
703.596	0.0163049
703.674	0.0161328
703.753	0.0162307
703.831	0.0161869
703.909	0.0161457
703.987	0.0162261
704.065	0.0159418
704.143	0.0160058
704.221	0.0160281
704.299	0.0157888
704.378	0.0157430
704.456	0.0156815
704.534	0.0158050
704.612	0.0157893
704.690	0.0156934
704.768	0.0156863
704.846	0.0157738
704.924	0.0158009
705.003	0.0156179
705.081	0.0158589
705.159	0.0158837
705.237	0.0159019
705.315	0.0159624
705.393	0.0160159
705.471	0.0158624
705.549	0.0160926
705.628	0.0161436
705.706	0.0160470
705.784	0.0162411
705.862	0.0161869
705.940	0.0161676
706.018	0.0160740
706.096	0.0160666
706.174	0.0160645
706.253	0.0162096
706.331	0.0160634
706.409	0.0160208
706.487	0.0161144
706.565	0.0159644
706.643	0.0159877
706.721	0.0161530
706.799	0.0159065
706.878	0.0159170
706.956	0.0159084
707.034	0.0158739
707.112	0.0158666
707.190	0.0158831
707.268	0.0158765
707.346	0.0159555
707.424	0.0159949
707.503	0.0160059
707.581	0.0159069
707.659	0.0160593
707.737	0.0158527
707.815	0.0159356
707.893	0.0159316
707.971	0.0159219
708.049	0.0161472
708.128	0.0159711
708.206	0.0159235
708.284	0.0160699
708.362	0.0159978
708.440	0.0159773
708.518	0.0160173
708.596	0.0160255
708.674	0.0159871
708.753	0.0159833
708.831	0.0160504
708.909	0.0160543
708.987	0.0159502
709.065	0.0160999
709.143	0.0160303
709.221	0.0159618
709.299	0.0158932
709.378	0.0158932
709.456	0.0161272
709.534	0.0159309
709.612	0.0158885
709.690	0.0160874
709.768	0.0160183
709.846	0.0159805
709.924	0.0160361
710.003	0.0158800
710.081	0.0159918
710.159	0.0160239
710.237	0.0158600
710.315	0.0158621
710.393	0.0158924
710.471	0.0159470
710.549	0.0159010
710.628	0.0159121
710.706	0.0158439
710.784	0.0158782
710.862	0.0158690
710.940	0.0159269
711.018	0.0158116
711.096	0.0158588
711.174	0.0157448
711.253	0.0160955
711.331	0.0160947
711.409	0.0160987
711.487	0.0160378
711.565	0.0160656
711.643	0.0162201
711.721	0.0162103
711.799	0.0161420
711.878	0.0160476
711.956	0.0161526
712.034	0.0161972
712.112	0.0160463
712.190	0.0159822
712.268	0.0160825
712.346	0.0159389
712.424	0.0160001
712.503	0.0160658
712.581	0.0160393
712.659	0.0158839
712.737	0.0157968
712.815	0.0158082
712.893	0.0159237
712.971	0.0158401
713.049	0.0159846
713.128	0.0159991
713.206	0.0158481
713.284	0.0159196
713.362	0.0158928
713.440	0.0159335
713.518	0.0160383
713.596	0.0159361
713.674	0.0160334
713.753	0.0160336
713.831	0.0158973
713.909	0.0158913
713.987	0.0160321
714.065	0.0160411
714.143	0.0158302
714.221	0.0158776
714.299	0.0159586
714.378	0.0160239
714.456	0.0159177
714.534	0.0158572
714.612	0.0158651
714.690	0.0159118
714.768	0.0159724
714.846	0.0159576
714.924	0.0160784
715.003	0.0160349
715.081	0.0159471
715.159	0.0161585
715.237	0.0161546
715.315	0.0161323
715.393	0.0159919
715.471	0.0162005
715.549	0.0160029
715.628	0.0159692
715.706	0.0160760
715.784	0.0160600
715.862	0.0159598
715.940	0.0158620
716.018	0.0158791
716.096	0.0157838
716.174	0.0157284
716.253	0.0156332
716.331	0.0155812
716.409	0.0155761
716.487	0.0157140
716.565	0.0155988
716.643	0.0156334
716.721	0.0156471
716.799	0.0157581
716.878	0.0156642
716.956	0.0159360
717.034	0.0160974
717.112	0.0160068
717.190	0.0162052
717.268	0.0163513
717.346	0.0163297
717.424	0.0164952
717.503	0.0163840
717.581	0.0163979
717.659	0.0163874
717.737	0.0163262
717.815	0.0162659
717.893	0.0163083
717.971	0.0161778
718.049	0.0160822
718.128	0.0159580
718.206	0.0158824
718.284	0.0156520
718.362	0.0155256
718.440	0.0155892
718.518	0.0154371
718.596	0.0153585
718.674	0.0153971
718.753	0.0153098
718.831	0.0153371
718.909	0.0153863
718.987	0.0153130
719.065	0.0153429
719.143	0.0154989
719.221	0.0154625
719.299	0.0155930
719.378	0.0156827
719.456	0.0157426
719.534	0.0157277
719.612	0.0159064
719.690	0.0159536
719.768	0.0160439
719.846	0.0161540
719.924	0.0161875
720.003	0.0163537
720.081	0.0164401
720.159	0.0163954
720.237	0.0166947
720.315	0.0165834
720.393	0.0167140
720.471	0.0168142
720.549	0.0168034
720.628	0.0167171
720.706	0.0167106
720.784	0.0167142
720.862	0.0165226
720.940	0.0165910
721.018	0.0166228
721.096	0.0164085
721.174	0.0163283
721.253	0.0160928
721.331	0.0159949
721.409	0.0160921
721.487	0.0158489
721.565	0.0158601
721.643	0.0156561
721.721	0.0154951
721.799	0.0154283
721.878	0.0154198
721.956	0.0152663
722.034	0.0151376
722.112	0.0151614
722.190	0.0151485
722.268	0.0150301
722.346	0.0151410
722.424	0.0150217
722.503	0.0149334
722.581	0.0149595
722.659	0.0151413
722.737	0.0151305
722.815	0.0151808
722.893	0.0152239
722.971	0.0154224
723.049	0.0156369
723.128	0.0156659
723.206	0.0156726
723.284	0.0159864
723.362	0.0162347
723.440	0.0164159
723.518	0.0165982
723.596	0.0167184
723.674	0.0167798
723.753	0.0169803
723.831	0.0169018
723.909	0.0170997
723.987	0.0171558
724.065	0.0170502
724.143	0.0170337
724.221	0.0170044
724.299	0.0169395
724.378	0.0167924
724.456	0.0166604
724.534	0.0164778
724.612	0.0163603
724.690	0.0162563
724.768	0.0161753
724.846	0.0160458
724.924	0.0158710
725.003	0.0156609
725.081	0.0154628
725.159	0.0156136
725.237	0.0153632
725.315	0.0153683
725.393	0.0153841
725.471	0.0152547
725.549	0.0152126
725.628	0.0153651
725.706	0.0152541
725.784	0.0150791
725.862	0.0153191
725.940	0.0152293
726.018	0.0154104
726.096	0.0154730
726.174	0.0154667
726.253	0.0155637
726.331	0.0156731
726.409	0.0155482
726.487	0.0156477
726.565	0.0158086
726.643	0.0158990
726.721	0.0160065
726.799	0.0159199
726.878	0.0161294
726.956	0.0160841
727.034	0.0162274
727.112	0.0161444
727.190	0.0163908
727.268	0.0162696
727.346	0.0163223
727.424	0.0163731
727.503	0.0164258
727.581	0.0164023
727.659	0.0163543
727.737	0.0164113
727.815	0.0164966
727.893	0.0163188
727.971	0.0163078
728.049	0.0162342
728.128	0.0163136
728.206	0.0162199
728.284	0.0161198
728.362	0.0160178
728.440	0.0160204
728.518	0.0159379
728.596	0.0157819
728.674	0.0158836
728.753	0.0157587
728.831	0.0156055
728.909	0.0157188
728.987	0.0157646
729.065	0.0156429
729.143	0.0157697
729.221	0.0156831
729.299	0.0157978
729.378	0.0158816
729.456	0.0159428
729.534	0.0160180
729.612	0.0159346
729.690	0.0162083
729.768	0.0161819
729.846	0.0161989
729.924	0.0158657
730.003	0.0159492
730.081	0.0161439
730.159	0.0159539
730.237	0.0156828
730.315	0.0159064
730.393	0.0156100
730.471	0.0155756
730.549	0.0157135
730.628	0.0155573
730.706	0.0155155
730.784	0.0155253
730.862	0.0154681
730.940	0.0155343
731.018	0.0155385
731.096	0.0157357
731.174	0.0158107
731.253	0.0159115
731.331	0.0159030
731.409	0.0162154
731.487	0.0161274
731.565	0.0162097
731.643	0.0163139
731.721	0.0163392
731.799	0.0164172
731.878	0.0167332
731.956	0.0165512
732.034	0.0165884
732.112	0.0166478
732.190	0.0166502
732.268	0.0165026
732.346	0.0165202
732.424	0.0165129
732.503	0.0164609
732.581	0.0163660
732.659	0.0162818
732.737	0.0162617
732.815	0.0160782
732.893	0.0159676
732.971	0.0158470
733.049	0.0156605
733.128	0.0157385
733.206	0.0154604
733.284	0.0155125
733.362	0.0154532
733.440	0.0153163
733.518	0.0153057
733.596	0.0153198
733.674	0.0153785
733.753	0.0154619
733.831	0.0151472
733.909	0.0153315
733.987	0.0152139
734.065	0.0153517
734.143	0.0152603
734.221	0.0153562
734.299	0.0153336
734.378	0.0155363
734.456	0.0154854
734.534	0.0154017
734.612	0.0155398
734.690	0.0157292
734.768	0.0155791
734.846	0.0156878
734.924	0.0158744
735.003	0.0158315
735.081	0.0158924
735.159	0.0159399
735.237	0.0161638
735.315	0.0161040
735.393	0.0163067
735.471	0.0163124
735.549	0.0164133
735.628	0.0165508
735.706	0.0165939
735.784	0.0165697
735.862	0.0166960
735.940	0.0166843
736.018	0.0167868
736.096	0.0167976
736.174	0.0167851
736.253	0.0167550
736.331	0.0168519
736.409	0.0167149
736.487	0.0167704
736.565	0.0166714
736.643	0.0166985
736.721	0.0165905
736.799	0.0166217
736.878	0.0163082
736.956	0.0162849
737.034	0.0162462
737.112	0.0159827
737.190	0.0158363
737.268	0.0157382
737.346	0.0156744
737.424	0.0153922
737.503	0.0152539
737.581	0.0150272
737.659	0.0149897
737.737	0.0150248
737.815	0.0149735
737.893	0.0148077
737.971	0.0148547
738.049	0.0149226
738.128	0.0149926
738.206	0.0150532
738.284	0.0152067
738.362	0.0153102
738.440	0.0155140
738.518	0.0155152
738.596	0.0156769
738.674	0.0157288
738.753	0.0158520
738.831	0.0161818
738.909	0.0161227
738.987	0.0162569
739.065	0.0163791
739.143	0.0162714
739.221	0.0163885
739.299	0.0164942
739.378	0.0163747
739.456	0.0162090
739.534	0.0161988
739.612	0.0162592
739.690	0.0163582
739.768	0.0162966
739.846	0.0159834
739.924	0.0158957
740.003	0.0158530
740.081	0.0157872
740.159	0.0156427
740.237	0.0155972
740.315	0.0154668
740.393	0.0155233
740.471	0.0154735
740.549	0.0154467
740.628	0.0155974
740.706	0.0157427
740.784	0.0158006
740.862	0.0159626
740.940	0.0161076
741.018	0.0162591
741.096	0.0161904
741.174	0.0164114
741.253	0.0167150
741.331	0.0166104
741.409	0.0167813
741.487	0.0168373
741.565	0.0168068
741.643	0.0166185
741.721	0.0166482
741.799	0.0165855
741.878	0.0163760
741.956	0.0163390
742.034	0.0162322
742.112	0.0161393
742.190	0.0160552
742.268	0.0158284
742.346	0.0158332
742.424	0.0157853
742.503	0.0155611
742.581	0.0155322
742.659	0.0155146
742.737	0.0155789
742.815	0.0155453
742.893	0.0154501
742.971	0.0155505
743.049	0.0155557
743.128	0.0155262
743.206	0.0156726
743.284	0.0155521
743.362	0.0155728
743.440	0.0157720
743.518	0.0157413
743.596	0.0156538
743.674	0.0156458
743.753	0.0157462
743.831	0.0157854
743.909	0.0158156
743.987	0.0157311
744.065	0.0157870
744.143	0.0157793
744.221	0.0157481
744.299	0.0159004
744.378	0.0158549
744.456	0.0158619
744.534	0.0157421
744.612	0.0157968
744.690	0.0159151
744.768	0.0157868
744.846	0.0158186
744.924	0.0156760
745.003	0.0157677
745.081	0.0157802
745.159	0.0159702
745.237	0.0158397
745.315	0.0159949
745.393	0.0159101
745.471	0.0159913
745.549	0.0160699
745.628	0.0161424
745.706	0.0161886
745.784	0.0162601
745.862	0.0163131
745.940	0.0163451
746.018	0.0164345
746.096	0.0165308
746.174	0.0167216
746.253	0.0165855
746.331	0.0165889
746.409	0.0167747
746.487	0.0165770
746.565	0.0166570
746.643	0.0166052
746.721	0.0164316
746.799	0.0164243
746.878	0.0164274
746.956	0.0163534
747.034	0.0160658
747.112	0.0160770
747.190	0.0159690
747.268	0.0159206
747.346	0.0157249
747.424	0.0156186
747.503	0.0155810
747.581	0.0154831
747.659	0.0153773
747.737	0.0153563
747.815	0.0153040
747.893	0.0151410
747.971	0.0151862
748.049	0.0152276
748.128	0.0150616
748.206	0.0152134
748.284	0.0152583
748.362	0.0154205
748.440	0.0153468
748.518	0.0152766
748.596	0.0155322
748.674	0.0156563
748.753	0.0156423
748.831	0.0158372
748.909	0.0156982
748.987	0.0158907
749.065	0.0159726
749.143	0.0157482
749.221	0.0159522
749.299	0.0160779
749.378	0.0160764
749.456	0.0161452
749.534	0.0161607
749.612	0.0161179
749.690	0.0161826
749.768	0.0161479
749.846	0.0161711
749.924	0.0162405
750.003	0.0164397
750.081	0.0164159
750.159	0.0163923
750.237	0.0164565
750.315	0.0164276
750.393	0.0164609
750.471	0.0164527
750.549	0.0165512
750.628	0.0164931
750.706	0.0162653
750.784	0.0162472
750.862	0.0164523
750.940	0.0162688
751.018	0.0160466
751.096	0.0160497
751.174	0.0159386
751.253	0.0159532
751.331	0.0159169
751.409	0.0157670
751.487	0.0157629
751.565	0.0157661
751.643	0.0157900
751.721	0.0159780
751.799	0.0159584
751.878	0.0160213
751.956	0.0159654
752.034	0.0158890
752.112	0.0160877
752.190	0.0160061
752.268	0.0160914
752.346	0.0160371
752.424	0.0159435
752.503	0.0159698
752.581	0.0158949
752.659	0.0157257
752.737	0.0156824
752.815	0.0155605
752.893	0.0156088
752.971	0.0154900
753.049	0.0155221
753.128	0.0154334
753.206	0.0154571
753.284	0.0155196
753.362	0.0153889
753.440	0.0154327
753.518	0.0155447
753.596	0.0157618
753.674	0.0158703
753.753	0.0160445
753.831	0.0159413
753.909	0.0159612
753.987	0.0159830
754.065	0.0160218
754.143	0.0158999
754.221	0.0160023
754.299	0.0160327
754.378	0.0159846
754.456	0.0159019
754.534	0.0158654
754.612	0.0158397
754.690	0.0158957
754.768	0.0157706
754.846	0.0158866
754.924	0.0158200
755.003	0.0158519
755.081	0.0157911
755.159	0.0158807
755.237	0.0161121
755.315	0.0161121
755.393	0.0162491
755.471	0.0163770
755.549	0.0163777
755.628	0.0163661
755.706	0.0165382
755.784	0.0167290
755.862	0.0167271
755.940	0.0167899
756.018	0.0168352
756.096	0.0166545
756.174	0.0165699
756.253	0.0166335
756.331	0.0166216
756.409	0.0164407
756.487	0.0163968
756.565	0.0162123
756.643	0.0160737
756.721	0.0159966
756.799	0.0158466
756.878	0.0157874
756.956	0.0156641
757.034	0.0156766
757.112	0.0155310
757.190	0.0154774
757.268	0.0154864
757.346	0.0154544
757.424	0.0153328
757.503	0.0155342
757.581	0.0154854
757.659	0.0155843
757.737	0.0156847
757.815	0.0158115
757.893	0.0158175
757.971	0.0159302
758.049	0.0158842
758.128	0.0158296
758.206	0.0158690
758.284	0.0157659
758.362	0.0158807
758.440	0.0157088
758.518	0.0156040
758.596	0.0155750
758.674	0.0153963
758.753	0.0154560
758.831	0.0153664
758.909	0.0154514
758.987	0.0153686
759.065	0.0154240
759.143	0.0156149
759.221	0.0155599
759.299	0.0157051
759.378	0.0157281
759.456	0.0157185
759.534	0.0159893
759.612	0.0160056
759.690	0.0162637
759.768	0.0162725
759.846	0.0163589
759.924	0.0165685
760.003	0.0165989
760.081	0.0164998
760.159	0.0165928
760.237	0.0166965
760.315	0.0166294
760.393	0.0166241
760.471	0.0165833
760.549	0.0164576
760.628	0.0164043
760.706	0.0162706
760.784	0.0163586
760.862	0.0164326
760.940	0.0162368
761.018	0.0160629
761.096	0.0160277
761.174	0.0159847
761.253	0.0159647
761.331	0.0159673
761.409	0.0159173
761.487	0.0158537
761.565	0.0157819
761.643	0.0157442
761.721	0.0159209
761.799	0.0159001
761.878	0.0157738
761.956	0.0157786
762.034	0.0157909
762.112	0.0156957
762.190	0.0158603
762.268	0.0159092
762.346	0.0156667
762.424	0.0158003
762.503	0.0157098
762.581	0.0157188
762.659	0.0155988
762.737	0.0156055
762.815	0.0156715
762.893	0.0155531
762.971	0.0156388
763.049	0.0157830
763.128	0.0159537
763.206	0.0159323
763.284	0.0160075
763.362	0.0160524
763.440	0.0161565
763.518	0.0163280
763.596	0.0162848
763.674	0.0161631
763.753	0.0163574
763.831	0.0160952
763.909	0.0160200
763.987	0.0159483
764.065	0.0157271
764.143	0.0157110
764.221	0.0155608
764.299	0.0155073
764.378	0.0153912
764.456	0.0152350
764.534	0.0151539
764.612	0.0151952
764.690	0.0153142
764.768	0.0153188
764.846	0.0153251
764.924	0.0154522
765.003	0.0157298
765.081	0.0157618
765.159	0.0158250
765.237	0.0160493
765.315	0.0161123
765.393	0.0161749
765.471	0.0163914
765.549	0.0163174
765.628	0.0162785
765.706	0.0163960
765.784	0.0164921
765.862	0.0162232
765.940	0.0162362
766.018	0.0161116
766.096	0.0162903
766.174	0.0160391
766.253	0.0160857
766.331	0.0158517
766.409	0.0160359
766.487	0.0160648
766.565	0.0160058
766.643	0.0160439
766.721	0.0161359
766.799	0.0163940
766.878	0.0162610
766.956	0.0163280
767.034	0.0163045
767.112	0.0163913
767.190	0.0163407
767.268	0.0161967
767.346	0.0161588
767.424	0.0160586
767.503	0.0159985
767.581	0.0158803
767.659	0.0156618
767.737	0.0156513
767.815	0.0155704
767.893	0.0154918
767.971	0.0155120
768.049	0.0152666
768.128	0.0152525
768.206	0.0152698
768.284	0.0153060
768.362	0.0153349
768.440	0.0153680
768.518	0.0152080
768.596	0.0153549
768.674	0.0154272
768.753	0.0156991
768.831	0.0158958
768.909	0.0158331
768.987	0.0162099
769.065	0.0161618
769.143	0.0164253
769.221	0.0164320
769.299	0.0164900
769.378	0.0165846
769.456	0.0166691
769.534	0.0167249
769.612	0.0166670
769.690	0.0164719
769.768	0.0163567
769.846	0.0162149
769.924	0.0162360
770.003	0.0160670
770.081	0.0159636
770.159	0.0158398
770.237	0.0155532
770.315	0.0156399
770.393	0.0155209
770.471	0.0153046
770.549	0.0152483
770.628	0.0153657
770.706	0.0153403
770.784	0.0153735
770.862	0.0155526
770.940	0.0154854
771.018	0.0155363
771.096	0.0158068
771.174	0.0156440
771.253	0.0157654
771.331	0.0157838
771.409	0.0158324
771.487	0.0160815
771.565	0.0159573
771.643	0.0160402
771.721	0.0159109
771.799	0.0157841
771.878	0.0158334
771.956	0.0159253
772.034	0.0159525
772.112	0.0159470
772.190	0.0160368
772.268	0.0161295
772.346	0.0160407
772.424	0.0163107
772.503	0.0162736
772.581	0.0163209
772.659	0.0164193
772.737	0.0165781
772.815	0.0166358
772.893	0.0166093
772.971	0.0167014
773.049	0.0165515
773.128	0.0163808
773.206	0.0163942
773.284	0.0162373
773.362	0.0162271
773.440	0.0160916
773.518	0.0159089
773.596	0.0158442
773.674	0.0156269
773.753	0.0155595
773.831	0.0155854
773.909	0.0155280
773.987	0.0155619
774.065	0.0154675
774.143	0.0155154
774.221	0.0154635
774.299	0.0153896
774.378	0.0153220
774.456	0.0154095
774.534	0.0155212
774.612	0.0155282
774.690	0.0156179
774.768	0.0155489
774.846	0.0156962
774.924	0.0157323
775.003	0.0158022
775.081	0.0157367
775.159	0.0159737
775.237	0.0160312
775.315	0.0160774
775.393	0.0160639
775.471	0.0160740
775.549	0.0161578
775.628	0.0161684
775.706	0.0161797
775.784	0.0160574
775.862	0.0160756
775.940	0.0161453
776.018	0.0161740
776.096	0.0160857
776.174	0.0161176
776.253	0.0161360
776.331	0.0162317
776.409	0.0162914
776.487	0.0162262
776.565	0.0162717
776.643	0.0162886
776.721	0.0163920
776.799	0.0163618
776.878	0.0162312
776.956	0.0162749
777.034	0.0161745
777.112	0.0161406
777.190	0.0160336
777.268	0.0161036
777.346	0.0159863
777.424	0.0159008
777.503	0.0159159
777.581	0.0157152
777.659	0.0158759
777.737	0.0157679
777.815	0.0157878
777.893	0.0158266
777.971	0.0157193
778.049	0.0157045
778.128	0.0157221
778.206	0.0157751
778.284	0.0157372
778.362	0.0159558
778.440	0.0159313
778.518	0.0160532
778.596	0.0160747
778.674	0.0159018
778.753	0.0158253
778.831	0.0159646
778.909	0.0158394
778.987	0.0159692
779.065	0.0158733
779.143	0.0159096
779.221	0.0157954
779.299	0.0157532
779.378	0.0156692
779.456	0.0156937
779.534	0.0157172
779.612	0.0157519
779.690	0.0157394
779.768	0.0159128
779.846	0.0158353
779.924	0.0158654
780.003	0.0160243
780.081	0.0159364
780.159	0.0160119
780.237	0.0158999
780.315	0.0159770
780.393	0.0160187
780.471	0.0158938
780.549	0.0159517
780.628	0.0160954
780.706	0.0160338
780.784	0.0158529
780.862	0.0160924
780.940	0.0159938
781.018	0.0159568
781.096	0.0159213
781.174	0.0160715
781.253	0.0160226
781.331	0.0159885
781.409	0.0162077
781.487	0.0161687
781.565	0.0161642
781.643	0.0161478
781.721	0.0161046
781.799	0.0162695
781.878	0.0162390
781.956	0.0161854
782.034	0.0162745
782.112	0.0161751
782.190	0.0162244
782.268	0.0160958
782.346	0.0161252
782.424	0.0160950
782.503	0.0160315
782.581	0.0159563
782.659	0.0160114
782.737	0.0159206
782.815	0.0157945
782.893	0.0158495
782.971	0.0157915
783.049	0.0160268
783.128	0.0158862
783.206	0.0158108
783.284	0.0156882
783.362	0.0157619
783.440	0.0158272
783.518	0.0159444
783.596	0.0158224
783.674	0.0158172
783.753	0.0158010
783.831	0.0157865
783.909	0.0156855
783.987	0.0156992
784.065	0.0158587
784.143	0.0157912
784.221	0.0156718
784.299	0.0158179
784.378	0.0158475
784.456	0.0159409
784.534	0.0157583
784.612	0.0157204
784.690	0.0158506
784.768	0.0157456
784.846	0.0157471
784.924	0.0156470
785.003	0.0157069
785.081	0.0157407
785.159	0.0157738
785.237	0.0157327
785.315	0.0157690
785.393	0.0159023
785.471	0.0157969
785.549	0.0158500
785.628	0.0160341
785.706	0.0160281
785.784	0.0160108
785.862	0.0159875
785.940	0.0162660
786.018	0.0162543
786.096	0.0163120
786.174	0.0161797
786.253	0.0163119
786.331	0.0160379
786.409	0.0159925
786.487	0.0160684
786.565	0.0158600
786.643	0.0160426
786.721	0.0157041
786.799	0.0157117
786.878	0.0156890
786.956	0.0157441
787.034	0.0156116
787.112	0.0157017
787.190	0.0156244
787.268	0.0156477
787.346	0.0158638
787.424	0.0159158
787.503	0.0159259
787.581	0.0159762
787.659	0.0160782
787.737	0.0161606
787.815	0.0162173
787.893	0.0161691
787.971	0.0163720
788.049	0.0162688
788.128	0.0162628
788.206	0.0163400
788.284	0.0163283
788.362	0.0163043
788.440	0.0162934
788.518	0.0163661
788.596	0.0163508
788.674	0.0161987
788.753	0.0160540
788.831	0.0160477
788.909	0.0161185
788.987	0.0159147
789.065	0.0159694
789.143	0.0160547
789.221	0.0159521
789.299	0.0159470
789.378	0.0158934
789.456	0.0158829
789.534	0.0159528
789.612	0.0160391
789.690	0.0160406
789.768	0.0160310
789.846	0.0159598
789.924	0.0159724
790.003	0.0157681
790.081	0.0157642
790.159	0.0159494
790.237	0.0159810
790.315	0.0157569
790.393	0.0156559
790.471	0.0157405
790.549	0.0159003
790.628	0.0155860
790.706	0.0154107
790.784	0.0155299
790.862	0.0153741
790.940	0.0153878
791.018	0.0154386
791.096	0.0154431
791.174	0.0154028
791.253	0.0154263
791.331	0.0155840
791.409	0.0155791
791.487	0.0155787
791.565	0.0157481
791.643	0.0157681
791.721	0.0160022
791.799	0.0160159
791.878	0.0160725
791.956	0.0159844
792.034	0.0160704
792.112	0.0161539
792.190	0.0163219
792.268	0.0163981
792.346	0.0163074
792.424	0.0164003
792.503	0.0163632
792.581	0.0163744
792.659	0.0163412
792.737	0.0163767
792.815	0.0162675
792.893	0.0163023
792.971	0.0162092
793.049	0.0162247
793.128	0.0162344
793.206	0.0160646
793.284	0.0160709
793.362	0.0160005
793.440	0.0160055
793.518	0.0159388
793.596	0.0160635
793.674	0.0159689
793.753	0.0160737
793.831	0.0160244
793.909	0.0158492
793.987	0.0159560
794.065	0.0159064
794.143	0.0159528
794.221	0.0159814
794.299	0.0159240
794.378	0.0157465
794.456	0.0159533
794.534	0.0159226
794.612	0.0159693
794.690	0.0160600
794.768	0.0158822
794.846	0.0158739
794.924	0.0160126
795.003	0.0159256
795.081	0.0156116
795.159	0.0159012
795.237	0.0159846
795.315	0.0159769
795.393	0.0158624
795.471	0.0157308
795.549	0.0158146
795.628	0.0159755
795.706	0.0157528
795.784	0.0159182
795.862	0.0159179
795.940	0.0157979
796.018	0.0159534
796.096	0.0159410
796.174	0.0159927
796.253	0.0158801
796.331	0.0157318
796.409	0.0158066
796.487	0.0160437
796.565	0.0158548
796.643	0.0158109
796.721	0.0160606
796.799	0.0159423
796.878	0.0158092
796.956	0.0158671
797.034	0.0157531
797.112	0.0158474
797.190	0.0156693
797.268	0.0157939
797.346	0.0158951
797.424	0.0158098
797.503	0.0156587
797.581	0.0157098
797.659	0.0158337
797.737	0.0157612
797.815	0.0156249
797.893	0.0156333
797.971	0.0157354
798.049	0.0158234
798.128	0.0157951
798.206	0.0158235
798.284	0.0157327
798.362	0.0158727
798.440	0.0157551
798.518	0.0158190
798.596	0.0158239
798.674	0.0160698
798.753	0.0159625
798.831	0.0159679
798.909	0.0161115
798.987	0.0160651
799.065	0.0161172
799.143	0.0161871
799.221	0.0161620
799.299	0.0163149
799.378	0.0162637
799.456	0.0161955
799.534	0.0161965
799.612	0.0162103
799.690	0.0161655
799.768	0.0162170
799.846	0.0161659
799.924	0.0160631
800.003	0.0160490
800.081	0.0160555
800.159	0.0158971
800.237	0.0160052
800.315	0.0159174
800.393	0.0159338
800.471	0.0157830
800.549	0.0156891
800.628	0.0159595
800.706	0.0159056
800.784	0.0159419
800.862	0.0157675
800.940	0.0157765
801.018	0.0157687
801.096	0.0158583
801.174	0.0158014
801.253	0.0157805
801.331	0.0158177
801.409	0.0157182
801.487	0.0158074
801.565	0.0157330
801.643	0.0158466
801.721	0.0158300
801.799	0.0158459
801.878	0.0158994
801.956	0.0159370
802.034	0.0159467
802.112	0.0158572
802.190	0.0158855
802.268	0.0159620
802.346	0.0159837
802.424	0.0159243
802.503	0.0159528
802.581	0.0160126
802.659	0.0158978
802.737	0.0158726
802.815	0.0158835
802.893	0.0158934
802.971	0.0159106
803.049	0.0158054
803.128	0.0158662
803.206	0.0158875
803.284	0.0156750
803.362	0.0158840
803.440	0.0158140
803.518	0.0158411
803.596	0.0158989
803.674	0.0157278
803.753	0.0158830
803.831	0.0158331
803.909	0.0155589
803.987	0.0157381
804.065	0.0159125
804.143	0.0158598
804.221	0.0159261
804.299	0.0159431
804.378	0.0160115
804.456	0.0158814
804.534	0.0158910
804.612	0.0159026
804.690	0.0158511
804.768	0.0159080
804.846	0.0160332
804.924	0.0160637
805.003	0.0160162
805.081	0.0159753
805.159	0.0161593
805.237	0.0160874
805.315	0.0160803
805.393	0.0160386
805.471	0.0160503
805.549	0.0161460
805.628	0.0163099
805.706	0.0160415
805.784	0.0160152
805.862	0.0159207
805.940	0.0160853
806.018	0.0161735
806.096	0.0160717
806.174	0.0160509
806.253	0.0159862
806.331	0.0160084
806.409	0.0158137
806.487	0.0159202
806.565	0.0159679
806.643	0.0159566
806.721	0.0157731
806.799	0.0158607
806.878	0.0159883
806.956	0.0156300
807.034	0.0157404
807.112	0.0157952
807.190	0.0158142
807.268	0.0157088
807.346	0.0157346
807.424	0.0154651
807.503	0.0156454
807.581	0.0157492
807.659	0.0157365
807.737	0.0157375
807.815	0.0159171
807.893	0.0158259
807.971	0.0159583
808.049	0.0160030
808.128	0.0160386
808.206	0.0162318
808.284	0.0161494
808.362	0.0161487
808.440	0.0160406
808.518	0.0161229
808.596	0.0161615
808.674	0.0161275
808.753	0.0160361
808.831	0.0160162
808.909	0.0160100
808.987	0.0160246
809.065	0.0158282
809.143	0.0159299
809.221	0.0158412
809.299	0.0157581
809.378	0.0157378
809.456	0.0157751
809.534	0.0157336
809.612	0.0157517
809.690	0.0158458
809.768	0.0156696
809.846	0.0156731
809.924	0.0157150
810.003	0.0158016
810.081	0.0156980
810.159	0.0157481
810.237	0.0157592
810.315	0.0158904
810.393	0.0156560
810.471	0.0157085
810.549	0.0158473
810.628	0.0158388
810.706	0.0158035
810.784	0.0156879
810.862	0.0158747
810.940	0.0159140
811.018	0.0157822
811.096	0.0158751
811.174	0.0158450
811.253	0.0159686
811.331	0.0158615
811.409	0.0160079
811.487	0.0160515
811.565	0.0159009
811.643	0.0160047
811.721	0.0161486
811.799	0.0159869
811.878	0.0160725
811.956	0.0160973
812.034	0.0162046
812.112	0.0160384
812.190	0.0161053
812.268	0.0161785
812.346	0.0162994
812.424	0.0160968
812.503	0.0161342
812.581	0.0162655
812.659	0.0162610
812.737	0.0162930
812.815	0.0159930
812.893	0.0161160
812.971	0.0161202
813.049	0.0160048
813.128	0.0161805
813.206	0.0160931
813.284	0.0160924
813.362	0.0159892
813.440	0.0158192
813.518	0.0158994
813.596	0.0156899
813.674	0.0158955
813.753	0.0158649
813.831	0.0158534
813.909	0.0159113
813.987	0.0156638
814.065	0.0158107
814.143	0.0158955
814.221	0.0158726
814.299	0.0157916
814.378	0.0159321
814.456	0.0158610
814.534	0.0159492
814.612	0.0159000
814.690	0.0159054
814.768	0.0159305
814.846	0.0159035
814.924	0.0158513
815.003	0.0158430
815.081	0.0159348
815.159	0.0158980
815.237	0.0158672
815.315	0.0158176
815.393	0.0158923
815.471	0.0159561
815.549	0.0158371
815.628	0.0159421
815.706	0.0157457
815.784	0.0158690
815.862	0.0157083
815.940	0.0158876
816.018	0.0157560
816.096	0.0157678
816.174	0.0158014
816.253	0.0158678
816.331	0.0157999
816.409	0.0157861
816.487	0.0159063
816.565	0.0158646
816.643	0.0158511
816.721	0.0160384
816.799	0.0159334
816.878	0.0159436
816.956	0.0159361
817.034	0.0161088
817.112	0.0160390
817.190	0.0160772
817.268	0.0159739
817.346	0.0161616
817.424	0.0160779
817.503	0.0160710
817.581	0.0160931
817.659	0.0158910
817.737	0.0159613
817.815	0.0160728
817.893	0.0158882
817.971	0.0158055
818.049	0.0158028
818.128	0.0157829
818.206	0.0158965
818.284	0.0159930
818.362	0.0157782
818.440	0.0158300
818.518	0.0157888
818.596	0.0158141
818.674	0.0158823
818.753	0.0157549
818.831	0.0158244
818.909	0.0158479
818.987	0.0159555
819.065	0.0159071
819.143	0.0159752
819.221	0.0159447
819.299	0.0159764
819.378	0.0160372
819.456	0.0159897
819.534	0.0161006
819.612	0.0160776
819.690	0.0161694
819.768	0.0162527
819.846	0.0162858
819.924	0.0160487
820.003	0.0160612
820.081	0.0162519
820.159	0.0162501
820.237	0.0161461
820.315	0.0160616
820.393	0.0161189
820.471	0.0162052
820.549	0.0160866
820.628	0.0160471
820.706	0.0161226
820.784	0.0160020
820.862	0.0159047
820.940	0.0159679
821.018	0.0160685
821.096	0.0159830
821.174	0.0160574
821.253	0.0157903
821.331	0.0157725
821.409	0.0158645
821.487	0.0159273
821.565	0.0157530
821.643	0.0158118
821.721	0.0158909
821.799	0.0158372
821.878	0.0159278
821.956	0.0159518
822.034	0.0158047
822.112	0.0159231
822.190	0.0159198
822.268	0.0157906
822.346	0.0157179
822.424	0.0157047
822.503	0.0157216
822.581	0.0156554
822.659	0.0156600
822.737	0.0156174
822.815	0.0156746
822.893	0.0156439
822.971	0.0156341
823.049	0.0157032
823.128	0.0155775
823.206	0.0159010
823.284	0.0159447
823.362	0.0159122
823.440	0.0159270
823.518	0.0160963
823.596	0.0161305
823.674	0.0159635
823.753	0.0160078
823.831	0.0161362
823.909	0.0161578
823.987	0.0161513
824.065	0.0161541
824.143	0.0160477
824.221	0.0161219
824.299	0.0160377
824.378	0.0160735
824.456	0.0160343
824.534	0.0160094
824.612	0.0159901
824.690	0.0160007
824.768	0.0158876
824.846	0.0158991
824.924	0.0159462
825.003	0.0159570
825.081	0.0158746
825.159	0.0159100
825.237	0.0158618
825.315	0.0160662
825.393	0.0160252
825.471	0.0160446
825.549	0.0159646
825.628	0.0159375
825.706	0.0159938
825.784	0.0159695
825.862	0.0160458
825.940	0.0159946
826.018	0.0160146
826.096	0.0160678
826.174	0.0161131
826.253	0.0161884
826.331	0.0161247
826.409	0.0160555
826.487	0.0160810
826.565	0.0160177
826.643	0.0160188
826.721	0.0161872
826.799	0.0161224
826.878	0.0160593
826.956	0.0159842
827.034	0.0159109
827.112	0.0160194
827.190	0.0159135
827.268	0.0159007
827.346	0.0157362
827.424	0.0158228
827.503	0.0158070
827.581	0.0158084
827.659	0.0156027
827.737	0.0157574
827.815	0.0157422
827.893	0.0158772
827.971	0.0159550
828.049	0.0158537
828.128	0.0159557
828.206	0.0157792
828.284	0.0159593
828.362	0.0158771
828.440	0.0160578
828.518	0.0160068
828.596	0.0159940
828.674	0.0160578
828.753	0.0159973
828.831	0.0160965
828.909	0.0160694
828.987	0.0161148
829.065	0.0160834
829.143	0.0159592
829.221	0.0160242
829.299	0.0160553
829.378	0.0160268
829.456	0.0160390
829.534	0.0159183
829.612	0.0159145
829.690	0.0158066
829.768	0.0159321
829.846	0.0159569
829.924	0.0159697
830.003	0.0157877
830.081	0.0158167
830.159	0.0158620
830.237	0.0158514
830.315	0.0158720
830.393	0.0157159
830.471	0.0157950
830.549	0.0158863
830.628	0.0158595
830.706	0.0158707
830.784	0.0158618
830.862	0.0158960
830.940	0.0158257
831.018	0.0158241
831.096	0.0158913
831.174	0.0156840
831.253	0.0158400
831.331	0.0157806
831.409	0.0157410
831.487	0.0159409
831.565	0.0158922
831.643	0.0158968
831.721	0.0159411
831.799	0.0158556
831.878	0.0160442
831.956	0.0159412
832.034	0.0159686
832.112	0.0160613
832.190	0.0160751
832.268	0.0159429
832.346	0.0160744
832.424	0.0160914
832.503	0.0160380
832.581	0.0161285
832.659	0.0161865
832.737	0.0161761
832.815	0.0163242
832.893	0.0161702
832.971	0.0161681
833.049	0.0162596
833.128	0.0163124
833.206	0.0162115
833.284	0.0161848
833.362	0.0161585
833.440	0.0160870
833.518	0.0160628
833.596	0.0161076
833.674	0.0159121
833.753	0.0159439
833.831	0.0157719
833.909	0.0157886
833.987	0.0156860
834.065	0.0157153
834.143	0.0157220
834.221	0.0157938
834.299	0.0156445
834.378	0.0154319
834.456	0.0155563
834.534	0.0156102
834.612	0.0156022
834.690	0.0155578
834.768	0.0156084
834.846	0.0159351
834.924	0.0157452
835.003	0.0156852
835.081	0.0158499
835.159	0.0158876
835.237	0.0159837
835.315	0.0159875
835.393	0.0159872
835.471	0.0159908
835.549	0.0160777
835.628	0.0160337
835.706	0.0160680
835.784	0.0160728
835.862	0.0162068
835.940	0.0161601
836.018	0.0159868
836.096	0.0161105
836.174	0.0160879
836.253	0.0158894
836.331	0.0160077
836.409	0.0159531
836.487	0.0160681
836.565	0.0159023
836.643	0.0158598
836.721	0.0161023
836.799	0.0160387
836.878	0.0159414
836.956	0.0159620
837.034	0.0159688
837.112	0.0161610
837.190	0.0161481
837.268	0.0160153
837.346	0.0161118
837.424	0.0158948
837.503	0.0159879
837.581	0.0160247
837.659	0.0160370
837.737	0.0160385
837.815	0.0161143
837.893	0.0159411
837.971	0.0160011
838.049	0.0159463
838.128	0.0158392
838.206	0.0159215
838.284	0.0158607
838.362	0.0159962
838.440	0.0157996
838.518	0.0159164
838.596	0.0156993
838.674	0.0157224
838.753	0.0159444
838.831	0.0158997
838.909	0.0159106
838.987	0.0159248
839.065	0.0159341
839.143	0.0158257
839.221	0.0158614
839.299	0.0159721
839.378	0.0159609
839.456	0.0160076
839.534	0.0160296
839.612	0.0160514
839.690	0.0160615
839.768	0.0161856
839.846	0.0162588
839.924	0.0160532
840.003	0.0160648
840.081	0.0159908
840.159	0.0159898
840.237	0.0161499
840.315	0.0161443
840.393	0.0160246
840.471	0.0160046
840.549	0.0159437
840.628	0.0157836
840.706	0.0157796
840.784	0.0158527
840.862	0.0158039
840.940	0.0156374
841.018	0.0156876
841.096	0.0157632
841.174	0.0156219
841.253	0.0156709
841.331	0.0157710
841.409	0.0158441
841.487	0.0157831
841.565	0.0158828
841.643	0.0157304
841.721	0.0159906
841.799	0.0158299
841.878	0.0159407
841.956	0.0159514
842.034	0.0160909
842.112	0.0160861
842.190	0.0160159
842.268	0.0160479
842.346	0.0161990
842.424	0.0161363
842.503	0.0160920
842.581	0.0161545
842.659	0.0161503
842.737	0.0160645
842.815	0.0161220
842.893	0.0161540
842.971	0.0161209
843.049	0.0159643
843.128	0.0160769
843.206	0.0159745
843.284	0.0160397
843.362	0.0160742
843.440	0.0159579
843.518	0.0160255
843.596	0.0160051
843.674	0.0160074
843.753	0.0159625
843.831	0.0160240
843.909	0.0159207
843.987	0.0159520
844.065	0.0160274
844.143	0.0159743
844.221	0.0159384
844.299	0.0159477
844.378	0.0157597
844.456	0.0159271
844.534	0.0159199
844.612	0.0157178
844.690	0.0158217
844.768	0.0157464
844.846	0.0157215
844.924	0.0156924
845.003	0.0158232
845.081	0.0158035
845.159	0.0156970
845.237	0.0156833
845.315	0.0157561
845.393	0.0157050
845.471	0.0158002
845.549	0.0157990
845.628	0.0156897
845.706	0.0159827
845.784	0.0158929
845.862	0.0158806
845.940	0.0159039
846.018	0.0160525
846.096	0.0159759
846.174	0.0159917
846.253	0.0159763
846.331	0.0160770
846.409	0.0160786
846.487	0.0161281
846.565	0.0161819
846.643	0.0159817
846.721	0.0160914
846.799	0.0162412
846.878	0.0161538
846.956	0.0161846
847.034	0.0162727
847.112	0.0162223
847.190	0.0161211
847.268	0.0160477
847.346	0.0160271
847.424	0.0160338
847.503	0.0160603
847.581	0.0161503
847.659	0.0158961
847.737	0.0159423
847.815	0.0159991
847.893	0.0158665
847.971	0.0160126
848.049	0.0160403
848.128	0.0158096
848.206	0.0160347
848.284	0.0160347
848.362	0.0159830
848.440	0.0160925
848.518	0.0162421
848.596	0.0160265
848.674	0.0159718
848.753	0.0160580
848.831	0.0159084
848.909	0.0160857
848.987	0.0161683
849.065	0.0160515
849.143	0.0159091
849.221	0.0161000
849.299	0.0160566
849.378	0.0159464
849.456	0.0160313
849.534	0.0159546
849.612	0.0159795
849.690	0.0158774
849.768	0.0158688
849.846	0.0159831
849.924	0.0159227
850.003	0.0158378
850.081	0.0158994
850.159	0.0159076
850.237	0.0159402
850.315	0.0159544
850.393	0.0158330
850.471	0.0158474
850.549	0.0158867
850.628	0.0159828
850.706	0.0159560
850.784	0.0159578
850.862	0.0159957
850.940	0.0160536
851.018	0.0159721
851.096	0.0160881
851.174	0.0160297
851.253	0.0159554
851.331	0.0160562
851.409	0.0159459
851.487	0.0159037
851.565	0.0159993
851.643	0.0160044
851.721	0.0159372
851.799	0.0158232
851.878	0.0159406
851.956	0.0160811
852.034	0.0159502
852.112	0.0159141
852.190	0.0159682
852.268	0.0160778
852.346	0.0160635
852.424	0.0160476
852.503	0.0161194
852.581	0.0160739
852.659	0.0160559
852.737	0.0160449
852.815	0.0160646
852.893	0.0159907
852.971	0.0160130
853.049	0.0161491
853.128	0.0162498
853.206	0.0160730
853.284	0.0161568
853.362	0.0161480
853.440	0.0162546
853.518	0.0159909
853.596	0.0159839
853.674	0.0161603
853.753	0.0160617
853.831	0.0160477
853.909	0.0158796
853.987	0.0159068
854.065	0.0159520
854.143	0.0158831
854.221	0.0157693
854.299	0.0158699
854.378	0.0158883
854.456	0.0157718
854.534	0.0158442
854.612	0.0158121
854.690	0.0157867
854.768	0.0157978
854.846	0.0158012
854.924	0.0158459
855.003	0.0158591
855.081	0.0159746
855.159	0.0159009
855.237	0.0157849
855.315	0.0159274
855.393	0.0158806
855.471	0.0159489
855.549	0.0158520
855.628	0.0159660
855.706	0.0160432
855.784	0.0161426
855.862	0.0159521
855.940	0.0160191
856.018	0.0160873
856.096	0.0161508
856.174	0.0160999
856.253	0.0159925
856.331	0.0160114
856.409	0.0161489
856.487	0.0160552
856.565	0.0160461
856.643	0.0160751
856.721	0.0160078
856.799	0.0160920
856.878	0.0160146
856.956	0.0160159
857.034	0.0160698
857.112	0.0159080
857.190	0.0160574
857.268	0.0161408
857.346	0.0160291
857.424	0.0159206
857.503	0.0162384
857.581	0.0160916
857.659	0.0158116
857.737	0.0159895
857.815	0.0160136
857.893	0.0158785
857.971	0.0160391
858.049	0.0160485
858.128	0.0159978
858.206	0.0158430
858.284	0.0159849
858.362	0.0159921
858.440	0.0158534
858.518	0.0157591
858.596	0.0159348
858.674	0.0158795
858.753	0.0158302
858.831	0.0158994
858.909	0.0159654
858.987	0.0158726
859.065	0.0158292
859.143	0.0157657
859.221	0.0158862
859.299	0.0159087
859.378	0.0158817
859.456	0.0159248
859.534	0.0159946
859.612	0.0160471
859.690	0.0160884
859.768	0.0159748
859.846	0.0161297
859.924	0.0161626
860.003	0.0161163
860.081	0.0161042
860.159	0.0161125
860.237	0.0161441
860.315	0.0162877
860.393	0.0161896
860.471	0.0160350
860.549	0.0159629
860.628	0.0160217
860.706	0.0159083
860.784	0.0159389
860.862	0.0159875
860.940	0.0160040
861.018	0.0158701
861.096	0.0158155
861.174	0.0159431
861.253	0.0159100
861.331	0.0157705
861.409	0.0157731
861.487	0.0159184
861.565	0.0157843
861.643	0.0160699
861.721	0.0158435
861.799	0.0159950
861.878	0.0160349
861.956	0.0159510
862.034	0.0159489
862.112	0.0158916
862.190	0.0159665
862.268	0.0160921
862.346	0.0160225
862.424	0.0160809
862.503	0.0161076
862.581	0.0159283
862.659	0.0160380
862.737	0.0159648
862.815	0.0161679
862.893	0.0160843
862.971	0.0160600
863.049	0.0161118
863.128	0.0158094
863.206	0.0159791
863.284	0.0160272
863.362	0.0159438
863.440	0.0158932
863.518	0.0159013
863.596	0.0161259
863.674	0.0160134
863.753	0.0158747
863.831	0.0159795
863.909	0.0159748
863.987	0.0159803
864.065	0.0158814
864.143	0.0159684
864.221	0.0159995
864.299	0.0160319
864.378	0.0158857
864.456	0.0158950
864.534	0.0159528
864.612	0.0158216
864.690	0.0158336
864.768	0.0158571
864.846	0.0160345
864.924	0.0159123
865.003	0.0159619
865.081	0.0159301
865.159	0.0158376
865.237	0.0158383
865.315	0.0158177
865.393	0.0158727
865.471	0.0158540
865.549	0.0158742
865.628	0.0158953
865.706	0.0158688
865.784	0.0159138
865.862	0.0160030
865.940	0.0158341
866.018	0.0160096
866.096	0.0158670
866.174	0.0159962
866.253	0.0160841
866.331	0.0159832
866.409	0.0160255
866.487	0.0160609
866.565	0.0160458
866.643	0.0160962
866.721	0.0160695
866.799	0.0160565
866.878	0.0160922
866.956	0.0161409
867.034	0.0159251
867.112	0.0159266
867.190	0.0161238
867.268	0.0160308
867.346	0.0160356
867.424	0.0159645
867.503	0.0161020
867.581	0.0159311
867.659	0.0159405
867.737	0.0159512
867.815	0.0160213
867.893	0.0159405
867.971	0.0159312
868.049	0.0159648
868.128	0.0159863
868.206	0.0158308
868.284	0.0159389
868.362	0.0159647
868.440	0.0158253
868.518	0.0159391
868.596	0.0161043
868.674	0.0159687
868.753	0.0159330
868.831	0.0159386
868.909	0.0159550
868.987	0.0158799
869.065	0.0161575
869.143	0.0160049
869.221	0.0160368
869.299	0.0161954
869.378	0.0159151
869.456	0.0159808
869.534	0.0159353
869.612	0.0159447
869.690	0.0160659
869.768	0.0161813
869.846	0.0159682
869.924	0.0158673
870.003	0.0159286
870.081	0.0160344
870.159	0.0158975
870.237	0.0158604
870.315	0.0158850
870.393	0.0159288
870.471	0.0158668
870.549	0.0159695
870.628	0.0159589
870.706	0.0159031
870.784	0.0157608
870.862	0.0158578
870.940	0.0159439
871.018	0.0158813
871.096	0.0158369
871.174	0.0158292
871.253	0.0158305
871.331	0.0158864
871.409	0.0159734
871.487	0.0159622
871.565	0.0159586
871.643	0.0158326
871.721	0.0158960
871.799	0.0158410
871.878	0.0158949
871.956	0.0158708
872.034	0.0160155
872.112	0.0159112
872.190	0.0159464
872.268	0.0160549
872.346	0.0159799
872.424	0.0158777
872.503	0.0158182
872.581	0.0159885
872.659	0.0159284
872.737	0.0158981
872.815	0.0159564
872.893	0.0159389
872.971	0.0159962
873.049	0.0160095
873.128	0.0159336
873.206	0.0160190
873.284	0.0161088
873.362	0.0159219
873.440	0.0160580
873.518	0.0161588
873.596	0.0161505
873.674	0.0161124
873.753	0.0160909
873.831	0.0160884
873.909	0.0159903
873.987	0.0159753
874.065	0.0160191
874.143	0.0158569
874.221	0.0159225
874.299	0.0160339
874.378	0.0158934
874.456	0.0159251
874.534	0.0159161
874.612	0.0158546
874.690	0.0158405
874.768	0.0159853
874.846	0.0158068
874.924	0.0157946
875.003	0.0158355
875.081	0.0158204
875.159	0.0158987
875.237	0.0158743
875.315	0.0158981
875.393	0.0158079
875.471	0.0158464
875.549	0.0158185
875.628	0.0158468
875.706	0.0158842
875.784	0.0159314
875.862	0.0159404
875.940	0.0160445
876.018	0.0159432
876.096	0.0158186
876.174	0.0158794
876.253	0.0159547
876.331	0.0159400
876.409	0.0158804
876.487	0.0159832
876.565	0.0157910
876.643	0.0159172
876.721	0.0158192
876.799	0.0159246
876.878	0.0160165
876.956	0.0158506
877.034	0.0159338
877.112	0.0159048
877.190	0.0158634
877.268	0.0159731
877.346	0.0159425
877.424	0.0158075
877.503	0.0157401
877.581	0.0158984
877.659	0.0158733
877.737	0.0159982
877.815	0.0159617
877.893	0.0158842
877.971	0.0161052
878.049	0.0161467
878.128	0.0159847
878.206	0.0159583
878.284	0.0160818
878.362	0.0159664
878.440	0.0160210
878.518	0.0160894
878.596	0.0160307
878.674	0.0160499
878.753	0.0160744
878.831	0.0160762
878.909	0.0159837
878.987	0.0158745
879.065	0.0158855
879.143	0.0160414
879.221	0.0160420
879.299	0.0160294
879.378	0.0158814
879.456	0.0161300
879.534	0.0159838
879.612	0.0159064
879.690	0.0161230
879.768	0.0159901
879.846	0.0159715
879.924	0.0160371
880.003	0.0160083
880.081	0.0159419
880.159	0.0159273
880.237	0.0159457
880.315	0.0160402
880.393	0.0160788
880.471	0.0158949
880.549	0.0159217
880.628	0.0159667
880.706	0.0159731
880.784	0.0159435
880.862	0.0160825
880.940	0.0159708
881.018	0.0158249
881.096	0.0158899
881.174	0.0159521
881.253	0.0157943
881.331	0.0159028
881.409	0.0157731
881.487	0.0157609
881.565	0.0158488
881.643	0.0159452
881.721	0.0157337
881.799	0.0157598
881.878	0.0159425
881.956	0.0159846
882.034	0.0159282
882.112	0.0159557
882.190	0.0161642
882.268	0.0159912
882.346	0.0160705
882.424	0.0159519
882.503	0.0159557
882.581	0.0160962
882.659	0.0161973
882.737	0.0161404
882.815	0.0160500
882.893	0.0159494
882.971	0.0160631
883.049	0.0161174
883.128	0.0161147
883.206	0.0160973
883.284	0.0159608
883.362	0.0159351
883.440	0.0161216
883.518	0.0159899
883.596	0.0159171
883.674	0.0160324
883.753	0.0159491
883.831	0.0160743
883.909	0.0160621
883.987	0.0159826
884.065	0.0160249
884.143	0.0159859
884.221	0.0160110
884.299	0.0160323
884.378	0.0160062
884.456	0.0160971
884.534	0.0161373
884.612	0.0160817
884.690	0.0159045
884.768	0.0161024
884.846	0.0161144
884.924	0.0159148
885.003	0.0158984
885.081	0.0160291
885.159	0.0158945
885.237	0.0160133
885.315	0.0158923
885.393	0.0159666
885.471	0.0158489
885.549	0.0159369
885.628	0.0157986
885.706	0.0158369
885.784	0.0158531
885.862	0.0159080
885.940	0.0160421
886.018	0.0157581
886.096	0.0159530
886.174	0.0159945
886.253	0.0158965
886.331	0.0158375
886.409	0.0159088
886.487	0.0158806
886.565	0.0158885
886.643	0.0159689
886.721	0.0158615
886.799	0.0159229
886.878	0.0159921
886.956	0.0159923
887.034	0.0159509
887.112	0.0160935
887.190	0.0160793
887.268	0.0159822
887.346	0.0160149
887.424	0.0160880
887.503	0.0161150
887.581	0.0161177
887.659	0.0161397
887.737	0.0159911
887.815	0.0160170
887.893	0.0159583
887.971	0.0159100
888.049	0.0159921
888.128	0.0160059
888.206	0.0160918
888.284	0.0159676
888.362	0.0158522
888.440	0.0159884
888.518	0.0159869
888.596	0.0159345
888.674	0.0158797
888.753	0.0158549
888.831	0.0159598
888.909	0.0160574
888.987	0.0161568
889.065	0.0160504
889.143	0.0159486
889.221	0.0160487
889.299	0.0159868
889.378	0.0159702
889.456	0.0160889
889.534	0.0159159
889.612	0.0159681
889.690	0.0159801
889.768	0.0159430
889.846	0.0159216
889.924	0.0159555
890.003	0.0159735
890.081	0.0159367
890.159	0.0158136
890.237	0.0158720
890.315	0.0159535
890.393	0.0158150
890.471	0.0158409
890.549	0.0159543
890.628	0.0159887
890.706	0.0159061
890.784	0.0159547
890.862	0.0158300
890.940	0.0160078
891.018	0.0160149
891.096	0.0160128
891.174	0.0159826
891.253	0.0159632
891.331	0.0159244
891.409	0.0158858
891.487	0.0159232
891.565	0.0160174
891.643	0.0159856
891.721	0.0160375
891.799	0.0159476
891.878	0.0161092
891.956	0.0158726
892.034	0.0158262
892.112	0.0160122
892.190	0.0159029
892.268	0.0160183
892.346	0.0159438
892.424	0.0158656
892.503	0.0160292
892.581	0.0159365
892.659	0.0158615
892.737	0.0158426
892.815	0.0159690
892.893	0.0158914
892.971	0.0159482
893.049	0.0158960
893.128	0.0159389
893.206	0.0160243
893.284	0.0159898
893.362	0.0159418
893.440	0.0159862
893.518	0.0159412
893.596	0.0159130
893.674	0.0159940
893.753	0.0161221
893.831	0.0160764
893.909	0.0160391
893.987	0.0160835
894.065	0.0162026
894.143	0.0159798
894.221	0.0160281
894.299	0.0159472
894.378	0.0162245
894.456	0.0159599
894.534	0.0160996
894.612	0.0160740
894.690	0.0160104
894.768	0.0159614
894.846	0.0159350
894.924	0.0159109
895.003	0.0158246
895.081	0.0159252
895.159	0.0158500
895.237	0.0157404
895.315	0.0160090
895.393	0.0159203
895.471	0.0157707
895.549	0.0160458
895.628	0.0159075
895.706	0.0158250
895.784	0.0159369
895.862	0.0159106
895.940	0.0160140
896.018	0.0160584
896.096	0.0159656
896.174	0.0159702
896.253	0.0159389
896.331	0.0159854
896.409	0.0159185
896.487	0.0159397
896.565	0.0159579
896.643	0.0158689
896.721	0.0159237
896.799	0.0159502
896.878	0.0159625
896.956	0.0159412
897.034	0.0158607
897.112	0.0159785
897.190	0.0159652
897.268	0.0159039
897.346	0.0159284
897.424	0.0159804
897.503	0.0159509
897.581	0.0159705
897.659	0.0160202
897.737	0.0159467
897.815	0.0159663
897.893	0.0158427
897.971	0.0158432
898.049	0.0160842
898.128	0.0160320
898.206	0.0160427
898.284	0.0160035
898.362	0.0159549
898.440	0.0160947
898.518	0.0161057
898.596	0.0159744
898.674	0.0161577
898.753	0.0160200
898.831	0.0160985
898.909	0.0161226
898.987	0.0161136
899.065	0.0160468
899.143	0.0159811
899.221	0.0160841
899.299	0.0159990
899.378	0.0159342
899.456	0.0159813
899.534	0.0159283
899.612	0.0158327
899.690	0.0160268
899.768	0.0158520
899.846	0.0161217
899.924	0.0159935
900.003	0.0159739
900.081	0.0159055
900.159	0.0160041
900.237	0.0159303
900.315	0.0159087
900.393	0.0159380
900.471	0.0159700
900.549	0.0160844
900.628	0.0160766
900.706	0.0159097
900.784	0.0158973
900.862	0.0159550
900.940	0.0159795
901.018	0.0159778
901.096	0.0159921
901.174	0.0159649
901.253	0.0158267
901.331	0.0159055
901.409	0.0158907
901.487	0.0159681
901.565	0.0157831
901.643	0.0159249
901.721	0.0159477
901.799	0.0159570
901.878	0.0158243
901.956	0.0160428
902.034	0.0159679
902.112	0.0159053
902.190	0.0158590
902.268	0.0159899
902.346	0.0160113
902.424	0.0160686
902.503	0.0160887
902.581	0.0160380
902.659	0.0160744
902.737	0.0160580
902.815	0.0161751
902.893	0.0160550
902.971	0.0159042
903.049	0.0161205
903.128	0.0160159
903.206	0.0159284
903.284	0.0159886
903.362	0.0159299
903.440	0.0160255
903.518	0.0158717
903.596	0.0159072
903.674	0.0160221
903.753	0.0159708
903.831	0.0160155
903.909	0.0157491
903.987	0.0159964
904.065	0.0159766
904.143	0.0159653
904.221	0.0160286
904.299	0.0160518
904.378	0.0160782
904.456	0.0158889
904.534	0.0159921
904.612	0.0160587
904.690	0.0159355
904.768	0.0159914
904.846	0.0160677
904.924	0.0162519
905.003	0.0159582
905.081	0.0160733
905.159	0.0160911
905.237	0.0160432
905.315	0.0160133
905.393	0.0157993
905.471	0.0159311
905.549	0.0160631
905.628	0.0160625
905.706	0.0160371
905.784	0.0159537
905.862	0.0159338
905.940	0.0159744
906.018	0.0158871
906.096	0.0159833
906.174	0.0159448
906.253	0.0158041
906.331	0.0158278
906.409	0.0160387
906.487	0.0159482
906.565	0.0160101
906.643	0.0160270
906.721	0.0160422
906.799	0.0158898
906.878	0.0160873
906.956	0.0159409
907.034	0.0160300
907.112	0.0161096
907.190	0.0159468
907.268	0.0160609
907.346	0.0159764
907.424	0.0160482
907.503	0.0161545
907.581	0.0161607
907.659	0.0160609
907.737	0.0159686
907.815	0.0159383
907.893	0.0159766
907.971	0.0160888
908.049	0.0159924
908.128	0.0160083
908.206	0.0159163
908.284	0.0158658
908.362	0.0159994
908.440	0.0160857
908.518	0.0159630
908.596	0.0160372
908.674	0.0159844
908.753	0.0160165
908.831	0.0159984
908.909	0.0160682
908.987	0.0160697
909.065	0.0161604
909.143	0.0161153
909.221	0.0160053
909.299	0.0160816
909.378	0.0161083
909.456	0.0161001
909.534	0.0159626
909.612	0.0160284
909.690	0.0161699
909.768	0.0159279
909.846	0.0161366
909.924	0.0160112
910.003	0.0159381
910.081	0.0159949
910.159	0.0159122
910.237	0.0159724
910.315	0.0159800
910.393	0.0159101
910.471	0.0158987
910.549	0.0159474
910.628	0.0158599
910.706	0.0158176
910.784	0.0160127
910.862	0.0158198
910.940	0.0158686
911.018	0.0158203
911.096	0.0159322
911.174	0.0159926
911.253	0.0160040
911.331	0.0160062
911.409	0.0159518
911.487	0.0161190
911.565	0.0160127
911.643	0.0159084
911.721	0.0159859
911.799	0.0162000
911.878	0.0160148
911.956	0.0159451
912.034	0.0159798
912.112	0.0161280
912.190	0.0161150
912.268	0.0160222
912.346	0.0158655
912.424	0.0159247
912.503	0.0159229
912.581	0.0159235
912.659	0.0160329
912.737	0.0159863
912.815	0.0158495
912.893	0.0158358
912.971	0.0157978
913.049	0.0158546
913.128	0.0158859
913.206	0.0158907
913.284	0.0159638
913.362	0.0160830
913.440	0.0159167
913.518	0.0159511
913.596	0.0160205
913.674	0.0159079
913.753	0.0159119
913.831	0.0160270
913.909	0.0160227
913.987	0.0159871
914.065	0.0160527
914.143	0.0160289
914.221	0.0161329
914.299	0.0160876
914.378	0.0159752
914.456	0.0161488
914.534	0.0161162
914.612	0.0159982
914.690	0.0161702
914.768	0.0160928
914.846	0.0159561
914.924	0.0161420
915.003	0.0160033
915.081	0.0160942
915.159	0.0161482
915.237	0.0160218
915.315	0.0159018
915.393	0.0160767
915.471	0.0161872
915.549	0.0160170
915.628	0.0160214
915.706	0.0160410
915.784	0.0160886
915.862	0.0158586
915.940	0.0158971
916.018	0.0159144
916.096	0.0160131
916.174	0.0159157
916.253	0.0159379
916.331	0.0157397
916.409	0.0158028
916.487	0.0159094
916.565	0.0158282
916.643	0.0158519
916.721	0.0159041
916.799	0.0157568
916.878	0.0159100
916.956	0.0159572
917.034	0.0158219
917.112	0.0157207
917.190	0.0158768
917.268	0.0158681
917.346	0.0159756
917.424	0.0158391
917.503	0.0158699
917.581	0.0160519
917.659	0.0159145
917.737	0.0159603
917.815	0.0159651
917.893	0.0159083
917.971	0.0159324
918.049	0.0159167
918.128	0.0159984
918.206	0.0159920
918.284	0.0159981
918.362	0.0160485
918.440	0.0160251
918.518	0.0160252
918.596	0.0161241
918.674	0.0160511
918.753	0.0158685
918.831	0.0159650
918.909	0.0159590
918.987	0.0160738
919.065	0.0161011
919.143	0.0159306
919.221	0.0160503
919.299	0.0160632
919.378	0.0160011
919.456	0.0159812
919.534	0.0159285
919.612	0.0159577
919.690	0.0159624
919.768	0.0160961
919.846	0.0159586
919.924	0.0157653
920.003	0.0160429
920.081	0.0161218
920.159	0.0159348
920.237	0.0159452
920.315	0.0159747
920.393	0.0158514
920.471	0.0159363
920.549	0.0159447
920.628	0.0159536
920.706	0.0159698
920.784	0.0159263
920.862	0.0160387
920.940	0.0160516
921.018	0.0160334
921.096	0.0161487
921.174	0.0160447
921.253	0.0161588
921.331	0.0160204
921.409	0.0158525
921.487	0.0159763
921.565	0.0160910
921.643	0.0159896
921.721	0.0159599
921.799	0.0158456
921.878	0.0159605
921.956	0.0159495
922.034	0.0158813
922.112	0.0158932
922.190	0.0158405
922.268	0.0160101
922.346	0.0159815
922.424	0.0158986
922.503	0.0158465
922.581	0.0159036
922.659	0.0159674
922.737	0.0158613
922.815	0.0158965
922.893	0.0159146
922.971	0.0160191
923.049	0.0160762
923.128	0.0161473
923.206	0.0160802
923.284	0.0159986
923.362	0.0159109
923.440	0.0161520
923.518	0.0160294
923.596	0.0161530
923.674	0.0159873
923.753	0.0161177
923.831	0.0161147
923.909	0.0160022
923.987	0.0160880
924.065	0.0159754
924.143	0.0160287
924.221	0.0160599
924.299	0.0158573
924.378	0.0159150
924.456	0.0158932
924.534	0.0157460
924.612	0.0158051
924.690	0.0160395
924.768	0.0158109
924.846	0.0159323
924.924	0.0158636
925.003	0.0158813
925.081	0.0158669
925.159	0.0159285
925.237	0.0158836
925.315	0.0158560
925.393	0.0158001
925.471	0.0158989
925.549	0.0159364
925.628	0.0160454
925.706	0.0158913
925.784	0.0160244
925.862	0.0158884
925.940	0.0159729
926.018	0.0160908
926.096	0.0161337
926.174	0.0160708
926.253	0.0159560
926.331	0.0159934
926.409	0.0159538
926.487	0.0159499
926.565	0.0161078
926.643	0.0160395
926.721	0.0161762
926.799	0.0159987
926.878	0.0161001
926.956	0.0161449
927.034	0.0159290
927.112	0.0159850
927.190	0.0159150
927.268	0.0159198
927.346	0.0159606
927.424	0.0160557
927.503	0.0159077
927.581	0.0159727
927.659	0.0158525
927.737	0.0158731
927.815	0.0159045
927.893	0.0159339
927.971	0.0161426
928.049	0.0159744
928.128	0.0159650
928.206	0.0159837
928.284	0.0160091
928.362	0.0160159
928.440	0.0159283
928.518	0.0159267
928.596	0.0159100
928.674	0.0158813
928.753	0.0158758
928.831	0.0158259
928.909	0.0158651
928.987	0.0157246
929.065	0.0159370
929.143	0.0158556
929.221	0.0158155
929.299	0.0160610
929.378	0.0159357
929.456	0.0159605
929.534	0.0160256
929.612	0.0158829
929.690	0.0159828
929.768	0.0161320
929.846	0.0160005
929.924	0.0159863
930.003	0.0160574
930.081	0.0161293
930.159	0.0159235
930.237	0.0160104
930.315	0.0161555
930.393	0.0161394
930.471	0.0159716
930.549	0.0160536
930.628	0.0161106
930.706	0.0160167
930.784	0.0159830
930.862	0.0160932
930.940	0.0160609
931.018	0.0159409
931.096	0.0159830
931.174	0.0159924
931.253	0.0159127
931.331	0.0159668
931.409	0.0158209
931.487	0.0159454
931.565	0.0159037
931.643	0.0160117
931.721	0.0160246
931.799	0.0159634
931.878	0.0159344
931.956	0.0159103
932.034	0.0159471
932.112	0.0158886
932.190	0.0158668
932.268	0.0158002
932.346	0.0158952
932.424	0.0159469
932.503	0.0160110
932.581	0.0161720
932.659	0.0158221
932.737	0.0159515
932.815	0.0159904
932.893	0.0160326
932.971	0.0159820
933.049	0.0160109
933.128	0.0159766
933.206	0.0160659
933.284	0.0160149
933.362	0.0160468
933.440	0.0159348
933.518	0.0158610
933.596	0.0159956
933.674	0.0159375
933.753	0.0159187
933.831	0.0158993
933.909	0.0160416
933.987	0.0159550
934.065	0.0159559
934.143	0.0157984
934.221	0.0159615
934.299	0.0158953
934.378	0.0161269
934.456	0.0159452
934.534	0.0158215
934.612	0.0158463
934.690	0.0159453
934.768	0.0159575
934.846	0.0159926
934.924	0.0159629
935.003	0.0160053
935.081	0.0159166
935.159	0.0158646
935.237	0.0160300
935.315	0.0159295
935.393	0.0159647
935.471	0.0159351
935.549	0.0159563
935.628	0.0158517
935.706	0.0159061
935.784	0.0157763
935.862	0.0159025
935.940	0.0159262
936.018	0.0160289
936.096	0.0160001
936.174	0.0158753
936.253	0.0160115
936.331	0.0159454
936.409	0.0158743
936.487	0.0159753
936.565	0.0159522
936.643	0.0160417
936.721	0.0160883
936.799	0.0160859
936.878	0.0159368
936.956	0.0160683
937.034	0.0160445
937.112	0.0161285
937.190	0.0159441
937.268	0.0159774
937.346	0.0158671
937.424	0.0158495
937.503	0.0158384
937.581	0.0158833
937.659	0.0159704
937.737	0.0159177
937.815	0.0159615
937.893	0.0158906
937.971	0.0158038
938.049	0.0158381
938.128	0.0159682
938.206	0.0158502
938.284	0.0158373
938.362	0.0157912
938.440	0.0159329
938.518	0.0159904
938.596	0.0160538
938.674	0.0159406
938.753	0.0158883
938.831	0.0158638
938.909	0.0158440
938.987	0.0159620
939.065	0.0160462
939.143	0.0159777
939.221	0.0159533
939.299	0.0157697
939.378	0.0159920
939.456	0.0159657
939.534	0.0159450
939.612	0.0158980
939.690	0.0159448
939.768	0.0159511
939.846	0.0159381
939.924	0.0160065
940.003	0.0158781
940.081	0.0159566
940.159	0.0159684
940.237	0.0160794
940.315	0.0159328
940.393	0.0159573
940.471	0.0159647
940.549	0.0158540
940.628	0.0158232
940.706	0.0160021
940.784	0.0158895
940.862	0.0158739
940.940	0.0158213
941.018	0.0159441
941.096	0.0159406
941.174	0.0159239
941.253	0.0159390
941.331	0.0160306
941.409	0.0158326
941.487	0.0158886
941.565	0.0159530
941.643	0.0158551
941.721	0.0159168
941.799	0.0159301
941.878	0.0160296
941.956	0.0159451
942.034	0.0160283
942.112	0.0161544
942.190	0.0159676
942.268	0.0160129
942.346	0.0159041
942.424	0.0159902
942.503	0.0160373
942.581	0.0160525
942.659	0.0160111
942.737	0.0159100
942.815	0.0159229
942.893	0.0159554
942.971	0.0160513
943.049	0.0159620
943.128	0.0158417
943.206	0.0159679
943.284	0.0158707
943.362	0.0158286
943.440	0.0159950
943.518	0.0160362
943.596	0.0160728
943.674	0.0161800
943.753	0.0161438
943.831	0.0160868
943.909	0.0162118
943.987	0.0161622
944.065	0.0161189
944.143	0.0161005
944.221	0.0160937
944.299	0.0160157
944.378	0.0160505
944.456	0.0159689
944.534	0.0160584
944.612	0.0159842
944.690	0.0158920
944.768	0.0159423
944.846	0.0159933
944.924	0.0158630
945.003	0.0159464
945.081	0.0158414
945.159	0.0158398
945.237	0.0158096
945.315	0.0158483
945.393	0.0161231
945.471	0.0160347
945.549	0.0159695
945.628	0.0157472
945.706	0.0158797
945.784	0.0160109
945.862	0.0160158
945.940	0.0159332
946.018	0.0157581
946.096	0.0158708
946.174	0.0158317
946.253	0.0159611
946.331	0.0158308
946.409	0.0159429
946.487	0.0158401
946.565	0.0160047
946.643	0.0159991
946.721	0.0158918
946.799	0.0158398
946.878	0.0158602
946.956	0.0158080
947.034	0.0159109
947.112	0.0159132
947.190	0.0160071
947.268	0.0160402
947.346	0.0158999
947.424	0.0159504
947.503	0.0160054
947.581	0.0160001
947.659	0.0159757
947.737	0.0160601
947.815	0.0159103
947.893	0.0159438
947.971	0.0161967
948.049	0.0160387
948.128	0.0159659
948.206	0.0160701
948.284	0.0161340
948.362	0.0159525
948.440	0.0158659
948.518	0.0158858
948.596	0.0160272
948.674	0.0159874
948.753	0.0158627
948.831	0.0158599
948.909	0.0159872
948.987	0.0160284
949.065	0.0159370
949.143	0.0158938
949.221	0.0160238
949.299	0.0161045
949.378	0.0161057
949.456	0.0160857
949.534	0.0159415
949.612	0.0160888
949.690	0.0161787
949.768	0.0161187
949.846	0.0160583
949.924	0.0159809
