06/29/2022	23:06:21	Ver.	4.1	UNKNOWN
Optical Delay	630.002507	Delta X		0.078125	Sweeps	1	Scan Rate	0/0
Coordinates	Axis 1	NaN	Axis 2	NaN	Axis 3	NaN	Axis 4	NaN	Axis 5	NaN	Axis 6	0.000000
TX Power	0.000000	RX Power	0.000000

630.003	0.0154539
630.081	0.0155513
630.159	0.0155520
630.237	0.0154710
630.315	0.0154192
630.393	0.0154701
630.471	0.0155901
630.549	0.0154391
630.628	0.0154490
630.706	0.0154156
630.784	0.0154353
630.862	0.0154601
630.940	0.0155560
631.018	0.0155401
631.096	0.0153933
631.174	0.0154652
631.253	0.0154901
631.331	0.0153257
631.409	0.0153348
631.487	0.0154538
631.565	0.0154416
631.643	0.0155087
631.721	0.0154454
631.799	0.0154507
631.878	0.0155987
631.956	0.0155447
632.034	0.0155491
632.112	0.0154588
632.190	0.0154353
632.268	0.0155013
632.346	0.0153397
632.424	0.0153322
632.503	0.0155233
632.581	0.0155152
632.659	0.0154591
632.737	0.0154200
632.815	0.0154350
632.893	0.0155413
632.971	0.0155592
633.049	0.0155358
633.128	0.0154174
633.206	0.0153522
633.284	0.0154524
633.362	0.0154248
633.440	0.0152606
633.518	0.0155106
633.596	0.0153947
633.674	0.0155221
633.753	0.0155081
633.831	0.0153186
633.909	0.0156100
633.987	0.0154916
634.065	0.0153575
634.143	0.0154113
634.221	0.0155613
634.299	0.0155053
634.378	0.0153986
634.456	0.0155474
634.534	0.0155711
634.612	0.0154392
634.690	0.0153597
634.768	0.0154537
634.846	0.0155096
634.924	0.0154705
635.003	0.0154475
635.081	0.0155429
635.159	0.0154910
635.237	0.0153692
635.315	0.0154254
635.393	0.0154018
635.471	0.0154726
635.549	0.0154050
635.628	0.0155145
635.706	0.0154376
635.784	0.0153952
635.862	0.0154782
635.940	0.0154432
636.018	0.0154948
636.096	0.0154404
636.174	0.0153263
636.253	0.0153177
636.331	0.0154636
636.409	0.0154250
636.487	0.0155349
636.565	0.0154919
636.643	0.0153031
636.721	0.0154930
636.799	0.0155034
636.878	0.0154523
636.956	0.0153525
637.034	0.0153951
637.112	0.0154423
637.190	0.0153544
637.268	0.0155073
637.346	0.0155262
637.424	0.0155235
637.503	0.0153161
637.581	0.0153816
637.659	0.0154262
637.737	0.0154485
637.815	0.0154342
637.893	0.0153433
637.971	0.0154546
638.049	0.0155219
638.128	0.0155489
638.206	0.0154108
638.284	0.0153962
638.362	0.0154753
638.440	0.0154630
638.518	0.0155138
638.596	0.0154153
638.674	0.0153904
638.753	0.0154893
638.831	0.0154294
638.909	0.0155075
638.987	0.0155272
639.065	0.0153676
639.143	0.0155045
639.221	0.0156392
639.299	0.0154602
639.378	0.0153387
639.456	0.0153953
639.534	0.0154305
639.612	0.0153680
639.690	0.0155840
639.768	0.0152446
639.846	0.0153825
639.924	0.0155145
640.003	0.0154961
640.081	0.0152561
640.159	0.0154662
640.237	0.0154285
640.315	0.0154385
640.393	0.0154423
640.471	0.0155779
640.549	0.0154408
640.628	0.0154341
640.706	0.0154255
640.784	0.0153771
640.862	0.0155547
640.940	0.0154273
641.018	0.0155224
641.096	0.0154608
641.174	0.0154559
641.253	0.0154643
641.331	0.0154010
641.409	0.0153442
641.487	0.0154642
641.565	0.0154704
641.643	0.0155553
641.721	0.0156248
641.799	0.0155453
641.878	0.0154652
641.956	0.0154726
642.034	0.0153582
642.112	0.0153825
642.190	0.0154903
642.268	0.0153759
642.346	0.0154694
642.424	0.0155298
642.503	0.0154995
642.581	0.0153699
642.659	0.0155132
642.737	0.0155179
642.815	0.0154575
642.893	0.0153812
642.971	0.0153717
643.049	0.0155260
643.128	0.0155483
643.206	0.0155415
643.284	0.0154809
643.362	0.0154395
643.440	0.0153654
643.518	0.0154453
643.596	0.0154871
643.674	0.0154317
643.753	0.0153928
643.831	0.0156293
643.909	0.0154590
643.987	0.0154373
644.065	0.0154748
644.143	0.0153474
644.221	0.0153843
644.299	0.0154559
644.378	0.0155331
644.456	0.0155992
644.534	0.0156145
644.612	0.0154637
644.690	0.0153792
644.768	0.0154427
644.846	0.0154420
644.924	0.0153599
645.003	0.0154659
645.081	0.0155731
645.159	0.0154205
645.237	0.0155865
645.315	0.0155049
645.393	0.0154123
645.471	0.0153841
645.549	0.0154241
645.628	0.0154285
645.706	0.0155077
645.784	0.0154601
645.862	0.0155160
645.940	0.0154888
646.018	0.0155629
646.096	0.0154782
646.174	0.0153070
646.253	0.0154375
646.331	0.0154362
646.409	0.0154527
646.487	0.0155820
646.565	0.0155038
646.643	0.0155531
646.721	0.0154981
646.799	0.0154623
646.878	0.0153803
646.956	0.0156052
647.034	0.0154561
647.112	0.0154659
647.190	0.0153224
647.268	0.0154764
647.346	0.0155585
647.424	0.0154441
647.503	0.0153667
647.581	0.0154173
647.659	0.0155283
647.737	0.0154459
647.815	0.0155361
647.893	0.0154465
647.971	0.0154446
648.049	0.0154539
648.128	0.0154800
648.206	0.0153627
648.284	0.0154201
648.362	0.0154979
648.440	0.0154596
648.518	0.0154021
648.596	0.0155318
648.674	0.0154901
648.753	0.0155705
648.831	0.0155517
648.909	0.0154366
648.987	0.0154420
649.065	0.0154023
649.143	0.0154279
649.221	0.0153875
649.299	0.0154251
649.378	0.0154144
649.456	0.0155570
649.534	0.0153633
649.612	0.0153777
649.690	0.0154951
649.768	0.0155466
649.846	0.0154781
649.924	0.0154607
650.003	0.0154581
650.081	0.0155105
650.159	0.0155561
650.237	0.0153532
650.315	0.0153893
650.393	0.0154469
650.471	0.0153873
650.549	0.0154833
650.628	0.0154156
650.706	0.0154589
650.784	0.0156035
650.862	0.0154900
650.940	0.0154247
651.018	0.0154722
651.096	0.0154012
651.174	0.0154913
651.253	0.0154683
651.331	0.0155148
651.409	0.0154649
651.487	0.0154561
651.565	0.0153922
651.643	0.0154451
651.721	0.0154510
651.799	0.0154638
651.878	0.0155531
651.956	0.0155202
652.034	0.0155420
652.112	0.0154974
652.190	0.0155213
652.268	0.0155240
652.346	0.0153820
652.424	0.0154992
652.503	0.0155556
652.581	0.0153980
652.659	0.0155534
652.737	0.0154925
652.815	0.0153784
652.893	0.0154733
652.971	0.0155043
653.049	0.0153338
653.128	0.0155345
653.206	0.0156047
653.284	0.0153935
653.362	0.0155271
653.440	0.0155286
653.518	0.0155138
653.596	0.0153928
653.674	0.0154299
653.753	0.0155830
653.831	0.0155350
653.909	0.0154035
653.987	0.0154767
654.065	0.0154412
654.143	0.0154670
654.221	0.0156738
654.299	0.0155275
654.378	0.0154519
654.456	0.0154362
654.534	0.0155604
654.612	0.0153387
654.690	0.0154528
654.768	0.0155010
654.846	0.0154012
654.924	0.0153743
655.003	0.0153864
655.081	0.0154271
655.159	0.0153933
655.237	0.0155221
655.315	0.0154951
655.393	0.0155320
655.471	0.0153135
655.549	0.0153057
655.628	0.0155095
655.706	0.0155534
655.784	0.0152836
655.862	0.0154244
655.940	0.0153804
656.018	0.0154381
656.096	0.0156115
656.174	0.0154423
656.253	0.0154638
656.331	0.0154071
656.409	0.0154459
656.487	0.0155817
656.565	0.0154327
656.643	0.0153950
656.721	0.0156077
656.799	0.0154185
656.878	0.0154028
656.956	0.0155676
657.034	0.0153812
657.112	0.0154211
657.190	0.0154952
657.268	0.0154622
657.346	0.0155025
657.424	0.0154831
657.503	0.0154653
657.581	0.0154276
657.659	0.0155383
657.737	0.0155255
657.815	0.0154862
657.893	0.0155875
657.971	0.0155411
658.049	0.0155349
658.128	0.0155836
658.206	0.0154436
658.284	0.0154321
658.362	0.0154832
658.440	0.0154575
658.518	0.0154877
658.596	0.0154021
658.674	0.0153787
658.753	0.0155231
658.831	0.0154912
658.909	0.0154967
658.987	0.0154649
659.065	0.0154539
659.143	0.0154821
659.221	0.0155633
659.299	0.0153830
659.378	0.0155610
659.456	0.0154764
659.534	0.0155217
659.612	0.0154644
659.690	0.0155228
659.768	0.0154947
659.846	0.0154919
659.924	0.0154857
660.003	0.0154812
660.081	0.0155256
660.159	0.0154552
660.237	0.0154807
660.315	0.0153369
660.393	0.0154967
660.471	0.0154793
660.549	0.0154214
660.628	0.0154745
660.706	0.0156205
660.784	0.0155414
660.862	0.0153970
660.940	0.0154370
661.018	0.0154906
661.096	0.0154411
661.174	0.0154590
661.253	0.0155340
661.331	0.0156168
661.409	0.0155203
661.487	0.0155188
661.565	0.0154376
661.643	0.0154776
661.721	0.0154946
661.799	0.0156215
661.878	0.0155162
661.956	0.0155475
662.034	0.0155842
662.112	0.0155087
662.190	0.0156048
662.268	0.0154998
662.346	0.0154853
662.424	0.0154803
662.503	0.0154866
662.581	0.0155152
662.659	0.0155576
662.737	0.0155395
662.815	0.0153925
662.893	0.0154855
662.971	0.0154449
663.049	0.0153991
663.128	0.0154485
663.206	0.0154281
663.284	0.0153808
663.362	0.0153062
663.440	0.0154256
663.518	0.0154276
663.596	0.0154387
663.674	0.0154273
663.753	0.0153371
663.831	0.0154098
663.909	0.0154430
663.987	0.0154431
664.065	0.0156159
664.143	0.0153973
664.221	0.0153974
664.299	0.0153671
664.378	0.0153704
664.456	0.0153857
664.534	0.0153867
664.612	0.0153807
664.690	0.0153742
664.768	0.0153902
664.846	0.0154702
664.924	0.0153807
665.003	0.0154623
665.081	0.0155539
665.159	0.0153162
665.237	0.0154556
665.315	0.0154687
665.393	0.0154797
665.471	0.0155579
665.549	0.0154679
665.628	0.0154646
665.706	0.0155792
665.784	0.0155516
665.862	0.0154333
665.940	0.0154108
666.018	0.0155574
666.096	0.0155676
666.174	0.0153929
666.253	0.0154255
666.331	0.0154890
666.409	0.0154419
666.487	0.0157132
666.565	0.0156528
666.643	0.0155090
666.721	0.0154809
666.799	0.0154563
666.878	0.0156099
666.956	0.0155436
667.034	0.0155547
667.112	0.0154642
667.190	0.0155646
667.268	0.0154483
667.346	0.0155784
667.424	0.0155434
667.503	0.0156541
667.581	0.0154505
667.659	0.0154266
667.737	0.0154961
667.815	0.0155744
667.893	0.0154787
667.971	0.0155092
668.049	0.0153734
668.128	0.0155317
668.206	0.0153677
668.284	0.0154664
668.362	0.0154799
668.440	0.0153593
668.518	0.0154594
668.596	0.0154319
668.674	0.0155444
668.753	0.0155140
668.831	0.0155911
668.909	0.0154531
668.987	0.0154236
669.065	0.0154292
669.143	0.0153761
669.221	0.0155193
669.299	0.0155364
669.378	0.0155334
669.456	0.0153752
669.534	0.0153893
669.612	0.0155117
669.690	0.0155466
669.768	0.0155524
669.846	0.0155310
669.924	0.0155106
670.003	0.0155225
670.081	0.0154025
670.159	0.0153410
670.237	0.0155350
670.315	0.0154843
670.393	0.0154575
670.471	0.0154012
670.549	0.0155495
670.628	0.0155389
670.706	0.0155186
670.784	0.0153881
670.862	0.0153359
670.940	0.0155250
671.018	0.0155239
671.096	0.0154659
671.174	0.0156011
671.253	0.0154166
671.331	0.0154408
671.409	0.0153076
671.487	0.0154167
671.565	0.0154987
671.643	0.0155011
671.721	0.0154327
671.799	0.0153016
671.878	0.0153830
671.956	0.0155453
672.034	0.0155840
672.112	0.0156467
672.190	0.0155884
672.268	0.0154218
672.346	0.0156152
672.424	0.0155732
672.503	0.0156273
672.581	0.0155414
672.659	0.0155141
672.737	0.0154095
672.815	0.0155002
672.893	0.0155160
672.971	0.0154367
673.049	0.0155195
673.128	0.0155585
673.206	0.0154189
673.284	0.0153233
673.362	0.0154580
673.440	0.0154652
673.518	0.0154567
673.596	0.0154066
673.674	0.0154439
673.753	0.0154820
673.831	0.0155198
673.909	0.0155388
673.987	0.0155478
674.065	0.0155423
674.143	0.0154649
674.221	0.0156196
674.299	0.0155885
674.378	0.0155342
674.456	0.0153783
674.534	0.0155124
674.612	0.0155006
674.690	0.0154975
674.768	0.0155085
674.846	0.0154105
674.924	0.0155505
675.003	0.0154710
675.081	0.0154437
675.159	0.0154919
675.237	0.0154074
675.315	0.0153161
675.393	0.0155301
675.471	0.0155451
675.549	0.0155605
675.628	0.0155218
675.706	0.0155593
675.784	0.0155965
675.862	0.0154694
675.940	0.0155306
676.018	0.0154781
676.096	0.0156280
676.174	0.0155682
676.253	0.0154428
676.331	0.0154988
676.409	0.0155527
676.487	0.0153836
676.565	0.0153928
676.643	0.0155741
676.721	0.0154749
676.799	0.0153982
676.878	0.0153020
676.956	0.0154442
677.034	0.0153548
677.112	0.0154320
677.190	0.0155009
677.268	0.0154775
677.346	0.0155014
677.424	0.0153654
677.503	0.0154906
677.581	0.0155937
677.659	0.0154633
677.737	0.0154578
677.815	0.0156139
677.893	0.0155185
677.971	0.0155083
678.049	0.0155111
678.128	0.0155485
678.206	0.0155645
678.284	0.0154118
678.362	0.0153963
678.440	0.0152765
678.518	0.0154327
678.596	0.0153537
678.674	0.0153352
678.753	0.0154120
678.831	0.0155096
678.909	0.0153223
678.987	0.0154492
679.065	0.0154274
679.143	0.0154600
679.221	0.0154368
679.299	0.0153755
679.378	0.0155186
679.456	0.0154370
679.534	0.0154643
679.612	0.0155141
679.690	0.0155949
679.768	0.0153292
679.846	0.0155531
679.924	0.0155402
680.003	0.0154738
680.081	0.0154475
680.159	0.0154681
680.237	0.0154392
680.315	0.0153004
680.393	0.0153996
680.471	0.0155003
680.549	0.0154579
680.628	0.0153812
680.706	0.0153990
680.784	0.0154207
680.862	0.0152505
680.940	0.0154763
681.018	0.0155388
681.096	0.0153857
681.174	0.0154194
681.253	0.0154006
681.331	0.0155138
681.409	0.0155175
681.487	0.0155104
681.565	0.0155488
681.643	0.0154644
681.721	0.0154989
681.799	0.0154854
681.878	0.0155315
681.956	0.0155051
682.034	0.0154013
682.112	0.0154804
682.190	0.0155331
682.268	0.0153258
682.346	0.0154151
682.424	0.0153069
682.503	0.0152573
682.581	0.0154085
682.659	0.0152824
682.737	0.0154530
682.815	0.0155565
682.893	0.0153964
682.971	0.0155744
683.049	0.0155676
683.128	0.0156080
683.206	0.0154204
683.284	0.0155078
683.362	0.0155997
683.440	0.0155457
683.518	0.0156950
683.596	0.0154961
683.674	0.0155270
683.753	0.0155026
683.831	0.0154765
683.909	0.0154705
683.987	0.0154263
684.065	0.0153979
684.143	0.0153323
684.221	0.0153971
684.299	0.0153410
684.378	0.0153021
684.456	0.0153006
684.534	0.0153557
684.612	0.0154126
684.690	0.0154479
684.768	0.0155561
684.846	0.0155818
684.924	0.0154854
685.003	0.0154882
685.081	0.0154993
685.159	0.0155674
685.237	0.0154899
685.315	0.0155447
685.393	0.0155238
685.471	0.0153663
685.549	0.0153770
685.628	0.0154189
685.706	0.0154555
685.784	0.0154062
685.862	0.0154494
685.940	0.0153700
686.018	0.0153924
686.096	0.0154012
686.174	0.0154871
686.253	0.0153723
686.331	0.0155069
686.409	0.0157253
686.487	0.0155350
686.565	0.0154686
686.643	0.0156467
686.721	0.0154478
686.799	0.0155004
686.878	0.0155417
686.956	0.0155938
687.034	0.0156561
687.112	0.0153786
687.190	0.0154795
687.268	0.0153201
687.346	0.0155019
687.424	0.0155170
687.503	0.0153690
687.581	0.0154189
687.659	0.0155167
687.737	0.0155933
687.815	0.0155355
687.893	0.0154665
687.971	0.0155121
688.049	0.0157297
688.128	0.0154012
688.206	0.0156069
688.284	0.0155548
688.362	0.0155131
688.440	0.0155052
688.518	0.0156673
688.596	0.0155497
688.674	0.0154552
688.753	0.0155373
688.831	0.0154770
688.909	0.0154791
688.987	0.0154868
689.065	0.0154459
689.143	0.0155611
689.221	0.0153526
689.299	0.0155350
689.378	0.0153841
689.456	0.0153885
689.534	0.0155310
689.612	0.0154632
689.690	0.0155347
689.768	0.0156926
689.846	0.0156484
689.924	0.0155829
690.003	0.0156123
690.081	0.0156497
690.159	0.0154362
690.237	0.0156339
690.315	0.0157161
690.393	0.0156213
690.471	0.0155160
690.549	0.0156133
690.628	0.0155441
690.706	0.0153870
690.784	0.0153761
690.862	0.0154441
690.940	0.0154057
691.018	0.0153502
691.096	0.0154586
691.174	0.0154195
691.253	0.0155151
691.331	0.0155062
691.409	0.0154492
691.487	0.0154167
691.565	0.0154841
691.643	0.0155214
691.721	0.0154684
691.799	0.0155000
691.878	0.0155627
691.956	0.0156060
692.034	0.0155118
692.112	0.0154243
692.190	0.0155633
692.268	0.0155350
692.346	0.0153650
692.424	0.0155199
692.503	0.0153493
692.581	0.0153988
692.659	0.0154410
692.737	0.0153370
692.815	0.0153185
692.893	0.0152168
692.971	0.0154453
693.049	0.0153354
693.128	0.0154015
693.206	0.0153442
693.284	0.0154131
693.362	0.0154744
693.440	0.0154684
693.518	0.0156027
693.596	0.0155573
693.674	0.0154885
693.753	0.0154844
693.831	0.0156119
693.909	0.0155273
693.987	0.0155005
694.065	0.0155399
694.143	0.0154411
694.221	0.0155379
694.299	0.0153971
694.378	0.0154406
694.456	0.0153983
694.534	0.0154704
694.612	0.0153879
694.690	0.0154060
694.768	0.0153130
694.846	0.0152509
694.924	0.0155109
695.003	0.0153820
695.081	0.0153767
695.159	0.0154082
695.237	0.0154494
695.315	0.0154814
695.393	0.0153750
695.471	0.0154391
695.549	0.0155138
695.628	0.0153955
695.706	0.0155404
695.784	0.0153960
695.862	0.0153252
695.940	0.0154093
696.018	0.0154240
696.096	0.0153361
696.174	0.0154887
696.253	0.0154397
696.331	0.0153618
696.409	0.0154539
696.487	0.0154356
696.565	0.0154056
696.643	0.0154199
696.721	0.0155289
696.799	0.0155696
696.878	0.0155817
696.956	0.0154596
697.034	0.0155138
697.112	0.0156227
697.190	0.0155458
697.268	0.0154107
697.346	0.0155346
697.424	0.0156461
697.503	0.0153915
697.581	0.0154502
697.659	0.0155441
697.737	0.0154616
697.815	0.0154414
697.893	0.0154066
697.971	0.0155209
698.049	0.0155038
698.128	0.0154949
698.206	0.0154556
698.284	0.0154087
698.362	0.0154129
698.440	0.0154810
698.518	0.0154910
698.596	0.0154922
698.674	0.0154935
698.753	0.0155253
698.831	0.0155374
698.909	0.0155090
698.987	0.0154468
699.065	0.0154598
699.143	0.0154757
699.221	0.0153775
699.299	0.0154906
699.378	0.0155287
699.456	0.0153072
699.534	0.0155526
699.612	0.0153689
699.690	0.0152596
699.768	0.0154817
699.846	0.0154690
699.924	0.0153960
700.003	0.0155866
700.081	0.0154317
700.159	0.0156373
700.237	0.0156166
700.315	0.0155427
700.393	0.0154678
700.471	0.0156304
700.549	0.0155508
700.628	0.0156953
700.706	0.0155892
700.784	0.0155492
700.862	0.0154826
700.940	0.0154756
701.018	0.0153707
701.096	0.0155402
701.174	0.0154749
701.253	0.0153352
701.331	0.0153680
701.409	0.0151852
701.487	0.0152837
701.565	0.0152966
701.643	0.0152823
701.721	0.0153373
701.799	0.0152646
701.878	0.0154135
701.956	0.0154002
702.034	0.0155595
702.112	0.0154183
702.190	0.0155597
702.268	0.0153953
702.346	0.0154742
702.424	0.0155544
702.503	0.0155279
702.581	0.0155503
702.659	0.0157048
702.737	0.0157557
702.815	0.0157311
702.893	0.0156487
702.971	0.0157468
703.049	0.0157934
703.128	0.0156410
703.206	0.0155985
703.284	0.0156146
703.362	0.0156610
703.440	0.0155427
703.518	0.0155655
703.596	0.0154121
703.674	0.0153065
703.753	0.0152835
703.831	0.0154054
703.909	0.0152744
703.987	0.0153036
704.065	0.0153286
704.143	0.0153304
704.221	0.0153107
704.299	0.0153085
704.378	0.0153141
704.456	0.0154001
704.534	0.0153200
704.612	0.0153629
704.690	0.0155033
704.768	0.0153902
704.846	0.0154333
704.924	0.0155379
705.003	0.0154035
705.081	0.0155284
705.159	0.0154755
705.237	0.0154932
705.315	0.0155255
705.393	0.0154955
705.471	0.0155656
705.549	0.0156613
705.628	0.0155761
705.706	0.0155584
705.784	0.0156643
705.862	0.0156628
705.940	0.0155322
706.018	0.0154783
706.096	0.0155770
706.174	0.0155476
706.253	0.0156187
706.331	0.0155095
706.409	0.0155789
706.487	0.0154571
706.565	0.0152656
706.643	0.0154533
706.721	0.0153455
706.799	0.0152608
706.878	0.0154114
706.956	0.0154390
707.034	0.0152928
707.112	0.0153857
707.190	0.0153265
707.268	0.0154790
707.346	0.0153001
707.424	0.0153651
707.503	0.0153917
707.581	0.0153251
707.659	0.0155352
707.737	0.0154634
707.815	0.0155098
707.893	0.0155637
707.971	0.0154439
708.049	0.0155736
708.128	0.0156047
708.206	0.0154809
708.284	0.0155067
708.362	0.0155094
708.440	0.0154939
708.518	0.0155409
708.596	0.0153170
708.674	0.0154002
708.753	0.0153834
708.831	0.0155410
708.909	0.0155408
708.987	0.0155103
709.065	0.0155199
709.143	0.0155109
709.221	0.0156554
709.299	0.0155474
709.378	0.0154707
709.456	0.0154405
709.534	0.0154460
709.612	0.0154019
709.690	0.0154560
709.768	0.0154498
709.846	0.0154416
709.924	0.0154148
710.003	0.0154404
710.081	0.0153792
710.159	0.0153806
710.237	0.0153834
710.315	0.0153836
710.393	0.0153875
710.471	0.0153761
710.549	0.0153861
710.628	0.0153863
710.706	0.0153754
710.784	0.0155770
710.862	0.0153856
710.940	0.0155586
711.018	0.0155603
711.096	0.0155607
711.174	0.0154456
711.253	0.0155565
711.331	0.0155350
711.409	0.0155009
711.487	0.0154700
711.565	0.0156153
711.643	0.0155804
711.721	0.0155593
711.799	0.0154066
711.878	0.0155515
711.956	0.0155611
712.034	0.0154483
712.112	0.0154560
712.190	0.0154290
712.268	0.0155884
712.346	0.0153950
712.424	0.0154325
712.503	0.0155237
712.581	0.0153674
712.659	0.0154404
712.737	0.0153797
712.815	0.0153424
712.893	0.0155223
712.971	0.0154218
713.049	0.0154559
713.128	0.0154187
713.206	0.0155349
713.284	0.0154034
713.362	0.0154065
713.440	0.0155231
713.518	0.0155054
713.596	0.0152679
713.674	0.0154721
713.753	0.0154975
713.831	0.0155352
713.909	0.0155552
713.987	0.0153425
714.065	0.0154452
714.143	0.0153732
714.221	0.0154205
714.299	0.0154511
714.378	0.0155638
714.456	0.0155301
714.534	0.0154996
714.612	0.0156345
714.690	0.0156192
714.768	0.0155690
714.846	0.0156012
714.924	0.0155694
715.003	0.0156293
715.081	0.0158039
715.159	0.0156469
715.237	0.0156873
715.315	0.0156446
715.393	0.0156695
715.471	0.0156381
715.549	0.0154505
715.628	0.0155506
715.706	0.0156762
715.784	0.0153124
715.862	0.0153556
715.940	0.0152195
716.018	0.0151778
716.096	0.0151411
716.174	0.0152966
716.253	0.0151598
716.331	0.0150314
716.409	0.0149596
716.487	0.0151572
716.565	0.0152013
716.643	0.0151758
716.721	0.0154282
716.799	0.0153603
716.878	0.0154726
716.956	0.0155329
717.034	0.0155222
717.112	0.0157635
717.190	0.0157851
717.268	0.0157303
717.346	0.0158119
717.424	0.0158137
717.503	0.0158272
717.581	0.0157835
717.659	0.0158331
717.737	0.0158401
717.815	0.0158113
717.893	0.0157379
717.971	0.0154931
718.049	0.0153471
718.128	0.0153585
718.206	0.0152613
718.284	0.0151839
718.362	0.0151511
718.440	0.0150651
718.518	0.0148024
718.596	0.0148366
718.674	0.0148888
718.753	0.0149660
718.831	0.0149154
718.909	0.0148708
718.987	0.0150002
719.065	0.0150633
719.143	0.0149638
719.221	0.0151118
719.299	0.0153030
719.378	0.0153861
719.456	0.0153892
719.534	0.0154943
719.612	0.0155853
719.690	0.0158546
719.768	0.0159694
719.846	0.0159950
719.924	0.0159339
720.003	0.0160219
720.081	0.0160004
720.159	0.0161896
720.237	0.0161069
720.315	0.0163305
720.393	0.0163168
720.471	0.0160993
720.549	0.0161201
720.628	0.0161250
720.706	0.0161114
720.784	0.0158189
720.862	0.0157861
720.940	0.0156670
721.018	0.0156072
721.096	0.0156361
721.174	0.0156834
721.253	0.0154951
721.331	0.0153418
721.409	0.0153616
721.487	0.0151411
721.565	0.0151324
721.643	0.0150266
721.721	0.0149055
721.799	0.0148191
721.878	0.0147935
721.956	0.0148134
722.034	0.0147418
722.112	0.0146416
722.190	0.0145603
722.268	0.0146857
722.346	0.0146413
722.424	0.0144830
722.503	0.0145776
722.581	0.0146147
722.659	0.0147443
722.737	0.0148999
722.815	0.0148069
722.893	0.0151186
722.971	0.0153599
723.049	0.0153686
723.128	0.0154885
723.206	0.0156680
723.284	0.0157439
723.362	0.0161038
723.440	0.0163067
723.518	0.0163232
723.596	0.0163237
723.674	0.0165947
723.753	0.0164165
723.831	0.0164126
723.909	0.0166859
723.987	0.0165800
724.065	0.0165639
724.143	0.0164098
724.221	0.0165090
724.299	0.0162909
724.378	0.0162189
724.456	0.0161115
724.534	0.0159015
724.612	0.0158356
724.690	0.0157945
724.768	0.0156377
724.846	0.0153944
724.924	0.0154839
725.003	0.0152357
725.081	0.0151773
725.159	0.0151144
725.237	0.0151331
725.315	0.0148619
725.393	0.0148418
725.471	0.0147414
725.549	0.0147115
725.628	0.0147477
725.706	0.0146236
725.784	0.0147533
725.862	0.0147483
725.940	0.0145952
726.018	0.0147949
726.096	0.0148234
726.174	0.0150041
726.253	0.0150076
726.331	0.0150881
726.409	0.0151503
726.487	0.0153129
726.565	0.0154173
726.643	0.0153551
726.721	0.0156205
726.799	0.0155112
726.878	0.0157882
726.956	0.0158444
727.034	0.0159304
727.112	0.0159298
727.190	0.0160045
727.268	0.0161149
727.346	0.0160963
727.424	0.0161642
727.503	0.0160403
727.581	0.0160775
727.659	0.0161334
727.737	0.0159775
727.815	0.0159963
727.893	0.0159629
727.971	0.0158461
728.049	0.0157921
728.128	0.0157720
728.206	0.0157051
728.284	0.0154000
728.362	0.0154578
728.440	0.0154524
728.518	0.0152502
728.596	0.0152252
728.674	0.0151011
728.753	0.0151627
728.831	0.0152146
728.909	0.0153004
728.987	0.0151569
729.065	0.0151376
729.143	0.0153085
729.221	0.0152531
729.299	0.0151938
729.378	0.0153841
729.456	0.0154519
729.534	0.0154020
729.612	0.0155116
729.690	0.0155267
729.768	0.0155337
729.846	0.0155786
729.924	0.0154870
730.003	0.0154156
730.081	0.0153075
730.159	0.0154521
730.237	0.0152908
730.315	0.0151877
730.393	0.0152841
730.471	0.0151411
730.549	0.0152355
730.628	0.0152139
730.706	0.0150886
730.784	0.0150853
730.862	0.0152144
730.940	0.0151971
731.018	0.0154308
731.096	0.0154518
731.174	0.0155222
731.253	0.0155186
731.331	0.0155973
731.409	0.0156459
731.487	0.0157720
731.565	0.0158328
731.643	0.0158778
731.721	0.0158785
731.799	0.0160268
731.878	0.0160275
731.956	0.0160562
732.034	0.0161195
732.112	0.0159931
732.190	0.0159998
732.268	0.0160364
732.346	0.0158525
732.424	0.0159544
732.503	0.0158305
732.581	0.0156678
732.659	0.0157195
732.737	0.0154092
732.815	0.0152711
732.893	0.0153780
732.971	0.0152802
733.049	0.0151858
733.128	0.0151156
733.206	0.0149670
733.284	0.0150074
733.362	0.0148795
733.440	0.0148947
733.518	0.0148669
733.596	0.0149348
733.674	0.0149957
733.753	0.0148761
733.831	0.0151345
733.909	0.0151103
733.987	0.0149715
734.065	0.0150002
734.143	0.0149033
734.221	0.0150234
734.299	0.0151646
734.378	0.0150580
734.456	0.0151758
734.534	0.0153376
734.612	0.0152822
734.690	0.0152147
734.768	0.0152653
734.846	0.0153527
734.924	0.0154814
735.003	0.0153528
735.081	0.0154060
735.159	0.0156088
735.237	0.0155992
735.315	0.0157347
735.393	0.0158299
735.471	0.0159042
735.549	0.0158601
735.628	0.0159269
735.706	0.0161046
735.784	0.0161177
735.862	0.0164317
735.940	0.0161876
736.018	0.0162569
736.096	0.0163286
736.174	0.0162936
736.253	0.0162601
736.331	0.0162220
736.409	0.0163377
736.487	0.0163280
736.565	0.0160523
736.643	0.0160351
736.721	0.0160224
736.799	0.0158987
736.878	0.0158273
736.956	0.0157427
737.034	0.0155658
737.112	0.0155132
737.190	0.0152597
737.268	0.0150836
737.346	0.0148885
737.424	0.0147518
737.503	0.0148761
737.581	0.0145106
737.659	0.0145958
737.737	0.0145071
737.815	0.0146454
737.893	0.0145964
737.971	0.0144847
738.049	0.0145879
738.128	0.0145805
738.206	0.0146875
738.284	0.0147887
738.362	0.0148986
738.440	0.0149365
738.518	0.0151032
738.596	0.0153076
738.674	0.0153460
738.753	0.0154847
738.831	0.0155378
738.909	0.0156629
738.987	0.0155807
739.065	0.0157394
739.143	0.0159180
739.221	0.0159111
739.299	0.0159076
739.378	0.0158665
739.456	0.0158232
739.534	0.0156168
739.612	0.0157430
739.690	0.0155825
739.768	0.0155190
739.846	0.0154196
739.924	0.0153363
740.003	0.0153263
740.081	0.0152447
740.159	0.0153022
740.237	0.0152381
740.315	0.0151366
740.393	0.0151305
740.471	0.0151460
740.549	0.0153034
740.628	0.0154049
740.706	0.0154361
740.784	0.0157613
740.862	0.0160448
740.940	0.0159595
741.018	0.0160484
741.096	0.0161914
741.174	0.0161754
741.253	0.0162454
741.331	0.0163781
741.409	0.0163221
741.487	0.0162642
741.565	0.0163258
741.643	0.0160831
741.721	0.0159932
741.799	0.0158395
741.878	0.0158679
741.956	0.0156998
742.034	0.0155262
742.112	0.0154810
742.190	0.0153552
742.268	0.0150948
742.346	0.0151736
742.424	0.0150816
742.503	0.0149812
742.581	0.0148754
742.659	0.0148341
742.737	0.0149452
742.815	0.0148688
742.893	0.0148318
742.971	0.0150200
743.049	0.0150080
743.128	0.0149761
743.206	0.0150624
743.284	0.0150286
743.362	0.0152732
743.440	0.0151672
743.518	0.0152636
743.596	0.0153375
743.674	0.0153146
743.753	0.0152654
743.831	0.0153671
743.909	0.0154079
743.987	0.0155741
744.065	0.0154296
744.143	0.0154639
744.221	0.0155795
744.299	0.0155087
744.378	0.0154803
744.456	0.0154562
744.534	0.0153723
744.612	0.0154157
744.690	0.0153304
744.768	0.0153745
744.846	0.0151800
744.924	0.0153218
745.003	0.0154155
745.081	0.0153508
745.159	0.0154046
745.237	0.0154716
745.315	0.0154806
745.393	0.0155173
745.471	0.0156622
745.549	0.0156002
745.628	0.0156503
745.706	0.0157359
745.784	0.0159532
745.862	0.0160377
745.940	0.0159512
746.018	0.0161658
746.096	0.0163487
746.174	0.0163304
746.253	0.0162717
746.331	0.0163068
746.409	0.0162988
746.487	0.0162352
746.565	0.0162061
746.643	0.0161559
746.721	0.0160988
746.799	0.0159496
746.878	0.0158883
746.956	0.0158897
747.034	0.0157184
747.112	0.0153671
747.190	0.0154561
747.268	0.0153945
747.346	0.0149755
747.424	0.0149271
747.503	0.0149497
747.581	0.0147269
747.659	0.0147861
747.737	0.0147248
747.815	0.0147099
747.893	0.0147279
747.971	0.0146773
748.049	0.0146568
748.128	0.0146751
748.206	0.0147844
748.284	0.0147458
748.362	0.0149055
748.440	0.0150375
748.518	0.0151260
748.596	0.0152304
748.674	0.0151921
748.753	0.0152936
748.831	0.0153755
748.909	0.0153353
748.987	0.0153477
749.065	0.0155392
749.143	0.0154993
749.221	0.0156336
749.299	0.0157541
749.378	0.0157746
749.456	0.0156429
749.534	0.0156029
749.612	0.0156536
749.690	0.0157635
749.768	0.0158957
749.846	0.0158970
749.924	0.0158844
750.003	0.0159555
750.081	0.0159837
750.159	0.0158410
750.237	0.0159184
750.315	0.0159599
750.393	0.0158385
750.471	0.0158117
750.549	0.0159194
750.628	0.0158789
750.706	0.0158513
750.784	0.0159037
750.862	0.0157525
750.940	0.0157200
751.018	0.0156573
751.096	0.0155035
751.174	0.0153981
751.253	0.0154433
751.331	0.0154850
751.409	0.0154886
751.487	0.0154800
751.565	0.0153926
751.643	0.0153860
751.721	0.0154984
751.799	0.0156516
751.878	0.0156219
751.956	0.0157180
752.034	0.0156220
752.112	0.0157082
752.190	0.0158804
752.268	0.0155907
752.346	0.0154745
752.424	0.0156212
752.503	0.0153503
752.581	0.0153307
752.659	0.0151259
752.737	0.0151429
752.815	0.0150212
752.893	0.0149676
752.971	0.0148038
753.049	0.0149509
753.128	0.0147488
753.206	0.0148743
753.284	0.0149657
753.362	0.0149227
753.440	0.0149850
753.518	0.0151040
753.596	0.0151897
753.674	0.0150663
753.753	0.0152054
753.831	0.0154730
753.909	0.0154623
753.987	0.0156105
754.065	0.0154641
754.143	0.0155660
754.221	0.0156121
754.299	0.0155201
754.378	0.0152915
754.456	0.0153673
754.534	0.0153235
754.612	0.0154591
754.690	0.0154101
754.768	0.0153951
754.846	0.0154894
754.924	0.0155605
755.003	0.0154659
755.081	0.0156055
755.159	0.0155663
755.237	0.0156334
755.315	0.0156824
755.393	0.0158176
755.471	0.0160387
755.549	0.0159845
755.628	0.0160523
755.706	0.0161263
755.784	0.0160969
755.862	0.0162270
755.940	0.0161075
756.018	0.0162383
756.096	0.0162766
756.174	0.0159863
756.253	0.0160434
756.331	0.0159554
756.409	0.0160023
756.487	0.0157888
756.565	0.0156642
756.643	0.0154903
756.721	0.0153384
756.799	0.0153790
756.878	0.0152849
756.956	0.0152741
757.034	0.0152634
757.112	0.0152586
757.190	0.0151363
757.268	0.0151146
757.346	0.0151958
757.424	0.0151182
757.503	0.0151466
757.581	0.0152846
757.659	0.0152562
757.737	0.0151955
757.815	0.0153362
757.893	0.0154415
757.971	0.0153471
758.049	0.0152080
758.128	0.0152271
758.206	0.0152979
758.284	0.0152983
758.362	0.0151264
758.440	0.0151707
758.518	0.0148943
758.596	0.0149987
758.674	0.0149394
758.753	0.0149407
758.831	0.0149059
758.909	0.0150454
758.987	0.0150761
759.065	0.0149566
759.143	0.0151103
759.221	0.0153305
759.299	0.0154214
759.378	0.0154919
759.456	0.0157001
759.534	0.0156961
759.612	0.0157487
759.690	0.0157883
759.768	0.0157877
759.846	0.0158134
759.924	0.0158057
760.003	0.0158868
760.081	0.0159655
760.159	0.0160402
760.237	0.0159231
760.315	0.0158565
760.393	0.0159586
760.471	0.0158614
760.549	0.0158163
760.628	0.0158344
760.706	0.0158881
760.784	0.0157955
760.862	0.0157792
760.940	0.0156997
761.018	0.0157784
761.096	0.0156749
761.174	0.0155779
761.253	0.0155783
761.331	0.0155298
761.409	0.0155408
761.487	0.0155991
761.565	0.0157116
761.643	0.0155013
761.721	0.0154446
761.799	0.0154561
761.878	0.0154845
761.956	0.0154581
762.034	0.0155880
762.112	0.0153790
762.190	0.0155051
762.268	0.0152985
762.346	0.0152380
762.424	0.0153948
762.503	0.0152779
762.581	0.0150133
762.659	0.0151775
762.737	0.0150578
762.815	0.0150607
762.893	0.0150667
762.971	0.0151539
763.049	0.0153495
763.128	0.0152635
763.206	0.0154915
763.284	0.0154559
763.362	0.0156399
763.440	0.0158021
763.518	0.0156355
763.596	0.0156937
763.674	0.0157943
763.753	0.0156783
763.831	0.0153845
763.909	0.0153166
763.987	0.0152977
764.065	0.0153322
764.143	0.0152806
764.221	0.0151344
764.299	0.0150609
764.378	0.0149040
764.456	0.0149899
764.534	0.0149031
764.612	0.0148927
764.690	0.0150134
764.768	0.0151586
764.846	0.0151380
764.924	0.0153017
765.003	0.0152957
765.081	0.0154263
765.159	0.0156451
765.237	0.0156821
765.315	0.0157041
765.393	0.0157635
765.471	0.0159702
765.549	0.0158012
765.628	0.0158839
765.706	0.0159675
765.784	0.0157430
765.862	0.0157448
765.940	0.0157056
766.018	0.0154932
766.096	0.0156435
766.174	0.0154801
766.253	0.0155465
766.331	0.0155423
766.409	0.0154885
766.487	0.0156609
766.565	0.0156432
766.643	0.0157226
766.721	0.0158284
766.799	0.0157257
766.878	0.0159257
766.956	0.0159290
767.034	0.0158493
767.112	0.0158665
767.190	0.0159955
767.268	0.0159703
767.346	0.0158050
767.424	0.0157344
767.503	0.0155314
767.581	0.0154120
767.659	0.0152293
767.737	0.0152421
767.815	0.0152126
767.893	0.0151054
767.971	0.0148866
768.049	0.0148250
768.128	0.0146767
768.206	0.0146870
768.284	0.0146474
768.362	0.0147476
768.440	0.0147260
768.518	0.0147281
768.596	0.0148786
768.674	0.0150797
768.753	0.0152367
768.831	0.0151792
768.909	0.0155646
768.987	0.0157065
769.065	0.0158961
769.143	0.0159250
769.221	0.0160113
769.299	0.0160013
769.378	0.0162148
769.456	0.0162178
769.534	0.0161389
769.612	0.0160026
769.690	0.0159842
769.768	0.0157375
769.846	0.0157656
769.924	0.0157134
770.003	0.0155208
770.081	0.0152841
770.159	0.0151447
770.237	0.0150748
770.315	0.0150021
770.393	0.0148527
770.471	0.0149372
770.549	0.0148479
770.628	0.0148492
770.706	0.0150116
770.784	0.0150500
770.862	0.0150104
770.940	0.0151686
771.018	0.0152501
771.096	0.0154385
771.174	0.0155452
771.253	0.0153912
771.331	0.0154893
771.409	0.0154834
771.487	0.0153791
771.565	0.0154362
771.643	0.0154760
771.721	0.0154774
771.799	0.0155559
771.878	0.0155339
771.956	0.0155966
772.034	0.0155682
772.112	0.0157301
772.190	0.0158210
772.268	0.0159061
772.346	0.0158665
772.424	0.0159299
772.503	0.0161054
772.581	0.0161501
772.659	0.0161721
772.737	0.0160204
772.815	0.0162011
772.893	0.0160810
772.971	0.0161134
773.049	0.0159663
773.128	0.0158679
773.206	0.0158276
773.284	0.0156853
773.362	0.0156158
773.440	0.0154861
773.518	0.0153338
773.596	0.0153539
773.674	0.0151933
773.753	0.0150887
773.831	0.0152346
773.909	0.0150898
773.987	0.0149366
774.065	0.0151279
774.143	0.0148710
774.221	0.0150005
774.299	0.0151434
774.378	0.0150330
774.456	0.0150755
774.534	0.0151223
774.612	0.0150941
774.690	0.0151274
774.768	0.0151359
774.846	0.0153630
774.924	0.0153397
775.003	0.0153082
775.081	0.0156049
775.159	0.0157573
775.237	0.0157462
775.315	0.0154373
775.393	0.0155880
775.471	0.0156976
775.549	0.0155345
775.628	0.0156090
775.706	0.0156225
775.784	0.0154890
775.862	0.0156048
775.940	0.0153901
776.018	0.0154620
776.096	0.0155029
776.174	0.0154385
776.253	0.0154059
776.331	0.0154575
776.409	0.0155716
776.487	0.0155239
776.565	0.0156405
776.643	0.0156306
776.721	0.0156714
776.799	0.0156505
776.878	0.0156046
776.956	0.0157458
777.034	0.0157449
777.112	0.0157558
777.190	0.0156530
777.268	0.0154992
777.346	0.0155447
777.424	0.0156320
777.503	0.0154751
777.581	0.0154411
777.659	0.0153123
777.737	0.0154095
777.815	0.0153390
777.893	0.0153348
777.971	0.0153337
778.049	0.0152061
778.128	0.0152396
778.206	0.0154120
778.284	0.0154997
778.362	0.0154488
778.440	0.0155484
778.518	0.0155386
778.596	0.0155865
778.674	0.0156008
778.753	0.0155941
778.831	0.0156266
778.909	0.0154149
778.987	0.0153656
779.065	0.0153996
779.143	0.0153214
779.221	0.0154115
779.299	0.0152386
779.378	0.0152637
779.456	0.0150900
779.534	0.0151170
779.612	0.0151274
779.690	0.0152984
779.768	0.0152641
779.846	0.0153654
779.924	0.0152988
780.003	0.0153009
780.081	0.0152992
780.159	0.0153559
780.237	0.0154794
780.315	0.0153762
780.393	0.0154742
780.471	0.0153378
780.549	0.0153899
780.628	0.0153508
780.706	0.0154940
780.784	0.0154296
780.862	0.0154891
780.940	0.0156182
781.018	0.0155175
781.096	0.0155808
781.174	0.0155651
781.253	0.0157462
781.331	0.0157568
781.409	0.0157317
781.487	0.0157671
781.565	0.0157117
781.643	0.0158468
781.721	0.0158522
781.799	0.0157896
781.878	0.0156377
781.956	0.0157837
782.034	0.0156673
782.112	0.0156966
782.190	0.0155383
782.268	0.0157182
782.346	0.0156469
782.424	0.0155538
782.503	0.0155527
782.581	0.0155859
782.659	0.0154485
782.737	0.0154440
782.815	0.0153692
782.893	0.0153961
782.971	0.0153001
783.049	0.0153555
783.128	0.0153212
783.206	0.0153587
783.284	0.0152124
783.362	0.0152413
783.440	0.0153246
783.518	0.0153085
783.596	0.0153049
783.674	0.0152299
783.753	0.0153326
783.831	0.0154448
783.909	0.0155200
783.987	0.0153878
784.065	0.0155344
784.143	0.0154040
784.221	0.0153793
784.299	0.0154623
784.378	0.0154510
784.456	0.0155286
784.534	0.0154266
784.612	0.0155005
784.690	0.0155135
784.768	0.0155823
784.846	0.0154618
784.924	0.0154050
785.003	0.0154622
785.081	0.0153603
785.159	0.0154491
785.237	0.0154409
785.315	0.0154675
785.393	0.0153917
785.471	0.0156064
785.549	0.0155161
785.628	0.0156348
785.706	0.0155534
785.784	0.0155881
785.862	0.0156911
785.940	0.0155903
786.018	0.0155628
786.096	0.0156898
786.174	0.0156664
786.253	0.0154384
786.331	0.0154442
786.409	0.0154092
786.487	0.0153498
786.565	0.0151884
786.643	0.0152650
786.721	0.0153014
786.799	0.0151328
786.878	0.0152597
786.956	0.0150657
787.034	0.0150409
787.112	0.0153168
787.190	0.0154143
787.268	0.0152647
787.346	0.0154549
787.424	0.0154801
787.503	0.0156624
787.581	0.0156669
787.659	0.0156308
787.737	0.0157864
787.815	0.0158971
787.893	0.0159808
787.971	0.0159442
788.049	0.0160879
788.128	0.0160107
788.206	0.0159814
788.284	0.0158128
788.362	0.0157636
788.440	0.0158032
788.518	0.0157338
788.596	0.0158057
788.674	0.0156461
788.753	0.0155126
788.831	0.0155862
788.909	0.0155794
788.987	0.0154164
789.065	0.0154050
789.143	0.0152390
789.221	0.0154474
789.299	0.0153934
789.378	0.0153420
789.456	0.0153518
789.534	0.0153929
789.612	0.0154358
789.690	0.0153070
789.768	0.0154510
789.846	0.0156676
789.924	0.0154972
790.003	0.0155907
790.081	0.0153555
790.159	0.0153619
790.237	0.0153722
790.315	0.0153473
790.393	0.0152932
790.471	0.0153549
790.549	0.0151562
790.628	0.0150199
790.706	0.0151131
790.784	0.0150328
790.862	0.0149893
790.940	0.0149834
791.018	0.0149883
791.096	0.0149677
791.174	0.0149953
791.253	0.0152002
791.331	0.0151122
791.409	0.0153635
791.487	0.0152427
791.565	0.0152518
791.643	0.0155054
791.721	0.0155190
791.799	0.0155357
791.878	0.0157156
791.956	0.0157198
792.034	0.0157963
792.112	0.0156564
792.190	0.0157911
792.268	0.0158126
792.346	0.0158466
792.424	0.0158358
792.503	0.0157806
792.581	0.0158365
792.659	0.0157949
792.737	0.0156404
792.815	0.0156687
792.893	0.0155348
792.971	0.0155173
793.049	0.0156123
793.128	0.0155399
793.206	0.0155138
793.284	0.0155691
793.362	0.0154482
793.440	0.0154655
793.518	0.0153812
793.596	0.0153331
793.674	0.0154858
793.753	0.0153863
793.831	0.0154844
793.909	0.0153964
793.987	0.0155064
794.065	0.0154932
794.143	0.0155169
794.221	0.0154703
794.299	0.0154809
794.378	0.0153925
794.456	0.0153432
794.534	0.0155721
794.612	0.0155100
794.690	0.0153961
794.768	0.0153492
794.846	0.0154245
794.924	0.0154430
795.003	0.0155208
795.081	0.0155862
795.159	0.0155006
795.237	0.0153592
795.315	0.0151714
795.393	0.0154095
795.471	0.0153579
795.549	0.0153223
795.628	0.0154176
795.706	0.0153986
795.784	0.0153920
795.862	0.0154434
795.940	0.0154713
796.018	0.0154880
796.096	0.0154356
796.174	0.0155722
796.253	0.0154392
796.331	0.0153991
796.409	0.0154443
796.487	0.0154996
796.565	0.0153942
796.643	0.0153574
796.721	0.0153535
796.799	0.0154593
796.878	0.0153614
796.956	0.0152882
797.034	0.0152283
797.112	0.0151774
797.190	0.0151821
797.268	0.0151558
797.346	0.0151894
797.424	0.0153112
797.503	0.0151109
797.581	0.0151392
797.659	0.0151847
797.737	0.0153125
797.815	0.0152341
797.893	0.0152494
797.971	0.0154744
798.049	0.0153883
798.128	0.0153120
798.206	0.0155264
798.284	0.0154051
798.362	0.0155117
798.440	0.0155522
798.518	0.0155190
798.596	0.0155835
798.674	0.0156808
798.753	0.0157178
798.831	0.0156123
798.909	0.0158140
798.987	0.0159681
799.065	0.0157340
799.143	0.0156305
799.221	0.0157242
799.299	0.0157285
799.378	0.0157128
799.456	0.0156168
799.534	0.0155828
799.612	0.0156089
799.690	0.0156051
799.768	0.0154667
799.846	0.0153883
799.924	0.0154472
800.003	0.0154761
800.081	0.0154737
800.159	0.0154414
800.237	0.0155297
800.315	0.0153398
800.393	0.0154042
800.471	0.0155504
800.549	0.0154758
800.628	0.0154460
800.706	0.0154227
800.784	0.0153613
800.862	0.0154382
800.940	0.0155180
801.018	0.0154865
801.096	0.0154919
801.174	0.0154775
801.253	0.0154308
801.331	0.0153558
801.409	0.0153874
801.487	0.0153699
801.565	0.0153573
801.643	0.0153111
801.721	0.0155257
801.799	0.0155154
801.878	0.0155116
801.956	0.0154370
802.034	0.0153548
802.112	0.0154612
802.190	0.0154525
802.268	0.0155843
802.346	0.0155062
802.424	0.0154034
802.503	0.0154250
802.581	0.0155563
802.659	0.0153831
802.737	0.0153726
802.815	0.0154081
802.893	0.0153493
802.971	0.0154624
803.049	0.0154993
803.128	0.0155066
803.206	0.0152773
803.284	0.0152660
803.362	0.0153001
803.440	0.0152213
803.518	0.0150547
803.596	0.0153002
803.674	0.0151936
803.753	0.0151131
803.831	0.0152391
803.909	0.0152882
803.987	0.0153383
804.065	0.0153555
804.143	0.0153497
804.221	0.0153170
804.299	0.0155145
804.378	0.0152836
804.456	0.0155053
804.534	0.0155495
804.612	0.0156847
804.690	0.0156644
804.768	0.0155703
804.846	0.0157143
804.924	0.0157314
805.003	0.0156825
805.081	0.0155948
805.159	0.0158171
805.237	0.0158165
805.315	0.0156149
805.393	0.0157259
805.471	0.0156066
805.549	0.0157635
805.628	0.0156683
805.706	0.0156555
805.784	0.0156664
805.862	0.0155486
805.940	0.0156502
806.018	0.0154908
806.096	0.0154652
806.174	0.0156017
806.253	0.0154070
806.331	0.0154490
806.409	0.0153600
806.487	0.0153651
806.565	0.0153816
806.643	0.0152537
806.721	0.0152512
806.799	0.0152368
806.878	0.0153502
806.956	0.0152618
807.034	0.0152215
807.112	0.0152257
807.190	0.0150735
807.268	0.0153330
807.346	0.0151223
807.424	0.0152562
807.503	0.0154021
807.581	0.0153265
807.659	0.0154493
807.737	0.0154559
807.815	0.0155010
807.893	0.0155761
807.971	0.0155853
808.049	0.0156029
808.128	0.0155678
808.206	0.0156032
808.284	0.0156999
808.362	0.0154858
808.440	0.0156924
808.518	0.0157121
808.596	0.0155207
808.674	0.0156229
808.753	0.0154598
808.831	0.0155705
808.909	0.0156415
808.987	0.0154742
809.065	0.0154846
809.143	0.0153725
809.221	0.0154105
809.299	0.0153744
809.378	0.0154517
809.456	0.0152806
809.534	0.0153851
809.612	0.0152412
809.690	0.0151360
809.768	0.0150532
809.846	0.0153145
809.924	0.0153558
810.003	0.0153645
810.081	0.0152751
810.159	0.0151067
810.237	0.0152903
810.315	0.0152322
810.393	0.0153051
810.471	0.0152350
810.549	0.0152415
810.628	0.0151839
810.706	0.0152840
810.784	0.0153705
810.862	0.0153977
810.940	0.0153589
811.018	0.0154526
811.096	0.0154139
811.174	0.0154470
811.253	0.0153988
811.331	0.0155589
811.409	0.0156861
811.487	0.0155410
811.565	0.0154981
811.643	0.0155420
811.721	0.0156861
811.799	0.0157586
811.878	0.0158746
811.956	0.0157584
812.034	0.0158041
812.112	0.0156876
812.190	0.0157416
812.268	0.0157870
812.346	0.0157813
812.424	0.0157781
812.503	0.0157442
812.581	0.0157452
812.659	0.0157364
812.737	0.0156140
812.815	0.0155116
812.893	0.0155048
812.971	0.0155466
813.049	0.0155592
813.128	0.0154401
813.206	0.0153136
813.284	0.0153851
813.362	0.0154228
813.440	0.0153178
813.518	0.0153750
813.596	0.0153551
813.674	0.0153223
813.753	0.0152931
813.831	0.0153308
813.909	0.0152917
813.987	0.0154202
814.065	0.0156531
814.143	0.0154148
814.221	0.0154570
814.299	0.0154060
814.378	0.0154885
814.456	0.0154613
814.534	0.0155067
814.612	0.0155833
814.690	0.0157000
814.768	0.0155064
814.846	0.0154585
814.924	0.0154436
815.003	0.0157274
815.081	0.0155764
815.159	0.0155824
815.237	0.0155052
815.315	0.0152998
815.393	0.0154336
815.471	0.0154276
815.549	0.0154967
815.628	0.0154554
815.706	0.0153821
815.784	0.0155946
815.862	0.0154390
815.940	0.0154100
816.018	0.0154469
816.096	0.0154597
816.174	0.0155568
816.253	0.0153958
816.331	0.0154156
816.409	0.0154576
816.487	0.0154523
816.565	0.0154736
816.643	0.0154129
816.721	0.0154417
816.799	0.0156013
816.878	0.0156347
816.956	0.0155135
817.034	0.0153709
817.112	0.0154713
817.190	0.0153175
817.268	0.0154386
817.346	0.0155910
817.424	0.0155843
817.503	0.0155543
817.581	0.0154681
817.659	0.0154173
817.737	0.0156783
817.815	0.0156351
817.893	0.0155333
817.971	0.0155585
818.049	0.0154559
818.128	0.0156820
818.206	0.0155701
818.284	0.0153233
818.362	0.0154548
818.440	0.0155094
818.518	0.0153286
818.596	0.0154279
818.674	0.0154974
818.753	0.0152961
818.831	0.0154849
818.909	0.0152841
818.987	0.0154799
819.065	0.0155131
819.143	0.0153551
819.221	0.0155173
819.299	0.0154665
819.378	0.0157188
819.456	0.0155797
819.534	0.0156729
819.612	0.0156630
819.690	0.0156079
819.768	0.0155431
819.846	0.0156725
819.924	0.0155916
820.003	0.0155203
820.081	0.0155731
820.159	0.0156914
820.237	0.0155673
820.315	0.0156470
820.393	0.0154837
820.471	0.0154478
820.549	0.0155656
820.628	0.0156048
820.706	0.0156727
820.784	0.0155457
820.862	0.0155153
820.940	0.0155584
821.018	0.0154970
821.096	0.0155791
821.174	0.0154738
821.253	0.0154465
821.331	0.0154733
821.409	0.0156494
821.487	0.0154362
821.565	0.0153539
821.643	0.0153781
821.721	0.0154052
821.799	0.0154253
821.878	0.0154015
821.956	0.0152585
822.034	0.0150912
822.112	0.0152295
822.190	0.0153098
822.268	0.0152316
822.346	0.0151465
822.424	0.0151239
822.503	0.0151028
822.581	0.0152304
822.659	0.0150648
822.737	0.0151546
822.815	0.0152261
822.893	0.0153762
822.971	0.0154182
823.049	0.0153578
823.128	0.0154288
823.206	0.0153967
823.284	0.0154626
823.362	0.0154691
823.440	0.0155228
823.518	0.0154644
823.596	0.0157006
823.674	0.0155165
823.753	0.0155148
823.831	0.0156312
823.909	0.0156174
823.987	0.0155179
824.065	0.0154724
824.143	0.0155954
824.221	0.0154527
824.299	0.0153815
824.378	0.0155733
824.456	0.0155422
824.534	0.0154910
824.612	0.0153819
824.690	0.0155261
824.768	0.0155436
824.846	0.0155978
824.924	0.0154906
825.003	0.0155898
825.081	0.0155355
825.159	0.0154330
825.237	0.0155355
825.315	0.0157236
825.393	0.0157304
825.471	0.0155785
825.549	0.0156863
825.628	0.0156805
825.706	0.0155435
825.784	0.0157295
825.862	0.0156947
825.940	0.0155457
826.018	0.0155059
826.096	0.0155820
826.174	0.0155248
826.253	0.0154995
826.331	0.0155220
826.409	0.0155269
826.487	0.0153841
826.565	0.0153732
826.643	0.0153627
826.721	0.0153569
826.799	0.0153590
826.878	0.0153282
826.956	0.0154430
827.034	0.0153165
827.112	0.0152671
827.190	0.0152497
827.268	0.0152597
827.346	0.0152869
827.424	0.0152536
827.503	0.0153487
827.581	0.0153490
827.659	0.0152422
827.737	0.0153757
827.815	0.0155151
827.893	0.0154413
827.971	0.0153435
828.049	0.0153925
828.128	0.0154398
828.206	0.0154674
828.284	0.0155698
828.362	0.0154588
828.440	0.0155583
828.518	0.0156008
828.596	0.0155943
828.674	0.0157228
828.753	0.0156207
828.831	0.0155046
828.909	0.0154671
828.987	0.0155212
829.065	0.0156033
829.143	0.0155010
829.221	0.0154397
829.299	0.0153783
829.378	0.0154702
829.456	0.0155041
829.534	0.0154557
829.612	0.0154337
829.690	0.0154820
829.768	0.0155197
829.846	0.0155287
829.924	0.0154367
830.003	0.0154188
830.081	0.0154046
830.159	0.0154787
830.237	0.0154761
830.315	0.0154429
830.393	0.0153731
830.471	0.0154297
830.549	0.0151971
830.628	0.0152840
830.706	0.0154387
830.784	0.0153651
830.862	0.0153686
830.940	0.0154057
831.018	0.0153172
831.096	0.0153690
831.174	0.0153835
831.253	0.0152845
831.331	0.0153899
831.409	0.0154053
831.487	0.0154555
831.565	0.0153829
831.643	0.0155276
831.721	0.0155492
831.799	0.0154059
831.878	0.0154694
831.956	0.0155464
832.034	0.0155433
832.112	0.0155334
832.190	0.0157687
832.268	0.0156596
832.346	0.0157829
832.424	0.0157458
832.503	0.0157352
832.581	0.0158003
832.659	0.0157997
832.737	0.0157885
832.815	0.0157668
832.893	0.0157379
832.971	0.0157414
833.049	0.0155619
833.128	0.0157656
833.206	0.0156159
833.284	0.0155836
833.362	0.0155273
833.440	0.0155063
833.518	0.0155676
833.596	0.0153772
833.674	0.0152996
833.753	0.0152222
833.831	0.0152430
833.909	0.0151972
833.987	0.0151877
834.065	0.0151295
834.143	0.0151309
834.221	0.0151804
834.299	0.0152166
834.378	0.0151517
834.456	0.0153078
834.534	0.0152284
834.612	0.0152528
834.690	0.0152375
834.768	0.0153307
834.846	0.0153114
834.924	0.0153934
835.003	0.0153186
835.081	0.0153655
835.159	0.0154829
835.237	0.0153536
835.315	0.0153911
835.393	0.0154536
835.471	0.0154487
835.549	0.0154931
835.628	0.0154025
835.706	0.0155096
835.784	0.0155331
835.862	0.0157326
835.940	0.0155372
836.018	0.0155004
836.096	0.0156432
836.174	0.0156010
836.253	0.0156744
836.331	0.0155091
836.409	0.0154434
836.487	0.0156004
836.565	0.0156082
836.643	0.0156000
836.721	0.0155469
836.799	0.0154779
836.878	0.0156320
836.956	0.0155677
837.034	0.0156084
837.112	0.0156501
837.190	0.0155789
837.268	0.0155487
837.346	0.0154978
837.424	0.0154507
837.503	0.0155262
837.581	0.0154375
837.659	0.0154829
837.737	0.0155916
837.815	0.0154346
837.893	0.0154000
837.971	0.0153825
838.049	0.0153849
838.128	0.0153856
838.206	0.0153959
838.284	0.0154295
838.362	0.0154106
838.440	0.0154890
838.518	0.0154095
838.596	0.0155054
838.674	0.0154610
838.753	0.0154517
838.831	0.0154746
838.909	0.0154695
838.987	0.0154478
839.065	0.0154898
839.143	0.0154839
839.221	0.0154919
839.299	0.0155504
839.378	0.0155982
839.456	0.0156002
839.534	0.0155169
839.612	0.0154641
839.690	0.0155057
839.768	0.0154932
839.846	0.0155424
839.924	0.0156309
840.003	0.0154271
840.081	0.0153789
840.159	0.0154235
840.237	0.0154887
840.315	0.0153678
840.393	0.0153738
840.471	0.0153291
840.549	0.0152859
840.628	0.0153739
840.706	0.0152009
840.784	0.0152566
840.862	0.0152555
840.940	0.0154350
841.018	0.0153018
841.096	0.0153009
841.174	0.0154630
841.253	0.0153734
841.331	0.0151967
841.409	0.0153612
841.487	0.0154765
841.565	0.0154237
841.643	0.0153915
841.721	0.0155314
841.799	0.0156210
841.878	0.0155044
841.956	0.0156358
842.034	0.0156464
842.112	0.0155853
842.190	0.0155814
842.268	0.0156651
842.346	0.0155256
842.424	0.0156084
842.503	0.0156389
842.581	0.0156745
842.659	0.0156777
842.737	0.0156648
842.815	0.0155738
842.893	0.0155218
842.971	0.0155756
843.049	0.0155019
843.128	0.0155555
843.206	0.0156613
843.284	0.0154623
843.362	0.0155771
843.440	0.0155869
843.518	0.0155499
843.596	0.0155320
843.674	0.0154867
843.753	0.0154381
843.831	0.0153300
843.909	0.0154402
843.987	0.0153543
844.065	0.0154253
844.143	0.0153622
844.221	0.0154754
844.299	0.0154507
844.378	0.0154263
844.456	0.0153663
844.534	0.0152720
844.612	0.0151997
844.690	0.0152063
844.768	0.0153416
844.846	0.0153770
844.924	0.0153082
845.003	0.0152453
845.081	0.0153847
845.159	0.0153050
845.237	0.0154022
845.315	0.0153480
845.393	0.0153864
845.471	0.0154185
845.549	0.0154926
845.628	0.0154551
845.706	0.0154929
845.784	0.0154599
845.862	0.0154128
845.940	0.0155167
846.018	0.0155097
846.096	0.0156026
846.174	0.0155871
846.253	0.0156190
846.331	0.0155367
846.409	0.0155657
846.487	0.0154869
846.565	0.0155843
846.643	0.0157199
846.721	0.0156182
846.799	0.0155927
846.878	0.0156563
846.956	0.0156769
847.034	0.0156047
847.112	0.0155877
847.190	0.0155692
847.268	0.0155745
847.346	0.0152713
847.424	0.0153952
847.503	0.0156012
847.581	0.0154520
847.659	0.0152668
847.737	0.0153189
847.815	0.0154183
847.893	0.0156508
847.971	0.0153767
848.049	0.0153858
848.128	0.0155851
848.206	0.0155894
848.284	0.0155021
848.362	0.0156136
848.440	0.0155638
848.518	0.0155112
848.596	0.0157014
848.674	0.0156255
848.753	0.0155086
848.831	0.0156399
848.909	0.0155605
848.987	0.0154459
849.065	0.0154220
849.143	0.0152518
849.221	0.0154715
849.299	0.0154208
849.378	0.0154878
849.456	0.0154897
849.534	0.0154087
849.612	0.0152955
849.690	0.0154458
849.768	0.0154837
849.846	0.0152438
849.924	0.0153658
850.003	0.0153471
850.081	0.0153275
850.159	0.0153674
850.237	0.0153034
850.315	0.0154725
850.393	0.0153252
850.471	0.0155721
850.549	0.0153314
850.628	0.0154613
850.706	0.0154817
850.784	0.0154137
850.862	0.0153493
850.940	0.0154552
851.018	0.0155355
851.096	0.0153564
851.174	0.0153656
851.253	0.0154977
851.331	0.0154427
851.409	0.0153322
851.487	0.0155386
851.565	0.0153507
851.643	0.0153829
851.721	0.0154313
851.799	0.0155588
851.878	0.0155688
851.956	0.0155181
852.034	0.0155500
852.112	0.0156106
852.190	0.0155489
852.268	0.0155206
852.346	0.0155423
852.424	0.0155400
852.503	0.0155177
852.581	0.0156815
852.659	0.0156261
852.737	0.0156712
852.815	0.0156017
852.893	0.0156635
852.971	0.0155844
853.049	0.0156164
853.128	0.0155527
853.206	0.0156263
853.284	0.0155292
853.362	0.0155167
853.440	0.0153941
853.518	0.0154073
853.596	0.0155489
853.674	0.0154612
853.753	0.0153215
853.831	0.0152682
853.909	0.0155074
853.987	0.0152892
854.065	0.0152821
854.143	0.0151523
854.221	0.0152242
854.299	0.0153773
854.378	0.0152371
854.456	0.0153407
854.534	0.0154636
854.612	0.0152586
854.690	0.0153156
854.768	0.0153644
854.846	0.0154565
854.924	0.0153450
855.003	0.0153706
855.081	0.0153653
855.159	0.0154150
855.237	0.0154593
855.315	0.0155099
855.393	0.0154643
855.471	0.0154366
855.549	0.0154800
855.628	0.0154436
855.706	0.0155151
855.784	0.0155032
855.862	0.0155560
855.940	0.0155813
856.018	0.0155692
856.096	0.0155314
856.174	0.0155870
856.253	0.0155384
856.331	0.0154990
856.409	0.0155936
856.487	0.0155566
856.565	0.0154540
856.643	0.0154974
856.721	0.0155158
856.799	0.0155754
856.878	0.0155196
856.956	0.0156391
857.034	0.0155486
857.112	0.0154657
857.190	0.0155148
857.268	0.0155505
857.346	0.0154444
857.424	0.0155003
857.503	0.0156220
857.581	0.0154630
857.659	0.0153581
857.737	0.0154510
857.815	0.0155511
857.893	0.0154137
857.971	0.0153424
858.049	0.0154323
858.128	0.0153214
858.206	0.0153019
858.284	0.0155038
858.362	0.0153865
858.440	0.0154308
858.518	0.0153391
858.596	0.0152779
858.674	0.0153259
858.753	0.0153960
858.831	0.0153957
858.909	0.0153621
858.987	0.0153330
859.065	0.0152980
859.143	0.0153915
859.221	0.0153393
859.299	0.0154276
859.378	0.0154990
859.456	0.0154955
859.534	0.0155596
859.612	0.0155304
859.690	0.0154736
859.768	0.0155560
859.846	0.0154711
859.924	0.0154634
860.003	0.0155010
860.081	0.0155813
860.159	0.0154340
860.237	0.0153754
860.315	0.0154922
860.393	0.0153557
860.471	0.0154173
860.549	0.0154871
860.628	0.0154214
860.706	0.0153009
860.784	0.0154141
860.862	0.0153850
860.940	0.0153130
861.018	0.0152716
861.096	0.0152818
861.174	0.0153530
861.253	0.0153185
861.331	0.0153690
861.409	0.0152180
861.487	0.0154633
861.565	0.0154173
861.643	0.0154830
861.721	0.0154730
861.799	0.0155476
861.878	0.0155329
861.956	0.0154343
862.034	0.0155061
862.112	0.0155895
862.190	0.0155782
862.268	0.0156837
862.346	0.0155109
862.424	0.0155740
862.503	0.0155227
862.581	0.0155589
862.659	0.0154996
862.737	0.0155447
862.815	0.0155453
862.893	0.0155100
862.971	0.0155556
863.049	0.0154356
863.128	0.0154457
863.206	0.0154327
863.284	0.0154443
863.362	0.0154969
863.440	0.0155304
863.518	0.0154694
863.596	0.0155330
863.674	0.0155239
863.753	0.0154861
863.831	0.0155248
863.909	0.0152552
863.987	0.0154426
864.065	0.0155509
864.143	0.0154427
864.221	0.0154299
864.299	0.0152822
864.378	0.0153540
864.456	0.0153825
864.534	0.0152235
864.612	0.0153413
864.690	0.0154163
864.768	0.0153191
864.846	0.0153056
864.924	0.0152300
865.003	0.0153166
865.081	0.0152007
865.159	0.0152514
865.237	0.0152303
865.315	0.0153998
865.393	0.0153159
865.471	0.0152930
865.549	0.0153123
865.628	0.0154073
865.706	0.0155379
865.784	0.0155493
865.862	0.0154758
865.940	0.0155030
866.018	0.0155792
866.096	0.0154215
866.174	0.0158314
866.253	0.0157742
866.331	0.0157156
866.409	0.0155454
866.487	0.0157070
866.565	0.0156726
866.643	0.0156530
866.721	0.0156779
866.799	0.0155924
866.878	0.0156248
866.956	0.0155441
867.034	0.0155905
867.112	0.0154906
867.190	0.0156332
867.268	0.0155798
867.346	0.0153268
867.424	0.0154607
867.503	0.0154414
867.581	0.0155070
867.659	0.0153921
867.737	0.0153558
867.815	0.0154903
867.893	0.0155010
867.971	0.0154755
868.049	0.0153259
868.128	0.0154079
868.206	0.0155597
868.284	0.0154989
868.362	0.0153872
868.440	0.0154819
868.518	0.0156747
868.596	0.0155068
868.674	0.0153243
868.753	0.0153709
868.831	0.0156018
868.909	0.0156051
868.987	0.0154903
869.065	0.0154192
869.143	0.0155495
869.221	0.0155538
869.299	0.0154329
869.378	0.0154192
869.456	0.0155692
869.534	0.0155062
869.612	0.0154342
869.690	0.0154581
869.768	0.0153997
869.846	0.0152995
869.924	0.0153475
870.003	0.0154292
870.081	0.0154142
870.159	0.0153471
870.237	0.0154449
870.315	0.0153790
870.393	0.0153515
870.471	0.0152405
870.549	0.0153069
870.628	0.0152209
870.706	0.0154962
870.784	0.0154665
870.862	0.0152716
870.940	0.0153026
871.018	0.0154993
871.096	0.0154033
871.174	0.0153815
871.253	0.0154136
871.331	0.0152857
871.409	0.0152769
871.487	0.0151807
871.565	0.0154026
871.643	0.0154438
871.721	0.0153674
871.799	0.0153741
871.878	0.0153818
871.956	0.0154902
872.034	0.0155672
872.112	0.0153954
872.190	0.0156036
872.268	0.0155019
872.346	0.0154965
872.424	0.0153602
872.503	0.0155627
872.581	0.0155364
872.659	0.0155204
872.737	0.0154906
872.815	0.0155029
872.893	0.0155569
872.971	0.0155788
873.049	0.0155373
873.128	0.0156966
873.206	0.0155984
873.284	0.0154966
873.362	0.0156247
873.440	0.0155724
873.518	0.0155738
873.596	0.0155070
873.674	0.0154438
873.753	0.0155694
873.831	0.0155039
873.909	0.0154594
873.987	0.0155265
874.065	0.0154303
874.143	0.0153931
874.221	0.0153495
874.299	0.0155050
874.378	0.0153654
874.456	0.0153494
874.534	0.0153486
874.612	0.0154620
874.690	0.0153455
874.768	0.0154298
874.846	0.0155061
874.924	0.0153385
875.003	0.0154181
875.081	0.0153625
875.159	0.0154314
875.237	0.0152645
875.315	0.0154571
875.393	0.0152873
875.471	0.0155069
875.549	0.0153952
875.628	0.0154283
875.706	0.0155507
875.784	0.0155020
875.862	0.0153973
875.940	0.0154520
876.018	0.0155198
876.096	0.0154073
876.174	0.0154098
876.253	0.0155136
876.331	0.0154410
876.409	0.0153637
876.487	0.0153057
876.565	0.0154667
876.643	0.0153275
876.721	0.0152973
876.799	0.0153573
876.878	0.0153091
876.956	0.0154776
877.034	0.0154705
877.112	0.0155373
877.190	0.0154972
877.268	0.0154005
877.346	0.0154152
877.424	0.0155322
877.503	0.0154610
877.581	0.0155302
877.659	0.0155214
877.737	0.0156032
877.815	0.0155780
877.893	0.0156516
877.971	0.0155371
878.049	0.0155848
878.128	0.0155979
878.206	0.0155966
878.284	0.0155791
878.362	0.0154848
878.440	0.0154231
878.518	0.0155422
878.596	0.0156354
878.674	0.0155785
878.753	0.0155051
878.831	0.0155989
878.909	0.0155837
878.987	0.0154762
879.065	0.0155505
879.143	0.0155657
879.221	0.0155703
879.299	0.0155729
879.378	0.0155402
879.456	0.0155362
879.534	0.0156373
879.612	0.0155581
879.690	0.0155283
879.768	0.0155809
879.846	0.0156109
879.924	0.0155237
880.003	0.0155801
880.081	0.0156445
880.159	0.0154774
880.237	0.0154257
880.315	0.0155527
880.393	0.0155439
880.471	0.0154964
880.549	0.0154257
880.628	0.0154025
880.706	0.0153075
880.784	0.0154137
880.862	0.0154582
880.940	0.0154863
881.018	0.0154417
881.096	0.0154760
881.174	0.0154207
881.253	0.0153809
881.331	0.0154978
881.409	0.0154382
881.487	0.0152875
881.565	0.0153613
881.643	0.0155036
881.721	0.0154349
881.799	0.0154122
881.878	0.0154780
881.956	0.0154128
882.034	0.0154328
882.112	0.0155186
882.190	0.0155059
882.268	0.0155560
882.346	0.0155791
882.424	0.0155267
882.503	0.0155073
882.581	0.0155282
882.659	0.0156627
882.737	0.0155059
882.815	0.0155435
882.893	0.0155500
882.971	0.0155433
883.049	0.0155000
883.128	0.0157914
883.206	0.0157046
883.284	0.0155200
883.362	0.0155804
883.440	0.0155219
883.518	0.0154973
883.596	0.0155702
883.674	0.0154177
883.753	0.0155374
883.831	0.0154396
883.909	0.0154743
883.987	0.0155087
884.065	0.0155178
884.143	0.0156445
884.221	0.0156351
884.299	0.0153580
884.378	0.0155763
884.456	0.0154331
884.534	0.0154777
884.612	0.0155445
884.690	0.0154633
884.768	0.0154784
884.846	0.0154613
884.924	0.0155730
885.003	0.0155221
885.081	0.0155627
885.159	0.0154701
885.237	0.0153705
885.315	0.0155464
885.393	0.0155015
885.471	0.0153534
885.549	0.0153455
885.628	0.0153262
885.706	0.0153621
885.784	0.0153968
885.862	0.0153648
885.940	0.0153647
886.018	0.0154036
886.096	0.0153210
886.174	0.0153579
886.253	0.0154007
886.331	0.0153681
886.409	0.0153239
886.487	0.0153574
886.565	0.0154675
886.643	0.0153864
886.721	0.0153522
886.799	0.0154293
886.878	0.0153843
886.956	0.0153116
887.034	0.0154317
887.112	0.0154221
887.190	0.0153920
887.268	0.0154940
887.346	0.0154475
887.424	0.0155759
887.503	0.0153212
887.581	0.0154677
887.659	0.0154295
887.737	0.0155640
887.815	0.0155199
887.893	0.0154554
887.971	0.0155610
888.049	0.0154471
888.128	0.0154597
888.206	0.0155434
888.284	0.0156338
888.362	0.0154858
888.440	0.0154848
888.518	0.0154710
888.596	0.0155875
888.674	0.0157356
888.753	0.0155491
888.831	0.0155040
888.909	0.0153829
888.987	0.0154625
889.065	0.0154675
889.143	0.0156519
889.221	0.0155284
889.299	0.0155456
889.378	0.0155827
889.456	0.0153978
889.534	0.0154764
889.612	0.0155759
889.690	0.0155972
889.768	0.0155169
889.846	0.0155582
889.924	0.0153727
890.003	0.0154199
890.081	0.0154256
890.159	0.0154615
890.237	0.0153520
890.315	0.0154582
890.393	0.0154679
890.471	0.0154142
890.549	0.0155229
890.628	0.0154187
890.706	0.0155206
890.784	0.0154720
890.862	0.0154774
890.940	0.0154385
891.018	0.0154173
891.096	0.0153873
891.174	0.0154935
891.253	0.0155203
891.331	0.0156207
891.409	0.0154305
891.487	0.0154871
891.565	0.0153217
891.643	0.0155556
891.721	0.0155952
891.799	0.0154998
891.878	0.0154543
891.956	0.0155072
892.034	0.0154482
892.112	0.0154606
892.190	0.0154348
892.268	0.0155402
892.346	0.0155803
892.424	0.0153617
892.503	0.0154403
892.581	0.0155334
892.659	0.0154715
892.737	0.0155198
892.815	0.0155163
892.893	0.0153211
892.971	0.0155244
893.049	0.0154835
893.128	0.0154186
893.206	0.0155071
893.284	0.0153959
893.362	0.0153648
893.440	0.0155655
893.518	0.0153867
893.596	0.0154945
893.674	0.0155079
893.753	0.0154691
893.831	0.0154342
893.909	0.0155119
893.987	0.0154020
894.065	0.0154648
894.143	0.0155883
894.221	0.0156190
894.299	0.0153772
894.378	0.0153970
894.456	0.0155648
894.534	0.0156056
894.612	0.0154843
894.690	0.0155071
894.768	0.0153469
894.846	0.0156260
894.924	0.0153993
895.003	0.0154510
895.081	0.0154433
895.159	0.0155235
895.237	0.0154189
895.315	0.0153154
895.393	0.0156095
895.471	0.0154276
895.549	0.0155579
895.628	0.0154140
895.706	0.0155032
895.784	0.0153799
895.862	0.0153844
895.940	0.0153656
896.018	0.0155420
896.096	0.0154349
896.174	0.0154178
896.253	0.0152334
896.331	0.0154469
896.409	0.0154810
896.487	0.0153881
896.565	0.0152126
896.643	0.0153885
896.721	0.0153465
896.799	0.0153351
896.878	0.0154642
896.956	0.0154240
897.034	0.0152985
897.112	0.0152731
897.190	0.0153842
897.268	0.0152625
897.346	0.0153205
897.424	0.0154046
897.503	0.0154276
897.581	0.0154536
897.659	0.0153922
897.737	0.0153062
897.815	0.0154701
897.893	0.0154563
897.971	0.0154011
898.049	0.0154707
898.128	0.0155415
898.206	0.0154403
898.284	0.0155209
898.362	0.0156553
898.440	0.0154798
898.518	0.0155620
898.596	0.0154821
898.674	0.0154625
898.753	0.0155478
898.831	0.0156020
898.909	0.0155746
898.987	0.0154794
899.065	0.0154675
899.143	0.0155447
899.221	0.0154562
899.299	0.0155669
899.378	0.0153670
899.456	0.0154318
899.534	0.0154119
899.612	0.0154620
899.690	0.0154239
899.768	0.0155338
899.846	0.0154748
899.924	0.0155410
900.003	0.0154693
900.081	0.0154288
900.159	0.0153905
900.237	0.0154156
900.315	0.0153690
900.393	0.0154694
900.471	0.0155190
900.549	0.0153667
900.628	0.0154810
900.706	0.0154502
900.784	0.0154334
900.862	0.0153307
900.940	0.0153967
901.018	0.0153481
901.096	0.0153780
901.174	0.0155029
901.253	0.0154285
901.331	0.0155330
901.409	0.0154573
901.487	0.0154103
901.565	0.0154205
901.643	0.0154408
901.721	0.0154880
901.799	0.0154004
901.878	0.0154540
901.956	0.0155720
902.034	0.0155361
902.112	0.0153628
902.190	0.0154062
902.268	0.0154301
902.346	0.0155518
902.424	0.0155068
902.503	0.0156261
902.581	0.0155585
902.659	0.0153886
902.737	0.0154903
902.815	0.0156194
902.893	0.0155270
902.971	0.0154406
903.049	0.0153532
903.128	0.0154663
903.206	0.0154356
903.284	0.0153220
903.362	0.0154515
903.440	0.0154086
903.518	0.0155568
903.596	0.0155453
903.674	0.0154617
903.753	0.0154271
903.831	0.0154013
903.909	0.0154289
903.987	0.0154336
904.065	0.0155227
904.143	0.0155022
904.221	0.0154200
904.299	0.0155127
904.378	0.0155125
904.456	0.0156193
904.534	0.0154807
904.612	0.0155235
904.690	0.0155930
904.768	0.0155852
904.846	0.0154828
904.924	0.0155182
905.003	0.0153613
905.081	0.0155125
905.159	0.0155244
905.237	0.0155319
905.315	0.0155670
905.393	0.0154380
905.471	0.0155196
905.549	0.0155917
905.628	0.0154710
905.706	0.0154216
905.784	0.0155206
905.862	0.0154131
905.940	0.0154330
906.018	0.0154169
906.096	0.0154245
906.174	0.0154777
906.253	0.0154346
906.331	0.0155051
906.409	0.0154591
906.487	0.0155613
906.565	0.0155016
906.643	0.0154765
906.721	0.0155238
906.799	0.0155058
906.878	0.0154514
906.956	0.0155241
907.034	0.0155220
907.112	0.0155040
907.190	0.0154868
907.268	0.0156763
907.346	0.0156687
907.424	0.0154643
907.503	0.0153802
907.581	0.0153201
907.659	0.0154439
907.737	0.0154936
907.815	0.0154871
907.893	0.0154411
907.971	0.0154223
908.049	0.0154476
908.128	0.0155846
908.206	0.0154994
908.284	0.0154947
908.362	0.0154388
908.440	0.0154685
908.518	0.0154479
908.596	0.0154729
908.674	0.0155651
908.753	0.0155140
908.831	0.0155402
908.909	0.0156130
908.987	0.0155708
909.065	0.0154921
909.143	0.0155799
909.221	0.0154795
909.299	0.0156198
909.378	0.0155284
909.456	0.0154015
909.534	0.0155216
909.612	0.0155351
909.690	0.0155444
909.768	0.0154221
909.846	0.0153928
909.924	0.0155727
910.003	0.0154010
910.081	0.0154301
910.159	0.0152943
910.237	0.0153931
910.315	0.0153607
910.393	0.0154279
910.471	0.0153521
910.549	0.0153461
910.628	0.0155870
910.706	0.0155527
910.784	0.0154476
910.862	0.0152903
910.940	0.0154403
911.018	0.0153882
911.096	0.0155379
911.174	0.0154306
911.253	0.0156194
911.331	0.0154535
911.409	0.0155022
911.487	0.0154082
911.565	0.0154545
911.643	0.0154609
911.721	0.0154901
911.799	0.0154784
911.878	0.0154683
911.956	0.0154356
912.034	0.0153933
912.112	0.0153908
912.190	0.0154527
912.268	0.0154726
912.346	0.0154328
912.424	0.0154197
912.503	0.0153458
912.581	0.0153965
912.659	0.0153491
912.737	0.0153401
912.815	0.0152907
912.893	0.0152946
912.971	0.0153384
913.049	0.0153418
913.128	0.0154482
913.206	0.0153637
913.284	0.0153811
913.362	0.0153984
913.440	0.0154758
913.518	0.0154245
913.596	0.0154195
913.674	0.0155795
913.753	0.0154685
913.831	0.0153555
913.909	0.0156082
913.987	0.0155832
914.065	0.0155110
914.143	0.0155418
914.221	0.0155788
914.299	0.0155081
914.378	0.0155859
914.456	0.0155906
914.534	0.0155813
914.612	0.0155376
914.690	0.0155747
914.768	0.0155191
914.846	0.0156131
914.924	0.0156087
915.003	0.0156290
915.081	0.0156510
915.159	0.0156004
915.237	0.0155630
915.315	0.0156156
915.393	0.0155522
915.471	0.0154961
915.549	0.0155906
915.628	0.0155123
915.706	0.0154633
915.784	0.0155144
915.862	0.0154324
915.940	0.0153152
916.018	0.0153897
916.096	0.0154272
916.174	0.0153796
916.253	0.0154188
916.331	0.0154242
916.409	0.0154176
916.487	0.0154229
916.565	0.0154387
916.643	0.0152126
916.721	0.0153334
916.799	0.0155394
916.878	0.0154842
916.956	0.0154687
917.034	0.0152460
917.112	0.0153114
917.190	0.0153806
917.268	0.0155047
917.346	0.0153555
917.424	0.0154157
917.503	0.0154861
917.581	0.0154249
917.659	0.0155730
917.737	0.0155035
917.815	0.0154704
917.893	0.0154987
917.971	0.0155230
918.049	0.0155994
918.128	0.0154413
918.206	0.0155946
918.284	0.0155847
918.362	0.0154397
918.440	0.0154375
918.518	0.0154256
918.596	0.0155039
918.674	0.0155936
918.753	0.0154521
918.831	0.0154057
918.909	0.0155234
918.987	0.0154330
919.065	0.0153305
919.143	0.0154762
919.221	0.0153703
919.299	0.0154180
919.378	0.0154118
919.456	0.0155753
919.534	0.0153976
919.612	0.0153721
919.690	0.0154984
919.768	0.0155827
919.846	0.0154913
919.924	0.0155013
920.003	0.0155125
920.081	0.0155118
920.159	0.0154512
920.237	0.0154587
920.315	0.0155091
920.393	0.0153837
920.471	0.0154521
920.549	0.0154843
920.628	0.0153915
920.706	0.0154689
920.784	0.0156036
920.862	0.0155489
920.940	0.0155125
921.018	0.0155161
921.096	0.0154882
921.174	0.0155022
921.253	0.0155753
921.331	0.0155373
921.409	0.0154948
921.487	0.0153441
921.565	0.0155650
921.643	0.0155106
921.721	0.0155444
921.799	0.0152763
921.878	0.0153767
921.956	0.0154729
922.034	0.0155028
922.112	0.0154514
922.190	0.0154356
922.268	0.0154572
922.346	0.0154527
922.424	0.0156104
922.503	0.0155183
922.581	0.0155434
922.659	0.0154635
922.737	0.0155145
922.815	0.0155545
922.893	0.0156031
922.971	0.0155647
923.049	0.0156004
923.128	0.0154549
923.206	0.0154266
923.284	0.0155081
923.362	0.0154794
923.440	0.0156357
923.518	0.0155892
923.596	0.0153834
923.674	0.0156078
923.753	0.0155965
923.831	0.0155451
923.909	0.0155811
923.987	0.0155576
924.065	0.0154517
924.143	0.0154135
924.221	0.0153834
924.299	0.0154565
924.378	0.0154263
924.456	0.0153619
924.534	0.0154176
924.612	0.0156429
924.690	0.0153125
924.768	0.0154099
924.846	0.0156176
924.924	0.0154051
925.003	0.0153851
925.081	0.0152635
925.159	0.0153368
925.237	0.0153044
925.315	0.0154044
925.393	0.0153162
925.471	0.0155157
925.549	0.0154687
925.628	0.0154819
925.706	0.0154535
925.784	0.0154421
925.862	0.0155394
925.940	0.0154661
926.018	0.0154826
926.096	0.0153849
926.174	0.0155689
926.253	0.0156225
926.331	0.0155214
926.409	0.0154555
926.487	0.0155786
926.565	0.0156432
926.643	0.0154666
926.721	0.0155050
926.799	0.0155357
926.878	0.0154669
926.956	0.0154866
927.034	0.0155420
927.112	0.0153589
927.190	0.0154455
927.268	0.0156099
927.346	0.0156394
927.424	0.0155154
927.503	0.0155401
927.581	0.0155437
927.659	0.0154848
927.737	0.0155292
927.815	0.0153983
927.893	0.0155880
927.971	0.0154500
928.049	0.0154243
928.128	0.0153581
928.206	0.0155194
928.284	0.0155208
928.362	0.0155151
928.440	0.0155387
928.518	0.0153199
928.596	0.0154948
928.674	0.0155684
928.753	0.0153970
928.831	0.0154478
928.909	0.0154490
928.987	0.0153181
929.065	0.0153363
929.143	0.0153725
929.221	0.0153942
929.299	0.0154356
929.378	0.0154182
929.456	0.0155142
929.534	0.0154549
929.612	0.0154565
929.690	0.0155839
929.768	0.0154652
929.846	0.0153968
929.924	0.0154920
930.003	0.0154248
930.081	0.0155973
930.159	0.0155969
930.237	0.0155373
930.315	0.0155867
930.393	0.0155445
930.471	0.0154684
930.549	0.0156142
930.628	0.0154515
930.706	0.0155392
930.784	0.0154118
930.862	0.0156278
930.940	0.0155185
931.018	0.0154249
931.096	0.0154042
931.174	0.0155208
931.253	0.0153461
931.331	0.0154865
931.409	0.0155038
931.487	0.0154039
931.565	0.0153590
931.643	0.0154711
931.721	0.0155633
931.799	0.0153339
931.878	0.0155029
931.956	0.0152938
932.034	0.0154233
932.112	0.0155774
932.190	0.0154652
932.268	0.0154388
932.346	0.0153895
932.424	0.0154219
932.503	0.0154459
932.581	0.0155205
932.659	0.0154997
932.737	0.0155627
932.815	0.0154984
932.893	0.0156367
932.971	0.0156423
933.049	0.0154337
933.128	0.0154726
933.206	0.0156516
933.284	0.0155415
933.362	0.0155074
933.440	0.0155011
933.518	0.0156748
933.596	0.0154076
933.674	0.0155107
933.753	0.0154299
933.831	0.0153864
933.909	0.0154933
933.987	0.0156838
934.065	0.0155891
934.143	0.0153857
934.221	0.0154070
934.299	0.0155138
934.378	0.0153970
934.456	0.0154486
934.534	0.0155341
934.612	0.0154870
934.690	0.0155531
934.768	0.0155502
934.846	0.0154644
934.924	0.0154879
935.003	0.0155338
935.081	0.0154289
935.159	0.0154491
935.237	0.0153849
935.315	0.0155901
935.393	0.0153378
935.471	0.0153903
935.549	0.0153593
935.628	0.0153961
935.706	0.0154250
935.784	0.0154647
935.862	0.0154072
935.940	0.0155150
936.018	0.0154851
936.096	0.0154242
936.174	0.0154373
936.253	0.0155717
936.331	0.0155437
936.409	0.0154691
936.487	0.0156360
936.565	0.0155754
936.643	0.0155570
936.721	0.0154769
936.799	0.0155996
936.878	0.0154102
936.956	0.0155218
937.034	0.0154622
937.112	0.0154592
937.190	0.0154528
937.268	0.0155823
937.346	0.0155482
937.424	0.0153955
937.503	0.0153894
937.581	0.0156552
937.659	0.0156069
937.737	0.0155091
937.815	0.0154510
937.893	0.0154588
937.971	0.0154636
938.049	0.0155740
938.128	0.0155091
938.206	0.0155433
938.284	0.0153873
938.362	0.0154667
938.440	0.0153716
938.518	0.0152946
938.596	0.0154597
938.674	0.0154566
938.753	0.0153939
938.831	0.0154919
938.909	0.0154136
938.987	0.0153368
939.065	0.0154333
939.143	0.0154079
939.221	0.0154654
939.299	0.0153921
939.378	0.0153860
939.456	0.0155085
939.534	0.0156229
939.612	0.0154413
939.690	0.0155718
939.768	0.0155251
939.846	0.0153800
939.924	0.0152967
940.003	0.0154517
940.081	0.0154183
940.159	0.0153044
940.237	0.0154636
940.315	0.0155205
940.393	0.0155323
940.471	0.0154108
940.549	0.0154330
940.628	0.0154858
940.706	0.0155385
940.784	0.0154920
940.862	0.0154854
940.940	0.0154533
941.018	0.0154440
941.096	0.0155782
941.174	0.0154526
941.253	0.0154812
941.331	0.0153632
941.409	0.0154342
941.487	0.0154464
941.565	0.0155589
941.643	0.0154717
941.721	0.0155180
941.799	0.0153616
941.878	0.0154715
941.956	0.0155266
942.034	0.0155371
942.112	0.0155079
942.190	0.0155312
942.268	0.0155647
942.346	0.0155219
942.424	0.0155094
942.503	0.0153941
942.581	0.0154293
942.659	0.0152986
942.737	0.0154153
942.815	0.0153770
942.893	0.0154089
942.971	0.0154525
943.049	0.0154175
943.128	0.0155664
943.206	0.0154816
943.284	0.0155011
943.362	0.0154232
943.440	0.0154501
943.518	0.0155811
943.596	0.0154875
943.674	0.0154826
943.753	0.0156615
943.831	0.0154922
943.909	0.0155287
943.987	0.0155305
944.065	0.0154964
944.143	0.0156486
944.221	0.0155618
944.299	0.0154987
944.378	0.0154448
944.456	0.0154691
944.534	0.0155435
944.612	0.0155198
944.690	0.0155032
944.768	0.0155241
944.846	0.0154225
944.924	0.0153313
945.003	0.0153416
945.081	0.0154124
945.159	0.0153996
945.237	0.0153977
945.315	0.0154073
945.393	0.0154963
945.471	0.0154733
945.549	0.0154441
945.628	0.0154504
945.706	0.0155375
945.784	0.0155413
945.862	0.0154564
945.940	0.0154291
946.018	0.0155109
946.096	0.0154456
946.174	0.0154979
946.253	0.0155086
946.331	0.0154768
946.409	0.0155383
946.487	0.0154077
946.565	0.0154980
946.643	0.0153030
946.721	0.0155036
946.799	0.0154686
946.878	0.0153050
946.956	0.0153305
947.034	0.0155036
947.112	0.0155203
947.190	0.0154246
947.268	0.0155523
947.346	0.0155798
947.424	0.0155736
947.503	0.0155602
947.581	0.0155595
947.659	0.0155195
947.737	0.0155199
947.815	0.0155526
947.893	0.0155754
947.971	0.0154436
948.049	0.0155687
948.128	0.0155376
948.206	0.0154003
948.284	0.0156083
948.362	0.0156522
948.440	0.0154388
948.518	0.0154253
948.596	0.0154050
948.674	0.0153302
948.753	0.0154553
948.831	0.0154262
948.909	0.0152804
948.987	0.0155779
949.065	0.0154972
949.143	0.0154664
949.221	0.0154585
949.299	0.0154007
949.378	0.0155309
949.456	0.0155392
949.534	0.0154258
949.612	0.0153371
949.690	0.0156307
949.768	0.0155147
949.846	0.0154255
949.924	0.0154601
