06/29/2022	23:07:11	Ver.	4.1	UNKNOWN
Optical Delay	629.995835	Delta X		0.078125	Sweeps	1	Scan Rate	0/0
Coordinates	Axis 1	NaN	Axis 2	NaN	Axis 3	NaN	Axis 4	NaN	Axis 5	NaN	Axis 6	0.000000
TX Power	0.000000	RX Power	0.000000

629.996	0.0161642
630.074	0.0160368
630.152	0.0159955
630.230	0.0161229
630.308	0.0161106
630.386	0.0161657
630.465	0.0162120
630.543	0.0163082
630.621	0.0162922
630.699	0.0161844
630.777	0.0160441
630.855	0.0161981
630.933	0.0161764
631.011	0.0162811
631.090	0.0162194
631.168	0.0161609
631.246	0.0160077
631.324	0.0161723
631.402	0.0161189
631.480	0.0160960
631.558	0.0161539
631.636	0.0161292
631.715	0.0160936
631.793	0.0161446
631.871	0.0161588
631.949	0.0161146
632.027	0.0159299
632.105	0.0159692
632.183	0.0161811
632.261	0.0160191
632.340	0.0162467
632.418	0.0161544
632.496	0.0161656
632.574	0.0161357
632.652	0.0160681
632.730	0.0160017
632.808	0.0161655
632.886	0.0160970
632.965	0.0162120
633.043	0.0161825
633.121	0.0161395
633.199	0.0161683
633.277	0.0161974
633.355	0.0161201
633.433	0.0161520
633.511	0.0160717
633.590	0.0161629
633.668	0.0161859
633.746	0.0161897
633.824	0.0162225
633.902	0.0161666
633.980	0.0160809
634.058	0.0160908
634.136	0.0162691
634.215	0.0163031
634.293	0.0161387
634.371	0.0162818
634.449	0.0160978
634.527	0.0161485
634.605	0.0161020
634.683	0.0160977
634.761	0.0162209
634.840	0.0161897
634.918	0.0160954
634.996	0.0161095
635.074	0.0160884
635.152	0.0160948
635.230	0.0159490
635.308	0.0162887
635.386	0.0161544
635.465	0.0161350
635.543	0.0160611
635.621	0.0162365
635.699	0.0161171
635.777	0.0162195
635.855	0.0161235
635.933	0.0161532
636.011	0.0162354
636.090	0.0161875
636.168	0.0161144
636.246	0.0161311
636.324	0.0162623
636.402	0.0160423
636.480	0.0160633
636.558	0.0162301
636.636	0.0161018
636.715	0.0162271
636.793	0.0162003
636.871	0.0162253
636.949	0.0160764
637.027	0.0161236
637.105	0.0163038
637.183	0.0161932
637.261	0.0161529
637.340	0.0161779
637.418	0.0163029
637.496	0.0163103
637.574	0.0162351
637.652	0.0161964
637.730	0.0160671
637.808	0.0161671
637.886	0.0162677
637.965	0.0161847
638.043	0.0160875
638.121	0.0161763
638.199	0.0162434
638.277	0.0160264
638.355	0.0160477
638.433	0.0161597
638.511	0.0160904
638.590	0.0160136
638.668	0.0161058
638.746	0.0162451
638.824	0.0162256
638.902	0.0161310
638.980	0.0161665
639.058	0.0162167
639.136	0.0161655
639.215	0.0161415
639.293	0.0161813
639.371	0.0161547
639.449	0.0161765
639.527	0.0161957
639.605	0.0162086
639.683	0.0162003
639.761	0.0161703
639.840	0.0161797
639.918	0.0162301
639.996	0.0161643
640.074	0.0162006
640.152	0.0161971
640.230	0.0161201
640.308	0.0161921
640.386	0.0162018
640.465	0.0162254
640.543	0.0162434
640.621	0.0161241
640.699	0.0162607
640.777	0.0161638
640.855	0.0162125
640.933	0.0162360
641.011	0.0162302
641.090	0.0162095
641.168	0.0162046
641.246	0.0161727
641.324	0.0162748
641.402	0.0162242
641.480	0.0162110
641.558	0.0160627
641.636	0.0162515
641.715	0.0162246
641.793	0.0162011
641.871	0.0161565
641.949	0.0161767
642.027	0.0162686
642.105	0.0161971
642.183	0.0162100
642.261	0.0161510
642.340	0.0161369
642.418	0.0161084
642.496	0.0160902
642.574	0.0163536
642.652	0.0162219
642.730	0.0161384
642.808	0.0161652
642.886	0.0163058
642.965	0.0161226
643.043	0.0162251
643.121	0.0162289
643.199	0.0161902
643.277	0.0162424
643.355	0.0162994
643.433	0.0162894
643.511	0.0160473
643.590	0.0162460
643.668	0.0161478
643.746	0.0160818
643.824	0.0162870
643.902	0.0162118
643.980	0.0160629
644.058	0.0162782
644.136	0.0163083
644.215	0.0161623
644.293	0.0161400
644.371	0.0162902
644.449	0.0162216
644.527	0.0162681
644.605	0.0163275
644.683	0.0161821
644.761	0.0162703
644.840	0.0161166
644.918	0.0162213
644.996	0.0161631
645.074	0.0162748
645.152	0.0162207
645.230	0.0161704
645.308	0.0162469
645.386	0.0162966
645.465	0.0162752
645.543	0.0161106
645.621	0.0163515
645.699	0.0161207
645.777	0.0162518
645.855	0.0160726
645.933	0.0162636
646.011	0.0162600
646.090	0.0161594
646.168	0.0162690
646.246	0.0161604
646.324	0.0162836
646.402	0.0162880
646.480	0.0160349
646.558	0.0162516
646.636	0.0161674
646.715	0.0161909
646.793	0.0161337
646.871	0.0161810
646.949	0.0162171
647.027	0.0161173
647.105	0.0161689
647.183	0.0160210
647.261	0.0161259
647.340	0.0162392
647.418	0.0162106
647.496	0.0161311
647.574	0.0161440
647.652	0.0161802
647.730	0.0162782
647.808	0.0161956
647.886	0.0162155
647.965	0.0161936
648.043	0.0163119
648.121	0.0162649
648.199	0.0161061
648.277	0.0161128
648.355	0.0162340
648.433	0.0162394
648.511	0.0160429
648.590	0.0162036
648.668	0.0161287
648.746	0.0162318
648.824	0.0162805
648.902	0.0161881
648.980	0.0161585
649.058	0.0162680
649.136	0.0160894
649.215	0.0161192
649.293	0.0161738
649.371	0.0161346
649.449	0.0163315
649.527	0.0161201
649.605	0.0161533
649.683	0.0161493
649.761	0.0162946
649.840	0.0162419
649.918	0.0163001
649.996	0.0162032
650.074	0.0162977
650.152	0.0160812
650.230	0.0160645
650.308	0.0161772
650.386	0.0161780
650.465	0.0161131
650.543	0.0162218
650.621	0.0160626
650.699	0.0160905
650.777	0.0162942
650.855	0.0162458
650.933	0.0161361
651.011	0.0161687
651.090	0.0161446
651.168	0.0160699
651.246	0.0160743
651.324	0.0161458
651.402	0.0161491
651.480	0.0160950
651.558	0.0161783
651.636	0.0160586
651.715	0.0161055
651.793	0.0161366
651.871	0.0160830
651.949	0.0161606
652.027	0.0161014
652.105	0.0160919
652.183	0.0162039
652.261	0.0161679
652.340	0.0162643
652.418	0.0161108
652.496	0.0161993
652.574	0.0160159
652.652	0.0161109
652.730	0.0161142
652.808	0.0161971
652.886	0.0160704
652.965	0.0161976
653.043	0.0162149
653.121	0.0160723
653.199	0.0160423
653.277	0.0161528
653.355	0.0162205
653.433	0.0162167
653.511	0.0162714
653.590	0.0160179
653.668	0.0161781
653.746	0.0160548
653.824	0.0161474
653.902	0.0161903
653.980	0.0162208
654.058	0.0161063
654.136	0.0160856
654.215	0.0161304
654.293	0.0162598
654.371	0.0161546
654.449	0.0160769
654.527	0.0160674
654.605	0.0160761
654.683	0.0161753
654.761	0.0162203
654.840	0.0160581
654.918	0.0161240
654.996	0.0161539
655.074	0.0161536
655.152	0.0161250
655.230	0.0162831
655.308	0.0160897
655.386	0.0161296
655.465	0.0162425
655.543	0.0161155
655.621	0.0161706
655.699	0.0161599
655.777	0.0161174
655.855	0.0161431
655.933	0.0161159
656.011	0.0161082
656.090	0.0161461
656.168	0.0161737
656.246	0.0160474
656.324	0.0160783
656.402	0.0161062
656.480	0.0161391
656.558	0.0161510
656.636	0.0162238
656.715	0.0160516
656.793	0.0161285
656.871	0.0162585
656.949	0.0161908
657.027	0.0161657
657.105	0.0161315
657.183	0.0161369
657.261	0.0162720
657.340	0.0160317
657.418	0.0160448
657.496	0.0162080
657.574	0.0161870
657.652	0.0162002
657.730	0.0160577
657.808	0.0161160
657.886	0.0162577
657.965	0.0161897
658.043	0.0161353
658.121	0.0162101
658.199	0.0161808
658.277	0.0161089
658.355	0.0161224
658.433	0.0160929
658.511	0.0162122
658.590	0.0161619
658.668	0.0161285
658.746	0.0159886
658.824	0.0162247
658.902	0.0163163
658.980	0.0161625
659.058	0.0160133
659.136	0.0161874
659.215	0.0162200
659.293	0.0161245
659.371	0.0161694
659.449	0.0161876
659.527	0.0162878
659.605	0.0162020
659.683	0.0162271
659.761	0.0162017
659.840	0.0161177
659.918	0.0161465
659.996	0.0161242
660.074	0.0160522
660.152	0.0160761
660.230	0.0161935
660.308	0.0161899
660.386	0.0161605
660.465	0.0160858
660.543	0.0160373
660.621	0.0161377
660.699	0.0161246
660.777	0.0161337
660.855	0.0161544
660.933	0.0162114
661.011	0.0161211
661.090	0.0161369
661.168	0.0161044
661.246	0.0161032
661.324	0.0161156
661.402	0.0160667
661.480	0.0161172
661.558	0.0160472
661.636	0.0160924
661.715	0.0161275
661.793	0.0161407
661.871	0.0161907
661.949	0.0159173
662.027	0.0162038
662.105	0.0162446
662.183	0.0160860
662.261	0.0161108
662.340	0.0162376
662.418	0.0161278
662.496	0.0160562
662.574	0.0160233
662.652	0.0161315
662.730	0.0160347
662.808	0.0161834
662.886	0.0163002
662.965	0.0162096
663.043	0.0160934
663.121	0.0160686
663.199	0.0160870
663.277	0.0162589
663.355	0.0161027
663.433	0.0162080
663.511	0.0162318
663.590	0.0162658
663.668	0.0162671
663.746	0.0161355
663.824	0.0162732
663.902	0.0162056
663.980	0.0162472
664.058	0.0162061
664.136	0.0161069
664.215	0.0160543
664.293	0.0161762
664.371	0.0162915
664.449	0.0162085
664.527	0.0162096
664.605	0.0162679
664.683	0.0162010
664.761	0.0161211
664.840	0.0161520
664.918	0.0161640
664.996	0.0162422
665.074	0.0161218
665.152	0.0161972
665.230	0.0161967
665.308	0.0161677
665.386	0.0162196
665.465	0.0161217
665.543	0.0161209
665.621	0.0160749
665.699	0.0160748
665.777	0.0161227
665.855	0.0161964
665.933	0.0161620
666.011	0.0160471
666.090	0.0162200
666.168	0.0160742
666.246	0.0161826
666.324	0.0161433
666.402	0.0162448
666.480	0.0161808
666.558	0.0161009
666.636	0.0161123
666.715	0.0161502
666.793	0.0162428
666.871	0.0160633
666.949	0.0160452
667.027	0.0161369
667.105	0.0161746
667.183	0.0161289
667.261	0.0160060
667.340	0.0161481
667.418	0.0162305
667.496	0.0160940
667.574	0.0161222
667.652	0.0160966
667.730	0.0162351
667.808	0.0160972
667.886	0.0160915
667.965	0.0162202
668.043	0.0161663
668.121	0.0159723
668.199	0.0161209
668.277	0.0162115
668.355	0.0161404
668.433	0.0159663
668.511	0.0160708
668.590	0.0161452
668.668	0.0160712
668.746	0.0160394
668.824	0.0159364
668.902	0.0160660
668.980	0.0161365
669.058	0.0160130
669.136	0.0160688
669.215	0.0160251
669.293	0.0160347
669.371	0.0162298
669.449	0.0161527
669.527	0.0162423
669.605	0.0162662
669.683	0.0163777
669.761	0.0163844
669.840	0.0163132
669.918	0.0161068
669.996	0.0161995
670.074	0.0162032
670.152	0.0162949
670.230	0.0161752
670.308	0.0161391
670.386	0.0161406
670.465	0.0162123
670.543	0.0161646
670.621	0.0159806
670.699	0.0161012
670.777	0.0161779
670.855	0.0161227
670.933	0.0160964
671.011	0.0160889
671.090	0.0162148
671.168	0.0161093
671.246	0.0161588
671.324	0.0160836
671.402	0.0161465
671.480	0.0161166
671.558	0.0161706
671.636	0.0162739
671.715	0.0162200
671.793	0.0161710
671.871	0.0161584
671.949	0.0160920
672.027	0.0159473
672.105	0.0162563
672.183	0.0161390
672.261	0.0161448
672.340	0.0160996
672.418	0.0161118
672.496	0.0161728
672.574	0.0160919
672.652	0.0161636
672.730	0.0160829
672.808	0.0160957
672.886	0.0160387
672.965	0.0162131
673.043	0.0163205
673.121	0.0163007
673.199	0.0161600
673.277	0.0160826
673.355	0.0160868
673.433	0.0160265
673.511	0.0161596
673.590	0.0162271
673.668	0.0161179
673.746	0.0160211
673.824	0.0160421
673.902	0.0160496
673.980	0.0159639
674.058	0.0160471
674.136	0.0159927
674.215	0.0160969
674.293	0.0160940
674.371	0.0159469
674.449	0.0161987
674.527	0.0160465
674.605	0.0161292
674.683	0.0161533
674.761	0.0161996
674.840	0.0161677
674.918	0.0160586
674.996	0.0162232
675.074	0.0161545
675.152	0.0161123
675.230	0.0161855
675.308	0.0161162
675.386	0.0160522
675.465	0.0161468
675.543	0.0161237
675.621	0.0162035
675.699	0.0161348
675.777	0.0160155
675.855	0.0160595
675.933	0.0160545
676.011	0.0159621
676.090	0.0160539
676.168	0.0160596
676.246	0.0161313
676.324	0.0160728
676.402	0.0161078
676.480	0.0160355
676.558	0.0161232
676.636	0.0161358
676.715	0.0161481
676.793	0.0159567
676.871	0.0159593
676.949	0.0160545
677.027	0.0160497
677.105	0.0160597
677.183	0.0163105
677.261	0.0161791
677.340	0.0161315
677.418	0.0160023
677.496	0.0161067
677.574	0.0162148
677.652	0.0161288
677.730	0.0160058
677.808	0.0160909
677.886	0.0161221
677.965	0.0160793
678.043	0.0161544
678.121	0.0162264
678.199	0.0160986
678.277	0.0161805
678.355	0.0161208
678.433	0.0160683
678.511	0.0160487
678.590	0.0160717
678.668	0.0160997
678.746	0.0159584
678.824	0.0161960
678.902	0.0160902
678.980	0.0161340
679.058	0.0162302
679.136	0.0161711
679.215	0.0161632
679.293	0.0160941
679.371	0.0161694
679.449	0.0160847
679.527	0.0161502
679.605	0.0159216
679.683	0.0160852
679.761	0.0160934
679.840	0.0161417
679.918	0.0162615
679.996	0.0160948
680.074	0.0162375
680.152	0.0161768
680.230	0.0160656
680.308	0.0161310
680.386	0.0159724
680.465	0.0162341
680.543	0.0161455
680.621	0.0161237
680.699	0.0162124
680.777	0.0162541
680.855	0.0161742
680.933	0.0161316
681.011	0.0162442
681.090	0.0161166
681.168	0.0159878
681.246	0.0160242
681.324	0.0161465
681.402	0.0160523
681.480	0.0160896
681.558	0.0160751
681.636	0.0160390
681.715	0.0159634
681.793	0.0160416
681.871	0.0162482
681.949	0.0162233
682.027	0.0161665
682.105	0.0162695
682.183	0.0162183
682.261	0.0160865
682.340	0.0160961
682.418	0.0162541
682.496	0.0162502
682.574	0.0161749
682.652	0.0160488
682.730	0.0162366
682.808	0.0159344
682.886	0.0160603
682.965	0.0160945
683.043	0.0160716
683.121	0.0161533
683.199	0.0161926
683.277	0.0160660
683.355	0.0161127
683.433	0.0163193
683.511	0.0162505
683.590	0.0162184
683.668	0.0162159
683.746	0.0162452
683.824	0.0161311
683.902	0.0160352
683.980	0.0162865
684.058	0.0162363
684.136	0.0161202
684.215	0.0161316
684.293	0.0161295
684.371	0.0162540
684.449	0.0162341
684.527	0.0161565
684.605	0.0161385
684.683	0.0160191
684.761	0.0161985
684.840	0.0160749
684.918	0.0160771
684.996	0.0162305
685.074	0.0161765
685.152	0.0162423
685.230	0.0161665
685.308	0.0161568
685.386	0.0162797
685.465	0.0162881
685.543	0.0161935
685.621	0.0161929
685.699	0.0162765
685.777	0.0162764
685.855	0.0162008
685.933	0.0160871
686.011	0.0161592
686.090	0.0163205
686.168	0.0162885
686.246	0.0161372
686.324	0.0161346
686.402	0.0161491
686.480	0.0161092
686.558	0.0160181
686.636	0.0161156
686.715	0.0161013
686.793	0.0162113
686.871	0.0161036
686.949	0.0161821
687.027	0.0161286
687.105	0.0162186
687.183	0.0163242
687.261	0.0162894
687.340	0.0161595
687.418	0.0162189
687.496	0.0163244
687.574	0.0163182
687.652	0.0162899
687.730	0.0160687
687.808	0.0162341
687.886	0.0161968
687.965	0.0163071
688.043	0.0161178
688.121	0.0160940
688.199	0.0161050
688.277	0.0159749
688.355	0.0161491
688.433	0.0161108
688.511	0.0160671
688.590	0.0161175
688.668	0.0160883
688.746	0.0161302
688.824	0.0160648
688.902	0.0161457
688.980	0.0163091
689.058	0.0161860
689.136	0.0162640
689.215	0.0162138
689.293	0.0161280
689.371	0.0161842
689.449	0.0161314
689.527	0.0162093
689.605	0.0161359
689.683	0.0160826
689.761	0.0161722
689.840	0.0159731
689.918	0.0161890
689.996	0.0160801
690.074	0.0160946
690.152	0.0161410
690.230	0.0159076
690.308	0.0160740
690.386	0.0161529
690.465	0.0161941
690.543	0.0161372
690.621	0.0160095
690.699	0.0160455
690.777	0.0161566
690.855	0.0160950
690.933	0.0160617
691.011	0.0160611
691.090	0.0161812
691.168	0.0161874
691.246	0.0161528
691.324	0.0161581
691.402	0.0162209
691.480	0.0161352
691.558	0.0160693
691.636	0.0161749
691.715	0.0161243
691.793	0.0162260
691.871	0.0161234
691.949	0.0160693
692.027	0.0161517
692.105	0.0162260
692.183	0.0162012
692.261	0.0161205
692.340	0.0161536
692.418	0.0160786
692.496	0.0161584
692.574	0.0160744
692.652	0.0161837
692.730	0.0161051
692.808	0.0162281
692.886	0.0162244
692.965	0.0161027
693.043	0.0162449
693.121	0.0161312
693.199	0.0162116
693.277	0.0162669
693.355	0.0160966
693.433	0.0161211
693.511	0.0161411
693.590	0.0161292
693.668	0.0161031
693.746	0.0159005
693.824	0.0161007
693.902	0.0162780
693.980	0.0161568
694.058	0.0160387
694.136	0.0160799
694.215	0.0161462
694.293	0.0163065
694.371	0.0163123
694.449	0.0162531
694.527	0.0161697
694.605	0.0161654
694.683	0.0162736
694.761	0.0163397
694.840	0.0161330
694.918	0.0162135
694.996	0.0161425
695.074	0.0161241
695.152	0.0161060
695.230	0.0161185
695.308	0.0161648
695.386	0.0161275
695.465	0.0161649
695.543	0.0162326
695.621	0.0161106
695.699	0.0160092
695.777	0.0161054
695.855	0.0163201
695.933	0.0161641
696.011	0.0161353
696.090	0.0162179
696.168	0.0162721
696.246	0.0162894
696.324	0.0161515
696.402	0.0162065
696.480	0.0161011
696.558	0.0162507
696.636	0.0161275
696.715	0.0161115
696.793	0.0160688
696.871	0.0160967
696.949	0.0161571
697.027	0.0160403
697.105	0.0160301
697.183	0.0160405
697.261	0.0161599
697.340	0.0160215
697.418	0.0161716
697.496	0.0159538
697.574	0.0162009
697.652	0.0161850
697.730	0.0162492
697.808	0.0162268
697.886	0.0161660
697.965	0.0160325
698.043	0.0160979
698.121	0.0162646
698.199	0.0160669
698.277	0.0161497
698.355	0.0160561
698.433	0.0160740
698.511	0.0160984
698.590	0.0161096
698.668	0.0161819
698.746	0.0160957
698.824	0.0161504
698.902	0.0162836
698.980	0.0162486
699.058	0.0163046
699.136	0.0161063
699.215	0.0161058
699.293	0.0162280
699.371	0.0162884
699.449	0.0163158
699.527	0.0160875
699.605	0.0162644
699.683	0.0163409
699.761	0.0161058
699.840	0.0161905
699.918	0.0161055
699.996	0.0160947
700.074	0.0162148
700.152	0.0161235
700.230	0.0160735
700.308	0.0161580
700.386	0.0159618
700.465	0.0161561
700.543	0.0160825
700.621	0.0159953
700.699	0.0158076
700.777	0.0159437
700.855	0.0160856
700.933	0.0162136
701.011	0.0160168
701.090	0.0161104
701.168	0.0160444
701.246	0.0162115
701.324	0.0162084
701.402	0.0162422
701.480	0.0161316
701.558	0.0162139
701.636	0.0162456
701.715	0.0163239
701.793	0.0164747
701.871	0.0163021
701.949	0.0161897
702.027	0.0162833
702.105	0.0164141
702.183	0.0162418
702.261	0.0163013
702.340	0.0163937
702.418	0.0162626
702.496	0.0161527
702.574	0.0161649
702.652	0.0162367
702.730	0.0160370
702.808	0.0161352
702.886	0.0161004
702.965	0.0161980
703.043	0.0161867
703.121	0.0160877
703.199	0.0159965
703.277	0.0160489
703.355	0.0161071
703.433	0.0159971
703.511	0.0160256
703.590	0.0160318
703.668	0.0160052
703.746	0.0160631
703.824	0.0161014
703.902	0.0159876
703.980	0.0161033
704.058	0.0162137
704.136	0.0161584
704.215	0.0162221
704.293	0.0161220
704.371	0.0162157
704.449	0.0163805
704.527	0.0164050
704.605	0.0164928
704.683	0.0163538
704.761	0.0163231
704.840	0.0163513
704.918	0.0163317
704.996	0.0163515
705.074	0.0163900
705.152	0.0163873
705.230	0.0162106
705.308	0.0162479
705.386	0.0161723
705.465	0.0161200
705.543	0.0161778
705.621	0.0161395
705.699	0.0160587
705.777	0.0160703
705.855	0.0161560
705.933	0.0160751
706.011	0.0160179
706.090	0.0159415
706.168	0.0161492
706.246	0.0159898
706.324	0.0160549
706.402	0.0161855
706.480	0.0160996
706.558	0.0160509
706.636	0.0161434
706.715	0.0161847
706.793	0.0162367
706.871	0.0161705
706.949	0.0162138
707.027	0.0162701
707.105	0.0162390
707.183	0.0161209
707.261	0.0162937
707.340	0.0162811
707.418	0.0161836
707.496	0.0162728
707.574	0.0163109
707.652	0.0162341
707.730	0.0162722
707.808	0.0163076
707.886	0.0161848
707.965	0.0160632
708.043	0.0160414
708.121	0.0161208
708.199	0.0162450
708.277	0.0160831
708.355	0.0160519
708.433	0.0162070
708.511	0.0161140
708.590	0.0160452
708.668	0.0161568
708.746	0.0162077
708.824	0.0161346
708.902	0.0161190
708.980	0.0161000
709.058	0.0161803
709.136	0.0162078
709.215	0.0160862
709.293	0.0160854
709.371	0.0160583
709.449	0.0162276
709.527	0.0161910
709.605	0.0161768
709.683	0.0161279
709.761	0.0160205
709.840	0.0160408
709.918	0.0161570
709.996	0.0162018
710.074	0.0162102
710.152	0.0160468
710.230	0.0162656
710.308	0.0162524
710.386	0.0161798
710.465	0.0160273
710.543	0.0161267
710.621	0.0162637
710.699	0.0162344
710.777	0.0160257
710.855	0.0161371
710.933	0.0162163
711.011	0.0160622
711.090	0.0161685
711.168	0.0162026
711.246	0.0160812
711.324	0.0162120
711.402	0.0162143
711.480	0.0160678
711.558	0.0161249
711.636	0.0160735
711.715	0.0162030
711.793	0.0161984
711.871	0.0160964
711.949	0.0161574
712.027	0.0160918
712.105	0.0161925
712.183	0.0162221
712.261	0.0160551
712.340	0.0161541
712.418	0.0159656
712.496	0.0160992
712.574	0.0159664
712.652	0.0159931
712.730	0.0159393
712.808	0.0160361
712.886	0.0160143
712.965	0.0160931
713.043	0.0161946
713.121	0.0161160
713.199	0.0161314
713.277	0.0161066
713.355	0.0161013
713.433	0.0162682
713.511	0.0163416
713.590	0.0162826
713.668	0.0161154
713.746	0.0162933
713.824	0.0162405
713.902	0.0162808
713.980	0.0163789
714.058	0.0160451
714.136	0.0161382
714.215	0.0162321
714.293	0.0162094
714.371	0.0160381
714.449	0.0161578
714.527	0.0162482
714.605	0.0163011
714.683	0.0162802
714.761	0.0161162
714.840	0.0162862
714.918	0.0162441
714.996	0.0163149
715.074	0.0162930
715.152	0.0164258
715.230	0.0163566
715.308	0.0162276
715.386	0.0162628
715.465	0.0160684
715.543	0.0160969
715.621	0.0160209
715.699	0.0158500
715.777	0.0158052
715.855	0.0158305
715.933	0.0158506
716.011	0.0157495
716.090	0.0157685
716.168	0.0156185
716.246	0.0156789
716.324	0.0158344
716.402	0.0157666
716.480	0.0158376
716.558	0.0159930
716.636	0.0160999
716.715	0.0160518
716.793	0.0161332
716.871	0.0163276
716.949	0.0163863
717.027	0.0165027
717.105	0.0165259
717.183	0.0164616
717.261	0.0166136
717.340	0.0165493
717.418	0.0165005
717.496	0.0165860
717.574	0.0164434
717.652	0.0164832
717.730	0.0163261
717.808	0.0162211
717.886	0.0160729
717.965	0.0162215
718.043	0.0162794
718.121	0.0161502
718.199	0.0158588
718.277	0.0159117
718.355	0.0160116
718.433	0.0159265
718.511	0.0157281
718.590	0.0158942
718.668	0.0158366
718.746	0.0157202
718.824	0.0158973
718.902	0.0157738
718.980	0.0157452
719.058	0.0158513
719.136	0.0159186
719.215	0.0160881
719.293	0.0161198
719.371	0.0160468
719.449	0.0163950
719.527	0.0163109
719.605	0.0163046
719.683	0.0163844
719.761	0.0164080
719.840	0.0165235
719.918	0.0167674
719.996	0.0165778
720.074	0.0167218
720.152	0.0166134
720.230	0.0167711
720.308	0.0168319
720.386	0.0166917
720.465	0.0164957
720.543	0.0164728
720.621	0.0164400
720.699	0.0163353
720.777	0.0161871
720.855	0.0161974
720.933	0.0159727
721.011	0.0160591
721.090	0.0159109
721.168	0.0160170
721.246	0.0157893
721.324	0.0157120
721.402	0.0158539
721.480	0.0159328
721.558	0.0157805
721.636	0.0158160
721.715	0.0158267
721.793	0.0159238
721.871	0.0157770
721.949	0.0158137
722.027	0.0159291
722.105	0.0158768
722.183	0.0158209
722.261	0.0159048
722.340	0.0157999
722.418	0.0157746
722.496	0.0157742
722.574	0.0158134
722.652	0.0158290
722.730	0.0157455
722.808	0.0159597
722.886	0.0159405
722.965	0.0159356
723.043	0.0160699
723.121	0.0160600
723.199	0.0164207
723.277	0.0165412
723.355	0.0165582
723.433	0.0166063
723.511	0.0166714
723.590	0.0169641
723.668	0.0170430
723.746	0.0171328
723.824	0.0172031
723.902	0.0171481
723.980	0.0171998
724.058	0.0172459
724.136	0.0172125
724.215	0.0171603
724.293	0.0171289
724.371	0.0170547
724.449	0.0169987
724.527	0.0167976
724.605	0.0169003
724.683	0.0166267
724.761	0.0164063
724.840	0.0161891
724.918	0.0160274
724.996	0.0160307
725.074	0.0159488
725.152	0.0157922
725.230	0.0157439
725.308	0.0155391
725.386	0.0153828
725.465	0.0152388
725.543	0.0152650
725.621	0.0153448
725.699	0.0152067
725.777	0.0150674
725.855	0.0152222
725.933	0.0150669
726.011	0.0150876
726.090	0.0153364
726.168	0.0152583
726.246	0.0152931
726.324	0.0153645
726.402	0.0153610
726.480	0.0155735
726.558	0.0156592
726.636	0.0158788
726.715	0.0160866
726.793	0.0161823
726.871	0.0164363
726.949	0.0164893
727.027	0.0166206
727.105	0.0168216
727.183	0.0170453
727.261	0.0171706
727.340	0.0171871
727.418	0.0173344
727.496	0.0174086
727.574	0.0173522
727.652	0.0173682
727.730	0.0174805
727.808	0.0173379
727.886	0.0172431
727.965	0.0170975
728.043	0.0170206
728.121	0.0169431
728.199	0.0168688
728.277	0.0165963
728.355	0.0163095
728.433	0.0161716
728.511	0.0160532
728.590	0.0159704
728.668	0.0156617
728.746	0.0155271
728.824	0.0156002
728.902	0.0153764
728.980	0.0153208
729.058	0.0154787
729.136	0.0154092
729.215	0.0155766
729.293	0.0157064
729.371	0.0159067
729.449	0.0158128
729.527	0.0159364
729.605	0.0160700
729.683	0.0160759
729.761	0.0162278
729.840	0.0161813
729.918	0.0161881
729.996	0.0162817
730.074	0.0161990
730.152	0.0159988
730.230	0.0160514
730.308	0.0161346
730.386	0.0160005
730.465	0.0159396
730.543	0.0157989
730.621	0.0158582
730.699	0.0158241
730.777	0.0158193
730.855	0.0158143
730.933	0.0159694
731.011	0.0159713
731.090	0.0160868
731.168	0.0161651
731.246	0.0162833
731.324	0.0163670
731.402	0.0164881
731.480	0.0165825
731.558	0.0167451
731.636	0.0167103
731.715	0.0168610
731.793	0.0167953
731.871	0.0167220
731.949	0.0168327
732.027	0.0166586
732.105	0.0165807
732.183	0.0164724
732.261	0.0165315
732.340	0.0163654
732.418	0.0162559
732.496	0.0163936
732.574	0.0161727
732.652	0.0160498
732.730	0.0159488
732.808	0.0159062
732.886	0.0157119
732.965	0.0157996
733.043	0.0158824
733.121	0.0159156
733.199	0.0157437
733.277	0.0157461
733.355	0.0159101
733.433	0.0158231
733.511	0.0157384
733.590	0.0157748
733.668	0.0158095
733.746	0.0159212
733.824	0.0157983
733.902	0.0157907
733.980	0.0157834
734.058	0.0159947
734.136	0.0159851
734.215	0.0159107
734.293	0.0159718
734.371	0.0160365
734.449	0.0159795
734.527	0.0160466
734.605	0.0159901
734.683	0.0161113
734.761	0.0160655
734.840	0.0160485
734.918	0.0160061
734.996	0.0160857
735.074	0.0162769
735.152	0.0163448
735.230	0.0162943
735.308	0.0163923
735.386	0.0163576
735.465	0.0164719
735.543	0.0164630
735.621	0.0165308
735.699	0.0166409
735.777	0.0167588
735.855	0.0167114
735.933	0.0167178
736.011	0.0168496
736.090	0.0166853
736.168	0.0167612
736.246	0.0166991
736.324	0.0166066
736.402	0.0166676
736.480	0.0166693
736.558	0.0164008
736.636	0.0164908
736.715	0.0162802
736.793	0.0163155
736.871	0.0162608
736.949	0.0160281
737.027	0.0159439
737.105	0.0159235
737.183	0.0158820
737.261	0.0157952
737.340	0.0156104
737.418	0.0155114
737.496	0.0157438
737.574	0.0156452
737.652	0.0156166
737.730	0.0155925
737.808	0.0156988
737.886	0.0158163
737.965	0.0158179
738.043	0.0156351
738.121	0.0157021
738.199	0.0158157
738.277	0.0157721
738.355	0.0159076
738.433	0.0158678
738.511	0.0158315
738.590	0.0158278
738.668	0.0158692
738.746	0.0158216
738.824	0.0159893
738.902	0.0159577
738.980	0.0160126
739.058	0.0160126
739.136	0.0162133
739.215	0.0162038
739.293	0.0163311
739.371	0.0161301
739.449	0.0161638
739.527	0.0163593
739.605	0.0163673
739.683	0.0162822
739.761	0.0161028
739.840	0.0161502
739.918	0.0162196
739.996	0.0161488
740.074	0.0161573
740.152	0.0162994
740.230	0.0160912
740.308	0.0160849
740.386	0.0161430
740.465	0.0162672
740.543	0.0163318
740.621	0.0163148
740.699	0.0163686
740.777	0.0165714
740.855	0.0164083
740.933	0.0165887
741.011	0.0166848
741.090	0.0166260
741.168	0.0168134
741.246	0.0168520
741.324	0.0168211
741.402	0.0168576
741.480	0.0167667
741.558	0.0169526
741.636	0.0166999
741.715	0.0166253
741.793	0.0166499
741.871	0.0164757
741.949	0.0164117
742.027	0.0161771
742.105	0.0158374
742.183	0.0160196
742.261	0.0158764
742.340	0.0157615
742.418	0.0156750
742.496	0.0157767
742.574	0.0156353
742.652	0.0155894
742.730	0.0155094
742.808	0.0153082
742.886	0.0151591
742.965	0.0152493
743.043	0.0152489
743.121	0.0151585
743.199	0.0153687
743.277	0.0153039
743.355	0.0154115
743.433	0.0155319
743.511	0.0154464
743.590	0.0155427
743.668	0.0157144
743.746	0.0158627
743.824	0.0159284
743.902	0.0160964
743.980	0.0162090
744.058	0.0163209
744.136	0.0164140
744.215	0.0164996
744.293	0.0163989
744.371	0.0164634
744.449	0.0165327
744.527	0.0163866
744.605	0.0163526
744.683	0.0161694
744.761	0.0162651
744.840	0.0161466
744.918	0.0161781
744.996	0.0160992
745.074	0.0159557
745.152	0.0160984
745.230	0.0160177
745.308	0.0161411
745.386	0.0163417
745.465	0.0163578
745.543	0.0163346
745.621	0.0165108
745.699	0.0169188
745.777	0.0169580
745.855	0.0172262
745.933	0.0171627
746.011	0.0172304
746.090	0.0172369
746.168	0.0171880
746.246	0.0172932
746.324	0.0173021
746.402	0.0171317
746.480	0.0172258
746.558	0.0170260
746.636	0.0167905
746.715	0.0166746
746.793	0.0164585
746.871	0.0162719
746.949	0.0160526
747.027	0.0159249
747.105	0.0158225
747.183	0.0155858
747.261	0.0152590
747.340	0.0153222
747.418	0.0151466
747.496	0.0150611
747.574	0.0150832
747.652	0.0150290
747.730	0.0151196
747.808	0.0151136
747.886	0.0150437
747.965	0.0152742
748.043	0.0153259
748.121	0.0153754
748.199	0.0155295
748.277	0.0157808
748.355	0.0158714
748.433	0.0159117
748.511	0.0159596
748.590	0.0161650
748.668	0.0161668
748.746	0.0161902
748.824	0.0163665
748.902	0.0165649
748.980	0.0165291
749.058	0.0164958
749.136	0.0164907
749.215	0.0165470
749.293	0.0164745
749.371	0.0165795
749.449	0.0165675
749.527	0.0165356
749.605	0.0164633
749.683	0.0164728
749.761	0.0165218
749.840	0.0164700
749.918	0.0166245
749.996	0.0165298
750.074	0.0165883
750.152	0.0164806
750.230	0.0164785
750.308	0.0164793
750.386	0.0165844
750.465	0.0166122
750.543	0.0164620
750.621	0.0165455
750.699	0.0164381
750.777	0.0164151
750.855	0.0163474
750.933	0.0163210
751.011	0.0162279
751.090	0.0162251
751.168	0.0162019
751.246	0.0162199
751.324	0.0161880
751.402	0.0162166
751.480	0.0161515
751.558	0.0161907
751.636	0.0162065
751.715	0.0163932
751.793	0.0165076
751.871	0.0163990
751.949	0.0165025
752.027	0.0163818
752.105	0.0163797
752.183	0.0163092
752.261	0.0164041
752.340	0.0163253
752.418	0.0162380
752.496	0.0160665
752.574	0.0161243
752.652	0.0158937
752.730	0.0158164
752.808	0.0158464
752.886	0.0158703
752.965	0.0157269
753.043	0.0156752
753.121	0.0156307
753.199	0.0156342
753.277	0.0156026
753.355	0.0156452
753.433	0.0157838
753.511	0.0157478
753.590	0.0158735
753.668	0.0159334
753.746	0.0159794
753.824	0.0160923
753.902	0.0160732
753.980	0.0161133
754.058	0.0160965
754.136	0.0161028
754.215	0.0161174
754.293	0.0161853
754.371	0.0162167
754.449	0.0162780
754.527	0.0162412
754.605	0.0163937
754.683	0.0162961
754.761	0.0161707
754.840	0.0161645
754.918	0.0164167
754.996	0.0163265
755.074	0.0162524
755.152	0.0162807
755.230	0.0162679
755.308	0.0162067
755.386	0.0163554
755.465	0.0163192
755.543	0.0164829
755.621	0.0164098
755.699	0.0163663
755.777	0.0163233
755.855	0.0163491
755.933	0.0163994
756.011	0.0163335
756.090	0.0163468
756.168	0.0163199
756.246	0.0162930
756.324	0.0164349
756.402	0.0163459
756.480	0.0161614
756.558	0.0163503
756.636	0.0162886
756.715	0.0162473
756.793	0.0162354
756.871	0.0161671
756.949	0.0162244
757.027	0.0162827
757.105	0.0162790
757.183	0.0162559
757.261	0.0161483
757.340	0.0160954
757.418	0.0162836
757.496	0.0160712
757.574	0.0161455
757.652	0.0160584
757.730	0.0160030
757.808	0.0158930
757.886	0.0159755
757.965	0.0158910
758.043	0.0157993
758.121	0.0157323
758.199	0.0156864
758.277	0.0157251
758.355	0.0156769
758.433	0.0155456
758.511	0.0154966
758.590	0.0156673
758.668	0.0155531
758.746	0.0153744
758.824	0.0155408
758.902	0.0156775
758.980	0.0156573
759.058	0.0156823
759.136	0.0157574
759.215	0.0158745
759.293	0.0159810
759.371	0.0160728
759.449	0.0161279
759.527	0.0163586
759.605	0.0162882
759.683	0.0162971
759.761	0.0163998
759.840	0.0164479
759.918	0.0161569
759.996	0.0162404
760.074	0.0162901
760.152	0.0164237
760.230	0.0162978
760.308	0.0162368
760.386	0.0163690
760.465	0.0162182
760.543	0.0163156
760.621	0.0163491
760.699	0.0163226
760.777	0.0163693
760.855	0.0164582
760.933	0.0165163
761.011	0.0164239
761.090	0.0164114
761.168	0.0166514
761.246	0.0167627
761.324	0.0165990
761.402	0.0165443
761.480	0.0166434
761.558	0.0166893
761.636	0.0165861
761.715	0.0165867
761.793	0.0164473
761.871	0.0164636
761.949	0.0162303
762.027	0.0162199
762.105	0.0162164
762.183	0.0160757
762.261	0.0161069
762.340	0.0159580
762.418	0.0158065
762.496	0.0157274
762.574	0.0156240
762.652	0.0156965
762.730	0.0157523
762.808	0.0157078
762.886	0.0158575
762.965	0.0159067
763.043	0.0157859
763.121	0.0158176
763.199	0.0159545
763.277	0.0162305
763.355	0.0162276
763.433	0.0162724
763.511	0.0163783
763.590	0.0165315
763.668	0.0164950
763.746	0.0163589
763.824	0.0162230
763.902	0.0162247
763.980	0.0161552
764.058	0.0160268
764.136	0.0160184
764.215	0.0159556
764.293	0.0157689
764.371	0.0156873
764.449	0.0156418
764.527	0.0157479
764.605	0.0157202
764.683	0.0156094
764.761	0.0158331
764.840	0.0158246
764.918	0.0159601
764.996	0.0160065
765.074	0.0160751
765.152	0.0159657
765.230	0.0161491
765.308	0.0162482
765.386	0.0162585
765.465	0.0162878
765.543	0.0163235
765.621	0.0163155
765.699	0.0164780
765.777	0.0163430
765.855	0.0163895
765.933	0.0162685
766.011	0.0161887
766.090	0.0162492
766.168	0.0163227
766.246	0.0162667
766.324	0.0162622
766.402	0.0162728
766.480	0.0163048
766.558	0.0166276
766.636	0.0163947
766.715	0.0165899
766.793	0.0166722
766.871	0.0167245
766.949	0.0166247
767.027	0.0166934
767.105	0.0167451
767.183	0.0167374
767.261	0.0165528
767.340	0.0166743
767.418	0.0165353
767.496	0.0163708
767.574	0.0163586
767.652	0.0163313
767.730	0.0160722
767.808	0.0160668
767.886	0.0161437
767.965	0.0157543
768.043	0.0158230
768.121	0.0157481
768.199	0.0156384
768.277	0.0154671
768.355	0.0154164
768.433	0.0154411
768.511	0.0154127
768.590	0.0155115
768.668	0.0156009
768.746	0.0155590
768.824	0.0157810
768.902	0.0159575
768.980	0.0160781
769.058	0.0162490
769.136	0.0163838
769.215	0.0163803
769.293	0.0165189
769.371	0.0164333
769.449	0.0164330
769.527	0.0164535
769.605	0.0163443
769.683	0.0163164
769.761	0.0164746
769.840	0.0162553
769.918	0.0162518
769.996	0.0160687
770.074	0.0160518
770.152	0.0159718
770.230	0.0157279
770.308	0.0158510
770.386	0.0159636
770.465	0.0158643
770.543	0.0158109
770.621	0.0157496
770.699	0.0160149
770.777	0.0160126
770.855	0.0159053
770.933	0.0160770
771.011	0.0160976
771.090	0.0161253
771.168	0.0164574
771.246	0.0162630
771.324	0.0163181
771.402	0.0161875
771.480	0.0164167
771.558	0.0162794
771.636	0.0161092
771.715	0.0162307
771.793	0.0162922
771.871	0.0163383
771.949	0.0163296
772.027	0.0163059
772.105	0.0163661
772.183	0.0164732
772.261	0.0163667
772.340	0.0163996
772.418	0.0163951
772.496	0.0165611
772.574	0.0165943
772.652	0.0166051
772.730	0.0166533
772.808	0.0165670
772.886	0.0165302
772.965	0.0164752
773.043	0.0165843
773.121	0.0164378
773.199	0.0162581
773.277	0.0163410
773.355	0.0162548
773.433	0.0161566
773.511	0.0160112
773.590	0.0160650
773.668	0.0159762
773.746	0.0158535
773.824	0.0157720
773.902	0.0157709
773.980	0.0157441
774.058	0.0155858
774.136	0.0156753
774.215	0.0157217
774.293	0.0155687
774.371	0.0158112
774.449	0.0158641
774.527	0.0159827
774.605	0.0159840
774.683	0.0159908
774.761	0.0162457
774.840	0.0161850
774.918	0.0161811
774.996	0.0165369
775.074	0.0164915
775.152	0.0163262
775.230	0.0164697
775.308	0.0163786
775.386	0.0165061
775.465	0.0164104
775.543	0.0162270
775.621	0.0162127
775.699	0.0160875
775.777	0.0160068
775.855	0.0159126
775.933	0.0160046
776.011	0.0159956
776.090	0.0157519
776.168	0.0159338
776.246	0.0157930
776.324	0.0157497
776.402	0.0158804
776.480	0.0159208
776.558	0.0159860
776.636	0.0160347
776.715	0.0159448
776.793	0.0160429
776.871	0.0161816
776.949	0.0164600
777.027	0.0161781
777.105	0.0163644
777.183	0.0164111
777.261	0.0164275
777.340	0.0165057
777.418	0.0163226
777.496	0.0165244
777.574	0.0164864
777.652	0.0165325
777.730	0.0163695
777.808	0.0163492
777.886	0.0163228
777.965	0.0162489
778.043	0.0163445
778.121	0.0164036
778.199	0.0162386
778.277	0.0163322
778.355	0.0163985
778.433	0.0162001
778.511	0.0161205
778.590	0.0162593
778.668	0.0162924
778.746	0.0161927
778.824	0.0162129
778.902	0.0160688
778.980	0.0160563
779.058	0.0160527
779.136	0.0160863
779.215	0.0159074
779.293	0.0159110
779.371	0.0159752
779.449	0.0159418
779.527	0.0159508
779.605	0.0159700
779.683	0.0158990
779.761	0.0159160
779.840	0.0159733
779.918	0.0158938
779.996	0.0160229
780.074	0.0160982
780.152	0.0160951
780.230	0.0160063
780.308	0.0160666
780.386	0.0162269
780.465	0.0161549
780.543	0.0161072
780.621	0.0160332
780.699	0.0160567
780.777	0.0163283
780.855	0.0162614
780.933	0.0162529
781.011	0.0163126
781.090	0.0163808
781.168	0.0164203
781.246	0.0163511
781.324	0.0163976
781.402	0.0164834
781.480	0.0163319
781.558	0.0162975
781.636	0.0162911
781.715	0.0163405
781.793	0.0161658
781.871	0.0161281
781.949	0.0161967
782.027	0.0160403
782.105	0.0159660
782.183	0.0159605
782.261	0.0160767
782.340	0.0159663
782.418	0.0159599
782.496	0.0158485
782.574	0.0158295
782.652	0.0159007
782.730	0.0159047
782.808	0.0158779
782.886	0.0159717
782.965	0.0158945
783.043	0.0158917
783.121	0.0159903
783.199	0.0160120
783.277	0.0160486
783.355	0.0161495
783.433	0.0161825
783.511	0.0160645
783.590	0.0161924
783.668	0.0162718
783.746	0.0162967
783.824	0.0162154
783.902	0.0163038
783.980	0.0162680
784.058	0.0163422
784.136	0.0163529
784.215	0.0163731
784.293	0.0165359
784.371	0.0165257
784.449	0.0165760
784.527	0.0165136
784.605	0.0164258
784.683	0.0164014
784.761	0.0164013
784.840	0.0164206
784.918	0.0162839
784.996	0.0162713
785.074	0.0163056
785.152	0.0163055
785.230	0.0162085
785.308	0.0162630
785.386	0.0161757
785.465	0.0160706
785.543	0.0161534
785.621	0.0159760
785.699	0.0160879
785.777	0.0161421
785.855	0.0160969
785.933	0.0160137
786.011	0.0159502
786.090	0.0160347
786.168	0.0158900
786.246	0.0160047
786.324	0.0158714
786.402	0.0159097
786.480	0.0158586
786.558	0.0158602
786.636	0.0160195
786.715	0.0157595
786.793	0.0158144
786.871	0.0159082
786.949	0.0158452
787.027	0.0158849
787.105	0.0160306
787.183	0.0160599
787.261	0.0161499
787.340	0.0163674
787.418	0.0162761
787.496	0.0161918
787.574	0.0164183
787.652	0.0164777
787.730	0.0164486
787.808	0.0164906
787.886	0.0164690
787.965	0.0166432
788.043	0.0164996
788.121	0.0165905
788.199	0.0165711
788.277	0.0165801
788.355	0.0164976
788.433	0.0163824
788.511	0.0164220
788.590	0.0163944
788.668	0.0162778
788.746	0.0162415
788.824	0.0161217
788.902	0.0161417
788.980	0.0159392
789.058	0.0159586
789.136	0.0159972
789.215	0.0158600
789.293	0.0158756
789.371	0.0160189
789.449	0.0161395
789.527	0.0160282
789.605	0.0160848
789.683	0.0160809
789.761	0.0160958
789.840	0.0159766
789.918	0.0161384
789.996	0.0160791
790.074	0.0161439
790.152	0.0160752
790.230	0.0161092
790.308	0.0159885
790.386	0.0160234
790.465	0.0160629
790.543	0.0160323
790.621	0.0160287
790.699	0.0159837
790.777	0.0160657
790.855	0.0160253
790.933	0.0162061
791.011	0.0159879
791.090	0.0161537
791.168	0.0163301
791.246	0.0162085
791.324	0.0162668
791.402	0.0163599
791.480	0.0161806
791.558	0.0163131
791.636	0.0162695
791.715	0.0163662
791.793	0.0163794
791.871	0.0162302
791.949	0.0163521
792.027	0.0163631
792.105	0.0162712
792.183	0.0163251
792.261	0.0161891
792.340	0.0162399
792.418	0.0161345
792.496	0.0160510
792.574	0.0160722
792.652	0.0160938
792.730	0.0161533
792.808	0.0160387
792.886	0.0160316
792.965	0.0160237
793.043	0.0160176
793.121	0.0160634
793.199	0.0161546
793.277	0.0160062
793.355	0.0161594
793.433	0.0161859
793.511	0.0160849
793.590	0.0161736
793.668	0.0161223
793.746	0.0160484
793.824	0.0162467
793.902	0.0162634
793.980	0.0163097
794.058	0.0161749
794.136	0.0161584
794.215	0.0161154
794.293	0.0161626
794.371	0.0160555
794.449	0.0162571
794.527	0.0162103
794.605	0.0162014
794.683	0.0161353
794.761	0.0162212
794.840	0.0163324
794.918	0.0161315
794.996	0.0160992
795.074	0.0161533
795.152	0.0160559
795.230	0.0160376
795.308	0.0162971
795.386	0.0161288
795.465	0.0161816
795.543	0.0161893
795.621	0.0161702
795.699	0.0161211
795.777	0.0161065
795.855	0.0162145
795.933	0.0161105
796.011	0.0162234
796.090	0.0160109
796.168	0.0161182
796.246	0.0159930
796.324	0.0160104
796.402	0.0160596
796.480	0.0159610
796.558	0.0160220
796.636	0.0161388
796.715	0.0159525
796.793	0.0160192
796.871	0.0159128
796.949	0.0160776
797.027	0.0161154
797.105	0.0160905
797.183	0.0159286
797.261	0.0160886
797.340	0.0161189
797.418	0.0160039
797.496	0.0162449
797.574	0.0160618
797.652	0.0162656
797.730	0.0162981
797.808	0.0162475
797.886	0.0162569
797.965	0.0162920
798.043	0.0164603
798.121	0.0162793
798.199	0.0163351
798.277	0.0163683
798.355	0.0164429
798.433	0.0163065
798.511	0.0162805
798.590	0.0162990
798.668	0.0162725
798.746	0.0161806
798.824	0.0161987
798.902	0.0162041
798.980	0.0162362
799.058	0.0162070
799.136	0.0160440
799.215	0.0161443
799.293	0.0161697
799.371	0.0161589
799.449	0.0160208
799.527	0.0159982
799.605	0.0160823
799.683	0.0160509
799.761	0.0159652
799.840	0.0160243
799.918	0.0162559
799.996	0.0161564
800.074	0.0161494
800.152	0.0161340
800.230	0.0161667
800.308	0.0161732
800.386	0.0162363
800.465	0.0162023
800.543	0.0162846
800.621	0.0162791
800.699	0.0163295
800.777	0.0163126
800.855	0.0162840
800.933	0.0163305
801.011	0.0161489
801.090	0.0161719
801.168	0.0162656
801.246	0.0162203
801.324	0.0161367
801.402	0.0161280
801.480	0.0161887
801.558	0.0161008
801.636	0.0160292
801.715	0.0161944
801.793	0.0163245
801.871	0.0162642
801.949	0.0160732
802.027	0.0161117
802.105	0.0162098
802.183	0.0161285
802.261	0.0161814
802.340	0.0160129
802.418	0.0159706
802.496	0.0160629
802.574	0.0159750
802.652	0.0159126
802.730	0.0160094
802.808	0.0160039
802.886	0.0158643
802.965	0.0159369
803.043	0.0159750
803.121	0.0159829
803.199	0.0158293
803.277	0.0160403
803.355	0.0159752
803.433	0.0158901
803.511	0.0159440
803.590	0.0159518
803.668	0.0158789
803.746	0.0160584
803.824	0.0161646
803.902	0.0160925
803.980	0.0159833
804.058	0.0161702
804.136	0.0162637
804.215	0.0161649
804.293	0.0163260
804.371	0.0162415
804.449	0.0162840
804.527	0.0161971
804.605	0.0162923
804.683	0.0162634
804.761	0.0164442
804.840	0.0163928
804.918	0.0163960
804.996	0.0164542
805.074	0.0162812
805.152	0.0163535
805.230	0.0163808
805.308	0.0163609
805.386	0.0164061
805.465	0.0161986
805.543	0.0163007
805.621	0.0161826
805.699	0.0161470
805.777	0.0160732
805.855	0.0162292
805.933	0.0161748
806.011	0.0161245
806.090	0.0161221
806.168	0.0160797
806.246	0.0159587
806.324	0.0160418
806.402	0.0161288
806.480	0.0161591
806.558	0.0161485
806.636	0.0161198
806.715	0.0161354
806.793	0.0161414
806.871	0.0162119
806.949	0.0162825
807.027	0.0162540
807.105	0.0162706
807.183	0.0162564
807.261	0.0162827
807.340	0.0161851
807.418	0.0161356
807.496	0.0160397
807.574	0.0162116
807.652	0.0161364
807.730	0.0160884
807.808	0.0161245
807.886	0.0161246
807.965	0.0161365
808.043	0.0161987
808.121	0.0160973
808.199	0.0162608
808.277	0.0161568
808.355	0.0162186
808.433	0.0162141
808.511	0.0160865
808.590	0.0162292
808.668	0.0160829
808.746	0.0162405
808.824	0.0160326
808.902	0.0159509
808.980	0.0160997
809.058	0.0160365
809.136	0.0159287
809.215	0.0160803
809.293	0.0158647
809.371	0.0160696
809.449	0.0160680
809.527	0.0160866
809.605	0.0160284
809.683	0.0159155
809.761	0.0160239
809.840	0.0160012
809.918	0.0161555
809.996	0.0160675
810.074	0.0160756
810.152	0.0159623
810.230	0.0159027
810.308	0.0159593
810.386	0.0160912
810.465	0.0160104
810.543	0.0160468
810.621	0.0160435
810.699	0.0161862
810.777	0.0162180
810.855	0.0161613
810.933	0.0162354
811.011	0.0162627
811.090	0.0162643
811.168	0.0164034
811.246	0.0163669
811.324	0.0164699
811.402	0.0164507
811.480	0.0164581
811.558	0.0163976
811.636	0.0163770
811.715	0.0166385
811.793	0.0164100
811.871	0.0165085
811.949	0.0164124
812.027	0.0163067
812.105	0.0161940
812.183	0.0162634
812.261	0.0162418
812.340	0.0162677
812.418	0.0160594
812.496	0.0161235
812.574	0.0161012
812.652	0.0160081
812.730	0.0159644
812.808	0.0159852
812.886	0.0160417
812.965	0.0159672
813.043	0.0160889
813.121	0.0160690
813.199	0.0160155
813.277	0.0160688
813.355	0.0160307
813.433	0.0159293
813.511	0.0160796
813.590	0.0161993
813.668	0.0161181
813.746	0.0160793
813.824	0.0162817
813.902	0.0161761
813.980	0.0161696
814.058	0.0161033
814.136	0.0161646
814.215	0.0162006
814.293	0.0163051
814.371	0.0161848
814.449	0.0160903
814.527	0.0160595
814.605	0.0159904
814.683	0.0159660
814.761	0.0159910
814.840	0.0159851
814.918	0.0160706
814.996	0.0161429
815.074	0.0160641
815.152	0.0161525
815.230	0.0159847
815.308	0.0160603
815.386	0.0161703
815.465	0.0161543
815.543	0.0162005
815.621	0.0161269
815.699	0.0160955
815.777	0.0161242
815.855	0.0160544
815.933	0.0161214
816.011	0.0161626
816.090	0.0160085
816.168	0.0160883
816.246	0.0161485
816.324	0.0160489
816.402	0.0159816
816.480	0.0160451
816.558	0.0160121
816.636	0.0159757
816.715	0.0159718
816.793	0.0158919
816.871	0.0158001
816.949	0.0160139
817.027	0.0161689
817.105	0.0160599
817.183	0.0161285
817.261	0.0159342
817.340	0.0161394
817.418	0.0162399
817.496	0.0162085
817.574	0.0163267
817.652	0.0163266
817.730	0.0162888
817.808	0.0163968
817.886	0.0164844
817.965	0.0164332
818.043	0.0164891
818.121	0.0164994
818.199	0.0163983
818.277	0.0163306
818.355	0.0162536
818.433	0.0161519
818.511	0.0161349
818.590	0.0161645
818.668	0.0162849
818.746	0.0160873
818.824	0.0160073
818.902	0.0160875
818.980	0.0160263
819.058	0.0160555
819.136	0.0159576
819.215	0.0158871
819.293	0.0160028
819.371	0.0159377
819.449	0.0159560
819.527	0.0157903
819.605	0.0159416
819.683	0.0161670
819.761	0.0160472
819.840	0.0160407
819.918	0.0162144
819.996	0.0161506
820.074	0.0162736
820.152	0.0163853
820.230	0.0164076
820.308	0.0164230
820.386	0.0164335
820.465	0.0162733
820.543	0.0162857
820.621	0.0162527
820.699	0.0163782
820.777	0.0162914
820.855	0.0163750
820.933	0.0163033
821.011	0.0161433
821.090	0.0161564
821.168	0.0162016
821.246	0.0162557
821.324	0.0160748
821.402	0.0161175
821.480	0.0161230
821.558	0.0160004
821.636	0.0160572
821.715	0.0159155
821.793	0.0158408
821.871	0.0159798
821.949	0.0159550
822.027	0.0158181
822.105	0.0158457
822.183	0.0157218
822.261	0.0158821
822.340	0.0158715
822.418	0.0158501
822.496	0.0159134
822.574	0.0158696
822.652	0.0156358
822.730	0.0158122
822.808	0.0157454
822.886	0.0157692
822.965	0.0159423
823.043	0.0160052
823.121	0.0160743
823.199	0.0160877
823.277	0.0159881
823.355	0.0160234
823.433	0.0162342
823.511	0.0161028
823.590	0.0161452
823.668	0.0162588
823.746	0.0163290
823.824	0.0163454
823.902	0.0164480
823.980	0.0164367
824.058	0.0164505
824.136	0.0165067
824.215	0.0165597
824.293	0.0165522
824.371	0.0165141
824.449	0.0165399
824.527	0.0165448
824.605	0.0165253
824.683	0.0164968
824.761	0.0164163
824.840	0.0165982
824.918	0.0165813
824.996	0.0164483
825.074	0.0164418
825.152	0.0163683
825.230	0.0162744
825.308	0.0162679
825.386	0.0163200
825.465	0.0163878
825.543	0.0161199
825.621	0.0161111
825.699	0.0160604
825.777	0.0160817
825.855	0.0159930
825.933	0.0159032
826.011	0.0159834
826.090	0.0159437
826.168	0.0158036
826.246	0.0158506
826.324	0.0158988
826.402	0.0158260
826.480	0.0159387
826.558	0.0158777
826.636	0.0158791
826.715	0.0158919
826.793	0.0158282
826.871	0.0158931
826.949	0.0159886
827.027	0.0160038
827.105	0.0160911
827.183	0.0162081
827.261	0.0162297
827.340	0.0161358
827.418	0.0160816
827.496	0.0161091
827.574	0.0162827
827.652	0.0162434
827.730	0.0162185
827.808	0.0161243
827.886	0.0161195
827.965	0.0162758
828.043	0.0161259
828.121	0.0162198
828.199	0.0163923
828.277	0.0162367
828.355	0.0162094
828.433	0.0162488
828.511	0.0162540
828.590	0.0161562
828.668	0.0163396
828.746	0.0162949
828.824	0.0162405
828.902	0.0162500
828.980	0.0162041
829.058	0.0162196
829.136	0.0162412
829.215	0.0162171
829.293	0.0162489
829.371	0.0160245
829.449	0.0161051
829.527	0.0162040
829.605	0.0161693
829.683	0.0161269
829.761	0.0159194
829.840	0.0160994
829.918	0.0160593
829.996	0.0159581
830.074	0.0160627
830.152	0.0160072
830.230	0.0160284
830.308	0.0159973
830.386	0.0159476
830.465	0.0161015
830.543	0.0160635
830.621	0.0159818
830.699	0.0162054
830.777	0.0161372
830.855	0.0160171
830.933	0.0162316
831.011	0.0162906
831.090	0.0162148
831.168	0.0163136
831.246	0.0163531
831.324	0.0162332
831.402	0.0163667
831.480	0.0162078
831.558	0.0162800
831.636	0.0163406
831.715	0.0162046
831.793	0.0163853
831.871	0.0163674
831.949	0.0162341
832.027	0.0161893
832.105	0.0163027
832.183	0.0162310
832.261	0.0163962
832.340	0.0161980
832.418	0.0162515
832.496	0.0160498
832.574	0.0161695
832.652	0.0162697
832.730	0.0162041
832.808	0.0161938
832.886	0.0161632
832.965	0.0162450
833.043	0.0163106
833.121	0.0161576
833.199	0.0161685
833.277	0.0161471
833.355	0.0160527
833.433	0.0160403
833.511	0.0161332
833.590	0.0161769
833.668	0.0160855
833.746	0.0160379
833.824	0.0161622
833.902	0.0160999
833.980	0.0163181
834.058	0.0160576
834.136	0.0160476
834.215	0.0161769
834.293	0.0161729
834.371	0.0161212
834.449	0.0161232
834.527	0.0161489
834.605	0.0161273
834.683	0.0160291
834.761	0.0161496
834.840	0.0162164
834.918	0.0160905
834.996	0.0160143
835.074	0.0161202
835.152	0.0162801
835.230	0.0161734
835.308	0.0160838
835.386	0.0161433
835.465	0.0161487
835.543	0.0162088
835.621	0.0162459
835.699	0.0161646
835.777	0.0161384
835.855	0.0162572
835.933	0.0162087
836.011	0.0163337
836.090	0.0162784
836.168	0.0161832
836.246	0.0162443
836.324	0.0163132
836.402	0.0163443
836.480	0.0162615
836.558	0.0163187
836.636	0.0162472
836.715	0.0163329
836.793	0.0161774
836.871	0.0161187
836.949	0.0161578
837.027	0.0163023
837.105	0.0161377
837.183	0.0161628
837.261	0.0162743
837.340	0.0162699
837.418	0.0162777
837.496	0.0163080
837.574	0.0163821
837.652	0.0161893
837.730	0.0163013
837.808	0.0163935
837.886	0.0161926
837.965	0.0162953
838.043	0.0163531
838.121	0.0163042
838.199	0.0162892
838.277	0.0162036
838.355	0.0162002
838.433	0.0162934
838.511	0.0161999
838.590	0.0160980
838.668	0.0162908
838.746	0.0161691
838.824	0.0160932
838.902	0.0160688
838.980	0.0159605
839.058	0.0161597
839.136	0.0161313
839.215	0.0160625
839.293	0.0161781
839.371	0.0159068
839.449	0.0159004
839.527	0.0159980
839.605	0.0158731
839.683	0.0159943
839.761	0.0160164
839.840	0.0159927
839.918	0.0160435
839.996	0.0160430
840.074	0.0160286
840.152	0.0159783
840.230	0.0159520
840.308	0.0159795
840.386	0.0161596
840.465	0.0160495
840.543	0.0161511
840.621	0.0160718
840.699	0.0160617
840.777	0.0161693
840.855	0.0162238
840.933	0.0161858
841.011	0.0161961
841.090	0.0161235
841.168	0.0162576
841.246	0.0162745
841.324	0.0160974
841.402	0.0162741
841.480	0.0162232
841.558	0.0161508
841.636	0.0162544
841.715	0.0162395
841.793	0.0162389
841.871	0.0162051
841.949	0.0162666
842.027	0.0162566
842.105	0.0162074
842.183	0.0162969
842.261	0.0162010
842.340	0.0163135
842.418	0.0163116
842.496	0.0163007
842.574	0.0162925
842.652	0.0162412
842.730	0.0161369
842.808	0.0163853
842.886	0.0161902
842.965	0.0161829
843.043	0.0160931
843.121	0.0160893
843.199	0.0162054
843.277	0.0162959
843.355	0.0162144
843.433	0.0160760
843.511	0.0159689
843.590	0.0159146
843.668	0.0160240
843.746	0.0160490
843.824	0.0160237
843.902	0.0159998
843.980	0.0158955
844.058	0.0159198
844.136	0.0159827
844.215	0.0159296
844.293	0.0160641
844.371	0.0159983
844.449	0.0159810
844.527	0.0159297
844.605	0.0160828
844.683	0.0159933
844.761	0.0161389
844.840	0.0160207
844.918	0.0161320
844.996	0.0161285
845.074	0.0161832
845.152	0.0161047
845.230	0.0162388
845.308	0.0162647
845.386	0.0161593
845.465	0.0162213
845.543	0.0162881
845.621	0.0162563
845.699	0.0161443
845.777	0.0161214
845.855	0.0161779
845.933	0.0163395
846.011	0.0162003
846.090	0.0161926
846.168	0.0162724
846.246	0.0161847
846.324	0.0161816
846.402	0.0162289
846.480	0.0161813
846.558	0.0160558
846.636	0.0162110
846.715	0.0161345
846.793	0.0162621
846.871	0.0161257
846.949	0.0162770
847.027	0.0162038
847.105	0.0162464
847.183	0.0162242
847.261	0.0163041
847.340	0.0162248
847.418	0.0162687
847.496	0.0161234
847.574	0.0161337
847.652	0.0163804
847.730	0.0161623
847.808	0.0162684
847.886	0.0163376
847.965	0.0162895
848.043	0.0162115
848.121	0.0162016
848.199	0.0160059
848.277	0.0161986
848.355	0.0161617
848.433	0.0160343
848.511	0.0160362
848.590	0.0162189
848.668	0.0161677
848.746	0.0161794
848.824	0.0160472
848.902	0.0161181
848.980	0.0160104
849.058	0.0160814
849.136	0.0159481
849.215	0.0159406
849.293	0.0160455
849.371	0.0161060
849.449	0.0160693
849.527	0.0160743
849.605	0.0160014
849.683	0.0160826
849.761	0.0160410
849.840	0.0160819
849.918	0.0160713
849.996	0.0160981
850.074	0.0160700
850.152	0.0159492
850.230	0.0160806
850.308	0.0161168
850.386	0.0160520
850.465	0.0160526
850.543	0.0159845
850.621	0.0160798
850.699	0.0161275
850.777	0.0161159
850.855	0.0160448
850.933	0.0161275
851.011	0.0161925
851.090	0.0161693
851.168	0.0161277
851.246	0.0161558
851.324	0.0161357
851.402	0.0160993
851.480	0.0162102
851.558	0.0161517
851.636	0.0162383
851.715	0.0163307
851.793	0.0162797
851.871	0.0163419
851.949	0.0163305
852.027	0.0162811
852.105	0.0161842
852.183	0.0162818
852.261	0.0162910
852.340	0.0163844
852.418	0.0162139
852.496	0.0163668
852.574	0.0163412
852.652	0.0163462
852.730	0.0162804
852.808	0.0162954
852.886	0.0162566
852.965	0.0162616
853.043	0.0162691
853.121	0.0161098
853.199	0.0161449
853.277	0.0161327
853.355	0.0160540
853.433	0.0160954
853.511	0.0162127
853.590	0.0160590
853.668	0.0160320
853.746	0.0159946
853.824	0.0160833
853.902	0.0161066
853.980	0.0160868
854.058	0.0160135
854.136	0.0159676
854.215	0.0161497
854.293	0.0161040
854.371	0.0161691
854.449	0.0160799
854.527	0.0160651
854.605	0.0161722
854.683	0.0161768
854.761	0.0160945
854.840	0.0160398
854.918	0.0160823
854.996	0.0161132
855.074	0.0161697
855.152	0.0161008
855.230	0.0161429
855.308	0.0159456
855.386	0.0160843
855.465	0.0160648
855.543	0.0160600
855.621	0.0162914
855.699	0.0162206
855.777	0.0161777
855.855	0.0162669
855.933	0.0162194
856.011	0.0161812
856.090	0.0161977
856.168	0.0161169
856.246	0.0162659
856.324	0.0163044
856.402	0.0164146
856.480	0.0163971
856.558	0.0163651
856.636	0.0161724
856.715	0.0163007
856.793	0.0163318
856.871	0.0161776
856.949	0.0161681
857.027	0.0162416
857.105	0.0162661
857.183	0.0162984
857.261	0.0161055
857.340	0.0160569
857.418	0.0162683
857.496	0.0161813
857.574	0.0161605
857.652	0.0161282
857.730	0.0162109
857.808	0.0161563
857.886	0.0161626
857.965	0.0161583
858.043	0.0161649
858.121	0.0162959
858.199	0.0160701
858.277	0.0161712
858.355	0.0162654
858.433	0.0161216
858.511	0.0161184
858.590	0.0161514
858.668	0.0161564
858.746	0.0162074
858.824	0.0162019
858.902	0.0161958
858.980	0.0162006
859.058	0.0160523
859.136	0.0161295
859.215	0.0162374
859.293	0.0161210
859.371	0.0161462
859.449	0.0160121
859.527	0.0161179
859.605	0.0161222
859.683	0.0160692
859.761	0.0160346
859.840	0.0161002
859.918	0.0161871
859.996	0.0160941
860.074	0.0161285
860.152	0.0161275
860.230	0.0159876
860.308	0.0160201
860.386	0.0160405
860.465	0.0160641
860.543	0.0160366
860.621	0.0161284
860.699	0.0160681
860.777	0.0160088
860.855	0.0160139
860.933	0.0160209
861.011	0.0161204
861.090	0.0160635
861.168	0.0160806
861.246	0.0160878
861.324	0.0160997
861.402	0.0160873
861.480	0.0160711
861.558	0.0162695
861.636	0.0161245
861.715	0.0160976
861.793	0.0163313
861.871	0.0163377
861.949	0.0161446
862.027	0.0160992
862.105	0.0162669
862.183	0.0161570
862.261	0.0162285
862.340	0.0161964
862.418	0.0162862
862.496	0.0163507
862.574	0.0161272
862.652	0.0162634
862.730	0.0162939
862.808	0.0162373
862.886	0.0162368
862.965	0.0162405
863.043	0.0161652
863.121	0.0161130
863.199	0.0161654
863.277	0.0161499
863.355	0.0162700
863.433	0.0161490
863.511	0.0161733
863.590	0.0161950
863.668	0.0162006
863.746	0.0160898
863.824	0.0162540
863.902	0.0161633
863.980	0.0160585
864.058	0.0161441
864.136	0.0161199
864.215	0.0160925
864.293	0.0159383
864.371	0.0161246
864.449	0.0160742
864.527	0.0159300
864.605	0.0158922
864.683	0.0159824
864.761	0.0159878
864.840	0.0160061
864.918	0.0160413
864.996	0.0159731
865.074	0.0159674
865.152	0.0160486
865.230	0.0160270
865.308	0.0160269
865.386	0.0161170
865.465	0.0159402
865.543	0.0160896
865.621	0.0160735
865.699	0.0162554
865.777	0.0163219
865.855	0.0161502
865.933	0.0161908
866.011	0.0161232
866.090	0.0162769
866.168	0.0162817
866.246	0.0163224
866.324	0.0162519
866.402	0.0161785
866.480	0.0161739
866.558	0.0161414
866.636	0.0161213
866.715	0.0161210
866.793	0.0161294
866.871	0.0160695
866.949	0.0162261
867.027	0.0161569
867.105	0.0160913
867.183	0.0161050
867.261	0.0161021
867.340	0.0162010
867.418	0.0161356
867.496	0.0161223
867.574	0.0161146
867.652	0.0161794
867.730	0.0163000
867.808	0.0161612
867.886	0.0162924
867.965	0.0162734
868.043	0.0162086
868.121	0.0162160
868.199	0.0162175
868.277	0.0162811
868.355	0.0162929
868.433	0.0162637
868.511	0.0162366
868.590	0.0161980
868.668	0.0162704
868.746	0.0162175
868.824	0.0161790
868.902	0.0160304
868.980	0.0161788
869.058	0.0161113
869.136	0.0160883
869.215	0.0161201
869.293	0.0160050
869.371	0.0160297
869.449	0.0161520
869.527	0.0160726
869.605	0.0161368
869.683	0.0160481
869.761	0.0159721
869.840	0.0161558
869.918	0.0161091
869.996	0.0160819
870.074	0.0160686
870.152	0.0160181
870.230	0.0160615
870.308	0.0160300
870.386	0.0159401
870.465	0.0160204
870.543	0.0158507
870.621	0.0159950
870.699	0.0160020
870.777	0.0159149
870.855	0.0160008
870.933	0.0160126
871.011	0.0160059
871.090	0.0159335
871.168	0.0161587
871.246	0.0158517
871.324	0.0159348
871.402	0.0160989
871.480	0.0160419
871.558	0.0161352
871.636	0.0160914
871.715	0.0161159
871.793	0.0161722
871.871	0.0162257
871.949	0.0162328
872.027	0.0162235
872.105	0.0162466
872.183	0.0161676
872.261	0.0163207
872.340	0.0162956
872.418	0.0165263
872.496	0.0161771
872.574	0.0162635
872.652	0.0163789
872.730	0.0163069
872.808	0.0162728
872.886	0.0163398
872.965	0.0162743
873.043	0.0163492
873.121	0.0162783
873.199	0.0162191
873.277	0.0161543
873.355	0.0162841
873.433	0.0162173
873.511	0.0163083
873.590	0.0162019
873.668	0.0162143
873.746	0.0161912
873.824	0.0162878
873.902	0.0162801
873.980	0.0162022
874.058	0.0161836
874.136	0.0162430
874.215	0.0160275
874.293	0.0161841
874.371	0.0162042
874.449	0.0162347
874.527	0.0163052
874.605	0.0162133
874.683	0.0160995
874.761	0.0161282
874.840	0.0162272
874.918	0.0161614
874.996	0.0161302
875.074	0.0162410
875.152	0.0161333
875.230	0.0161907
875.308	0.0160202
875.386	0.0160526
875.465	0.0161945
875.543	0.0161078
875.621	0.0161753
875.699	0.0159985
875.777	0.0160888
875.855	0.0161784
875.933	0.0161002
876.011	0.0160216
876.090	0.0161504
876.168	0.0160628
876.246	0.0160271
876.324	0.0160078
876.402	0.0159971
876.480	0.0159640
876.558	0.0160059
876.636	0.0162118
876.715	0.0162458
876.793	0.0161888
876.871	0.0161101
876.949	0.0161774
877.027	0.0162194
877.105	0.0161987
877.183	0.0161158
877.261	0.0162228
877.340	0.0162785
877.418	0.0160564
877.496	0.0162605
877.574	0.0162312
877.652	0.0161436
877.730	0.0161171
877.808	0.0161807
877.886	0.0160950
877.965	0.0162589
878.043	0.0164545
878.121	0.0163619
878.199	0.0163232
878.277	0.0163236
878.355	0.0162540
878.433	0.0162940
878.511	0.0164536
878.590	0.0164566
878.668	0.0163268
878.746	0.0162610
878.824	0.0163905
878.902	0.0163289
878.980	0.0163363
879.058	0.0163497
879.136	0.0162880
879.215	0.0162827
879.293	0.0162410
879.371	0.0163901
879.449	0.0164037
879.527	0.0163175
879.605	0.0161865
879.683	0.0162299
879.761	0.0162967
879.840	0.0160928
879.918	0.0162663
879.996	0.0162973
880.074	0.0160841
880.152	0.0161626
880.230	0.0161208
880.308	0.0162025
880.386	0.0162300
880.465	0.0160083
880.543	0.0161298
880.621	0.0160316
880.699	0.0161001
880.777	0.0161160
880.855	0.0160324
880.933	0.0160013
881.011	0.0160507
881.090	0.0160063
881.168	0.0161051
881.246	0.0160887
881.324	0.0161019
881.402	0.0163456
881.480	0.0160598
881.558	0.0160991
881.636	0.0160836
881.715	0.0161403
881.793	0.0163290
881.871	0.0161108
881.949	0.0161999
882.027	0.0161629
882.105	0.0161881
882.183	0.0161487
882.261	0.0163724
882.340	0.0161938
882.418	0.0161299
882.496	0.0162909
882.574	0.0162102
882.652	0.0162378
882.730	0.0161301
882.808	0.0160952
882.886	0.0161254
882.965	0.0161430
883.043	0.0162202
883.121	0.0161848
883.199	0.0161171
883.277	0.0160847
883.355	0.0162530
883.433	0.0162350
883.511	0.0161780
883.590	0.0161092
883.668	0.0162035
883.746	0.0162829
883.824	0.0162868
883.902	0.0161457
883.980	0.0161137
884.058	0.0162202
884.136	0.0162769
884.215	0.0161887
884.293	0.0161543
884.371	0.0162206
884.449	0.0163521
884.527	0.0161374
884.605	0.0161745
884.683	0.0161443
884.761	0.0162195
884.840	0.0162135
884.918	0.0161753
884.996	0.0162149
885.074	0.0162058
885.152	0.0163158
885.230	0.0162207
885.308	0.0163759
885.386	0.0161107
885.465	0.0161659
885.543	0.0162029
885.621	0.0162756
885.699	0.0161494
885.777	0.0161934
885.855	0.0161949
885.933	0.0161029
886.011	0.0160944
886.090	0.0161716
886.168	0.0161417
886.246	0.0160735
886.324	0.0161649
886.402	0.0160961
886.480	0.0160837
886.558	0.0162649
886.636	0.0160213
886.715	0.0159522
886.793	0.0160200
886.871	0.0161745
886.949	0.0159599
887.027	0.0160533
887.105	0.0161497
887.183	0.0161913
887.261	0.0161516
887.340	0.0160762
887.418	0.0161272
887.496	0.0160268
887.574	0.0161754
887.652	0.0161180
887.730	0.0163694
887.808	0.0161937
887.886	0.0162483
887.965	0.0163493
888.043	0.0162731
888.121	0.0163335
888.199	0.0162896
888.277	0.0162505
888.355	0.0162738
888.433	0.0162701
888.511	0.0162507
888.590	0.0162019
888.668	0.0162920
888.746	0.0162920
888.824	0.0161738
888.902	0.0162424
888.980	0.0162082
889.058	0.0161909
889.136	0.0162520
889.215	0.0162228
889.293	0.0161914
889.371	0.0162594
889.449	0.0163552
889.527	0.0162036
889.605	0.0162273
889.683	0.0160719
889.761	0.0160894
889.840	0.0161792
889.918	0.0162572
889.996	0.0160702
890.074	0.0160770
890.152	0.0161873
890.230	0.0161084
890.308	0.0161596
890.386	0.0162965
890.465	0.0162041
890.543	0.0162347
890.621	0.0161530
890.699	0.0161819
890.777	0.0163064
890.855	0.0161765
890.933	0.0161945
891.011	0.0162092
891.090	0.0162109
891.168	0.0160435
891.246	0.0161391
891.324	0.0161322
891.402	0.0161300
891.480	0.0161501
891.558	0.0161665
891.636	0.0161291
891.715	0.0159691
891.793	0.0161923
891.871	0.0161338
891.949	0.0161180
892.027	0.0160303
892.105	0.0162503
892.183	0.0161927
892.261	0.0161013
892.340	0.0159963
892.418	0.0161761
892.496	0.0161179
892.574	0.0162598
892.652	0.0163074
892.730	0.0162010
892.808	0.0162171
892.886	0.0161754
892.965	0.0162124
893.043	0.0161423
893.121	0.0161198
893.199	0.0161535
893.277	0.0161684
893.355	0.0161806
893.433	0.0161752
893.511	0.0162994
893.590	0.0160253
893.668	0.0161773
893.746	0.0162346
893.824	0.0160394
893.902	0.0161373
893.980	0.0161968
894.058	0.0161764
894.136	0.0161230
894.215	0.0161162
894.293	0.0161038
894.371	0.0161001
894.449	0.0161506
894.527	0.0162274
894.605	0.0161718
894.683	0.0161898
894.761	0.0161935
894.840	0.0161771
894.918	0.0162659
894.996	0.0161281
895.074	0.0162716
895.152	0.0161613
895.230	0.0162641
895.308	0.0161745
895.386	0.0161113
895.465	0.0161897
895.543	0.0161673
895.621	0.0162108
895.699	0.0162068
895.777	0.0161108
895.855	0.0162224
895.933	0.0160971
896.011	0.0161126
896.090	0.0162012
896.168	0.0160570
896.246	0.0160938
896.324	0.0160397
896.402	0.0160972
896.480	0.0160555
896.558	0.0159568
896.636	0.0161573
896.715	0.0160724
896.793	0.0160284
896.871	0.0159471
896.949	0.0161401
897.027	0.0160082
897.105	0.0160309
897.183	0.0160396
897.261	0.0160629
897.340	0.0160172
897.418	0.0160794
897.496	0.0160466
897.574	0.0161004
897.652	0.0160054
897.730	0.0160433
897.808	0.0160008
897.886	0.0162132
897.965	0.0162914
898.043	0.0161853
898.121	0.0160470
898.199	0.0161550
898.277	0.0162122
898.355	0.0162459
898.433	0.0162478
898.511	0.0162804
898.590	0.0162791
898.668	0.0163359
898.746	0.0163715
898.824	0.0162625
898.902	0.0162507
898.980	0.0163410
899.058	0.0163765
899.136	0.0163531
899.215	0.0161576
899.293	0.0163210
899.371	0.0162223
899.449	0.0160803
899.527	0.0162479
899.605	0.0162859
899.683	0.0160391
899.761	0.0160943
899.840	0.0161800
899.918	0.0160577
899.996	0.0161217
900.074	0.0161322
900.152	0.0161600
900.230	0.0161745
900.308	0.0160867
900.386	0.0161370
900.465	0.0161508
900.543	0.0162020
900.621	0.0159795
900.699	0.0161005
900.777	0.0161207
900.855	0.0160120
900.933	0.0162397
901.011	0.0161085
901.090	0.0161942
901.168	0.0160790
901.246	0.0160852
901.324	0.0160619
901.402	0.0161755
901.480	0.0161338
901.558	0.0160303
901.636	0.0161073
901.715	0.0161559
901.793	0.0161701
901.871	0.0161934
901.949	0.0161299
902.027	0.0162168
902.105	0.0161098
902.183	0.0161397
902.261	0.0161106
902.340	0.0161385
902.418	0.0162680
902.496	0.0161233
902.574	0.0161242
902.652	0.0162651
902.730	0.0161385
902.808	0.0162632
902.886	0.0158990
902.965	0.0162060
903.043	0.0161706
903.121	0.0159898
903.199	0.0161321
903.277	0.0160789
903.355	0.0161293
903.433	0.0161032
903.511	0.0160595
903.590	0.0160516
903.668	0.0162576
903.746	0.0161884
903.824	0.0160757
903.902	0.0160992
903.980	0.0161621
904.058	0.0162139
904.136	0.0161983
904.215	0.0162003
904.293	0.0161015
904.371	0.0162309
904.449	0.0162894
904.527	0.0161694
904.605	0.0160823
904.683	0.0162801
904.761	0.0161862
904.840	0.0162050
904.918	0.0162453
904.996	0.0162738
905.074	0.0162283
905.152	0.0163738
905.230	0.0163962
905.308	0.0162550
905.386	0.0162263
905.465	0.0163039
905.543	0.0161189
905.621	0.0160513
905.699	0.0160587
905.777	0.0160563
905.855	0.0161813
905.933	0.0162788
906.011	0.0162271
906.090	0.0162070
906.168	0.0163122
906.246	0.0161852
906.324	0.0162183
906.402	0.0161568
906.480	0.0161304
906.558	0.0162554
906.636	0.0162010
906.715	0.0161013
906.793	0.0161909
906.871	0.0161913
906.949	0.0161942
907.027	0.0161387
907.105	0.0161671
907.183	0.0162230
907.261	0.0160174
907.340	0.0161006
907.418	0.0160808
907.496	0.0160498
907.574	0.0160291
907.652	0.0161353
907.730	0.0161007
907.808	0.0161527
907.886	0.0161629
907.965	0.0160641
908.043	0.0160377
908.121	0.0161980
908.199	0.0161513
908.277	0.0161773
908.355	0.0162103
908.433	0.0162113
908.511	0.0162798
908.590	0.0162527
908.668	0.0163319
908.746	0.0161443
908.824	0.0162123
908.902	0.0162959
908.980	0.0161130
909.058	0.0163120
909.136	0.0162214
909.215	0.0162127
909.293	0.0159994
909.371	0.0161502
909.449	0.0161359
909.527	0.0161349
909.605	0.0162012
909.683	0.0161288
909.761	0.0159857
909.840	0.0159832
909.918	0.0160864
909.996	0.0160536
910.074	0.0160915
910.152	0.0162255
910.230	0.0161712
910.308	0.0160593
910.386	0.0161347
910.465	0.0160829
910.543	0.0161198
910.621	0.0162053
910.699	0.0160872
910.777	0.0160985
910.855	0.0160490
910.933	0.0162280
911.011	0.0161288
911.090	0.0161899
911.168	0.0163178
911.246	0.0162540
911.324	0.0162177
911.402	0.0161441
911.480	0.0161389
911.558	0.0162575
911.636	0.0162688
911.715	0.0160992
911.793	0.0162166
911.871	0.0162145
911.949	0.0160761
912.027	0.0161521
912.105	0.0161043
912.183	0.0161612
912.261	0.0161645
912.340	0.0160094
912.418	0.0161647
912.496	0.0161190
912.574	0.0162195
912.652	0.0161546
912.730	0.0160421
912.808	0.0161572
912.886	0.0161797
912.965	0.0162016
913.043	0.0159709
913.121	0.0161212
913.199	0.0160994
913.277	0.0161711
913.355	0.0161996
913.433	0.0161562
913.511	0.0161870
913.590	0.0160162
913.668	0.0160680
913.746	0.0162068
913.824	0.0160338
913.902	0.0159653
913.980	0.0161227
914.058	0.0161678
914.136	0.0160722
914.215	0.0161306
914.293	0.0161082
914.371	0.0163388
914.449	0.0162225
914.527	0.0161651
914.605	0.0162434
914.683	0.0163097
914.761	0.0163651
914.840	0.0163212
914.918	0.0163011
914.996	0.0162681
915.074	0.0163879
915.152	0.0163018
915.230	0.0162383
915.308	0.0163622
915.386	0.0163371
915.465	0.0162461
915.543	0.0162513
915.621	0.0164103
915.699	0.0161661
915.777	0.0160555
915.855	0.0161919
915.933	0.0161565
916.011	0.0161741
916.090	0.0161397
916.168	0.0160149
916.246	0.0160477
916.324	0.0160497
916.402	0.0160246
916.480	0.0161806
916.558	0.0160551
916.636	0.0161459
916.715	0.0160565
916.793	0.0161973
916.871	0.0161269
916.949	0.0160747
917.027	0.0160298
917.105	0.0161230
917.183	0.0162046
917.261	0.0160471
917.340	0.0160870
917.418	0.0162258
917.496	0.0161678
917.574	0.0163251
917.652	0.0163318
917.730	0.0162373
917.808	0.0163087
917.886	0.0161680
917.965	0.0162379
918.043	0.0162690
918.121	0.0162798
918.199	0.0164146
918.277	0.0163811
918.355	0.0161835
918.433	0.0162166
918.511	0.0163251
918.590	0.0162579
918.668	0.0162156
918.746	0.0164392
918.824	0.0163564
918.902	0.0161797
918.980	0.0162576
919.058	0.0162914
919.136	0.0163052
919.215	0.0162331
919.293	0.0162749
919.371	0.0160653
919.449	0.0161775
919.527	0.0162682
919.605	0.0162135
919.683	0.0160639
919.761	0.0161345
919.840	0.0161457
919.918	0.0161405
919.996	0.0161668
920.074	0.0161233
920.152	0.0160873
920.230	0.0159949
920.308	0.0160947
920.386	0.0161566
920.465	0.0161554
920.543	0.0160845
920.621	0.0161257
920.699	0.0160589
920.777	0.0161330
920.855	0.0161688
920.933	0.0160748
921.011	0.0162368
921.090	0.0162428
921.168	0.0161285
921.246	0.0162327
921.324	0.0161999
921.402	0.0163013
921.480	0.0162393
921.558	0.0162086
921.636	0.0162018
921.715	0.0162489
921.793	0.0161035
921.871	0.0162552
921.949	0.0162062
922.027	0.0162615
922.105	0.0162496
922.183	0.0159882
922.261	0.0162151
922.340	0.0162299
922.418	0.0160970
922.496	0.0162260
922.574	0.0161221
922.652	0.0163033
922.730	0.0161586
922.808	0.0161047
922.886	0.0162394
922.965	0.0162087
923.043	0.0162239
923.121	0.0162927
923.199	0.0162690
923.277	0.0162111
923.355	0.0162428
923.433	0.0162654
923.511	0.0161125
923.590	0.0161195
923.668	0.0161771
923.746	0.0162689
923.824	0.0161084
923.902	0.0160785
923.980	0.0160454
924.058	0.0161896
924.136	0.0160653
924.215	0.0161495
924.293	0.0161513
924.371	0.0163616
924.449	0.0162240
924.527	0.0160705
924.605	0.0161103
924.683	0.0161402
924.761	0.0161413
924.840	0.0160609
924.918	0.0161716
924.996	0.0161555
925.074	0.0161300
925.152	0.0161707
925.230	0.0160867
925.308	0.0162193
925.386	0.0162390
925.465	0.0163147
925.543	0.0161996
925.621	0.0160951
925.699	0.0163302
925.777	0.0163942
925.855	0.0162414
925.933	0.0161292
926.011	0.0161652
926.090	0.0162117
926.168	0.0161568
926.246	0.0162820
926.324	0.0164451
926.402	0.0162033
926.480	0.0163148
926.558	0.0163091
926.636	0.0162624
926.715	0.0161034
926.793	0.0161513
926.871	0.0164048
926.949	0.0162057
927.027	0.0161775
927.105	0.0163031
927.183	0.0161578
927.261	0.0162707
927.340	0.0162629
927.418	0.0161559
927.496	0.0161087
927.574	0.0160575
927.652	0.0161435
927.730	0.0161952
927.808	0.0161668
927.886	0.0160814
927.965	0.0161965
928.043	0.0162800
928.121	0.0161713
928.199	0.0159579
928.277	0.0161284
928.355	0.0160867
928.433	0.0160980
928.511	0.0161289
928.590	0.0161375
928.668	0.0161709
928.746	0.0160578
928.824	0.0161654
928.902	0.0160472
928.980	0.0161521
929.058	0.0161379
929.136	0.0161145
929.215	0.0161517
929.293	0.0161598
929.371	0.0161874
929.449	0.0162436
929.527	0.0161973
929.605	0.0161561
929.683	0.0162172
929.761	0.0161808
929.840	0.0161561
929.918	0.0161477
929.996	0.0162741
930.074	0.0162511
930.152	0.0162190
930.230	0.0162200
930.308	0.0161858
930.386	0.0160825
930.465	0.0161184
930.543	0.0161185
930.621	0.0161536
930.699	0.0162044
930.777	0.0160789
930.855	0.0161703
930.933	0.0162278
931.011	0.0161330
931.090	0.0162731
931.168	0.0161961
931.246	0.0162633
931.324	0.0162848
931.402	0.0161678
931.480	0.0161091
931.558	0.0161922
931.636	0.0161743
931.715	0.0162347
931.793	0.0161359
931.871	0.0160208
931.949	0.0160918
932.027	0.0162118
932.105	0.0160802
932.183	0.0161803
932.261	0.0163046
932.340	0.0160784
932.418	0.0161625
932.496	0.0161639
932.574	0.0161497
932.652	0.0161446
932.730	0.0161459
932.808	0.0161536
932.886	0.0160457
932.965	0.0162450
933.043	0.0162688
933.121	0.0160978
933.199	0.0161479
933.277	0.0160997
933.355	0.0160830
933.433	0.0160885
933.511	0.0160441
933.590	0.0160943
933.668	0.0160527
933.746	0.0161407
933.824	0.0161526
933.902	0.0160084
933.980	0.0161427
934.058	0.0162605
934.136	0.0160894
934.215	0.0160270
934.293	0.0162141
934.371	0.0161493
934.449	0.0161845
934.527	0.0160612
934.605	0.0163306
934.683	0.0161007
934.761	0.0161945
934.840	0.0161443
934.918	0.0162321
934.996	0.0161469
935.074	0.0161576
935.152	0.0161569
935.230	0.0161369
935.308	0.0161913
935.386	0.0162599
935.465	0.0162811
935.543	0.0161326
935.621	0.0161510
935.699	0.0163274
935.777	0.0161541
935.855	0.0162324
935.933	0.0162231
936.011	0.0162253
936.090	0.0162605
936.168	0.0162646
936.246	0.0161856
936.324	0.0161439
936.402	0.0162014
936.480	0.0162946
936.558	0.0161446
936.636	0.0161350
936.715	0.0161962
936.793	0.0162290
936.871	0.0160641
936.949	0.0160773
937.027	0.0160944
937.105	0.0160963
937.183	0.0161433
937.261	0.0160829
937.340	0.0160958
937.418	0.0161023
937.496	0.0160925
937.574	0.0161456
937.652	0.0162933
937.730	0.0160809
937.808	0.0161198
937.886	0.0161323
937.965	0.0160099
938.043	0.0161912
938.121	0.0162923
938.199	0.0162172
938.277	0.0160303
938.355	0.0162123
938.433	0.0159049
938.511	0.0160671
938.590	0.0161385
938.668	0.0162132
938.746	0.0161639
938.824	0.0161991
938.902	0.0162006
938.980	0.0162649
939.058	0.0162352
939.136	0.0161578
939.215	0.0161781
939.293	0.0161758
939.371	0.0162029
939.449	0.0163498
939.527	0.0162604
939.605	0.0160391
939.683	0.0161163
939.761	0.0162120
939.840	0.0163235
939.918	0.0162293
939.996	0.0161378
940.074	0.0161803
940.152	0.0161126
940.230	0.0162675
940.308	0.0162862
940.386	0.0162641
940.465	0.0162197
940.543	0.0162623
940.621	0.0161065
940.699	0.0161348
940.777	0.0162483
940.855	0.0163200
940.933	0.0162984
941.011	0.0161248
941.090	0.0161161
941.168	0.0161514
941.246	0.0161599
941.324	0.0161747
941.402	0.0161662
941.480	0.0160806
941.558	0.0161192
941.636	0.0161711
941.715	0.0161138
941.793	0.0161445
941.871	0.0160983
941.949	0.0162495
942.027	0.0161484
942.105	0.0161022
942.183	0.0161019
942.261	0.0162032
942.340	0.0163351
942.418	0.0163020
942.496	0.0162697
942.574	0.0161430
942.652	0.0161576
942.730	0.0161731
942.808	0.0161903
942.886	0.0162383
942.965	0.0161653
943.043	0.0162473
943.121	0.0161913
943.199	0.0162500
943.277	0.0161940
943.355	0.0161308
943.433	0.0162675
943.511	0.0162060
943.590	0.0162553
943.668	0.0162020
943.746	0.0161857
943.824	0.0162231
943.902	0.0160395
943.980	0.0162630
944.058	0.0164024
944.136	0.0161300
944.215	0.0161109
944.293	0.0161531
944.371	0.0164300
944.449	0.0162344
944.527	0.0161646
944.605	0.0161228
944.683	0.0161656
944.761	0.0161946
944.840	0.0160815
944.918	0.0162264
944.996	0.0161329
945.074	0.0160282
945.152	0.0161691
945.230	0.0162318
945.308	0.0161860
945.386	0.0161299
945.465	0.0161102
945.543	0.0161813
945.621	0.0162576
945.699	0.0160490
945.777	0.0161691
945.855	0.0161729
945.933	0.0160191
946.011	0.0161272
946.090	0.0161817
946.168	0.0160233
946.246	0.0160992
946.324	0.0161652
946.402	0.0161298
946.480	0.0163041
946.558	0.0160744
946.636	0.0161640
946.715	0.0161314
946.793	0.0161955
946.871	0.0161513
946.949	0.0161409
947.027	0.0162791
947.105	0.0160838
947.183	0.0162156
947.261	0.0162267
947.340	0.0162190
947.418	0.0161602
947.496	0.0162359
947.574	0.0162304
947.652	0.0162115
947.730	0.0162545
947.808	0.0160845
947.886	0.0163269
947.965	0.0161515
948.043	0.0160976
948.121	0.0162478
948.199	0.0162410
948.277	0.0161263
948.355	0.0162117
948.433	0.0160548
948.511	0.0162130
948.590	0.0160617
948.668	0.0159448
948.746	0.0162369
948.824	0.0160918
948.902	0.0160954
948.980	0.0160370
949.058	0.0160899
949.136	0.0162437
949.215	0.0161943
949.293	0.0163071
949.371	0.0162060
949.449	0.0161589
949.527	0.0161952
949.605	0.0161720
949.683	0.0160925
949.761	0.0162014
949.840	0.0161779
949.918	0.0159840
