06/29/2022	22:42:59	Ver.	4.1	UNKNOWN
Optical Delay	630.002507	Delta X		0.078125	Sweeps	1	Scan Rate	0/0
Coordinates	Axis 1	NaN	Axis 2	NaN	Axis 3	NaN	Axis 4	NaN	Axis 5	NaN	Axis 6	0.000000
TX Power	0.000000	RX Power	0.000000

630.003	0.0160798
630.081	0.0160310
630.159	0.0160655
630.237	0.0160336
630.315	0.0161230
630.393	0.0160888
630.471	0.0159341
630.549	0.0161518
630.628	0.0160191
630.706	0.0161288
630.784	0.0161395
630.862	0.0160756
630.940	0.0161446
631.018	0.0159288
631.096	0.0160349
631.174	0.0161263
631.253	0.0162830
631.331	0.0161526
631.409	0.0160111
631.487	0.0161764
631.565	0.0162588
631.643	0.0161179
631.721	0.0161478
631.799	0.0160133
631.878	0.0161115
631.956	0.0161237
632.034	0.0161671
632.112	0.0160677
632.190	0.0160987
632.268	0.0160696
632.346	0.0161024
632.424	0.0163029
632.503	0.0160654
632.581	0.0160213
632.659	0.0160588
632.737	0.0160856
632.815	0.0161948
632.893	0.0159930
632.971	0.0161018
633.049	0.0161855
633.128	0.0161584
633.206	0.0159765
633.284	0.0160683
633.362	0.0160413
633.440	0.0160667
633.518	0.0159618
633.596	0.0161917
633.674	0.0160767
633.753	0.0161208
633.831	0.0160633
633.909	0.0160960
633.987	0.0161583
634.065	0.0162112
634.143	0.0160408
634.221	0.0160616
634.299	0.0160978
634.378	0.0160397
634.456	0.0161165
634.534	0.0160495
634.612	0.0160839
634.690	0.0160266
634.768	0.0159832
634.846	0.0162430
634.924	0.0160536
635.003	0.0161303
635.081	0.0161217
635.159	0.0159632
635.237	0.0160834
635.315	0.0160368
635.393	0.0161079
635.471	0.0161221
635.549	0.0163062
635.628	0.0161050
635.706	0.0160620
635.784	0.0160902
635.862	0.0160365
635.940	0.0161526
636.018	0.0160914
636.096	0.0162437
636.174	0.0160210
636.253	0.0160856
636.331	0.0162350
636.409	0.0161350
636.487	0.0161641
636.565	0.0161232
636.643	0.0160256
636.721	0.0161512
636.799	0.0162946
636.878	0.0159397
636.956	0.0161198
637.034	0.0161107
637.112	0.0161002
637.190	0.0160281
637.268	0.0160288
637.346	0.0161803
637.424	0.0161665
637.503	0.0161037
637.581	0.0160450
637.659	0.0160497
637.737	0.0161287
637.815	0.0160240
637.893	0.0161236
637.971	0.0161756
638.049	0.0159882
638.128	0.0161723
638.206	0.0161672
638.284	0.0160500
638.362	0.0161975
638.440	0.0161994
638.518	0.0161144
638.596	0.0161488
638.674	0.0160841
638.753	0.0160204
638.831	0.0161703
638.909	0.0160199
638.987	0.0160950
639.065	0.0161490
639.143	0.0161002
639.221	0.0161861
639.299	0.0161291
639.378	0.0160441
639.456	0.0161572
639.534	0.0160616
639.612	0.0159619
639.690	0.0160523
639.768	0.0161130
639.846	0.0161220
639.924	0.0162040
640.003	0.0161035
640.081	0.0161125
640.159	0.0162273
640.237	0.0161661
640.315	0.0161295
640.393	0.0161012
640.471	0.0160394
640.549	0.0161238
640.628	0.0161794
640.706	0.0161459
640.784	0.0159969
640.862	0.0160166
640.940	0.0160906
641.018	0.0161776
641.096	0.0161654
641.174	0.0162431
641.253	0.0161129
641.331	0.0161149
641.409	0.0162121
641.487	0.0160410
641.565	0.0160813
641.643	0.0160960
641.721	0.0160868
641.799	0.0160948
641.878	0.0161174
641.956	0.0162057
642.034	0.0162007
642.112	0.0161280
642.190	0.0161275
642.268	0.0161223
642.346	0.0160828
642.424	0.0160838
642.503	0.0160397
642.581	0.0162251
642.659	0.0161053
642.737	0.0160903
642.815	0.0160542
642.893	0.0159692
642.971	0.0160419
643.049	0.0161668
643.128	0.0161295
643.206	0.0160509
643.284	0.0160775
643.362	0.0160338
643.440	0.0161955
643.518	0.0159735
643.596	0.0160806
643.674	0.0160726
643.753	0.0162788
643.831	0.0160548
643.909	0.0159990
643.987	0.0161318
644.065	0.0162586
644.143	0.0162208
644.221	0.0160951
644.299	0.0161351
644.378	0.0162062
644.456	0.0160377
644.534	0.0161412
644.612	0.0161380
644.690	0.0161004
644.768	0.0160370
644.846	0.0160149
644.924	0.0161611
645.003	0.0160299
645.081	0.0159838
645.159	0.0160909
645.237	0.0161933
645.315	0.0162337
645.393	0.0161971
645.471	0.0160705
645.549	0.0160789
645.628	0.0161248
645.706	0.0160500
645.784	0.0160117
645.862	0.0160367
645.940	0.0161714
646.018	0.0162543
646.096	0.0161652
646.174	0.0161475
646.253	0.0162217
646.331	0.0162240
646.409	0.0161417
646.487	0.0161237
646.565	0.0161318
646.643	0.0161176
646.721	0.0161547
646.799	0.0159762
646.878	0.0159747
646.956	0.0162408
647.034	0.0162309
647.112	0.0160087
647.190	0.0159702
647.268	0.0161288
647.346	0.0160550
647.424	0.0162006
647.503	0.0161668
647.581	0.0160419
647.659	0.0161253
647.737	0.0161566
647.815	0.0160810
647.893	0.0161259
647.971	0.0161169
648.049	0.0162365
648.128	0.0161440
648.206	0.0161287
648.284	0.0161545
648.362	0.0162337
648.440	0.0160395
648.518	0.0161518
648.596	0.0161261
648.674	0.0160709
648.753	0.0160594
648.831	0.0160842
648.909	0.0161288
648.987	0.0159705
649.065	0.0161704
649.143	0.0161433
649.221	0.0160531
649.299	0.0160385
649.378	0.0161405
649.456	0.0161038
649.534	0.0160854
649.612	0.0161092
649.690	0.0161305
649.768	0.0162547
649.846	0.0160478
649.924	0.0160668
650.003	0.0161603
650.081	0.0161132
650.159	0.0161497
650.237	0.0160619
650.315	0.0161316
650.393	0.0161464
650.471	0.0160915
650.549	0.0160352
650.628	0.0160284
650.706	0.0160704
650.784	0.0161167
650.862	0.0161223
650.940	0.0161652
651.018	0.0159657
651.096	0.0161106
651.174	0.0160989
651.253	0.0161253
651.331	0.0159116
651.409	0.0159068
651.487	0.0161663
651.565	0.0161259
651.643	0.0160471
651.721	0.0160918
651.799	0.0161542
651.878	0.0160982
651.956	0.0161651
652.034	0.0159879
652.112	0.0160853
652.190	0.0160159
652.268	0.0160732
652.346	0.0159164
652.424	0.0160307
652.503	0.0159581
652.581	0.0161234
652.659	0.0160768
652.737	0.0161758
652.815	0.0160023
652.893	0.0159589
652.971	0.0160979
653.049	0.0160587
653.128	0.0160043
653.206	0.0161638
653.284	0.0160802
653.362	0.0160534
653.440	0.0162090
653.518	0.0161331
653.596	0.0161007
653.674	0.0161790
653.753	0.0160712
653.831	0.0160075
653.909	0.0160900
653.987	0.0161419
654.065	0.0160961
654.143	0.0161988
654.221	0.0160749
654.299	0.0161091
654.378	0.0160673
654.456	0.0161040
654.534	0.0159857
654.612	0.0161228
654.690	0.0161217
654.768	0.0160303
654.846	0.0160423
654.924	0.0161691
655.003	0.0161951
655.081	0.0161057
655.159	0.0161015
655.237	0.0159666
655.315	0.0160350
655.393	0.0159816
655.471	0.0160917
655.549	0.0160270
655.628	0.0159889
655.706	0.0160989
655.784	0.0160538
655.862	0.0160523
655.940	0.0161060
656.018	0.0159827
656.096	0.0161853
656.174	0.0161072
656.253	0.0160991
656.331	0.0160921
656.409	0.0162695
656.487	0.0161679
656.565	0.0160365
656.643	0.0161669
656.721	0.0161018
656.799	0.0160989
656.878	0.0161176
656.956	0.0159216
657.034	0.0161172
657.112	0.0161179
657.190	0.0159470
657.268	0.0160803
657.346	0.0161230
657.424	0.0160592
657.503	0.0160381
657.581	0.0160849
657.659	0.0160403
657.737	0.0161073
657.815	0.0159971
657.893	0.0160108
657.971	0.0160452
658.049	0.0161073
658.128	0.0161082
658.206	0.0162137
658.284	0.0161921
658.362	0.0160896
658.440	0.0160174
658.518	0.0161133
658.596	0.0161044
658.674	0.0160274
658.753	0.0160219
658.831	0.0160124
658.909	0.0160936
658.987	0.0160332
659.065	0.0162741
659.143	0.0160515
659.221	0.0160892
659.299	0.0160689
659.378	0.0161360
659.456	0.0161684
659.534	0.0161024
659.612	0.0160987
659.690	0.0160664
659.768	0.0159243
659.846	0.0161548
659.924	0.0159862
660.003	0.0161118
660.081	0.0161012
660.159	0.0160967
660.237	0.0160809
660.315	0.0160485
660.393	0.0160843
660.471	0.0161277
660.549	0.0161053
660.628	0.0162085
660.706	0.0160906
660.784	0.0160690
660.862	0.0159625
660.940	0.0160870
661.018	0.0160605
661.096	0.0160625
661.174	0.0161459
661.253	0.0160718
661.331	0.0159900
661.409	0.0160201
661.487	0.0161745
661.565	0.0161544
661.643	0.0160178
661.721	0.0161586
661.799	0.0161308
661.878	0.0159420
661.956	0.0160854
662.034	0.0159959
662.112	0.0160738
662.190	0.0162389
662.268	0.0160213
662.346	0.0159385
662.424	0.0160075
662.503	0.0161050
662.581	0.0160972
662.659	0.0161552
662.737	0.0160638
662.815	0.0161546
662.893	0.0159853
662.971	0.0160507
663.049	0.0160985
663.128	0.0161657
663.206	0.0161446
663.284	0.0162493
663.362	0.0161863
663.440	0.0161002
663.518	0.0160313
663.596	0.0160627
663.674	0.0161716
663.753	0.0160828
663.831	0.0161749
663.909	0.0162391
663.987	0.0161673
664.065	0.0160779
664.143	0.0160806
664.221	0.0161278
664.299	0.0161167
664.378	0.0161063
664.456	0.0161823
664.534	0.0161782
664.612	0.0162384
664.690	0.0161546
664.768	0.0161361
664.846	0.0160858
664.924	0.0162085
665.003	0.0162206
665.081	0.0160925
665.159	0.0159893
665.237	0.0160616
665.315	0.0161835
665.393	0.0161057
665.471	0.0160854
665.549	0.0161626
665.628	0.0160752
665.706	0.0162460
665.784	0.0160999
665.862	0.0159768
665.940	0.0161456
666.018	0.0161852
666.096	0.0159767
666.174	0.0160476
666.253	0.0162073
666.331	0.0160157
666.409	0.0161943
666.487	0.0161236
666.565	0.0160485
666.643	0.0160783
666.721	0.0161347
666.799	0.0160978
666.878	0.0162016
666.956	0.0160388
667.034	0.0160445
667.112	0.0160297
667.190	0.0159976
667.268	0.0160089
667.346	0.0160094
667.424	0.0161779
667.503	0.0161652
667.581	0.0160066
667.659	0.0161079
667.737	0.0160887
667.815	0.0159969
667.893	0.0159583
667.971	0.0161250
668.049	0.0161094
668.128	0.0159669
668.206	0.0160352
668.284	0.0162212
668.362	0.0160135
668.440	0.0159694
668.518	0.0159975
668.596	0.0159804
668.674	0.0161271
668.753	0.0160696
668.831	0.0160768
668.909	0.0160477
668.987	0.0161666
669.065	0.0160571
669.143	0.0160550
669.221	0.0160558
669.299	0.0160234
669.378	0.0161430
669.456	0.0159802
669.534	0.0160928
669.612	0.0161099
669.690	0.0161326
669.768	0.0161882
669.846	0.0161813
669.924	0.0160642
670.003	0.0159980
670.081	0.0160853
670.159	0.0161246
670.237	0.0160922
670.315	0.0160773
670.393	0.0160903
670.471	0.0160808
670.549	0.0161658
670.628	0.0159576
670.706	0.0160127
670.784	0.0161452
670.862	0.0160329
670.940	0.0160775
671.018	0.0160368
671.096	0.0161379
671.174	0.0160108
671.253	0.0160266
671.331	0.0159811
671.409	0.0161137
671.487	0.0160971
671.565	0.0161111
671.643	0.0160168
671.721	0.0160751
671.799	0.0160637
671.878	0.0161740
671.956	0.0160414
672.034	0.0161478
672.112	0.0160976
672.190	0.0160980
672.268	0.0161155
672.346	0.0161091
672.424	0.0159817
672.503	0.0160246
672.581	0.0161520
672.659	0.0160322
672.737	0.0159444
672.815	0.0160300
672.893	0.0161535
672.971	0.0161282
673.049	0.0160232
673.128	0.0160352
673.206	0.0160949
673.284	0.0161780
673.362	0.0161951
673.440	0.0162035
673.518	0.0159752
673.596	0.0161416
673.674	0.0160792
673.753	0.0160990
673.831	0.0161506
673.909	0.0161090
673.987	0.0161182
674.065	0.0160078
674.143	0.0160029
674.221	0.0161346
674.299	0.0161156
674.378	0.0161942
674.456	0.0159811
674.534	0.0161102
674.612	0.0160235
674.690	0.0159828
674.768	0.0160845
674.846	0.0161460
674.924	0.0162048
675.003	0.0160040
675.081	0.0160799
675.159	0.0161168
675.237	0.0159679
675.315	0.0159885
675.393	0.0159861
675.471	0.0161578
675.549	0.0162577
675.628	0.0161649
675.706	0.0160593
675.784	0.0160818
675.862	0.0160658
675.940	0.0160424
676.018	0.0160248
676.096	0.0160612
676.174	0.0160939
676.253	0.0159952
676.331	0.0160516
676.409	0.0160214
676.487	0.0160295
676.565	0.0160553
676.643	0.0161258
676.721	0.0159219
676.799	0.0160353
676.878	0.0160553
676.956	0.0160451
677.034	0.0162675
677.112	0.0161913
677.190	0.0160147
677.268	0.0162225
677.346	0.0159016
677.424	0.0160359
677.503	0.0161723
677.581	0.0160204
677.659	0.0160579
677.737	0.0162256
677.815	0.0159897
677.893	0.0161222
677.971	0.0160303
678.049	0.0160217
678.128	0.0159241
678.206	0.0160227
678.284	0.0161052
678.362	0.0160091
678.440	0.0160754
678.518	0.0161787
678.596	0.0160774
678.674	0.0160976
678.753	0.0160502
678.831	0.0160977
678.909	0.0160239
678.987	0.0161096
679.065	0.0159605
679.143	0.0158836
679.221	0.0161166
679.299	0.0160258
679.378	0.0161301
679.456	0.0159682
679.534	0.0160308
679.612	0.0160660
679.690	0.0159483
679.768	0.0161484
679.846	0.0160288
679.924	0.0161539
680.003	0.0160200
680.081	0.0161308
680.159	0.0159674
680.237	0.0158477
680.315	0.0160146
680.393	0.0160808
680.471	0.0161391
680.549	0.0161187
680.628	0.0159554
680.706	0.0159437
680.784	0.0162585
680.862	0.0160137
680.940	0.0161348
681.018	0.0160503
681.096	0.0159972
681.174	0.0161378
681.253	0.0161221
681.331	0.0161048
681.409	0.0161916
681.487	0.0161253
681.565	0.0161804
681.643	0.0161572
681.721	0.0161239
681.799	0.0159566
681.878	0.0161347
681.956	0.0160418
682.034	0.0160974
682.112	0.0160902
682.190	0.0160608
682.268	0.0161249
682.346	0.0160804
682.424	0.0162649
682.503	0.0160511
682.581	0.0160288
682.659	0.0160373
682.737	0.0160813
682.815	0.0161270
682.893	0.0161514
682.971	0.0161914
683.049	0.0161128
683.128	0.0159908
683.206	0.0162460
683.284	0.0161729
683.362	0.0161206
683.440	0.0161909
683.518	0.0161568
683.596	0.0159740
683.674	0.0161584
683.753	0.0161102
683.831	0.0160085
683.909	0.0162672
683.987	0.0162437
684.065	0.0161476
684.143	0.0160069
684.221	0.0161306
684.299	0.0160555
684.378	0.0161613
684.456	0.0161258
684.534	0.0161084
684.612	0.0160600
684.690	0.0160458
684.768	0.0161560
684.846	0.0161148
684.924	0.0161403
685.003	0.0160146
685.081	0.0161636
685.159	0.0159941
685.237	0.0162967
685.315	0.0161494
685.393	0.0160879
685.471	0.0159938
685.549	0.0159942
685.628	0.0160424
685.706	0.0161639
685.784	0.0161358
685.862	0.0160718
685.940	0.0159560
686.018	0.0162091
686.096	0.0161377
686.174	0.0160554
686.253	0.0162206
686.331	0.0161125
686.409	0.0162096
686.487	0.0161316
686.565	0.0160583
686.643	0.0161280
686.721	0.0160555
686.799	0.0159862
686.878	0.0160406
686.956	0.0161443
687.034	0.0159797
687.112	0.0161103
687.190	0.0160162
687.268	0.0161320
687.346	0.0161031
687.424	0.0161935
687.503	0.0160151
687.581	0.0160782
687.659	0.0161150
687.737	0.0160089
687.815	0.0160666
687.893	0.0161404
687.971	0.0161080
688.049	0.0161033
688.128	0.0160895
688.206	0.0161406
688.284	0.0160291
688.362	0.0160903
688.440	0.0160484
688.518	0.0161100
688.596	0.0161568
688.674	0.0159873
688.753	0.0162024
688.831	0.0161224
688.909	0.0160693
688.987	0.0160606
689.065	0.0160835
689.143	0.0160674
689.221	0.0160049
689.299	0.0161347
689.378	0.0161440
689.456	0.0160581
689.534	0.0161114
689.612	0.0160802
689.690	0.0161501
689.768	0.0160985
689.846	0.0160381
689.924	0.0160244
690.003	0.0161795
690.081	0.0161460
690.159	0.0160664
690.237	0.0159895
690.315	0.0161676
690.393	0.0160449
690.471	0.0160604
690.549	0.0161400
690.628	0.0161977
690.706	0.0160490
690.784	0.0161452
690.862	0.0161006
690.940	0.0160629
691.018	0.0161739
691.096	0.0161496
691.174	0.0160284
691.253	0.0160625
691.331	0.0160733
691.409	0.0161283
691.487	0.0160704
691.565	0.0161312
691.643	0.0161031
691.721	0.0160350
691.799	0.0160451
691.878	0.0159666
691.956	0.0161129
692.034	0.0161073
692.112	0.0160969
692.190	0.0161240
692.268	0.0160488
692.346	0.0160363
692.424	0.0160564
692.503	0.0160723
692.581	0.0161427
692.659	0.0161013
692.737	0.0159192
692.815	0.0160551
692.893	0.0161850
692.971	0.0160755
693.049	0.0161242
693.128	0.0160869
693.206	0.0161241
693.284	0.0160119
693.362	0.0159555
693.440	0.0161462
693.518	0.0161773
693.596	0.0160601
693.674	0.0161775
693.753	0.0161012
693.831	0.0160734
693.909	0.0160728
693.987	0.0161381
694.065	0.0159943
694.143	0.0159680
694.221	0.0161485
694.299	0.0160562
694.378	0.0161705
694.456	0.0161683
694.534	0.0161404
694.612	0.0159705
694.690	0.0159727
694.768	0.0160474
694.846	0.0161700
694.924	0.0160529
695.003	0.0160935
695.081	0.0160812
695.159	0.0160321
695.237	0.0160471
695.315	0.0159944
695.393	0.0160666
695.471	0.0160982
695.549	0.0160072
695.628	0.0161095
695.706	0.0161863
695.784	0.0160656
695.862	0.0160664
695.940	0.0160410
696.018	0.0160574
696.096	0.0161114
696.174	0.0163019
696.253	0.0162333
696.331	0.0161391
696.409	0.0160502
696.487	0.0161118
696.565	0.0160223
696.643	0.0161710
696.721	0.0160035
696.799	0.0159827
696.878	0.0161864
696.956	0.0160248
697.034	0.0160547
697.112	0.0162363
697.190	0.0161610
697.268	0.0160934
697.346	0.0162706
697.424	0.0160854
697.503	0.0159544
697.581	0.0161045
697.659	0.0162174
697.737	0.0160642
697.815	0.0160964
697.893	0.0160715
697.971	0.0160179
698.049	0.0161241
698.128	0.0160868
698.206	0.0160643
698.284	0.0161137
698.362	0.0162038
698.440	0.0160590
698.518	0.0161809
698.596	0.0162083
698.674	0.0160857
698.753	0.0159812
698.831	0.0160374
698.909	0.0161257
698.987	0.0160162
699.065	0.0160638
699.143	0.0161822
699.221	0.0161868
699.299	0.0160555
699.378	0.0160875
699.456	0.0161719
699.534	0.0160218
699.612	0.0160490
699.690	0.0160392
699.768	0.0161950
699.846	0.0161494
699.924	0.0161756
700.003	0.0160350
700.081	0.0161107
700.159	0.0160081
700.237	0.0161163
700.315	0.0160470
700.393	0.0160047
700.471	0.0161361
700.549	0.0160436
700.628	0.0160876
700.706	0.0161870
700.784	0.0161678
700.862	0.0161671
700.940	0.0160722
701.018	0.0161084
701.096	0.0160981
701.174	0.0159843
701.253	0.0160960
701.331	0.0160374
701.409	0.0160468
701.487	0.0161029
701.565	0.0161591
701.643	0.0161663
701.721	0.0161481
701.799	0.0161781
701.878	0.0160125
701.956	0.0160503
702.034	0.0160917
702.112	0.0161396
702.190	0.0161500
702.268	0.0160649
702.346	0.0161685
702.424	0.0161449
702.503	0.0161127
702.581	0.0161614
702.659	0.0162505
702.737	0.0160091
702.815	0.0160555
702.893	0.0161707
702.971	0.0160109
703.049	0.0161791
703.128	0.0161055
703.206	0.0160442
703.284	0.0160152
703.362	0.0161243
703.440	0.0161699
703.518	0.0162305
703.596	0.0161841
703.674	0.0160789
703.753	0.0159927
703.831	0.0161182
703.909	0.0160577
703.987	0.0160213
704.065	0.0160870
704.143	0.0160504
704.221	0.0160963
704.299	0.0161175
704.378	0.0160759
704.456	0.0160730
704.534	0.0161742
704.612	0.0161417
704.690	0.0162100
704.768	0.0162340
704.846	0.0160392
704.924	0.0161106
705.003	0.0161194
705.081	0.0160509
705.159	0.0161693
705.237	0.0162072
705.315	0.0158443
705.393	0.0160117
705.471	0.0160902
705.549	0.0161612
705.628	0.0161468
705.706	0.0160658
705.784	0.0159990
705.862	0.0161774
705.940	0.0161390
706.018	0.0160513
706.096	0.0160305
706.174	0.0159492
706.253	0.0160564
706.331	0.0161590
706.409	0.0161147
706.487	0.0160237
706.565	0.0161597
706.643	0.0159881
706.721	0.0159386
706.799	0.0159003
706.878	0.0159074
706.956	0.0161100
707.034	0.0162016
707.112	0.0160353
707.190	0.0159920
707.268	0.0160382
707.346	0.0160869
707.424	0.0160239
707.503	0.0160229
707.581	0.0159608
707.659	0.0160172
707.737	0.0160849
707.815	0.0160769
707.893	0.0161575
707.971	0.0160719
708.049	0.0160301
708.128	0.0160427
708.206	0.0160645
708.284	0.0160844
708.362	0.0160737
708.440	0.0159357
708.518	0.0159927
708.596	0.0161071
708.674	0.0160917
708.753	0.0161037
708.831	0.0161825
708.909	0.0160004
708.987	0.0160009
709.065	0.0159381
709.143	0.0160146
709.221	0.0160978
709.299	0.0161125
709.378	0.0160625
709.456	0.0161359
709.534	0.0161608
709.612	0.0160683
709.690	0.0161287
709.768	0.0160152
709.846	0.0159861
709.924	0.0160889
710.003	0.0160927
710.081	0.0161523
710.159	0.0161237
710.237	0.0160771
710.315	0.0161443
710.393	0.0162075
710.471	0.0160670
710.549	0.0159591
710.628	0.0161121
710.706	0.0161732
710.784	0.0159398
710.862	0.0160509
710.940	0.0161030
711.018	0.0161361
711.096	0.0159879
711.174	0.0159679
711.253	0.0160619
711.331	0.0161409
711.409	0.0161662
711.487	0.0161591
711.565	0.0160416
711.643	0.0161188
711.721	0.0162006
711.799	0.0161047
711.878	0.0160472
711.956	0.0161591
712.034	0.0161242
712.112	0.0161298
712.190	0.0161404
712.268	0.0161856
712.346	0.0160278
712.424	0.0161703
712.503	0.0161945
712.581	0.0162505
712.659	0.0161685
712.737	0.0161104
712.815	0.0160547
712.893	0.0162255
712.971	0.0160905
713.049	0.0161619
713.128	0.0160188
713.206	0.0162402
713.284	0.0160692
713.362	0.0162161
713.440	0.0161920
713.518	0.0162070
713.596	0.0162898
713.674	0.0161712
713.753	0.0160680
713.831	0.0161854
713.909	0.0161969
713.987	0.0161065
714.065	0.0161066
714.143	0.0159974
714.221	0.0161342
714.299	0.0160648
714.378	0.0161316
714.456	0.0161262
714.534	0.0160291
714.612	0.0160390
714.690	0.0160629
714.768	0.0159032
714.846	0.0161064
714.924	0.0160964
715.003	0.0158883
715.081	0.0159949
715.159	0.0161980
715.237	0.0160735
715.315	0.0159607
715.393	0.0160043
715.471	0.0160135
715.549	0.0160303
715.628	0.0160432
715.706	0.0160257
715.784	0.0160435
715.862	0.0159975
715.940	0.0160640
716.018	0.0161929
716.096	0.0159650
716.174	0.0161199
716.253	0.0162578
716.331	0.0161338
716.409	0.0161988
716.487	0.0161192
716.565	0.0162220
716.643	0.0162819
716.721	0.0163865
716.799	0.0163303
716.878	0.0163864
716.956	0.0164455
717.034	0.0163469
717.112	0.0163931
717.190	0.0164613
717.268	0.0164032
717.346	0.0161620
717.424	0.0161828
717.503	0.0162213
717.581	0.0160206
717.659	0.0159035
717.737	0.0158952
717.815	0.0160207
717.893	0.0160111
717.971	0.0156773
718.049	0.0158251
718.128	0.0158262
718.206	0.0157737
718.284	0.0156150
718.362	0.0158337
718.440	0.0159020
718.518	0.0158395
718.596	0.0157872
718.674	0.0158831
718.753	0.0159846
718.831	0.0159608
718.909	0.0160839
718.987	0.0162234
719.065	0.0161294
719.143	0.0161751
719.221	0.0162142
719.299	0.0161567
719.378	0.0161865
719.456	0.0163025
719.534	0.0161467
719.612	0.0161968
719.690	0.0161095
719.768	0.0159481
719.846	0.0159060
719.924	0.0158912
720.003	0.0157717
720.081	0.0159460
720.159	0.0159347
720.237	0.0157380
720.315	0.0158836
720.393	0.0159657
720.471	0.0158057
720.549	0.0159327
720.628	0.0161129
720.706	0.0161567
720.784	0.0163673
720.862	0.0163660
720.940	0.0164162
721.018	0.0164607
721.096	0.0165274
721.174	0.0165474
721.253	0.0164986
721.331	0.0165261
721.409	0.0164346
721.487	0.0164720
721.565	0.0162244
721.643	0.0162550
721.721	0.0161307
721.799	0.0160577
721.878	0.0159280
721.956	0.0157745
722.034	0.0156290
722.112	0.0155887
722.190	0.0155543
722.268	0.0156302
722.346	0.0154277
722.424	0.0155286
722.503	0.0156833
722.581	0.0155854
722.659	0.0155492
722.737	0.0156804
722.815	0.0160792
722.893	0.0159534
722.971	0.0160759
723.049	0.0161605
723.128	0.0162333
723.206	0.0163891
723.284	0.0165802
723.362	0.0165706
723.440	0.0166119
723.518	0.0166290
723.596	0.0167065
723.674	0.0168002
723.753	0.0167310
723.831	0.0166796
723.909	0.0166837
723.987	0.0165317
724.065	0.0163383
724.143	0.0162593
724.221	0.0162405
724.299	0.0160268
724.378	0.0159243
724.456	0.0157829
724.534	0.0157328
724.612	0.0155502
724.690	0.0152973
724.768	0.0153257
724.846	0.0153071
724.924	0.0154626
725.003	0.0156065
725.081	0.0156886
725.159	0.0156605
725.237	0.0159020
725.315	0.0158506
725.393	0.0159303
725.471	0.0162054
725.549	0.0163272
725.628	0.0163543
725.706	0.0165269
725.784	0.0165249
725.862	0.0164766
725.940	0.0165631
726.018	0.0166943
726.096	0.0164785
726.174	0.0164884
726.253	0.0162985
726.331	0.0162725
726.409	0.0162481
726.487	0.0161050
726.565	0.0161072
726.643	0.0161201
726.721	0.0158520
726.799	0.0158288
726.878	0.0158595
726.956	0.0159459
727.034	0.0160392
727.112	0.0161930
727.190	0.0160728
727.268	0.0162259
727.346	0.0161469
727.424	0.0161658
727.503	0.0162175
727.581	0.0161317
727.659	0.0161559
727.737	0.0161497
727.815	0.0161149
727.893	0.0160188
727.971	0.0159718
728.049	0.0158725
728.128	0.0159425
728.206	0.0157787
728.284	0.0155547
728.362	0.0155609
728.440	0.0156753
728.518	0.0156599
728.596	0.0156503
728.674	0.0158269
728.753	0.0159203
728.831	0.0158000
728.909	0.0159666
728.987	0.0163523
729.065	0.0162824
729.143	0.0163036
729.221	0.0162151
729.299	0.0163688
729.378	0.0164041
729.456	0.0164080
729.534	0.0162831
729.612	0.0162538
729.690	0.0162665
729.768	0.0162265
729.846	0.0160383
729.924	0.0159071
730.003	0.0160893
730.081	0.0159496
730.159	0.0160096
730.237	0.0159375
730.315	0.0160788
730.393	0.0159412
730.471	0.0160184
730.549	0.0161662
730.628	0.0161686
730.706	0.0162431
730.784	0.0164850
730.862	0.0165181
730.940	0.0164197
731.018	0.0164474
731.096	0.0163015
731.174	0.0164097
731.253	0.0164574
731.331	0.0165010
731.409	0.0163689
731.487	0.0162994
731.565	0.0161502
731.643	0.0161124
731.721	0.0159067
731.799	0.0160279
731.878	0.0157799
731.956	0.0157085
732.034	0.0157551
732.112	0.0158407
732.190	0.0157144
732.268	0.0158222
732.346	0.0158249
732.424	0.0157688
732.503	0.0160170
732.581	0.0159563
732.659	0.0160467
732.737	0.0160152
732.815	0.0161354
732.893	0.0160406
732.971	0.0161734
733.049	0.0161253
733.128	0.0161653
733.206	0.0161094
733.284	0.0160069
733.362	0.0161371
733.440	0.0160829
733.518	0.0160084
733.596	0.0159741
733.674	0.0159674
733.753	0.0157820
733.831	0.0158983
733.909	0.0158536
733.987	0.0158441
734.065	0.0156794
734.143	0.0158076
734.221	0.0158643
734.299	0.0159435
734.378	0.0159287
734.456	0.0160306
734.534	0.0161012
734.612	0.0161066
734.690	0.0161184
734.768	0.0162528
734.846	0.0163349
734.924	0.0162312
735.003	0.0162913
735.081	0.0164538
735.159	0.0163787
735.237	0.0163677
735.315	0.0165097
735.393	0.0163598
735.471	0.0163416
735.549	0.0162413
735.628	0.0163774
735.706	0.0163623
735.784	0.0161346
735.862	0.0161944
735.940	0.0162625
736.018	0.0161132
736.096	0.0160870
736.174	0.0159891
736.253	0.0159535
736.331	0.0158217
736.409	0.0157697
736.487	0.0159441
736.565	0.0158329
736.643	0.0158865
736.721	0.0159958
736.799	0.0160030
736.878	0.0158638
736.956	0.0157981
737.034	0.0159491
737.112	0.0159192
737.190	0.0160603
737.268	0.0161047
737.346	0.0159309
737.424	0.0159521
737.503	0.0161082
737.581	0.0160694
737.659	0.0160749
737.737	0.0160951
737.815	0.0160935
737.893	0.0161729
737.971	0.0160930
738.049	0.0160847
738.128	0.0160207
738.206	0.0160136
738.284	0.0160396
738.362	0.0160774
738.440	0.0159644
738.518	0.0160252
738.596	0.0160998
738.674	0.0161391
738.753	0.0160706
738.831	0.0160312
738.909	0.0160519
738.987	0.0161878
739.065	0.0161123
739.143	0.0162020
739.221	0.0161578
739.299	0.0161626
739.378	0.0163282
739.456	0.0164468
739.534	0.0164143
739.612	0.0163936
739.690	0.0162437
739.768	0.0162369
739.846	0.0163979
739.924	0.0162797
740.003	0.0162669
740.081	0.0161971
740.159	0.0162120
740.237	0.0160683
740.315	0.0161018
740.393	0.0161143
740.471	0.0160266
740.549	0.0159673
740.628	0.0159203
740.706	0.0158821
740.784	0.0159406
740.862	0.0159319
740.940	0.0159931
741.018	0.0160011
741.096	0.0158556
741.174	0.0160964
741.253	0.0161159
741.331	0.0162455
741.409	0.0162109
741.487	0.0161650
741.565	0.0162372
741.643	0.0160327
741.721	0.0160658
741.799	0.0161058
741.878	0.0160786
741.956	0.0161650
742.034	0.0158912
742.112	0.0159986
742.190	0.0160085
742.268	0.0160358
742.346	0.0160171
742.424	0.0158542
742.503	0.0160995
742.581	0.0160497
742.659	0.0160642
742.737	0.0161662
742.815	0.0161018
742.893	0.0161462
742.971	0.0161061
743.049	0.0161662
743.128	0.0160228
743.206	0.0161837
743.284	0.0160825
743.362	0.0162080
743.440	0.0160496
743.518	0.0160812
743.596	0.0159974
743.674	0.0160875
743.753	0.0159663
743.831	0.0159847
743.909	0.0159200
743.987	0.0159272
744.065	0.0159070
744.143	0.0159073
744.221	0.0160732
744.299	0.0159438
744.378	0.0159193
744.456	0.0161394
744.534	0.0162193
744.612	0.0161964
744.690	0.0162640
744.768	0.0162414
744.846	0.0161347
744.924	0.0160820
745.003	0.0162202
745.081	0.0162397
745.159	0.0161608
745.237	0.0162047
745.315	0.0160847
745.393	0.0161108
745.471	0.0161333
745.549	0.0160828
745.628	0.0160664
745.706	0.0159412
745.784	0.0159706
745.862	0.0159764
745.940	0.0158676
746.018	0.0159260
746.096	0.0161450
746.174	0.0159428
746.253	0.0158633
746.331	0.0159930
746.409	0.0160841
746.487	0.0161854
746.565	0.0162031
746.643	0.0160870
746.721	0.0164323
746.799	0.0162843
746.878	0.0162498
746.956	0.0162489
747.034	0.0162399
747.112	0.0163367
747.190	0.0163721
747.268	0.0162394
747.346	0.0162896
747.424	0.0160756
747.503	0.0161512
747.581	0.0160801
747.659	0.0159614
747.737	0.0158971
747.815	0.0160392
747.893	0.0158679
747.971	0.0159599
748.049	0.0160114
748.128	0.0159457
748.206	0.0159451
748.284	0.0160188
748.362	0.0159335
748.440	0.0160640
748.518	0.0161143
748.596	0.0160494
748.674	0.0161108
748.753	0.0163889
748.831	0.0162809
748.909	0.0162032
748.987	0.0162798
749.065	0.0162666
749.143	0.0162037
749.221	0.0160942
749.299	0.0162347
749.378	0.0161425
749.456	0.0161361
749.534	0.0161342
749.612	0.0160372
749.690	0.0158698
749.768	0.0159805
749.846	0.0159748
749.924	0.0158979
750.003	0.0158986
750.081	0.0159348
750.159	0.0159755
750.237	0.0160258
750.315	0.0161082
750.393	0.0160442
750.471	0.0160648
750.549	0.0160471
750.628	0.0160838
750.706	0.0159824
750.784	0.0159563
750.862	0.0160262
750.940	0.0160622
751.018	0.0158930
751.096	0.0160014
751.174	0.0159782
751.253	0.0160051
751.331	0.0161526
751.409	0.0160142
751.487	0.0159990
751.565	0.0160885
751.643	0.0160567
751.721	0.0159724
751.799	0.0160715
751.878	0.0160735
751.956	0.0162094
752.034	0.0162732
752.112	0.0162742
752.190	0.0161765
752.268	0.0161951
752.346	0.0163339
752.424	0.0162141
752.503	0.0161951
752.581	0.0161953
752.659	0.0161900
752.737	0.0163488
752.815	0.0162130
752.893	0.0163485
752.971	0.0161380
753.049	0.0161387
753.128	0.0162258
753.206	0.0160198
753.284	0.0161413
753.362	0.0159736
753.440	0.0159093
753.518	0.0159972
753.596	0.0160128
753.674	0.0160680
753.753	0.0159581
753.831	0.0160271
753.909	0.0160205
753.987	0.0160616
754.065	0.0161618
754.143	0.0160874
754.221	0.0160592
754.299	0.0160553
754.378	0.0160223
754.456	0.0160616
754.534	0.0160101
754.612	0.0160036
754.690	0.0160751
754.768	0.0160157
754.846	0.0161282
754.924	0.0162920
755.003	0.0161449
755.081	0.0160826
755.159	0.0161302
755.237	0.0160138
755.315	0.0160781
755.393	0.0161217
755.471	0.0160350
755.549	0.0161117
755.628	0.0160621
755.706	0.0160251
755.784	0.0160685
755.862	0.0160188
755.940	0.0160604
756.018	0.0159756
756.096	0.0160672
756.174	0.0160420
756.253	0.0160288
756.331	0.0161351
756.409	0.0160337
756.487	0.0161230
756.565	0.0161797
756.643	0.0161338
756.721	0.0160361
756.799	0.0161430
756.878	0.0161295
756.956	0.0162759
757.034	0.0161194
757.112	0.0160617
757.190	0.0160180
757.268	0.0160615
757.346	0.0160592
757.424	0.0159604
757.503	0.0159314
757.581	0.0159692
757.659	0.0158990
757.737	0.0159995
757.815	0.0160108
757.893	0.0160163
757.971	0.0160526
758.049	0.0158405
758.128	0.0159448
758.206	0.0162399
758.284	0.0160564
758.362	0.0162006
758.440	0.0160864
758.518	0.0160831
758.596	0.0161267
758.674	0.0161703
758.753	0.0160857
758.831	0.0161146
758.909	0.0159478
758.987	0.0159719
759.065	0.0161076
759.143	0.0159521
759.221	0.0159049
759.299	0.0159447
759.378	0.0157370
759.456	0.0159077
759.534	0.0159785
759.612	0.0159417
759.690	0.0158896
759.768	0.0158064
759.846	0.0160181
759.924	0.0159647
760.003	0.0160555
760.081	0.0161375
760.159	0.0161407
760.237	0.0162451
760.315	0.0160289
760.393	0.0161599
760.471	0.0162113
760.549	0.0163615
760.628	0.0161323
760.706	0.0161407
760.784	0.0161679
760.862	0.0162447
760.940	0.0162067
761.018	0.0160913
761.096	0.0160487
761.174	0.0160652
761.253	0.0160304
761.331	0.0160494
761.409	0.0159858
761.487	0.0158598
761.565	0.0158664
761.643	0.0159208
761.721	0.0157874
761.799	0.0158223
761.878	0.0158979
761.956	0.0159201
762.034	0.0159444
762.112	0.0159280
762.190	0.0159013
762.268	0.0161475
762.346	0.0161620
762.424	0.0159962
762.503	0.0160127
762.581	0.0160513
762.659	0.0161736
762.737	0.0162663
762.815	0.0161080
762.893	0.0160471
762.971	0.0161188
763.049	0.0160480
763.128	0.0161457
763.206	0.0160596
763.284	0.0159972
763.362	0.0159526
763.440	0.0159267
763.518	0.0161347
763.596	0.0161466
763.674	0.0159704
763.753	0.0162585
763.831	0.0161639
763.909	0.0160582
763.987	0.0162071
764.065	0.0160830
764.143	0.0161334
764.221	0.0163342
764.299	0.0164126
764.378	0.0160900
764.456	0.0161741
764.534	0.0161241
764.612	0.0160850
764.690	0.0161007
764.768	0.0161627
764.846	0.0159405
764.924	0.0160027
765.003	0.0159536
765.081	0.0158260
765.159	0.0158785
765.237	0.0157816
765.315	0.0158054
765.393	0.0159406
765.471	0.0159344
765.549	0.0159830
765.628	0.0160026
765.706	0.0160880
765.784	0.0160736
765.862	0.0161359
765.940	0.0161990
766.018	0.0162366
766.096	0.0160714
766.174	0.0162005
766.253	0.0164114
766.331	0.0161891
766.409	0.0162572
766.487	0.0161407
766.565	0.0161777
766.643	0.0162236
766.721	0.0160583
766.799	0.0160622
766.878	0.0160352
766.956	0.0160114
767.034	0.0160983
767.112	0.0159924
767.190	0.0160027
767.268	0.0159684
767.346	0.0161056
767.424	0.0162043
767.503	0.0161682
767.581	0.0161085
767.659	0.0161268
767.737	0.0162043
767.815	0.0161501
767.893	0.0160180
767.971	0.0162039
768.049	0.0162332
768.128	0.0162589
768.206	0.0160530
768.284	0.0161604
768.362	0.0161551
768.440	0.0162116
768.518	0.0160783
768.596	0.0159112
768.674	0.0159097
768.753	0.0160516
768.831	0.0160757
768.909	0.0158366
768.987	0.0158978
769.065	0.0159352
769.143	0.0159245
769.221	0.0160947
769.299	0.0159586
769.378	0.0160375
769.456	0.0159820
769.534	0.0161166
769.612	0.0161767
769.690	0.0159669
769.768	0.0161523
769.846	0.0160577
769.924	0.0160638
770.003	0.0161386
770.081	0.0159861
770.159	0.0161567
770.237	0.0161626
770.315	0.0160099
770.393	0.0160152
770.471	0.0161085
770.549	0.0160932
770.628	0.0160941
770.706	0.0160339
770.784	0.0159676
770.862	0.0159498
770.940	0.0160761
771.018	0.0160855
771.096	0.0159839
771.174	0.0161057
771.253	0.0161436
771.331	0.0160661
771.409	0.0162657
771.487	0.0161490
771.565	0.0161775
771.643	0.0161703
771.721	0.0162181
771.799	0.0162336
771.878	0.0162270
771.956	0.0160371
772.034	0.0160840
772.112	0.0160256
772.190	0.0160020
772.268	0.0160271
772.346	0.0159334
772.424	0.0160019
772.503	0.0159386
772.581	0.0159379
772.659	0.0158915
772.737	0.0158583
772.815	0.0160023
772.893	0.0159927
772.971	0.0161260
773.049	0.0159737
773.128	0.0158833
773.206	0.0160634
773.284	0.0160603
773.362	0.0160310
773.440	0.0159879
773.518	0.0161342
773.596	0.0159188
773.674	0.0160236
773.753	0.0159134
773.831	0.0159428
773.909	0.0159642
773.987	0.0157965
774.065	0.0158876
774.143	0.0158582
774.221	0.0158607
774.299	0.0158905
774.378	0.0159758
774.456	0.0159816
774.534	0.0160249
774.612	0.0160374
774.690	0.0159682
774.768	0.0162188
774.846	0.0161017
774.924	0.0160633
775.003	0.0161383
775.081	0.0161644
775.159	0.0161987
775.237	0.0161853
775.315	0.0161823
775.393	0.0161761
775.471	0.0161816
775.549	0.0162585
775.628	0.0162063
775.706	0.0162733
775.784	0.0161396
775.862	0.0160421
775.940	0.0160842
776.018	0.0161529
776.096	0.0160552
776.174	0.0161119
776.253	0.0160992
776.331	0.0160578
776.409	0.0160690
776.487	0.0160119
776.565	0.0159282
776.643	0.0159595
776.721	0.0159036
776.799	0.0159720
776.878	0.0158643
776.956	0.0159550
777.034	0.0160098
777.112	0.0159862
777.190	0.0160140
777.268	0.0158849
777.346	0.0159617
777.424	0.0159854
777.503	0.0159064
777.581	0.0160635
777.659	0.0161940
777.737	0.0160542
777.815	0.0160552
777.893	0.0160659
777.971	0.0160178
778.049	0.0161050
778.128	0.0161720
778.206	0.0160880
778.284	0.0160538
778.362	0.0160780
778.440	0.0160985
778.518	0.0159564
778.596	0.0160927
778.674	0.0161477
778.753	0.0160489
778.831	0.0161369
778.909	0.0161710
778.987	0.0160691
779.065	0.0159766
779.143	0.0160812
779.221	0.0161410
779.299	0.0162080
779.378	0.0160035
779.456	0.0162247
779.534	0.0160902
779.612	0.0162377
779.690	0.0161800
779.768	0.0161668
779.846	0.0161308
779.924	0.0161593
780.003	0.0161811
780.081	0.0162160
780.159	0.0162614
780.237	0.0161835
780.315	0.0161281
780.393	0.0162104
780.471	0.0162090
780.549	0.0162026
780.628	0.0163632
780.706	0.0161734
780.784	0.0161287
780.862	0.0160803
780.940	0.0159004
781.018	0.0161169
781.096	0.0159795
781.174	0.0159949
781.253	0.0160894
781.331	0.0158886
781.409	0.0158047
781.487	0.0159435
781.565	0.0159498
781.643	0.0158464
781.721	0.0157724
781.799	0.0159539
781.878	0.0160059
781.956	0.0158624
782.034	0.0159002
782.112	0.0159802
782.190	0.0162260
782.268	0.0160075
782.346	0.0160413
782.424	0.0161296
782.503	0.0161537
782.581	0.0161301
782.659	0.0160973
782.737	0.0162656
782.815	0.0162198
782.893	0.0161063
782.971	0.0161508
783.049	0.0162212
783.128	0.0161285
783.206	0.0162206
783.284	0.0159907
783.362	0.0160519
783.440	0.0161116
783.518	0.0162783
783.596	0.0160242
783.674	0.0160852
783.753	0.0161384
783.831	0.0161582
783.909	0.0161752
783.987	0.0160339
784.065	0.0160468
784.143	0.0162875
784.221	0.0160838
784.299	0.0160755
784.378	0.0162031
784.456	0.0162410
784.534	0.0161541
784.612	0.0162307
784.690	0.0161189
784.768	0.0160764
784.846	0.0160865
784.924	0.0160914
785.003	0.0160872
785.081	0.0161362
785.159	0.0161369
785.237	0.0159135
785.315	0.0160238
785.393	0.0160306
785.471	0.0159353
785.549	0.0158829
785.628	0.0159661
785.706	0.0159686
785.784	0.0160049
785.862	0.0159874
785.940	0.0159232
786.018	0.0159338
786.096	0.0159351
786.174	0.0161290
786.253	0.0159738
786.331	0.0160622
786.409	0.0160934
786.487	0.0161665
786.565	0.0160835
786.643	0.0159658
786.721	0.0161089
786.799	0.0161574
786.878	0.0161256
786.956	0.0161233
787.034	0.0160345
787.112	0.0161274
787.190	0.0161514
787.268	0.0160828
787.346	0.0161601
787.424	0.0160468
787.503	0.0160907
787.581	0.0161772
787.659	0.0161196
787.737	0.0161472
787.815	0.0161688
787.893	0.0161514
787.971	0.0159930
788.049	0.0160452
788.128	0.0161108
788.206	0.0160625
788.284	0.0160746
788.362	0.0160422
788.440	0.0160740
788.518	0.0160207
788.596	0.0160614
788.674	0.0161172
788.753	0.0160085
788.831	0.0161126
788.909	0.0160204
788.987	0.0160044
789.065	0.0161296
789.143	0.0160261
789.221	0.0160211
789.299	0.0162218
789.378	0.0161777
789.456	0.0159624
789.534	0.0159946
789.612	0.0161839
789.690	0.0161802
789.768	0.0161690
789.846	0.0159589
789.924	0.0160719
790.003	0.0160770
790.081	0.0160623
790.159	0.0162537
790.237	0.0161131
790.315	0.0161302
790.393	0.0159998
790.471	0.0159723
790.549	0.0160606
790.628	0.0160368
790.706	0.0159904
790.784	0.0160407
790.862	0.0160402
790.940	0.0160458
791.018	0.0159160
791.096	0.0160325
791.174	0.0160085
791.253	0.0159750
791.331	0.0159128
791.409	0.0160548
791.487	0.0161828
791.565	0.0160731
791.643	0.0161352
791.721	0.0161536
791.799	0.0161897
791.878	0.0161514
791.956	0.0162317
792.034	0.0161516
792.112	0.0162047
792.190	0.0161520
792.268	0.0162801
792.346	0.0161800
792.424	0.0162813
792.503	0.0163401
792.581	0.0163165
792.659	0.0161194
792.737	0.0161566
792.815	0.0162132
792.893	0.0162896
792.971	0.0161629
793.049	0.0161566
793.128	0.0160042
793.206	0.0160580
793.284	0.0160820
793.362	0.0160756
793.440	0.0160397
793.518	0.0160951
793.596	0.0160319
793.674	0.0160675
793.753	0.0159944
793.831	0.0160481
793.909	0.0160697
793.987	0.0158272
794.065	0.0160211
794.143	0.0160582
794.221	0.0159351
794.299	0.0159007
794.378	0.0160851
794.456	0.0160461
794.534	0.0159418
794.612	0.0160150
794.690	0.0161406
794.768	0.0160322
794.846	0.0159490
794.924	0.0160462
795.003	0.0161058
795.081	0.0161094
795.159	0.0159343
795.237	0.0160702
795.315	0.0160204
795.393	0.0159679
795.471	0.0160732
795.549	0.0161934
795.628	0.0161072
795.706	0.0159727
795.784	0.0159571
795.862	0.0159670
795.940	0.0160134
796.018	0.0160509
796.096	0.0160035
796.174	0.0160196
796.253	0.0159460
796.331	0.0160403
796.409	0.0159939
796.487	0.0159390
796.565	0.0160263
796.643	0.0160023
796.721	0.0159957
796.799	0.0160515
796.878	0.0159087
796.956	0.0161208
797.034	0.0160080
797.112	0.0160590
797.190	0.0159341
797.268	0.0161359
797.346	0.0161271
797.424	0.0161488
797.503	0.0160612
797.581	0.0160663
797.659	0.0161553
797.737	0.0161174
797.815	0.0161718
797.893	0.0160699
797.971	0.0161321
798.049	0.0161903
798.128	0.0161487
798.206	0.0161237
798.284	0.0162709
798.362	0.0161617
798.440	0.0160207
798.518	0.0161134
798.596	0.0160049
798.674	0.0160838
798.753	0.0159649
798.831	0.0159946
798.909	0.0160947
798.987	0.0158179
799.065	0.0159675
799.143	0.0158954
799.221	0.0158035
799.299	0.0158880
799.378	0.0158926
799.456	0.0160551
799.534	0.0160194
799.612	0.0161280
799.690	0.0158936
799.768	0.0159818
799.846	0.0159741
799.924	0.0161117
800.003	0.0160771
800.081	0.0160436
800.159	0.0160203
800.237	0.0160056
800.315	0.0160128
800.393	0.0160280
800.471	0.0160069
800.549	0.0160854
800.628	0.0160802
800.706	0.0160343
800.784	0.0161007
800.862	0.0161391
800.940	0.0161044
801.018	0.0161391
801.096	0.0161919
801.174	0.0161044
801.253	0.0162016
801.331	0.0160921
801.409	0.0161276
801.487	0.0161415
801.565	0.0162020
801.643	0.0161886
801.721	0.0162261
801.799	0.0161448
801.878	0.0160774
801.956	0.0161878
802.034	0.0161584
802.112	0.0162553
802.190	0.0160509
802.268	0.0160155
802.346	0.0160390
802.424	0.0160547
802.503	0.0158487
802.581	0.0160912
802.659	0.0162231
802.737	0.0160264
802.815	0.0159632
802.893	0.0160843
802.971	0.0162848
803.049	0.0161687
803.128	0.0160778
803.206	0.0160631
803.284	0.0160463
803.362	0.0160347
803.440	0.0162195
803.518	0.0162029
803.596	0.0160406
803.674	0.0161014
803.753	0.0160611
803.831	0.0161907
803.909	0.0160573
803.987	0.0159447
804.065	0.0160877
804.143	0.0160268
804.221	0.0160075
804.299	0.0160419
804.378	0.0160501
804.456	0.0159549
804.534	0.0161442
804.612	0.0160069
804.690	0.0160331
804.768	0.0159705
804.846	0.0160580
804.924	0.0160390
805.003	0.0161018
805.081	0.0160250
805.159	0.0160114
805.237	0.0160061
805.315	0.0159597
805.393	0.0161002
805.471	0.0160549
805.549	0.0161565
805.628	0.0159845
805.706	0.0160182
805.784	0.0159563
805.862	0.0159652
805.940	0.0160989
806.018	0.0160419
806.096	0.0160338
806.174	0.0162109
806.253	0.0160741
806.331	0.0160816
806.409	0.0160612
806.487	0.0161530
806.565	0.0162348
806.643	0.0161648
806.721	0.0160828
806.799	0.0160992
806.878	0.0161757
806.956	0.0162594
807.034	0.0161734
807.112	0.0161990
807.190	0.0161124
807.268	0.0160032
807.346	0.0161684
807.424	0.0160041
807.503	0.0159682
807.581	0.0161671
807.659	0.0161098
807.737	0.0161640
807.815	0.0160571
807.893	0.0160076
807.971	0.0160510
808.049	0.0159990
808.128	0.0160578
808.206	0.0160642
808.284	0.0160165
808.362	0.0161440
808.440	0.0160876
808.518	0.0160750
808.596	0.0160851
808.674	0.0161069
808.753	0.0162050
808.831	0.0160963
808.909	0.0161758
808.987	0.0161885
809.065	0.0162138
809.143	0.0160760
809.221	0.0161242
809.299	0.0162078
809.378	0.0161460
809.456	0.0159818
809.534	0.0160376
809.612	0.0161295
809.690	0.0161349
809.768	0.0161021
809.846	0.0160211
809.924	0.0158362
810.003	0.0160308
810.081	0.0159568
810.159	0.0159965
810.237	0.0159406
810.315	0.0161018
810.393	0.0160167
810.471	0.0159834
810.549	0.0159483
810.628	0.0159125
810.706	0.0159261
810.784	0.0159836
810.862	0.0159657
810.940	0.0159479
811.018	0.0159285
811.096	0.0159614
811.174	0.0160102
811.253	0.0159334
811.331	0.0159689
811.409	0.0161009
811.487	0.0162053
811.565	0.0159985
811.643	0.0160789
811.721	0.0160091
811.799	0.0160822
811.878	0.0162023
811.956	0.0160432
812.034	0.0161084
812.112	0.0161133
812.190	0.0161304
812.268	0.0161784
812.346	0.0161855
812.424	0.0161950
812.503	0.0161563
812.581	0.0160686
812.659	0.0161065
812.737	0.0161609
812.815	0.0161202
812.893	0.0162170
812.971	0.0162147
813.049	0.0161116
813.128	0.0161945
813.206	0.0162402
813.284	0.0161900
813.362	0.0160856
813.440	0.0162087
813.518	0.0162545
813.596	0.0162265
813.674	0.0162330
813.753	0.0161819
813.831	0.0160487
813.909	0.0161777
813.987	0.0161326
814.065	0.0161311
814.143	0.0161081
814.221	0.0160897
814.299	0.0160321
814.378	0.0158237
814.456	0.0159932
814.534	0.0159592
814.612	0.0159633
814.690	0.0159703
814.768	0.0158577
814.846	0.0160831
814.924	0.0160645
815.003	0.0158665
815.081	0.0160854
815.159	0.0160754
815.237	0.0160011
815.315	0.0161942
815.393	0.0162388
815.471	0.0161668
815.549	0.0162320
815.628	0.0160935
815.706	0.0161552
815.784	0.0161102
815.862	0.0161138
815.940	0.0160796
816.018	0.0162081
816.096	0.0160918
816.174	0.0159780
816.253	0.0161407
816.331	0.0160279
816.409	0.0160787
816.487	0.0160739
816.565	0.0161828
816.643	0.0160278
816.721	0.0160612
816.799	0.0160138
816.878	0.0159927
816.956	0.0160245
817.034	0.0161530
817.112	0.0160914
817.190	0.0161797
817.268	0.0161925
817.346	0.0161731
817.424	0.0161946
817.503	0.0161863
817.581	0.0161587
817.659	0.0161823
817.737	0.0162212
817.815	0.0161225
817.893	0.0161560
817.971	0.0161753
818.049	0.0162769
818.128	0.0161987
818.206	0.0161858
818.284	0.0162276
818.362	0.0160378
818.440	0.0160756
818.518	0.0160530
818.596	0.0160137
818.674	0.0160046
818.753	0.0161310
818.831	0.0159456
818.909	0.0160009
818.987	0.0159997
819.065	0.0160787
819.143	0.0160354
819.221	0.0158781
819.299	0.0160747
819.378	0.0160927
819.456	0.0160801
819.534	0.0160229
819.612	0.0160407
819.690	0.0160471
819.768	0.0160904
819.846	0.0163034
819.924	0.0160146
820.003	0.0159987
820.081	0.0161527
820.159	0.0160368
820.237	0.0161092
820.315	0.0161001
820.393	0.0161594
820.471	0.0161344
820.549	0.0160060
820.628	0.0161433
820.706	0.0160490
820.784	0.0160611
820.862	0.0160939
820.940	0.0161645
821.018	0.0160122
821.096	0.0160226
821.174	0.0161509
821.253	0.0161927
821.331	0.0159663
821.409	0.0159849
821.487	0.0160725
821.565	0.0159630
821.643	0.0160521
821.721	0.0160144
821.799	0.0159336
821.878	0.0160596
821.956	0.0161426
822.034	0.0159663
822.112	0.0160733
822.190	0.0159726
822.268	0.0162277
822.346	0.0159400
822.424	0.0160902
822.503	0.0161244
822.581	0.0159626
822.659	0.0160979
822.737	0.0159461
822.815	0.0160082
822.893	0.0162186
822.971	0.0161063
823.049	0.0160902
823.128	0.0160215
823.206	0.0160011
823.284	0.0161639
823.362	0.0160208
823.440	0.0160774
823.518	0.0160773
823.596	0.0160249
823.674	0.0160116
823.753	0.0161008
823.831	0.0160934
823.909	0.0161073
823.987	0.0160691
824.065	0.0161844
824.143	0.0160144
824.221	0.0160288
824.299	0.0160107
824.378	0.0160204
824.456	0.0160952
824.534	0.0160674
824.612	0.0160191
824.690	0.0160928
824.768	0.0161440
824.846	0.0161469
824.924	0.0160989
825.003	0.0161650
825.081	0.0162086
825.159	0.0161312
825.237	0.0162064
825.315	0.0163225
825.393	0.0162610
825.471	0.0161225
825.549	0.0161629
825.628	0.0161424
825.706	0.0161217
825.784	0.0160918
825.862	0.0161794
825.940	0.0160358
826.018	0.0160875
826.096	0.0159675
826.174	0.0158427
826.253	0.0159164
826.331	0.0160704
826.409	0.0160491
826.487	0.0160345
826.565	0.0158778
826.643	0.0159795
826.721	0.0161659
826.799	0.0160054
826.878	0.0161092
826.956	0.0160307
827.034	0.0159509
827.112	0.0160384
827.190	0.0161533
827.268	0.0161061
827.346	0.0159772
827.424	0.0160032
827.503	0.0162485
827.581	0.0161365
827.659	0.0160263
827.737	0.0162144
827.815	0.0161677
827.893	0.0161104
827.971	0.0161858
828.049	0.0161136
828.128	0.0162714
828.206	0.0162108
828.284	0.0161609
828.362	0.0161105
828.440	0.0161520
828.518	0.0161697
828.596	0.0162581
828.674	0.0161948
828.753	0.0161272
828.831	0.0161368
828.909	0.0161183
828.987	0.0161027
829.065	0.0161060
829.143	0.0161954
829.221	0.0162469
829.299	0.0161365
829.378	0.0161022
829.456	0.0160542
829.534	0.0161286
829.612	0.0159109
829.690	0.0159570
829.768	0.0161273
829.846	0.0161080
829.924	0.0161750
830.003	0.0161408
830.081	0.0160308
830.159	0.0161388
830.237	0.0160337
830.315	0.0160933
830.393	0.0161537
830.471	0.0161608
830.549	0.0160998
830.628	0.0160242
830.706	0.0160309
830.784	0.0160669
830.862	0.0160915
830.940	0.0159096
831.018	0.0160140
831.096	0.0160756
831.174	0.0160510
831.253	0.0161607
831.331	0.0161388
831.409	0.0160320
831.487	0.0161033
831.565	0.0161694
831.643	0.0160167
831.721	0.0162350
831.799	0.0162295
831.878	0.0161765
831.956	0.0162524
832.034	0.0161998
832.112	0.0162505
832.190	0.0161854
832.268	0.0162894
832.346	0.0163200
832.424	0.0160978
832.503	0.0161327
832.581	0.0163432
832.659	0.0162408
832.737	0.0161518
832.815	0.0161766
832.893	0.0160670
832.971	0.0159864
833.049	0.0160748
833.128	0.0161107
833.206	0.0159562
833.284	0.0161258
833.362	0.0160468
833.440	0.0158678
833.518	0.0159840
833.596	0.0158972
833.674	0.0158945
833.753	0.0160506
833.831	0.0160527
833.909	0.0159989
833.987	0.0159475
834.065	0.0159709
834.143	0.0160543
834.221	0.0160249
834.299	0.0159743
834.378	0.0160632
834.456	0.0160629
834.534	0.0159377
834.612	0.0158734
834.690	0.0160355
834.768	0.0160657
834.846	0.0158986
834.924	0.0160487
835.003	0.0160517
835.081	0.0159792
835.159	0.0159872
835.237	0.0160735
835.315	0.0160075
835.393	0.0160028
835.471	0.0159540
835.549	0.0160081
835.628	0.0160958
835.706	0.0159243
835.784	0.0159889
835.862	0.0159356
835.940	0.0161012
836.018	0.0161945
836.096	0.0161395
836.174	0.0160892
836.253	0.0161764
836.331	0.0161480
836.409	0.0160867
836.487	0.0162665
836.565	0.0161541
836.643	0.0162462
836.721	0.0161588
836.799	0.0160792
836.878	0.0162061
836.956	0.0164077
837.034	0.0160957
837.112	0.0162052
837.190	0.0163573
837.268	0.0161806
837.346	0.0161396
837.424	0.0160569
837.503	0.0160983
837.581	0.0161782
837.659	0.0161617
837.737	0.0160647
837.815	0.0160990
837.893	0.0160479
837.971	0.0160036
838.049	0.0161033
838.128	0.0160500
838.206	0.0160044
838.284	0.0159276
838.362	0.0159776
838.440	0.0158237
838.518	0.0159015
838.596	0.0158515
838.674	0.0158710
838.753	0.0158769
838.831	0.0159666
838.909	0.0159437
838.987	0.0158925
839.065	0.0157520
839.143	0.0158930
839.221	0.0161106
839.299	0.0161104
839.378	0.0159470
839.456	0.0161089
839.534	0.0159818
839.612	0.0159084
839.690	0.0159333
839.768	0.0160995
839.846	0.0160609
839.924	0.0159932
840.003	0.0161435
840.081	0.0160689
840.159	0.0161407
840.237	0.0162078
840.315	0.0160583
840.393	0.0161289
840.471	0.0161984
840.549	0.0162791
840.628	0.0163011
840.706	0.0161211
840.784	0.0162272
840.862	0.0163383
840.940	0.0161829
841.018	0.0161745
841.096	0.0161600
841.174	0.0161826
841.253	0.0161842
841.331	0.0161841
841.409	0.0162025
841.487	0.0163702
841.565	0.0161739
841.643	0.0162191
841.721	0.0161336
841.799	0.0161160
841.878	0.0161367
841.956	0.0159919
842.034	0.0159252
842.112	0.0158727
842.190	0.0160906
842.268	0.0160750
842.346	0.0159806
842.424	0.0159085
842.503	0.0158829
842.581	0.0157805
842.659	0.0158807
842.737	0.0159726
842.815	0.0159433
842.893	0.0158972
842.971	0.0159200
843.049	0.0158409
843.128	0.0159081
843.206	0.0159387
843.284	0.0160860
843.362	0.0159524
843.440	0.0158590
843.518	0.0159756
843.596	0.0162346
843.674	0.0161082
843.753	0.0161945
843.831	0.0161834
843.909	0.0161590
843.987	0.0161604
844.065	0.0162473
844.143	0.0161726
844.221	0.0162765
844.299	0.0162737
844.378	0.0160936
844.456	0.0162739
844.534	0.0163178
844.612	0.0163931
844.690	0.0162984
844.768	0.0163241
844.846	0.0162201
844.924	0.0162630
845.003	0.0161852
845.081	0.0161636
845.159	0.0162203
845.237	0.0161859
845.315	0.0160588
845.393	0.0161057
845.471	0.0160265
845.549	0.0159761
845.628	0.0159757
845.706	0.0161365
845.784	0.0160374
845.862	0.0160706
845.940	0.0159894
846.018	0.0159690
846.096	0.0159418
846.174	0.0159870
846.253	0.0159723
846.331	0.0159799
846.409	0.0160186
846.487	0.0159534
846.565	0.0159621
846.643	0.0158932
846.721	0.0159910
846.799	0.0159518
846.878	0.0159461
846.956	0.0160159
847.034	0.0160262
847.112	0.0159844
847.190	0.0159785
847.268	0.0160535
847.346	0.0160352
847.424	0.0160402
847.503	0.0158559
847.581	0.0161460
847.659	0.0162086
847.737	0.0161987
847.815	0.0162550
847.893	0.0160961
847.971	0.0161635
848.049	0.0161375
848.128	0.0162039
848.206	0.0161498
848.284	0.0162585
848.362	0.0163334
848.440	0.0163177
848.518	0.0162281
848.596	0.0161940
848.674	0.0163414
848.753	0.0162132
848.831	0.0161720
848.909	0.0162421
848.987	0.0161730
849.065	0.0163409
849.143	0.0162814
849.221	0.0160806
849.299	0.0161202
849.378	0.0162614
849.456	0.0161164
849.534	0.0161584
849.612	0.0160835
849.690	0.0160043
849.768	0.0159831
849.846	0.0160378
849.924	0.0160477
850.003	0.0160917
850.081	0.0160124
850.159	0.0159459
850.237	0.0159571
850.315	0.0159637
850.393	0.0160715
850.471	0.0160205
850.549	0.0159612
850.628	0.0161259
850.706	0.0161179
850.784	0.0159466
850.862	0.0160043
850.940	0.0160660
851.018	0.0159760
851.096	0.0159770
851.174	0.0159957
851.253	0.0159109
851.331	0.0160691
851.409	0.0159533
851.487	0.0159429
851.565	0.0161334
851.643	0.0160274
851.721	0.0160814
851.799	0.0161634
851.878	0.0159220
851.956	0.0161759
852.034	0.0159837
852.112	0.0160916
852.190	0.0160645
852.268	0.0161073
852.346	0.0161509
852.424	0.0161972
852.503	0.0161237
852.581	0.0161211
852.659	0.0161147
852.737	0.0159892
852.815	0.0162768
852.893	0.0161618
852.971	0.0163005
853.049	0.0161885
853.128	0.0160353
853.206	0.0163053
853.284	0.0161334
853.362	0.0161971
853.440	0.0162098
853.518	0.0160761
853.596	0.0161864
853.674	0.0162538
853.753	0.0161504
853.831	0.0162028
853.909	0.0161557
853.987	0.0160471
854.065	0.0160248
854.143	0.0161104
854.221	0.0161159
854.299	0.0160661
854.378	0.0160612
854.456	0.0161100
854.534	0.0162341
854.612	0.0161131
854.690	0.0159206
854.768	0.0160432
854.846	0.0160722
854.924	0.0158973
855.003	0.0158982
855.081	0.0159956
855.159	0.0159534
855.237	0.0160065
855.315	0.0160011
855.393	0.0158860
855.471	0.0158437
855.549	0.0159435
855.628	0.0158525
855.706	0.0159539
855.784	0.0159247
855.862	0.0158841
855.940	0.0159988
856.018	0.0160423
856.096	0.0158817
856.174	0.0159158
856.253	0.0160300
856.331	0.0160628
856.409	0.0160290
856.487	0.0160173
856.565	0.0162521
856.643	0.0161259
856.721	0.0159769
856.799	0.0161788
856.878	0.0160712
856.956	0.0161562
857.034	0.0162421
857.112	0.0161489
857.190	0.0162479
857.268	0.0162744
857.346	0.0161031
857.424	0.0162269
857.503	0.0161567
857.581	0.0161398
857.659	0.0161398
857.737	0.0161628
857.815	0.0161438
857.893	0.0162431
857.971	0.0161616
858.049	0.0160375
858.128	0.0161617
858.206	0.0161674
858.284	0.0160529
858.362	0.0161544
858.440	0.0160948
858.518	0.0161864
858.596	0.0160699
858.674	0.0161413
858.753	0.0161043
858.831	0.0159954
858.909	0.0163255
858.987	0.0161727
859.065	0.0161627
859.143	0.0162598
859.221	0.0160952
859.299	0.0160078
859.378	0.0161401
859.456	0.0162193
859.534	0.0163351
859.612	0.0161906
859.690	0.0160609
859.768	0.0161415
859.846	0.0162096
859.924	0.0161456
860.003	0.0160052
860.081	0.0160632
860.159	0.0160058
860.237	0.0160658
860.315	0.0160127
860.393	0.0159039
860.471	0.0161190
860.549	0.0160436
860.628	0.0160432
860.706	0.0160636
860.784	0.0160929
860.862	0.0159607
860.940	0.0159740
861.018	0.0159749
861.096	0.0160679
861.174	0.0159864
861.253	0.0160720
861.331	0.0161522
861.409	0.0161229
861.487	0.0160014
861.565	0.0161208
861.643	0.0161436
861.721	0.0161430
861.799	0.0161006
861.878	0.0161292
861.956	0.0162411
862.034	0.0161001
862.112	0.0162413
862.190	0.0162762
862.268	0.0161694
862.346	0.0160819
862.424	0.0161809
862.503	0.0162431
862.581	0.0162188
862.659	0.0160162
862.737	0.0160760
862.815	0.0162034
862.893	0.0161481
862.971	0.0161970
863.049	0.0161087
863.128	0.0160815
863.206	0.0161732
863.284	0.0161853
863.362	0.0160506
863.440	0.0160894
863.518	0.0161755
863.596	0.0160213
863.674	0.0159861
863.753	0.0158883
863.831	0.0159362
863.909	0.0159086
863.987	0.0158939
864.065	0.0157990
864.143	0.0160308
864.221	0.0159628
864.299	0.0158274
864.378	0.0159243
864.456	0.0159882
864.534	0.0158581
864.612	0.0160014
864.690	0.0160090
864.768	0.0160372
864.846	0.0160876
864.924	0.0160960
865.003	0.0159722
865.081	0.0160250
865.159	0.0161987
865.237	0.0160959
865.315	0.0160096
865.393	0.0162115
865.471	0.0161816
865.549	0.0161239
865.628	0.0161100
865.706	0.0162263
865.784	0.0162273
865.862	0.0162035
865.940	0.0160815
866.018	0.0161340
866.096	0.0161087
866.174	0.0160945
866.253	0.0161238
866.331	0.0161052
866.409	0.0161944
866.487	0.0161261
866.565	0.0162322
866.643	0.0160545
866.721	0.0160658
866.799	0.0161844
866.878	0.0160856
866.956	0.0160745
867.034	0.0161295
867.112	0.0161410
867.190	0.0160628
867.268	0.0160809
867.346	0.0162012
867.424	0.0161916
867.503	0.0161213
867.581	0.0161248
867.659	0.0162328
867.737	0.0160686
867.815	0.0161507
867.893	0.0161661
867.971	0.0162868
868.049	0.0160728
868.128	0.0161991
868.206	0.0160506
868.284	0.0158986
868.362	0.0161093
868.440	0.0162164
868.518	0.0161796
868.596	0.0159823
868.674	0.0160786
868.753	0.0159689
868.831	0.0159959
868.909	0.0160813
868.987	0.0159435
869.065	0.0160519
869.143	0.0158270
869.221	0.0159706
869.299	0.0160496
869.378	0.0159796
869.456	0.0160126
869.534	0.0159590
869.612	0.0160280
869.690	0.0160522
869.768	0.0159712
869.846	0.0160867
869.924	0.0159705
870.003	0.0160491
870.081	0.0160634
870.159	0.0160748
870.237	0.0159586
870.315	0.0159991
870.393	0.0162070
870.471	0.0160991
870.549	0.0161412
870.628	0.0160723
870.706	0.0162170
870.784	0.0160968
870.862	0.0161888
870.940	0.0161778
871.018	0.0160744
871.096	0.0162019
871.174	0.0162688
871.253	0.0161469
871.331	0.0161691
871.409	0.0161488
871.487	0.0163186
871.565	0.0162952
871.643	0.0161931
871.721	0.0163151
871.799	0.0162090
871.878	0.0161053
871.956	0.0161768
872.034	0.0161893
872.112	0.0162380
872.190	0.0162759
872.268	0.0161066
872.346	0.0162438
872.424	0.0161782
872.503	0.0161929
872.581	0.0162540
872.659	0.0161030
872.737	0.0161356
872.815	0.0162022
872.893	0.0161113
872.971	0.0162437
873.049	0.0162567
873.128	0.0161581
873.206	0.0161921
873.284	0.0160577
873.362	0.0162014
873.440	0.0161251
873.518	0.0161177
873.596	0.0160693
873.674	0.0161927
873.753	0.0160867
873.831	0.0159628
873.909	0.0160634
873.987	0.0160495
874.065	0.0161140
874.143	0.0160285
874.221	0.0159609
874.299	0.0160774
874.378	0.0159541
874.456	0.0159505
874.534	0.0160606
874.612	0.0160855
874.690	0.0160521
874.768	0.0158986
874.846	0.0158772
874.924	0.0159673
875.003	0.0160400
875.081	0.0159274
875.159	0.0158696
875.237	0.0159612
875.315	0.0159201
875.393	0.0160472
875.471	0.0159897
875.549	0.0159229
875.628	0.0161029
875.706	0.0160271
875.784	0.0160425
875.862	0.0161792
875.940	0.0161655
876.018	0.0161226
876.096	0.0161769
876.174	0.0160474
876.253	0.0162425
876.331	0.0163001
876.409	0.0162486
876.487	0.0161530
876.565	0.0161646
876.643	0.0162055
876.721	0.0162066
876.799	0.0161655
876.878	0.0161716
876.956	0.0162170
877.034	0.0162080
877.112	0.0162220
877.190	0.0160871
877.268	0.0161426
877.346	0.0161684
877.424	0.0161940
877.503	0.0163028
877.581	0.0161166
877.659	0.0160925
877.737	0.0162341
877.815	0.0161974
877.893	0.0162047
877.971	0.0161183
878.049	0.0160192
878.128	0.0162039
878.206	0.0160848
878.284	0.0160545
878.362	0.0160964
878.440	0.0160433
878.518	0.0161215
878.596	0.0160462
878.674	0.0160105
878.753	0.0161069
878.831	0.0159489
878.909	0.0159605
878.987	0.0161621
879.065	0.0161859
879.143	0.0160500
879.221	0.0161223
879.299	0.0159938
879.378	0.0159529
879.456	0.0160167
879.534	0.0162240
879.612	0.0161306
879.690	0.0161572
879.768	0.0159546
879.846	0.0158887
879.924	0.0160561
880.003	0.0160728
880.081	0.0160584
880.159	0.0160233
880.237	0.0158889
880.315	0.0160307
880.393	0.0160217
880.471	0.0160780
880.549	0.0160432
880.628	0.0159592
880.706	0.0159827
880.784	0.0159608
880.862	0.0160168
880.940	0.0160731
881.018	0.0159793
881.096	0.0160528
881.174	0.0160461
881.253	0.0160900
881.331	0.0161403
881.409	0.0160970
881.487	0.0161161
881.565	0.0160513
881.643	0.0162189
881.721	0.0161558
881.799	0.0161092
881.878	0.0161008
881.956	0.0161905
882.034	0.0162150
882.112	0.0161501
882.190	0.0161386
882.268	0.0161566
882.346	0.0161728
882.424	0.0161987
882.503	0.0162550
882.581	0.0161523
882.659	0.0160138
882.737	0.0163076
882.815	0.0161940
882.893	0.0160850
882.971	0.0160927
883.049	0.0162440
883.128	0.0161984
883.206	0.0160904
883.284	0.0162280
883.362	0.0162819
883.440	0.0161582
883.518	0.0161133
883.596	0.0162687
883.674	0.0161526
883.753	0.0159863
883.831	0.0159943
883.909	0.0161318
883.987	0.0160560
884.065	0.0160030
884.143	0.0159741
884.221	0.0161146
884.299	0.0159286
884.378	0.0160117
884.456	0.0159821
884.534	0.0159712
884.612	0.0160622
884.690	0.0159646
884.768	0.0158150
884.846	0.0160503
884.924	0.0160914
885.003	0.0158676
885.081	0.0162004
885.159	0.0160668
885.237	0.0159396
885.315	0.0160190
885.393	0.0161819
885.471	0.0161553
885.549	0.0162557
885.628	0.0161993
885.706	0.0160428
885.784	0.0160597
885.862	0.0161266
885.940	0.0161703
886.018	0.0161292
886.096	0.0161058
886.174	0.0161485
886.253	0.0161044
886.331	0.0159882
886.409	0.0160379
886.487	0.0161096
886.565	0.0160942
886.643	0.0160999
886.721	0.0160587
886.799	0.0160082
886.878	0.0161317
886.956	0.0160527
887.034	0.0160527
887.112	0.0160394
887.190	0.0160230
887.268	0.0160842
887.346	0.0159885
887.424	0.0159380
887.503	0.0159496
887.581	0.0160509
887.659	0.0159377
887.737	0.0159744
887.815	0.0160026
887.893	0.0159247
887.971	0.0160210
888.049	0.0161108
888.128	0.0160251
888.206	0.0159293
888.284	0.0159791
888.362	0.0160922
888.440	0.0159898
888.518	0.0161356
888.596	0.0160882
888.674	0.0161383
888.753	0.0162422
888.831	0.0162408
888.909	0.0161896
888.987	0.0161623
889.065	0.0162302
889.143	0.0161803
889.221	0.0161015
889.299	0.0163008
889.378	0.0161674
889.456	0.0162192
889.534	0.0162321
889.612	0.0161632
889.690	0.0160910
889.768	0.0162496
889.846	0.0161569
889.924	0.0161277
890.003	0.0162640
890.081	0.0162092
890.159	0.0161641
890.237	0.0161163
890.315	0.0160767
890.393	0.0159381
890.471	0.0160125
890.549	0.0160744
890.628	0.0160373
890.706	0.0159293
890.784	0.0160282
890.862	0.0160708
890.940	0.0159054
891.018	0.0158419
891.096	0.0158264
891.174	0.0159927
891.253	0.0159528
891.331	0.0161040
891.409	0.0159977
891.487	0.0160088
891.565	0.0160603
891.643	0.0160367
891.721	0.0159104
891.799	0.0160484
891.878	0.0161716
891.956	0.0160902
892.034	0.0161221
892.112	0.0160831
892.190	0.0160352
892.268	0.0161290
892.346	0.0161510
892.424	0.0161413
892.503	0.0160555
892.581	0.0161816
892.659	0.0160595
892.737	0.0159873
892.815	0.0160968
892.893	0.0162298
892.971	0.0160779
893.049	0.0160839
893.128	0.0161554
893.206	0.0161567
893.284	0.0160870
893.362	0.0161590
893.440	0.0160627
893.518	0.0160657
893.596	0.0161940
893.674	0.0161481
893.753	0.0161279
893.831	0.0161732
893.909	0.0160959
893.987	0.0161264
894.065	0.0161826
894.143	0.0160728
894.221	0.0160725
894.299	0.0160996
894.378	0.0160148
894.456	0.0159084
894.534	0.0159701
894.612	0.0160273
894.690	0.0161568
894.768	0.0159698
894.846	0.0159073
894.924	0.0160021
895.003	0.0159390
895.081	0.0158889
895.159	0.0160204
895.237	0.0159786
895.315	0.0160680
895.393	0.0160533
895.471	0.0159415
895.549	0.0160531
895.628	0.0160428
895.706	0.0160986
895.784	0.0160635
895.862	0.0162497
895.940	0.0162061
896.018	0.0160388
896.096	0.0161710
896.174	0.0161318
896.253	0.0161787
896.331	0.0161259
896.409	0.0161004
896.487	0.0162003
896.565	0.0162638
896.643	0.0161699
896.721	0.0161510
896.799	0.0161404
896.878	0.0161215
896.956	0.0162212
897.034	0.0160764
897.112	0.0161054
897.190	0.0161333
897.268	0.0161867
897.346	0.0161290
897.424	0.0160822
897.503	0.0161962
897.581	0.0159584
897.659	0.0160124
897.737	0.0161042
897.815	0.0159421
897.893	0.0161318
897.971	0.0160240
898.049	0.0161296
898.128	0.0160519
898.206	0.0160031
898.284	0.0159919
898.362	0.0160838
898.440	0.0160165
898.518	0.0159386
898.596	0.0159031
898.674	0.0159600
898.753	0.0161209
898.831	0.0160759
898.909	0.0159110
898.987	0.0158812
899.065	0.0161122
899.143	0.0160968
899.221	0.0160870
899.299	0.0161194
899.378	0.0162278
899.456	0.0161697
899.534	0.0161924
899.612	0.0162724
899.690	0.0160544
899.768	0.0161003
899.846	0.0162239
899.924	0.0162556
900.003	0.0161456
900.081	0.0161862
900.159	0.0162012
900.237	0.0161490
900.315	0.0162032
900.393	0.0161481
900.471	0.0161481
900.549	0.0160497
900.628	0.0161515
900.706	0.0160612
900.784	0.0161757
900.862	0.0162367
900.940	0.0160797
901.018	0.0161559
901.096	0.0161440
901.174	0.0161587
901.253	0.0161308
901.331	0.0160407
901.409	0.0160737
901.487	0.0162062
901.565	0.0162846
901.643	0.0161397
901.721	0.0160312
901.799	0.0160612
901.878	0.0160843
901.956	0.0161842
902.034	0.0160548
902.112	0.0161706
902.190	0.0160913
902.268	0.0161453
902.346	0.0161230
902.424	0.0161102
902.503	0.0162151
902.581	0.0161497
902.659	0.0159892
902.737	0.0160069
902.815	0.0160297
902.893	0.0159660
902.971	0.0160426
903.049	0.0162328
903.128	0.0161352
903.206	0.0160733
903.284	0.0159492
903.362	0.0159367
903.440	0.0159562
903.518	0.0160374
903.596	0.0161340
903.674	0.0160721
903.753	0.0160654
903.831	0.0159251
903.909	0.0159486
903.987	0.0160759
904.065	0.0159688
904.143	0.0159785
904.221	0.0159858
904.299	0.0160511
904.378	0.0160506
904.456	0.0161351
904.534	0.0162253
904.612	0.0160052
904.690	0.0160090
904.768	0.0159773
904.846	0.0161804
904.924	0.0161642
905.003	0.0159989
905.081	0.0160564
905.159	0.0159824
905.237	0.0161729
905.315	0.0160527
905.393	0.0161894
905.471	0.0162157
905.549	0.0161644
905.628	0.0160686
905.706	0.0161577
905.784	0.0161723
905.862	0.0161083
905.940	0.0161146
906.018	0.0160941
906.096	0.0160555
906.174	0.0160337
906.253	0.0161583
906.331	0.0161300
906.409	0.0161720
906.487	0.0161302
906.565	0.0161383
906.643	0.0161086
906.721	0.0161523
906.799	0.0159777
906.878	0.0160627
906.956	0.0160291
907.034	0.0160455
907.112	0.0161432
907.190	0.0160238
907.268	0.0159358
907.346	0.0161378
907.424	0.0160658
907.503	0.0160308
907.581	0.0160580
907.659	0.0160099
907.737	0.0160072
907.815	0.0162466
907.893	0.0162197
907.971	0.0161864
908.049	0.0161870
908.128	0.0160869
908.206	0.0161427
908.284	0.0161378
908.362	0.0161306
908.440	0.0160439
908.518	0.0161070
908.596	0.0162136
908.674	0.0161817
908.753	0.0161703
908.831	0.0161559
908.909	0.0160374
908.987	0.0160900
909.065	0.0160682
909.143	0.0160041
909.221	0.0160388
909.299	0.0161005
909.378	0.0161597
909.456	0.0161507
909.534	0.0160741
909.612	0.0160869
909.690	0.0161900
909.768	0.0161692
909.846	0.0159132
909.924	0.0161243
910.003	0.0159570
910.081	0.0161655
910.159	0.0161114
910.237	0.0160331
910.315	0.0161387
910.393	0.0161797
910.471	0.0161195
910.549	0.0160542
910.628	0.0162293
910.706	0.0161343
910.784	0.0160770
910.862	0.0162563
910.940	0.0161443
911.018	0.0162145
911.096	0.0161761
911.174	0.0159647
911.253	0.0160302
911.331	0.0159571
911.409	0.0158952
911.487	0.0160597
911.565	0.0160204
911.643	0.0159755
911.721	0.0159892
911.799	0.0161052
911.878	0.0160348
911.956	0.0160643
912.034	0.0160905
912.112	0.0160327
912.190	0.0160973
912.268	0.0160811
912.346	0.0160172
912.424	0.0161271
912.503	0.0161506
912.581	0.0161343
912.659	0.0162004
912.737	0.0160307
912.815	0.0160144
912.893	0.0159478
912.971	0.0160536
913.049	0.0160075
913.128	0.0161241
913.206	0.0160426
913.284	0.0160519
913.362	0.0161060
913.440	0.0160862
913.518	0.0160863
913.596	0.0160291
913.674	0.0159887
913.753	0.0160004
913.831	0.0161105
913.909	0.0160275
913.987	0.0161776
914.065	0.0160719
914.143	0.0162257
914.221	0.0163449
914.299	0.0161498
914.378	0.0161599
914.456	0.0163659
914.534	0.0163984
914.612	0.0162709
914.690	0.0162031
914.768	0.0162981
914.846	0.0163009
914.924	0.0159983
915.003	0.0162138
915.081	0.0161529
915.159	0.0160184
915.237	0.0161381
915.315	0.0159151
915.393	0.0159895
915.471	0.0160719
915.549	0.0159760
915.628	0.0158903
915.706	0.0160175
915.784	0.0160541
915.862	0.0160304
915.940	0.0159092
916.018	0.0160155
916.096	0.0162293
916.174	0.0160855
916.253	0.0160071
916.331	0.0158958
916.409	0.0161371
916.487	0.0161460
916.565	0.0160219
916.643	0.0159434
916.721	0.0160111
916.799	0.0160540
916.878	0.0160096
916.956	0.0159715
917.034	0.0160387
917.112	0.0160723
917.190	0.0160522
917.268	0.0160088
917.346	0.0160857
917.424	0.0159969
917.503	0.0161518
917.581	0.0161610
917.659	0.0160097
917.737	0.0160623
917.815	0.0161711
917.893	0.0161040
917.971	0.0160533
918.049	0.0160172
918.128	0.0160153
918.206	0.0160979
918.284	0.0162344
918.362	0.0161730
918.440	0.0160944
918.518	0.0161150
918.596	0.0160014
918.674	0.0160366
918.753	0.0159808
918.831	0.0161747
918.909	0.0161662
918.987	0.0159651
919.065	0.0159985
919.143	0.0161354
919.221	0.0161110
919.299	0.0160982
919.378	0.0162273
919.456	0.0162380
919.534	0.0161452
919.612	0.0161101
919.690	0.0162273
919.768	0.0161010
919.846	0.0161329
919.924	0.0160444
920.003	0.0160453
920.081	0.0160592
920.159	0.0160232
920.237	0.0159063
920.315	0.0159211
920.393	0.0160045
920.471	0.0159402
920.549	0.0159885
920.628	0.0160677
920.706	0.0160929
920.784	0.0160978
920.862	0.0161713
920.940	0.0161715
921.018	0.0162480
921.096	0.0161835
921.174	0.0160103
921.253	0.0158901
921.331	0.0160624
921.409	0.0161253
921.487	0.0160316
921.565	0.0160732
921.643	0.0159855
921.721	0.0160162
921.799	0.0160793
921.878	0.0160667
921.956	0.0160653
922.034	0.0160464
922.112	0.0161899
922.190	0.0161474
922.268	0.0161514
922.346	0.0160744
922.424	0.0161235
922.503	0.0161884
922.581	0.0161010
922.659	0.0160571
922.737	0.0161996
922.815	0.0162474
922.893	0.0161745
922.971	0.0160956
923.049	0.0160979
923.128	0.0160046
923.206	0.0159813
923.284	0.0159555
923.362	0.0160197
923.440	0.0160062
923.518	0.0158984
923.596	0.0159805
923.674	0.0160139
923.753	0.0159312
923.831	0.0160083
923.909	0.0160249
923.987	0.0157969
924.065	0.0159594
924.143	0.0160530
924.221	0.0159180
924.299	0.0160615
924.378	0.0160741
924.456	0.0160640
924.534	0.0161208
924.612	0.0159557
924.690	0.0161232
924.768	0.0160142
924.846	0.0160782
924.924	0.0160902
925.003	0.0160715
925.081	0.0161543
925.159	0.0162857
925.237	0.0161434
925.315	0.0161563
925.393	0.0162575
925.471	0.0161411
925.549	0.0161445
925.628	0.0160811
925.706	0.0160402
925.784	0.0160268
925.862	0.0161269
925.940	0.0160623
926.018	0.0161458
926.096	0.0160134
926.174	0.0161134
926.253	0.0160379
926.331	0.0160755
926.409	0.0160520
926.487	0.0160844
926.565	0.0160215
926.643	0.0159021
926.721	0.0160696
926.799	0.0162195
926.878	0.0161072
926.956	0.0160660
927.034	0.0160011
927.112	0.0159801
927.190	0.0159788
927.268	0.0160289
927.346	0.0160727
927.424	0.0161678
927.503	0.0159639
927.581	0.0160175
927.659	0.0158690
927.737	0.0159673
927.815	0.0159925
927.893	0.0160004
927.971	0.0160067
928.049	0.0159281
928.128	0.0159577
928.206	0.0159951
928.284	0.0160246
928.362	0.0159114
928.440	0.0160741
928.518	0.0160479
928.596	0.0160548
928.674	0.0160381
928.753	0.0160620
928.831	0.0160288
928.909	0.0160629
928.987	0.0161153
929.065	0.0159933
929.143	0.0160188
929.221	0.0159966
929.299	0.0160269
929.378	0.0160357
929.456	0.0160359
929.534	0.0160372
929.612	0.0161012
929.690	0.0160927
929.768	0.0160713
929.846	0.0159229
929.924	0.0159024
930.003	0.0160133
930.081	0.0159647
930.159	0.0161227
930.237	0.0160455
930.315	0.0159240
930.393	0.0160487
930.471	0.0161206
930.549	0.0161398
930.628	0.0160875
930.706	0.0160438
930.784	0.0160117
930.862	0.0160691
930.940	0.0159885
931.018	0.0160329
931.096	0.0160471
931.174	0.0160417
931.253	0.0162171
931.331	0.0160447
931.409	0.0160107
931.487	0.0162613
931.565	0.0161672
931.643	0.0161112
931.721	0.0161320
931.799	0.0160650
931.878	0.0160027
931.956	0.0160539
932.034	0.0162192
932.112	0.0159459
932.190	0.0159892
932.268	0.0161642
932.346	0.0160719
932.424	0.0161167
932.503	0.0162016
932.581	0.0160056
932.659	0.0160732
932.737	0.0161051
932.815	0.0161637
932.893	0.0162041
932.971	0.0161286
933.049	0.0161268
933.128	0.0162548
933.206	0.0162389
933.284	0.0162437
933.362	0.0162065
933.440	0.0161484
933.518	0.0160833
933.596	0.0160825
933.674	0.0161771
933.753	0.0163254
933.831	0.0162242
933.909	0.0161544
933.987	0.0160358
934.065	0.0160815
934.143	0.0162530
934.221	0.0161363
934.299	0.0160791
934.378	0.0161447
934.456	0.0160963
934.534	0.0159174
934.612	0.0160374
934.690	0.0160932
934.768	0.0159956
934.846	0.0161623
934.924	0.0160979
935.003	0.0160854
935.081	0.0161462
935.159	0.0159713
935.237	0.0159477
935.315	0.0160475
935.393	0.0160725
935.471	0.0161195
935.549	0.0159282
935.628	0.0159742
935.706	0.0160424
935.784	0.0159968
935.862	0.0160033
935.940	0.0161031
936.018	0.0161259
936.096	0.0160644
936.174	0.0161056
936.253	0.0160409
936.331	0.0161621
936.409	0.0160677
936.487	0.0161554
936.565	0.0160697
936.643	0.0159420
936.721	0.0159599
936.799	0.0160375
936.878	0.0160845
936.956	0.0160530
937.034	0.0160558
937.112	0.0160860
937.190	0.0160622
937.268	0.0161656
937.346	0.0160904
937.424	0.0159785
937.503	0.0160650
937.581	0.0160763
937.659	0.0159711
937.737	0.0160723
937.815	0.0159979
937.893	0.0160185
937.971	0.0160410
938.049	0.0159034
938.128	0.0160172
938.206	0.0159650
938.284	0.0161380
938.362	0.0160523
938.440	0.0161581
938.518	0.0161308
938.596	0.0161551
938.674	0.0161172
938.753	0.0160434
938.831	0.0161037
938.909	0.0159906
938.987	0.0160364
939.065	0.0161111
939.143	0.0160809
939.221	0.0159014
939.299	0.0159846
939.378	0.0159460
939.456	0.0160014
939.534	0.0159959
939.612	0.0159953
939.690	0.0159984
939.768	0.0159033
939.846	0.0159385
939.924	0.0159745
940.003	0.0160641
940.081	0.0159158
940.159	0.0160493
940.237	0.0161199
940.315	0.0159977
940.393	0.0161112
940.471	0.0161587
940.549	0.0160093
940.628	0.0160988
940.706	0.0162409
940.784	0.0162327
940.862	0.0161156
940.940	0.0161506
941.018	0.0161073
941.096	0.0158979
941.174	0.0160785
941.253	0.0161180
941.331	0.0160969
941.409	0.0160542
941.487	0.0160901
941.565	0.0160817
941.643	0.0160750
941.721	0.0161045
941.799	0.0159795
941.878	0.0162253
941.956	0.0159713
942.034	0.0159219
942.112	0.0160744
942.190	0.0160873
942.268	0.0160826
942.346	0.0160579
942.424	0.0160745
942.503	0.0160591
942.581	0.0161444
942.659	0.0160468
942.737	0.0161855
942.815	0.0161404
942.893	0.0160754
942.971	0.0159972
943.049	0.0159631
943.128	0.0160467
943.206	0.0159641
943.284	0.0160412
943.362	0.0159857
943.440	0.0159652
943.518	0.0160523
943.596	0.0160599
943.674	0.0160107
943.753	0.0160141
943.831	0.0159887
943.909	0.0160801
943.987	0.0160908
944.065	0.0160846
944.143	0.0160831
944.221	0.0160584
944.299	0.0160676
944.378	0.0160323
944.456	0.0160997
944.534	0.0159748
944.612	0.0159731
944.690	0.0160697
944.768	0.0160964
944.846	0.0161441
944.924	0.0159126
945.003	0.0160836
945.081	0.0161048
945.159	0.0161440
945.237	0.0160866
945.315	0.0161873
945.393	0.0160377
945.471	0.0161028
945.549	0.0161349
945.628	0.0160688
945.706	0.0161340
945.784	0.0161895
945.862	0.0161475
945.940	0.0161442
946.018	0.0161303
946.096	0.0160972
946.174	0.0161133
946.253	0.0160797
946.331	0.0160667
946.409	0.0160685
946.487	0.0160297
946.565	0.0161468
946.643	0.0160600
946.721	0.0158679
946.799	0.0160373
946.878	0.0158499
946.956	0.0160434
947.034	0.0159663
947.112	0.0161214
947.190	0.0159507
947.268	0.0159985
947.346	0.0160633
947.424	0.0160896
947.503	0.0159789
947.581	0.0159800
947.659	0.0159190
947.737	0.0160308
947.815	0.0160707
947.893	0.0160480
947.971	0.0159603
948.049	0.0158506
948.128	0.0159697
948.206	0.0160936
948.284	0.0160753
948.362	0.0159031
948.440	0.0160262
948.518	0.0160767
948.596	0.0159886
948.674	0.0159766
948.753	0.0159624
948.831	0.0160292
948.909	0.0161397
948.987	0.0161611
949.065	0.0159634
949.143	0.0161824
949.221	0.0160966
949.299	0.0161030
949.378	0.0160739
949.456	0.0161230
949.534	0.0161793
949.612	0.0160921
949.690	0.0160772
949.768	0.0160699
949.846	0.0162180
949.924	0.0162310
