06/29/2022	23:09:31	Ver.	4.1	UNKNOWN
Optical Delay	630.002507	Delta X		0.078125	Sweeps	1	Scan Rate	0/0
Coordinates	Axis 1	NaN	Axis 2	NaN	Axis 3	NaN	Axis 4	NaN	Axis 5	NaN	Axis 6	0.000000
TX Power	0.000000	RX Power	0.000000

630.003	0.0162081
630.081	0.0161901
630.159	0.0161734
630.237	0.0160999
630.315	0.0160532
630.393	0.0161700
630.471	0.0160652
630.549	0.0160979
630.628	0.0160469
630.706	0.0161336
630.784	0.0161718
630.862	0.0161346
630.940	0.0161537
631.018	0.0161559
631.096	0.0161016
631.174	0.0160733
631.253	0.0162270
631.331	0.0160425
631.409	0.0159814
631.487	0.0160970
631.565	0.0161926
631.643	0.0161070
631.721	0.0162021
631.799	0.0161362
631.878	0.0160734
631.956	0.0161747
632.034	0.0161316
632.112	0.0159286
632.190	0.0160645
632.268	0.0160749
632.346	0.0161906
632.424	0.0160056
632.503	0.0161182
632.581	0.0160811
632.659	0.0159081
632.737	0.0160606
632.815	0.0160133
632.893	0.0161405
632.971	0.0161193
633.049	0.0161840
633.128	0.0161711
633.206	0.0160408
633.284	0.0160735
633.362	0.0160434
633.440	0.0160615
633.518	0.0161282
633.596	0.0160823
633.674	0.0161340
633.753	0.0160774
633.831	0.0160211
633.909	0.0161951
633.987	0.0162477
634.065	0.0160068
634.143	0.0161720
634.221	0.0160818
634.299	0.0160657
634.378	0.0160899
634.456	0.0161501
634.534	0.0160846
634.612	0.0161370
634.690	0.0161877
634.768	0.0162710
634.846	0.0160724
634.924	0.0161877
635.003	0.0161243
635.081	0.0162079
635.159	0.0161980
635.237	0.0160385
635.315	0.0160704
635.393	0.0159558
635.471	0.0161420
635.549	0.0162378
635.628	0.0161450
635.706	0.0160804
635.784	0.0160653
635.862	0.0161253
635.940	0.0162325
636.018	0.0161777
636.096	0.0161418
636.174	0.0161637
636.253	0.0160699
636.331	0.0160963
636.409	0.0161918
636.487	0.0160546
636.565	0.0161514
636.643	0.0161903
636.721	0.0161089
636.799	0.0161416
636.878	0.0161265
636.956	0.0161242
637.034	0.0161417
637.112	0.0160906
637.190	0.0161877
637.268	0.0161709
637.346	0.0162569
637.424	0.0162079
637.503	0.0160416
637.581	0.0160944
637.659	0.0161951
637.737	0.0162226
637.815	0.0161932
637.893	0.0161694
637.971	0.0161594
638.049	0.0163309
638.128	0.0161853
638.206	0.0161556
638.284	0.0162616
638.362	0.0162630
638.440	0.0163192
638.518	0.0162406
638.596	0.0163321
638.674	0.0162646
638.753	0.0162263
638.831	0.0162081
638.909	0.0161372
638.987	0.0162078
639.065	0.0162227
639.143	0.0163170
639.221	0.0162614
639.299	0.0162366
639.378	0.0162742
639.456	0.0161179
639.534	0.0162260
639.612	0.0160950
639.690	0.0162899
639.768	0.0163232
639.846	0.0161773
639.924	0.0161526
640.003	0.0161606
640.081	0.0163314
640.159	0.0162952
640.237	0.0161822
640.315	0.0163274
640.393	0.0162975
640.471	0.0161778
640.549	0.0162801
640.628	0.0162820
640.706	0.0163483
640.784	0.0161005
640.862	0.0162844
640.940	0.0162512
641.018	0.0161768
641.096	0.0164752
641.174	0.0163049
641.253	0.0161890
641.331	0.0161943
641.409	0.0161895
641.487	0.0162212
641.565	0.0162634
641.643	0.0161639
641.721	0.0161702
641.799	0.0162563
641.878	0.0161676
641.956	0.0161546
642.034	0.0161886
642.112	0.0161657
642.190	0.0162321
642.268	0.0164529
642.346	0.0163350
642.424	0.0162311
642.503	0.0161656
642.581	0.0162699
642.659	0.0163008
642.737	0.0162656
642.815	0.0163013
642.893	0.0163200
642.971	0.0161835
643.049	0.0162502
643.128	0.0161227
643.206	0.0162646
643.284	0.0163162
643.362	0.0163811
643.440	0.0163869
643.518	0.0162469
643.596	0.0163081
643.674	0.0161929
643.753	0.0162841
643.831	0.0163467
643.909	0.0162192
643.987	0.0163168
644.065	0.0162057
644.143	0.0162528
644.221	0.0162696
644.299	0.0163036
644.378	0.0161154
644.456	0.0162199
644.534	0.0162704
644.612	0.0162804
644.690	0.0161327
644.768	0.0163551
644.846	0.0162259
644.924	0.0162263
645.003	0.0163045
645.081	0.0163029
645.159	0.0162853
645.237	0.0161895
645.315	0.0163300
645.393	0.0162518
645.471	0.0162074
645.549	0.0161768
645.628	0.0161938
645.706	0.0162600
645.784	0.0162672
645.862	0.0163745
645.940	0.0163930
646.018	0.0162551
646.096	0.0162759
646.174	0.0161877
646.253	0.0163377
646.331	0.0162581
646.409	0.0163058
646.487	0.0162212
646.565	0.0161922
646.643	0.0161095
646.721	0.0160455
646.799	0.0160741
646.878	0.0162045
646.956	0.0163542
647.034	0.0162717
647.112	0.0161647
647.190	0.0160764
647.268	0.0162684
647.346	0.0162294
647.424	0.0162142
647.503	0.0162233
647.581	0.0163438
647.659	0.0162132
647.737	0.0162116
647.815	0.0163897
647.893	0.0163985
647.971	0.0161328
648.049	0.0162270
648.128	0.0162424
648.206	0.0162460
648.284	0.0163739
648.362	0.0162937
648.440	0.0162055
648.518	0.0162061
648.596	0.0163351
648.674	0.0163358
648.753	0.0162024
648.831	0.0161617
648.909	0.0162402
648.987	0.0163107
649.065	0.0162354
649.143	0.0163215
649.221	0.0163311
649.299	0.0162204
649.378	0.0161900
649.456	0.0161872
649.534	0.0162923
649.612	0.0162435
649.690	0.0162904
649.768	0.0164177
649.846	0.0162113
649.924	0.0164331
650.003	0.0161568
650.081	0.0162148
650.159	0.0162608
650.237	0.0161571
650.315	0.0162248
650.393	0.0163123
650.471	0.0162350
650.549	0.0161547
650.628	0.0161936
650.706	0.0161604
650.784	0.0161873
650.862	0.0161936
650.940	0.0162187
651.018	0.0163628
651.096	0.0162160
651.174	0.0161567
651.253	0.0162745
651.331	0.0162534
651.409	0.0162500
651.487	0.0162087
651.565	0.0160432
651.643	0.0162216
651.721	0.0163424
651.799	0.0162343
651.878	0.0161890
651.956	0.0160482
652.034	0.0160881
652.112	0.0160985
652.190	0.0163382
652.268	0.0162756
652.346	0.0160898
652.424	0.0161192
652.503	0.0160959
652.581	0.0160318
652.659	0.0161880
652.737	0.0160908
652.815	0.0161875
652.893	0.0162419
652.971	0.0162721
653.049	0.0160818
653.128	0.0160815
653.206	0.0162197
653.284	0.0160847
653.362	0.0161446
653.440	0.0159937
653.518	0.0160225
653.596	0.0161121
653.674	0.0160573
653.753	0.0161642
653.831	0.0161990
653.909	0.0162206
653.987	0.0161417
654.065	0.0159903
654.143	0.0161986
654.221	0.0161691
654.299	0.0161600
654.378	0.0160508
654.456	0.0161850
654.534	0.0161254
654.612	0.0161222
654.690	0.0162935
654.768	0.0160754
654.846	0.0159946
654.924	0.0161692
655.003	0.0161875
655.081	0.0158990
655.159	0.0161469
655.237	0.0162110
655.315	0.0162511
655.393	0.0160035
655.471	0.0161827
655.549	0.0160209
655.628	0.0160089
655.706	0.0163206
655.784	0.0162132
655.862	0.0161093
655.940	0.0161695
656.018	0.0161913
656.096	0.0161834
656.174	0.0160239
656.253	0.0162350
656.331	0.0160643
656.409	0.0159931
656.487	0.0160431
656.565	0.0161691
656.643	0.0162041
656.721	0.0161353
656.799	0.0163557
656.878	0.0161150
656.956	0.0160019
657.034	0.0163199
657.112	0.0161365
657.190	0.0160202
657.268	0.0161777
657.346	0.0162204
657.424	0.0161581
657.503	0.0161585
657.581	0.0162875
657.659	0.0160535
657.737	0.0162260
657.815	0.0162156
657.893	0.0160939
657.971	0.0161201
658.049	0.0160812
658.128	0.0162191
658.206	0.0162528
658.284	0.0161235
658.362	0.0161305
658.440	0.0161375
658.518	0.0161538
658.596	0.0161815
658.674	0.0162414
658.753	0.0161288
658.831	0.0160666
658.909	0.0163412
658.987	0.0162521
659.065	0.0161755
659.143	0.0161472
659.221	0.0161201
659.299	0.0162283
659.378	0.0160582
659.456	0.0161238
659.534	0.0162931
659.612	0.0162428
659.690	0.0162819
659.768	0.0161887
659.846	0.0161998
659.924	0.0161488
660.003	0.0162139
660.081	0.0162972
660.159	0.0162005
660.237	0.0162671
660.315	0.0162932
660.393	0.0162235
660.471	0.0162964
660.549	0.0161430
660.628	0.0162257
660.706	0.0163361
660.784	0.0162709
660.862	0.0162813
660.940	0.0161980
661.018	0.0161640
661.096	0.0162487
661.174	0.0162581
661.253	0.0161353
661.331	0.0161204
661.409	0.0162004
661.487	0.0162991
661.565	0.0161901
661.643	0.0161866
661.721	0.0161351
661.799	0.0163410
661.878	0.0162122
661.956	0.0163683
662.034	0.0162289
662.112	0.0162354
662.190	0.0163280
662.268	0.0163602
662.346	0.0160738
662.424	0.0161297
662.503	0.0162109
662.581	0.0162520
662.659	0.0162440
662.737	0.0162787
662.815	0.0162479
662.893	0.0163345
662.971	0.0163005
663.049	0.0164041
663.128	0.0163550
663.206	0.0162759
663.284	0.0162454
663.362	0.0164257
663.440	0.0163375
663.518	0.0162415
663.596	0.0163513
663.674	0.0162165
663.753	0.0162338
663.831	0.0161626
663.909	0.0161319
663.987	0.0162452
664.065	0.0162737
664.143	0.0162878
664.221	0.0162289
664.299	0.0162698
664.378	0.0163330
664.456	0.0162160
664.534	0.0162193
664.612	0.0162945
664.690	0.0163252
664.768	0.0163225
664.846	0.0162262
664.924	0.0162558
665.003	0.0162262
665.081	0.0162517
665.159	0.0162013
665.237	0.0162657
665.315	0.0163400
665.393	0.0163203
665.471	0.0163086
665.549	0.0163879
665.628	0.0162830
665.706	0.0161263
665.784	0.0161289
665.862	0.0162140
665.940	0.0162570
666.018	0.0162424
666.096	0.0162818
666.174	0.0163373
666.253	0.0163459
666.331	0.0162624
666.409	0.0163154
666.487	0.0164104
666.565	0.0162745
666.643	0.0162779
666.721	0.0162326
666.799	0.0162838
666.878	0.0162358
666.956	0.0162824
667.034	0.0163022
667.112	0.0162463
667.190	0.0162214
667.268	0.0164198
667.346	0.0162389
667.424	0.0162876
667.503	0.0162936
667.581	0.0163525
667.659	0.0163778
667.737	0.0161619
667.815	0.0163284
667.893	0.0161813
667.971	0.0162957
668.049	0.0162560
668.128	0.0161953
668.206	0.0162668
668.284	0.0161270
668.362	0.0163599
668.440	0.0163109
668.518	0.0161755
668.596	0.0163358
668.674	0.0163490
668.753	0.0163914
668.831	0.0163247
668.909	0.0162320
668.987	0.0164181
669.065	0.0163641
669.143	0.0162147
669.221	0.0162178
669.299	0.0163379
669.378	0.0162161
669.456	0.0163307
669.534	0.0163010
669.612	0.0162190
669.690	0.0162496
669.768	0.0162984
669.846	0.0162532
669.924	0.0162461
670.003	0.0162714
670.081	0.0162803
670.159	0.0164861
670.237	0.0163384
670.315	0.0163182
670.393	0.0164258
670.471	0.0165022
670.549	0.0164154
670.628	0.0162933
670.706	0.0164749
670.784	0.0164163
670.862	0.0162535
670.940	0.0162584
671.018	0.0162260
671.096	0.0162981
671.174	0.0162856
671.253	0.0162394
671.331	0.0163543
671.409	0.0162984
671.487	0.0162375
671.565	0.0161459
671.643	0.0162925
671.721	0.0162610
671.799	0.0161716
671.878	0.0163110
671.956	0.0162384
672.034	0.0162408
672.112	0.0162807
672.190	0.0163055
672.268	0.0161479
672.346	0.0161932
672.424	0.0162299
672.503	0.0161295
672.581	0.0162450
672.659	0.0162914
672.737	0.0162814
672.815	0.0161456
672.893	0.0162246
672.971	0.0160789
673.049	0.0162033
673.128	0.0161964
673.206	0.0162225
673.284	0.0162484
673.362	0.0160731
673.440	0.0161053
673.518	0.0161527
673.596	0.0161639
673.674	0.0162621
673.753	0.0161264
673.831	0.0162384
673.909	0.0162538
673.987	0.0162913
674.065	0.0162658
674.143	0.0162167
674.221	0.0163675
674.299	0.0162436
674.378	0.0162362
674.456	0.0161865
674.534	0.0161964
674.612	0.0162923
674.690	0.0163141
674.768	0.0162160
674.846	0.0162600
674.924	0.0162502
675.003	0.0163153
675.081	0.0161634
675.159	0.0160961
675.237	0.0162340
675.315	0.0162134
675.393	0.0162172
675.471	0.0162009
675.549	0.0160238
675.628	0.0160046
675.706	0.0160877
675.784	0.0162467
675.862	0.0162690
675.940	0.0162494
676.018	0.0161986
676.096	0.0162019
676.174	0.0160924
676.253	0.0161569
676.331	0.0162611
676.409	0.0161707
676.487	0.0161915
676.565	0.0161581
676.643	0.0161939
676.721	0.0161831
676.799	0.0159537
676.878	0.0160819
676.956	0.0161555
677.034	0.0162771
677.112	0.0161112
677.190	0.0162141
677.268	0.0161674
677.346	0.0162504
677.424	0.0162994
677.503	0.0162567
677.581	0.0162104
677.659	0.0161665
677.737	0.0163221
677.815	0.0163140
677.893	0.0162314
677.971	0.0161845
678.049	0.0162325
678.128	0.0161017
678.206	0.0161550
678.284	0.0161500
678.362	0.0161448
678.440	0.0163291
678.518	0.0162907
678.596	0.0161554
678.674	0.0161192
678.753	0.0162234
678.831	0.0162326
678.909	0.0162882
678.987	0.0162844
679.065	0.0162396
679.143	0.0162214
679.221	0.0162926
679.299	0.0160351
679.378	0.0161941
679.456	0.0163239
679.534	0.0161887
679.612	0.0163593
679.690	0.0161675
679.768	0.0162606
679.846	0.0162682
679.924	0.0163187
680.003	0.0162400
680.081	0.0160859
680.159	0.0160495
680.237	0.0162830
680.315	0.0162555
680.393	0.0161893
680.471	0.0163572
680.549	0.0162568
680.628	0.0161720
680.706	0.0162394
680.784	0.0162800
680.862	0.0162770
680.940	0.0161781
681.018	0.0162070
681.096	0.0162235
681.174	0.0162324
681.253	0.0161246
681.331	0.0162745
681.409	0.0162327
681.487	0.0162493
681.565	0.0162131
681.643	0.0161511
681.721	0.0161056
681.799	0.0161097
681.878	0.0162112
681.956	0.0160899
682.034	0.0161184
682.112	0.0161222
682.190	0.0160121
682.268	0.0161632
682.346	0.0162608
682.424	0.0161520
682.503	0.0162677
682.581	0.0160931
682.659	0.0162061
682.737	0.0160831
682.815	0.0161269
682.893	0.0162019
682.971	0.0161811
683.049	0.0162399
683.128	0.0162198
683.206	0.0162365
683.284	0.0161751
683.362	0.0161536
683.440	0.0161140
683.518	0.0163057
683.596	0.0160693
683.674	0.0159708
683.753	0.0161366
683.831	0.0160782
683.909	0.0160744
683.987	0.0160819
684.065	0.0160564
684.143	0.0161600
684.221	0.0162307
684.299	0.0160828
684.378	0.0161352
684.456	0.0161668
684.534	0.0161816
684.612	0.0161470
684.690	0.0162231
684.768	0.0163362
684.846	0.0162209
684.924	0.0162474
685.003	0.0163799
685.081	0.0160798
685.159	0.0160320
685.237	0.0161811
685.315	0.0162307
685.393	0.0162491
685.471	0.0162070
685.549	0.0161352
685.628	0.0162017
685.706	0.0161405
685.784	0.0162485
685.862	0.0162167
685.940	0.0161726
686.018	0.0162666
686.096	0.0162610
686.174	0.0162012
686.253	0.0161546
686.331	0.0161100
686.409	0.0161526
686.487	0.0161989
686.565	0.0162397
686.643	0.0161667
686.721	0.0161756
686.799	0.0161172
686.878	0.0162240
686.956	0.0162504
687.034	0.0162051
687.112	0.0162579
687.190	0.0162890
687.268	0.0160807
687.346	0.0161267
687.424	0.0161411
687.503	0.0161319
687.581	0.0160043
687.659	0.0160699
687.737	0.0161173
687.815	0.0162736
687.893	0.0161582
687.971	0.0162053
688.049	0.0161953
688.128	0.0162720
688.206	0.0162160
688.284	0.0160748
688.362	0.0163017
688.440	0.0162462
688.518	0.0162535
688.596	0.0161849
688.674	0.0162096
688.753	0.0162002
688.831	0.0160733
688.909	0.0161092
688.987	0.0161633
689.065	0.0161880
689.143	0.0161113
689.221	0.0160897
689.299	0.0161656
689.378	0.0160177
689.456	0.0161466
689.534	0.0162289
689.612	0.0161465
689.690	0.0162431
689.768	0.0161592
689.846	0.0162315
689.924	0.0161890
690.003	0.0161162
690.081	0.0160610
690.159	0.0162524
690.237	0.0160780
690.315	0.0161065
690.393	0.0160928
690.471	0.0160611
690.549	0.0161237
690.628	0.0162796
690.706	0.0160494
690.784	0.0159840
690.862	0.0161798
690.940	0.0160760
691.018	0.0160412
691.096	0.0162896
691.174	0.0161626
691.253	0.0162169
691.331	0.0161396
691.409	0.0162144
691.487	0.0162677
691.565	0.0161432
691.643	0.0162920
691.721	0.0161733
691.799	0.0161391
691.878	0.0161600
691.956	0.0162048
692.034	0.0161449
692.112	0.0162038
692.190	0.0162501
692.268	0.0160786
692.346	0.0161497
692.424	0.0160874
692.503	0.0161153
692.581	0.0161128
692.659	0.0162396
692.737	0.0161360
692.815	0.0162580
692.893	0.0162135
692.971	0.0161062
693.049	0.0162027
693.128	0.0162910
693.206	0.0163225
693.284	0.0163695
693.362	0.0161889
693.440	0.0162697
693.518	0.0162122
693.596	0.0163151
693.674	0.0162815
693.753	0.0161827
693.831	0.0162261
693.909	0.0162257
693.987	0.0162823
694.065	0.0163027
694.143	0.0161864
694.221	0.0162251
694.299	0.0163445
694.378	0.0162491
694.456	0.0161436
694.534	0.0162611
694.612	0.0161729
694.690	0.0162499
694.768	0.0162156
694.846	0.0162310
694.924	0.0161116
695.003	0.0162083
695.081	0.0161906
695.159	0.0162184
695.237	0.0162729
695.315	0.0161832
695.393	0.0162124
695.471	0.0161603
695.549	0.0162735
695.628	0.0162815
695.706	0.0159663
695.784	0.0162058
695.862	0.0162041
695.940	0.0161870
696.018	0.0162586
696.096	0.0159895
696.174	0.0162172
696.253	0.0163237
696.331	0.0161257
696.409	0.0161359
696.487	0.0162719
696.565	0.0163618
696.643	0.0162904
696.721	0.0163068
696.799	0.0162034
696.878	0.0164116
696.956	0.0163792
697.034	0.0162389
697.112	0.0161374
697.190	0.0163474
697.268	0.0162317
697.346	0.0162159
697.424	0.0162067
697.503	0.0161812
697.581	0.0161610
697.659	0.0160833
697.737	0.0161432
697.815	0.0161813
697.893	0.0160261
697.971	0.0161049
698.049	0.0161087
698.128	0.0162030
698.206	0.0161796
698.284	0.0161494
698.362	0.0160134
698.440	0.0162110
698.518	0.0162712
698.596	0.0161491
698.674	0.0159402
698.753	0.0159982
698.831	0.0161886
698.909	0.0161591
698.987	0.0161759
699.065	0.0161843
699.143	0.0161630
699.221	0.0161903
699.299	0.0161105
699.378	0.0162873
699.456	0.0162126
699.534	0.0163676
699.612	0.0162737
699.690	0.0161930
699.768	0.0162483
699.846	0.0161846
699.924	0.0163058
700.003	0.0163573
700.081	0.0162498
700.159	0.0162605
700.237	0.0161698
700.315	0.0163749
700.393	0.0161844
700.471	0.0160154
700.549	0.0161439
700.628	0.0160760
700.706	0.0161992
700.784	0.0161466
700.862	0.0160719
700.940	0.0159790
701.018	0.0161440
701.096	0.0160179
701.174	0.0159593
701.253	0.0160754
701.331	0.0160792
701.409	0.0160320
701.487	0.0160513
701.565	0.0159139
701.643	0.0160155
701.721	0.0160117
701.799	0.0160749
701.878	0.0160215
701.956	0.0159192
702.034	0.0162120
702.112	0.0161291
702.190	0.0160592
702.268	0.0162466
702.346	0.0163623
702.424	0.0161612
702.503	0.0161591
702.581	0.0161728
702.659	0.0160706
702.737	0.0162817
702.815	0.0162204
702.893	0.0163237
702.971	0.0164109
703.049	0.0162771
703.128	0.0162610
703.206	0.0162332
703.284	0.0163058
703.362	0.0163062
703.440	0.0161332
703.518	0.0162466
703.596	0.0162518
703.674	0.0162463
703.753	0.0161604
703.831	0.0161776
703.909	0.0161966
703.987	0.0161674
704.065	0.0160616
704.143	0.0162006
704.221	0.0161784
704.299	0.0161101
704.378	0.0162136
704.456	0.0162247
704.534	0.0161613
704.612	0.0160794
704.690	0.0161897
704.768	0.0161353
704.846	0.0162447
704.924	0.0161032
705.003	0.0161876
705.081	0.0161110
705.159	0.0158675
705.237	0.0161621
705.315	0.0162595
705.393	0.0161183
705.471	0.0162019
705.549	0.0161360
705.628	0.0160653
705.706	0.0162421
705.784	0.0162612
705.862	0.0162728
705.940	0.0162569
706.018	0.0160207
706.096	0.0161165
706.174	0.0161162
706.253	0.0161742
706.331	0.0161547
706.409	0.0162169
706.487	0.0159451
706.565	0.0160990
706.643	0.0160220
706.721	0.0161678
706.799	0.0159955
706.878	0.0158592
706.956	0.0160662
707.034	0.0160242
707.112	0.0160200
707.190	0.0161231
707.268	0.0159989
707.346	0.0160245
707.424	0.0159801
707.503	0.0160320
707.581	0.0161456
707.659	0.0160953
707.737	0.0159985
707.815	0.0159539
707.893	0.0159589
707.971	0.0161399
708.049	0.0161076
708.128	0.0161221
708.206	0.0161448
708.284	0.0161380
708.362	0.0160805
708.440	0.0161397
708.518	0.0162276
708.596	0.0160568
708.674	0.0161632
708.753	0.0160547
708.831	0.0160694
708.909	0.0160473
708.987	0.0160226
709.065	0.0159951
709.143	0.0159599
709.221	0.0160609
709.299	0.0160278
709.378	0.0160275
709.456	0.0159218
709.534	0.0160199
709.612	0.0161472
709.690	0.0162049
709.768	0.0160635
709.846	0.0161678
709.924	0.0161896
710.003	0.0160638
710.081	0.0162086
710.159	0.0162855
710.237	0.0161211
710.315	0.0161817
710.393	0.0162950
710.471	0.0161835
710.549	0.0162579
710.628	0.0163339
710.706	0.0163718
710.784	0.0161234
710.862	0.0161432
710.940	0.0162182
711.018	0.0160344
711.096	0.0161281
711.174	0.0161890
711.253	0.0159255
711.331	0.0160400
711.409	0.0159020
711.487	0.0159881
711.565	0.0159869
711.643	0.0157383
711.721	0.0160695
711.799	0.0159878
711.878	0.0159629
711.956	0.0158925
712.034	0.0158898
712.112	0.0160337
712.190	0.0159957
712.268	0.0159492
712.346	0.0160871
712.424	0.0160831
712.503	0.0161504
712.581	0.0162086
712.659	0.0162758
712.737	0.0164977
712.815	0.0163635
712.893	0.0162650
712.971	0.0163447
713.049	0.0164701
713.128	0.0164058
713.206	0.0160526
713.284	0.0162980
713.362	0.0162685
713.440	0.0161417
713.518	0.0162351
713.596	0.0161977
713.674	0.0160862
713.753	0.0160464
713.831	0.0161588
713.909	0.0158866
713.987	0.0158421
714.065	0.0159426
714.143	0.0160989
714.221	0.0159986
714.299	0.0159852
714.378	0.0159914
714.456	0.0160238
714.534	0.0160697
714.612	0.0161077
714.690	0.0161223
714.768	0.0160481
714.846	0.0161623
714.924	0.0162245
715.003	0.0161256
715.081	0.0160818
715.159	0.0161743
715.237	0.0160943
715.315	0.0162386
715.393	0.0160355
715.471	0.0160058
715.549	0.0159846
715.628	0.0159830
715.706	0.0158914
715.784	0.0160781
715.862	0.0158938
715.940	0.0159901
716.018	0.0158736
716.096	0.0158392
716.174	0.0159564
716.253	0.0160004
716.331	0.0159957
716.409	0.0161261
716.487	0.0160166
716.565	0.0161130
716.643	0.0161497
716.721	0.0163206
716.799	0.0163538
716.878	0.0163464
716.956	0.0165504
717.034	0.0164433
717.112	0.0165846
717.190	0.0166065
717.268	0.0166410
717.346	0.0167239
717.424	0.0166070
717.503	0.0167205
717.581	0.0168034
717.659	0.0166340
717.737	0.0165838
717.815	0.0164680
717.893	0.0164267
717.971	0.0164625
718.049	0.0163187
718.128	0.0161974
718.206	0.0162134
718.284	0.0160637
718.362	0.0159937
718.440	0.0158401
718.518	0.0159477
718.596	0.0158438
718.674	0.0157640
718.753	0.0158640
718.831	0.0159025
718.909	0.0157902
718.987	0.0157867
719.065	0.0158778
719.143	0.0158009
719.221	0.0159876
719.299	0.0160358
719.378	0.0161521
719.456	0.0162250
719.534	0.0162138
719.612	0.0166075
719.690	0.0165049
719.768	0.0165017
719.846	0.0166354
719.924	0.0167629
720.003	0.0166491
720.081	0.0166648
720.159	0.0166579
720.237	0.0167337
720.315	0.0166891
720.393	0.0165954
720.471	0.0166652
720.549	0.0165716
720.628	0.0164652
720.706	0.0163474
720.784	0.0163587
720.862	0.0162757
720.940	0.0161514
721.018	0.0160918
721.096	0.0159232
721.174	0.0158917
721.253	0.0160580
721.331	0.0157938
721.409	0.0158705
721.487	0.0159802
721.565	0.0159479
721.643	0.0159317
721.721	0.0160309
721.799	0.0160507
721.878	0.0160139
721.956	0.0160888
722.034	0.0161562
722.112	0.0161965
722.190	0.0162823
722.268	0.0162595
722.346	0.0163036
722.424	0.0162984
722.503	0.0162988
722.581	0.0162569
722.659	0.0165721
722.737	0.0165229
722.815	0.0164621
722.893	0.0165628
722.971	0.0163490
723.049	0.0163651
723.128	0.0164909
723.206	0.0165430
723.284	0.0164617
723.362	0.0166176
723.440	0.0166383
723.518	0.0164644
723.596	0.0164198
723.674	0.0163703
723.753	0.0163306
723.831	0.0165379
723.909	0.0163956
723.987	0.0162215
724.065	0.0163725
724.143	0.0164836
724.221	0.0164862
724.299	0.0163122
724.378	0.0162836
724.456	0.0162054
724.534	0.0161828
724.612	0.0161822
724.690	0.0163624
724.768	0.0162454
724.846	0.0161224
724.924	0.0162202
725.003	0.0161929
725.081	0.0161115
725.159	0.0160332
725.237	0.0160786
725.315	0.0159975
725.393	0.0159339
725.471	0.0159403
725.549	0.0158729
725.628	0.0157829
725.706	0.0155184
725.784	0.0154986
725.862	0.0155580
725.940	0.0153143
726.018	0.0152372
726.096	0.0151813
726.174	0.0153294
726.253	0.0149722
726.331	0.0151933
726.409	0.0151136
726.487	0.0152184
726.565	0.0152484
726.643	0.0153580
726.721	0.0155170
726.799	0.0157678
726.878	0.0158932
726.956	0.0161639
727.034	0.0163199
727.112	0.0166589
727.190	0.0167589
727.268	0.0168237
727.346	0.0172010
727.424	0.0172977
727.503	0.0175942
727.581	0.0178365
727.659	0.0177955
727.737	0.0178918
727.815	0.0179021
727.893	0.0178806
727.971	0.0177077
728.049	0.0175994
728.128	0.0175745
728.206	0.0173441
728.284	0.0170609
728.362	0.0169862
728.440	0.0167657
728.518	0.0164504
728.596	0.0161050
728.674	0.0159907
728.753	0.0156812
728.831	0.0153342
728.909	0.0152698
728.987	0.0150636
729.065	0.0149316
729.143	0.0146195
729.221	0.0145897
729.299	0.0145638
729.378	0.0145785
729.456	0.0145648
729.534	0.0146014
729.612	0.0146992
729.690	0.0148846
729.768	0.0148689
729.846	0.0149492
729.924	0.0151637
730.003	0.0152564
730.081	0.0154306
730.159	0.0155467
730.237	0.0154875
730.315	0.0156445
730.393	0.0156810
730.471	0.0158109
730.549	0.0160011
730.628	0.0161419
730.706	0.0162029
730.784	0.0163161
730.862	0.0165624
730.940	0.0165979
731.018	0.0167815
731.096	0.0169247
731.174	0.0170019
731.253	0.0171849
731.331	0.0172591
731.409	0.0172913
731.487	0.0173912
731.565	0.0176067
731.643	0.0173756
731.721	0.0174647
731.799	0.0173077
731.878	0.0174908
731.956	0.0173280
732.034	0.0172871
732.112	0.0171628
732.190	0.0170390
732.268	0.0168787
732.346	0.0166935
732.424	0.0167181
732.503	0.0164222
732.581	0.0162648
732.659	0.0161459
732.737	0.0160554
732.815	0.0159805
732.893	0.0158578
732.971	0.0157047
733.049	0.0157304
733.128	0.0157263
733.206	0.0155894
733.284	0.0155714
733.362	0.0155241
733.440	0.0156383
733.518	0.0156281
733.596	0.0156386
733.674	0.0157449
733.753	0.0158254
733.831	0.0157952
733.909	0.0158965
733.987	0.0160009
734.065	0.0161224
734.143	0.0160590
734.221	0.0160789
734.299	0.0160497
734.378	0.0163118
734.456	0.0161931
734.534	0.0160687
734.612	0.0160651
734.690	0.0160435
734.768	0.0161001
734.846	0.0160858
734.924	0.0159705
735.003	0.0159949
735.081	0.0161153
735.159	0.0162507
735.237	0.0163333
735.315	0.0163232
735.393	0.0163149
735.471	0.0164661
735.549	0.0165390
735.628	0.0168014
735.706	0.0167908
735.784	0.0169791
735.862	0.0170033
735.940	0.0170942
736.018	0.0172240
736.096	0.0171717
736.174	0.0171043
736.253	0.0170470
736.331	0.0171092
736.409	0.0170081
736.487	0.0169303
736.565	0.0167712
736.643	0.0166258
736.721	0.0164901
736.799	0.0163611
736.878	0.0160423
736.956	0.0160788
737.034	0.0158986
737.112	0.0158253
737.190	0.0157617
737.268	0.0157500
737.346	0.0156100
737.424	0.0157150
737.503	0.0156631
737.581	0.0157619
737.659	0.0157816
737.737	0.0158034
737.815	0.0160816
737.893	0.0159999
737.971	0.0159531
738.049	0.0162432
738.128	0.0162421
738.206	0.0162304
738.284	0.0162868
738.362	0.0163508
738.440	0.0163913
738.518	0.0162576
738.596	0.0163988
738.674	0.0163120
738.753	0.0163605
738.831	0.0162808
738.909	0.0164263
738.987	0.0164157
739.065	0.0162471
739.143	0.0163406
739.221	0.0162673
739.299	0.0163311
739.378	0.0163293
739.456	0.0163380
739.534	0.0161697
739.612	0.0161595
739.690	0.0162572
739.768	0.0162176
739.846	0.0162138
739.924	0.0161220
740.003	0.0161564
740.081	0.0162516
740.159	0.0160828
740.237	0.0162317
740.315	0.0161383
740.393	0.0160810
740.471	0.0159645
740.549	0.0160997
740.628	0.0161462
740.706	0.0161369
740.784	0.0160439
740.862	0.0161612
740.940	0.0161487
741.018	0.0161100
741.096	0.0161336
741.174	0.0160717
741.253	0.0162302
741.331	0.0163297
741.409	0.0160861
741.487	0.0162252
741.565	0.0164523
741.643	0.0162981
741.721	0.0162497
741.799	0.0163236
741.878	0.0163934
741.956	0.0162191
742.034	0.0164449
742.112	0.0165499
742.190	0.0164488
742.268	0.0164902
742.346	0.0166505
742.424	0.0166427
742.503	0.0167410
742.581	0.0165264
742.659	0.0165598
742.737	0.0167009
742.815	0.0165071
742.893	0.0164181
742.971	0.0164613
743.049	0.0163662
743.128	0.0162926
743.206	0.0162022
743.284	0.0159518
743.362	0.0160513
743.440	0.0159878
743.518	0.0158868
743.596	0.0158459
743.674	0.0158485
743.753	0.0158253
743.831	0.0157465
743.909	0.0157186
743.987	0.0157906
744.065	0.0158004
744.143	0.0159103
744.221	0.0159556
744.299	0.0158694
744.378	0.0159599
744.456	0.0160615
744.534	0.0159950
744.612	0.0161134
744.690	0.0161214
744.768	0.0160186
744.846	0.0159959
744.924	0.0159071
745.003	0.0159404
745.081	0.0160655
745.159	0.0160543
745.237	0.0159467
745.315	0.0161403
745.393	0.0161290
745.471	0.0162083
745.549	0.0165277
745.628	0.0165470
745.706	0.0165580
745.784	0.0167208
745.862	0.0168758
745.940	0.0169781
746.018	0.0170161
746.096	0.0171458
746.174	0.0173707
746.253	0.0173666
746.331	0.0174302
746.409	0.0174895
746.487	0.0173038
746.565	0.0173362
746.643	0.0171988
746.721	0.0170009
746.799	0.0170392
746.878	0.0167617
746.956	0.0165808
747.034	0.0163528
747.112	0.0162182
747.190	0.0159113
747.268	0.0158105
747.346	0.0157248
747.424	0.0155617
747.503	0.0153131
747.581	0.0152166
747.659	0.0150512
747.737	0.0151077
747.815	0.0151048
747.893	0.0149812
747.971	0.0150886
748.049	0.0150084
748.128	0.0150257
748.206	0.0151942
748.284	0.0152212
748.362	0.0153268
748.440	0.0155515
748.518	0.0155464
748.596	0.0157806
748.674	0.0159351
748.753	0.0159939
748.831	0.0161434
748.909	0.0163097
748.987	0.0163808
749.065	0.0165453
749.143	0.0166241
749.221	0.0166258
749.299	0.0167159
749.378	0.0167547
749.456	0.0168362
749.534	0.0166273
749.612	0.0168626
749.690	0.0166777
749.768	0.0165826
749.846	0.0165918
749.924	0.0167064
750.003	0.0165114
750.081	0.0164962
750.159	0.0165345
750.237	0.0164162
750.315	0.0164416
750.393	0.0165015
750.471	0.0162867
750.549	0.0162716
750.628	0.0164086
750.706	0.0164224
750.784	0.0164645
750.862	0.0161967
750.940	0.0163184
751.018	0.0163217
751.096	0.0162317
751.174	0.0164222
751.253	0.0164455
751.331	0.0163494
751.409	0.0164185
751.487	0.0163277
751.565	0.0163593
751.643	0.0162929
751.721	0.0163512
751.799	0.0160887
751.878	0.0162901
751.956	0.0161832
752.034	0.0159874
752.112	0.0160828
752.190	0.0160583
752.268	0.0159926
752.346	0.0158728
752.424	0.0158355
752.503	0.0158542
752.581	0.0158538
752.659	0.0159603
752.737	0.0158044
752.815	0.0155542
752.893	0.0156828
752.971	0.0157722
753.049	0.0156860
753.128	0.0157201
753.206	0.0157483
753.284	0.0158683
753.362	0.0157140
753.440	0.0157655
753.518	0.0157997
753.596	0.0159370
753.674	0.0159518
753.753	0.0160110
753.831	0.0160517
753.909	0.0162168
753.987	0.0161904
754.065	0.0162030
754.143	0.0163406
754.221	0.0162315
754.299	0.0164392
754.378	0.0162727
754.456	0.0163779
754.534	0.0165950
754.612	0.0166783
754.690	0.0165313
754.768	0.0165410
754.846	0.0163586
754.924	0.0165438
755.003	0.0164355
755.081	0.0165916
755.159	0.0165546
755.237	0.0164759
755.315	0.0165553
755.393	0.0165197
755.471	0.0164218
755.549	0.0163403
755.628	0.0161932
755.706	0.0163535
755.784	0.0163908
755.862	0.0162287
755.940	0.0160979
756.018	0.0161713
756.096	0.0160602
756.174	0.0161789
756.253	0.0163605
756.331	0.0162502
756.409	0.0161419
756.487	0.0163001
756.565	0.0165188
756.643	0.0164730
756.721	0.0164848
756.799	0.0167543
756.878	0.0168260
756.956	0.0167239
757.034	0.0167666
757.112	0.0168980
757.190	0.0169288
757.268	0.0169258
757.346	0.0168940
757.424	0.0168124
757.503	0.0165494
757.581	0.0165108
757.659	0.0164754
757.737	0.0163155
757.815	0.0162527
757.893	0.0161028
757.971	0.0159145
758.049	0.0157441
758.128	0.0155785
758.206	0.0154227
758.284	0.0153895
758.362	0.0154426
758.440	0.0152825
758.518	0.0153723
758.596	0.0152858
758.674	0.0152892
758.753	0.0153718
758.831	0.0152156
758.909	0.0155212
758.987	0.0156426
759.065	0.0157597
759.143	0.0157557
759.221	0.0158546
759.299	0.0160853
759.378	0.0160660
759.456	0.0162564
759.534	0.0164080
759.612	0.0164240
759.690	0.0165900
759.768	0.0165256
759.846	0.0165530
759.924	0.0167702
760.003	0.0168509
760.081	0.0167973
760.159	0.0167386
760.237	0.0167363
760.315	0.0167822
760.393	0.0166136
760.471	0.0166878
760.549	0.0167686
760.628	0.0166900
760.706	0.0165942
760.784	0.0165338
760.862	0.0166586
760.940	0.0165736
761.018	0.0165305
761.096	0.0163465
761.174	0.0163023
761.253	0.0163315
761.331	0.0162743
761.409	0.0161393
761.487	0.0162257
761.565	0.0163132
761.643	0.0163349
761.721	0.0161290
761.799	0.0160097
761.878	0.0160896
761.956	0.0161000
762.034	0.0161771
762.112	0.0161581
762.190	0.0159389
762.268	0.0161096
762.346	0.0158996
762.424	0.0160131
762.503	0.0161199
762.581	0.0160437
762.659	0.0162038
762.737	0.0162553
762.815	0.0162700
762.893	0.0161909
762.971	0.0162912
763.049	0.0163893
763.128	0.0164804
763.206	0.0164048
763.284	0.0164987
763.362	0.0167014
763.440	0.0164472
763.518	0.0164509
763.596	0.0165092
763.674	0.0163393
763.753	0.0162469
763.831	0.0162650
763.909	0.0161478
763.987	0.0159504
764.065	0.0160038
764.143	0.0160029
764.221	0.0159317
764.299	0.0159144
764.378	0.0159643
764.456	0.0159299
764.534	0.0158778
764.612	0.0159441
764.690	0.0159230
764.768	0.0159884
764.846	0.0160134
764.924	0.0159924
765.003	0.0161342
765.081	0.0161773
765.159	0.0163172
765.237	0.0164031
765.315	0.0164969
765.393	0.0163564
765.471	0.0164283
765.549	0.0163617
765.628	0.0163773
765.706	0.0163949
765.784	0.0163719
765.862	0.0162784
765.940	0.0162531
766.018	0.0163282
766.096	0.0162459
766.174	0.0163864
766.253	0.0162316
766.331	0.0162859
766.409	0.0163197
766.487	0.0162355
766.565	0.0162808
766.643	0.0163716
766.721	0.0163751
766.799	0.0163998
766.878	0.0162809
766.956	0.0162076
767.034	0.0162516
767.112	0.0162807
767.190	0.0162428
767.268	0.0162887
767.346	0.0161632
767.424	0.0162540
767.503	0.0160873
767.581	0.0161907
767.659	0.0162056
767.737	0.0161501
767.815	0.0160878
767.893	0.0163151
767.971	0.0162173
768.049	0.0162029
768.128	0.0160471
768.206	0.0161845
768.284	0.0162376
768.362	0.0161354
768.440	0.0162590
768.518	0.0162715
768.596	0.0163364
768.674	0.0165408
768.753	0.0164496
768.831	0.0165390
768.909	0.0164811
768.987	0.0164923
769.065	0.0165108
769.143	0.0164931
769.221	0.0164028
769.299	0.0164418
769.378	0.0161631
769.456	0.0162671
769.534	0.0161595
769.612	0.0160067
769.690	0.0159155
769.768	0.0159071
769.846	0.0158324
769.924	0.0157170
770.003	0.0157200
770.081	0.0155290
770.159	0.0155254
770.237	0.0155818
770.315	0.0155152
770.393	0.0154001
770.471	0.0155185
770.549	0.0156892
770.628	0.0156586
770.706	0.0157603
770.784	0.0156990
770.862	0.0157069
770.940	0.0157631
771.018	0.0158596
771.096	0.0158050
771.174	0.0160700
771.253	0.0160947
771.331	0.0159864
771.409	0.0162032
771.487	0.0163373
771.565	0.0161765
771.643	0.0163368
771.721	0.0163542
771.799	0.0163824
771.878	0.0165027
771.956	0.0165010
772.034	0.0166163
772.112	0.0166115
772.190	0.0165725
772.268	0.0165285
772.346	0.0165763
772.424	0.0166811
772.503	0.0166076
772.581	0.0164539
772.659	0.0164759
772.737	0.0164684
772.815	0.0162637
772.893	0.0163203
772.971	0.0164285
773.049	0.0161941
773.128	0.0161992
773.206	0.0163235
773.284	0.0161803
773.362	0.0162244
773.440	0.0161078
773.518	0.0161158
773.596	0.0163108
773.674	0.0161880
773.753	0.0162493
773.831	0.0162106
773.909	0.0160694
773.987	0.0159805
774.065	0.0160136
774.143	0.0159442
774.221	0.0158398
774.299	0.0158821
774.378	0.0157047
774.456	0.0156705
774.534	0.0157990
774.612	0.0156492
774.690	0.0158033
774.768	0.0158092
774.846	0.0158315
774.924	0.0159481
775.003	0.0159490
775.081	0.0159748
775.159	0.0160417
775.237	0.0159702
775.315	0.0159410
775.393	0.0161428
775.471	0.0161247
775.549	0.0161500
775.628	0.0160511
775.706	0.0159857
775.784	0.0160572
775.862	0.0160533
775.940	0.0160170
776.018	0.0159730
776.096	0.0160441
776.174	0.0158963
776.253	0.0159702
776.331	0.0159092
776.409	0.0158540
776.487	0.0158422
776.565	0.0159053
776.643	0.0158814
776.721	0.0158859
776.799	0.0160197
776.878	0.0161951
776.956	0.0160608
777.034	0.0161835
777.112	0.0161983
777.190	0.0162361
777.268	0.0163504
777.346	0.0162814
777.424	0.0163697
777.503	0.0164429
777.581	0.0164809
777.659	0.0165668
777.737	0.0165389
777.815	0.0165250
777.893	0.0166287
777.971	0.0164307
778.049	0.0165305
778.128	0.0164838
778.206	0.0163953
778.284	0.0163074
778.362	0.0162028
778.440	0.0161593
778.518	0.0161642
778.596	0.0161341
778.674	0.0160253
778.753	0.0160118
778.831	0.0158738
778.909	0.0158972
778.987	0.0159365
779.065	0.0159201
779.143	0.0158858
779.221	0.0159355
779.299	0.0160754
779.378	0.0160040
779.456	0.0161124
779.534	0.0160883
779.612	0.0161088
779.690	0.0161418
779.768	0.0162663
779.846	0.0161893
779.924	0.0162855
780.003	0.0163593
780.081	0.0163170
780.159	0.0162366
780.237	0.0162380
780.315	0.0161028
780.393	0.0161853
780.471	0.0162024
780.549	0.0161652
780.628	0.0161591
780.706	0.0161911
780.784	0.0160876
780.862	0.0160804
780.940	0.0163572
781.018	0.0161491
781.096	0.0162527
781.174	0.0162351
781.253	0.0163085
781.331	0.0164298
781.409	0.0162762
781.487	0.0163514
781.565	0.0162554
781.643	0.0162004
781.721	0.0161408
781.799	0.0160475
781.878	0.0161884
781.956	0.0160042
782.034	0.0159612
782.112	0.0159171
782.190	0.0158410
782.268	0.0158495
782.346	0.0158865
782.424	0.0156697
782.503	0.0159513
782.581	0.0157203
782.659	0.0157056
782.737	0.0158134
782.815	0.0159889
782.893	0.0160479
782.971	0.0160069
783.049	0.0160595
783.128	0.0162611
783.206	0.0163538
783.284	0.0163319
783.362	0.0163087
783.440	0.0163235
783.518	0.0163541
783.596	0.0164867
783.674	0.0165105
783.753	0.0164952
783.831	0.0164692
783.909	0.0164178
783.987	0.0166917
784.065	0.0165778
784.143	0.0164304
784.221	0.0165223
784.299	0.0164536
784.378	0.0165349
784.456	0.0164809
784.534	0.0164651
784.612	0.0163496
784.690	0.0162779
784.768	0.0164303
784.846	0.0163847
784.924	0.0164457
785.003	0.0163228
785.081	0.0162540
785.159	0.0164480
785.237	0.0163678
785.315	0.0163050
785.393	0.0164407
785.471	0.0163373
785.549	0.0162313
785.628	0.0162043
785.706	0.0162394
785.784	0.0162627
785.862	0.0162039
785.940	0.0163257
786.018	0.0161558
786.096	0.0159840
786.174	0.0161105
786.253	0.0160024
786.331	0.0158530
786.409	0.0157848
786.487	0.0159027
786.565	0.0158472
786.643	0.0158083
786.721	0.0158292
786.799	0.0158316
786.878	0.0155798
786.956	0.0157615
787.034	0.0158447
787.112	0.0157858
787.190	0.0159643
787.268	0.0160223
787.346	0.0159830
787.424	0.0160480
787.503	0.0162119
787.581	0.0162084
787.659	0.0164187
787.737	0.0163577
787.815	0.0163397
787.893	0.0163588
787.971	0.0164388
788.049	0.0163654
788.128	0.0164118
788.206	0.0163843
788.284	0.0165110
788.362	0.0161357
788.440	0.0162609
788.518	0.0163403
788.596	0.0161293
788.674	0.0162447
788.753	0.0161202
788.831	0.0161001
788.909	0.0162080
788.987	0.0161996
789.065	0.0160794
789.143	0.0161410
789.221	0.0162311
789.299	0.0161690
789.378	0.0161223
789.456	0.0161922
789.534	0.0162315
789.612	0.0162939
789.690	0.0162460
789.768	0.0161640
789.846	0.0161126
789.924	0.0161771
790.003	0.0160075
790.081	0.0160741
790.159	0.0161378
790.237	0.0158952
790.315	0.0158804
790.393	0.0160807
790.471	0.0159856
790.549	0.0160358
790.628	0.0160780
790.706	0.0161353
790.784	0.0160990
790.862	0.0161037
790.940	0.0161761
791.018	0.0161207
791.096	0.0162950
791.174	0.0162971
791.253	0.0164122
791.331	0.0164287
791.409	0.0164450
791.487	0.0164572
791.565	0.0164135
791.643	0.0164558
791.721	0.0163914
791.799	0.0163620
791.878	0.0164149
791.956	0.0162585
792.034	0.0163258
792.112	0.0162467
792.190	0.0162086
792.268	0.0160697
792.346	0.0159283
792.424	0.0159849
792.503	0.0159438
792.581	0.0160477
792.659	0.0159259
792.737	0.0158303
792.815	0.0157237
792.893	0.0158274
792.971	0.0158614
793.049	0.0158302
793.128	0.0159477
793.206	0.0159903
793.284	0.0159162
793.362	0.0159853
793.440	0.0160110
793.518	0.0160113
793.596	0.0161817
793.674	0.0162196
793.753	0.0162823
793.831	0.0161734
793.909	0.0162054
793.987	0.0162559
794.065	0.0162532
794.143	0.0162746
794.221	0.0162302
794.299	0.0162711
794.378	0.0162132
794.456	0.0162868
794.534	0.0161748
794.612	0.0161129
794.690	0.0161224
794.768	0.0161073
794.846	0.0160569
794.924	0.0159290
795.003	0.0160221
795.081	0.0159730
795.159	0.0157933
795.237	0.0160066
795.315	0.0160596
795.393	0.0160284
795.471	0.0159325
795.549	0.0160304
795.628	0.0161068
795.706	0.0161482
795.784	0.0161092
795.862	0.0162438
795.940	0.0163159
796.018	0.0162946
796.096	0.0163363
796.174	0.0163517
796.253	0.0164346
796.331	0.0163314
796.409	0.0163799
796.487	0.0165433
796.565	0.0164855
796.643	0.0163976
796.721	0.0165710
796.799	0.0163474
796.878	0.0163387
796.956	0.0164854
797.034	0.0163209
797.112	0.0163356
797.190	0.0163421
797.268	0.0165133
797.346	0.0165011
797.424	0.0163073
797.503	0.0162065
797.581	0.0163461
797.659	0.0162133
797.737	0.0161946
797.815	0.0163680
797.893	0.0161622
797.971	0.0162157
798.049	0.0161623
798.128	0.0162301
798.206	0.0162364
798.284	0.0160373
798.362	0.0160685
798.440	0.0159754
798.518	0.0160082
798.596	0.0158981
798.674	0.0159602
798.753	0.0158624
798.831	0.0158103
798.909	0.0158137
798.987	0.0158681
799.065	0.0159141
799.143	0.0159535
799.221	0.0157148
799.299	0.0159267
799.378	0.0160750
799.456	0.0159681
799.534	0.0161083
799.612	0.0160700
799.690	0.0161287
799.768	0.0163290
799.846	0.0164240
799.924	0.0163172
800.003	0.0163418
800.081	0.0163799
800.159	0.0163004
800.237	0.0163419
800.315	0.0164652
800.393	0.0162971
800.471	0.0163731
800.549	0.0162643
800.628	0.0163006
800.706	0.0161926
800.784	0.0161379
800.862	0.0162115
800.940	0.0161723
801.018	0.0159597
801.096	0.0160187
801.174	0.0160340
801.253	0.0159924
801.331	0.0159430
801.409	0.0159984
801.487	0.0158796
801.565	0.0160209
801.643	0.0160238
801.721	0.0160242
801.799	0.0159892
801.878	0.0161003
801.956	0.0160886
802.034	0.0162137
802.112	0.0160922
802.190	0.0161108
802.268	0.0161906
802.346	0.0162417
802.424	0.0162114
802.503	0.0161874
802.581	0.0161508
802.659	0.0162254
802.737	0.0162778
802.815	0.0161639
802.893	0.0161067
802.971	0.0161572
803.049	0.0162560
803.128	0.0163313
803.206	0.0162753
803.284	0.0162244
803.362	0.0162871
803.440	0.0163154
803.518	0.0164044
803.596	0.0163542
803.674	0.0164457
803.753	0.0164673
803.831	0.0164108
803.909	0.0164388
803.987	0.0164127
804.065	0.0165419
804.143	0.0163010
804.221	0.0162672
804.299	0.0164516
804.378	0.0162276
804.456	0.0161846
804.534	0.0161745
804.612	0.0163213
804.690	0.0162888
804.768	0.0160790
804.846	0.0159955
804.924	0.0160618
805.003	0.0161544
805.081	0.0161053
805.159	0.0158325
805.237	0.0158836
805.315	0.0159121
805.393	0.0160540
805.471	0.0159393
805.549	0.0158593
805.628	0.0158736
805.706	0.0158698
805.784	0.0160016
805.862	0.0160692
805.940	0.0160455
806.018	0.0161162
806.096	0.0160512
806.174	0.0159344
806.253	0.0160276
806.331	0.0162374
806.409	0.0162720
806.487	0.0162907
806.565	0.0162586
806.643	0.0161993
806.721	0.0161867
806.799	0.0162468
806.878	0.0163625
806.956	0.0163319
807.034	0.0162915
807.112	0.0163145
807.190	0.0163154
807.268	0.0161345
807.346	0.0161944
807.424	0.0163245
807.503	0.0162302
807.581	0.0161633
807.659	0.0162598
807.737	0.0162278
807.815	0.0161732
807.893	0.0161607
807.971	0.0163339
808.049	0.0161420
808.128	0.0161958
808.206	0.0160854
808.284	0.0159655
808.362	0.0160217
808.440	0.0160876
808.518	0.0161385
808.596	0.0162160
808.674	0.0161519
808.753	0.0162417
808.831	0.0161700
808.909	0.0160400
808.987	0.0162498
809.065	0.0162244
809.143	0.0162090
809.221	0.0162330
809.299	0.0162325
809.378	0.0162986
809.456	0.0163238
809.534	0.0163049
809.612	0.0162481
809.690	0.0162811
809.768	0.0163821
809.846	0.0163523
809.924	0.0164382
810.003	0.0163199
810.081	0.0164704
810.159	0.0163899
810.237	0.0163950
810.315	0.0164249
810.393	0.0164501
810.471	0.0163262
810.549	0.0163200
810.628	0.0164489
810.706	0.0163163
810.784	0.0163375
810.862	0.0164540
810.940	0.0162561
811.018	0.0161829
811.096	0.0161525
811.174	0.0162041
811.253	0.0163828
811.331	0.0162481
811.409	0.0161445
811.487	0.0162124
811.565	0.0162747
811.643	0.0161072
811.721	0.0162599
811.799	0.0162753
811.878	0.0161852
811.956	0.0161288
812.034	0.0161024
812.112	0.0161471
812.190	0.0161033
812.268	0.0162130
812.346	0.0161292
812.424	0.0163173
812.503	0.0163274
812.581	0.0163702
812.659	0.0163528
812.737	0.0162464
812.815	0.0163321
812.893	0.0162186
812.971	0.0162333
813.049	0.0163675
813.128	0.0164203
813.206	0.0163889
813.284	0.0164889
813.362	0.0163403
813.440	0.0162397
813.518	0.0164127
813.596	0.0163802
813.674	0.0163568
813.753	0.0161824
813.831	0.0161018
813.909	0.0162158
813.987	0.0162838
814.065	0.0161871
814.143	0.0161956
814.221	0.0161022
814.299	0.0162003
814.378	0.0161127
814.456	0.0159719
814.534	0.0159731
814.612	0.0161935
814.690	0.0160709
814.768	0.0161086
814.846	0.0161720
814.924	0.0159898
815.003	0.0162558
815.081	0.0162727
815.159	0.0162762
815.237	0.0161416
815.315	0.0160758
815.393	0.0161765
815.471	0.0162547
815.549	0.0163192
815.628	0.0160934
815.706	0.0161234
815.784	0.0162532
815.862	0.0162707
815.940	0.0163277
816.018	0.0163253
816.096	0.0163235
816.174	0.0163220
816.253	0.0162415
816.331	0.0163168
816.409	0.0163466
816.487	0.0161878
816.565	0.0162444
816.643	0.0162894
816.721	0.0164281
816.799	0.0163081
816.878	0.0162598
816.956	0.0162007
817.034	0.0164581
817.112	0.0163283
817.190	0.0162547
817.268	0.0161589
817.346	0.0161024
817.424	0.0161005
817.503	0.0162907
817.581	0.0161647
817.659	0.0160489
817.737	0.0161431
817.815	0.0160805
817.893	0.0160666
817.971	0.0162264
818.049	0.0160842
818.128	0.0160676
818.206	0.0160853
818.284	0.0160368
818.362	0.0159840
818.440	0.0160268
818.518	0.0160500
818.596	0.0160692
818.674	0.0161182
818.753	0.0161878
818.831	0.0161499
818.909	0.0161813
818.987	0.0161570
819.065	0.0161348
819.143	0.0161778
819.221	0.0163770
819.299	0.0163049
819.378	0.0161922
819.456	0.0163257
819.534	0.0162353
819.612	0.0163549
819.690	0.0164191
819.768	0.0163639
819.846	0.0162153
819.924	0.0163369
820.003	0.0163199
820.081	0.0163048
820.159	0.0164465
820.237	0.0163780
820.315	0.0163142
820.393	0.0163227
820.471	0.0163995
820.549	0.0162840
820.628	0.0164056
820.706	0.0163197
820.784	0.0162912
820.862	0.0163467
820.940	0.0163394
821.018	0.0161593
821.096	0.0161667
821.174	0.0161424
821.253	0.0162424
821.331	0.0162205
821.409	0.0161030
821.487	0.0162339
821.565	0.0161568
821.643	0.0160940
821.721	0.0161565
821.799	0.0161849
821.878	0.0159012
821.956	0.0161336
822.034	0.0161681
822.112	0.0160681
822.190	0.0159247
822.268	0.0160418
822.346	0.0160619
822.424	0.0160158
822.503	0.0158990
822.581	0.0159589
822.659	0.0161745
822.737	0.0162453
822.815	0.0161977
822.893	0.0162796
822.971	0.0160027
823.049	0.0162775
823.128	0.0162160
823.206	0.0163902
823.284	0.0163384
823.362	0.0163773
823.440	0.0163078
823.518	0.0163910
823.596	0.0164323
823.674	0.0163565
823.753	0.0164099
823.831	0.0164735
823.909	0.0162231
823.987	0.0164687
824.065	0.0164380
824.143	0.0163515
824.221	0.0166059
824.299	0.0165060
824.378	0.0163918
824.456	0.0164229
824.534	0.0163620
824.612	0.0165627
824.690	0.0163943
824.768	0.0163148
824.846	0.0161864
824.924	0.0162310
825.003	0.0161443
825.081	0.0162119
825.159	0.0161533
825.237	0.0159800
825.315	0.0160908
825.393	0.0160585
825.471	0.0159137
825.549	0.0158882
825.628	0.0159495
825.706	0.0159509
825.784	0.0158913
825.862	0.0158799
825.940	0.0158939
826.018	0.0160548
826.096	0.0160113
826.174	0.0159253
826.253	0.0158959
826.331	0.0158604
826.409	0.0160438
826.487	0.0159385
826.565	0.0160913
826.643	0.0159965
826.721	0.0158366
826.799	0.0160366
826.878	0.0160129
826.956	0.0159900
827.034	0.0161598
827.112	0.0161578
827.190	0.0160545
827.268	0.0160685
827.346	0.0160223
827.424	0.0161244
827.503	0.0161395
827.581	0.0163331
827.659	0.0163358
827.737	0.0162955
827.815	0.0161954
827.893	0.0162410
827.971	0.0162148
828.049	0.0163325
828.128	0.0163465
828.206	0.0164536
828.284	0.0162650
828.362	0.0162811
828.440	0.0163300
828.518	0.0162939
828.596	0.0163105
828.674	0.0163585
828.753	0.0163379
828.831	0.0163282
828.909	0.0163181
828.987	0.0162112
829.065	0.0161919
829.143	0.0163267
829.221	0.0161965
829.299	0.0161852
829.378	0.0160664
829.456	0.0161446
829.534	0.0160990
829.612	0.0161376
829.690	0.0163094
829.768	0.0162948
829.846	0.0160374
829.924	0.0162101
830.003	0.0161861
830.081	0.0160562
830.159	0.0161539
830.237	0.0160210
830.315	0.0159891
830.393	0.0162540
830.471	0.0161877
830.549	0.0161783
830.628	0.0160543
830.706	0.0161108
830.784	0.0161444
830.862	0.0161102
830.940	0.0161295
831.018	0.0162077
831.096	0.0161309
831.174	0.0161905
831.253	0.0161549
831.331	0.0160771
831.409	0.0162041
831.487	0.0162325
831.565	0.0162417
831.643	0.0161806
831.721	0.0164174
831.799	0.0162664
831.878	0.0162131
831.956	0.0162374
832.034	0.0163233
832.112	0.0161415
832.190	0.0163995
832.268	0.0165198
832.346	0.0163313
832.424	0.0163771
832.503	0.0164481
832.581	0.0165239
832.659	0.0164461
832.737	0.0164843
832.815	0.0164062
832.893	0.0164677
832.971	0.0164384
833.049	0.0165446
833.128	0.0164947
833.206	0.0164955
833.284	0.0163659
833.362	0.0164387
833.440	0.0163704
833.518	0.0163059
833.596	0.0165034
833.674	0.0165025
833.753	0.0164197
833.831	0.0163519
833.909	0.0163651
833.987	0.0163976
834.065	0.0163096
834.143	0.0163098
834.221	0.0162854
834.299	0.0162680
834.378	0.0163345
834.456	0.0162426
834.534	0.0162651
834.612	0.0162112
834.690	0.0161440
834.768	0.0162431
834.846	0.0162879
834.924	0.0161598
835.003	0.0163033
835.081	0.0162477
835.159	0.0163083
835.237	0.0163057
835.315	0.0163143
835.393	0.0162132
835.471	0.0163404
835.549	0.0162514
835.628	0.0163323
835.706	0.0164089
835.784	0.0164038
835.862	0.0164098
835.940	0.0163206
836.018	0.0164606
836.096	0.0164304
836.174	0.0163232
836.253	0.0162601
836.331	0.0164134
836.409	0.0162397
836.487	0.0164017
836.565	0.0164394
836.643	0.0164655
836.721	0.0163844
836.799	0.0164745
836.878	0.0162869
836.956	0.0163403
837.034	0.0163444
837.112	0.0163535
837.190	0.0163583
837.268	0.0163619
837.346	0.0162943
837.424	0.0162503
837.503	0.0162862
837.581	0.0162821
837.659	0.0162437
837.737	0.0161425
837.815	0.0161748
837.893	0.0162073
837.971	0.0161620
838.049	0.0162272
838.128	0.0160740
838.206	0.0161287
838.284	0.0162026
838.362	0.0162568
838.440	0.0164481
838.518	0.0162759
838.596	0.0161801
838.674	0.0161731
838.753	0.0162374
838.831	0.0162749
838.909	0.0162255
838.987	0.0163732
839.065	0.0163394
839.143	0.0164043
839.221	0.0163230
839.299	0.0164079
839.378	0.0163514
839.456	0.0162102
839.534	0.0163624
839.612	0.0164049
839.690	0.0161361
839.768	0.0162444
839.846	0.0162510
839.924	0.0163293
840.003	0.0163250
840.081	0.0162826
840.159	0.0161520
840.237	0.0161478
840.315	0.0162827
840.393	0.0161964
840.471	0.0161068
840.549	0.0160543
840.628	0.0161394
840.706	0.0160562
840.784	0.0160147
840.862	0.0160245
840.940	0.0160519
841.018	0.0160250
841.096	0.0160223
841.174	0.0160139
841.253	0.0159769
841.331	0.0160242
841.409	0.0161076
841.487	0.0160062
841.565	0.0160310
841.643	0.0160981
841.721	0.0160530
841.799	0.0161632
841.878	0.0161149
841.956	0.0159940
842.034	0.0161147
842.112	0.0161434
842.190	0.0160734
842.268	0.0161605
842.346	0.0161215
842.424	0.0162790
842.503	0.0161933
842.581	0.0163689
842.659	0.0162969
842.737	0.0162940
842.815	0.0162904
842.893	0.0163323
842.971	0.0164040
843.049	0.0164091
843.128	0.0164453
843.206	0.0164500
843.284	0.0163676
843.362	0.0163145
843.440	0.0164047
843.518	0.0163017
843.596	0.0162898
843.674	0.0163493
843.753	0.0162308
843.831	0.0162313
843.909	0.0161749
843.987	0.0160750
844.065	0.0161115
844.143	0.0161128
844.221	0.0159827
844.299	0.0160812
844.378	0.0159753
844.456	0.0160597
844.534	0.0159632
844.612	0.0159342
844.690	0.0159608
844.768	0.0161037
844.846	0.0160679
844.924	0.0158538
845.003	0.0159254
845.081	0.0159946
845.159	0.0160388
845.237	0.0160245
845.315	0.0160338
845.393	0.0160078
845.471	0.0160626
845.549	0.0160017
845.628	0.0161047
845.706	0.0161852
845.784	0.0160989
845.862	0.0161057
845.940	0.0161982
846.018	0.0162411
846.096	0.0163401
846.174	0.0163332
846.253	0.0162465
846.331	0.0164383
846.409	0.0163120
846.487	0.0162878
846.565	0.0161519
846.643	0.0163490
846.721	0.0162354
846.799	0.0164465
846.878	0.0162202
846.956	0.0164116
847.034	0.0164027
847.112	0.0163403
847.190	0.0162656
847.268	0.0163277
847.346	0.0164124
847.424	0.0163863
847.503	0.0163310
847.581	0.0161958
847.659	0.0164033
847.737	0.0161841
847.815	0.0161903
847.893	0.0162103
847.971	0.0160252
848.049	0.0161230
848.128	0.0161442
848.206	0.0163041
848.284	0.0161667
848.362	0.0161948
848.440	0.0162408
848.518	0.0162806
848.596	0.0161374
848.674	0.0160365
848.753	0.0161937
848.831	0.0161512
848.909	0.0160725
848.987	0.0160998
849.065	0.0160020
849.143	0.0161613
849.221	0.0161330
849.299	0.0161063
849.378	0.0159727
849.456	0.0162318
849.534	0.0161172
849.612	0.0159945
849.690	0.0161436
849.768	0.0162189
849.846	0.0161972
849.924	0.0162474
850.003	0.0161510
850.081	0.0161101
850.159	0.0161132
850.237	0.0161935
850.315	0.0162782
850.393	0.0162701
850.471	0.0163621
850.549	0.0163551
850.628	0.0163323
850.706	0.0163581
850.784	0.0163000
850.862	0.0163258
850.940	0.0162596
851.018	0.0161887
851.096	0.0161631
851.174	0.0161954
851.253	0.0162643
851.331	0.0161993
851.409	0.0162988
851.487	0.0161110
851.565	0.0162836
851.643	0.0162970
851.721	0.0160383
851.799	0.0161240
851.878	0.0161694
851.956	0.0162067
852.034	0.0162672
852.112	0.0162206
852.190	0.0161258
852.268	0.0161745
852.346	0.0162145
852.424	0.0163468
852.503	0.0164046
852.581	0.0162921
852.659	0.0163634
852.737	0.0162775
852.815	0.0162321
852.893	0.0163369
852.971	0.0163988
853.049	0.0164314
853.128	0.0163348
853.206	0.0162481
853.284	0.0163268
853.362	0.0164636
853.440	0.0164250
853.518	0.0164664
853.596	0.0162927
853.674	0.0163085
853.753	0.0165008
853.831	0.0163426
853.909	0.0162184
853.987	0.0162048
854.065	0.0164205
854.143	0.0162216
854.221	0.0162216
854.299	0.0161982
854.378	0.0161245
854.456	0.0161538
854.534	0.0161818
854.612	0.0160844
854.690	0.0161601
854.768	0.0161268
854.846	0.0162355
854.924	0.0160465
855.003	0.0161540
855.081	0.0162663
855.159	0.0161344
855.237	0.0159992
855.315	0.0161523
855.393	0.0162196
855.471	0.0160883
855.549	0.0160686
855.628	0.0161575
855.706	0.0161502
855.784	0.0161002
855.862	0.0162147
855.940	0.0161815
856.018	0.0163034
856.096	0.0162255
856.174	0.0162849
856.253	0.0162618
856.331	0.0161813
856.409	0.0161765
856.487	0.0164042
856.565	0.0163987
856.643	0.0164079
856.721	0.0161488
856.799	0.0163282
856.878	0.0162469
856.956	0.0162714
857.034	0.0163048
857.112	0.0162103
857.190	0.0163503
857.268	0.0162522
857.346	0.0163454
857.424	0.0163686
857.503	0.0162602
857.581	0.0162598
857.659	0.0162590
857.737	0.0162227
857.815	0.0161433
857.893	0.0161691
857.971	0.0162790
858.049	0.0159846
858.128	0.0161123
858.206	0.0161365
858.284	0.0161741
858.362	0.0163126
858.440	0.0160284
858.518	0.0160810
858.596	0.0160782
858.674	0.0162022
858.753	0.0161936
858.831	0.0160319
858.909	0.0160965
858.987	0.0161783
859.065	0.0161317
859.143	0.0162828
859.221	0.0162987
859.299	0.0163377
859.378	0.0162072
859.456	0.0163404
859.534	0.0162743
859.612	0.0162932
859.690	0.0163557
859.768	0.0163438
859.846	0.0163393
859.924	0.0162464
860.003	0.0162821
860.081	0.0163401
860.159	0.0163336
860.237	0.0162514
860.315	0.0162076
860.393	0.0162315
860.471	0.0162037
860.549	0.0161445
860.628	0.0160945
860.706	0.0161417
860.784	0.0162254
860.862	0.0161214
860.940	0.0161864
861.018	0.0161275
861.096	0.0161362
861.174	0.0161932
861.253	0.0161046
861.331	0.0160069
861.409	0.0161059
861.487	0.0160233
861.565	0.0160258
861.643	0.0161793
861.721	0.0159962
861.799	0.0159931
861.878	0.0161352
861.956	0.0160931
862.034	0.0161910
862.112	0.0161034
862.190	0.0160986
862.268	0.0161414
862.346	0.0160982
862.424	0.0160116
862.503	0.0161713
862.581	0.0161249
862.659	0.0161877
862.737	0.0161157
862.815	0.0160430
862.893	0.0162000
862.971	0.0160708
863.049	0.0161916
863.128	0.0161433
863.206	0.0162300
863.284	0.0162619
863.362	0.0162394
863.440	0.0162597
863.518	0.0162212
863.596	0.0162723
863.674	0.0163785
863.753	0.0163500
863.831	0.0163573
863.909	0.0162926
863.987	0.0163623
864.065	0.0163411
864.143	0.0163161
864.221	0.0162957
864.299	0.0162502
864.378	0.0162897
864.456	0.0162872
864.534	0.0163374
864.612	0.0162888
864.690	0.0162543
864.768	0.0160845
864.846	0.0161470
864.924	0.0161683
865.003	0.0161746
865.081	0.0160934
865.159	0.0161082
865.237	0.0161334
865.315	0.0161922
865.393	0.0161874
865.471	0.0160255
865.549	0.0160748
865.628	0.0161198
865.706	0.0160906
865.784	0.0161780
865.862	0.0162193
865.940	0.0161372
866.018	0.0160876
866.096	0.0162117
866.174	0.0161118
866.253	0.0162173
866.331	0.0163143
866.409	0.0162106
866.487	0.0161669
866.565	0.0161681
866.643	0.0160742
866.721	0.0161189
866.799	0.0163023
866.878	0.0160915
866.956	0.0159959
867.034	0.0161610
867.112	0.0162386
867.190	0.0162091
867.268	0.0161101
867.346	0.0161328
867.424	0.0160780
867.503	0.0161108
867.581	0.0161330
867.659	0.0161868
867.737	0.0160988
867.815	0.0161777
867.893	0.0161219
867.971	0.0163535
868.049	0.0162785
868.128	0.0161636
868.206	0.0161757
868.284	0.0162023
868.362	0.0162979
868.440	0.0161986
868.518	0.0162200
868.596	0.0162090
868.674	0.0163944
868.753	0.0162916
868.831	0.0162341
868.909	0.0163750
868.987	0.0161802
869.065	0.0162189
869.143	0.0162471
869.221	0.0164083
869.299	0.0163878
869.378	0.0163805
869.456	0.0161831
869.534	0.0162605
869.612	0.0162109
869.690	0.0163510
869.768	0.0163592
869.846	0.0161896
869.924	0.0162670
870.003	0.0164171
870.081	0.0163223
870.159	0.0162981
870.237	0.0161465
870.315	0.0162635
870.393	0.0161569
870.471	0.0160941
870.549	0.0161393
870.628	0.0162588
870.706	0.0161395
870.784	0.0162267
870.862	0.0161884
870.940	0.0161259
871.018	0.0161600
871.096	0.0160472
871.174	0.0162293
871.253	0.0160625
871.331	0.0160332
871.409	0.0162538
871.487	0.0161342
871.565	0.0159407
871.643	0.0160697
871.721	0.0160420
871.799	0.0161729
871.878	0.0161115
871.956	0.0160226
872.034	0.0159679
872.112	0.0160839
872.190	0.0161524
872.268	0.0161787
872.346	0.0161373
872.424	0.0161116
872.503	0.0161555
872.581	0.0161083
872.659	0.0162292
872.737	0.0161942
872.815	0.0161730
872.893	0.0161553
872.971	0.0161722
873.049	0.0163119
873.128	0.0162787
873.206	0.0163426
873.284	0.0161959
873.362	0.0163574
873.440	0.0164066
873.518	0.0163745
873.596	0.0164374
873.674	0.0163092
873.753	0.0162933
873.831	0.0163637
873.909	0.0164584
873.987	0.0163566
874.065	0.0162283
874.143	0.0164668
874.221	0.0163763
874.299	0.0163247
874.378	0.0163479
874.456	0.0163531
874.534	0.0163700
874.612	0.0164530
874.690	0.0163306
874.768	0.0163120
874.846	0.0161925
874.924	0.0162305
875.003	0.0163431
875.081	0.0162089
875.159	0.0163711
875.237	0.0163528
875.315	0.0162366
875.393	0.0162823
875.471	0.0163937
875.549	0.0162704
875.628	0.0161250
875.706	0.0161929
875.784	0.0162461
875.862	0.0160538
875.940	0.0162910
876.018	0.0163311
876.096	0.0162234
876.174	0.0160883
876.253	0.0159667
876.331	0.0161836
876.409	0.0161933
876.487	0.0162414
876.565	0.0161801
876.643	0.0162902
876.721	0.0161838
876.799	0.0161541
876.878	0.0162138
876.956	0.0162270
877.034	0.0161941
877.112	0.0162247
877.190	0.0161926
877.268	0.0162600
877.346	0.0162538
877.424	0.0163705
877.503	0.0164626
877.581	0.0162564
877.659	0.0163155
877.737	0.0165304
877.815	0.0164001
877.893	0.0164509
877.971	0.0164118
878.049	0.0162910
878.128	0.0163602
878.206	0.0165278
878.284	0.0164079
878.362	0.0162598
878.440	0.0162966
878.518	0.0163451
878.596	0.0162895
878.674	0.0163763
878.753	0.0163223
878.831	0.0162929
878.909	0.0162630
878.987	0.0163480
879.065	0.0163821
879.143	0.0163571
879.221	0.0162112
879.299	0.0163412
879.378	0.0162234
879.456	0.0162701
879.534	0.0163784
879.612	0.0161945
879.690	0.0161906
879.768	0.0162268
879.846	0.0161721
879.924	0.0161250
880.003	0.0162542
880.081	0.0162435
880.159	0.0161365
880.237	0.0162192
880.315	0.0161834
880.393	0.0162176
880.471	0.0161929
880.549	0.0161414
880.628	0.0162111
880.706	0.0161919
880.784	0.0163026
880.862	0.0160950
880.940	0.0160376
881.018	0.0161476
881.096	0.0162935
881.174	0.0162583
881.253	0.0160418
881.331	0.0161810
881.409	0.0163327
881.487	0.0162009
881.565	0.0161837
881.643	0.0161218
881.721	0.0161774
881.799	0.0162285
881.878	0.0163515
881.956	0.0162812
882.034	0.0162629
882.112	0.0161466
882.190	0.0162914
882.268	0.0162303
882.346	0.0163175
882.424	0.0163845
882.503	0.0162793
882.581	0.0162782
882.659	0.0161938
882.737	0.0163646
882.815	0.0162498
882.893	0.0162212
882.971	0.0162092
883.049	0.0163396
883.128	0.0162148
883.206	0.0162017
883.284	0.0161970
883.362	0.0161368
883.440	0.0163113
883.518	0.0162992
883.596	0.0164362
883.674	0.0162277
883.753	0.0161868
883.831	0.0161906
883.909	0.0163634
883.987	0.0162135
884.065	0.0162284
884.143	0.0163203
884.221	0.0163603
884.299	0.0163571
884.378	0.0164149
884.456	0.0162988
884.534	0.0162547
884.612	0.0163046
884.690	0.0161859
884.768	0.0162464
884.846	0.0162341
884.924	0.0162020
885.003	0.0162360
885.081	0.0161139
885.159	0.0162350
885.237	0.0162260
885.315	0.0161375
885.393	0.0161936
885.471	0.0161185
885.549	0.0160558
885.628	0.0160993
885.706	0.0161311
885.784	0.0161556
885.862	0.0161127
885.940	0.0161543
886.018	0.0161318
886.096	0.0161433
886.174	0.0161108
886.253	0.0160356
886.331	0.0160472
886.409	0.0160555
886.487	0.0160423
886.565	0.0160526
886.643	0.0159770
886.721	0.0160862
886.799	0.0161573
886.878	0.0161401
886.956	0.0161547
887.034	0.0159492
887.112	0.0161047
887.190	0.0162256
887.268	0.0162202
887.346	0.0161401
887.424	0.0161528
887.503	0.0160413
887.581	0.0161878
887.659	0.0160308
887.737	0.0160522
887.815	0.0162200
887.893	0.0160053
887.971	0.0162428
888.049	0.0162836
888.128	0.0160400
888.206	0.0161312
888.284	0.0160851
888.362	0.0161243
888.440	0.0162524
888.518	0.0160468
888.596	0.0161459
888.674	0.0161038
888.753	0.0162590
888.831	0.0161454
888.909	0.0161835
888.987	0.0161533
889.065	0.0162366
889.143	0.0162579
889.221	0.0161347
889.299	0.0161266
889.378	0.0161417
889.456	0.0159864
889.534	0.0160223
889.612	0.0161518
889.690	0.0161017
889.768	0.0160673
889.846	0.0161073
889.924	0.0162363
890.003	0.0160891
890.081	0.0160960
890.159	0.0161010
890.237	0.0161135
890.315	0.0160356
890.393	0.0162002
890.471	0.0160297
890.549	0.0161066
890.628	0.0161057
890.706	0.0160552
890.784	0.0162917
890.862	0.0160957
890.940	0.0160049
891.018	0.0161315
891.096	0.0161693
891.174	0.0160981
891.253	0.0161098
891.331	0.0161348
891.409	0.0161658
891.487	0.0161593
891.565	0.0160692
891.643	0.0159382
891.721	0.0160266
891.799	0.0159692
891.878	0.0159174
891.956	0.0160620
892.034	0.0160076
892.112	0.0159547
892.190	0.0160812
892.268	0.0159825
892.346	0.0158790
892.424	0.0159650
892.503	0.0159135
892.581	0.0159156
892.659	0.0160434
892.737	0.0160213
892.815	0.0161375
892.893	0.0159318
892.971	0.0161221
893.049	0.0161023
893.128	0.0161565
893.206	0.0161583
893.284	0.0161872
893.362	0.0162090
893.440	0.0161380
893.518	0.0161436
893.596	0.0161666
893.674	0.0162113
893.753	0.0162882
893.831	0.0162518
893.909	0.0161066
893.987	0.0162462
894.065	0.0163370
894.143	0.0163232
894.221	0.0162328
894.299	0.0161678
894.378	0.0162135
894.456	0.0162312
894.534	0.0162640
894.612	0.0161698
894.690	0.0161338
894.768	0.0162382
894.846	0.0162300
894.924	0.0160969
895.003	0.0162350
895.081	0.0162470
895.159	0.0161871
895.237	0.0162265
895.315	0.0161555
895.393	0.0162692
895.471	0.0161546
895.549	0.0162870
895.628	0.0163418
895.706	0.0162281
895.784	0.0162580
895.862	0.0163142
895.940	0.0163458
896.018	0.0163816
896.096	0.0164548
896.174	0.0163775
896.253	0.0162161
896.331	0.0162682
896.409	0.0162700
896.487	0.0164018
896.565	0.0162375
896.643	0.0163483
896.721	0.0163651
896.799	0.0163421
896.878	0.0161652
896.956	0.0162297
897.034	0.0161822
897.112	0.0162904
897.190	0.0161317
897.268	0.0162905
897.346	0.0161958
897.424	0.0160879
897.503	0.0161455
897.581	0.0162730
897.659	0.0161555
897.737	0.0161166
897.815	0.0162469
897.893	0.0163394
897.971	0.0161111
898.049	0.0161615
898.128	0.0162456
898.206	0.0162113
898.284	0.0162496
898.362	0.0163879
898.440	0.0162960
898.518	0.0161965
898.596	0.0162824
898.674	0.0162521
898.753	0.0163517
898.831	0.0163494
898.909	0.0162579
898.987	0.0162663
899.065	0.0162177
899.143	0.0163113
899.221	0.0162846
899.299	0.0163013
899.378	0.0162752
899.456	0.0162665
899.534	0.0163070
899.612	0.0163022
899.690	0.0163144
899.768	0.0162383
899.846	0.0163732
899.924	0.0162640
900.003	0.0162247
900.081	0.0163807
900.159	0.0161915
900.237	0.0162913
900.315	0.0164822
900.393	0.0163178
900.471	0.0162345
900.549	0.0163036
900.628	0.0161856
900.706	0.0164310
900.784	0.0163318
900.862	0.0164745
900.940	0.0163150
901.018	0.0164542
901.096	0.0163411
901.174	0.0162916
901.253	0.0162695
901.331	0.0162617
901.409	0.0163968
901.487	0.0162773
901.565	0.0163613
901.643	0.0162734
901.721	0.0163441
901.799	0.0164645
901.878	0.0163137
901.956	0.0162714
902.034	0.0162833
902.112	0.0162334
902.190	0.0160335
902.268	0.0162334
902.346	0.0161888
902.424	0.0161546
902.503	0.0162291
902.581	0.0160648
902.659	0.0161439
902.737	0.0161092
902.815	0.0161269
902.893	0.0162109
902.971	0.0161788
903.049	0.0163295
903.128	0.0162098
903.206	0.0161510
903.284	0.0162775
903.362	0.0162012
903.440	0.0161944
903.518	0.0161234
903.596	0.0160831
903.674	0.0161396
903.753	0.0161799
903.831	0.0160952
903.909	0.0162149
903.987	0.0161832
904.065	0.0161073
904.143	0.0162560
904.221	0.0161911
904.299	0.0160982
904.378	0.0162403
904.456	0.0161340
904.534	0.0161504
904.612	0.0161727
904.690	0.0163197
904.768	0.0161710
904.846	0.0163242
904.924	0.0162253
905.003	0.0161420
905.081	0.0161202
905.159	0.0162170
905.237	0.0162601
905.315	0.0160159
905.393	0.0161745
905.471	0.0161653
905.549	0.0160846
905.628	0.0160652
905.706	0.0159888
905.784	0.0161649
905.862	0.0162042
905.940	0.0160998
906.018	0.0161106
906.096	0.0162171
906.174	0.0161445
906.253	0.0162778
906.331	0.0162424
906.409	0.0163052
906.487	0.0162563
906.565	0.0162052
906.643	0.0162075
906.721	0.0162394
906.799	0.0162951
906.878	0.0163170
906.956	0.0164038
907.034	0.0162638
907.112	0.0163545
907.190	0.0162346
907.268	0.0162591
907.346	0.0163157
907.424	0.0162213
907.503	0.0163925
907.581	0.0162445
907.659	0.0162284
907.737	0.0162998
907.815	0.0161164
907.893	0.0161828
907.971	0.0161068
908.049	0.0162180
908.128	0.0162990
908.206	0.0162017
908.284	0.0160411
908.362	0.0162110
908.440	0.0162804
908.518	0.0162534
908.596	0.0162499
908.674	0.0162089
908.753	0.0163290
908.831	0.0162183
908.909	0.0162296
908.987	0.0162234
909.065	0.0161771
909.143	0.0163174
909.221	0.0163905
909.299	0.0162925
909.378	0.0161913
909.456	0.0163580
909.534	0.0163817
909.612	0.0162669
909.690	0.0162030
909.768	0.0163719
909.846	0.0164437
909.924	0.0163840
910.003	0.0161725
910.081	0.0162582
910.159	0.0162065
910.237	0.0162745
910.315	0.0163227
910.393	0.0163983
910.471	0.0162572
910.549	0.0163070
910.628	0.0163409
910.706	0.0162833
910.784	0.0161963
910.862	0.0162058
910.940	0.0161972
911.018	0.0162661
911.096	0.0163079
911.174	0.0162424
911.253	0.0161824
911.331	0.0163633
911.409	0.0161497
911.487	0.0160190
911.565	0.0162876
911.643	0.0162443
911.721	0.0162588
911.799	0.0161357
911.878	0.0161282
911.956	0.0162428
912.034	0.0161753
912.112	0.0161797
912.190	0.0162447
912.268	0.0161066
912.346	0.0161842
912.424	0.0161005
912.503	0.0160921
912.581	0.0160613
912.659	0.0161941
912.737	0.0160588
912.815	0.0161459
912.893	0.0162231
912.971	0.0161230
913.049	0.0160175
913.128	0.0160314
913.206	0.0160146
913.284	0.0161149
913.362	0.0162502
913.440	0.0160901
913.518	0.0161225
913.596	0.0160762
913.674	0.0161427
913.753	0.0160915
913.831	0.0159350
913.909	0.0160294
913.987	0.0162471
914.065	0.0160174
914.143	0.0160982
914.221	0.0159503
914.299	0.0159690
914.378	0.0159119
914.456	0.0160098
914.534	0.0161697
914.612	0.0160266
914.690	0.0160220
914.768	0.0159682
914.846	0.0160639
914.924	0.0161864
915.003	0.0160860
915.081	0.0160606
915.159	0.0158400
915.237	0.0160439
915.315	0.0160487
915.393	0.0160299
915.471	0.0161537
915.549	0.0160640
915.628	0.0159858
915.706	0.0159943
915.784	0.0160620
915.862	0.0161559
915.940	0.0160281
916.018	0.0160136
916.096	0.0159039
916.174	0.0159561
916.253	0.0161268
916.331	0.0159650
916.409	0.0159483
916.487	0.0160299
916.565	0.0160974
916.643	0.0160305
916.721	0.0160841
916.799	0.0160072
916.878	0.0160236
916.956	0.0161304
917.034	0.0160869
917.112	0.0160732
917.190	0.0160822
917.268	0.0160371
917.346	0.0161176
917.424	0.0161535
917.503	0.0161510
917.581	0.0161694
917.659	0.0161519
917.737	0.0160380
917.815	0.0160946
917.893	0.0162843
917.971	0.0161262
918.049	0.0161259
918.128	0.0159571
918.206	0.0161880
918.284	0.0162805
918.362	0.0160573
918.440	0.0161013
918.518	0.0162747
918.596	0.0161195
918.674	0.0160770
918.753	0.0162341
918.831	0.0161517
918.909	0.0162127
918.987	0.0161334
919.065	0.0161667
919.143	0.0161034
919.221	0.0161571
919.299	0.0162097
919.378	0.0162476
919.456	0.0162801
919.534	0.0162177
919.612	0.0160997
919.690	0.0162146
919.768	0.0161068
919.846	0.0162025
919.924	0.0161642
920.003	0.0160840
920.081	0.0160893
920.159	0.0161755
920.237	0.0161455
920.315	0.0160760
920.393	0.0160925
920.471	0.0161253
920.549	0.0162337
920.628	0.0160795
920.706	0.0162081
920.784	0.0161328
920.862	0.0162611
920.940	0.0162988
921.018	0.0163106
921.096	0.0163093
921.174	0.0162901
921.253	0.0164189
921.331	0.0163585
921.409	0.0165459
921.487	0.0163804
921.565	0.0163836
921.643	0.0164700
921.721	0.0164931
921.799	0.0164683
921.878	0.0165195
921.956	0.0163939
922.034	0.0164040
922.112	0.0163809
922.190	0.0164975
922.268	0.0163853
922.346	0.0162786
922.424	0.0164493
922.503	0.0163992
922.581	0.0163061
922.659	0.0163428
922.737	0.0163652
922.815	0.0164202
922.893	0.0163788
922.971	0.0164089
923.049	0.0163746
923.128	0.0164081
923.206	0.0162078
923.284	0.0162679
923.362	0.0162289
923.440	0.0164381
923.518	0.0163722
923.596	0.0162943
923.674	0.0161989
923.753	0.0162891
923.831	0.0162834
923.909	0.0162569
923.987	0.0163922
924.065	0.0161807
924.143	0.0163174
924.221	0.0162396
924.299	0.0161817
924.378	0.0161651
924.456	0.0163251
924.534	0.0161321
924.612	0.0161272
924.690	0.0162099
924.768	0.0163391
924.846	0.0161749
924.924	0.0162045
925.003	0.0160793
925.081	0.0162280
925.159	0.0162708
925.237	0.0163076
925.315	0.0163472
925.393	0.0161134
925.471	0.0162097
925.549	0.0163297
925.628	0.0163912
925.706	0.0161806
925.784	0.0162675
925.862	0.0162046
925.940	0.0163113
926.018	0.0162663
926.096	0.0161655
926.174	0.0163330
926.253	0.0163106
926.331	0.0162725
926.409	0.0163065
926.487	0.0163439
926.565	0.0161890
926.643	0.0163052
926.721	0.0161648
926.799	0.0162392
926.878	0.0161835
926.956	0.0162812
927.034	0.0162222
927.112	0.0161918
927.190	0.0162827
927.268	0.0162538
927.346	0.0161384
927.424	0.0161710
927.503	0.0162025
927.581	0.0163409
927.659	0.0162785
927.737	0.0164041
927.815	0.0162985
927.893	0.0161988
927.971	0.0161806
928.049	0.0162122
928.128	0.0163580
928.206	0.0161388
928.284	0.0161507
928.362	0.0161110
928.440	0.0161758
928.518	0.0162520
928.596	0.0160200
928.674	0.0160323
928.753	0.0162975
928.831	0.0162346
928.909	0.0161196
928.987	0.0162006
929.065	0.0161820
929.143	0.0162145
929.221	0.0161932
929.299	0.0161583
929.378	0.0160424
929.456	0.0161320
929.534	0.0163049
929.612	0.0162513
929.690	0.0161906
929.768	0.0162315
929.846	0.0161767
929.924	0.0163145
930.003	0.0162860
930.081	0.0162777
930.159	0.0163759
930.237	0.0161813
930.315	0.0161565
930.393	0.0162756
930.471	0.0164892
930.549	0.0162173
930.628	0.0161866
930.706	0.0162546
930.784	0.0162164
930.862	0.0161594
930.940	0.0163230
931.018	0.0160929
931.096	0.0162254
931.174	0.0162537
931.253	0.0162165
931.331	0.0162603
931.409	0.0162067
931.487	0.0161746
931.565	0.0161166
931.643	0.0161380
931.721	0.0163189
931.799	0.0161511
931.878	0.0162737
931.956	0.0162670
932.034	0.0162181
932.112	0.0162669
932.190	0.0163312
932.268	0.0163292
932.346	0.0163975
932.424	0.0162316
932.503	0.0161187
932.581	0.0163490
932.659	0.0163143
932.737	0.0162720
932.815	0.0163364
932.893	0.0161395
932.971	0.0161986
933.049	0.0164098
933.128	0.0163014
933.206	0.0161980
933.284	0.0162928
933.362	0.0163783
933.440	0.0162121
933.518	0.0164246
933.596	0.0163292
933.674	0.0163487
933.753	0.0163501
933.831	0.0162227
933.909	0.0161998
933.987	0.0163828
934.065	0.0163343
934.143	0.0163001
934.221	0.0162714
934.299	0.0163062
934.378	0.0162150
934.456	0.0163197
934.534	0.0161911
934.612	0.0162376
934.690	0.0162402
934.768	0.0162834
934.846	0.0160104
934.924	0.0160166
935.003	0.0161797
935.081	0.0161214
935.159	0.0162150
935.237	0.0160709
935.315	0.0159808
935.393	0.0160854
935.471	0.0161224
935.549	0.0160618
935.628	0.0161524
935.706	0.0161149
935.784	0.0161085
935.862	0.0162267
935.940	0.0161347
936.018	0.0160892
936.096	0.0162318
936.174	0.0162270
936.253	0.0164117
936.331	0.0162814
936.409	0.0163056
936.487	0.0162729
936.565	0.0161795
936.643	0.0161974
936.721	0.0162669
936.799	0.0162618
936.878	0.0162955
936.956	0.0163350
937.034	0.0161767
937.112	0.0162702
937.190	0.0161167
937.268	0.0160548
937.346	0.0161659
937.424	0.0160819
937.503	0.0159673
937.581	0.0160632
937.659	0.0161297
937.737	0.0161630
937.815	0.0161134
937.893	0.0160824
937.971	0.0161582
938.049	0.0161378
938.128	0.0162019
938.206	0.0162188
938.284	0.0161794
938.362	0.0161556
938.440	0.0160103
938.518	0.0161997
938.596	0.0161816
938.674	0.0160757
938.753	0.0161926
938.831	0.0161046
938.909	0.0161013
938.987	0.0160124
939.065	0.0161424
939.143	0.0161796
939.221	0.0160473
939.299	0.0161221
939.378	0.0161485
939.456	0.0161250
939.534	0.0161322
939.612	0.0162383
939.690	0.0162692
939.768	0.0162106
939.846	0.0161427
939.924	0.0162187
940.003	0.0162683
940.081	0.0161922
940.159	0.0161109
940.237	0.0162130
940.315	0.0162527
940.393	0.0161400
940.471	0.0161542
940.549	0.0162515
940.628	0.0161868
940.706	0.0162938
940.784	0.0161860
940.862	0.0160941
940.940	0.0161416
941.018	0.0162227
941.096	0.0162553
941.174	0.0161505
941.253	0.0161320
941.331	0.0162498
941.409	0.0161271
941.487	0.0161166
941.565	0.0161774
941.643	0.0160806
941.721	0.0160993
941.799	0.0159785
941.878	0.0161503
941.956	0.0161445
942.034	0.0160226
942.112	0.0160312
942.190	0.0160742
942.268	0.0161049
942.346	0.0161262
942.424	0.0161740
942.503	0.0162336
942.581	0.0162175
942.659	0.0161579
942.737	0.0162514
942.815	0.0162119
942.893	0.0160825
942.971	0.0161375
943.049	0.0161550
943.128	0.0161436
943.206	0.0162413
943.284	0.0162939
943.362	0.0162223
943.440	0.0161221
943.518	0.0162863
943.596	0.0162267
943.674	0.0163195
943.753	0.0161636
943.831	0.0161462
943.909	0.0160998
943.987	0.0162305
944.065	0.0160464
944.143	0.0161494
944.221	0.0161741
944.299	0.0162653
944.378	0.0163377
944.456	0.0161181
944.534	0.0160562
944.612	0.0163029
944.690	0.0162688
944.768	0.0161532
944.846	0.0162241
944.924	0.0161845
945.003	0.0162032
945.081	0.0162823
945.159	0.0163163
945.237	0.0162582
945.315	0.0161721
945.393	0.0161018
945.471	0.0163305
945.549	0.0161733
945.628	0.0161654
945.706	0.0162528
945.784	0.0162402
945.862	0.0162222
945.940	0.0161066
946.018	0.0162112
946.096	0.0161642
946.174	0.0163152
946.253	0.0162526
946.331	0.0162275
946.409	0.0162107
946.487	0.0161843
946.565	0.0159887
946.643	0.0162791
946.721	0.0162444
946.799	0.0162038
946.878	0.0162304
946.956	0.0162292
947.034	0.0161750
947.112	0.0162257
947.190	0.0162473
947.268	0.0162962
947.346	0.0162268
947.424	0.0162083
947.503	0.0162276
947.581	0.0163058
947.659	0.0161857
947.737	0.0163163
947.815	0.0162247
947.893	0.0162727
947.971	0.0161009
948.049	0.0161446
948.128	0.0163805
948.206	0.0162796
948.284	0.0162775
948.362	0.0161806
948.440	0.0162358
948.518	0.0162461
948.596	0.0163549
948.674	0.0162852
948.753	0.0161690
948.831	0.0163243
948.909	0.0163807
948.987	0.0161981
949.065	0.0161057
949.143	0.0163157
949.221	0.0162667
949.299	0.0163159
949.378	0.0163070
949.456	0.0161851
949.534	0.0162238
949.612	0.0163115
949.690	0.0161723
949.768	0.0162344
949.846	0.0161993
949.924	0.0162077
