06/10/2022	18:56:15	Ver.	4.1	UNKNOWN
Optical Delay	600.015094	Delta X		0.078125	Sweeps	1	Scan Rate	0/0
Coordinates	Axis 1	NaN	Axis 2	NaN	Axis 3	NaN	Axis 4	NaN	Axis 5	NaN	Axis 6	0.000000
TX Power	0.000000	RX Power	0.000000

600.015	0.0163166
600.093	0.0162753
600.171	0.0162106
600.249	0.0161335
600.328	0.0163206
600.406	0.0163111
600.484	0.0163869
600.562	0.0163717
600.640	0.0162533
600.718	0.0162785
600.796	0.0162669
600.874	0.0164297
600.953	0.0164025
601.031	0.0161449
601.109	0.0162325
601.187	0.0164289
601.265	0.0161948
601.343	0.0163381
601.421	0.0161906
601.499	0.0161607
601.578	0.0162968
601.656	0.0162388
601.734	0.0163053
601.812	0.0162727
601.890	0.0164448
601.968	0.0162737
602.046	0.0162445
602.124	0.0162940
602.203	0.0164175
602.281	0.0163725
602.359	0.0163539
602.437	0.0164214
602.515	0.0164274
602.593	0.0162986
602.671	0.0162411
602.749	0.0163947
602.828	0.0163335
602.906	0.0163531
602.984	0.0163038
603.062	0.0164286
603.140	0.0162245
603.218	0.0162776
603.296	0.0163446
603.374	0.0163667
603.453	0.0165085
603.531	0.0162303
603.609	0.0162642
603.687	0.0163251
603.765	0.0163003
603.843	0.0160834
603.921	0.0163418
603.999	0.0163037
604.078	0.0161958
604.156	0.0162866
604.234	0.0162773
604.312	0.0161678
604.390	0.0163246
604.468	0.0163583
604.546	0.0161842
604.624	0.0162313
604.703	0.0161714
604.781	0.0163142
604.859	0.0162394
604.937	0.0162969
605.015	0.0162189
605.093	0.0161912
605.171	0.0161640
605.249	0.0162331
605.328	0.0162983
605.406	0.0162759
605.484	0.0162405
605.562	0.0161026
605.640	0.0162066
605.718	0.0162362
605.796	0.0161570
605.874	0.0161514
605.953	0.0162177
606.031	0.0161938
606.109	0.0161895
606.187	0.0163078
606.265	0.0162486
606.343	0.0161497
606.421	0.0160941
606.499	0.0161588
606.578	0.0162418
606.656	0.0162210
606.734	0.0162427
606.812	0.0162878
606.890	0.0162414
606.968	0.0161711
607.046	0.0162063
607.124	0.0161676
607.203	0.0162045
607.281	0.0161607
607.359	0.0162560
607.437	0.0161590
607.515	0.0161530
607.593	0.0163659
607.671	0.0161735
607.749	0.0160723
607.828	0.0161004
607.906	0.0160703
607.984	0.0162035
608.062	0.0161904
608.140	0.0162931
608.218	0.0161786
608.296	0.0162486
608.374	0.0161739
608.453	0.0162900
608.531	0.0162263
608.609	0.0160491
608.687	0.0161411
608.765	0.0162028
608.843	0.0162280
608.921	0.0162592
608.999	0.0162077
609.078	0.0162237
609.156	0.0162952
609.234	0.0160718
609.312	0.0161951
609.390	0.0161464
609.468	0.0163089
609.546	0.0161983
609.624	0.0161618
609.703	0.0162096
609.781	0.0162548
609.859	0.0162228
609.937	0.0162291
610.015	0.0162640
610.093	0.0161903
610.171	0.0161683
610.249	0.0162819
610.328	0.0163490
610.406	0.0162312
610.484	0.0163723
610.562	0.0161892
610.640	0.0162803
610.718	0.0162583
610.796	0.0163078
610.874	0.0162140
610.953	0.0162859
611.031	0.0162315
611.109	0.0160786
611.187	0.0161700
611.265	0.0161352
611.343	0.0162600
611.421	0.0161607
611.499	0.0163266
611.578	0.0161922
611.656	0.0161151
611.734	0.0162666
611.812	0.0161958
611.890	0.0161763
611.968	0.0162164
612.046	0.0163148
612.124	0.0162675
612.203	0.0162543
612.281	0.0162685
612.359	0.0163264
612.437	0.0162310
612.515	0.0161764
612.593	0.0162074
612.671	0.0162614
612.749	0.0162154
612.828	0.0162327
612.906	0.0162234
612.984	0.0162991
613.062	0.0163923
613.140	0.0163316
613.218	0.0162154
613.296	0.0162876
613.374	0.0162875
613.453	0.0163878
613.531	0.0162188
613.609	0.0163444
613.687	0.0162657
613.765	0.0162743
613.843	0.0164063
613.921	0.0163483
613.999	0.0163935
614.078	0.0163297
614.156	0.0162621
614.234	0.0162194
614.312	0.0163118
614.390	0.0162778
614.468	0.0162233
614.546	0.0164051
614.624	0.0163883
614.703	0.0162006
614.781	0.0162986
614.859	0.0162866
614.937	0.0163149
615.015	0.0163062
615.093	0.0164145
615.171	0.0162926
615.249	0.0162251
615.328	0.0162300
615.406	0.0163676
615.484	0.0162733
615.562	0.0162964
615.640	0.0163448
615.718	0.0163271
615.796	0.0163190
615.874	0.0163907
615.953	0.0163665
616.031	0.0163337
616.109	0.0162115
616.187	0.0164147
616.265	0.0163458
616.343	0.0162468
616.421	0.0162633
616.499	0.0163604
616.578	0.0162988
616.656	0.0162447
616.734	0.0162924
616.812	0.0162241
616.890	0.0164435
616.968	0.0162403
617.046	0.0162975
617.124	0.0162303
617.203	0.0163653
617.281	0.0163171
617.359	0.0161626
617.437	0.0162714
617.515	0.0162082
617.593	0.0161800
617.671	0.0162347
617.749	0.0162933
617.828	0.0162464
617.906	0.0161864
617.984	0.0162554
618.062	0.0162354
618.140	0.0162387
618.218	0.0163432
618.296	0.0162753
618.374	0.0163901
618.453	0.0164560
618.531	0.0162599
618.609	0.0162742
618.687	0.0162883
618.765	0.0163984
618.843	0.0161898
618.921	0.0163658
618.999	0.0163207
619.078	0.0163757
619.156	0.0162411
619.234	0.0162702
619.312	0.0162793
619.390	0.0162408
619.468	0.0163204
619.546	0.0163271
619.624	0.0162622
619.703	0.0163799
619.781	0.0162935
619.859	0.0163731
619.937	0.0163245
620.015	0.0162428
620.093	0.0164226
620.171	0.0163499
620.249	0.0164600
620.328	0.0162985
620.406	0.0163653
620.484	0.0164220
620.562	0.0162188
620.640	0.0163612
620.718	0.0163142
620.796	0.0163452
620.874	0.0163374
620.953	0.0162897
621.031	0.0163612
621.109	0.0163419
621.187	0.0162318
621.265	0.0163275
621.343	0.0163360
621.421	0.0164489
621.499	0.0163554
621.578	0.0164303
621.656	0.0163471
621.734	0.0162382
621.812	0.0162514
621.890	0.0163773
621.968	0.0163155
622.046	0.0162843
622.124	0.0162469
622.203	0.0162981
622.281	0.0164222
622.359	0.0162781
622.437	0.0163038
622.515	0.0163160
622.593	0.0163781
622.671	0.0162743
622.749	0.0163065
622.828	0.0163217
622.906	0.0163332
622.984	0.0164526
623.062	0.0163058
623.140	0.0162643
623.218	0.0163029
623.296	0.0162857
623.374	0.0162658
623.453	0.0163612
623.531	0.0164709
623.609	0.0162550
623.687	0.0162666
623.765	0.0164720
623.843	0.0165077
623.921	0.0162368
623.999	0.0162433
624.078	0.0164172
624.156	0.0163665
624.234	0.0161965
624.312	0.0162440
624.390	0.0163072
624.468	0.0163681
624.546	0.0162685
624.624	0.0163196
624.703	0.0164023
624.781	0.0163091
624.859	0.0162804
624.937	0.0163322
625.015	0.0162525
625.093	0.0163614
625.171	0.0163696
625.249	0.0163641
625.328	0.0161492
625.406	0.0162912
625.484	0.0162470
625.562	0.0162616
625.640	0.0164845
625.718	0.0162446
625.796	0.0162335
625.874	0.0163956
625.953	0.0163084
626.031	0.0162894
626.109	0.0162605
626.187	0.0163511
626.265	0.0163334
626.343	0.0162775
626.421	0.0161646
626.499	0.0162839
626.578	0.0162135
626.656	0.0162399
626.734	0.0162383
626.812	0.0164040
626.890	0.0163105
626.968	0.0162952
627.046	0.0163859
627.124	0.0163502
627.203	0.0162038
627.281	0.0162140
627.359	0.0162901
627.437	0.0163640
627.515	0.0162242
627.593	0.0162448
627.671	0.0162118
627.749	0.0161781
627.828	0.0162241
627.906	0.0161987
627.984	0.0162442
628.062	0.0162543
628.140	0.0162501
628.218	0.0164059
628.296	0.0163386
628.374	0.0161947
628.453	0.0163798
628.531	0.0163589
628.609	0.0162303
628.687	0.0163245
628.765	0.0162906
628.843	0.0163681
628.921	0.0163550
628.999	0.0161974
629.078	0.0160506
629.156	0.0161449
629.234	0.0162247
629.312	0.0161465
629.390	0.0161922
629.468	0.0163337
629.546	0.0162057
629.624	0.0162365
629.703	0.0162648
629.781	0.0161679
629.859	0.0161788
629.937	0.0162236
630.015	0.0161958
630.093	0.0161980
630.171	0.0161784
630.249	0.0160677
630.328	0.0162489
630.406	0.0161243
630.484	0.0163801
630.562	0.0161751
630.640	0.0162190
630.718	0.0161389
630.796	0.0162508
630.874	0.0162749
630.953	0.0162567
631.031	0.0162252
631.109	0.0162817
631.187	0.0161437
631.265	0.0161446
631.343	0.0161183
631.421	0.0161779
631.499	0.0162018
631.578	0.0161672
631.656	0.0161180
631.734	0.0162621
631.812	0.0161580
631.890	0.0162890
631.968	0.0162503
632.046	0.0162198
632.124	0.0162537
632.203	0.0162680
632.281	0.0161494
632.359	0.0162659
632.437	0.0162315
632.515	0.0162037
632.593	0.0160137
632.671	0.0162060
632.749	0.0162077
632.828	0.0161206
632.906	0.0163285
632.984	0.0161323
633.062	0.0161470
633.140	0.0162316
633.218	0.0162415
633.296	0.0161790
633.374	0.0161825
633.453	0.0164623
633.531	0.0161348
633.609	0.0161833
633.687	0.0161728
633.765	0.0162092
633.843	0.0161665
633.921	0.0162134
633.999	0.0161413
634.078	0.0162054
634.156	0.0162278
634.234	0.0161740
634.312	0.0162179
634.390	0.0162772
634.468	0.0162429
634.546	0.0161246
634.624	0.0162309
634.703	0.0160725
634.781	0.0161939
634.859	0.0162262
634.937	0.0161558
635.015	0.0161256
635.093	0.0161848
635.171	0.0162709
635.249	0.0162572
635.328	0.0161642
635.406	0.0161658
635.484	0.0164053
635.562	0.0162808
635.640	0.0160873
635.718	0.0161567
635.796	0.0162294
635.874	0.0162278
635.953	0.0161150
636.031	0.0160991
636.109	0.0161233
636.187	0.0161430
636.265	0.0161552
636.343	0.0161380
636.421	0.0160009
636.499	0.0162711
636.578	0.0161333
636.656	0.0161429
636.734	0.0161411
636.812	0.0160410
636.890	0.0161622
636.968	0.0162020
637.046	0.0160686
637.124	0.0161930
637.203	0.0162667
637.281	0.0161468
637.359	0.0162289
637.437	0.0163151
637.515	0.0162235
637.593	0.0160401
637.671	0.0160680
637.749	0.0162260
637.828	0.0162183
637.906	0.0161983
637.984	0.0162407
638.062	0.0162854
638.140	0.0163332
638.218	0.0160995
638.296	0.0162460
638.374	0.0160887
638.453	0.0161089
638.531	0.0162771
638.609	0.0163074
638.687	0.0163193
638.765	0.0163407
638.843	0.0162025
638.921	0.0162241
638.999	0.0161887
639.078	0.0160778
639.156	0.0162040
639.234	0.0162328
639.312	0.0162830
639.390	0.0161899
639.468	0.0162988
639.546	0.0162080
639.624	0.0162280
639.703	0.0162434
639.781	0.0163528
639.859	0.0162194
639.937	0.0162688
640.015	0.0163467
640.093	0.0164051
640.171	0.0162469
640.249	0.0161926
640.328	0.0162794
640.406	0.0162994
640.484	0.0162299
640.562	0.0162287
640.640	0.0163200
640.718	0.0161864
640.796	0.0162724
640.874	0.0161680
640.953	0.0162471
641.031	0.0162798
641.109	0.0163554
641.187	0.0162528
641.265	0.0162280
641.343	0.0162440
641.421	0.0162338
641.499	0.0163192
641.578	0.0162519
641.656	0.0162230
641.734	0.0161715
641.812	0.0162639
641.890	0.0163400
641.968	0.0163551
642.046	0.0162718
642.124	0.0162269
642.203	0.0162766
642.281	0.0162569
642.359	0.0162648
642.437	0.0161662
642.515	0.0163232
642.593	0.0162931
642.671	0.0162936
642.749	0.0162608
642.828	0.0162611
642.906	0.0161857
642.984	0.0163057
643.062	0.0163689
643.140	0.0163288
643.218	0.0163386
643.296	0.0162769
643.374	0.0162864
643.453	0.0163123
643.531	0.0162781
643.609	0.0163064
643.687	0.0162511
643.765	0.0162251
643.843	0.0162772
643.921	0.0163750
643.999	0.0164325
644.078	0.0163071
644.156	0.0162692
644.234	0.0164029
644.312	0.0162775
644.390	0.0163079
644.468	0.0162273
644.546	0.0163570
644.624	0.0162839
644.703	0.0163886
644.781	0.0163265
644.859	0.0163303
644.937	0.0163404
645.015	0.0164132
645.093	0.0163743
645.171	0.0163157
645.249	0.0163251
645.328	0.0162963
645.406	0.0163827
645.484	0.0163267
645.562	0.0163937
645.640	0.0163961
645.718	0.0163185
645.796	0.0163076
645.874	0.0162064
645.953	0.0163217
646.031	0.0162776
646.109	0.0163759
646.187	0.0164420
646.265	0.0163409
646.343	0.0163844
646.421	0.0161642
646.499	0.0163172
646.578	0.0164175
646.656	0.0162778
646.734	0.0163045
646.812	0.0162511
646.890	0.0163137
646.968	0.0162783
647.046	0.0164462
647.124	0.0163446
647.203	0.0162420
647.281	0.0163697
647.359	0.0162769
647.437	0.0162207
647.515	0.0162389
647.593	0.0163793
647.671	0.0163919
647.749	0.0163693
647.828	0.0164073
647.906	0.0161913
647.984	0.0163086
648.062	0.0163232
648.140	0.0161974
648.218	0.0163396
648.296	0.0162627
648.374	0.0163277
648.453	0.0163421
648.531	0.0163844
648.609	0.0164054
648.687	0.0163153
648.765	0.0162368
648.843	0.0163623
648.921	0.0163068
648.999	0.0163001
649.078	0.0162844
649.156	0.0162945
649.234	0.0163209
649.312	0.0162474
649.390	0.0164013
649.468	0.0161813
649.546	0.0161742
649.624	0.0163931
649.703	0.0163875
649.781	0.0163032
649.859	0.0163191
649.937	0.0162796
650.015	0.0161111
650.093	0.0162612
650.171	0.0161387
650.249	0.0161294
650.328	0.0164293
650.406	0.0161426
650.484	0.0162561
650.562	0.0163078
650.640	0.0162410
650.718	0.0162290
650.796	0.0162082
650.874	0.0161366
650.953	0.0162238
651.031	0.0161716
651.109	0.0162433
651.187	0.0162564
651.265	0.0162775
651.343	0.0162769
651.421	0.0162665
651.499	0.0161623
651.578	0.0163149
651.656	0.0162405
651.734	0.0161455
651.812	0.0161885
651.890	0.0162611
651.968	0.0162946
652.046	0.0162622
652.124	0.0162377
652.203	0.0161259
652.281	0.0161891
652.359	0.0160771
652.437	0.0161203
652.515	0.0162014
652.593	0.0161741
652.671	0.0162286
652.749	0.0161342
652.828	0.0162402
652.906	0.0161032
652.984	0.0161820
653.062	0.0162492
653.140	0.0162601
653.218	0.0160773
653.296	0.0161582
653.374	0.0161893
653.453	0.0160767
653.531	0.0160752
653.609	0.0161127
653.687	0.0163224
653.765	0.0161958
653.843	0.0161787
653.921	0.0161693
653.999	0.0160584
654.078	0.0160914
654.156	0.0161280
654.234	0.0160119
654.312	0.0161942
654.390	0.0160925
654.468	0.0162054
654.546	0.0162558
654.624	0.0161069
654.703	0.0162307
654.781	0.0162216
654.859	0.0160310
654.937	0.0160219
655.015	0.0160862
655.093	0.0161846
655.171	0.0160534
655.249	0.0161861
655.328	0.0161352
655.406	0.0160844
655.484	0.0160799
655.562	0.0161321
655.640	0.0160120
655.718	0.0161439
655.796	0.0161585
655.874	0.0162264
655.953	0.0161477
656.031	0.0160755
656.109	0.0162430
656.187	0.0160445
656.265	0.0160533
656.343	0.0162849
656.421	0.0161265
656.499	0.0160562
656.578	0.0162619
656.656	0.0161559
656.734	0.0161011
656.812	0.0163179
656.890	0.0160424
656.968	0.0162434
657.046	0.0161061
657.124	0.0161491
657.203	0.0162051
657.281	0.0163254
657.359	0.0161458
657.437	0.0162300
657.515	0.0162328
657.593	0.0163799
657.671	0.0163495
657.749	0.0161635
657.828	0.0160281
657.906	0.0162816
657.984	0.0161668
658.062	0.0161536
658.140	0.0161648
658.218	0.0161653
658.296	0.0161484
658.374	0.0161183
658.453	0.0162264
658.531	0.0162010
658.609	0.0160911
658.687	0.0160371
658.765	0.0162096
658.843	0.0161748
658.921	0.0160939
658.999	0.0161884
659.078	0.0162391
659.156	0.0161431
659.234	0.0161892
659.312	0.0162787
659.390	0.0162244
659.468	0.0163211
659.546	0.0161490
659.624	0.0161618
659.703	0.0162880
659.781	0.0162930
659.859	0.0161833
659.937	0.0162427
660.015	0.0161877
660.093	0.0161443
660.171	0.0162336
660.249	0.0161803
660.328	0.0162617
660.406	0.0162315
660.484	0.0161739
660.562	0.0162219
660.640	0.0163346
660.718	0.0161231
660.796	0.0163010
660.874	0.0162945
660.953	0.0162444
661.031	0.0161435
661.109	0.0162563
661.187	0.0161724
661.265	0.0160117
661.343	0.0161620
661.421	0.0162164
661.499	0.0162003
661.578	0.0161877
661.656	0.0160834
661.734	0.0161346
661.812	0.0160786
661.890	0.0161423
661.968	0.0161987
662.046	0.0160375
662.124	0.0161034
662.203	0.0161568
662.281	0.0163148
662.359	0.0161169
662.437	0.0161225
662.515	0.0161752
662.593	0.0161703
662.671	0.0161713
662.749	0.0162494
662.828	0.0162003
662.906	0.0162521
662.984	0.0161777
663.062	0.0162594
663.140	0.0161657
663.218	0.0162158
663.296	0.0161253
663.374	0.0161695
663.453	0.0162219
663.531	0.0162386
663.609	0.0161362
663.687	0.0160014
663.765	0.0162737
663.843	0.0161595
663.921	0.0161378
663.999	0.0162382
664.078	0.0161341
664.156	0.0162658
664.234	0.0162924
664.312	0.0161506
664.390	0.0162030
664.468	0.0162304
664.546	0.0161219
664.624	0.0161205
664.703	0.0161546
664.781	0.0162556
664.859	0.0160764
664.937	0.0161392
665.015	0.0162541
665.093	0.0161037
665.171	0.0160807
665.249	0.0162148
665.328	0.0163540
665.406	0.0161887
665.484	0.0162449
665.562	0.0161770
665.640	0.0162256
665.718	0.0162106
665.796	0.0161334
665.874	0.0162640
665.953	0.0163313
666.031	0.0162663
666.109	0.0161443
666.187	0.0160719
666.265	0.0161771
666.343	0.0163170
666.421	0.0162645
666.499	0.0162746
666.578	0.0163212
666.656	0.0162711
666.734	0.0162395
666.812	0.0162228
666.890	0.0163279
666.968	0.0162739
667.046	0.0162296
667.124	0.0162444
667.203	0.0162200
667.281	0.0163730
667.359	0.0161871
667.437	0.0164021
667.515	0.0163834
667.593	0.0163505
667.671	0.0162770
667.749	0.0162168
667.828	0.0163821
667.906	0.0163180
667.984	0.0162028
668.062	0.0164710
668.140	0.0163400
668.218	0.0163481
668.296	0.0162032
668.374	0.0163841
668.453	0.0163068
668.531	0.0162881
668.609	0.0162804
668.687	0.0161875
668.765	0.0163513
668.843	0.0163273
668.921	0.0162492
668.999	0.0162236
669.078	0.0162456
669.156	0.0163057
669.234	0.0163119
669.312	0.0163647
669.390	0.0162875
669.468	0.0162617
669.546	0.0161958
669.624	0.0163393
669.703	0.0163316
669.781	0.0163258
669.859	0.0162502
669.937	0.0162775
670.015	0.0163703
670.093	0.0161954
670.171	0.0163142
670.249	0.0163148
670.328	0.0162573
670.406	0.0163042
670.484	0.0161674
670.562	0.0162725
670.640	0.0162994
670.718	0.0162833
670.796	0.0163084
670.874	0.0163793
670.953	0.0162634
671.031	0.0162703
671.109	0.0163061
671.187	0.0163236
671.265	0.0162617
671.343	0.0162381
671.421	0.0163486
671.499	0.0162803
671.578	0.0163947
671.656	0.0163680
671.734	0.0162003
671.812	0.0163927
671.890	0.0164125
671.968	0.0163787
672.046	0.0163081
672.124	0.0163226
672.203	0.0164068
672.281	0.0163251
672.359	0.0162966
672.437	0.0163049
672.515	0.0163055
672.593	0.0163409
672.671	0.0164259
672.749	0.0163788
672.828	0.0162616
672.906	0.0163325
672.984	0.0163020
673.062	0.0162770
673.140	0.0164421
673.218	0.0163706
673.296	0.0163459
673.374	0.0163557
673.453	0.0163699
673.531	0.0163286
673.609	0.0161707
673.687	0.0162701
673.765	0.0163030
673.843	0.0163092
673.921	0.0164106
673.999	0.0163552
674.078	0.0164051
674.156	0.0164438
674.234	0.0163406
674.312	0.0162288
674.390	0.0163548
674.468	0.0162531
674.546	0.0163807
674.624	0.0162455
674.703	0.0162987
674.781	0.0164964
674.859	0.0162373
674.937	0.0162982
675.015	0.0163961
675.093	0.0163725
675.171	0.0164375
675.249	0.0163117
675.328	0.0162687
675.406	0.0162879
675.484	0.0163969
675.562	0.0162283
675.640	0.0162407
675.718	0.0163686
675.796	0.0162578
675.874	0.0162583
675.953	0.0162533
676.031	0.0162391
676.109	0.0162411
676.187	0.0163681
676.265	0.0163219
676.343	0.0162167
676.421	0.0162228
676.499	0.0162803
676.578	0.0163232
676.656	0.0162408
676.734	0.0162991
676.812	0.0162192
676.890	0.0162327
676.968	0.0160964
677.046	0.0162014
677.124	0.0163478
677.203	0.0162429
677.281	0.0162041
677.359	0.0162400
677.437	0.0161790
677.515	0.0162417
677.593	0.0161967
677.671	0.0161093
677.749	0.0163246
677.828	0.0163177
677.906	0.0162302
677.984	0.0161240
678.062	0.0161710
678.140	0.0163551
678.218	0.0162011
678.296	0.0162807
678.374	0.0160513
678.453	0.0162203
678.531	0.0161838
678.609	0.0161837
678.687	0.0162070
678.765	0.0162321
678.843	0.0161415
678.921	0.0161070
678.999	0.0161982
679.078	0.0161388
679.156	0.0161432
679.234	0.0159840
679.312	0.0162359
679.390	0.0163169
679.468	0.0162158
679.546	0.0161858
679.624	0.0162642
679.703	0.0161201
679.781	0.0162879
679.859	0.0161926
679.937	0.0160989
680.015	0.0162070
680.093	0.0162557
680.171	0.0162341
680.249	0.0162066
680.328	0.0163406
680.406	0.0163189
680.484	0.0162339
680.562	0.0162307
680.640	0.0161821
680.718	0.0162020
680.796	0.0161591
680.874	0.0161744
680.953	0.0161464
681.031	0.0161761
681.109	0.0162968
681.187	0.0161359
681.265	0.0163085
681.343	0.0161921
681.421	0.0160742
681.499	0.0163090
681.578	0.0162128
681.656	0.0162353
681.734	0.0161662
681.812	0.0162166
681.890	0.0162184
681.968	0.0163630
682.046	0.0162866
682.124	0.0162232
682.203	0.0161098
682.281	0.0161350
682.359	0.0161899
682.437	0.0161510
682.515	0.0164367
682.593	0.0162981
682.671	0.0161079
682.749	0.0161926
682.828	0.0162341
682.906	0.0162106
682.984	0.0162467
683.062	0.0162751
683.140	0.0162943
683.218	0.0161842
683.296	0.0163380
683.374	0.0162961
683.453	0.0161001
683.531	0.0163062
683.609	0.0163850
683.687	0.0162887
683.765	0.0163096
683.843	0.0162750
683.921	0.0162496
683.999	0.0162338
684.078	0.0162296
684.156	0.0162122
684.234	0.0162896
684.312	0.0163422
684.390	0.0162080
684.468	0.0161511
684.546	0.0162428
684.624	0.0161065
684.703	0.0162396
684.781	0.0162056
684.859	0.0162189
684.937	0.0161933
685.015	0.0162585
685.093	0.0161366
685.171	0.0161659
685.249	0.0162199
685.328	0.0161204
685.406	0.0161478
685.484	0.0162534
685.562	0.0163171
685.640	0.0162154
685.718	0.0161734
685.796	0.0162554
685.874	0.0162244
685.953	0.0161486
686.031	0.0161466
686.109	0.0162415
686.187	0.0161777
686.265	0.0160498
686.343	0.0161130
686.421	0.0163440
686.499	0.0162566
686.578	0.0162595
686.656	0.0161800
686.734	0.0161710
686.812	0.0163000
686.890	0.0161222
686.968	0.0161095
687.046	0.0162353
687.124	0.0162850
687.203	0.0163182
687.281	0.0162751
687.359	0.0161999
687.437	0.0161803
687.515	0.0161815
687.593	0.0163204
687.671	0.0162415
687.749	0.0162029
687.828	0.0164153
687.906	0.0162553
687.984	0.0162292
688.062	0.0162494
688.140	0.0161066
688.218	0.0162195
688.296	0.0162334
688.374	0.0163072
688.453	0.0162779
688.531	0.0163555
688.609	0.0162673
688.687	0.0163152
688.765	0.0163432
688.843	0.0161809
688.921	0.0161470
688.999	0.0163535
689.078	0.0162067
689.156	0.0163017
689.234	0.0162028
689.312	0.0161948
689.390	0.0161861
689.468	0.0163109
689.546	0.0161633
689.624	0.0163020
689.703	0.0161996
689.781	0.0161490
689.859	0.0162238
689.937	0.0162790
690.015	0.0161999
690.093	0.0162541
690.171	0.0163177
690.249	0.0161990
690.328	0.0163335
690.406	0.0162825
690.484	0.0162518
690.562	0.0162571
690.640	0.0162630
690.718	0.0161396
690.796	0.0161987
690.874	0.0162946
690.953	0.0162808
691.031	0.0163179
691.109	0.0164011
691.187	0.0162866
691.265	0.0162676
691.343	0.0162547
691.421	0.0162498
691.499	0.0163225
691.578	0.0162576
691.656	0.0163474
691.734	0.0163692
691.812	0.0161793
691.890	0.0163846
691.968	0.0162950
692.046	0.0162999
692.124	0.0162623
692.203	0.0162250
692.281	0.0162860
692.359	0.0163226
692.437	0.0162778
692.515	0.0162450
692.593	0.0163496
692.671	0.0162621
692.749	0.0161836
692.828	0.0163636
692.906	0.0163365
692.984	0.0162640
693.062	0.0164410
693.140	0.0162679
693.218	0.0163657
693.296	0.0164606
693.374	0.0162328
693.453	0.0161800
693.531	0.0162842
693.609	0.0162534
693.687	0.0162890
693.765	0.0162486
693.843	0.0162811
693.921	0.0163855
693.999	0.0164002
694.078	0.0163281
694.156	0.0162704
694.234	0.0162598
694.312	0.0163771
694.390	0.0163133
694.468	0.0162135
694.546	0.0163795
694.624	0.0164130
694.703	0.0162519
694.781	0.0163378
694.859	0.0164632
694.937	0.0165000
695.015	0.0163303
695.093	0.0163420
695.171	0.0163235
695.249	0.0163570
695.328	0.0162859
695.406	0.0163414
695.484	0.0163664
695.562	0.0162105
695.640	0.0161899
695.718	0.0163493
695.796	0.0163230
695.874	0.0163873
695.953	0.0164085
696.031	0.0162970
696.109	0.0162470
696.187	0.0163598
696.265	0.0163725
696.343	0.0161932
696.421	0.0163191
696.499	0.0163707
696.578	0.0162282
696.656	0.0164244
696.734	0.0164036
696.812	0.0163630
696.890	0.0162668
696.968	0.0162752
697.046	0.0162148
697.124	0.0163169
697.203	0.0162853
697.281	0.0162706
697.359	0.0163514
697.437	0.0163463
697.515	0.0162225
697.593	0.0163837
697.671	0.0162772
697.749	0.0163216
697.828	0.0162862
697.906	0.0162216
697.984	0.0163852
698.062	0.0163951
698.140	0.0161951
698.218	0.0163319
698.296	0.0162421
698.374	0.0162559
698.453	0.0162800
698.531	0.0163781
698.609	0.0164211
698.687	0.0162672
698.765	0.0162444
698.843	0.0162627
698.921	0.0162266
698.999	0.0162105
699.078	0.0163065
699.156	0.0163285
699.234	0.0163852
699.312	0.0163159
699.390	0.0163065
699.468	0.0163819
699.546	0.0163102
699.624	0.0162946
699.703	0.0163042
699.781	0.0163325
699.859	0.0163013
699.937	0.0162372
700.015	0.0163219
700.093	0.0162064
700.171	0.0162624
700.249	0.0163927
700.328	0.0162215
700.406	0.0163051
700.484	0.0162780
700.562	0.0164804
700.640	0.0162756
700.718	0.0164459
700.796	0.0162661
700.874	0.0161046
700.953	0.0163765
701.031	0.0163046
701.109	0.0163010
701.187	0.0163496
701.265	0.0162949
701.343	0.0162296
701.421	0.0163426
701.499	0.0162985
701.578	0.0163556
701.656	0.0163422
701.734	0.0162794
701.812	0.0162886
701.890	0.0162583
701.968	0.0162971
702.046	0.0162550
702.124	0.0165233
702.203	0.0164037
702.281	0.0161463
702.359	0.0161634
702.437	0.0162624
702.515	0.0161978
702.593	0.0162128
702.671	0.0163309
702.749	0.0162215
702.828	0.0161816
702.906	0.0162637
702.984	0.0162118
703.062	0.0161465
703.140	0.0162585
703.218	0.0162250
703.296	0.0161667
703.374	0.0161080
703.453	0.0161382
703.531	0.0161967
703.609	0.0163262
703.687	0.0162257
703.765	0.0162875
703.843	0.0163202
703.921	0.0162247
703.999	0.0160918
704.078	0.0161701
704.156	0.0162318
704.234	0.0162160
704.312	0.0162042
704.390	0.0161718
704.468	0.0160996
704.546	0.0161794
704.624	0.0162099
704.703	0.0161584
704.781	0.0163081
704.859	0.0162506
704.937	0.0162885
705.015	0.0161722
705.093	0.0163028
705.171	0.0160909
705.249	0.0161993
705.328	0.0161900
705.406	0.0161323
705.484	0.0161900
705.562	0.0162784
705.640	0.0162432
705.718	0.0159771
705.796	0.0161697
705.874	0.0162147
705.953	0.0161222
706.031	0.0160873
706.109	0.0161547
706.187	0.0162136
706.265	0.0161889
706.343	0.0161068
706.421	0.0161782
706.499	0.0162921
706.578	0.0161363
706.656	0.0163036
706.734	0.0162391
706.812	0.0161884
706.890	0.0161112
706.968	0.0159833
707.046	0.0161817
707.124	0.0162668
707.203	0.0162526
707.281	0.0161711
707.359	0.0161628
707.437	0.0161970
707.515	0.0160766
707.593	0.0162720
707.671	0.0161671
707.749	0.0161295
707.828	0.0162522
707.906	0.0161662
707.984	0.0161591
708.062	0.0162315
708.140	0.0162056
708.218	0.0162484
708.296	0.0162604
708.374	0.0161607
708.453	0.0159806
708.531	0.0160903
708.609	0.0160961
708.687	0.0161089
708.765	0.0164117
708.843	0.0162996
708.921	0.0161713
708.999	0.0161704
709.078	0.0162260
709.156	0.0161739
709.234	0.0162656
709.312	0.0162128
709.390	0.0162851
709.468	0.0161806
709.546	0.0161955
709.624	0.0161804
709.703	0.0162728
709.781	0.0162804
709.859	0.0161340
709.937	0.0161720
710.015	0.0162370
710.093	0.0162366
710.171	0.0162685
710.249	0.0163020
710.328	0.0163458
710.406	0.0162515
710.484	0.0162201
710.562	0.0160916
710.640	0.0162532
710.718	0.0162671
710.796	0.0161684
710.874	0.0160468
710.953	0.0161453
711.031	0.0162585
711.109	0.0162798
711.187	0.0162038
711.265	0.0161375
711.343	0.0161486
711.421	0.0161237
711.499	0.0162203
711.578	0.0161884
711.656	0.0162505
711.734	0.0161212
711.812	0.0162436
711.890	0.0160792
711.968	0.0161115
712.046	0.0161448
712.124	0.0162003
712.203	0.0161819
712.281	0.0161771
712.359	0.0160038
712.437	0.0162904
712.515	0.0161314
712.593	0.0160833
712.671	0.0161086
712.749	0.0161908
712.828	0.0160961
712.906	0.0161600
712.984	0.0162216
713.062	0.0160620
713.140	0.0162717
713.218	0.0162579
713.296	0.0162966
713.374	0.0161690
713.453	0.0162724
713.531	0.0159503
713.609	0.0160675
713.687	0.0161495
713.765	0.0161978
713.843	0.0161324
713.921	0.0161597
713.999	0.0160729
714.078	0.0160059
714.156	0.0162333
714.234	0.0161986
714.312	0.0161050
714.390	0.0159340
714.468	0.0160598
714.546	0.0161038
714.624	0.0161604
714.703	0.0162344
714.781	0.0161484
714.859	0.0160751
714.937	0.0162151
715.015	0.0161531
715.093	0.0160123
715.171	0.0161050
715.249	0.0162037
715.328	0.0160455
715.406	0.0161313
715.484	0.0160946
715.562	0.0161727
715.640	0.0162015
715.718	0.0161404
715.796	0.0161761
715.874	0.0161961
715.953	0.0162737
716.031	0.0162333
716.109	0.0161787
716.187	0.0162061
716.265	0.0161636
716.343	0.0161646
716.421	0.0160632
716.499	0.0161419
716.578	0.0162389
716.656	0.0162263
716.734	0.0161829
716.812	0.0162308
716.890	0.0160909
716.968	0.0161946
717.046	0.0163414
717.124	0.0161691
717.203	0.0162250
717.281	0.0161501
717.359	0.0163947
717.437	0.0162314
717.515	0.0162701
717.593	0.0162305
717.671	0.0161349
717.749	0.0161459
717.828	0.0160994
717.906	0.0160979
717.984	0.0162071
718.062	0.0160994
718.140	0.0163020
718.218	0.0163153
718.296	0.0160994
718.374	0.0161457
718.453	0.0161268
718.531	0.0161970
718.609	0.0162072
718.687	0.0160744
718.765	0.0162319
718.843	0.0161048
718.921	0.0162933
718.999	0.0162112
719.078	0.0163130
719.156	0.0160979
719.234	0.0160944
719.312	0.0163888
719.390	0.0163036
719.468	0.0161774
719.546	0.0161353
719.624	0.0163161
719.703	0.0163430
719.781	0.0161681
719.859	0.0161686
719.937	0.0162076
720.015	0.0161920
720.093	0.0162823
720.171	0.0161497
720.249	0.0161279
720.328	0.0162096
720.406	0.0160889
720.484	0.0161497
720.562	0.0160940
720.640	0.0163474
720.718	0.0162024
720.796	0.0161768
720.874	0.0162347
720.953	0.0161656
721.031	0.0162522
721.109	0.0162277
721.187	0.0161970
721.265	0.0162309
721.343	0.0162115
721.421	0.0161967
721.499	0.0160950
721.578	0.0161926
721.656	0.0162173
721.734	0.0161469
721.812	0.0162978
721.890	0.0162361
721.968	0.0161700
722.046	0.0162482
722.124	0.0162543
722.203	0.0163496
722.281	0.0161563
722.359	0.0162101
722.437	0.0161057
722.515	0.0162209
722.593	0.0161266
722.671	0.0163482
722.749	0.0162550
722.828	0.0162354
722.906	0.0161785
722.984	0.0162498
723.062	0.0163154
723.140	0.0162124
723.218	0.0162769
723.296	0.0162802
723.374	0.0162651
723.453	0.0163898
723.531	0.0162904
723.609	0.0160995
723.687	0.0162312
723.765	0.0163133
723.843	0.0161890
723.921	0.0162251
723.999	0.0162653
724.078	0.0161650
724.156	0.0160837
724.234	0.0162463
724.312	0.0162444
724.390	0.0161311
724.468	0.0162916
724.546	0.0161709
724.624	0.0162233
724.703	0.0161956
724.781	0.0162802
724.859	0.0162778
724.937	0.0162653
725.015	0.0162185
725.093	0.0162005
725.171	0.0162304
725.249	0.0162680
725.328	0.0163051
725.406	0.0161755
725.484	0.0162264
725.562	0.0162091
725.640	0.0161008
725.718	0.0162083
725.796	0.0162154
725.874	0.0161484
725.953	0.0161102
726.031	0.0162286
726.109	0.0162885
726.187	0.0161366
726.265	0.0162363
726.343	0.0162931
726.421	0.0162751
726.499	0.0162021
726.578	0.0161623
726.656	0.0161547
726.734	0.0162264
726.812	0.0161568
726.890	0.0162047
726.968	0.0161993
727.046	0.0162207
727.124	0.0161343
727.203	0.0161757
727.281	0.0163570
727.359	0.0160759
727.437	0.0161717
727.515	0.0162568
727.593	0.0163025
727.671	0.0162214
727.749	0.0162112
727.828	0.0161237
727.906	0.0162730
727.984	0.0161463
728.062	0.0161246
728.140	0.0162366
728.218	0.0162971
728.296	0.0162392
728.374	0.0162638
728.453	0.0160649
728.531	0.0161916
728.609	0.0161851
728.687	0.0162254
728.765	0.0161833
728.843	0.0162621
728.921	0.0161000
728.999	0.0162209
729.078	0.0162005
729.156	0.0162762
729.234	0.0162393
729.312	0.0161636
729.390	0.0161581
729.468	0.0162742
729.546	0.0161592
729.624	0.0161014
729.703	0.0160169
729.781	0.0161295
729.859	0.0162155
729.937	0.0161747
730.015	0.0162384
730.093	0.0161317
730.171	0.0161420
730.249	0.0163177
730.328	0.0162974
730.406	0.0162016
730.484	0.0162203
730.562	0.0161573
730.640	0.0162361
730.718	0.0162756
730.796	0.0161473
730.874	0.0161894
730.953	0.0163015
731.031	0.0162145
731.109	0.0161911
731.187	0.0162508
731.265	0.0162098
731.343	0.0161576
731.421	0.0162017
731.499	0.0161246
731.578	0.0161382
731.656	0.0161399
731.734	0.0162425
731.812	0.0163295
731.890	0.0160505
731.968	0.0162363
732.046	0.0162782
732.124	0.0160452
732.203	0.0160729
732.281	0.0161582
732.359	0.0162125
732.437	0.0161754
732.515	0.0160674
732.593	0.0160619
732.671	0.0161021
732.749	0.0161004
732.828	0.0161697
732.906	0.0160976
732.984	0.0160641
733.062	0.0160463
733.140	0.0161873
733.218	0.0161403
733.296	0.0160434
733.374	0.0161205
733.453	0.0161308
733.531	0.0163001
733.609	0.0162723
733.687	0.0161193
733.765	0.0160523
733.843	0.0161953
733.921	0.0162357
733.999	0.0161298
734.078	0.0162486
734.156	0.0162410
734.234	0.0161380
734.312	0.0162255
734.390	0.0161272
734.468	0.0162609
734.546	0.0161938
734.624	0.0160909
734.703	0.0161497
734.781	0.0160426
734.859	0.0160812
734.937	0.0160399
735.015	0.0159931
735.093	0.0160695
735.171	0.0161546
735.249	0.0160905
735.328	0.0161662
735.406	0.0160902
735.484	0.0160339
735.562	0.0161354
735.640	0.0161541
735.718	0.0161188
735.796	0.0160910
735.874	0.0161541
735.953	0.0160887
736.031	0.0162025
736.109	0.0161644
736.187	0.0162434
736.265	0.0161226
736.343	0.0160810
736.421	0.0161827
736.499	0.0161211
736.578	0.0161633
736.656	0.0161476
736.734	0.0161584
736.812	0.0161169
736.890	0.0161140
736.968	0.0161603
737.046	0.0162745
737.124	0.0160413
737.203	0.0160183
737.281	0.0162093
737.359	0.0161708
737.437	0.0161457
737.515	0.0161710
737.593	0.0161757
737.671	0.0160651
737.749	0.0161647
737.828	0.0161272
737.906	0.0160975
737.984	0.0161203
738.062	0.0161777
738.140	0.0160673
738.218	0.0160847
738.296	0.0160631
738.374	0.0161868
738.453	0.0161684
738.531	0.0162042
738.609	0.0162547
738.687	0.0162227
738.765	0.0161974
738.843	0.0163048
738.921	0.0161823
738.999	0.0162788
739.078	0.0163629
739.156	0.0161911
739.234	0.0162478
739.312	0.0163066
739.390	0.0162202
739.468	0.0164073
739.546	0.0163288
739.624	0.0162174
739.703	0.0162432
739.781	0.0163280
739.859	0.0161853
739.937	0.0161918
740.015	0.0161923
740.093	0.0161263
740.171	0.0162756
740.249	0.0163534
740.328	0.0161833
740.406	0.0163103
740.484	0.0162032
740.562	0.0160950
740.640	0.0162122
740.718	0.0163063
740.796	0.0161513
740.874	0.0161850
740.953	0.0162344
741.031	0.0162640
741.109	0.0162316
741.187	0.0162034
741.265	0.0161909
741.343	0.0162718
741.421	0.0162333
741.499	0.0161472
741.578	0.0161768
741.656	0.0160874
741.734	0.0163728
741.812	0.0162029
741.890	0.0160931
741.968	0.0162760
742.046	0.0162982
742.124	0.0162051
742.203	0.0162939
742.281	0.0161942
742.359	0.0163134
742.437	0.0162437
742.515	0.0163174
742.593	0.0162235
742.671	0.0161852
742.749	0.0160866
742.828	0.0161792
742.906	0.0161601
742.984	0.0162434
743.062	0.0161619
743.140	0.0162666
743.218	0.0162868
743.296	0.0160927
743.374	0.0161125
743.453	0.0161575
743.531	0.0163109
743.609	0.0161257
743.687	0.0161150
743.765	0.0161572
743.843	0.0162487
743.921	0.0163799
743.999	0.0160763
744.078	0.0162389
744.156	0.0162170
744.234	0.0161848
744.312	0.0162686
744.390	0.0162943
744.468	0.0160535
744.546	0.0162952
744.624	0.0162281
744.703	0.0163695
744.781	0.0163470
744.859	0.0162444
744.937	0.0163116
745.015	0.0161539
745.093	0.0162199
745.171	0.0162173
745.249	0.0162962
745.328	0.0162241
745.406	0.0163345
745.484	0.0163257
745.562	0.0161002
745.640	0.0162149
745.718	0.0162577
745.796	0.0161830
745.874	0.0162025
745.953	0.0162641
746.031	0.0163114
746.109	0.0161771
746.187	0.0160923
746.265	0.0163737
746.343	0.0163211
746.421	0.0161812
746.499	0.0161754
746.578	0.0162858
746.656	0.0162750
746.734	0.0163834
746.812	0.0164196
746.890	0.0161302
746.968	0.0162835
747.046	0.0162933
747.124	0.0161839
747.203	0.0162783
747.281	0.0162811
747.359	0.0162558
747.437	0.0163147
747.515	0.0163161
747.593	0.0163509
747.671	0.0163497
747.749	0.0161997
747.828	0.0162459
747.906	0.0160879
747.984	0.0162939
748.062	0.0161783
748.140	0.0161437
748.218	0.0163111
748.296	0.0162205
748.374	0.0162988
748.453	0.0163906
748.531	0.0163537
748.609	0.0163264
748.687	0.0162964
748.765	0.0162648
748.843	0.0164163
748.921	0.0164027
748.999	0.0163108
749.078	0.0162922
749.156	0.0163638
749.234	0.0164215
749.312	0.0163785
749.390	0.0163132
749.468	0.0164025
749.546	0.0164452
749.624	0.0163586
749.703	0.0164130
749.781	0.0164104
749.859	0.0163469
749.937	0.0163087
750.015	0.0164426
750.093	0.0163351
750.171	0.0162623
750.249	0.0162920
750.328	0.0162847
750.406	0.0162423
750.484	0.0164073
750.562	0.0163968
750.640	0.0161898
750.718	0.0163518
750.796	0.0163268
750.874	0.0163505
750.953	0.0163538
751.031	0.0162955
751.109	0.0163211
751.187	0.0162707
751.265	0.0161822
751.343	0.0162209
751.421	0.0162049
751.499	0.0163512
751.578	0.0162221
751.656	0.0163972
751.734	0.0163248
751.812	0.0163133
751.890	0.0163148
751.968	0.0164138
752.046	0.0164081
752.124	0.0163916
752.203	0.0162485
752.281	0.0162137
752.359	0.0162412
752.437	0.0161900
752.515	0.0162427
752.593	0.0164236
752.671	0.0163671
752.749	0.0163234
752.828	0.0162881
752.906	0.0164402
752.984	0.0163447
753.062	0.0164381
753.140	0.0164555
753.218	0.0164929
753.296	0.0162713
753.374	0.0164100
753.453	0.0163768
753.531	0.0162661
753.609	0.0163241
753.687	0.0163104
753.765	0.0162664
753.843	0.0160325
753.921	0.0162717
753.999	0.0161587
754.078	0.0162359
754.156	0.0162021
754.234	0.0160514
754.312	0.0162594
754.390	0.0162698
754.468	0.0161906
754.546	0.0160960
754.624	0.0161502
754.703	0.0161685
754.781	0.0161671
754.859	0.0161504
754.937	0.0161568
755.015	0.0162034
755.093	0.0161679
755.171	0.0161706
755.249	0.0163356
755.328	0.0162713
755.406	0.0162749
755.484	0.0161213
755.562	0.0161153
755.640	0.0163293
755.718	0.0162411
755.796	0.0163042
755.874	0.0162622
755.953	0.0162241
756.031	0.0161416
756.109	0.0162660
756.187	0.0162150
756.265	0.0163024
756.343	0.0162869
756.421	0.0161886
756.499	0.0162150
756.578	0.0162000
756.656	0.0161372
756.734	0.0162251
756.812	0.0162476
756.890	0.0162464
756.968	0.0161422
757.046	0.0161150
757.124	0.0161589
757.203	0.0159924
757.281	0.0161146
757.359	0.0161723
757.437	0.0160781
757.515	0.0159683
757.593	0.0160065
757.671	0.0160339
757.749	0.0161399
757.828	0.0160853
757.906	0.0161436
757.984	0.0162021
758.062	0.0162705
758.140	0.0163041
758.218	0.0163124
758.296	0.0164718
758.374	0.0163989
758.453	0.0163342
758.531	0.0163591
758.609	0.0164727
758.687	0.0164955
758.765	0.0165417
758.843	0.0162841
758.921	0.0163138
758.999	0.0164520
759.078	0.0163866
759.156	0.0162781
759.234	0.0164305
759.312	0.0162527
759.390	0.0162399
759.468	0.0163194
759.546	0.0162987
759.624	0.0162558
759.703	0.0162409
759.781	0.0161583
759.859	0.0161266
759.937	0.0161756
760.015	0.0160768
760.093	0.0160188
760.171	0.0159772
760.249	0.0161804
760.328	0.0161353
760.406	0.0160256
760.484	0.0160899
760.562	0.0159480
760.640	0.0161561
760.718	0.0161450
760.796	0.0162437
760.874	0.0161151
760.953	0.0161371
761.031	0.0160822
761.109	0.0160553
761.187	0.0161371
761.265	0.0159965
761.343	0.0160602
761.421	0.0162083
761.499	0.0161382
761.578	0.0161854
761.656	0.0162279
761.734	0.0163358
761.812	0.0164916
761.890	0.0165990
761.968	0.0164750
762.046	0.0165239
762.124	0.0166499
762.203	0.0165269
762.281	0.0166082
762.359	0.0165567
762.437	0.0165545
762.515	0.0165002
762.593	0.0165347
762.671	0.0164735
762.749	0.0164043
762.828	0.0163938
762.906	0.0164219
762.984	0.0163530
763.062	0.0163949
763.140	0.0165254
763.218	0.0164489
763.296	0.0163963
763.374	0.0162132
763.453	0.0162518
763.531	0.0163335
763.609	0.0161761
763.687	0.0163187
763.765	0.0163816
763.843	0.0161946
763.921	0.0162006
763.999	0.0162833
764.078	0.0162253
764.156	0.0162040
764.234	0.0161993
764.312	0.0161919
764.390	0.0161433
764.468	0.0161178
764.546	0.0160692
764.624	0.0160315
764.703	0.0160242
764.781	0.0158069
764.859	0.0158063
764.937	0.0159768
765.015	0.0159455
765.093	0.0160806
765.171	0.0160860
765.249	0.0161376
765.328	0.0161005
765.406	0.0161522
765.484	0.0163062
765.562	0.0162753
765.640	0.0163142
765.718	0.0163486
765.796	0.0163683
765.874	0.0165115
765.953	0.0165218
766.031	0.0164790
766.109	0.0165572
766.187	0.0165620
766.265	0.0165775
766.343	0.0165495
766.421	0.0164332
766.499	0.0165191
766.578	0.0164553
766.656	0.0164724
766.734	0.0163930
766.812	0.0163483
766.890	0.0164096
766.968	0.0164759
767.046	0.0163914
767.124	0.0163137
767.203	0.0163960
767.281	0.0162712
767.359	0.0162334
767.437	0.0163208
767.515	0.0163072
767.593	0.0162073
767.671	0.0161062
767.749	0.0161588
767.828	0.0160267
767.906	0.0161282
767.984	0.0159589
768.062	0.0160680
768.140	0.0157423
768.218	0.0159510
768.296	0.0160333
768.374	0.0160685
768.453	0.0160578
768.531	0.0161121
768.609	0.0162343
768.687	0.0161923
768.765	0.0162162
768.843	0.0162646
768.921	0.0163129
768.999	0.0163470
769.078	0.0163586
769.156	0.0165324
769.234	0.0165653
769.312	0.0165480
769.390	0.0163786
769.468	0.0164199
769.546	0.0164856
769.624	0.0164557
769.703	0.0165121
769.781	0.0165414
769.859	0.0165828
769.937	0.0167525
770.015	0.0165714
770.093	0.0166845
770.171	0.0167000
770.249	0.0167154
770.328	0.0166701
770.406	0.0166253
770.484	0.0166669
770.562	0.0166559
770.640	0.0164158
770.718	0.0163266
770.796	0.0163484
770.874	0.0162817
770.953	0.0162266
771.031	0.0162445
771.109	0.0161250
771.187	0.0159991
771.265	0.0160680
771.343	0.0160065
771.421	0.0161290
771.499	0.0159445
771.578	0.0160950
771.656	0.0163768
771.734	0.0161797
771.812	0.0160943
771.890	0.0162264
771.968	0.0161305
772.046	0.0161819
772.124	0.0161987
772.203	0.0160651
772.281	0.0161955
772.359	0.0161461
772.437	0.0162725
772.515	0.0161946
772.593	0.0162498
772.671	0.0163503
772.749	0.0162566
772.828	0.0162334
772.906	0.0163309
772.984	0.0163142
773.062	0.0162592
773.140	0.0162344
773.218	0.0162636
773.296	0.0162323
773.374	0.0163586
773.453	0.0162892
773.531	0.0163302
773.609	0.0163030
773.687	0.0163374
773.765	0.0165407
773.843	0.0165813
773.921	0.0166955
773.999	0.0168017
774.078	0.0169942
774.156	0.0169482
774.234	0.0169086
774.312	0.0167931
774.390	0.0166732
774.468	0.0169187
774.546	0.0167624
774.624	0.0167162
774.703	0.0167142
774.781	0.0165714
774.859	0.0164294
774.937	0.0164134
775.015	0.0162999
775.093	0.0162912
775.171	0.0161464
775.249	0.0160407
775.328	0.0159123
775.406	0.0158194
775.484	0.0159422
775.562	0.0158096
775.640	0.0158293
775.718	0.0158863
775.796	0.0158623
775.874	0.0159134
775.953	0.0157948
776.031	0.0159013
776.109	0.0160501
776.187	0.0159988
776.265	0.0162451
776.343	0.0160941
776.421	0.0160527
776.499	0.0161149
776.578	0.0163095
776.656	0.0162452
776.734	0.0161658
776.812	0.0162833
776.890	0.0163096
776.968	0.0163139
777.046	0.0162915
777.124	0.0163021
777.203	0.0164083
777.281	0.0165746
777.359	0.0164494
777.437	0.0164449
777.515	0.0164605
777.593	0.0165762
777.671	0.0166124
777.749	0.0166010
777.828	0.0165059
777.906	0.0166299
777.984	0.0164738
778.062	0.0165488
778.140	0.0164800
778.218	0.0165726
778.296	0.0164431
778.374	0.0164867
778.453	0.0163310
778.531	0.0162121
778.609	0.0164613
778.687	0.0164986
778.765	0.0166081
778.843	0.0164303
778.921	0.0164062
778.999	0.0164013
779.078	0.0163229
779.156	0.0163402
779.234	0.0161915
779.312	0.0162585
779.390	0.0162292
779.468	0.0163154
779.546	0.0161699
779.624	0.0160274
779.703	0.0160756
779.781	0.0160591
779.859	0.0160745
779.937	0.0160649
780.015	0.0160475
780.093	0.0160163
780.171	0.0159959
780.249	0.0160020
780.328	0.0160655
780.406	0.0159937
780.484	0.0160419
780.562	0.0161244
780.640	0.0160970
780.718	0.0164107
780.796	0.0165025
780.874	0.0165030
780.953	0.0165458
781.031	0.0167099
781.109	0.0167586
781.187	0.0167872
781.265	0.0168839
781.343	0.0167715
781.421	0.0167776
781.499	0.0167538
781.578	0.0167500
781.656	0.0167480
781.734	0.0166953
781.812	0.0166151
781.890	0.0164299
781.968	0.0163451
782.046	0.0161962
782.124	0.0162215
782.203	0.0161323
782.281	0.0161646
782.359	0.0160474
782.437	0.0159798
782.515	0.0160132
782.593	0.0159978
782.671	0.0157302
782.749	0.0156947
782.828	0.0155955
782.906	0.0156477
782.984	0.0156378
783.062	0.0155000
783.140	0.0155405
783.218	0.0155611
783.296	0.0156820
783.374	0.0159215
783.453	0.0159878
783.531	0.0158772
783.609	0.0159464
783.687	0.0160538
783.765	0.0162083
783.843	0.0162452
783.921	0.0163634
783.999	0.0163866
784.078	0.0164022
784.156	0.0163912
784.234	0.0165660
784.312	0.0166309
784.390	0.0166278
784.468	0.0166875
784.546	0.0167953
784.624	0.0166840
784.703	0.0166953
784.781	0.0169009
784.859	0.0168964
784.937	0.0167502
785.015	0.0167155
785.093	0.0167318
785.171	0.0168711
785.249	0.0167214
785.328	0.0167468
785.406	0.0165741
785.484	0.0164139
785.562	0.0164955
785.640	0.0164324
785.718	0.0162977
785.796	0.0161832
785.874	0.0160666
785.953	0.0160214
786.031	0.0159909
786.109	0.0160466
786.187	0.0159050
786.265	0.0158817
786.343	0.0159368
786.421	0.0157478
786.499	0.0157834
786.578	0.0157697
786.656	0.0156820
786.734	0.0158350
786.812	0.0157557
786.890	0.0157973
786.968	0.0159764
787.046	0.0156842
787.124	0.0157313
787.203	0.0157403
787.281	0.0157194
787.359	0.0156624
787.437	0.0158524
787.515	0.0158432
787.593	0.0159599
787.671	0.0160935
787.749	0.0161076
787.828	0.0161057
787.906	0.0163628
787.984	0.0164156
788.062	0.0163225
788.140	0.0164473
788.218	0.0165988
788.296	0.0166370
788.374	0.0166620
788.453	0.0167079
788.531	0.0165513
788.609	0.0166541
788.687	0.0167561
788.765	0.0165775
788.843	0.0167231
788.921	0.0166456
788.999	0.0165889
789.078	0.0166276
789.156	0.0166434
789.234	0.0166904
789.312	0.0165921
789.390	0.0165614
789.468	0.0164101
789.546	0.0164133
789.624	0.0164531
789.703	0.0164722
789.781	0.0165607
789.859	0.0163458
789.937	0.0162276
790.015	0.0162782
790.093	0.0163629
790.171	0.0163386
790.249	0.0161077
790.328	0.0161774
790.406	0.0161340
790.484	0.0161600
790.562	0.0160219
790.640	0.0160761
790.718	0.0161262
790.796	0.0160350
790.874	0.0159657
790.953	0.0158544
791.031	0.0158322
791.109	0.0158594
791.187	0.0159227
791.265	0.0158346
791.343	0.0160502
791.421	0.0158453
791.499	0.0159415
791.578	0.0160527
791.656	0.0161451
791.734	0.0162478
791.812	0.0162902
791.890	0.0163042
791.968	0.0165154
792.046	0.0165442
792.124	0.0166959
792.203	0.0166180
792.281	0.0165891
792.359	0.0165614
792.437	0.0164545
792.515	0.0164934
792.593	0.0162820
792.671	0.0163074
792.749	0.0163773
792.828	0.0161097
792.906	0.0161364
792.984	0.0159157
793.062	0.0160007
793.140	0.0159128
793.218	0.0158748
793.296	0.0159895
793.374	0.0159409
793.453	0.0157190
793.531	0.0158209
793.609	0.0159222
793.687	0.0156335
793.765	0.0157352
793.843	0.0159188
793.921	0.0157750
793.999	0.0158576
794.078	0.0159727
794.156	0.0159680
794.234	0.0160241
794.312	0.0161078
794.390	0.0160361
794.468	0.0161561
794.546	0.0162423
794.624	0.0164821
794.703	0.0164227
794.781	0.0166003
794.859	0.0166055
794.937	0.0166047
795.015	0.0167316
795.093	0.0168047
795.171	0.0169249
795.249	0.0169790
795.328	0.0169061
795.406	0.0171084
795.484	0.0169852
795.562	0.0168616
795.640	0.0168442
795.718	0.0167548
795.796	0.0167455
795.874	0.0166406
795.953	0.0166020
796.031	0.0163746
796.109	0.0163659
796.187	0.0164210
796.265	0.0163344
796.343	0.0162713
796.421	0.0163033
796.499	0.0162504
796.578	0.0161539
796.656	0.0159623
796.734	0.0159589
796.812	0.0159922
796.890	0.0158907
796.968	0.0158049
797.046	0.0157496
797.124	0.0155853
797.203	0.0156538
797.281	0.0156190
797.359	0.0155209
797.437	0.0154919
797.515	0.0154865
797.593	0.0154905
797.671	0.0156869
797.749	0.0156476
797.828	0.0156731
797.906	0.0159062
797.984	0.0157628
798.062	0.0157590
798.140	0.0159676
798.218	0.0158869
798.296	0.0160023
798.374	0.0162927
798.453	0.0161434
798.531	0.0163184
798.609	0.0163998
798.687	0.0164108
798.765	0.0164864
798.843	0.0166883
798.921	0.0165215
798.999	0.0165985
799.078	0.0165503
799.156	0.0166256
799.234	0.0165483
799.312	0.0165506
799.390	0.0165553
799.468	0.0164998
799.546	0.0165510
799.624	0.0164131
799.703	0.0164749
799.781	0.0165320
799.859	0.0164082
799.937	0.0164638
800.015	0.0164742
800.093	0.0164672
800.171	0.0163837
800.249	0.0163136
800.328	0.0164672
800.406	0.0164288
800.484	0.0163569
800.562	0.0163725
800.640	0.0164400
800.718	0.0164133
800.796	0.0163559
800.874	0.0164659
800.953	0.0163567
801.031	0.0162033
801.109	0.0162843
801.187	0.0161629
801.265	0.0161521
801.343	0.0161609
801.421	0.0161775
801.499	0.0161234
801.578	0.0161835
801.656	0.0159882
801.734	0.0160585
801.812	0.0160697
801.890	0.0160541
801.968	0.0160045
802.046	0.0158178
802.124	0.0159713
802.203	0.0159818
802.281	0.0160060
802.359	0.0159927
802.437	0.0159726
802.515	0.0159541
802.593	0.0159695
802.671	0.0159755
802.749	0.0158439
802.828	0.0159487
802.906	0.0160438
802.984	0.0160346
803.062	0.0159415
803.140	0.0160107
803.218	0.0160415
803.296	0.0161439
803.374	0.0161492
803.453	0.0162566
803.531	0.0163006
803.609	0.0161200
803.687	0.0163483
803.765	0.0162624
803.843	0.0163496
803.921	0.0161989
803.999	0.0162746
804.078	0.0162720
804.156	0.0163924
804.234	0.0162386
804.312	0.0162443
804.390	0.0163261
804.468	0.0164644
804.546	0.0165854
804.624	0.0164555
804.703	0.0165189
804.781	0.0164993
804.859	0.0164069
804.937	0.0163448
805.015	0.0163934
805.093	0.0163500
805.171	0.0162865
805.249	0.0164632
805.328	0.0164311
805.406	0.0163800
805.484	0.0162885
805.562	0.0163906
805.640	0.0164962
805.718	0.0166116
805.796	0.0165424
805.874	0.0167124
805.953	0.0165981
806.031	0.0165099
806.109	0.0167745
806.187	0.0166879
806.265	0.0166281
806.343	0.0165008
806.421	0.0165564
806.499	0.0164980
806.578	0.0164894
806.656	0.0163152
806.734	0.0162036
806.812	0.0161124
806.890	0.0160141
806.968	0.0160361
807.046	0.0159155
807.124	0.0160548
807.203	0.0158676
807.281	0.0157732
807.359	0.0158642
807.437	0.0159460
807.515	0.0160536
807.593	0.0156855
807.671	0.0157104
807.749	0.0158411
807.828	0.0158308
807.906	0.0158999
807.984	0.0157852
808.062	0.0158573
808.140	0.0159994
808.218	0.0159250
808.296	0.0158469
808.374	0.0158601
808.453	0.0158790
808.531	0.0161852
808.609	0.0161356
808.687	0.0160441
808.765	0.0160915
808.843	0.0161166
808.921	0.0159660
808.999	0.0161991
809.078	0.0162142
809.156	0.0162798
809.234	0.0163470
809.312	0.0162980
809.390	0.0164824
809.468	0.0163702
809.546	0.0164640
809.624	0.0165613
809.703	0.0164761
809.781	0.0164365
809.859	0.0164701
809.937	0.0163742
810.015	0.0165489
810.093	0.0164764
810.171	0.0166321
810.249	0.0167067
810.328	0.0166486
810.406	0.0165370
810.484	0.0166563
810.562	0.0166842
810.640	0.0167048
810.718	0.0167416
810.796	0.0165259
810.874	0.0165950
810.953	0.0164919
811.031	0.0166673
811.109	0.0166407
811.187	0.0164778
811.265	0.0163609
811.343	0.0165257
811.421	0.0164639
811.499	0.0162937
811.578	0.0163597
811.656	0.0161597
811.734	0.0161344
811.812	0.0159858
811.890	0.0158856
811.968	0.0157957
812.046	0.0157221
812.124	0.0156525
812.203	0.0154875
812.281	0.0153921
812.359	0.0155620
812.437	0.0155871
812.515	0.0155386
812.593	0.0154092
812.671	0.0153941
812.749	0.0154605
812.828	0.0155612
812.906	0.0155470
812.984	0.0155182
813.062	0.0155936
813.140	0.0157649
813.218	0.0158055
813.296	0.0159814
813.374	0.0160118
813.453	0.0162038
813.531	0.0163590
813.609	0.0163811
813.687	0.0166147
813.765	0.0166616
813.843	0.0167500
813.921	0.0167297
813.999	0.0168813
814.078	0.0168513
814.156	0.0168478
814.234	0.0167507
814.312	0.0166925
814.390	0.0166290
814.468	0.0164966
814.546	0.0164828
814.624	0.0164436
814.703	0.0163410
814.781	0.0162687
814.859	0.0162165
814.937	0.0161983
815.015	0.0160026
815.093	0.0159628
815.171	0.0161693
815.249	0.0160910
815.328	0.0160018
815.406	0.0158407
815.484	0.0159128
815.562	0.0161404
815.640	0.0159931
815.718	0.0161066
815.796	0.0160471
815.874	0.0161111
815.953	0.0161164
816.031	0.0162514
816.109	0.0162012
816.187	0.0163492
816.265	0.0161948
816.343	0.0163630
816.421	0.0163698
816.499	0.0163724
816.578	0.0162089
816.656	0.0161938
816.734	0.0162154
816.812	0.0162239
816.890	0.0162417
816.968	0.0160528
817.046	0.0159930
817.124	0.0159986
817.203	0.0159002
817.281	0.0160772
817.359	0.0158130
817.437	0.0158215
817.515	0.0157308
817.593	0.0157057
817.671	0.0157932
817.749	0.0157715
817.828	0.0157586
817.906	0.0155553
817.984	0.0156197
818.062	0.0157182
818.140	0.0156754
818.218	0.0156281
818.296	0.0155427
818.374	0.0157269
818.453	0.0156731
818.531	0.0157169
818.609	0.0157422
818.687	0.0158309
818.765	0.0160297
818.843	0.0160596
818.921	0.0161023
818.999	0.0162257
819.078	0.0163028
819.156	0.0165208
819.234	0.0165747
819.312	0.0166976
819.390	0.0166775
819.468	0.0168133
819.546	0.0168548
819.624	0.0168679
819.703	0.0169581
819.781	0.0169272
819.859	0.0168435
819.937	0.0167647
820.015	0.0167632
820.093	0.0167740
820.171	0.0165405
820.249	0.0164009
820.328	0.0163566
820.406	0.0162064
820.484	0.0160828
820.562	0.0160329
820.640	0.0159200
820.718	0.0158220
820.796	0.0157391
820.874	0.0159386
820.953	0.0157008
821.031	0.0155731
821.109	0.0157758
821.187	0.0157713
821.265	0.0158105
821.343	0.0157227
821.421	0.0158100
821.499	0.0159404
821.578	0.0159898
821.656	0.0160953
821.734	0.0161774
821.812	0.0160435
821.890	0.0161523
821.968	0.0163289
822.046	0.0162309
822.124	0.0163142
822.203	0.0163084
822.281	0.0164686
822.359	0.0165625
822.437	0.0167007
822.515	0.0166756
822.593	0.0168542
822.671	0.0167839
822.749	0.0166214
822.828	0.0164568
822.906	0.0165614
822.984	0.0165820
823.062	0.0164520
823.140	0.0162561
823.218	0.0160912
823.296	0.0160838
823.374	0.0159909
823.453	0.0159557
823.531	0.0159410
823.609	0.0157819
823.687	0.0157912
823.765	0.0156583
823.843	0.0157091
823.921	0.0156652
823.999	0.0157175
824.078	0.0156470
824.156	0.0157980
824.234	0.0156419
824.312	0.0156529
824.390	0.0157574
824.468	0.0159243
824.546	0.0160804
824.624	0.0161598
824.703	0.0161770
824.781	0.0162276
824.859	0.0163536
824.937	0.0163721
825.015	0.0165170
825.093	0.0166331
825.171	0.0165143
825.249	0.0167229
825.328	0.0167783
825.406	0.0169039
825.484	0.0168816
825.562	0.0169268
825.640	0.0169733
825.718	0.0169134
825.796	0.0170046
825.874	0.0170224
825.953	0.0169395
826.031	0.0168485
826.109	0.0170571
826.187	0.0169026
826.265	0.0167210
826.343	0.0166964
826.421	0.0166138
826.499	0.0165250
826.578	0.0163729
826.656	0.0161510
826.734	0.0161564
826.812	0.0159504
826.890	0.0160222
826.968	0.0158833
827.046	0.0158607
827.124	0.0156879
827.203	0.0157245
827.281	0.0157224
827.359	0.0157034
827.437	0.0156328
827.515	0.0154393
827.593	0.0155934
827.671	0.0156539
827.749	0.0157428
827.828	0.0157310
827.906	0.0158768
827.984	0.0160691
828.062	0.0158015
828.140	0.0160173
828.218	0.0162897
828.296	0.0162391
828.374	0.0162030
828.453	0.0163351
828.531	0.0163760
828.609	0.0164061
828.687	0.0164849
828.765	0.0166142
828.843	0.0165791
828.921	0.0165355
828.999	0.0167606
829.078	0.0167621
829.156	0.0168164
829.234	0.0167745
829.312	0.0169707
829.390	0.0170832
829.468	0.0169530
829.546	0.0169028
829.624	0.0170040
829.703	0.0170820
829.781	0.0172304
829.859	0.0170196
829.937	0.0169569
830.015	0.0169191
830.093	0.0169790
830.171	0.0168923
830.249	0.0167461
830.328	0.0166292
830.406	0.0167345
830.484	0.0163783
830.562	0.0164004
830.640	0.0163974
830.718	0.0162872
830.796	0.0161860
830.874	0.0159454
830.953	0.0159936
831.031	0.0159265
831.109	0.0157880
831.187	0.0157062
831.265	0.0157467
831.343	0.0159273
831.421	0.0157781
831.499	0.0158144
831.578	0.0159354
831.656	0.0159686
831.734	0.0159072
831.812	0.0160466
831.890	0.0160058
831.968	0.0162168
832.046	0.0163311
832.124	0.0162708
832.203	0.0163045
832.281	0.0164595
832.359	0.0162286
832.437	0.0164228
832.515	0.0164788
832.593	0.0164259
832.671	0.0165189
832.749	0.0166061
832.828	0.0165657
832.906	0.0165885
832.984	0.0165671
833.062	0.0167701
833.140	0.0166773
833.218	0.0166608
833.296	0.0166463
833.374	0.0166575
833.453	0.0165912
833.531	0.0167018
833.609	0.0167093
833.687	0.0166296
833.765	0.0165809
833.843	0.0166354
833.921	0.0165673
833.999	0.0164855
834.078	0.0164672
834.156	0.0163006
834.234	0.0162985
834.312	0.0163921
834.390	0.0163287
834.468	0.0163474
834.546	0.0163335
834.624	0.0162090
834.703	0.0162714
834.781	0.0161574
834.859	0.0161050
834.937	0.0161587
835.015	0.0160583
835.093	0.0159203
835.171	0.0160242
835.249	0.0160560
835.328	0.0161024
835.406	0.0159978
835.484	0.0160378
835.562	0.0161150
835.640	0.0160371
835.718	0.0159848
835.796	0.0161178
835.874	0.0161817
835.953	0.0162331
836.031	0.0163375
836.109	0.0163087
836.187	0.0163760
836.265	0.0162470
836.343	0.0162927
836.421	0.0164777
836.499	0.0164603
836.578	0.0164276
836.656	0.0164700
836.734	0.0166132
836.812	0.0164803
836.890	0.0162793
836.968	0.0163662
837.046	0.0166638
837.124	0.0164197
837.203	0.0163618
837.281	0.0164138
837.359	0.0163841
837.437	0.0163276
837.515	0.0163089
837.593	0.0163843
837.671	0.0162152
837.749	0.0162482
837.828	0.0163224
837.906	0.0161023
837.984	0.0160618
838.062	0.0159778
838.140	0.0160748
838.218	0.0160431
838.296	0.0160274
838.374	0.0160006
838.453	0.0158308
838.531	0.0158643
838.609	0.0157441
838.687	0.0157737
838.765	0.0157466
838.843	0.0157152
838.921	0.0157233
838.999	0.0158868
839.078	0.0159067
839.156	0.0157966
839.234	0.0159757
839.312	0.0158034
839.390	0.0157858
839.468	0.0160819
839.546	0.0160221
839.624	0.0161507
839.703	0.0161088
839.781	0.0161584
839.859	0.0163328
839.937	0.0163144
840.015	0.0164550
840.093	0.0167896
840.171	0.0166097
840.249	0.0165926
840.328	0.0166460
840.406	0.0165627
840.484	0.0166239
840.562	0.0165886
840.640	0.0166164
840.718	0.0167379
840.796	0.0164693
840.874	0.0166480
840.953	0.0163233
841.031	0.0162975
841.109	0.0163682
841.187	0.0164558
841.265	0.0162449
841.343	0.0163238
841.421	0.0161958
841.499	0.0160743
841.578	0.0160310
841.656	0.0161395
841.734	0.0158466
841.812	0.0158693
841.890	0.0159151
841.968	0.0159141
842.046	0.0158984
842.124	0.0158424
842.203	0.0160329
842.281	0.0158686
842.359	0.0158089
842.437	0.0157684
842.515	0.0157727
842.593	0.0158591
842.671	0.0160573
842.749	0.0160899
842.828	0.0160706
842.906	0.0159783
842.984	0.0161127
843.062	0.0162819
843.140	0.0162470
843.218	0.0164064
843.296	0.0165037
843.374	0.0165372
843.453	0.0165370
843.531	0.0165885
843.609	0.0165113
843.687	0.0165172
843.765	0.0165272
843.843	0.0166175
843.921	0.0165830
843.999	0.0164912
844.078	0.0165009
844.156	0.0164103
844.234	0.0162709
844.312	0.0164210
844.390	0.0163255
844.468	0.0161475
844.546	0.0163407
844.624	0.0162390
844.703	0.0160323
844.781	0.0159376
844.859	0.0159915
844.937	0.0159229
845.015	0.0160558
845.093	0.0159897
845.171	0.0160089
845.249	0.0159280
845.328	0.0159751
845.406	0.0160245
845.484	0.0161034
845.562	0.0161023
845.640	0.0160709
845.718	0.0160155
845.796	0.0159421
845.874	0.0160374
845.953	0.0161235
846.031	0.0161443
846.109	0.0161822
846.187	0.0161375
846.265	0.0162247
846.343	0.0162785
846.421	0.0163513
846.499	0.0163739
846.578	0.0164039
846.656	0.0164171
846.734	0.0164758
846.812	0.0164532
846.890	0.0165357
846.968	0.0165336
847.046	0.0166492
847.124	0.0165786
847.203	0.0164616
847.281	0.0164741
847.359	0.0165308
847.437	0.0165700
847.515	0.0165434
847.593	0.0164027
847.671	0.0164309
847.749	0.0165478
847.828	0.0164674
847.906	0.0166190
847.984	0.0163685
848.062	0.0164074
848.140	0.0163693
848.218	0.0163957
848.296	0.0162143
848.374	0.0162995
848.453	0.0161397
848.531	0.0162356
848.609	0.0161967
848.687	0.0162556
848.765	0.0161202
848.843	0.0161917
848.921	0.0162281
848.999	0.0161369
849.078	0.0163342
849.156	0.0162795
849.234	0.0162547
849.312	0.0162225
849.390	0.0162868
849.468	0.0163229
849.546	0.0163692
849.624	0.0163713
849.703	0.0164249
849.781	0.0164762
849.859	0.0164180
849.937	0.0164788
850.015	0.0165318
850.093	0.0165372
850.171	0.0165632
850.249	0.0166564
850.328	0.0164982
850.406	0.0165434
850.484	0.0164926
850.562	0.0166346
850.640	0.0167294
850.718	0.0164654
850.796	0.0164791
850.874	0.0165389
850.953	0.0164124
851.031	0.0163364
851.109	0.0162951
851.187	0.0163018
851.265	0.0162177
851.343	0.0161291
851.421	0.0162083
851.499	0.0161895
851.578	0.0162112
851.656	0.0161786
851.734	0.0160840
851.812	0.0160995
851.890	0.0162565
851.968	0.0162869
852.046	0.0162392
852.124	0.0161816
852.203	0.0164261
852.281	0.0163259
852.359	0.0163834
852.437	0.0163860
852.515	0.0162974
852.593	0.0164856
852.671	0.0164796
852.749	0.0162630
852.828	0.0162751
852.906	0.0163497
852.984	0.0164825
853.062	0.0164485
853.140	0.0163560
853.218	0.0164873
853.296	0.0164118
853.374	0.0165672
853.453	0.0165527
853.531	0.0164594
853.609	0.0162691
853.687	0.0163782
853.765	0.0165250
853.843	0.0164758
853.921	0.0163689
853.999	0.0165491
854.078	0.0163701
854.156	0.0163626
854.234	0.0164479
854.312	0.0163610
854.390	0.0163338
854.468	0.0164219
854.546	0.0162449
854.624	0.0162991
854.703	0.0162215
854.781	0.0163753
854.859	0.0163049
854.937	0.0162969
855.015	0.0162249
855.093	0.0163293
855.171	0.0161452
855.249	0.0161871
855.328	0.0163860
855.406	0.0162596
855.484	0.0162309
855.562	0.0160606
855.640	0.0161631
855.718	0.0162192
855.796	0.0163874
855.874	0.0162961
855.953	0.0161665
856.031	0.0163803
856.109	0.0164070
856.187	0.0163578
856.265	0.0162741
856.343	0.0162045
856.421	0.0163038
856.499	0.0161791
856.578	0.0161768
856.656	0.0161088
856.734	0.0162063
856.812	0.0162213
856.890	0.0161010
856.968	0.0161104
857.046	0.0162258
857.124	0.0161442
857.203	0.0161385
857.281	0.0161873
857.359	0.0162132
857.437	0.0161595
857.515	0.0159586
857.593	0.0161730
857.671	0.0162197
857.749	0.0162955
857.828	0.0162167
857.906	0.0163256
857.984	0.0164204
858.062	0.0162831
858.140	0.0162503
858.218	0.0162326
858.296	0.0164039
858.374	0.0165770
858.453	0.0165213
858.531	0.0162833
858.609	0.0164556
858.687	0.0164688
858.765	0.0165419
858.843	0.0165432
858.921	0.0166095
858.999	0.0166544
859.078	0.0166978
859.156	0.0166428
859.234	0.0166747
859.312	0.0167796
859.390	0.0166026
859.468	0.0165891
859.546	0.0165791
859.624	0.0165759
859.703	0.0164235
859.781	0.0165025
859.859	0.0164330
859.937	0.0162202
860.015	0.0162427
860.093	0.0161995
860.171	0.0162534
860.249	0.0162353
860.328	0.0161641
860.406	0.0162105
860.484	0.0162234
860.562	0.0160564
860.640	0.0159962
860.718	0.0161620
860.796	0.0161288
860.874	0.0161832
860.953	0.0161722
861.031	0.0161108
861.109	0.0162743
861.187	0.0162856
861.265	0.0162824
861.343	0.0162629
861.421	0.0163336
861.499	0.0162444
861.578	0.0161871
861.656	0.0162115
861.734	0.0161713
861.812	0.0162315
861.890	0.0163148
861.968	0.0161991
862.046	0.0161836
862.124	0.0161303
862.203	0.0162002
862.281	0.0162039
862.359	0.0161202
862.437	0.0161623
862.515	0.0162613
862.593	0.0162186
862.671	0.0161609
862.749	0.0161794
862.828	0.0162253
862.906	0.0162835
862.984	0.0162220
863.062	0.0164436
863.140	0.0162056
863.218	0.0163380
863.296	0.0163862
863.374	0.0164178
863.453	0.0164197
863.531	0.0164703
863.609	0.0164446
863.687	0.0164743
863.765	0.0164936
863.843	0.0165356
863.921	0.0165305
863.999	0.0165688
864.078	0.0166379
864.156	0.0165340
864.234	0.0163741
864.312	0.0166206
864.390	0.0164435
864.468	0.0163245
864.546	0.0165180
864.624	0.0163829
864.703	0.0163602
864.781	0.0163564
864.859	0.0162269
864.937	0.0161162
865.015	0.0162986
865.093	0.0162791
865.171	0.0160979
865.249	0.0162199
865.328	0.0162836
865.406	0.0161546
865.484	0.0161289
865.562	0.0162063
865.640	0.0161630
865.718	0.0160355
865.796	0.0162236
865.874	0.0161715
865.953	0.0161181
866.031	0.0162115
866.109	0.0162746
866.187	0.0160856
866.265	0.0159741
866.343	0.0162031
866.421	0.0160899
866.499	0.0162479
866.578	0.0162120
866.656	0.0161595
866.734	0.0161525
866.812	0.0160925
866.890	0.0160278
866.968	0.0162968
867.046	0.0162945
867.124	0.0159579
867.203	0.0160362
867.281	0.0160532
867.359	0.0163338
867.437	0.0161697
867.515	0.0162330
867.593	0.0160715
867.671	0.0160404
867.749	0.0160849
867.828	0.0160960
867.906	0.0161561
867.984	0.0162742
868.062	0.0162128
868.140	0.0161034
868.218	0.0162220
868.296	0.0162265
868.374	0.0161521
868.453	0.0161978
868.531	0.0161423
868.609	0.0161312
868.687	0.0162411
868.765	0.0162577
868.843	0.0161922
868.921	0.0162006
868.999	0.0162663
869.078	0.0162151
869.156	0.0161610
869.234	0.0162460
869.312	0.0161825
869.390	0.0160555
869.468	0.0161890
869.546	0.0162230
869.624	0.0162384
869.703	0.0162401
869.781	0.0162231
869.859	0.0161625
869.937	0.0161921
870.015	0.0162633
870.093	0.0161694
870.171	0.0164555
870.249	0.0163428
870.328	0.0162666
870.406	0.0162543
870.484	0.0163326
870.562	0.0162839
870.640	0.0162614
870.718	0.0163328
870.796	0.0163521
870.874	0.0163798
870.953	0.0163274
871.031	0.0163589
871.109	0.0163869
871.187	0.0163654
871.265	0.0163723
871.343	0.0163249
871.421	0.0163686
871.499	0.0162471
871.578	0.0163641
871.656	0.0166299
871.734	0.0163479
871.812	0.0164391
871.890	0.0163385
871.968	0.0164023
872.046	0.0162872
872.124	0.0163167
872.203	0.0162983
872.281	0.0162598
872.359	0.0162042
872.437	0.0161746
872.515	0.0162482
872.593	0.0161423
872.671	0.0161705
872.749	0.0161425
872.828	0.0163448
872.906	0.0164246
872.984	0.0162189
873.062	0.0160799
873.140	0.0162611
873.218	0.0163698
873.296	0.0163681
873.374	0.0164434
873.453	0.0163820
873.531	0.0164296
873.609	0.0164748
873.687	0.0163375
873.765	0.0163064
873.843	0.0163884
873.921	0.0163074
873.999	0.0164026
874.078	0.0163525
874.156	0.0163589
874.234	0.0163976
874.312	0.0163852
874.390	0.0164059
874.468	0.0164068
874.546	0.0163637
874.624	0.0162417
874.703	0.0162727
874.781	0.0162902
874.859	0.0162174
874.937	0.0162708
875.015	0.0161639
875.093	0.0162352
875.171	0.0163181
875.249	0.0162224
875.328	0.0163250
875.406	0.0163272
875.484	0.0161893
875.562	0.0162213
875.640	0.0162282
875.718	0.0163055
875.796	0.0162586
875.874	0.0161625
875.953	0.0163719
876.031	0.0163113
876.109	0.0163268
876.187	0.0162141
876.265	0.0161480
876.343	0.0162595
876.421	0.0162637
876.499	0.0162872
876.578	0.0162287
876.656	0.0162033
876.734	0.0161482
876.812	0.0161547
876.890	0.0162294
876.968	0.0161401
877.046	0.0161069
877.124	0.0162180
877.203	0.0162394
877.281	0.0162331
877.359	0.0161766
877.437	0.0162346
877.515	0.0162403
877.593	0.0162798
877.671	0.0162527
877.749	0.0163168
877.828	0.0163207
877.906	0.0161855
877.984	0.0162718
878.062	0.0162586
878.140	0.0161916
878.218	0.0163531
878.296	0.0162059
878.374	0.0162730
878.453	0.0163859
878.531	0.0161257
878.609	0.0162028
878.687	0.0162524
878.765	0.0161407
878.843	0.0162173
878.921	0.0160461
878.999	0.0161913
879.078	0.0161965
879.156	0.0161201
879.234	0.0159827
879.312	0.0161954
879.390	0.0161938
879.468	0.0161606
879.546	0.0162362
879.624	0.0162366
879.703	0.0160720
879.781	0.0162257
879.859	0.0162108
879.937	0.0161976
880.015	0.0162035
880.093	0.0161668
880.171	0.0161295
880.249	0.0162348
880.328	0.0162368
880.406	0.0161069
880.484	0.0161025
880.562	0.0162214
880.640	0.0162730
880.718	0.0161981
880.796	0.0161771
880.874	0.0161732
880.953	0.0162040
881.031	0.0162009
881.109	0.0162265
881.187	0.0162689
881.265	0.0161930
881.343	0.0160789
881.421	0.0161030
881.499	0.0161748
881.578	0.0161578
881.656	0.0161929
881.734	0.0162253
881.812	0.0160594
881.890	0.0162229
881.968	0.0162769
882.046	0.0162406
882.124	0.0161105
882.203	0.0160144
882.281	0.0162361
882.359	0.0163387
882.437	0.0162124
882.515	0.0161691
882.593	0.0162058
882.671	0.0162975
882.749	0.0162557
882.828	0.0161066
882.906	0.0161254
882.984	0.0161633
883.062	0.0162309
883.140	0.0162424
883.218	0.0162166
883.296	0.0161514
883.374	0.0161448
883.453	0.0161190
883.531	0.0160901
883.609	0.0160719
883.687	0.0161409
883.765	0.0161834
883.843	0.0161832
883.921	0.0161685
883.999	0.0162228
884.078	0.0161298
884.156	0.0161465
884.234	0.0163306
884.312	0.0161327
884.390	0.0160838
884.468	0.0162659
884.546	0.0161112
884.624	0.0162351
884.703	0.0161925
884.781	0.0161408
884.859	0.0161885
884.937	0.0163715
885.015	0.0161787
885.093	0.0161669
885.171	0.0163035
885.249	0.0162454
885.328	0.0161961
885.406	0.0162560
885.484	0.0163361
885.562	0.0162640
885.640	0.0162705
885.718	0.0162357
885.796	0.0163174
885.874	0.0162444
885.953	0.0161382
886.031	0.0162132
886.109	0.0163179
886.187	0.0164368
886.265	0.0162703
886.343	0.0162000
886.421	0.0162115
886.499	0.0162517
886.578	0.0162650
886.656	0.0162511
886.734	0.0161151
886.812	0.0162858
886.890	0.0161240
886.968	0.0160347
887.046	0.0163158
887.124	0.0162601
887.203	0.0162263
887.281	0.0162479
887.359	0.0161219
887.437	0.0161106
887.515	0.0160542
887.593	0.0162380
887.671	0.0160622
887.749	0.0162798
887.828	0.0162915
887.906	0.0162128
887.984	0.0162138
888.062	0.0161674
888.140	0.0162541
888.218	0.0162546
888.296	0.0161884
888.374	0.0162971
888.453	0.0162585
888.531	0.0162048
888.609	0.0162473
888.687	0.0163174
888.765	0.0161320
888.843	0.0162955
888.921	0.0162882
888.999	0.0162836
889.078	0.0163026
889.156	0.0162475
889.234	0.0163498
889.312	0.0162890
889.390	0.0162482
889.468	0.0162296
889.546	0.0162724
889.624	0.0163757
889.703	0.0163072
889.781	0.0162846
889.859	0.0163371
889.937	0.0162165
890.015	0.0161884
890.093	0.0161922
890.171	0.0162466
890.249	0.0162722
890.328	0.0163127
890.406	0.0161935
890.484	0.0161756
890.562	0.0163819
890.640	0.0162869
890.718	0.0162579
890.796	0.0163056
890.874	0.0163647
890.953	0.0162400
891.031	0.0162955
891.109	0.0164328
891.187	0.0163799
891.265	0.0163781
891.343	0.0165099
891.421	0.0165146
891.499	0.0164933
891.578	0.0162696
891.656	0.0163885
891.734	0.0163076
891.812	0.0163050
891.890	0.0164124
891.968	0.0163523
892.046	0.0163648
892.124	0.0162016
892.203	0.0162253
892.281	0.0163201
892.359	0.0162055
892.437	0.0163651
892.515	0.0162459
892.593	0.0161569
892.671	0.0161195
892.749	0.0163079
892.828	0.0163578
892.906	0.0163523
892.984	0.0163348
893.062	0.0163032
893.140	0.0163503
893.218	0.0164056
893.296	0.0162207
893.374	0.0163854
893.453	0.0162253
893.531	0.0162697
893.609	0.0163271
893.687	0.0162663
893.765	0.0163933
893.843	0.0164553
893.921	0.0164229
893.999	0.0163612
894.078	0.0162869
894.156	0.0162596
894.234	0.0164393
894.312	0.0163654
894.390	0.0162507
894.468	0.0164182
894.546	0.0164706
894.624	0.0163441
894.703	0.0164193
894.781	0.0164021
894.859	0.0162888
894.937	0.0163437
895.015	0.0163627
895.093	0.0163686
895.171	0.0163364
895.249	0.0163437
895.328	0.0162984
895.406	0.0164104
895.484	0.0162329
895.562	0.0163200
895.640	0.0162997
895.718	0.0163131
895.796	0.0163025
895.874	0.0160606
895.953	0.0161629
896.031	0.0163176
896.109	0.0161242
896.187	0.0162066
896.265	0.0161504
896.343	0.0161691
896.421	0.0162270
896.499	0.0162601
896.578	0.0161686
896.656	0.0161333
896.734	0.0162543
896.812	0.0164168
896.890	0.0163441
896.968	0.0161814
897.046	0.0162946
897.124	0.0164482
897.203	0.0163410
897.281	0.0163215
897.359	0.0163031
897.437	0.0163821
897.515	0.0162964
897.593	0.0164089
897.671	0.0163823
897.749	0.0163512
897.828	0.0162712
897.906	0.0163063
897.984	0.0163391
898.062	0.0163970
898.140	0.0162447
898.218	0.0161510
898.296	0.0161915
898.374	0.0161688
898.453	0.0161778
898.531	0.0162412
898.609	0.0161835
898.687	0.0160081
898.765	0.0160681
898.843	0.0161278
898.921	0.0160442
898.999	0.0160565
899.078	0.0162794
899.156	0.0161781
899.234	0.0161876
899.312	0.0162116
899.390	0.0161976
899.468	0.0161698
899.546	0.0162111
899.624	0.0162385
899.703	0.0164796
899.781	0.0161985
899.859	0.0162114
899.937	0.0162086
900.015	0.0162043
900.093	0.0161169
900.171	0.0161938
900.249	0.0161912
900.328	0.0161352
900.406	0.0160349
900.484	0.0161118
900.562	0.0162601
900.640	0.0162736
900.718	0.0162280
900.796	0.0163032
900.874	0.0161003
900.953	0.0162285
901.031	0.0162599
901.109	0.0162222
901.187	0.0161050
901.265	0.0161704
901.343	0.0162518
901.421	0.0162536
901.499	0.0162590
901.578	0.0160927
901.656	0.0162277
901.734	0.0159968
901.812	0.0160661
901.890	0.0162701
901.968	0.0161190
902.046	0.0160715
902.124	0.0161829
902.203	0.0161395
902.281	0.0161308
902.359	0.0161840
902.437	0.0160956
902.515	0.0160204
902.593	0.0161757
902.671	0.0159137
902.749	0.0159941
902.828	0.0162244
902.906	0.0160444
902.984	0.0161253
903.062	0.0161592
903.140	0.0161623
903.218	0.0161453
903.296	0.0162097
903.374	0.0161025
903.453	0.0160423
903.531	0.0162141
903.609	0.0161692
903.687	0.0160802
903.765	0.0160648
903.843	0.0161591
903.921	0.0161435
903.999	0.0162495
904.078	0.0160765
904.156	0.0160631
904.234	0.0161082
904.312	0.0161833
904.390	0.0161128
904.468	0.0160961
904.546	0.0160930
904.624	0.0160704
904.703	0.0161211
904.781	0.0159924
904.859	0.0160130
904.937	0.0161666
905.015	0.0161471
905.093	0.0159917
905.171	0.0159502
905.249	0.0161040
905.328	0.0161095
905.406	0.0162070
905.484	0.0161440
905.562	0.0161657
905.640	0.0161378
905.718	0.0162569
905.796	0.0161449
905.874	0.0163393
905.953	0.0162971
906.031	0.0163256
906.109	0.0163268
906.187	0.0164371
906.265	0.0162581
906.343	0.0162836
906.421	0.0164388
906.499	0.0163540
906.578	0.0164030
906.656	0.0164056
906.734	0.0162094
906.812	0.0162825
906.890	0.0163257
906.968	0.0163199
907.046	0.0163487
907.124	0.0162904
907.203	0.0163964
907.281	0.0163545
907.359	0.0163580
907.437	0.0164510
907.515	0.0162201
907.593	0.0161967
907.671	0.0163736
907.749	0.0163567
907.828	0.0162572
907.906	0.0162443
907.984	0.0161675
908.062	0.0162233
908.140	0.0163662
908.218	0.0161585
908.296	0.0162095
908.374	0.0161939
908.453	0.0161462
908.531	0.0162766
908.609	0.0162223
908.687	0.0161068
908.765	0.0160919
908.843	0.0162193
908.921	0.0162026
908.999	0.0162035
909.078	0.0160406
909.156	0.0160419
909.234	0.0161985
909.312	0.0161586
909.390	0.0160890
909.468	0.0161733
909.546	0.0162100
909.624	0.0161553
909.703	0.0161485
909.781	0.0161715
909.859	0.0162909
909.937	0.0161994
910.015	0.0162897
910.093	0.0163394
910.171	0.0163155
910.249	0.0162985
910.328	0.0162951
910.406	0.0163596
910.484	0.0163486
910.562	0.0164072
910.640	0.0162772
910.718	0.0163171
910.796	0.0163215
910.874	0.0164869
910.953	0.0163859
911.031	0.0162586
911.109	0.0163264
911.187	0.0164393
911.265	0.0163595
911.343	0.0163162
911.421	0.0163348
911.499	0.0163248
911.578	0.0162605
911.656	0.0162574
911.734	0.0162539
911.812	0.0163242
911.890	0.0164600
911.968	0.0162389
912.046	0.0162390
912.124	0.0164323
912.203	0.0163564
912.281	0.0163544
912.359	0.0163815
912.437	0.0164906
912.515	0.0164378
912.593	0.0162313
912.671	0.0164148
912.749	0.0163003
912.828	0.0163596
912.906	0.0162541
912.984	0.0163841
913.062	0.0162840
913.140	0.0163240
913.218	0.0162215
913.296	0.0161925
913.374	0.0163380
913.453	0.0162759
913.531	0.0163238
913.609	0.0163209
913.687	0.0161437
913.765	0.0161579
913.843	0.0162585
913.921	0.0160396
913.999	0.0161628
914.078	0.0161453
914.156	0.0161024
914.234	0.0161564
914.312	0.0161749
914.390	0.0161903
914.468	0.0159743
914.546	0.0160272
914.624	0.0160798
914.703	0.0160741
914.781	0.0160123
914.859	0.0162017
914.937	0.0161347
915.015	0.0162032
915.093	0.0161266
915.171	0.0160091
915.249	0.0160944
915.328	0.0161562
915.406	0.0161511
915.484	0.0161376
915.562	0.0161787
915.640	0.0161712
915.718	0.0162525
915.796	0.0162246
915.874	0.0164250
915.953	0.0163025
916.031	0.0164140
916.109	0.0163839
916.187	0.0162737
916.265	0.0163977
916.343	0.0164000
916.421	0.0163976
916.499	0.0163483
916.578	0.0165325
916.656	0.0164275
916.734	0.0164089
916.812	0.0163211
916.890	0.0164795
916.968	0.0165237
917.046	0.0165141
917.124	0.0164156
917.203	0.0162929
917.281	0.0162295
917.359	0.0164014
917.437	0.0164896
917.515	0.0162493
917.593	0.0162837
917.671	0.0162910
917.749	0.0163123
917.828	0.0164175
917.906	0.0162065
917.984	0.0162289
918.062	0.0163576
918.140	0.0163715
918.218	0.0161818
918.296	0.0162421
918.374	0.0162154
918.453	0.0162010
918.531	0.0161667
918.609	0.0161729
918.687	0.0162498
918.765	0.0162775
918.843	0.0162761
918.921	0.0162533
918.999	0.0162011
919.078	0.0163484
919.156	0.0161313
919.234	0.0162147
919.312	0.0162444
919.390	0.0162247
919.468	0.0161517
919.546	0.0162011
919.624	0.0162622
919.703	0.0162667
919.781	0.0161882
919.859	0.0161858
919.937	0.0163966
