06/10/2022	18:56:30	Ver.	4.1	UNKNOWN
Optical Delay	600.015094	Delta X		0.078125	Sweeps	1	Scan Rate	0/0
Coordinates	Axis 1	NaN	Axis 2	NaN	Axis 3	NaN	Axis 4	NaN	Axis 5	NaN	Axis 6	0.000000
TX Power	0.000000	RX Power	0.000000

600.015	0.0162849
600.093	0.0163783
600.171	0.0163436
600.249	0.0162976
600.328	0.0163422
600.406	0.0163495
600.484	0.0163374
600.562	0.0162056
600.640	0.0162988
600.718	0.0165233
600.796	0.0163866
600.874	0.0163808
600.953	0.0164294
601.031	0.0163719
601.109	0.0161171
601.187	0.0162352
601.265	0.0164725
601.343	0.0163486
601.421	0.0162892
601.499	0.0161649
601.578	0.0162695
601.656	0.0163310
601.734	0.0162791
601.812	0.0162270
601.890	0.0162551
601.968	0.0163125
602.046	0.0161684
602.124	0.0161021
602.203	0.0162631
602.281	0.0162716
602.359	0.0163447
602.437	0.0163211
602.515	0.0163180
602.593	0.0162717
602.671	0.0162533
602.749	0.0162215
602.828	0.0163065
602.906	0.0162756
602.984	0.0164130
603.062	0.0162255
603.140	0.0161684
603.218	0.0162045
603.296	0.0162483
603.374	0.0162834
603.453	0.0162699
603.531	0.0161344
603.609	0.0162550
603.687	0.0161806
603.765	0.0161476
603.843	0.0164055
603.921	0.0162176
603.999	0.0161887
604.078	0.0161988
604.156	0.0161749
604.234	0.0162273
604.312	0.0162263
604.390	0.0162334
604.468	0.0162629
604.546	0.0162333
604.624	0.0162682
604.703	0.0163654
604.781	0.0162057
604.859	0.0162551
604.937	0.0162164
605.015	0.0161494
605.093	0.0161787
605.171	0.0163383
605.249	0.0162778
605.328	0.0161178
605.406	0.0162170
605.484	0.0163863
605.562	0.0163113
605.640	0.0162242
605.718	0.0161221
605.796	0.0162912
605.874	0.0161683
605.953	0.0161383
606.031	0.0162177
606.109	0.0161770
606.187	0.0162355
606.265	0.0162007
606.343	0.0162543
606.421	0.0162896
606.499	0.0161490
606.578	0.0161411
606.656	0.0160945
606.734	0.0162101
606.812	0.0161360
606.890	0.0162003
606.968	0.0162437
607.046	0.0161025
607.124	0.0162583
607.203	0.0160126
607.281	0.0161969
607.359	0.0160818
607.437	0.0161696
607.515	0.0162292
607.593	0.0161835
607.671	0.0162565
607.749	0.0162452
607.828	0.0162595
607.906	0.0161163
607.984	0.0161548
608.062	0.0161642
608.140	0.0162145
608.218	0.0161399
608.296	0.0161927
608.374	0.0162601
608.453	0.0163161
608.531	0.0161927
608.609	0.0162109
608.687	0.0162694
608.765	0.0162047
608.843	0.0161144
608.921	0.0161259
608.999	0.0163525
609.078	0.0162550
609.156	0.0162347
609.234	0.0162085
609.312	0.0163143
609.390	0.0163412
609.468	0.0160957
609.546	0.0161784
609.624	0.0162012
609.703	0.0161572
609.781	0.0161829
609.859	0.0162244
609.937	0.0161272
610.015	0.0162563
610.093	0.0163098
610.171	0.0162231
610.249	0.0160831
610.328	0.0162401
610.406	0.0162679
610.484	0.0162452
610.562	0.0163091
610.640	0.0162711
610.718	0.0161877
610.796	0.0163635
610.874	0.0162311
610.953	0.0163654
611.031	0.0160954
611.109	0.0161919
611.187	0.0162164
611.265	0.0162552
611.343	0.0161993
611.421	0.0163799
611.499	0.0162966
611.578	0.0161507
611.656	0.0162207
611.734	0.0161427
611.812	0.0162014
611.890	0.0163145
611.968	0.0163265
612.046	0.0162705
612.124	0.0161639
612.203	0.0163179
612.281	0.0162373
612.359	0.0162556
612.437	0.0162420
612.515	0.0162937
612.593	0.0162647
612.671	0.0163738
612.749	0.0162775
612.828	0.0162746
612.906	0.0163765
612.984	0.0161600
613.062	0.0163483
613.140	0.0162664
613.218	0.0162251
613.296	0.0162742
613.374	0.0161199
613.453	0.0162864
613.531	0.0162910
613.609	0.0162607
613.687	0.0163538
613.765	0.0163181
613.843	0.0161777
613.921	0.0161631
613.999	0.0162903
614.078	0.0162444
614.156	0.0163536
614.234	0.0161867
614.312	0.0161868
614.390	0.0162486
614.468	0.0163837
614.546	0.0161434
614.624	0.0162920
614.703	0.0162716
614.781	0.0162540
614.859	0.0162981
614.937	0.0162907
615.015	0.0162467
615.093	0.0163070
615.171	0.0163374
615.249	0.0162457
615.328	0.0162817
615.406	0.0163580
615.484	0.0163596
615.562	0.0163621
615.640	0.0162518
615.718	0.0162780
615.796	0.0161671
615.874	0.0162360
615.953	0.0163551
616.031	0.0162613
616.109	0.0161885
616.187	0.0162496
616.265	0.0161179
616.343	0.0161489
616.421	0.0162017
616.499	0.0164196
616.578	0.0161339
616.656	0.0164322
616.734	0.0163012
616.812	0.0162147
616.890	0.0161886
616.968	0.0163893
617.046	0.0163155
617.124	0.0162933
617.203	0.0163462
617.281	0.0163226
617.359	0.0162285
617.437	0.0163390
617.515	0.0162714
617.593	0.0163188
617.671	0.0162273
617.749	0.0163660
617.828	0.0163589
617.906	0.0161274
617.984	0.0163352
618.062	0.0164179
618.140	0.0162945
618.218	0.0162045
618.296	0.0163133
618.374	0.0162709
618.453	0.0161189
618.531	0.0162702
618.609	0.0163250
618.687	0.0163356
618.765	0.0163132
618.843	0.0162640
618.921	0.0163162
618.999	0.0163860
619.078	0.0162759
619.156	0.0161075
619.234	0.0162594
619.312	0.0163708
619.390	0.0162903
619.468	0.0162625
619.546	0.0162153
619.624	0.0163192
619.703	0.0161682
619.781	0.0163117
619.859	0.0162782
619.937	0.0161976
620.015	0.0162498
620.093	0.0161231
620.171	0.0163004
620.249	0.0163606
620.328	0.0163192
620.406	0.0162434
620.484	0.0162286
620.562	0.0161584
620.640	0.0161205
620.718	0.0163554
620.796	0.0162250
620.874	0.0161729
620.953	0.0160402
621.031	0.0161871
621.109	0.0163277
621.187	0.0163715
621.265	0.0162093
621.343	0.0163212
621.421	0.0162263
621.499	0.0163485
621.578	0.0162132
621.656	0.0162912
621.734	0.0163591
621.812	0.0162145
621.890	0.0164203
621.968	0.0162984
622.046	0.0163037
622.124	0.0163190
622.203	0.0164056
622.281	0.0163986
622.359	0.0163283
622.437	0.0161757
622.515	0.0162698
622.593	0.0164126
622.671	0.0163552
622.749	0.0163295
622.828	0.0163168
622.906	0.0162885
622.984	0.0162695
623.062	0.0163438
623.140	0.0162996
623.218	0.0163457
623.296	0.0162556
623.374	0.0162878
623.453	0.0162775
623.531	0.0164163
623.609	0.0162743
623.687	0.0163021
623.765	0.0163947
623.843	0.0163619
623.921	0.0162357
623.999	0.0161742
624.078	0.0161580
624.156	0.0162943
624.234	0.0161788
624.312	0.0162314
624.390	0.0161688
624.468	0.0162924
624.546	0.0163509
624.624	0.0162480
624.703	0.0161470
624.781	0.0161816
624.859	0.0162382
624.937	0.0162453
625.015	0.0161526
625.093	0.0162742
625.171	0.0161866
625.249	0.0161424
625.328	0.0161729
625.406	0.0161776
625.484	0.0160532
625.562	0.0161916
625.640	0.0161485
625.718	0.0162211
625.796	0.0163253
625.874	0.0162302
625.953	0.0161703
626.031	0.0161604
626.109	0.0163023
626.187	0.0161858
626.265	0.0162160
626.343	0.0160474
626.421	0.0161652
626.499	0.0162503
626.578	0.0161684
626.656	0.0160947
626.734	0.0161642
626.812	0.0162283
626.890	0.0162495
626.968	0.0163463
627.046	0.0162199
627.124	0.0162679
627.203	0.0160626
627.281	0.0161891
627.359	0.0162581
627.437	0.0162383
627.515	0.0161697
627.593	0.0160652
627.671	0.0162245
627.749	0.0161577
627.828	0.0160180
627.906	0.0161496
627.984	0.0162290
628.062	0.0160963
628.140	0.0160813
628.218	0.0162148
628.296	0.0161810
628.374	0.0163046
628.453	0.0161604
628.531	0.0161391
628.609	0.0162205
628.687	0.0162028
628.765	0.0161195
628.843	0.0161508
628.921	0.0161253
628.999	0.0161025
629.078	0.0160432
629.156	0.0161612
629.234	0.0161247
629.312	0.0161562
629.390	0.0161964
629.468	0.0161604
629.546	0.0161737
629.624	0.0162131
629.703	0.0160517
629.781	0.0163633
629.859	0.0161759
629.937	0.0163401
630.015	0.0161613
630.093	0.0161475
630.171	0.0161687
630.249	0.0161143
630.328	0.0161693
630.406	0.0161181
630.484	0.0161449
630.562	0.0161135
630.640	0.0161353
630.718	0.0161909
630.796	0.0160655
630.874	0.0161880
630.953	0.0161752
631.031	0.0160445
631.109	0.0161370
631.187	0.0161391
631.265	0.0161195
631.343	0.0160893
631.421	0.0161873
631.499	0.0160906
631.578	0.0161489
631.656	0.0161908
631.734	0.0162241
631.812	0.0160797
631.890	0.0160773
631.968	0.0161419
632.046	0.0162079
632.124	0.0161753
632.203	0.0160301
632.281	0.0161235
632.359	0.0161495
632.437	0.0161060
632.515	0.0161330
632.593	0.0161266
632.671	0.0160484
632.749	0.0160253
632.828	0.0160419
632.906	0.0161689
632.984	0.0161365
633.062	0.0161646
633.140	0.0162086
633.218	0.0161843
633.296	0.0162020
633.374	0.0161152
633.453	0.0160249
633.531	0.0161359
633.609	0.0159924
633.687	0.0162473
633.765	0.0162245
633.843	0.0161049
633.921	0.0162586
633.999	0.0160410
634.078	0.0160745
634.156	0.0161566
634.234	0.0161082
634.312	0.0161596
634.390	0.0161472
634.468	0.0161627
634.546	0.0160754
634.624	0.0161946
634.703	0.0161610
634.781	0.0161908
634.859	0.0163698
634.937	0.0161678
635.015	0.0161584
635.093	0.0161880
635.171	0.0162156
635.249	0.0162262
635.328	0.0161932
635.406	0.0161676
635.484	0.0162326
635.562	0.0161971
635.640	0.0160712
635.718	0.0161195
635.796	0.0162322
635.874	0.0162730
635.953	0.0162359
636.031	0.0161691
636.109	0.0160807
636.187	0.0163706
636.265	0.0161363
636.343	0.0162173
636.421	0.0163423
636.499	0.0162288
636.578	0.0161205
636.656	0.0161983
636.734	0.0161483
636.812	0.0162254
636.890	0.0162074
636.968	0.0162128
637.046	0.0160915
637.124	0.0162487
637.203	0.0162022
637.281	0.0160454
637.359	0.0161407
637.437	0.0162079
637.515	0.0161578
637.593	0.0163110
637.671	0.0162369
637.749	0.0162221
637.828	0.0162847
637.906	0.0162906
637.984	0.0161171
638.062	0.0163319
638.140	0.0162250
638.218	0.0162646
638.296	0.0162808
638.374	0.0163207
638.453	0.0163099
638.531	0.0162308
638.609	0.0162350
638.687	0.0162337
638.765	0.0162461
638.843	0.0163232
638.921	0.0162644
638.999	0.0164299
639.078	0.0162072
639.156	0.0162267
639.234	0.0161915
639.312	0.0163103
639.390	0.0163001
639.468	0.0164165
639.546	0.0161746
639.624	0.0163147
639.703	0.0162211
639.781	0.0162568
639.859	0.0162498
639.937	0.0161333
640.015	0.0161858
640.093	0.0163380
640.171	0.0163203
640.249	0.0164563
640.328	0.0162714
640.406	0.0162285
640.484	0.0162575
640.562	0.0162678
640.640	0.0163488
640.718	0.0162030
640.796	0.0162972
640.874	0.0163914
640.953	0.0162885
641.031	0.0161829
641.109	0.0162257
641.187	0.0164180
641.265	0.0162686
641.343	0.0163233
641.421	0.0164239
641.499	0.0162546
641.578	0.0162271
641.656	0.0163291
641.734	0.0163950
641.812	0.0162608
641.890	0.0162904
641.968	0.0163734
642.046	0.0163169
642.124	0.0163424
642.203	0.0163853
642.281	0.0162873
642.359	0.0163018
642.437	0.0163461
642.515	0.0162246
642.593	0.0162305
642.671	0.0162891
642.749	0.0163435
642.828	0.0161691
642.906	0.0162394
642.984	0.0162834
643.062	0.0164857
643.140	0.0163567
643.218	0.0162184
643.296	0.0161306
643.374	0.0162267
643.453	0.0163134
643.531	0.0163146
643.609	0.0163067
643.687	0.0162420
643.765	0.0162373
643.843	0.0161536
643.921	0.0163668
643.999	0.0161902
644.078	0.0161821
644.156	0.0163213
644.234	0.0162215
644.312	0.0162406
644.390	0.0162054
644.468	0.0162370
644.546	0.0161935
644.624	0.0162171
644.703	0.0163576
644.781	0.0163660
644.859	0.0163632
644.937	0.0162062
645.015	0.0162074
645.093	0.0162935
645.171	0.0163182
645.249	0.0162098
645.328	0.0163207
645.406	0.0161829
645.484	0.0162023
645.562	0.0160287
645.640	0.0161868
645.718	0.0162521
645.796	0.0161043
645.874	0.0162562
645.953	0.0162016
646.031	0.0160201
646.109	0.0160641
646.187	0.0162579
646.265	0.0162627
646.343	0.0162270
646.421	0.0162611
646.499	0.0162626
646.578	0.0162106
646.656	0.0161772
646.734	0.0160588
646.812	0.0161445
646.890	0.0163163
646.968	0.0162829
647.046	0.0163539
647.124	0.0162202
647.203	0.0163274
647.281	0.0161919
647.359	0.0162291
647.437	0.0163127
647.515	0.0161519
647.593	0.0162454
647.671	0.0163031
647.749	0.0161639
647.828	0.0161543
647.906	0.0163004
647.984	0.0161927
648.062	0.0161754
648.140	0.0162526
648.218	0.0162509
648.296	0.0160863
648.374	0.0161574
648.453	0.0161745
648.531	0.0160775
648.609	0.0161874
648.687	0.0161272
648.765	0.0162218
648.843	0.0162640
648.921	0.0161375
648.999	0.0160968
649.078	0.0161721
649.156	0.0161513
649.234	0.0161564
649.312	0.0162290
649.390	0.0162260
649.468	0.0160739
649.546	0.0161231
649.624	0.0161135
649.703	0.0161974
649.781	0.0162414
649.859	0.0160236
649.937	0.0160989
650.015	0.0161303
650.093	0.0160155
650.171	0.0161140
650.249	0.0162190
650.328	0.0160986
650.406	0.0160503
650.484	0.0161372
650.562	0.0160340
650.640	0.0160258
650.718	0.0160583
650.796	0.0162035
650.874	0.0161699
650.953	0.0162684
651.031	0.0161091
651.109	0.0161922
651.187	0.0160743
651.265	0.0161443
651.343	0.0161034
651.421	0.0160118
651.499	0.0160092
651.578	0.0161582
651.656	0.0161986
651.734	0.0159097
651.812	0.0160320
651.890	0.0161657
651.968	0.0162271
652.046	0.0161014
652.124	0.0160561
652.203	0.0161816
652.281	0.0161704
652.359	0.0162055
652.437	0.0160903
652.515	0.0161194
652.593	0.0161045
652.671	0.0161693
652.749	0.0162431
652.828	0.0160901
652.906	0.0161284
652.984	0.0162528
653.062	0.0161581
653.140	0.0160974
653.218	0.0161206
653.296	0.0162042
653.374	0.0162244
653.453	0.0161606
653.531	0.0161839
653.609	0.0162788
653.687	0.0161568
653.765	0.0162424
653.843	0.0161381
653.921	0.0161915
653.999	0.0161300
654.078	0.0162990
654.156	0.0163202
654.234	0.0161651
654.312	0.0162003
654.390	0.0162927
654.468	0.0163152
654.546	0.0162589
654.624	0.0162212
654.703	0.0161538
654.781	0.0162069
654.859	0.0162322
654.937	0.0161501
655.015	0.0162463
655.093	0.0161997
655.171	0.0162431
655.249	0.0162247
655.328	0.0162453
655.406	0.0161665
655.484	0.0162929
655.562	0.0163114
655.640	0.0161980
655.718	0.0163232
655.796	0.0162000
655.874	0.0161970
655.953	0.0160948
656.031	0.0161093
656.109	0.0161227
656.187	0.0163897
656.265	0.0161876
656.343	0.0162572
656.421	0.0162641
656.499	0.0162370
656.578	0.0161115
656.656	0.0163081
656.734	0.0162421
656.812	0.0162318
656.890	0.0161920
656.968	0.0162700
657.046	0.0161985
657.124	0.0160696
657.203	0.0162157
657.281	0.0161658
657.359	0.0162247
657.437	0.0162569
657.515	0.0161414
657.593	0.0161986
657.671	0.0162000
657.749	0.0162969
657.828	0.0161723
657.906	0.0163345
657.984	0.0161395
658.062	0.0161510
658.140	0.0162331
658.218	0.0162457
658.296	0.0161841
658.374	0.0160075
658.453	0.0160860
658.531	0.0162562
658.609	0.0162868
658.687	0.0161248
658.765	0.0160973
658.843	0.0162164
658.921	0.0161322
658.999	0.0161295
659.078	0.0162840
659.156	0.0162383
659.234	0.0162255
659.312	0.0161925
659.390	0.0161608
659.468	0.0162383
659.546	0.0161880
659.624	0.0160812
659.703	0.0160666
659.781	0.0162525
659.859	0.0160253
659.937	0.0159341
660.015	0.0161777
660.093	0.0162732
660.171	0.0161632
660.249	0.0162448
660.328	0.0162171
660.406	0.0161211
660.484	0.0161880
660.562	0.0160593
660.640	0.0161072
660.718	0.0164024
660.796	0.0161290
660.874	0.0160684
660.953	0.0161661
661.031	0.0162009
661.109	0.0161973
661.187	0.0162837
661.265	0.0162212
661.343	0.0161951
661.421	0.0161353
661.499	0.0161402
661.578	0.0161836
661.656	0.0161484
661.734	0.0162917
661.812	0.0162164
661.890	0.0162088
661.968	0.0164463
662.046	0.0161399
662.124	0.0161724
662.203	0.0162601
662.281	0.0162209
662.359	0.0162740
662.437	0.0161961
662.515	0.0162758
662.593	0.0163644
662.671	0.0162947
662.749	0.0162053
662.828	0.0163699
662.906	0.0163692
662.984	0.0163290
663.062	0.0161674
663.140	0.0162775
663.218	0.0161819
663.296	0.0160881
663.374	0.0163602
663.453	0.0163554
663.531	0.0162591
663.609	0.0163709
663.687	0.0163125
663.765	0.0163045
663.843	0.0163051
663.921	0.0162628
663.999	0.0162286
664.078	0.0164273
664.156	0.0163761
664.234	0.0162968
664.312	0.0163821
664.390	0.0162728
664.468	0.0163292
664.546	0.0163792
664.624	0.0164105
664.703	0.0163325
664.781	0.0163498
664.859	0.0163793
664.937	0.0163900
665.015	0.0162511
665.093	0.0162817
665.171	0.0163748
665.249	0.0164709
665.328	0.0164252
665.406	0.0162585
665.484	0.0162292
665.562	0.0163493
665.640	0.0164014
665.718	0.0163611
665.796	0.0162325
665.874	0.0163451
665.953	0.0163912
666.031	0.0163814
666.109	0.0164318
666.187	0.0164038
666.265	0.0163493
666.343	0.0163584
666.421	0.0162943
666.499	0.0162644
666.578	0.0164613
666.656	0.0164535
666.734	0.0163522
666.812	0.0162519
666.890	0.0163110
666.968	0.0162161
667.046	0.0164131
667.124	0.0163592
667.203	0.0163598
667.281	0.0163238
667.359	0.0162834
667.437	0.0163226
667.515	0.0162974
667.593	0.0163896
667.671	0.0163641
667.749	0.0162894
667.828	0.0164690
667.906	0.0163490
667.984	0.0162348
668.062	0.0163180
668.140	0.0163364
668.218	0.0163313
668.296	0.0163122
668.374	0.0163683
668.453	0.0162776
668.531	0.0162683
668.609	0.0163691
668.687	0.0164787
668.765	0.0163715
668.843	0.0162756
668.921	0.0163570
668.999	0.0162677
669.078	0.0163129
669.156	0.0163135
669.234	0.0162932
669.312	0.0162761
669.390	0.0162482
669.468	0.0163562
669.546	0.0162650
669.624	0.0163534
669.703	0.0163701
669.781	0.0163356
669.859	0.0163475
669.937	0.0163327
670.015	0.0162696
670.093	0.0162869
670.171	0.0161842
670.249	0.0162345
670.328	0.0162290
670.406	0.0163583
670.484	0.0162753
670.562	0.0162612
670.640	0.0163860
670.718	0.0161984
670.796	0.0162250
670.874	0.0161707
670.953	0.0162563
671.031	0.0163866
671.109	0.0162421
671.187	0.0162544
671.265	0.0162643
671.343	0.0163584
671.421	0.0163911
671.499	0.0162401
671.578	0.0163020
671.656	0.0163766
671.734	0.0162498
671.812	0.0163419
671.890	0.0162656
671.968	0.0161868
672.046	0.0160821
672.124	0.0162209
672.203	0.0162959
672.281	0.0161985
672.359	0.0161290
672.437	0.0162982
672.515	0.0163162
672.593	0.0161699
672.671	0.0162423
672.749	0.0162538
672.828	0.0163346
672.906	0.0162831
672.984	0.0161167
673.062	0.0162550
673.140	0.0162529
673.218	0.0163298
673.296	0.0164127
673.374	0.0162241
673.453	0.0162670
673.531	0.0163618
673.609	0.0163245
673.687	0.0162881
673.765	0.0162540
673.843	0.0161848
673.921	0.0162570
673.999	0.0161067
674.078	0.0163599
674.156	0.0162417
674.234	0.0161755
674.312	0.0162915
674.390	0.0162788
674.468	0.0163691
674.546	0.0162848
674.624	0.0163544
674.703	0.0162611
674.781	0.0163049
674.859	0.0163860
674.937	0.0163657
675.015	0.0162410
675.093	0.0162608
675.171	0.0162302
675.249	0.0162509
675.328	0.0162645
675.406	0.0161472
675.484	0.0162859
675.562	0.0161171
675.640	0.0163120
675.718	0.0161601
675.796	0.0162596
675.874	0.0162067
675.953	0.0162029
676.031	0.0162283
676.109	0.0161951
676.187	0.0161719
676.265	0.0161765
676.343	0.0161451
676.421	0.0163067
676.499	0.0163106
676.578	0.0161008
676.656	0.0162346
676.734	0.0162130
676.812	0.0161453
676.890	0.0162451
676.968	0.0162825
677.046	0.0162569
677.124	0.0160773
677.203	0.0160606
677.281	0.0162810
677.359	0.0162309
677.437	0.0161612
677.515	0.0163839
677.593	0.0161617
677.671	0.0161464
677.749	0.0162466
677.828	0.0163264
677.906	0.0163949
677.984	0.0162234
678.062	0.0161762
678.140	0.0162684
678.218	0.0161904
678.296	0.0163568
678.374	0.0161779
678.453	0.0162933
678.531	0.0162041
678.609	0.0161655
678.687	0.0163573
678.765	0.0162772
678.843	0.0162078
678.921	0.0161916
678.999	0.0162058
679.078	0.0163907
679.156	0.0162803
679.234	0.0163146
679.312	0.0163167
679.390	0.0162557
679.468	0.0163030
679.546	0.0161267
679.624	0.0163197
679.703	0.0164204
679.781	0.0164198
679.859	0.0162817
679.937	0.0163330
680.015	0.0162865
680.093	0.0161481
680.171	0.0162980
680.249	0.0163148
680.328	0.0162258
680.406	0.0162640
680.484	0.0162946
680.562	0.0162553
680.640	0.0163407
680.718	0.0161810
680.796	0.0163624
680.874	0.0163843
680.953	0.0162733
681.031	0.0164090
681.109	0.0161822
681.187	0.0161468
681.265	0.0162839
681.343	0.0163074
681.421	0.0163107
681.499	0.0162015
681.578	0.0162288
681.656	0.0164011
681.734	0.0161654
681.812	0.0163788
681.890	0.0163383
681.968	0.0161438
682.046	0.0161879
682.124	0.0163589
682.203	0.0162344
682.281	0.0161545
682.359	0.0161153
682.437	0.0161535
682.515	0.0162012
682.593	0.0162659
682.671	0.0162423
682.749	0.0160439
682.828	0.0162377
682.906	0.0161845
682.984	0.0162022
683.062	0.0162305
683.140	0.0161417
683.218	0.0161072
683.296	0.0162286
683.374	0.0161969
683.453	0.0164034
683.531	0.0162626
683.609	0.0160774
683.687	0.0162585
683.765	0.0161653
683.843	0.0161420
683.921	0.0163341
683.999	0.0161318
684.078	0.0161935
684.156	0.0163033
684.234	0.0162687
684.312	0.0162244
684.390	0.0162214
684.468	0.0162468
684.546	0.0162014
684.624	0.0160559
684.703	0.0162645
684.781	0.0163737
684.859	0.0161761
684.937	0.0162905
685.015	0.0162008
685.093	0.0162201
685.171	0.0163187
685.249	0.0162760
685.328	0.0163614
685.406	0.0162643
685.484	0.0162738
685.562	0.0160794
685.640	0.0163127
685.718	0.0162801
685.796	0.0163737
685.874	0.0162950
685.953	0.0162595
686.031	0.0163378
686.109	0.0163132
686.187	0.0161931
686.265	0.0163215
686.343	0.0163010
686.421	0.0163533
686.499	0.0162868
686.578	0.0162061
686.656	0.0162418
686.734	0.0163664
686.812	0.0163470
686.890	0.0162292
686.968	0.0163404
687.046	0.0162684
687.124	0.0162469
687.203	0.0162791
687.281	0.0162965
687.359	0.0162477
687.437	0.0162583
687.515	0.0162601
687.593	0.0163950
687.671	0.0162524
687.749	0.0162646
687.828	0.0162675
687.906	0.0161620
687.984	0.0162198
688.062	0.0163548
688.140	0.0163678
688.218	0.0163863
688.296	0.0163420
688.374	0.0163612
688.453	0.0162975
688.531	0.0162901
688.609	0.0163290
688.687	0.0162228
688.765	0.0163741
688.843	0.0163766
688.921	0.0164104
688.999	0.0161919
689.078	0.0163377
689.156	0.0162828
689.234	0.0163341
689.312	0.0161819
689.390	0.0163390
689.468	0.0162893
689.546	0.0162860
689.624	0.0162136
689.703	0.0164589
689.781	0.0163219
689.859	0.0162856
689.937	0.0163516
690.015	0.0162247
690.093	0.0163355
690.171	0.0163211
690.249	0.0162608
690.328	0.0162273
690.406	0.0164297
690.484	0.0163528
690.562	0.0162560
690.640	0.0162772
690.718	0.0163103
690.796	0.0163037
690.874	0.0162595
690.953	0.0164058
691.031	0.0163231
691.109	0.0163322
691.187	0.0162549
691.265	0.0163832
691.343	0.0163109
691.421	0.0162262
691.499	0.0164095
691.578	0.0163065
691.656	0.0163189
691.734	0.0162665
691.812	0.0163190
691.890	0.0163142
691.968	0.0162741
692.046	0.0162591
692.124	0.0162440
692.203	0.0164680
692.281	0.0162605
692.359	0.0161933
692.437	0.0163771
692.515	0.0163017
692.593	0.0162289
692.671	0.0163342
692.749	0.0162578
692.828	0.0162990
692.906	0.0162835
692.984	0.0162972
693.062	0.0163318
693.140	0.0162704
693.218	0.0163144
693.296	0.0163563
693.374	0.0162836
693.453	0.0162930
693.531	0.0162630
693.609	0.0163288
693.687	0.0163232
693.765	0.0163973
693.843	0.0163535
693.921	0.0162996
693.999	0.0163419
694.078	0.0163469
694.156	0.0161540
694.234	0.0163293
694.312	0.0162848
694.390	0.0162600
694.468	0.0164177
694.546	0.0162600
694.624	0.0163037
694.703	0.0163348
694.781	0.0163445
694.859	0.0163937
694.937	0.0164719
695.015	0.0163727
695.093	0.0162589
695.171	0.0162952
695.249	0.0162183
695.328	0.0163454
695.406	0.0163136
695.484	0.0162879
695.562	0.0162623
695.640	0.0163136
695.718	0.0162782
695.796	0.0163010
695.874	0.0163092
695.953	0.0161008
696.031	0.0164172
696.109	0.0163020
696.187	0.0163067
696.265	0.0162968
696.343	0.0162000
696.421	0.0163142
696.499	0.0162898
696.578	0.0164612
696.656	0.0163881
696.734	0.0162225
696.812	0.0162660
696.890	0.0163935
696.968	0.0163653
697.046	0.0163240
697.124	0.0163851
697.203	0.0161742
697.281	0.0162291
697.359	0.0163639
697.437	0.0162443
697.515	0.0164377
697.593	0.0163686
697.671	0.0162814
697.749	0.0162125
697.828	0.0163155
697.906	0.0163282
697.984	0.0164167
698.062	0.0161759
698.140	0.0162309
698.218	0.0162800
698.296	0.0163879
698.374	0.0163259
698.453	0.0162446
698.531	0.0163189
698.609	0.0162045
698.687	0.0162313
698.765	0.0162247
698.843	0.0161912
698.921	0.0163072
698.999	0.0162968
699.078	0.0162514
699.156	0.0163103
699.234	0.0162080
699.312	0.0161705
699.390	0.0162505
699.468	0.0162460
699.546	0.0162446
699.624	0.0162628
699.703	0.0161871
699.781	0.0163102
699.859	0.0162271
699.937	0.0164339
700.015	0.0162841
700.093	0.0162975
700.171	0.0163140
700.249	0.0164984
700.328	0.0163284
700.406	0.0161815
700.484	0.0163240
700.562	0.0162535
700.640	0.0162950
700.718	0.0161882
700.796	0.0161227
700.874	0.0162741
700.953	0.0163010
701.031	0.0162808
701.109	0.0162674
701.187	0.0163341
701.265	0.0162141
701.343	0.0162389
701.421	0.0161740
701.499	0.0160524
701.578	0.0162332
701.656	0.0162189
701.734	0.0162332
701.812	0.0162849
701.890	0.0162370
701.968	0.0162852
702.046	0.0161606
702.124	0.0161455
702.203	0.0162234
702.281	0.0162093
702.359	0.0163351
702.437	0.0161481
702.515	0.0161890
702.593	0.0161488
702.671	0.0161704
702.749	0.0161695
702.828	0.0161514
702.906	0.0163088
702.984	0.0160945
703.062	0.0161836
703.140	0.0162820
703.218	0.0161674
703.296	0.0160896
703.374	0.0161514
703.453	0.0161726
703.531	0.0161436
703.609	0.0162030
703.687	0.0160770
703.765	0.0161951
703.843	0.0161653
703.921	0.0161481
703.999	0.0161025
704.078	0.0161190
704.156	0.0163372
704.234	0.0162318
704.312	0.0162500
704.390	0.0161494
704.468	0.0160637
704.546	0.0162226
704.624	0.0162219
704.703	0.0163404
704.781	0.0162423
704.859	0.0161215
704.937	0.0163349
705.015	0.0163634
705.093	0.0163720
705.171	0.0163401
705.249	0.0160995
705.328	0.0162373
705.406	0.0161672
705.484	0.0162321
705.562	0.0161220
705.640	0.0161893
705.718	0.0162762
705.796	0.0161683
705.874	0.0160561
705.953	0.0162505
706.031	0.0163174
706.109	0.0162296
706.187	0.0161169
706.265	0.0162278
706.343	0.0162038
706.421	0.0160939
706.499	0.0161887
706.578	0.0161345
706.656	0.0161364
706.734	0.0160045
706.812	0.0161149
706.890	0.0161848
706.968	0.0161967
707.046	0.0161395
707.124	0.0161067
707.203	0.0161765
707.281	0.0161647
707.359	0.0162396
707.437	0.0161118
707.515	0.0160469
707.593	0.0162140
707.671	0.0159676
707.749	0.0162486
707.828	0.0160585
707.906	0.0162062
707.984	0.0161319
708.062	0.0160783
708.140	0.0161361
708.218	0.0162091
708.296	0.0161013
708.374	0.0161945
708.453	0.0162453
708.531	0.0160430
708.609	0.0161290
708.687	0.0161166
708.765	0.0161701
708.843	0.0161433
708.921	0.0161422
708.999	0.0161494
709.078	0.0162004
709.156	0.0162199
709.234	0.0162015
709.312	0.0161126
709.390	0.0161856
709.468	0.0160347
709.546	0.0160083
709.624	0.0160722
709.703	0.0161889
709.781	0.0161012
709.859	0.0162262
709.937	0.0161417
710.015	0.0162151
710.093	0.0162209
710.171	0.0161114
710.249	0.0162086
710.328	0.0160383
710.406	0.0161667
710.484	0.0161673
710.562	0.0161804
710.640	0.0162215
710.718	0.0161340
710.796	0.0162013
710.874	0.0159926
710.953	0.0160290
711.031	0.0162186
711.109	0.0162195
711.187	0.0162387
711.265	0.0162226
711.343	0.0160397
711.421	0.0162141
711.499	0.0161117
711.578	0.0163130
711.656	0.0161037
711.734	0.0161124
711.812	0.0162782
711.890	0.0162239
711.968	0.0162492
712.046	0.0161500
712.124	0.0161473
712.203	0.0160541
712.281	0.0161596
712.359	0.0161340
712.437	0.0160558
712.515	0.0161377
712.593	0.0162143
712.671	0.0161949
712.749	0.0161863
712.828	0.0161563
712.906	0.0161833
712.984	0.0161964
713.062	0.0161023
713.140	0.0162548
713.218	0.0161382
713.296	0.0160777
713.374	0.0161313
713.453	0.0161779
713.531	0.0161424
713.609	0.0162978
713.687	0.0161783
713.765	0.0162474
713.843	0.0162086
713.921	0.0162094
713.999	0.0162428
714.078	0.0161481
714.156	0.0160790
714.234	0.0163416
714.312	0.0161892
714.390	0.0162456
714.468	0.0161180
714.546	0.0162019
714.624	0.0161685
714.703	0.0162037
714.781	0.0162476
714.859	0.0162673
714.937	0.0162379
715.015	0.0161728
715.093	0.0161790
715.171	0.0161641
715.249	0.0162511
715.328	0.0163506
715.406	0.0162317
715.484	0.0162089
715.562	0.0161478
715.640	0.0162225
715.718	0.0161961
715.796	0.0161835
715.874	0.0162952
715.953	0.0162547
716.031	0.0162727
716.109	0.0161666
716.187	0.0162135
716.265	0.0163123
716.343	0.0163179
716.421	0.0163889
716.499	0.0162264
716.578	0.0162177
716.656	0.0162875
716.734	0.0162921
716.812	0.0163416
716.890	0.0163012
716.968	0.0161993
717.046	0.0161160
717.124	0.0162675
717.203	0.0162509
717.281	0.0162778
717.359	0.0161172
717.437	0.0161560
717.515	0.0162432
717.593	0.0161789
717.671	0.0161614
717.749	0.0162326
717.828	0.0162395
717.906	0.0164039
717.984	0.0163929
718.062	0.0163869
718.140	0.0162796
718.218	0.0161607
718.296	0.0162646
718.374	0.0163687
718.453	0.0163508
718.531	0.0161724
718.609	0.0161007
718.687	0.0162338
718.765	0.0162942
718.843	0.0163153
718.921	0.0163247
718.999	0.0163421
719.078	0.0162184
719.156	0.0162520
719.234	0.0162286
719.312	0.0161953
719.390	0.0163118
719.468	0.0163833
719.546	0.0160656
719.624	0.0162097
719.703	0.0161922
719.781	0.0163355
719.859	0.0163329
719.937	0.0161520
720.015	0.0162166
720.093	0.0161832
720.171	0.0163109
720.249	0.0162128
720.328	0.0162317
720.406	0.0162523
720.484	0.0162704
720.562	0.0163567
720.640	0.0160888
720.718	0.0162833
720.796	0.0162656
720.874	0.0163444
720.953	0.0163225
721.031	0.0162563
721.109	0.0162620
721.187	0.0163874
721.265	0.0162649
721.343	0.0162362
721.421	0.0161616
721.499	0.0161813
721.578	0.0162868
721.656	0.0161867
721.734	0.0161947
721.812	0.0162589
721.890	0.0163244
721.968	0.0164059
722.046	0.0162823
722.124	0.0162038
722.203	0.0161740
722.281	0.0162032
722.359	0.0161385
722.437	0.0162753
722.515	0.0162457
722.593	0.0162788
722.671	0.0162556
722.749	0.0161223
722.828	0.0162147
722.906	0.0163313
722.984	0.0161351
723.062	0.0162748
723.140	0.0162496
723.218	0.0162669
723.296	0.0164362
723.374	0.0163795
723.453	0.0162245
723.531	0.0162743
723.609	0.0161634
723.687	0.0161243
723.765	0.0163381
723.843	0.0164935
723.921	0.0162560
723.999	0.0163375
724.078	0.0162875
724.156	0.0163548
724.234	0.0163919
724.312	0.0162130
724.390	0.0162270
724.468	0.0162345
724.546	0.0161205
724.624	0.0161864
724.703	0.0162849
724.781	0.0162736
724.859	0.0162577
724.937	0.0160670
725.015	0.0160786
725.093	0.0163194
725.171	0.0164048
725.249	0.0162283
725.328	0.0160428
725.406	0.0161289
725.484	0.0161998
725.562	0.0160707
725.640	0.0160532
725.718	0.0161571
725.796	0.0162397
725.874	0.0163270
725.953	0.0161131
726.031	0.0161237
726.109	0.0161283
726.187	0.0160259
726.265	0.0161546
726.343	0.0161981
726.421	0.0161163
726.499	0.0162075
726.578	0.0162436
726.656	0.0161576
726.734	0.0162650
726.812	0.0161997
726.890	0.0161347
726.968	0.0162042
727.046	0.0162437
727.124	0.0161214
727.203	0.0161730
727.281	0.0161689
727.359	0.0161993
727.437	0.0161151
727.515	0.0162359
727.593	0.0162185
727.671	0.0161825
727.749	0.0161298
727.828	0.0161333
727.906	0.0162034
727.984	0.0162065
728.062	0.0161897
728.140	0.0161132
728.218	0.0162854
728.296	0.0161765
728.374	0.0161297
728.453	0.0162044
728.531	0.0161378
728.609	0.0161553
728.687	0.0161764
728.765	0.0161062
728.843	0.0161205
728.921	0.0162040
728.999	0.0161801
729.078	0.0162810
729.156	0.0162399
729.234	0.0160321
729.312	0.0160452
729.390	0.0161765
729.468	0.0161698
729.546	0.0161948
729.624	0.0162120
729.703	0.0161145
729.781	0.0161781
729.859	0.0161321
729.937	0.0162029
730.015	0.0161924
730.093	0.0161185
730.171	0.0163300
730.249	0.0161707
730.328	0.0161910
730.406	0.0161440
730.484	0.0161726
730.562	0.0161070
730.640	0.0161610
730.718	0.0161560
730.796	0.0160818
730.874	0.0161760
730.953	0.0160959
731.031	0.0160947
731.109	0.0162522
731.187	0.0160951
731.265	0.0160971
731.343	0.0161910
731.421	0.0162289
731.499	0.0162195
731.578	0.0161835
731.656	0.0160925
731.734	0.0161250
731.812	0.0161936
731.890	0.0160287
731.968	0.0160281
732.046	0.0160931
732.124	0.0160941
732.203	0.0162209
732.281	0.0160535
732.359	0.0162798
732.437	0.0162040
732.515	0.0161002
732.593	0.0162265
732.671	0.0162215
732.749	0.0161768
732.828	0.0161880
732.906	0.0162863
732.984	0.0161462
733.062	0.0162637
733.140	0.0162086
733.218	0.0162418
733.296	0.0161325
733.374	0.0161981
733.453	0.0161313
733.531	0.0160993
733.609	0.0161989
733.687	0.0161330
733.765	0.0162214
733.843	0.0161588
733.921	0.0162484
733.999	0.0162378
734.078	0.0162943
734.156	0.0162152
734.234	0.0161929
734.312	0.0162828
734.390	0.0160097
734.468	0.0160978
734.546	0.0162921
734.624	0.0161391
734.703	0.0161571
734.781	0.0161762
734.859	0.0161824
734.937	0.0160863
735.015	0.0160911
735.093	0.0162349
735.171	0.0161906
735.249	0.0160062
735.328	0.0162595
735.406	0.0161197
735.484	0.0162149
735.562	0.0161953
735.640	0.0161842
735.718	0.0164563
735.796	0.0161582
735.874	0.0160717
735.953	0.0162916
736.031	0.0162067
736.109	0.0162147
736.187	0.0161348
736.265	0.0161890
736.343	0.0161785
736.421	0.0161919
736.499	0.0163416
736.578	0.0162971
736.656	0.0162328
736.734	0.0163325
736.812	0.0161043
736.890	0.0161330
736.968	0.0161287
737.046	0.0161141
737.124	0.0161014
737.203	0.0160443
737.281	0.0162817
737.359	0.0161050
737.437	0.0161633
737.515	0.0161579
737.593	0.0160726
737.671	0.0161278
737.749	0.0160974
737.828	0.0162615
737.906	0.0160817
737.984	0.0161647
738.062	0.0161437
738.140	0.0161760
738.218	0.0160803
738.296	0.0162992
738.374	0.0161725
738.453	0.0161665
738.531	0.0161235
738.609	0.0161344
738.687	0.0160916
738.765	0.0161110
738.843	0.0161938
738.921	0.0162206
738.999	0.0161417
739.078	0.0161954
739.156	0.0161908
739.234	0.0163550
739.312	0.0162240
739.390	0.0162125
739.468	0.0162337
739.546	0.0161714
739.624	0.0162123
739.703	0.0161385
739.781	0.0162033
739.859	0.0162548
739.937	0.0163206
740.015	0.0162678
740.093	0.0162051
740.171	0.0161657
740.249	0.0161633
740.328	0.0162003
740.406	0.0162457
740.484	0.0161690
740.562	0.0162731
740.640	0.0161073
740.718	0.0160235
740.796	0.0161230
740.874	0.0162515
740.953	0.0162115
741.031	0.0161990
741.109	0.0162144
741.187	0.0160764
741.265	0.0161176
741.343	0.0161804
741.421	0.0161348
741.499	0.0161179
741.578	0.0162775
741.656	0.0161707
741.734	0.0162608
741.812	0.0163102
741.890	0.0163038
741.968	0.0161580
742.046	0.0162488
742.124	0.0161340
742.203	0.0161008
742.281	0.0162650
742.359	0.0162368
742.437	0.0162584
742.515	0.0162467
742.593	0.0162586
742.671	0.0161337
742.749	0.0160738
742.828	0.0161233
742.906	0.0163743
742.984	0.0163474
743.062	0.0161669
743.140	0.0161069
743.218	0.0162299
743.296	0.0163171
743.374	0.0162573
743.453	0.0162546
743.531	0.0163487
743.609	0.0163000
743.687	0.0163623
743.765	0.0163277
743.843	0.0162115
743.921	0.0163134
743.999	0.0161943
744.078	0.0162211
744.156	0.0162836
744.234	0.0163775
744.312	0.0162439
744.390	0.0163079
744.468	0.0162547
744.546	0.0162690
744.624	0.0163889
744.703	0.0163889
744.781	0.0164212
744.859	0.0162264
744.937	0.0163306
745.015	0.0163028
745.093	0.0162246
745.171	0.0164179
745.249	0.0164535
745.328	0.0162276
745.406	0.0163530
745.484	0.0163317
745.562	0.0162737
745.640	0.0163217
745.718	0.0163408
745.796	0.0162334
745.874	0.0164785
745.953	0.0164404
746.031	0.0162646
746.109	0.0163567
746.187	0.0164590
746.265	0.0164471
746.343	0.0163262
746.421	0.0164062
746.499	0.0162905
746.578	0.0163970
746.656	0.0164005
746.734	0.0163534
746.812	0.0163946
746.890	0.0163786
746.968	0.0164394
747.046	0.0163785
747.124	0.0165025
747.203	0.0163535
747.281	0.0163652
747.359	0.0163384
747.437	0.0163310
747.515	0.0162278
747.593	0.0163048
747.671	0.0162979
747.749	0.0162965
747.828	0.0162762
747.906	0.0164015
747.984	0.0163263
748.062	0.0163725
748.140	0.0162388
748.218	0.0163010
748.296	0.0163141
748.374	0.0162868
748.453	0.0163557
748.531	0.0162904
748.609	0.0164241
748.687	0.0164864
748.765	0.0163099
748.843	0.0163036
748.921	0.0162864
748.999	0.0165095
749.078	0.0164038
749.156	0.0163872
749.234	0.0162223
749.312	0.0163048
749.390	0.0164970
749.468	0.0164240
749.546	0.0162794
749.624	0.0164022
749.703	0.0163235
749.781	0.0162950
749.859	0.0163568
749.937	0.0162049
750.015	0.0160748
750.093	0.0162122
750.171	0.0162849
750.249	0.0162338
750.328	0.0162418
750.406	0.0162043
750.484	0.0161449
750.562	0.0160360
750.640	0.0161878
750.718	0.0161404
750.796	0.0162762
750.874	0.0162386
750.953	0.0161998
751.031	0.0161988
751.109	0.0161013
751.187	0.0162600
751.265	0.0163757
751.343	0.0163879
751.421	0.0162135
751.499	0.0160930
751.578	0.0162466
751.656	0.0161637
751.734	0.0162437
751.812	0.0161363
751.890	0.0161327
751.968	0.0160769
752.046	0.0162200
752.124	0.0161891
752.203	0.0161926
752.281	0.0162621
752.359	0.0162148
752.437	0.0162612
752.515	0.0163073
752.593	0.0162423
752.671	0.0161592
752.749	0.0162065
752.828	0.0162205
752.906	0.0162489
752.984	0.0163737
753.062	0.0162576
753.140	0.0163079
753.218	0.0163543
753.296	0.0162418
753.374	0.0162054
753.453	0.0161844
753.531	0.0160938
753.609	0.0162194
753.687	0.0162163
753.765	0.0161427
753.843	0.0162672
753.921	0.0160908
753.999	0.0161594
754.078	0.0160894
754.156	0.0162309
754.234	0.0161701
754.312	0.0161821
754.390	0.0161073
754.468	0.0163615
754.546	0.0163386
754.624	0.0161979
754.703	0.0160687
754.781	0.0161824
754.859	0.0161662
754.937	0.0162668
755.015	0.0163072
755.093	0.0162512
755.171	0.0161667
755.249	0.0161975
755.328	0.0163861
755.406	0.0164000
755.484	0.0162725
755.562	0.0164020
755.640	0.0163069
755.718	0.0164608
755.796	0.0163358
755.874	0.0163972
755.953	0.0161096
756.031	0.0162060
756.109	0.0163649
756.187	0.0162812
756.265	0.0162277
756.343	0.0161733
756.421	0.0163041
756.499	0.0161697
756.578	0.0162897
756.656	0.0163223
756.734	0.0163112
756.812	0.0161983
756.890	0.0163159
756.968	0.0163815
757.046	0.0161861
757.124	0.0161115
757.203	0.0160886
757.281	0.0161662
757.359	0.0160780
757.437	0.0162125
757.515	0.0162811
757.593	0.0162950
757.671	0.0163025
757.749	0.0163171
757.828	0.0163431
757.906	0.0162190
757.984	0.0163408
758.062	0.0164449
758.140	0.0164815
758.218	0.0165149
758.296	0.0165189
758.374	0.0165871
758.453	0.0166549
758.531	0.0164082
758.609	0.0163992
758.687	0.0165418
758.765	0.0164594
758.843	0.0162785
758.921	0.0164371
758.999	0.0162757
759.078	0.0162151
759.156	0.0163623
759.234	0.0164246
759.312	0.0163218
759.390	0.0162611
759.468	0.0163273
759.546	0.0162377
759.624	0.0161760
759.703	0.0161140
759.781	0.0161279
759.859	0.0161552
759.937	0.0160275
760.015	0.0159747
760.093	0.0160353
760.171	0.0159450
760.249	0.0161710
760.328	0.0161572
760.406	0.0159679
760.484	0.0160355
760.562	0.0162055
760.640	0.0159593
760.718	0.0160473
760.796	0.0160844
760.874	0.0161446
760.953	0.0161873
761.031	0.0161587
761.109	0.0162205
761.187	0.0161869
761.265	0.0162343
761.343	0.0161719
761.421	0.0162466
761.499	0.0163360
761.578	0.0163728
761.656	0.0164153
761.734	0.0165434
761.812	0.0166540
761.890	0.0165704
761.968	0.0164995
762.046	0.0165067
762.124	0.0167035
762.203	0.0164994
762.281	0.0166239
762.359	0.0164056
762.437	0.0164881
762.515	0.0162718
762.593	0.0162947
762.671	0.0162961
762.749	0.0163284
762.828	0.0163258
762.906	0.0163986
762.984	0.0163340
763.062	0.0162997
763.140	0.0161812
763.218	0.0163373
763.296	0.0163515
763.374	0.0161189
763.453	0.0161457
763.531	0.0162041
763.609	0.0161543
763.687	0.0162365
763.765	0.0162016
763.843	0.0162289
763.921	0.0161404
763.999	0.0161534
764.078	0.0162604
764.156	0.0161790
764.234	0.0160626
764.312	0.0161944
764.390	0.0159466
764.468	0.0159830
764.546	0.0160682
764.624	0.0159311
764.703	0.0159311
764.781	0.0160078
764.859	0.0160815
764.937	0.0161004
765.015	0.0161269
765.093	0.0160989
765.171	0.0162555
765.249	0.0163256
765.328	0.0162621
765.406	0.0164999
765.484	0.0165752
765.562	0.0165820
765.640	0.0164717
765.718	0.0164629
765.796	0.0164075
765.874	0.0165157
765.953	0.0166098
766.031	0.0165745
766.109	0.0164612
766.187	0.0165919
766.265	0.0164795
766.343	0.0165859
766.421	0.0165996
766.499	0.0165570
766.578	0.0165875
766.656	0.0165292
766.734	0.0164495
766.812	0.0164339
766.890	0.0162973
766.968	0.0164559
767.046	0.0163903
767.124	0.0162833
767.203	0.0164033
767.281	0.0163819
767.359	0.0163982
767.437	0.0163505
767.515	0.0161759
767.593	0.0160725
767.671	0.0161459
767.749	0.0160480
767.828	0.0161242
767.906	0.0158985
767.984	0.0160352
768.062	0.0160391
768.140	0.0160136
768.218	0.0160746
768.296	0.0160453
768.374	0.0160228
768.453	0.0160791
768.531	0.0161477
768.609	0.0163167
768.687	0.0163487
768.765	0.0164347
768.843	0.0164048
768.921	0.0164756
768.999	0.0164753
769.078	0.0163863
769.156	0.0163615
769.234	0.0165261
769.312	0.0164838
769.390	0.0164980
769.468	0.0164935
769.546	0.0166691
769.624	0.0167094
769.703	0.0165892
769.781	0.0166255
769.859	0.0167419
769.937	0.0166730
770.015	0.0167191
770.093	0.0164925
770.171	0.0165282
770.249	0.0165296
770.328	0.0163579
770.406	0.0164117
770.484	0.0163790
770.562	0.0162263
770.640	0.0160898
770.718	0.0161039
770.796	0.0161093
770.874	0.0159033
770.953	0.0159924
771.031	0.0161433
771.109	0.0160223
771.187	0.0160126
771.265	0.0160770
771.343	0.0160111
771.421	0.0160535
771.499	0.0160960
771.578	0.0161398
771.656	0.0161808
771.734	0.0162087
771.812	0.0162765
771.890	0.0161494
771.968	0.0162225
772.046	0.0161712
772.124	0.0161725
772.203	0.0162716
772.281	0.0163315
772.359	0.0162531
772.437	0.0163139
772.515	0.0162828
772.593	0.0162106
772.671	0.0163799
772.749	0.0162981
772.828	0.0164387
772.906	0.0163000
772.984	0.0163180
773.062	0.0163033
773.140	0.0162222
773.218	0.0161856
773.296	0.0162614
773.374	0.0161954
773.453	0.0162362
773.531	0.0164046
773.609	0.0164715
773.687	0.0166107
773.765	0.0165752
773.843	0.0166759
773.921	0.0167452
773.999	0.0168511
774.078	0.0169411
774.156	0.0167561
774.234	0.0167514
774.312	0.0168901
774.390	0.0167931
774.468	0.0167243
774.546	0.0165109
774.624	0.0165768
774.703	0.0164432
774.781	0.0161839
774.859	0.0162281
774.937	0.0160979
775.015	0.0160705
775.093	0.0160384
775.171	0.0158527
775.249	0.0158151
775.328	0.0158231
775.406	0.0157901
775.484	0.0157473
775.562	0.0158966
775.640	0.0158662
775.718	0.0158424
775.796	0.0158350
775.874	0.0158626
775.953	0.0158976
776.031	0.0159691
776.109	0.0159781
776.187	0.0160004
776.265	0.0160849
776.343	0.0161672
776.421	0.0161378
776.499	0.0163174
776.578	0.0164140
776.656	0.0163272
776.734	0.0163537
776.812	0.0163567
776.890	0.0162787
776.968	0.0165103
777.046	0.0163875
777.124	0.0163719
777.203	0.0165086
777.281	0.0164804
777.359	0.0165405
777.437	0.0166439
777.515	0.0164674
777.593	0.0163501
777.671	0.0164975
777.749	0.0164847
777.828	0.0165812
777.906	0.0163436
777.984	0.0163422
778.062	0.0162971
778.140	0.0164700
778.218	0.0164790
778.296	0.0163181
778.374	0.0162969
778.453	0.0163863
778.531	0.0163618
778.609	0.0162666
778.687	0.0163754
778.765	0.0161978
778.843	0.0164651
778.921	0.0163007
778.999	0.0162203
779.078	0.0163189
779.156	0.0163990
779.234	0.0162374
779.312	0.0163103
779.390	0.0161128
779.468	0.0162251
779.546	0.0162128
779.624	0.0162334
779.703	0.0161126
779.781	0.0160237
779.859	0.0159309
779.937	0.0159333
780.015	0.0159575
780.093	0.0158599
780.171	0.0157532
780.249	0.0157504
780.328	0.0157534
780.406	0.0158985
780.484	0.0160580
780.562	0.0159237
780.640	0.0160786
780.718	0.0161524
780.796	0.0161767
780.874	0.0162799
780.953	0.0164767
781.031	0.0164896
781.109	0.0166772
781.187	0.0165498
781.265	0.0165898
781.343	0.0166177
781.421	0.0166610
781.499	0.0166344
781.578	0.0165830
781.656	0.0166100
781.734	0.0166350
781.812	0.0166167
781.890	0.0166119
781.968	0.0164155
782.046	0.0164819
782.124	0.0162856
782.203	0.0163198
782.281	0.0162720
782.359	0.0161854
782.437	0.0160686
782.515	0.0161373
782.593	0.0158927
782.671	0.0156805
782.749	0.0157080
782.828	0.0157417
782.906	0.0157629
782.984	0.0156491
783.062	0.0156847
783.140	0.0156358
783.218	0.0157137
783.296	0.0155998
783.374	0.0157998
783.453	0.0159074
783.531	0.0159032
783.609	0.0158577
783.687	0.0159800
783.765	0.0161786
783.843	0.0163075
783.921	0.0163757
783.999	0.0163242
784.078	0.0164970
784.156	0.0165887
784.234	0.0165357
784.312	0.0167653
784.390	0.0167806
784.468	0.0167726
784.546	0.0168266
784.624	0.0169554
784.703	0.0169376
784.781	0.0169263
784.859	0.0168406
784.937	0.0169484
785.015	0.0168085
785.093	0.0167542
785.171	0.0167068
785.249	0.0165797
785.328	0.0164980
785.406	0.0165095
785.484	0.0163715
785.562	0.0162841
785.640	0.0162517
785.718	0.0161590
785.796	0.0159743
785.874	0.0159554
785.953	0.0157806
786.031	0.0157013
786.109	0.0158639
786.187	0.0157937
786.265	0.0157066
786.343	0.0157785
786.421	0.0156710
786.499	0.0157308
786.578	0.0159227
786.656	0.0158510
786.734	0.0158508
786.812	0.0157739
786.890	0.0157263
786.968	0.0157032
787.046	0.0158603
787.124	0.0157832
787.203	0.0157202
787.281	0.0156676
787.359	0.0156438
787.437	0.0158116
787.515	0.0158200
787.593	0.0159709
787.671	0.0158946
787.749	0.0159763
787.828	0.0161833
787.906	0.0160921
787.984	0.0161986
788.062	0.0162779
788.140	0.0163744
788.218	0.0164091
788.296	0.0163948
788.374	0.0163609
788.453	0.0164116
788.531	0.0164896
788.609	0.0164323
788.687	0.0165514
788.765	0.0164654
788.843	0.0165295
788.921	0.0163341
788.999	0.0165227
789.078	0.0164725
789.156	0.0165356
789.234	0.0163469
789.312	0.0163764
789.390	0.0165443
789.468	0.0164703
789.546	0.0164382
789.624	0.0164379
789.703	0.0163100
789.781	0.0163143
789.859	0.0164025
789.937	0.0162501
790.015	0.0163210
790.093	0.0162504
790.171	0.0162186
790.249	0.0163130
790.328	0.0161617
790.406	0.0161195
790.484	0.0161765
790.562	0.0160989
790.640	0.0161369
790.718	0.0159106
790.796	0.0158336
790.874	0.0158259
790.953	0.0158630
791.031	0.0157190
791.109	0.0156219
791.187	0.0156866
791.265	0.0155524
791.343	0.0156406
791.421	0.0157082
791.499	0.0157232
791.578	0.0159904
791.656	0.0158896
791.734	0.0161714
791.812	0.0161946
791.890	0.0163865
791.968	0.0164583
792.046	0.0164556
792.124	0.0166039
792.203	0.0166032
792.281	0.0166404
792.359	0.0167040
792.437	0.0167686
792.515	0.0166892
792.593	0.0166238
792.671	0.0164173
792.749	0.0165125
792.828	0.0165376
792.906	0.0164188
792.984	0.0163260
793.062	0.0163309
793.140	0.0162750
793.218	0.0160730
793.296	0.0161057
793.374	0.0159496
793.453	0.0159890
793.531	0.0159369
793.609	0.0156899
793.687	0.0157921
793.765	0.0155289
793.843	0.0157308
793.921	0.0155602
793.999	0.0157003
794.078	0.0157674
794.156	0.0157646
794.234	0.0157568
794.312	0.0159992
794.390	0.0159113
794.468	0.0160310
794.546	0.0159972
794.624	0.0160986
794.703	0.0164571
794.781	0.0163404
794.859	0.0165496
794.937	0.0165334
795.015	0.0167878
795.093	0.0167524
795.171	0.0168192
795.249	0.0168861
795.328	0.0167738
795.406	0.0168595
795.484	0.0168833
795.562	0.0167546
795.640	0.0166810
795.718	0.0167436
795.796	0.0166588
795.874	0.0164684
795.953	0.0166258
796.031	0.0164101
796.109	0.0164648
796.187	0.0164334
796.265	0.0163851
796.343	0.0162479
796.421	0.0161346
796.499	0.0161352
796.578	0.0161504
796.656	0.0159582
796.734	0.0158331
796.812	0.0158000
796.890	0.0156559
796.968	0.0156541
797.046	0.0155328
797.124	0.0156516
797.203	0.0156056
797.281	0.0154966
797.359	0.0154575
797.437	0.0154243
797.515	0.0154628
797.593	0.0155769
797.671	0.0154638
797.749	0.0156351
797.828	0.0157027
797.906	0.0158793
797.984	0.0159049
798.062	0.0157852
798.140	0.0159242
798.218	0.0162153
798.296	0.0161147
798.374	0.0162898
798.453	0.0163617
798.531	0.0162942
798.609	0.0163878
798.687	0.0164545
798.765	0.0165810
798.843	0.0166341
798.921	0.0165434
798.999	0.0165117
799.078	0.0165424
799.156	0.0167645
799.234	0.0166336
799.312	0.0166708
799.390	0.0167625
799.468	0.0166863
799.546	0.0166225
799.624	0.0166122
799.703	0.0165272
799.781	0.0164930
799.859	0.0165384
799.937	0.0164539
800.015	0.0164643
800.093	0.0165543
800.171	0.0164563
800.249	0.0164313
800.328	0.0165718
800.406	0.0165527
800.484	0.0164713
800.562	0.0163906
800.640	0.0164407
800.718	0.0164259
800.796	0.0164269
800.874	0.0163899
800.953	0.0163605
801.031	0.0162413
801.109	0.0162174
801.187	0.0160873
801.265	0.0161024
801.343	0.0160322
801.421	0.0160584
801.499	0.0161535
801.578	0.0160443
801.656	0.0159486
801.734	0.0159235
801.812	0.0160246
801.890	0.0159956
801.968	0.0157372
802.046	0.0158660
802.124	0.0159141
802.203	0.0157841
802.281	0.0158089
802.359	0.0158415
802.437	0.0158412
802.515	0.0157767
802.593	0.0159396
802.671	0.0159394
802.749	0.0160243
802.828	0.0161159
802.906	0.0160856
802.984	0.0162569
803.062	0.0162503
803.140	0.0162183
803.218	0.0161815
803.296	0.0162433
803.374	0.0163468
803.453	0.0162964
803.531	0.0163653
803.609	0.0164127
803.687	0.0164872
803.765	0.0162549
803.843	0.0163654
803.921	0.0164924
803.999	0.0163229
804.078	0.0163900
804.156	0.0163796
804.234	0.0162749
804.312	0.0162589
804.390	0.0164220
804.468	0.0162083
804.546	0.0161719
804.624	0.0162495
804.703	0.0161456
804.781	0.0161918
804.859	0.0162177
804.937	0.0161821
805.015	0.0162199
805.093	0.0165028
805.171	0.0163530
805.249	0.0163065
805.328	0.0163570
805.406	0.0162440
805.484	0.0162962
805.562	0.0162523
805.640	0.0163155
805.718	0.0163024
805.796	0.0162005
805.874	0.0163423
805.953	0.0165099
806.031	0.0165178
806.109	0.0165342
806.187	0.0165685
806.265	0.0165717
806.343	0.0164551
806.421	0.0166406
806.499	0.0166282
806.578	0.0164830
806.656	0.0162959
806.734	0.0162591
806.812	0.0162505
806.890	0.0161493
806.968	0.0159912
807.046	0.0160439
807.124	0.0159602
807.203	0.0158324
807.281	0.0157172
807.359	0.0156274
807.437	0.0155840
807.515	0.0155862
807.593	0.0155550
807.671	0.0155075
807.749	0.0155005
807.828	0.0155036
807.906	0.0157227
807.984	0.0155935
808.062	0.0156395
808.140	0.0157777
808.218	0.0158517
808.296	0.0158162
808.374	0.0159237
808.453	0.0160966
808.531	0.0161336
808.609	0.0160520
808.687	0.0161089
808.765	0.0163291
808.843	0.0163344
808.921	0.0163132
808.999	0.0163251
809.078	0.0163729
809.156	0.0164035
809.234	0.0163000
809.312	0.0164492
809.390	0.0163367
809.468	0.0163052
809.546	0.0163754
809.624	0.0164919
809.703	0.0164105
809.781	0.0163961
809.859	0.0163817
809.937	0.0163898
810.015	0.0164173
810.093	0.0163615
810.171	0.0164201
810.249	0.0165265
810.328	0.0163003
810.406	0.0163684
810.484	0.0165783
810.562	0.0165080
810.640	0.0164362
810.718	0.0164394
810.796	0.0164662
810.874	0.0165148
810.953	0.0166387
811.031	0.0164581
811.109	0.0164321
811.187	0.0166221
811.265	0.0163698
811.343	0.0162298
811.421	0.0162559
811.499	0.0162379
811.578	0.0160589
811.656	0.0161370
811.734	0.0161097
811.812	0.0160954
811.890	0.0158742
811.968	0.0160442
812.046	0.0160380
812.124	0.0158547
812.203	0.0158318
812.281	0.0157615
812.359	0.0157786
812.437	0.0156512
812.515	0.0156476
812.593	0.0156821
812.671	0.0154907
812.749	0.0153772
812.828	0.0154465
812.906	0.0153535
812.984	0.0155762
813.062	0.0154884
813.140	0.0154967
813.218	0.0154836
813.296	0.0156907
813.374	0.0156763
813.453	0.0156629
813.531	0.0158314
813.609	0.0159185
813.687	0.0159938
813.765	0.0161054
813.843	0.0163723
813.921	0.0164610
813.999	0.0166021
814.078	0.0167097
814.156	0.0167378
814.234	0.0167325
814.312	0.0168749
814.390	0.0169559
814.468	0.0169743
814.546	0.0169054
814.624	0.0168156
814.703	0.0167812
814.781	0.0167993
814.859	0.0167068
814.937	0.0164356
815.015	0.0163551
815.093	0.0161913
815.171	0.0161774
815.249	0.0162948
815.328	0.0160497
815.406	0.0160552
815.484	0.0159723
815.562	0.0158961
815.640	0.0158523
815.718	0.0158125
815.796	0.0159693
815.874	0.0160588
815.953	0.0159965
816.031	0.0159476
816.109	0.0161625
816.187	0.0160238
816.265	0.0161134
816.343	0.0162626
816.421	0.0162704
816.499	0.0161478
816.578	0.0162476
816.656	0.0161063
816.734	0.0161782
816.812	0.0162080
816.890	0.0162099
816.968	0.0162664
817.046	0.0160641
817.124	0.0161549
817.203	0.0161371
817.281	0.0159859
817.359	0.0160171
817.437	0.0159083
817.515	0.0159013
817.593	0.0158987
817.671	0.0159707
817.749	0.0158141
817.828	0.0158755
817.906	0.0158026
817.984	0.0157317
818.062	0.0158216
818.140	0.0158827
818.218	0.0159604
818.296	0.0159866
818.374	0.0159708
818.453	0.0158647
818.531	0.0160606
818.609	0.0160527
818.687	0.0160913
818.765	0.0160619
818.843	0.0162521
818.921	0.0161878
818.999	0.0161860
819.078	0.0162495
819.156	0.0163579
819.234	0.0164355
819.312	0.0165337
819.390	0.0164947
819.468	0.0165601
819.546	0.0167804
819.624	0.0168481
819.703	0.0168736
819.781	0.0168620
819.859	0.0169534
819.937	0.0169721
820.015	0.0169337
820.093	0.0170331
820.171	0.0170373
820.249	0.0167237
820.328	0.0167735
820.406	0.0165936
820.484	0.0166799
820.562	0.0164175
820.640	0.0162111
820.718	0.0161095
820.796	0.0160600
820.874	0.0160296
820.953	0.0158681
821.031	0.0157729
821.109	0.0158791
821.187	0.0158583
821.265	0.0157635
821.343	0.0156345
821.421	0.0156895
821.499	0.0157721
821.578	0.0158321
821.656	0.0158170
821.734	0.0158932
821.812	0.0158234
821.890	0.0159531
821.968	0.0159474
822.046	0.0160439
822.124	0.0161182
822.203	0.0162595
822.281	0.0163372
822.359	0.0164093
822.437	0.0163683
822.515	0.0162955
822.593	0.0164300
822.671	0.0165517
822.749	0.0166064
822.828	0.0166280
822.906	0.0168024
822.984	0.0168288
823.062	0.0167511
823.140	0.0165875
823.218	0.0166477
823.296	0.0168480
823.374	0.0166901
823.453	0.0166769
823.531	0.0164743
823.609	0.0165351
823.687	0.0164681
823.765	0.0163881
823.843	0.0162755
823.921	0.0162384
823.999	0.0162221
824.078	0.0161359
824.156	0.0160072
824.234	0.0160348
824.312	0.0158817
824.390	0.0159430
824.468	0.0158471
824.546	0.0158712
824.624	0.0157632
824.703	0.0157996
824.781	0.0158515
824.859	0.0158858
824.937	0.0158710
825.015	0.0160561
825.093	0.0158463
825.171	0.0162022
825.249	0.0162460
825.328	0.0162997
825.406	0.0162839
825.484	0.0164075
825.562	0.0164797
825.640	0.0165333
825.718	0.0166445
825.796	0.0167276
825.874	0.0166533
825.953	0.0168492
826.031	0.0169347
826.109	0.0170878
826.187	0.0170753
826.265	0.0168906
826.343	0.0170483
826.421	0.0171306
826.499	0.0170039
826.578	0.0171333
826.656	0.0170799
826.734	0.0168803
826.812	0.0168047
826.890	0.0169054
826.968	0.0166124
827.046	0.0163573
827.124	0.0163110
827.203	0.0162595
827.281	0.0160691
827.359	0.0159957
827.437	0.0158391
827.515	0.0156477
827.593	0.0156745
827.671	0.0155514
827.749	0.0155108
827.828	0.0155109
827.906	0.0155011
827.984	0.0154942
828.062	0.0154468
828.140	0.0156020
828.218	0.0157203
828.296	0.0155686
828.374	0.0155860
828.453	0.0157901
828.531	0.0159000
828.609	0.0159607
828.687	0.0161160
828.765	0.0161388
828.843	0.0162830
828.921	0.0164021
828.999	0.0165054
829.078	0.0166628
829.156	0.0166464
829.234	0.0167548
829.312	0.0169749
829.390	0.0169463
829.468	0.0169881
829.546	0.0169447
829.624	0.0169139
829.703	0.0171680
829.781	0.0170119
829.859	0.0170461
829.937	0.0170021
830.015	0.0170555
830.093	0.0169989
830.171	0.0169191
830.249	0.0168329
830.328	0.0168829
830.406	0.0167181
830.484	0.0166682
830.562	0.0166743
830.640	0.0165322
830.718	0.0164164
830.796	0.0164324
830.874	0.0162238
830.953	0.0159617
831.031	0.0160078
831.109	0.0158789
831.187	0.0158194
831.265	0.0155740
831.343	0.0156845
831.421	0.0157461
831.499	0.0156308
831.578	0.0156179
831.656	0.0156402
831.734	0.0156971
831.812	0.0156699
831.890	0.0155582
831.968	0.0157974
832.046	0.0158659
832.124	0.0159083
832.203	0.0158974
832.281	0.0160942
832.359	0.0160806
832.437	0.0161679
832.515	0.0160690
832.593	0.0162323
832.671	0.0163583
832.749	0.0162988
832.828	0.0162778
832.906	0.0162550
832.984	0.0163020
833.062	0.0162746
833.140	0.0164339
833.218	0.0162895
833.296	0.0162234
833.374	0.0162999
833.453	0.0162440
833.531	0.0162665
833.609	0.0165186
833.687	0.0163958
833.765	0.0163273
833.843	0.0162688
833.921	0.0163868
833.999	0.0164997
834.078	0.0165924
834.156	0.0164384
834.234	0.0164581
834.312	0.0165119
834.390	0.0163095
834.468	0.0164442
834.546	0.0164261
834.624	0.0163350
834.703	0.0161571
834.781	0.0163446
834.859	0.0164897
834.937	0.0162778
835.015	0.0162328
835.093	0.0161944
835.171	0.0160950
835.249	0.0162747
835.328	0.0161916
835.406	0.0160345
835.484	0.0161260
835.562	0.0160439
835.640	0.0160533
835.718	0.0159803
835.796	0.0158412
835.874	0.0159021
835.953	0.0160006
836.031	0.0158626
836.109	0.0158046
836.187	0.0157243
836.265	0.0158727
836.343	0.0158835
836.421	0.0158286
836.499	0.0157939
836.578	0.0158217
836.656	0.0160504
836.734	0.0160661
836.812	0.0161773
836.890	0.0162310
836.968	0.0162849
837.046	0.0161800
837.124	0.0162907
837.203	0.0163425
837.281	0.0165540
837.359	0.0164446
837.437	0.0164461
837.515	0.0165802
837.593	0.0164426
837.671	0.0165464
837.749	0.0165445
837.828	0.0165585
837.906	0.0165448
837.984	0.0166300
838.062	0.0163794
838.140	0.0164078
838.218	0.0163948
838.296	0.0163367
838.374	0.0163002
838.453	0.0163261
838.531	0.0162675
838.609	0.0162130
838.687	0.0159950
838.765	0.0159328
838.843	0.0158277
838.921	0.0158165
838.999	0.0157055
839.078	0.0156863
839.156	0.0157073
839.234	0.0156583
839.312	0.0155611
839.390	0.0155382
839.468	0.0156136
839.546	0.0154940
839.624	0.0156554
839.703	0.0157890
839.781	0.0158146
839.859	0.0158723
839.937	0.0160065
840.015	0.0159498
840.093	0.0162877
840.171	0.0162550
840.249	0.0164172
840.328	0.0164198
840.406	0.0165469
840.484	0.0165387
840.562	0.0166113
840.640	0.0168141
840.718	0.0168224
840.796	0.0168720
840.874	0.0169092
840.953	0.0169426
841.031	0.0168884
841.109	0.0168134
841.187	0.0168043
841.265	0.0168165
841.343	0.0166357
841.421	0.0166627
841.499	0.0166048
841.578	0.0165347
841.656	0.0163693
841.734	0.0163400
841.812	0.0162843
841.890	0.0163680
841.968	0.0162331
842.046	0.0161422
842.124	0.0160445
842.203	0.0159940
842.281	0.0159912
842.359	0.0159319
842.437	0.0160400
842.515	0.0159574
842.593	0.0158467
842.671	0.0159795
842.749	0.0159495
842.828	0.0159120
842.906	0.0160258
842.984	0.0160523
843.062	0.0159402
843.140	0.0160464
843.218	0.0161816
843.296	0.0160571
843.374	0.0161932
843.453	0.0162522
843.531	0.0162669
843.609	0.0164560
843.687	0.0163570
843.765	0.0163348
843.843	0.0164930
843.921	0.0166027
843.999	0.0165442
844.078	0.0166557
844.156	0.0167054
844.234	0.0165193
844.312	0.0166243
844.390	0.0166760
844.468	0.0166124
844.546	0.0165322
844.624	0.0165861
844.703	0.0165300
844.781	0.0163604
844.859	0.0164261
844.937	0.0165193
845.015	0.0163130
845.093	0.0162027
845.171	0.0162895
845.249	0.0161797
845.328	0.0162207
845.406	0.0161761
845.484	0.0161786
845.562	0.0162599
845.640	0.0161754
845.718	0.0163394
845.796	0.0161696
845.874	0.0162546
845.953	0.0162637
846.031	0.0161823
846.109	0.0162768
846.187	0.0161575
846.265	0.0161293
846.343	0.0161166
846.421	0.0162256
846.499	0.0162071
846.578	0.0160860
846.656	0.0162306
846.734	0.0162634
846.812	0.0163199
846.890	0.0163873
846.968	0.0165095
847.046	0.0164310
847.124	0.0164102
847.203	0.0164227
847.281	0.0165540
847.359	0.0163317
847.437	0.0164761
847.515	0.0166315
847.593	0.0165179
847.671	0.0164862
847.749	0.0165575
847.828	0.0165495
847.906	0.0165666
847.984	0.0165145
848.062	0.0166138
848.140	0.0164837
848.218	0.0165518
848.296	0.0165246
848.374	0.0163502
848.453	0.0164864
848.531	0.0164891
848.609	0.0163796
848.687	0.0161952
848.765	0.0161711
848.843	0.0162267
848.921	0.0162233
848.999	0.0162158
849.078	0.0162244
849.156	0.0161075
849.234	0.0160806
849.312	0.0160925
849.390	0.0160990
849.468	0.0162097
849.546	0.0161227
849.624	0.0162141
849.703	0.0161755
849.781	0.0161717
849.859	0.0161891
849.937	0.0162173
850.015	0.0160625
850.093	0.0162399
850.171	0.0161964
850.249	0.0163916
850.328	0.0163589
850.406	0.0163543
850.484	0.0162762
850.562	0.0163390
850.640	0.0164734
850.718	0.0164322
850.796	0.0163657
850.874	0.0164793
850.953	0.0165717
851.031	0.0165266
851.109	0.0165138
851.187	0.0165453
851.265	0.0163001
851.343	0.0163420
851.421	0.0165030
851.499	0.0162084
851.578	0.0163175
851.656	0.0162749
851.734	0.0162533
851.812	0.0162011
851.890	0.0161157
851.968	0.0162617
852.046	0.0162551
852.124	0.0160991
852.203	0.0161370
852.281	0.0162054
852.359	0.0161931
852.437	0.0161927
852.515	0.0162806
852.593	0.0162099
852.671	0.0162137
852.749	0.0163193
852.828	0.0163412
852.906	0.0163644
852.984	0.0161968
853.062	0.0164810
853.140	0.0163913
853.218	0.0163683
853.296	0.0164024
853.374	0.0162854
853.453	0.0164572
853.531	0.0165140
853.609	0.0163143
853.687	0.0163380
853.765	0.0164803
853.843	0.0163599
853.921	0.0163457
853.999	0.0164996
854.078	0.0163771
854.156	0.0164661
854.234	0.0163064
854.312	0.0164072
854.390	0.0163544
854.468	0.0162141
854.546	0.0162753
854.624	0.0162403
854.703	0.0161165
854.781	0.0161928
854.859	0.0161546
854.937	0.0162050
855.015	0.0162135
855.093	0.0162851
855.171	0.0162981
855.249	0.0161485
855.328	0.0162435
855.406	0.0161937
855.484	0.0163416
855.562	0.0162362
855.640	0.0163107
855.718	0.0164340
855.796	0.0164306
855.874	0.0162851
855.953	0.0163899
856.031	0.0164850
856.109	0.0163495
856.187	0.0164259
856.265	0.0163705
856.343	0.0163585
856.421	0.0163438
856.499	0.0164609
856.578	0.0163567
856.656	0.0163344
856.734	0.0162759
856.812	0.0163051
856.890	0.0164548
856.968	0.0162487
857.046	0.0163225
857.124	0.0162612
857.203	0.0162439
857.281	0.0163231
857.359	0.0162489
857.437	0.0162759
857.515	0.0163058
857.593	0.0162251
857.671	0.0162013
857.749	0.0162351
857.828	0.0162590
857.906	0.0162765
857.984	0.0161687
858.062	0.0161619
858.140	0.0162521
858.218	0.0163329
858.296	0.0162647
858.374	0.0164063
858.453	0.0162647
858.531	0.0164512
858.609	0.0164156
858.687	0.0163380
858.765	0.0164302
858.843	0.0164095
858.921	0.0165290
858.999	0.0165599
859.078	0.0164631
859.156	0.0166190
859.234	0.0166702
859.312	0.0165457
859.390	0.0166214
859.468	0.0166326
859.546	0.0165714
859.624	0.0166866
859.703	0.0165165
859.781	0.0167035
859.859	0.0164925
859.937	0.0163170
860.015	0.0163805
860.093	0.0165099
860.171	0.0162378
860.249	0.0163174
860.328	0.0161739
860.406	0.0161185
860.484	0.0161509
860.562	0.0161157
860.640	0.0160285
860.718	0.0159161
860.796	0.0159243
860.874	0.0159886
860.953	0.0159260
861.031	0.0159503
861.109	0.0159978
861.187	0.0160285
861.265	0.0161576
861.343	0.0159752
861.421	0.0162328
861.499	0.0161174
861.578	0.0159983
861.656	0.0159524
861.734	0.0161575
861.812	0.0161247
861.890	0.0160751
861.968	0.0160886
862.046	0.0161101
862.124	0.0162157
862.203	0.0161621
862.281	0.0161977
862.359	0.0161607
862.437	0.0162148
862.515	0.0160551
862.593	0.0162904
862.671	0.0161687
862.749	0.0161734
862.828	0.0162069
862.906	0.0162691
862.984	0.0160809
863.062	0.0161507
863.140	0.0162474
863.218	0.0163074
863.296	0.0159867
863.374	0.0162673
863.453	0.0162785
863.531	0.0163258
863.609	0.0163181
863.687	0.0161847
863.765	0.0162617
863.843	0.0162270
863.921	0.0163775
863.999	0.0164470
864.078	0.0164356
864.156	0.0163981
864.234	0.0163737
864.312	0.0163716
864.390	0.0165466
864.468	0.0164706
864.546	0.0163451
864.624	0.0164406
864.703	0.0162969
864.781	0.0163840
864.859	0.0163148
864.937	0.0163632
865.015	0.0164000
865.093	0.0162571
865.171	0.0163668
865.249	0.0163772
865.328	0.0162449
865.406	0.0161206
865.484	0.0161609
865.562	0.0161577
865.640	0.0161031
865.718	0.0161604
865.796	0.0161692
865.874	0.0163437
865.953	0.0162588
866.031	0.0162592
866.109	0.0160696
866.187	0.0162130
866.265	0.0161855
866.343	0.0160952
866.421	0.0161040
866.499	0.0161185
866.578	0.0161486
866.656	0.0162195
866.734	0.0160093
866.812	0.0161541
866.890	0.0161427
866.968	0.0162516
867.046	0.0162000
867.124	0.0160746
867.203	0.0160202
867.281	0.0161490
867.359	0.0161882
867.437	0.0164437
867.515	0.0162691
867.593	0.0163152
867.671	0.0162640
867.749	0.0161694
867.828	0.0162645
867.906	0.0162513
867.984	0.0162160
868.062	0.0162633
868.140	0.0162570
868.218	0.0163374
868.296	0.0162581
868.374	0.0162336
868.453	0.0163203
868.531	0.0163197
868.609	0.0161683
868.687	0.0162686
868.765	0.0162751
868.843	0.0162254
868.921	0.0163892
868.999	0.0163508
869.078	0.0163739
869.156	0.0164555
869.234	0.0165092
869.312	0.0165030
869.390	0.0164117
869.468	0.0163950
869.546	0.0164995
869.624	0.0164260
869.703	0.0163155
869.781	0.0164433
869.859	0.0162871
869.937	0.0164498
870.015	0.0162893
870.093	0.0163600
870.171	0.0162048
870.249	0.0162710
870.328	0.0161880
870.406	0.0162260
870.484	0.0162984
870.562	0.0162041
870.640	0.0161946
870.718	0.0162664
870.796	0.0162258
870.874	0.0162205
870.953	0.0161497
871.031	0.0160708
871.109	0.0160526
871.187	0.0162260
871.265	0.0163286
871.343	0.0163164
871.421	0.0162788
871.499	0.0161220
871.578	0.0162241
871.656	0.0162227
871.734	0.0162494
871.812	0.0162955
871.890	0.0162831
871.968	0.0162833
872.046	0.0163622
872.124	0.0163246
872.203	0.0162335
872.281	0.0162980
872.359	0.0160851
872.437	0.0161423
872.515	0.0163495
872.593	0.0163522
872.671	0.0163271
872.749	0.0163820
872.828	0.0160918
872.906	0.0160306
872.984	0.0160700
873.062	0.0161510
873.140	0.0162223
873.218	0.0162334
873.296	0.0161772
873.374	0.0161295
873.453	0.0162408
873.531	0.0162712
873.609	0.0162482
873.687	0.0162247
873.765	0.0163336
873.843	0.0163138
873.921	0.0163232
873.999	0.0162634
874.078	0.0163982
874.156	0.0163974
874.234	0.0164429
874.312	0.0163652
874.390	0.0164037
874.468	0.0163412
874.546	0.0164413
874.624	0.0163618
874.703	0.0163889
874.781	0.0163420
874.859	0.0162121
874.937	0.0163351
875.015	0.0163012
875.093	0.0162048
875.171	0.0163218
875.249	0.0164117
875.328	0.0162280
875.406	0.0162826
875.484	0.0163602
875.562	0.0161794
875.640	0.0162753
875.718	0.0162298
875.796	0.0162933
875.874	0.0160818
875.953	0.0162453
876.031	0.0162058
876.109	0.0161719
876.187	0.0162807
876.265	0.0162480
876.343	0.0161933
876.421	0.0162469
876.499	0.0160789
876.578	0.0162317
876.656	0.0161120
876.734	0.0162245
876.812	0.0163025
876.890	0.0161713
876.968	0.0162698
877.046	0.0163059
877.124	0.0162122
877.203	0.0162675
877.281	0.0162767
877.359	0.0162811
877.437	0.0161583
877.515	0.0161965
877.593	0.0161824
877.671	0.0162344
877.749	0.0161218
877.828	0.0161824
877.906	0.0163113
877.984	0.0164136
878.062	0.0162698
878.140	0.0162681
878.218	0.0163121
878.296	0.0163057
878.374	0.0162727
878.453	0.0163131
878.531	0.0162737
878.609	0.0164143
878.687	0.0162301
878.765	0.0162780
878.843	0.0163300
878.921	0.0162064
878.999	0.0161461
879.078	0.0162499
879.156	0.0161662
879.234	0.0161531
879.312	0.0160606
879.390	0.0161760
879.468	0.0162381
879.546	0.0160487
879.624	0.0160667
879.703	0.0161148
879.781	0.0161414
879.859	0.0161710
879.937	0.0160419
880.015	0.0162247
880.093	0.0161581
880.171	0.0160522
880.249	0.0161874
880.328	0.0162624
880.406	0.0161722
880.484	0.0161166
880.562	0.0161466
880.640	0.0160911
880.718	0.0162467
880.796	0.0162965
880.874	0.0161730
880.953	0.0161407
881.031	0.0161335
881.109	0.0161872
881.187	0.0162135
881.265	0.0161002
881.343	0.0163048
881.421	0.0161891
881.499	0.0161134
881.578	0.0161802
881.656	0.0163006
881.734	0.0162337
881.812	0.0162993
881.890	0.0161488
881.968	0.0162921
882.046	0.0162200
882.124	0.0162315
882.203	0.0161719
882.281	0.0162823
882.359	0.0161728
882.437	0.0162427
882.515	0.0163246
882.593	0.0161794
882.671	0.0161650
882.749	0.0163126
882.828	0.0161141
882.906	0.0163181
882.984	0.0162713
883.062	0.0162505
883.140	0.0160794
883.218	0.0161282
883.296	0.0161738
883.374	0.0162479
883.453	0.0161268
883.531	0.0162106
883.609	0.0162210
883.687	0.0162672
883.765	0.0161961
883.843	0.0161856
883.921	0.0162109
883.999	0.0161420
884.078	0.0162384
884.156	0.0163313
884.234	0.0163025
884.312	0.0162460
884.390	0.0163695
884.468	0.0163376
884.546	0.0162838
884.624	0.0163919
884.703	0.0162666
884.781	0.0161974
884.859	0.0161970
884.937	0.0162276
885.015	0.0162229
885.093	0.0162734
885.171	0.0164078
885.249	0.0162686
885.328	0.0162262
885.406	0.0163963
885.484	0.0162821
885.562	0.0164072
885.640	0.0163183
885.718	0.0161826
885.796	0.0162418
885.874	0.0161816
885.953	0.0161948
886.031	0.0161787
886.109	0.0162215
886.187	0.0161939
886.265	0.0162276
886.343	0.0162288
886.421	0.0162917
886.499	0.0162354
886.578	0.0161950
886.656	0.0161271
886.734	0.0161596
886.812	0.0163021
886.890	0.0162241
886.968	0.0162514
887.046	0.0162376
887.124	0.0160776
887.203	0.0159937
887.281	0.0161740
887.359	0.0161111
887.437	0.0161488
887.515	0.0160722
887.593	0.0162326
887.671	0.0161301
887.749	0.0162309
887.828	0.0162051
887.906	0.0162106
887.984	0.0162537
888.062	0.0163038
888.140	0.0164088
888.218	0.0162636
888.296	0.0163640
888.374	0.0163918
888.453	0.0163411
888.531	0.0164199
888.609	0.0164561
888.687	0.0163843
888.765	0.0162912
888.843	0.0162389
888.921	0.0164238
888.999	0.0164344
889.078	0.0163168
889.156	0.0163194
889.234	0.0164277
889.312	0.0164076
889.390	0.0163762
889.468	0.0163628
889.546	0.0163492
889.624	0.0164288
889.703	0.0164644
889.781	0.0162897
889.859	0.0163469
889.937	0.0165018
890.015	0.0163319
890.093	0.0163380
890.171	0.0163378
890.249	0.0162843
890.328	0.0162993
890.406	0.0163583
890.484	0.0162995
890.562	0.0163993
890.640	0.0162582
890.718	0.0162103
890.796	0.0163521
890.874	0.0162342
890.953	0.0163725
891.031	0.0163164
891.109	0.0163206
891.187	0.0162398
891.265	0.0163639
891.343	0.0162917
891.421	0.0162741
891.499	0.0163144
891.578	0.0163682
891.656	0.0162997
891.734	0.0162264
891.812	0.0163084
891.890	0.0164731
891.968	0.0164474
892.046	0.0163489
892.124	0.0163963
892.203	0.0163541
892.281	0.0163072
892.359	0.0162704
892.437	0.0163718
892.515	0.0163304
892.593	0.0161959
892.671	0.0162777
892.749	0.0161875
892.828	0.0163206
892.906	0.0161457
892.984	0.0162501
893.062	0.0161928
893.140	0.0162300
893.218	0.0161942
893.296	0.0161142
893.374	0.0160828
893.453	0.0162393
893.531	0.0161986
893.609	0.0162139
893.687	0.0162769
893.765	0.0163139
893.843	0.0162401
893.921	0.0163156
893.999	0.0163013
894.078	0.0164014
894.156	0.0164007
894.234	0.0163176
894.312	0.0162123
894.390	0.0162627
894.468	0.0162854
894.546	0.0162865
894.624	0.0161776
894.703	0.0162704
894.781	0.0163560
894.859	0.0162917
894.937	0.0162234
895.015	0.0163734
895.093	0.0163557
895.171	0.0162572
895.249	0.0161977
895.328	0.0163726
895.406	0.0162997
895.484	0.0160725
895.562	0.0163493
895.640	0.0162313
895.718	0.0162348
895.796	0.0161478
895.874	0.0161353
895.953	0.0162212
896.031	0.0162835
896.109	0.0161344
896.187	0.0161979
896.265	0.0161470
896.343	0.0162148
896.421	0.0160375
896.499	0.0161549
896.578	0.0161935
896.656	0.0161271
896.734	0.0160861
896.812	0.0161773
896.890	0.0160697
896.968	0.0160847
897.046	0.0161689
897.124	0.0161746
897.203	0.0162247
897.281	0.0162169
897.359	0.0161393
897.437	0.0163306
897.515	0.0161056
897.593	0.0162014
897.671	0.0162177
897.749	0.0161968
897.828	0.0160118
897.906	0.0162368
897.984	0.0160965
898.062	0.0161037
898.140	0.0162644
898.218	0.0161112
898.296	0.0162422
898.374	0.0161610
898.453	0.0162319
898.531	0.0160516
898.609	0.0162425
898.687	0.0162700
898.765	0.0161066
898.843	0.0161417
898.921	0.0161767
898.999	0.0162274
899.078	0.0160950
899.156	0.0160999
899.234	0.0160980
899.312	0.0161333
899.390	0.0162446
899.468	0.0161819
899.546	0.0163271
899.624	0.0160603
899.703	0.0160222
899.781	0.0162513
899.859	0.0161877
899.937	0.0161686
900.015	0.0161719
900.093	0.0161823
900.171	0.0162036
900.249	0.0162373
900.328	0.0161955
900.406	0.0162137
900.484	0.0161418
900.562	0.0161359
900.640	0.0161785
900.718	0.0161465
900.796	0.0162051
900.874	0.0162846
900.953	0.0163072
901.031	0.0162356
901.109	0.0162592
901.187	0.0160120
901.265	0.0162746
901.343	0.0162003
901.421	0.0162742
901.499	0.0161810
901.578	0.0161164
901.656	0.0161305
901.734	0.0160233
901.812	0.0162127
901.890	0.0161519
901.968	0.0162065
902.046	0.0161781
902.124	0.0161004
902.203	0.0163328
902.281	0.0163151
902.359	0.0161633
902.437	0.0161386
902.515	0.0163107
902.593	0.0162809
902.671	0.0162539
902.749	0.0161932
902.828	0.0161954
902.906	0.0162543
902.984	0.0163161
903.062	0.0163617
903.140	0.0161801
903.218	0.0162653
903.296	0.0162211
903.374	0.0162844
903.453	0.0161855
903.531	0.0163255
903.609	0.0163691
903.687	0.0162057
903.765	0.0163818
903.843	0.0163606
903.921	0.0163397
903.999	0.0163157
904.078	0.0164288
904.156	0.0162512
904.234	0.0162958
904.312	0.0162309
904.390	0.0161256
904.468	0.0160253
904.546	0.0162180
904.624	0.0164030
904.703	0.0162099
904.781	0.0161800
904.859	0.0161937
904.937	0.0161510
905.015	0.0161633
905.093	0.0160897
905.171	0.0161819
905.249	0.0161191
905.328	0.0161753
905.406	0.0161707
905.484	0.0162302
905.562	0.0162839
905.640	0.0162325
905.718	0.0163057
905.796	0.0162713
905.874	0.0162315
905.953	0.0163643
906.031	0.0162131
906.109	0.0163171
906.187	0.0163203
906.265	0.0163458
906.343	0.0164166
906.421	0.0164317
906.499	0.0163244
906.578	0.0162325
906.656	0.0163445
906.734	0.0163747
906.812	0.0162401
906.890	0.0162692
906.968	0.0163998
907.046	0.0162957
907.124	0.0164054
907.203	0.0164235
907.281	0.0163754
907.359	0.0163338
907.437	0.0163899
907.515	0.0164693
907.593	0.0164748
907.671	0.0162720
907.749	0.0162288
907.828	0.0162926
907.906	0.0163517
907.984	0.0163636
908.062	0.0162742
908.140	0.0163910
908.218	0.0163309
908.296	0.0161900
908.374	0.0162550
908.453	0.0163621
908.531	0.0162575
908.609	0.0162920
908.687	0.0160825
908.765	0.0162608
908.843	0.0160596
908.921	0.0161405
908.999	0.0160716
909.078	0.0161244
909.156	0.0162785
909.234	0.0161785
909.312	0.0162152
909.390	0.0162323
909.468	0.0161464
909.546	0.0161445
909.624	0.0162479
909.703	0.0163310
909.781	0.0163011
909.859	0.0160577
909.937	0.0160866
910.015	0.0160381
910.093	0.0161826
910.171	0.0161508
910.249	0.0163246
910.328	0.0162900
910.406	0.0162597
910.484	0.0162482
910.562	0.0163072
910.640	0.0162115
910.718	0.0163497
910.796	0.0163657
910.874	0.0163602
910.953	0.0164455
911.031	0.0162407
911.109	0.0163313
911.187	0.0164124
911.265	0.0162827
911.343	0.0163397
911.421	0.0163595
911.499	0.0164651
911.578	0.0164112
911.656	0.0162238
911.734	0.0163446
911.812	0.0163900
911.890	0.0163757
911.968	0.0163130
912.046	0.0164498
912.124	0.0164766
912.203	0.0162469
912.281	0.0165134
912.359	0.0164159
912.437	0.0163292
912.515	0.0165000
912.593	0.0163737
912.671	0.0163683
912.749	0.0162650
912.828	0.0163593
912.906	0.0163539
912.984	0.0163110
913.062	0.0163905
913.140	0.0163145
913.218	0.0162875
913.296	0.0163927
913.374	0.0163720
913.453	0.0164139
913.531	0.0162446
913.609	0.0163676
913.687	0.0161466
913.765	0.0162234
913.843	0.0161502
913.921	0.0161611
913.999	0.0162250
914.078	0.0161813
914.156	0.0162457
914.234	0.0161919
914.312	0.0161453
914.390	0.0161626
914.468	0.0160139
914.546	0.0161922
914.624	0.0161292
914.703	0.0161695
914.781	0.0162720
914.859	0.0161905
914.937	0.0162023
915.015	0.0159844
915.093	0.0162147
915.171	0.0162819
915.249	0.0161866
915.328	0.0160114
915.406	0.0162222
915.484	0.0162543
915.562	0.0162446
915.640	0.0162736
915.718	0.0162083
915.796	0.0162646
915.874	0.0162386
915.953	0.0161852
916.031	0.0163911
916.109	0.0163970
916.187	0.0163631
916.265	0.0164360
916.343	0.0163177
916.421	0.0164080
916.499	0.0162717
916.578	0.0163684
916.656	0.0163417
916.734	0.0163786
916.812	0.0163602
916.890	0.0164365
916.968	0.0163927
917.046	0.0163380
917.124	0.0163692
917.203	0.0162653
917.281	0.0162513
917.359	0.0163038
917.437	0.0164417
917.515	0.0163486
917.593	0.0163802
917.671	0.0165028
917.749	0.0163393
917.828	0.0162446
917.906	0.0162309
917.984	0.0163819
918.062	0.0162244
918.140	0.0164303
918.218	0.0164509
918.296	0.0163657
918.374	0.0163759
918.453	0.0163610
918.531	0.0162981
918.609	0.0162819
918.687	0.0162451
918.765	0.0162746
918.843	0.0162122
918.921	0.0164622
918.999	0.0162088
919.078	0.0164491
919.156	0.0162644
919.234	0.0162504
919.312	0.0163052
919.390	0.0162681
919.468	0.0163718
919.546	0.0163755
919.624	0.0162772
919.703	0.0162632
919.781	0.0162904
919.859	0.0163357
919.937	0.0163067
