06/10/2022	18:56:45	Ver.	4.1	UNKNOWN
Optical Delay	600.015094	Delta X		0.078125	Sweeps	1	Scan Rate	0/0
Coordinates	Axis 1	NaN	Axis 2	NaN	Axis 3	NaN	Axis 4	NaN	Axis 5	NaN	Axis 6	0.000000
TX Power	0.000000	RX Power	0.000000

600.015	0.0159938
600.093	0.0159267
600.171	0.0159019
600.249	0.0160038
600.328	0.0158765
600.406	0.0159685
600.484	0.0158399
600.562	0.0159396
600.640	0.0159288
600.718	0.0158373
600.796	0.0158939
600.874	0.0160735
600.953	0.0160004
601.031	0.0159360
601.109	0.0160239
601.187	0.0159396
601.265	0.0158372
601.343	0.0158315
601.421	0.0158096
601.499	0.0159113
601.578	0.0158904
601.656	0.0158617
601.734	0.0160246
601.812	0.0158995
601.890	0.0158394
601.968	0.0157861
602.046	0.0157769
602.124	0.0159517
602.203	0.0158661
602.281	0.0159783
602.359	0.0158920
602.437	0.0157329
602.515	0.0158501
602.593	0.0158577
602.671	0.0159152
602.749	0.0157980
602.828	0.0159035
602.906	0.0158020
602.984	0.0159213
603.062	0.0157918
603.140	0.0157646
603.218	0.0158541
603.296	0.0157849
603.374	0.0158152
603.453	0.0158481
603.531	0.0158071
603.609	0.0159020
603.687	0.0158908
603.765	0.0159242
603.843	0.0157970
603.921	0.0158316
603.999	0.0158635
604.078	0.0159401
604.156	0.0158952
604.234	0.0158337
604.312	0.0159483
604.390	0.0159966
604.468	0.0157506
604.546	0.0159339
604.624	0.0158083
604.703	0.0158566
604.781	0.0158100
604.859	0.0158542
604.937	0.0159231
605.015	0.0158408
605.093	0.0158111
605.171	0.0159865
605.249	0.0159583
605.328	0.0157934
605.406	0.0160358
605.484	0.0158347
605.562	0.0158704
605.640	0.0159686
605.718	0.0159298
605.796	0.0159323
605.874	0.0159151
605.953	0.0159393
606.031	0.0159184
606.109	0.0159180
606.187	0.0159596
606.265	0.0160290
606.343	0.0159290
606.421	0.0158955
606.499	0.0159730
606.578	0.0159151
606.656	0.0159431
606.734	0.0157919
606.812	0.0159949
606.890	0.0158380
606.968	0.0158490
607.046	0.0158675
607.124	0.0160271
607.203	0.0159158
607.281	0.0158368
607.359	0.0159836
607.437	0.0159460
607.515	0.0159487
607.593	0.0159576
607.671	0.0159126
607.749	0.0158496
607.828	0.0160211
607.906	0.0161450
607.984	0.0159406
608.062	0.0159746
608.140	0.0160399
608.218	0.0159856
608.296	0.0158323
608.374	0.0159246
608.453	0.0158688
608.531	0.0159869
608.609	0.0159767
608.687	0.0160192
608.765	0.0158548
608.843	0.0159538
608.921	0.0159877
608.999	0.0159762
609.078	0.0159347
609.156	0.0159176
609.234	0.0160518
609.312	0.0160046
609.390	0.0160107
609.468	0.0159288
609.546	0.0160815
609.624	0.0159927
609.703	0.0159264
609.781	0.0159486
609.859	0.0158780
609.937	0.0158417
610.015	0.0158787
610.093	0.0160014
610.171	0.0159604
610.249	0.0158651
610.328	0.0158585
610.406	0.0160312
610.484	0.0160685
610.562	0.0160341
610.640	0.0158524
610.718	0.0159193
610.796	0.0158846
610.874	0.0158835
610.953	0.0160039
611.031	0.0159082
611.109	0.0158239
611.187	0.0159794
611.265	0.0159232
611.343	0.0159038
611.421	0.0159419
611.499	0.0158131
611.578	0.0160131
611.656	0.0158244
611.734	0.0159159
611.812	0.0159145
611.890	0.0158790
611.968	0.0159628
612.046	0.0158477
612.124	0.0160364
612.203	0.0159020
612.281	0.0158983
612.359	0.0158926
612.437	0.0159287
612.515	0.0159657
612.593	0.0159476
612.671	0.0159077
612.749	0.0159592
612.828	0.0160852
612.906	0.0159535
612.984	0.0159795
613.062	0.0159290
613.140	0.0159928
613.218	0.0160679
613.296	0.0159681
613.374	0.0160031
613.453	0.0159072
613.531	0.0159418
613.609	0.0158921
613.687	0.0161364
613.765	0.0159568
613.843	0.0159847
613.921	0.0160908
613.999	0.0160404
614.078	0.0158978
614.156	0.0159962
614.234	0.0159941
614.312	0.0158543
614.390	0.0160480
614.468	0.0158518
614.546	0.0159187
614.624	0.0159871
614.703	0.0160141
614.781	0.0159463
614.859	0.0158680
614.937	0.0160091
615.015	0.0159409
615.093	0.0159626
615.171	0.0160123
615.249	0.0159913
615.328	0.0159361
615.406	0.0160542
615.484	0.0159415
615.562	0.0161115
615.640	0.0160075
615.718	0.0158868
615.796	0.0159607
615.874	0.0160374
615.953	0.0160174
616.031	0.0158272
616.109	0.0159892
616.187	0.0160803
616.265	0.0160860
616.343	0.0160047
616.421	0.0160313
616.499	0.0158142
616.578	0.0158604
616.656	0.0160342
616.734	0.0159315
616.812	0.0159641
616.890	0.0160060
616.968	0.0160267
617.046	0.0159975
617.124	0.0160441
617.203	0.0160024
617.281	0.0160510
617.359	0.0159362
617.437	0.0160406
617.515	0.0159898
617.593	0.0159519
617.671	0.0157996
617.749	0.0159505
617.828	0.0159727
617.906	0.0159634
617.984	0.0158344
618.062	0.0159513
618.140	0.0159611
618.218	0.0158925
618.296	0.0159565
618.374	0.0161288
618.453	0.0160077
618.531	0.0159996
618.609	0.0159671
618.687	0.0160110
618.765	0.0160394
618.843	0.0159775
618.921	0.0159350
618.999	0.0159084
619.078	0.0159283
619.156	0.0159780
619.234	0.0159834
619.312	0.0158965
619.390	0.0159446
619.468	0.0159119
619.546	0.0160043
619.624	0.0159705
619.703	0.0160390
619.781	0.0159149
619.859	0.0159319
619.937	0.0159277
620.015	0.0158553
620.093	0.0160101
620.171	0.0160005
620.249	0.0159630
620.328	0.0160091
620.406	0.0161256
620.484	0.0159649
620.562	0.0159428
620.640	0.0160737
620.718	0.0159610
620.796	0.0160649
620.874	0.0160127
620.953	0.0158662
621.031	0.0159299
621.109	0.0159502
621.187	0.0159019
621.265	0.0159638
621.343	0.0159762
621.421	0.0161260
621.499	0.0160379
621.578	0.0158566
621.656	0.0159315
621.734	0.0158942
621.812	0.0159885
621.890	0.0160352
621.968	0.0158672
622.046	0.0158862
622.124	0.0159010
622.203	0.0160313
622.281	0.0161142
622.359	0.0160781
622.437	0.0158649
622.515	0.0159930
622.593	0.0160088
622.671	0.0158421
622.749	0.0160189
622.828	0.0158625
622.906	0.0158954
622.984	0.0158768
623.062	0.0159911
623.140	0.0158998
623.218	0.0157207
623.296	0.0158555
623.374	0.0158649
623.453	0.0158813
623.531	0.0159251
623.609	0.0158863
623.687	0.0159068
623.765	0.0159442
623.843	0.0160709
623.921	0.0159314
623.999	0.0158649
624.078	0.0158577
624.156	0.0157939
624.234	0.0158964
624.312	0.0158555
624.390	0.0159426
624.468	0.0158726
624.546	0.0158909
624.624	0.0159222
624.703	0.0157678
624.781	0.0158524
624.859	0.0158472
624.937	0.0158860
625.015	0.0160133
625.093	0.0158797
625.171	0.0158474
625.249	0.0158308
625.328	0.0158987
625.406	0.0158978
625.484	0.0158270
625.562	0.0158456
625.640	0.0158498
625.718	0.0157702
625.796	0.0159177
625.874	0.0158412
625.953	0.0158652
626.031	0.0157005
626.109	0.0159077
626.187	0.0158270
626.265	0.0158220
626.343	0.0157536
626.421	0.0159258
626.499	0.0159660
626.578	0.0157796
626.656	0.0157520
626.734	0.0157866
626.812	0.0156789
626.890	0.0157675
626.968	0.0158919
627.046	0.0157588
627.124	0.0157158
627.203	0.0158809
627.281	0.0158263
627.359	0.0157798
627.437	0.0158773
627.515	0.0157759
627.593	0.0156490
627.671	0.0158517
627.749	0.0156484
627.828	0.0157743
627.906	0.0158719
627.984	0.0158325
628.062	0.0157265
628.140	0.0157049
628.218	0.0157737
628.296	0.0157981
628.374	0.0157323
628.453	0.0158273
628.531	0.0159198
628.609	0.0156081
628.687	0.0157372
628.765	0.0158484
628.843	0.0157623
628.921	0.0157230
628.999	0.0158074
629.078	0.0159052
629.156	0.0157984
629.234	0.0157951
629.312	0.0158638
629.390	0.0157270
629.468	0.0157972
629.546	0.0158073
629.624	0.0157162
629.703	0.0159039
629.781	0.0158723
629.859	0.0157838
629.937	0.0157953
630.015	0.0157332
630.093	0.0157360
630.171	0.0157571
630.249	0.0159359
630.328	0.0157283
630.406	0.0156925
630.484	0.0158257
630.562	0.0157844
630.640	0.0158581
630.718	0.0156995
630.796	0.0156761
630.874	0.0157224
630.953	0.0158250
631.031	0.0158270
631.109	0.0157871
631.187	0.0157492
631.265	0.0158096
631.343	0.0159176
631.421	0.0158800
631.499	0.0157777
631.578	0.0158330
631.656	0.0157493
631.734	0.0158085
631.812	0.0158438
631.890	0.0159240
631.968	0.0158275
632.046	0.0157926
632.124	0.0158833
632.203	0.0158522
632.281	0.0158009
632.359	0.0158627
632.437	0.0157466
632.515	0.0159028
632.593	0.0159268
632.671	0.0157572
632.749	0.0158189
632.828	0.0158440
632.906	0.0157015
632.984	0.0157824
633.062	0.0157529
633.140	0.0157743
633.218	0.0158104
633.296	0.0159705
633.374	0.0157712
633.453	0.0158907
633.531	0.0158960
633.609	0.0159337
633.687	0.0159282
633.765	0.0157489
633.843	0.0157993
633.921	0.0159277
633.999	0.0159314
634.078	0.0158907
634.156	0.0159444
634.234	0.0158392
634.312	0.0158075
634.390	0.0159270
634.468	0.0158112
634.546	0.0157954
634.624	0.0159602
634.703	0.0159947
634.781	0.0158903
634.859	0.0158600
634.937	0.0158376
635.015	0.0158669
635.093	0.0158721
635.171	0.0159730
635.249	0.0159576
635.328	0.0159730
635.406	0.0159614
635.484	0.0160491
635.562	0.0159350
635.640	0.0157995
635.718	0.0158596
635.796	0.0159609
635.874	0.0159877
635.953	0.0158978
636.031	0.0159167
636.109	0.0157555
636.187	0.0159022
636.265	0.0160824
636.343	0.0160289
636.421	0.0160399
636.499	0.0160881
636.578	0.0160571
636.656	0.0158762
636.734	0.0160544
636.812	0.0159071
636.890	0.0159528
636.968	0.0157851
637.046	0.0161261
637.124	0.0160804
637.203	0.0159916
637.281	0.0159325
637.359	0.0160954
637.437	0.0159576
637.515	0.0159011
637.593	0.0160690
637.671	0.0160543
637.749	0.0160017
637.828	0.0159802
637.906	0.0159753
637.984	0.0159187
638.062	0.0159143
638.140	0.0160181
638.218	0.0159018
638.296	0.0159783
638.374	0.0159673
638.453	0.0159691
638.531	0.0159064
638.609	0.0160182
638.687	0.0160276
638.765	0.0159524
638.843	0.0161461
638.921	0.0160047
638.999	0.0159191
639.078	0.0159000
639.156	0.0159509
639.234	0.0157848
639.312	0.0158488
639.390	0.0159976
639.468	0.0159550
639.546	0.0158922
639.624	0.0158910
639.703	0.0159349
639.781	0.0159595
639.859	0.0159495
639.937	0.0159849
640.015	0.0158810
640.093	0.0160342
640.171	0.0159805
640.249	0.0160138
640.328	0.0160059
640.406	0.0160489
640.484	0.0157420
640.562	0.0161077
640.640	0.0158665
640.718	0.0159145
640.796	0.0159419
640.874	0.0158836
640.953	0.0158010
641.031	0.0159956
641.109	0.0160128
641.187	0.0158637
641.265	0.0159225
641.343	0.0159627
641.421	0.0159814
641.499	0.0159729
641.578	0.0159339
641.656	0.0158682
641.734	0.0159028
641.812	0.0159429
641.890	0.0159422
641.968	0.0158730
642.046	0.0159695
642.124	0.0158588
642.203	0.0159239
642.281	0.0158659
642.359	0.0157679
642.437	0.0159936
642.515	0.0158726
642.593	0.0156891
642.671	0.0157887
642.749	0.0158002
642.828	0.0159019
642.906	0.0160223
642.984	0.0158775
643.062	0.0157534
643.140	0.0158732
643.218	0.0158957
643.296	0.0158189
643.374	0.0158186
643.453	0.0159085
643.531	0.0158304
643.609	0.0159280
643.687	0.0158452
643.765	0.0159139
643.843	0.0157900
643.921	0.0157608
643.999	0.0158237
644.078	0.0158162
644.156	0.0159148
644.234	0.0158118
644.312	0.0159121
644.390	0.0158218
644.468	0.0157470
644.546	0.0158887
644.624	0.0159568
644.703	0.0158685
644.781	0.0158177
644.859	0.0158675
644.937	0.0158401
645.015	0.0158691
645.093	0.0158343
645.171	0.0157210
645.249	0.0156731
645.328	0.0156901
645.406	0.0159376
645.484	0.0158213
645.562	0.0158664
645.640	0.0158428
645.718	0.0158256
645.796	0.0159538
645.874	0.0157675
645.953	0.0158019
646.031	0.0157430
646.109	0.0158248
646.187	0.0158775
646.265	0.0158280
646.343	0.0157904
646.421	0.0159130
646.499	0.0158634
646.578	0.0158689
646.656	0.0158702
646.734	0.0159016
646.812	0.0157684
646.890	0.0158725
646.968	0.0157452
647.046	0.0158636
647.124	0.0159223
647.203	0.0157691
647.281	0.0158051
647.359	0.0158720
647.437	0.0157999
647.515	0.0157684
647.593	0.0158382
647.671	0.0159727
647.749	0.0158637
647.828	0.0158365
647.906	0.0157992
647.984	0.0158473
648.062	0.0158586
648.140	0.0158565
648.218	0.0158148
648.296	0.0158929
648.374	0.0158910
648.453	0.0158192
648.531	0.0157909
648.609	0.0158324
648.687	0.0158183
648.765	0.0159964
648.843	0.0159735
648.921	0.0159100
648.999	0.0158611
649.078	0.0160007
649.156	0.0159065
649.234	0.0158976
649.312	0.0159449
649.390	0.0159320
649.468	0.0159843
649.546	0.0159152
649.624	0.0158458
649.703	0.0158524
649.781	0.0158638
649.859	0.0159938
649.937	0.0159364
650.015	0.0157954
650.093	0.0158515
650.171	0.0160030
650.249	0.0159690
650.328	0.0159626
650.406	0.0160065
650.484	0.0160086
650.562	0.0159282
650.640	0.0157881
650.718	0.0159120
650.796	0.0158727
650.874	0.0159120
650.953	0.0159121
651.031	0.0157728
651.109	0.0158631
651.187	0.0160374
651.265	0.0159727
651.343	0.0159347
651.421	0.0159003
651.499	0.0159003
651.578	0.0159942
651.656	0.0159135
651.734	0.0158340
651.812	0.0156915
651.890	0.0157999
651.968	0.0159345
652.046	0.0159010
652.124	0.0157037
652.203	0.0157052
652.281	0.0158646
652.359	0.0158875
652.437	0.0158537
652.515	0.0158068
652.593	0.0158450
652.671	0.0158148
652.749	0.0158499
652.828	0.0158122
652.906	0.0158965
652.984	0.0158745
653.062	0.0158706
653.140	0.0158199
653.218	0.0158945
653.296	0.0158459
653.374	0.0159823
653.453	0.0158592
653.531	0.0158488
653.609	0.0159258
653.687	0.0158490
653.765	0.0158274
653.843	0.0158799
653.921	0.0158038
653.999	0.0158510
654.078	0.0157984
654.156	0.0158462
654.234	0.0158029
654.312	0.0158672
654.390	0.0157428
654.468	0.0158981
654.546	0.0158662
654.624	0.0159526
654.703	0.0158117
654.781	0.0157894
654.859	0.0157729
654.937	0.0159496
655.015	0.0158324
655.093	0.0159148
655.171	0.0158496
655.249	0.0158955
655.328	0.0157246
655.406	0.0158813
655.484	0.0158642
655.562	0.0157839
655.640	0.0158016
655.718	0.0157806
655.796	0.0158684
655.874	0.0157678
655.953	0.0157559
656.031	0.0158041
656.109	0.0159100
656.187	0.0159293
656.265	0.0157764
656.343	0.0159024
656.421	0.0159992
656.499	0.0157862
656.578	0.0157836
656.656	0.0159794
656.734	0.0159279
656.812	0.0158845
656.890	0.0159158
656.968	0.0158913
657.046	0.0158917
657.124	0.0160194
657.203	0.0161803
657.281	0.0158972
657.359	0.0160048
657.437	0.0159554
657.515	0.0158121
657.593	0.0158691
657.671	0.0158781
657.749	0.0159282
657.828	0.0159229
657.906	0.0159776
657.984	0.0160199
658.062	0.0160235
658.140	0.0160100
658.218	0.0159442
658.296	0.0158244
658.374	0.0159566
658.453	0.0159745
658.531	0.0161411
658.609	0.0159903
658.687	0.0159982
658.765	0.0160387
658.843	0.0159343
658.921	0.0159800
658.999	0.0159742
659.078	0.0159663
659.156	0.0159735
659.234	0.0159138
659.312	0.0158849
659.390	0.0158599
659.468	0.0159873
659.546	0.0161198
659.624	0.0159978
659.703	0.0158704
659.781	0.0159550
659.859	0.0161282
659.937	0.0160812
660.015	0.0158591
660.093	0.0160428
660.171	0.0160013
660.249	0.0159589
660.328	0.0159761
660.406	0.0160545
660.484	0.0160511
660.562	0.0160112
660.640	0.0160136
660.718	0.0160257
660.796	0.0159179
660.874	0.0159460
660.953	0.0158254
661.031	0.0158582
661.109	0.0158872
661.187	0.0160506
661.265	0.0159779
661.343	0.0159738
661.421	0.0159491
661.499	0.0160989
661.578	0.0159699
661.656	0.0160405
661.734	0.0160682
661.812	0.0160310
661.890	0.0158662
661.968	0.0159113
662.046	0.0160544
662.124	0.0158701
662.203	0.0159840
662.281	0.0161418
662.359	0.0159524
662.437	0.0159570
662.515	0.0158832
662.593	0.0160191
662.671	0.0160007
662.749	0.0160797
662.828	0.0158746
662.906	0.0159752
662.984	0.0159390
663.062	0.0159425
663.140	0.0160579
663.218	0.0159645
663.296	0.0159725
663.374	0.0161093
663.453	0.0159496
663.531	0.0160966
663.609	0.0157964
663.687	0.0159008
663.765	0.0161039
663.843	0.0159936
663.921	0.0160435
663.999	0.0159136
664.078	0.0161410
664.156	0.0159133
664.234	0.0158073
664.312	0.0160980
664.390	0.0159361
664.468	0.0160058
664.546	0.0159687
664.624	0.0159320
664.703	0.0159415
664.781	0.0160005
664.859	0.0160091
664.937	0.0158389
665.015	0.0158661
665.093	0.0159281
665.171	0.0158160
665.249	0.0159483
665.328	0.0159925
665.406	0.0161097
665.484	0.0159460
665.562	0.0158759
665.640	0.0160390
665.718	0.0159937
665.796	0.0158431
665.874	0.0158858
665.953	0.0159647
666.031	0.0160436
666.109	0.0159862
666.187	0.0159612
666.265	0.0159039
666.343	0.0158761
666.421	0.0159284
666.499	0.0158767
666.578	0.0160465
666.656	0.0159069
666.734	0.0158107
666.812	0.0158381
666.890	0.0160697
666.968	0.0160069
667.046	0.0157308
667.124	0.0158369
667.203	0.0159217
667.281	0.0158010
667.359	0.0158976
667.437	0.0158600
667.515	0.0158326
667.593	0.0158577
667.671	0.0158260
667.749	0.0158217
667.828	0.0158218
667.906	0.0158477
667.984	0.0158170
668.062	0.0159029
668.140	0.0157401
668.218	0.0159170
668.296	0.0158392
668.374	0.0157863
668.453	0.0157721
668.531	0.0159927
668.609	0.0160488
668.687	0.0159239
668.765	0.0158633
668.843	0.0158991
668.921	0.0160009
668.999	0.0158871
669.078	0.0158466
669.156	0.0158882
669.234	0.0158128
669.312	0.0159481
669.390	0.0158060
669.468	0.0157654
669.546	0.0160078
669.624	0.0159881
669.703	0.0158694
669.781	0.0159578
669.859	0.0158672
669.937	0.0159825
670.015	0.0159019
670.093	0.0157241
670.171	0.0159123
670.249	0.0160080
670.328	0.0160004
670.406	0.0159493
670.484	0.0159048
670.562	0.0158369
670.640	0.0157942
670.718	0.0159219
670.796	0.0158699
670.874	0.0160438
670.953	0.0158043
671.031	0.0159498
671.109	0.0158958
671.187	0.0159583
671.265	0.0159669
671.343	0.0157504
671.421	0.0159913
671.499	0.0159608
671.578	0.0161454
671.656	0.0159557
671.734	0.0159264
671.812	0.0158902
671.890	0.0160023
671.968	0.0159109
672.046	0.0158231
672.124	0.0158633
672.203	0.0158609
672.281	0.0159562
672.359	0.0159030
672.437	0.0159332
672.515	0.0159774
672.593	0.0159831
672.671	0.0159689
672.749	0.0160131
672.828	0.0160609
672.906	0.0159554
672.984	0.0160660
673.062	0.0161625
673.140	0.0159422
673.218	0.0159521
673.296	0.0158584
673.374	0.0158396
673.453	0.0159875
673.531	0.0160094
673.609	0.0158296
673.687	0.0159875
673.765	0.0159701
673.843	0.0158645
673.921	0.0159160
673.999	0.0159109
674.078	0.0159728
674.156	0.0159494
674.234	0.0159668
674.312	0.0160229
674.390	0.0161306
674.468	0.0159275
674.546	0.0158107
674.624	0.0159414
674.703	0.0158926
674.781	0.0159047
674.859	0.0159333
674.937	0.0159179
675.015	0.0159660
675.093	0.0158773
675.171	0.0158145
675.249	0.0159641
675.328	0.0159499
675.406	0.0158892
675.484	0.0159510
675.562	0.0158386
675.640	0.0158962
675.718	0.0159373
675.796	0.0159880
675.874	0.0158363
675.953	0.0158295
676.031	0.0159669
676.109	0.0159626
676.187	0.0158578
676.265	0.0160091
676.343	0.0158617
676.421	0.0158592
676.499	0.0159685
676.578	0.0159763
676.656	0.0158514
676.734	0.0159947
676.812	0.0159072
676.890	0.0158923
676.968	0.0160558
677.046	0.0159211
677.124	0.0158965
677.203	0.0159703
677.281	0.0161049
677.359	0.0159617
677.437	0.0157748
677.515	0.0158296
677.593	0.0161427
677.671	0.0159612
677.749	0.0160101
677.828	0.0159656
677.906	0.0159593
677.984	0.0158263
678.062	0.0158727
678.140	0.0159500
678.218	0.0159760
678.296	0.0157803
678.374	0.0158714
678.453	0.0159059
678.531	0.0159705
678.609	0.0159007
678.687	0.0158881
678.765	0.0158327
678.843	0.0159969
678.921	0.0159280
678.999	0.0160743
679.078	0.0159874
679.156	0.0158041
679.234	0.0159204
679.312	0.0159451
679.390	0.0157674
679.468	0.0159076
679.546	0.0159343
679.624	0.0160519
679.703	0.0158419
679.781	0.0159985
679.859	0.0158936
679.937	0.0159066
680.015	0.0159198
680.093	0.0159347
680.171	0.0160544
680.249	0.0159242
680.328	0.0159898
680.406	0.0158231
680.484	0.0159250
680.562	0.0161412
680.640	0.0158431
680.718	0.0159823
680.796	0.0159858
680.874	0.0159977
680.953	0.0160416
681.031	0.0159302
681.109	0.0159058
681.187	0.0160512
681.265	0.0158941
681.343	0.0160957
681.421	0.0159614
681.499	0.0160235
681.578	0.0159850
681.656	0.0159026
681.734	0.0160192
681.812	0.0159789
681.890	0.0160663
681.968	0.0159650
682.046	0.0160978
682.124	0.0159080
682.203	0.0158774
682.281	0.0159209
682.359	0.0160345
682.437	0.0159479
682.515	0.0159500
682.593	0.0159853
682.671	0.0159003
682.749	0.0160284
682.828	0.0159208
682.906	0.0159613
682.984	0.0159314
683.062	0.0159194
683.140	0.0158633
683.218	0.0157785
683.296	0.0159294
683.374	0.0159976
683.453	0.0159122
683.531	0.0159558
683.609	0.0159124
683.687	0.0159442
683.765	0.0158910
683.843	0.0158788
683.921	0.0159631
683.999	0.0159692
684.078	0.0158762
684.156	0.0160038
684.234	0.0158731
684.312	0.0159312
684.390	0.0160497
684.468	0.0158707
684.546	0.0159349
684.624	0.0159477
684.703	0.0160371
684.781	0.0159317
684.859	0.0158927
684.937	0.0158278
685.015	0.0159660
685.093	0.0158887
685.171	0.0159421
685.249	0.0159254
685.328	0.0160532
685.406	0.0160436
685.484	0.0157650
685.562	0.0157158
685.640	0.0157919
685.718	0.0159854
685.796	0.0159097
685.874	0.0160442
685.953	0.0158295
686.031	0.0159725
686.109	0.0158094
686.187	0.0158865
686.265	0.0159469
686.343	0.0159857
686.421	0.0160286
686.499	0.0158319
686.578	0.0160848
686.656	0.0158965
686.734	0.0159473
686.812	0.0159176
686.890	0.0159644
686.968	0.0158951
687.046	0.0159794
687.124	0.0160985
687.203	0.0160428
687.281	0.0159615
687.359	0.0159019
687.437	0.0159419
687.515	0.0159901
687.593	0.0160023
687.671	0.0158981
687.749	0.0158091
687.828	0.0159394
687.906	0.0160786
687.984	0.0160146
688.062	0.0161085
688.140	0.0160452
688.218	0.0160153
688.296	0.0159845
688.374	0.0159512
688.453	0.0160764
688.531	0.0162209
688.609	0.0158331
688.687	0.0159174
688.765	0.0160476
688.843	0.0160824
688.921	0.0159439
688.999	0.0159742
689.078	0.0161002
689.156	0.0159049
689.234	0.0160278
689.312	0.0159703
689.390	0.0160786
689.468	0.0160396
689.546	0.0160894
689.624	0.0160371
689.703	0.0161687
689.781	0.0158831
689.859	0.0159202
689.937	0.0160854
690.015	0.0159283
690.093	0.0160909
690.171	0.0159904
690.249	0.0159525
690.328	0.0160633
690.406	0.0159924
690.484	0.0159907
690.562	0.0160918
690.640	0.0160844
690.718	0.0159879
690.796	0.0160312
690.874	0.0159157
690.953	0.0159306
691.031	0.0158562
691.109	0.0159689
691.187	0.0157773
691.265	0.0159618
691.343	0.0161156
691.421	0.0161584
691.499	0.0160017
691.578	0.0159077
691.656	0.0160840
691.734	0.0161118
691.812	0.0159427
691.890	0.0160325
691.968	0.0160041
692.046	0.0159612
692.124	0.0159588
692.203	0.0161385
692.281	0.0159662
692.359	0.0159074
692.437	0.0159532
692.515	0.0159895
692.593	0.0159577
692.671	0.0160241
692.749	0.0161280
692.828	0.0159871
692.906	0.0160548
692.984	0.0160891
693.062	0.0160351
693.140	0.0159578
693.218	0.0159738
693.296	0.0161066
693.374	0.0159348
693.453	0.0159343
693.531	0.0159383
693.609	0.0159466
693.687	0.0160141
693.765	0.0160091
693.843	0.0159263
693.921	0.0159621
693.999	0.0160461
694.078	0.0161002
694.156	0.0158810
694.234	0.0159492
694.312	0.0159491
694.390	0.0159827
694.468	0.0160014
694.546	0.0158853
694.624	0.0160120
694.703	0.0159379
694.781	0.0160850
694.859	0.0159785
694.937	0.0160876
695.015	0.0160297
695.093	0.0160728
695.171	0.0159936
695.249	0.0160644
695.328	0.0160139
695.406	0.0160831
695.484	0.0160997
695.562	0.0160104
695.640	0.0159826
695.718	0.0160281
695.796	0.0160986
695.874	0.0160477
695.953	0.0159291
696.031	0.0159634
696.109	0.0159369
696.187	0.0159663
696.265	0.0159427
696.343	0.0159977
696.421	0.0159992
696.499	0.0159280
696.578	0.0158736
696.656	0.0160224
696.734	0.0158827
696.812	0.0159634
696.890	0.0160098
696.968	0.0158196
697.046	0.0158324
697.124	0.0159939
697.203	0.0160065
697.281	0.0159985
697.359	0.0158727
697.437	0.0159217
697.515	0.0158514
697.593	0.0160219
697.671	0.0160823
697.749	0.0159609
697.828	0.0159500
697.906	0.0159661
697.984	0.0159086
698.062	0.0157915
698.140	0.0158755
698.218	0.0159853
698.296	0.0160647
698.374	0.0161539
698.453	0.0159764
698.531	0.0159626
698.609	0.0159721
698.687	0.0158189
698.765	0.0159026
698.843	0.0159193
698.921	0.0159919
698.999	0.0159837
699.078	0.0158924
699.156	0.0158767
699.234	0.0158616
699.312	0.0158859
699.390	0.0160455
699.468	0.0159652
699.546	0.0159064
699.624	0.0157932
699.703	0.0158781
699.781	0.0159692
699.859	0.0158848
699.937	0.0158771
700.015	0.0160227
700.093	0.0157393
700.171	0.0159444
700.249	0.0159158
700.328	0.0159355
700.406	0.0158495
700.484	0.0159320
700.562	0.0158477
700.640	0.0157327
700.718	0.0159395
700.796	0.0159602
700.874	0.0158784
700.953	0.0159023
701.031	0.0157973
701.109	0.0158771
701.187	0.0159264
701.265	0.0158801
701.343	0.0158485
701.421	0.0159266
701.499	0.0159022
701.578	0.0157955
701.656	0.0158900
701.734	0.0159081
701.812	0.0158607
701.890	0.0160057
701.968	0.0158597
702.046	0.0158419
702.124	0.0157906
702.203	0.0158829
702.281	0.0158222
702.359	0.0158855
702.437	0.0158720
702.515	0.0158562
702.593	0.0158596
702.671	0.0158476
702.749	0.0159067
702.828	0.0158952
702.906	0.0158464
702.984	0.0158283
703.062	0.0158752
703.140	0.0158062
703.218	0.0158263
703.296	0.0158767
703.374	0.0159143
703.453	0.0158337
703.531	0.0157838
703.609	0.0158759
703.687	0.0158421
703.765	0.0158422
703.843	0.0159070
703.921	0.0158165
703.999	0.0158739
704.078	0.0159249
704.156	0.0159124
704.234	0.0158022
704.312	0.0157508
704.390	0.0158668
704.468	0.0156719
704.546	0.0158397
704.624	0.0158904
704.703	0.0159129
704.781	0.0158182
704.859	0.0157816
704.937	0.0159070
705.015	0.0158742
705.093	0.0157402
705.171	0.0157426
705.249	0.0158376
705.328	0.0158189
705.406	0.0158419
705.484	0.0158024
705.562	0.0158271
705.640	0.0158517
705.718	0.0159016
705.796	0.0157198
705.874	0.0158900
705.953	0.0159875
706.031	0.0159227
706.109	0.0158147
706.187	0.0158379
706.265	0.0158310
706.343	0.0157221
706.421	0.0158620
706.499	0.0158631
706.578	0.0157950
706.656	0.0158766
706.734	0.0158652
706.812	0.0157667
706.890	0.0159292
706.968	0.0160099
707.046	0.0157880
707.124	0.0158611
707.203	0.0159901
707.281	0.0158704
707.359	0.0159452
707.437	0.0158023
707.515	0.0159109
707.593	0.0158878
707.671	0.0158660
707.749	0.0156511
707.828	0.0158778
707.906	0.0159000
707.984	0.0160606
708.062	0.0158030
708.140	0.0158858
708.218	0.0159492
708.296	0.0158810
708.374	0.0158396
708.453	0.0158952
708.531	0.0159373
708.609	0.0157684
708.687	0.0158894
708.765	0.0157542
708.843	0.0157920
708.921	0.0159253
708.999	0.0158643
709.078	0.0159949
709.156	0.0158377
709.234	0.0158081
709.312	0.0157380
709.390	0.0158849
709.468	0.0159586
709.546	0.0158379
709.624	0.0157420
709.703	0.0159032
709.781	0.0159145
709.859	0.0156166
709.937	0.0159010
710.015	0.0158904
710.093	0.0158731
710.171	0.0158007
710.249	0.0158471
710.328	0.0158910
710.406	0.0158833
710.484	0.0158136
710.562	0.0157678
710.640	0.0158641
710.718	0.0158821
710.796	0.0158110
710.874	0.0159323
710.953	0.0159169
711.031	0.0159442
711.109	0.0156768
711.187	0.0158305
711.265	0.0158703
711.343	0.0158438
711.421	0.0160610
711.499	0.0158939
711.578	0.0158218
711.656	0.0158526
711.734	0.0159649
711.812	0.0158408
711.890	0.0159210
711.968	0.0158977
712.046	0.0158456
712.124	0.0159516
712.203	0.0158942
712.281	0.0160523
712.359	0.0160228
712.437	0.0159457
712.515	0.0159297
712.593	0.0159229
712.671	0.0158830
712.749	0.0159378
712.828	0.0159129
712.906	0.0158305
712.984	0.0158831
713.062	0.0159654
713.140	0.0160971
713.218	0.0160388
713.296	0.0159611
713.374	0.0158650
713.453	0.0158279
713.531	0.0159798
713.609	0.0160142
713.687	0.0158687
713.765	0.0159802
713.843	0.0160943
713.921	0.0158641
713.999	0.0158770
714.078	0.0159730
714.156	0.0159225
714.234	0.0159200
714.312	0.0159108
714.390	0.0160057
714.468	0.0160919
714.546	0.0161063
714.624	0.0158772
714.703	0.0159564
714.781	0.0158599
714.859	0.0157345
714.937	0.0160287
715.015	0.0160493
715.093	0.0160941
715.171	0.0159146
715.249	0.0160854
715.328	0.0160206
715.406	0.0159885
715.484	0.0159331
715.562	0.0159428
715.640	0.0159090
715.718	0.0161118
715.796	0.0158866
715.874	0.0160168
715.953	0.0159595
716.031	0.0158777
716.109	0.0160142
716.187	0.0159450
716.265	0.0159077
716.343	0.0160118
716.421	0.0161241
716.499	0.0160028
716.578	0.0160374
716.656	0.0160553
716.734	0.0158816
716.812	0.0159176
716.890	0.0161703
716.968	0.0159830
717.046	0.0159409
717.124	0.0159862
717.203	0.0160496
717.281	0.0158615
717.359	0.0159869
717.437	0.0159402
717.515	0.0159412
717.593	0.0158363
717.671	0.0159290
717.749	0.0159382
717.828	0.0159651
717.906	0.0159961
717.984	0.0159496
718.062	0.0159846
718.140	0.0158272
718.218	0.0159938
718.296	0.0157933
718.374	0.0159951
718.453	0.0158006
718.531	0.0157983
718.609	0.0160213
718.687	0.0159638
718.765	0.0158463
718.843	0.0160133
718.921	0.0159365
718.999	0.0158579
719.078	0.0158948
719.156	0.0158137
719.234	0.0160110
719.312	0.0158656
719.390	0.0159792
719.468	0.0159225
719.546	0.0159345
719.624	0.0159686
719.703	0.0159541
719.781	0.0159302
719.859	0.0158080
719.937	0.0158665
720.015	0.0158640
720.093	0.0159091
720.171	0.0159355
720.249	0.0159032
720.328	0.0158969
720.406	0.0157839
720.484	0.0159988
720.562	0.0160569
720.640	0.0158524
720.718	0.0158824
720.796	0.0159004
720.874	0.0158485
720.953	0.0158346
721.031	0.0158981
721.109	0.0158124
721.187	0.0158483
721.265	0.0160664
721.343	0.0159669
721.421	0.0158800
721.499	0.0159066
721.578	0.0159138
721.656	0.0159027
721.734	0.0158578
721.812	0.0159443
721.890	0.0159208
721.968	0.0158699
722.046	0.0159827
722.124	0.0160309
722.203	0.0158770
722.281	0.0157639
722.359	0.0158393
722.437	0.0158267
722.515	0.0159246
722.593	0.0158882
722.671	0.0158058
722.749	0.0158410
722.828	0.0158588
722.906	0.0157804
722.984	0.0158359
723.062	0.0159061
723.140	0.0159061
723.218	0.0158358
723.296	0.0157170
723.374	0.0158803
723.453	0.0159904
723.531	0.0159216
723.609	0.0159191
723.687	0.0159768
723.765	0.0159457
723.843	0.0159063
723.921	0.0158607
723.999	0.0157925
724.078	0.0159904
724.156	0.0160287
724.234	0.0157993
724.312	0.0157870
724.390	0.0159711
724.468	0.0159927
724.546	0.0158690
724.624	0.0159563
724.703	0.0158374
724.781	0.0158790
724.859	0.0159324
724.937	0.0158813
725.015	0.0158946
725.093	0.0158247
725.171	0.0160458
725.249	0.0158904
725.328	0.0158046
725.406	0.0158462
725.484	0.0159396
725.562	0.0159109
725.640	0.0159669
725.718	0.0159260
725.796	0.0158347
725.874	0.0158573
725.953	0.0158710
726.031	0.0160011
726.109	0.0158276
726.187	0.0158454
726.265	0.0159412
726.343	0.0158629
726.421	0.0158157
726.499	0.0157607
726.578	0.0159235
726.656	0.0157986
726.734	0.0158195
726.812	0.0157275
726.890	0.0157555
726.968	0.0157783
727.046	0.0158066
727.124	0.0157212
727.203	0.0157380
727.281	0.0157915
727.359	0.0157584
727.437	0.0157808
727.515	0.0158537
727.593	0.0158891
727.671	0.0158560
727.749	0.0158036
727.828	0.0158104
727.906	0.0158344
727.984	0.0158863
728.062	0.0159025
728.140	0.0158273
728.218	0.0158778
728.296	0.0158231
728.374	0.0159313
728.453	0.0158002
728.531	0.0158230
728.609	0.0158775
728.687	0.0158981
728.765	0.0156463
728.843	0.0158626
728.921	0.0159425
728.999	0.0157801
729.078	0.0158253
729.156	0.0156723
729.234	0.0158152
729.312	0.0156978
729.390	0.0158520
729.468	0.0158758
729.546	0.0158005
729.624	0.0158453
729.703	0.0157761
729.781	0.0158076
729.859	0.0158564
729.937	0.0159539
730.015	0.0157232
730.093	0.0157738
730.171	0.0159024
730.249	0.0158590
730.328	0.0157805
730.406	0.0158325
730.484	0.0158857
730.562	0.0158091
730.640	0.0157567
730.718	0.0157727
730.796	0.0158619
730.874	0.0158279
730.953	0.0157382
731.031	0.0158435
731.109	0.0158186
731.187	0.0158578
731.265	0.0158093
731.343	0.0157939
731.421	0.0158489
731.499	0.0158326
731.578	0.0157924
731.656	0.0158778
731.734	0.0159071
731.812	0.0158691
731.890	0.0159051
731.968	0.0158904
732.046	0.0158715
732.124	0.0159006
732.203	0.0158363
732.281	0.0158132
732.359	0.0160255
732.437	0.0157805
732.515	0.0158462
732.593	0.0159333
732.671	0.0158666
732.749	0.0158488
732.828	0.0158332
732.906	0.0158110
732.984	0.0160220
733.062	0.0158489
733.140	0.0158471
733.218	0.0158176
733.296	0.0159412
733.374	0.0157762
733.453	0.0158575
733.531	0.0159034
733.609	0.0157681
733.687	0.0156633
733.765	0.0158495
733.843	0.0159323
733.921	0.0159135
733.999	0.0158527
734.078	0.0159509
734.156	0.0158399
734.234	0.0157716
734.312	0.0157993
734.390	0.0157310
734.468	0.0159251
734.546	0.0158382
734.624	0.0157132
734.703	0.0158969
734.781	0.0158782
734.859	0.0158165
734.937	0.0157674
735.015	0.0158184
735.093	0.0159650
735.171	0.0158758
735.249	0.0158968
735.328	0.0158754
735.406	0.0158605
735.484	0.0158434
735.562	0.0160958
735.640	0.0159347
735.718	0.0158737
735.796	0.0159307
735.874	0.0158826
735.953	0.0158399
736.031	0.0158276
736.109	0.0158011
736.187	0.0159153
736.265	0.0159892
736.343	0.0159196
736.421	0.0160080
736.499	0.0158413
736.578	0.0157796
736.656	0.0158144
736.734	0.0159264
736.812	0.0160225
736.890	0.0157685
736.968	0.0158392
737.046	0.0158204
737.124	0.0159203
737.203	0.0159291
737.281	0.0158245
737.359	0.0159081
737.437	0.0159292
737.515	0.0158649
737.593	0.0159316
737.671	0.0157881
737.749	0.0160702
737.828	0.0160048
737.906	0.0158495
737.984	0.0159964
738.062	0.0159145
738.140	0.0160088
738.218	0.0158659
738.296	0.0159632
738.374	0.0159220
738.453	0.0157966
738.531	0.0159171
738.609	0.0160569
738.687	0.0159139
738.765	0.0158353
738.843	0.0160469
738.921	0.0159653
738.999	0.0159991
739.078	0.0159958
739.156	0.0160384
739.234	0.0158755
739.312	0.0159480
739.390	0.0159800
739.468	0.0158982
739.546	0.0158847
739.624	0.0159800
739.703	0.0160110
739.781	0.0158670
739.859	0.0158277
739.937	0.0159139
740.015	0.0159919
740.093	0.0159411
740.171	0.0159249
740.249	0.0159427
740.328	0.0159489
740.406	0.0159049
740.484	0.0159949
740.562	0.0159732
740.640	0.0160277
740.718	0.0160638
740.796	0.0160493
740.874	0.0160921
740.953	0.0158693
741.031	0.0160238
741.109	0.0161624
741.187	0.0161784
741.265	0.0160445
741.343	0.0160445
741.421	0.0160522
741.499	0.0160863
741.578	0.0159695
741.656	0.0161013
741.734	0.0160348
741.812	0.0160250
741.890	0.0160276
741.968	0.0160339
742.046	0.0160550
742.124	0.0161213
742.203	0.0160711
742.281	0.0160829
742.359	0.0160879
742.437	0.0159856
742.515	0.0160903
742.593	0.0159595
742.671	0.0161362
742.749	0.0160119
742.828	0.0160371
742.906	0.0161213
742.984	0.0160187
743.062	0.0161525
743.140	0.0159535
743.218	0.0159908
743.296	0.0159496
743.374	0.0160113
743.453	0.0161512
743.531	0.0159897
743.609	0.0159357
743.687	0.0158897
743.765	0.0159724
743.843	0.0159113
743.921	0.0159296
743.999	0.0158611
744.078	0.0159272
744.156	0.0160480
744.234	0.0161142
744.312	0.0159789
744.390	0.0160920
744.468	0.0159051
744.546	0.0159772
744.624	0.0160031
744.703	0.0159367
744.781	0.0158783
744.859	0.0160318
744.937	0.0158316
745.015	0.0159943
745.093	0.0158934
745.171	0.0159296
745.249	0.0159920
745.328	0.0161109
745.406	0.0160152
745.484	0.0159209
745.562	0.0158222
745.640	0.0157712
745.718	0.0159980
745.796	0.0159856
745.874	0.0158842
745.953	0.0159536
746.031	0.0159537
746.109	0.0160939
746.187	0.0158998
746.265	0.0158573
746.343	0.0160570
746.421	0.0159673
746.499	0.0159765
746.578	0.0158931
746.656	0.0159470
746.734	0.0160282
746.812	0.0159110
746.890	0.0158291
746.968	0.0161295
747.046	0.0159769
747.124	0.0158699
747.203	0.0158927
747.281	0.0159371
747.359	0.0159190
747.437	0.0158701
747.515	0.0158699
747.593	0.0160072
747.671	0.0159204
747.749	0.0158907
747.828	0.0160120
747.906	0.0158147
747.984	0.0158551
748.062	0.0159649
748.140	0.0159543
748.218	0.0159564
748.296	0.0159409
748.374	0.0160316
748.453	0.0159029
748.531	0.0157887
748.609	0.0159664
748.687	0.0160413
748.765	0.0159605
748.843	0.0158487
748.921	0.0159170
748.999	0.0160384
749.078	0.0159187
749.156	0.0158727
749.234	0.0159771
749.312	0.0157986
749.390	0.0159251
749.468	0.0159750
749.546	0.0158392
749.624	0.0158061
749.703	0.0160001
749.781	0.0159566
749.859	0.0158678
749.937	0.0158978
750.015	0.0157935
750.093	0.0159309
750.171	0.0158313
750.249	0.0159560
750.328	0.0158831
750.406	0.0160484
750.484	0.0159617
750.562	0.0158366
750.640	0.0158776
750.718	0.0159216
750.796	0.0159283
750.874	0.0158747
750.953	0.0159986
751.031	0.0159299
751.109	0.0160330
751.187	0.0159908
751.265	0.0159995
751.343	0.0159772
751.421	0.0159388
751.499	0.0159394
751.578	0.0159435
751.656	0.0158701
751.734	0.0158543
751.812	0.0159769
751.890	0.0160879
751.968	0.0159069
752.046	0.0158326
752.124	0.0159123
752.203	0.0159618
752.281	0.0159439
752.359	0.0159089
752.437	0.0159610
752.515	0.0160426
752.593	0.0161399
752.671	0.0158727
752.749	0.0159795
752.828	0.0160773
752.906	0.0160593
752.984	0.0159628
753.062	0.0159474
753.140	0.0158744
753.218	0.0159348
753.296	0.0159340
753.374	0.0157704
753.453	0.0159858
753.531	0.0158307
753.609	0.0158524
753.687	0.0159034
753.765	0.0159965
753.843	0.0159386
753.921	0.0158937
753.999	0.0158941
754.078	0.0158575
754.156	0.0159486
754.234	0.0158057
754.312	0.0159854
754.390	0.0159325
754.468	0.0158213
754.546	0.0158817
754.624	0.0157758
754.703	0.0156542
754.781	0.0157863
754.859	0.0159709
754.937	0.0159060
755.015	0.0159176
755.093	0.0158020
755.171	0.0158920
755.249	0.0160071
755.328	0.0159144
755.406	0.0160383
755.484	0.0158939
755.562	0.0158610
755.640	0.0161297
755.718	0.0160396
755.796	0.0160188
755.874	0.0159930
755.953	0.0158624
756.031	0.0158063
756.109	0.0160313
756.187	0.0159017
756.265	0.0158739
756.343	0.0158990
756.421	0.0159290
756.499	0.0158477
756.578	0.0158028
756.656	0.0159233
756.734	0.0159135
756.812	0.0158672
756.890	0.0159853
756.968	0.0158881
757.046	0.0159003
757.124	0.0158920
757.203	0.0158768
757.281	0.0157926
757.359	0.0158453
757.437	0.0161039
757.515	0.0159332
757.593	0.0159642
757.671	0.0160638
757.749	0.0161102
757.828	0.0159530
757.906	0.0161343
757.984	0.0160587
758.062	0.0162227
758.140	0.0160893
758.218	0.0161671
758.296	0.0158305
758.374	0.0161453
758.453	0.0160837
758.531	0.0160144
758.609	0.0159374
758.687	0.0160708
758.765	0.0160123
758.843	0.0160083
758.921	0.0158971
758.999	0.0158531
759.078	0.0159504
759.156	0.0159897
759.234	0.0159489
759.312	0.0158073
759.390	0.0158166
759.468	0.0157343
759.546	0.0157722
759.624	0.0157984
759.703	0.0157698
759.781	0.0158221
759.859	0.0156935
759.937	0.0157851
760.015	0.0158260
760.093	0.0156197
760.171	0.0156992
760.249	0.0156489
760.328	0.0157360
760.406	0.0158363
760.484	0.0157016
760.562	0.0158853
760.640	0.0158228
760.718	0.0158584
760.796	0.0158745
760.874	0.0159209
760.953	0.0159711
761.031	0.0159338
761.109	0.0159731
761.187	0.0160474
761.265	0.0160176
761.343	0.0160542
761.421	0.0162166
761.499	0.0162206
761.578	0.0162916
761.656	0.0162682
761.734	0.0162791
761.812	0.0163330
761.890	0.0163118
761.968	0.0163841
762.046	0.0162024
762.124	0.0161729
762.203	0.0162908
762.281	0.0160846
762.359	0.0161520
762.437	0.0161909
762.515	0.0161417
762.593	0.0160782
762.671	0.0160274
762.749	0.0159745
762.828	0.0158813
762.906	0.0161450
762.984	0.0159753
763.062	0.0160469
763.140	0.0159960
763.218	0.0159451
763.296	0.0159428
763.374	0.0159733
763.453	0.0159932
763.531	0.0159574
763.609	0.0159142
763.687	0.0158198
763.765	0.0158315
763.843	0.0159110
763.921	0.0159025
763.999	0.0158118
764.078	0.0159305
764.156	0.0158234
764.234	0.0157399
764.312	0.0157649
764.390	0.0157145
764.468	0.0156648
764.546	0.0157340
764.624	0.0157721
764.703	0.0158559
764.781	0.0157851
764.859	0.0157880
764.937	0.0158897
765.015	0.0159431
765.093	0.0159663
765.171	0.0159956
765.249	0.0161885
765.328	0.0161823
765.406	0.0161588
765.484	0.0161852
765.562	0.0161503
765.640	0.0161184
765.718	0.0162751
765.796	0.0161612
765.874	0.0161932
765.953	0.0160918
766.031	0.0160265
766.109	0.0161243
766.187	0.0161675
766.265	0.0161706
766.343	0.0161547
766.421	0.0161972
766.499	0.0160774
766.578	0.0161632
766.656	0.0160577
766.734	0.0160886
766.812	0.0161702
766.890	0.0162613
766.968	0.0161384
767.046	0.0161381
767.124	0.0159144
767.203	0.0158601
767.281	0.0159193
767.359	0.0159977
767.437	0.0157781
767.515	0.0157916
767.593	0.0156645
767.671	0.0156883
767.749	0.0156236
767.828	0.0153811
767.906	0.0154819
767.984	0.0155352
768.062	0.0155653
768.140	0.0155959
768.218	0.0155953
768.296	0.0157595
768.374	0.0158270
768.453	0.0158041
768.531	0.0159811
768.609	0.0160638
768.687	0.0160058
768.765	0.0159504
768.843	0.0162210
768.921	0.0161584
768.999	0.0161732
769.078	0.0162724
769.156	0.0160590
769.234	0.0161211
769.312	0.0162209
769.390	0.0162126
769.468	0.0161390
769.546	0.0163609
769.624	0.0163966
769.703	0.0163440
769.781	0.0164008
769.859	0.0163757
769.937	0.0162954
770.015	0.0162081
770.093	0.0162025
770.171	0.0160686
770.249	0.0160188
770.328	0.0158794
770.406	0.0159401
770.484	0.0158390
770.562	0.0156570
770.640	0.0156952
770.718	0.0155482
770.796	0.0156408
770.874	0.0156419
770.953	0.0155764
771.031	0.0155852
771.109	0.0155369
771.187	0.0155730
771.265	0.0156807
771.343	0.0156939
771.421	0.0156709
771.499	0.0156964
771.578	0.0157655
771.656	0.0159641
771.734	0.0160440
771.812	0.0158327
771.890	0.0160249
771.968	0.0159737
772.046	0.0160104
772.124	0.0160283
772.203	0.0160453
772.281	0.0158915
772.359	0.0159253
772.437	0.0160102
772.515	0.0159313
772.593	0.0159467
772.671	0.0159824
772.749	0.0159122
772.828	0.0158047
772.906	0.0160120
772.984	0.0158752
773.062	0.0158742
773.140	0.0159573
773.218	0.0159529
773.296	0.0159365
773.374	0.0160275
773.453	0.0159760
773.531	0.0160177
773.609	0.0161104
773.687	0.0161618
773.765	0.0160590
773.843	0.0163547
773.921	0.0163750
773.999	0.0165591
774.078	0.0165166
774.156	0.0164172
774.234	0.0164617
774.312	0.0163416
774.390	0.0162599
774.468	0.0161747
774.546	0.0161939
774.624	0.0161411
774.703	0.0158933
774.781	0.0157524
774.859	0.0157019
774.937	0.0156065
775.015	0.0156285
775.093	0.0155712
775.171	0.0156305
775.249	0.0154347
775.328	0.0154160
775.406	0.0154593
775.484	0.0154904
775.562	0.0154482
775.640	0.0153978
775.718	0.0153233
775.796	0.0152738
775.874	0.0154625
775.953	0.0155496
776.031	0.0157853
776.109	0.0156611
776.187	0.0157360
776.265	0.0157642
776.343	0.0158574
776.421	0.0159413
776.499	0.0161369
776.578	0.0160666
776.656	0.0160904
776.734	0.0161243
776.812	0.0160563
776.890	0.0162418
776.968	0.0161958
777.046	0.0161901
777.124	0.0162875
777.203	0.0162001
777.281	0.0163181
777.359	0.0162197
777.437	0.0160994
777.515	0.0162273
777.593	0.0162251
777.671	0.0162714
777.749	0.0161536
777.828	0.0160300
777.906	0.0161251
777.984	0.0159409
778.062	0.0159169
778.140	0.0158599
778.218	0.0160006
778.296	0.0158950
778.374	0.0159861
778.453	0.0158748
778.531	0.0158936
778.609	0.0158332
778.687	0.0158994
778.765	0.0159608
778.843	0.0159914
778.921	0.0159306
778.999	0.0158881
779.078	0.0159668
779.156	0.0159324
779.234	0.0160341
779.312	0.0160313
779.390	0.0160036
779.468	0.0159052
779.546	0.0159404
779.624	0.0157838
779.703	0.0158734
779.781	0.0156225
779.859	0.0155922
779.937	0.0154298
780.015	0.0154157
780.093	0.0155566
780.171	0.0155067
780.249	0.0153822
780.328	0.0153213
780.406	0.0154235
780.484	0.0155882
780.562	0.0156570
780.640	0.0155853
780.718	0.0156950
780.796	0.0158253
780.874	0.0158498
780.953	0.0159210
781.031	0.0159311
781.109	0.0160223
781.187	0.0162148
781.265	0.0161172
781.343	0.0161456
781.421	0.0162859
781.499	0.0162151
781.578	0.0162926
781.656	0.0162509
781.734	0.0161919
781.812	0.0163013
781.890	0.0162952
781.968	0.0162302
782.046	0.0162459
782.124	0.0162440
782.203	0.0161507
782.281	0.0160896
782.359	0.0160635
782.437	0.0158546
782.515	0.0157139
782.593	0.0155814
782.671	0.0155008
782.749	0.0153876
782.828	0.0153102
782.906	0.0153234
782.984	0.0152175
783.062	0.0152154
783.140	0.0154391
783.218	0.0154101
783.296	0.0154025
783.374	0.0153732
783.453	0.0154988
783.531	0.0155442
783.609	0.0156314
783.687	0.0157401
783.765	0.0157339
783.843	0.0157223
783.921	0.0159625
783.999	0.0159856
784.078	0.0159946
784.156	0.0161746
784.234	0.0162079
784.312	0.0162883
784.390	0.0163160
784.468	0.0164397
784.546	0.0165406
784.624	0.0165401
784.703	0.0163812
784.781	0.0164979
784.859	0.0165961
784.937	0.0162820
785.015	0.0164261
785.093	0.0164610
785.171	0.0163840
785.249	0.0163424
785.328	0.0160850
785.406	0.0160288
785.484	0.0159418
785.562	0.0159281
785.640	0.0158837
785.718	0.0157370
785.796	0.0156348
785.874	0.0156864
785.953	0.0155809
786.031	0.0156161
786.109	0.0156093
786.187	0.0153492
786.265	0.0155108
786.343	0.0156290
786.421	0.0154533
786.499	0.0156171
786.578	0.0157215
786.656	0.0156298
786.734	0.0156157
786.812	0.0155247
786.890	0.0155283
786.968	0.0156453
787.046	0.0155706
787.124	0.0156201
787.203	0.0155482
787.281	0.0155541
787.359	0.0154819
787.437	0.0156181
787.515	0.0155840
787.593	0.0156495
787.671	0.0156935
787.749	0.0157916
787.828	0.0158785
787.906	0.0158778
787.984	0.0159168
788.062	0.0159631
788.140	0.0160816
788.218	0.0159576
788.296	0.0160815
788.374	0.0161806
788.453	0.0160369
788.531	0.0162807
788.609	0.0162315
788.687	0.0161216
788.765	0.0161726
788.843	0.0161357
788.921	0.0160571
788.999	0.0160768
789.078	0.0162520
789.156	0.0162902
789.234	0.0163189
789.312	0.0163343
789.390	0.0161368
789.468	0.0161098
789.546	0.0161876
789.624	0.0161378
789.703	0.0161906
789.781	0.0160595
789.859	0.0159953
789.937	0.0159500
790.015	0.0160603
790.093	0.0160474
790.171	0.0158891
790.249	0.0158524
790.328	0.0159071
790.406	0.0158614
790.484	0.0157191
790.562	0.0156900
790.640	0.0158175
790.718	0.0155968
790.796	0.0156321
790.874	0.0153571
790.953	0.0153802
791.031	0.0153495
791.109	0.0152949
791.187	0.0152691
791.265	0.0151716
791.343	0.0151755
791.421	0.0151852
791.499	0.0153814
791.578	0.0154626
791.656	0.0154372
791.734	0.0155189
791.812	0.0156482
791.890	0.0158294
791.968	0.0157703
792.046	0.0160516
792.124	0.0161217
792.203	0.0161600
792.281	0.0162176
792.359	0.0162057
792.437	0.0163258
792.515	0.0165536
792.593	0.0164527
792.671	0.0162839
792.749	0.0164448
792.828	0.0165559
792.906	0.0164748
792.984	0.0163268
793.062	0.0162854
793.140	0.0162189
793.218	0.0160829
793.296	0.0158875
793.374	0.0157738
793.453	0.0158321
793.531	0.0156413
793.609	0.0155900
793.687	0.0153562
793.765	0.0153750
793.843	0.0152287
793.921	0.0153147
793.999	0.0152026
794.078	0.0152218
794.156	0.0151385
794.234	0.0153745
794.312	0.0152290
794.390	0.0153111
794.468	0.0154576
794.546	0.0154108
794.624	0.0156943
794.703	0.0157629
794.781	0.0159130
794.859	0.0160731
794.937	0.0161411
795.015	0.0160807
795.093	0.0162547
795.171	0.0162461
795.249	0.0164037
795.328	0.0164478
795.406	0.0164705
795.484	0.0165380
795.562	0.0164932
795.640	0.0164749
795.718	0.0164712
795.796	0.0162902
795.874	0.0164149
795.953	0.0163391
796.031	0.0163206
796.109	0.0163508
796.187	0.0162289
796.265	0.0161779
796.343	0.0160035
796.421	0.0159846
796.499	0.0159740
796.578	0.0157686
796.656	0.0157306
796.734	0.0156652
796.812	0.0155698
796.890	0.0155231
796.968	0.0154261
797.046	0.0153799
797.124	0.0152534
797.203	0.0152231
797.281	0.0153223
797.359	0.0153896
797.437	0.0152441
797.515	0.0153375
797.593	0.0152371
797.671	0.0153661
797.749	0.0153609
797.828	0.0153546
797.906	0.0153864
797.984	0.0154066
798.062	0.0155157
798.140	0.0154031
798.218	0.0155980
798.296	0.0156812
798.374	0.0156045
798.453	0.0158066
798.531	0.0157964
798.609	0.0159927
798.687	0.0159967
798.765	0.0161394
798.843	0.0161154
798.921	0.0163185
798.999	0.0161655
799.078	0.0162332
799.156	0.0163189
799.234	0.0162486
799.312	0.0162585
799.390	0.0161780
799.468	0.0162901
799.546	0.0162645
799.624	0.0163133
799.703	0.0161801
799.781	0.0162240
799.859	0.0161564
799.937	0.0162827
800.015	0.0163490
800.093	0.0161943
800.171	0.0160934
800.249	0.0163179
800.328	0.0162477
800.406	0.0161774
800.484	0.0161626
800.562	0.0161424
800.640	0.0160831
800.718	0.0160566
800.796	0.0160139
800.874	0.0158994
800.953	0.0157422
801.031	0.0157747
801.109	0.0157688
801.187	0.0157409
801.265	0.0156673
801.343	0.0155412
801.421	0.0154743
801.499	0.0156177
801.578	0.0155353
801.656	0.0153566
801.734	0.0155579
801.812	0.0154150
801.890	0.0154124
801.968	0.0153372
802.046	0.0154188
802.124	0.0154152
802.203	0.0153563
802.281	0.0153976
802.359	0.0152586
802.437	0.0153333
802.515	0.0154008
802.593	0.0155827
802.671	0.0155488
802.749	0.0155726
802.828	0.0156096
802.906	0.0157130
802.984	0.0157267
803.062	0.0157969
803.140	0.0160006
803.218	0.0160444
803.296	0.0160381
803.374	0.0161440
803.453	0.0161765
803.531	0.0160949
803.609	0.0161308
803.687	0.0162229
803.765	0.0161913
803.843	0.0161449
803.921	0.0160712
803.999	0.0160380
804.078	0.0160292
804.156	0.0157979
804.234	0.0157109
804.312	0.0157984
804.390	0.0158624
804.468	0.0158878
804.546	0.0158228
804.624	0.0157705
804.703	0.0158116
804.781	0.0158106
804.859	0.0158655
804.937	0.0156225
805.015	0.0156175
805.093	0.0157268
805.171	0.0157127
805.249	0.0157104
805.328	0.0156214
805.406	0.0157566
805.484	0.0157958
805.562	0.0159184
805.640	0.0158183
805.718	0.0160310
805.796	0.0158826
805.874	0.0158113
805.953	0.0160226
806.031	0.0160410
806.109	0.0158444
806.187	0.0160153
806.265	0.0161359
806.343	0.0160381
806.421	0.0160485
806.499	0.0160833
806.578	0.0160146
806.656	0.0158454
806.734	0.0159811
806.812	0.0160863
806.890	0.0160741
806.968	0.0158988
807.046	0.0158350
807.124	0.0156896
807.203	0.0158025
807.281	0.0155614
807.359	0.0155188
807.437	0.0154202
807.515	0.0152441
807.593	0.0152590
807.671	0.0152641
807.749	0.0150916
807.828	0.0151880
807.906	0.0150655
807.984	0.0150101
808.062	0.0153049
808.140	0.0151772
808.218	0.0150159
808.296	0.0153069
808.374	0.0153515
808.453	0.0153538
808.531	0.0157032
808.609	0.0156133
808.687	0.0156693
808.765	0.0158287
808.843	0.0160426
808.921	0.0160370
808.999	0.0159936
809.078	0.0160899
809.156	0.0161224
809.234	0.0159950
809.312	0.0161792
809.390	0.0161423
809.468	0.0158959
809.546	0.0160751
809.624	0.0161092
809.703	0.0159622
809.781	0.0160226
809.859	0.0160338
809.937	0.0161600
810.015	0.0160973
810.093	0.0160648
810.171	0.0159409
810.249	0.0160711
810.328	0.0161625
810.406	0.0160577
810.484	0.0160235
810.562	0.0161366
810.640	0.0160162
810.718	0.0158987
810.796	0.0158380
810.874	0.0158463
810.953	0.0158736
811.031	0.0160939
811.109	0.0160292
811.187	0.0159761
811.265	0.0159410
811.343	0.0160204
811.421	0.0158776
811.499	0.0159105
811.578	0.0158105
811.656	0.0158528
811.734	0.0158361
811.812	0.0158977
811.890	0.0158508
811.968	0.0156335
812.046	0.0155527
812.124	0.0156583
812.203	0.0154996
812.281	0.0154990
812.359	0.0155737
812.437	0.0154341
812.515	0.0154855
812.593	0.0155993
812.671	0.0153176
812.749	0.0153791
812.828	0.0153860
812.906	0.0153809
812.984	0.0152959
813.062	0.0154378
813.140	0.0153941
813.218	0.0154141
813.296	0.0154832
813.374	0.0153869
813.453	0.0154586
813.531	0.0154137
813.609	0.0156465
813.687	0.0155801
813.765	0.0155719
813.843	0.0157006
813.921	0.0158336
813.999	0.0158554
814.078	0.0158964
814.156	0.0158497
814.234	0.0161167
814.312	0.0162962
814.390	0.0162492
814.468	0.0163398
814.546	0.0163871
814.624	0.0165138
814.703	0.0165836
814.781	0.0166135
814.859	0.0166439
814.937	0.0165247
815.015	0.0166742
815.093	0.0166270
815.171	0.0164847
815.249	0.0164626
815.328	0.0164043
815.406	0.0163345
815.484	0.0161926
815.562	0.0159878
815.640	0.0159395
815.718	0.0159970
815.796	0.0158225
815.874	0.0158420
815.953	0.0157074
816.031	0.0155759
816.109	0.0158535
816.187	0.0157044
816.265	0.0156149
816.343	0.0157259
816.421	0.0157346
816.499	0.0158398
816.578	0.0157516
816.656	0.0158562
816.734	0.0159862
816.812	0.0159411
816.890	0.0159171
816.968	0.0157586
817.046	0.0159084
817.124	0.0159543
817.203	0.0159500
817.281	0.0157672
817.359	0.0157595
817.437	0.0157655
817.515	0.0156276
817.593	0.0156521
817.671	0.0155181
817.749	0.0156435
817.828	0.0154800
817.906	0.0156386
817.984	0.0157353
818.062	0.0156625
818.140	0.0158080
818.218	0.0156539
818.296	0.0155804
818.374	0.0156804
818.453	0.0157568
818.531	0.0156556
818.609	0.0158858
818.687	0.0157427
818.765	0.0157168
818.843	0.0158307
818.921	0.0159254
818.999	0.0160596
819.078	0.0161430
819.156	0.0159804
819.234	0.0160556
819.312	0.0162164
819.390	0.0160583
819.468	0.0162131
819.546	0.0162260
819.624	0.0162573
819.703	0.0163204
819.781	0.0163730
819.859	0.0163648
819.937	0.0165375
820.015	0.0164331
820.093	0.0164607
820.171	0.0165100
820.249	0.0164585
820.328	0.0165440
820.406	0.0164595
820.484	0.0163825
820.562	0.0163918
820.640	0.0162577
820.718	0.0161508
820.796	0.0162075
820.874	0.0160629
820.953	0.0158994
821.031	0.0158299
821.109	0.0157157
821.187	0.0155595
821.265	0.0156219
821.343	0.0155957
821.421	0.0156011
821.499	0.0155193
821.578	0.0154817
821.656	0.0155715
821.734	0.0154142
821.812	0.0155138
821.890	0.0155244
821.968	0.0154516
822.046	0.0155370
822.124	0.0155719
822.203	0.0156843
822.281	0.0156541
822.359	0.0156361
822.437	0.0157059
822.515	0.0157650
822.593	0.0158482
822.671	0.0158535
822.749	0.0159424
822.828	0.0159279
822.906	0.0158325
822.984	0.0159705
823.062	0.0160819
823.140	0.0160593
823.218	0.0161051
823.296	0.0160646
823.374	0.0161796
823.453	0.0162166
823.531	0.0162548
823.609	0.0162395
823.687	0.0162512
823.765	0.0161980
823.843	0.0162205
823.921	0.0162241
823.999	0.0162854
824.078	0.0162090
824.156	0.0162375
824.234	0.0162167
824.312	0.0161063
824.390	0.0162016
824.468	0.0160630
824.546	0.0158829
824.624	0.0159433
824.703	0.0160053
824.781	0.0158269
824.859	0.0158370
824.937	0.0156406
825.015	0.0157470
825.093	0.0155950
825.171	0.0156310
825.249	0.0155301
825.328	0.0156175
825.406	0.0155302
825.484	0.0155875
825.562	0.0155508
825.640	0.0156487
825.718	0.0155989
825.796	0.0156296
825.874	0.0158044
825.953	0.0158215
826.031	0.0158959
826.109	0.0159132
826.187	0.0159194
826.265	0.0159621
826.343	0.0161996
826.421	0.0163950
826.499	0.0164693
826.578	0.0164542
826.656	0.0164783
826.734	0.0166721
826.812	0.0166077
826.890	0.0166338
826.968	0.0167034
827.046	0.0167393
827.124	0.0169102
827.203	0.0167722
827.281	0.0165079
827.359	0.0164276
827.437	0.0165102
827.515	0.0163104
827.593	0.0163039
827.671	0.0160466
827.749	0.0158293
827.828	0.0156906
827.906	0.0156077
827.984	0.0154472
828.062	0.0153609
828.140	0.0153011
828.218	0.0151165
828.296	0.0150676
828.374	0.0149120
828.453	0.0148530
828.531	0.0149281
828.609	0.0148706
828.687	0.0149303
828.765	0.0150323
828.843	0.0152305
828.921	0.0151901
828.999	0.0153518
829.078	0.0154511
829.156	0.0155253
829.234	0.0156668
829.312	0.0157413
829.390	0.0157179
829.468	0.0159482
829.546	0.0161201
829.624	0.0162166
829.703	0.0162276
829.781	0.0164255
829.859	0.0165665
829.937	0.0164786
830.015	0.0166586
830.093	0.0166665
830.171	0.0166421
830.249	0.0167767
830.328	0.0166914
830.406	0.0167284
830.484	0.0167582
830.562	0.0166982
830.640	0.0167065
830.718	0.0164740
830.796	0.0162653
830.874	0.0163528
830.953	0.0163114
831.031	0.0160163
831.109	0.0158485
831.187	0.0158430
831.265	0.0156982
831.343	0.0156788
831.421	0.0156345
831.499	0.0154280
831.578	0.0152636
831.656	0.0154494
831.734	0.0152722
831.812	0.0152739
831.890	0.0152513
831.968	0.0152834
832.046	0.0152474
832.124	0.0151711
832.203	0.0151967
832.281	0.0153304
832.359	0.0152490
832.437	0.0155540
832.515	0.0154732
832.593	0.0155079
832.671	0.0156770
832.749	0.0156010
832.828	0.0156662
832.906	0.0157971
832.984	0.0157523
833.062	0.0158350
833.140	0.0158644
833.218	0.0158164
833.296	0.0158286
833.374	0.0157061
833.453	0.0159663
833.531	0.0157742
833.609	0.0159212
833.687	0.0157803
833.765	0.0158149
833.843	0.0158274
833.921	0.0157095
833.999	0.0157632
834.078	0.0159467
834.156	0.0159272
834.234	0.0158722
834.312	0.0159460
834.390	0.0160500
834.468	0.0160942
834.546	0.0161412
834.624	0.0160419
834.703	0.0160954
834.781	0.0161527
834.859	0.0162975
834.937	0.0163128
835.015	0.0160783
835.093	0.0162082
835.171	0.0160369
835.249	0.0160625
835.328	0.0161562
835.406	0.0161331
835.484	0.0161482
835.562	0.0159956
835.640	0.0160921
835.718	0.0161636
835.796	0.0161267
835.874	0.0160528
835.953	0.0159167
836.031	0.0159525
836.109	0.0159356
836.187	0.0157031
836.265	0.0155618
836.343	0.0155367
836.421	0.0154374
836.499	0.0154700
836.578	0.0154224
836.656	0.0153255
836.734	0.0154315
836.812	0.0153644
836.890	0.0154803
836.968	0.0153826
837.046	0.0154133
837.124	0.0154647
837.203	0.0155786
837.281	0.0156377
837.359	0.0156734
837.437	0.0156676
837.515	0.0159798
837.593	0.0158230
837.671	0.0158643
837.749	0.0160012
837.828	0.0160632
837.906	0.0162051
837.984	0.0162429
838.062	0.0164065
838.140	0.0163816
838.218	0.0166346
838.296	0.0166309
838.374	0.0165542
838.453	0.0166753
838.531	0.0165491
838.609	0.0165867
838.687	0.0164563
838.765	0.0163463
838.843	0.0163128
838.921	0.0164487
838.999	0.0162630
839.078	0.0160868
839.156	0.0159827
839.234	0.0158109
839.312	0.0158068
839.390	0.0157823
839.468	0.0154729
839.546	0.0155090
839.624	0.0155114
839.703	0.0153763
839.781	0.0152637
839.859	0.0155040
839.937	0.0154393
840.015	0.0151956
840.093	0.0153802
840.171	0.0155373
840.249	0.0154633
840.328	0.0156831
840.406	0.0156331
840.484	0.0155853
840.562	0.0158993
840.640	0.0159798
840.718	0.0160043
840.796	0.0160243
840.874	0.0161556
840.953	0.0162573
841.031	0.0162870
841.109	0.0163985
841.187	0.0164548
841.265	0.0163924
841.343	0.0164594
841.421	0.0165581
841.499	0.0163622
841.578	0.0164693
841.656	0.0165292
841.734	0.0165086
841.812	0.0164456
841.890	0.0163412
841.968	0.0161514
842.046	0.0160933
842.124	0.0161183
842.203	0.0160589
842.281	0.0159100
842.359	0.0159970
842.437	0.0159768
842.515	0.0158016
842.593	0.0159163
842.671	0.0157191
842.749	0.0156247
842.828	0.0157274
842.906	0.0155925
842.984	0.0155679
843.062	0.0156177
843.140	0.0154515
843.218	0.0154149
843.296	0.0154707
843.374	0.0155498
843.453	0.0156736
843.531	0.0157034
843.609	0.0156769
843.687	0.0155540
843.765	0.0156902
843.843	0.0156893
843.921	0.0157816
843.999	0.0158510
844.078	0.0158900
844.156	0.0159354
844.234	0.0160497
844.312	0.0159142
844.390	0.0161475
844.468	0.0161279
844.546	0.0161456
844.624	0.0163284
844.703	0.0162001
844.781	0.0162152
844.859	0.0163882
844.937	0.0160743
845.015	0.0162360
845.093	0.0162914
845.171	0.0161918
845.249	0.0160953
845.328	0.0160246
845.406	0.0161687
845.484	0.0160722
845.562	0.0160989
845.640	0.0161299
845.718	0.0161393
845.796	0.0159039
845.874	0.0159495
845.953	0.0162174
846.031	0.0161205
846.109	0.0160001
846.187	0.0160406
846.265	0.0160329
846.343	0.0160027
846.421	0.0160223
846.499	0.0160150
846.578	0.0160046
846.656	0.0158601
846.734	0.0158421
846.812	0.0158598
846.890	0.0158872
846.968	0.0158212
847.046	0.0158971
847.124	0.0159351
847.203	0.0158795
847.281	0.0160677
847.359	0.0158275
847.437	0.0157124
847.515	0.0159496
847.593	0.0159948
847.671	0.0159691
847.749	0.0159864
847.828	0.0160683
847.906	0.0160991
847.984	0.0160212
848.062	0.0160678
848.140	0.0160975
848.218	0.0162225
848.296	0.0163157
848.374	0.0160532
848.453	0.0161790
848.531	0.0162057
848.609	0.0161179
848.687	0.0161743
848.765	0.0163050
848.843	0.0161623
848.921	0.0161279
848.999	0.0161464
849.078	0.0161279
849.156	0.0162228
849.234	0.0161766
849.312	0.0162201
849.390	0.0161040
849.468	0.0160810
849.546	0.0160658
849.624	0.0161660
849.703	0.0159596
849.781	0.0158984
849.859	0.0158866
849.937	0.0159856
850.015	0.0159444
850.093	0.0160174
850.171	0.0157850
850.249	0.0159782
850.328	0.0159335
850.406	0.0159010
850.484	0.0159482
850.562	0.0158200
850.640	0.0159451
850.718	0.0159483
850.796	0.0159528
850.874	0.0159759
850.953	0.0159518
851.031	0.0161067
851.109	0.0161245
851.187	0.0160758
851.265	0.0161736
851.343	0.0161639
851.421	0.0161826
851.499	0.0161841
851.578	0.0161495
851.656	0.0162904
851.734	0.0161728
851.812	0.0160759
851.890	0.0162691
851.968	0.0161630
852.046	0.0160199
852.124	0.0158823
852.203	0.0160890
852.281	0.0160772
852.359	0.0160059
852.437	0.0159290
852.515	0.0159109
852.593	0.0158482
852.671	0.0158424
852.749	0.0159161
852.828	0.0158096
852.906	0.0158485
852.984	0.0157619
853.062	0.0157382
853.140	0.0158018
853.218	0.0158878
853.296	0.0157326
853.374	0.0157355
853.453	0.0159129
853.531	0.0158286
853.609	0.0157635
853.687	0.0159903
853.765	0.0159509
853.843	0.0158767
853.921	0.0159805
853.999	0.0160085
854.078	0.0160686
854.156	0.0159881
854.234	0.0161272
854.312	0.0162411
854.390	0.0160368
854.468	0.0160966
854.546	0.0159149
854.624	0.0159718
854.703	0.0158581
854.781	0.0158678
854.859	0.0160069
854.937	0.0158543
855.015	0.0159396
855.093	0.0158920
855.171	0.0158628
855.249	0.0157581
855.328	0.0157413
855.406	0.0158619
855.484	0.0156500
855.562	0.0155933
855.640	0.0158414
855.718	0.0158012
855.796	0.0157169
855.874	0.0157203
855.953	0.0157355
856.031	0.0159231
856.109	0.0158474
856.187	0.0157454
856.265	0.0157841
856.343	0.0159785
856.421	0.0158540
856.499	0.0159112
856.578	0.0159808
856.656	0.0159521
856.734	0.0158865
856.812	0.0159636
856.890	0.0160053
856.968	0.0160253
857.046	0.0158789
857.124	0.0160230
857.203	0.0159853
857.281	0.0160299
857.359	0.0159890
857.437	0.0159586
857.515	0.0159944
857.593	0.0158839
857.671	0.0159318
857.749	0.0157696
857.828	0.0157915
857.906	0.0159401
857.984	0.0159348
858.062	0.0159666
858.140	0.0158563
858.218	0.0159977
858.296	0.0159424
858.374	0.0158294
858.453	0.0159161
858.531	0.0157848
858.609	0.0157987
858.687	0.0158800
858.765	0.0159200
858.843	0.0159322
858.921	0.0158863
858.999	0.0159429
859.078	0.0159350
859.156	0.0160116
859.234	0.0159881
859.312	0.0159580
859.390	0.0159707
859.468	0.0160263
859.546	0.0160967
859.624	0.0160391
859.703	0.0160316
859.781	0.0159234
859.859	0.0158698
859.937	0.0160308
860.015	0.0160004
860.093	0.0159617
860.171	0.0159235
860.249	0.0159509
860.328	0.0159579
860.406	0.0160587
860.484	0.0161715
860.562	0.0160748
860.640	0.0160305
860.718	0.0159306
860.796	0.0158668
860.874	0.0159669
860.953	0.0158857
861.031	0.0158623
861.109	0.0157807
861.187	0.0157046
861.265	0.0158152
861.343	0.0157353
861.421	0.0157058
861.499	0.0156843
861.578	0.0158343
861.656	0.0157251
861.734	0.0156072
861.812	0.0155317
861.890	0.0157705
861.968	0.0157259
862.046	0.0157204
862.124	0.0158312
862.203	0.0158398
862.281	0.0157454
862.359	0.0156764
862.437	0.0157454
862.515	0.0157790
862.593	0.0158227
862.671	0.0158824
862.749	0.0158932
862.828	0.0158286
862.906	0.0159759
862.984	0.0159406
863.062	0.0158625
863.140	0.0160452
863.218	0.0160250
863.296	0.0158316
863.374	0.0158876
863.453	0.0160495
863.531	0.0160952
863.609	0.0157990
863.687	0.0158701
863.765	0.0159147
863.843	0.0159225
863.921	0.0159300
863.999	0.0158862
864.078	0.0157848
864.156	0.0160494
864.234	0.0159827
864.312	0.0158590
864.390	0.0159160
864.468	0.0159145
864.546	0.0159582
864.624	0.0159957
864.703	0.0159343
864.781	0.0161002
864.859	0.0161864
864.937	0.0161161
865.015	0.0160201
865.093	0.0159962
865.171	0.0160855
865.249	0.0161472
865.328	0.0160468
865.406	0.0160574
865.484	0.0160819
865.562	0.0159044
865.640	0.0159669
865.718	0.0160079
865.796	0.0159666
865.874	0.0159540
865.953	0.0159932
866.031	0.0159940
866.109	0.0159542
866.187	0.0160592
866.265	0.0161235
866.343	0.0160456
866.421	0.0159493
866.499	0.0159032
866.578	0.0158940
866.656	0.0159385
866.734	0.0158878
866.812	0.0159030
866.890	0.0159291
866.968	0.0159389
867.046	0.0158031
867.124	0.0158508
867.203	0.0159246
867.281	0.0159290
867.359	0.0159225
867.437	0.0158114
867.515	0.0159100
867.593	0.0158595
867.671	0.0158517
867.749	0.0158558
867.828	0.0158622
867.906	0.0158500
867.984	0.0159286
868.062	0.0160127
868.140	0.0160023
868.218	0.0160354
868.296	0.0158915
868.374	0.0159697
868.453	0.0159553
868.531	0.0159962
868.609	0.0159560
868.687	0.0158257
868.765	0.0160298
868.843	0.0159093
868.921	0.0159972
868.999	0.0160820
869.078	0.0161507
869.156	0.0160281
869.234	0.0160827
869.312	0.0160281
869.390	0.0161867
869.468	0.0161619
869.546	0.0161811
869.624	0.0161010
869.703	0.0160258
869.781	0.0160583
869.859	0.0161130
869.937	0.0161132
870.015	0.0161452
870.093	0.0162191
870.171	0.0161192
870.249	0.0160432
870.328	0.0161287
870.406	0.0159857
870.484	0.0160194
870.562	0.0160139
870.640	0.0158826
870.718	0.0158329
870.796	0.0159702
870.874	0.0159056
870.953	0.0158881
871.031	0.0159160
871.109	0.0158949
871.187	0.0160029
871.265	0.0159683
871.343	0.0160078
871.421	0.0159118
871.499	0.0159381
871.578	0.0159057
871.656	0.0157811
871.734	0.0158768
871.812	0.0159145
871.890	0.0157811
871.968	0.0158297
872.046	0.0158839
872.124	0.0158887
872.203	0.0158012
872.281	0.0158428
872.359	0.0158437
872.437	0.0159139
872.515	0.0159449
872.593	0.0159291
872.671	0.0158591
872.749	0.0158138
872.828	0.0158353
872.906	0.0159373
872.984	0.0158488
873.062	0.0157223
873.140	0.0157225
873.218	0.0159211
873.296	0.0160395
873.374	0.0159571
873.453	0.0157930
873.531	0.0157411
873.609	0.0159482
873.687	0.0159456
873.765	0.0157900
873.843	0.0156852
873.921	0.0157054
873.999	0.0157582
874.078	0.0157458
874.156	0.0157412
874.234	0.0157348
874.312	0.0156871
874.390	0.0157720
874.468	0.0158901
874.546	0.0157520
874.624	0.0157307
874.703	0.0159438
874.781	0.0159870
874.859	0.0159598
874.937	0.0160005
875.015	0.0159885
875.093	0.0159097
875.171	0.0160085
875.249	0.0160091
875.328	0.0160944
875.406	0.0159574
875.484	0.0160718
875.562	0.0160890
875.640	0.0159946
875.718	0.0159764
875.796	0.0160351
875.874	0.0157723
875.953	0.0159042
876.031	0.0158884
876.109	0.0159016
876.187	0.0158998
876.265	0.0160223
876.343	0.0158650
876.421	0.0158932
876.499	0.0158691
876.578	0.0158298
876.656	0.0159310
876.734	0.0158054
876.812	0.0157810
876.890	0.0156377
876.968	0.0157708
877.046	0.0159689
877.124	0.0158129
877.203	0.0157824
877.281	0.0158311
877.359	0.0157684
877.437	0.0157992
877.515	0.0159100
877.593	0.0159224
877.671	0.0158554
877.749	0.0158130
877.828	0.0158585
877.906	0.0159054
877.984	0.0160214
878.062	0.0161172
878.140	0.0159215
878.218	0.0159868
878.296	0.0159401
878.374	0.0160131
878.453	0.0159990
878.531	0.0159915
878.609	0.0159384
878.687	0.0158271
878.765	0.0158942
878.843	0.0159428
878.921	0.0159931
878.999	0.0159956
879.078	0.0158052
879.156	0.0157238
879.234	0.0158952
879.312	0.0160298
879.390	0.0157559
879.468	0.0156064
879.546	0.0157018
879.624	0.0158781
879.703	0.0158807
879.781	0.0158170
879.859	0.0158169
879.937	0.0157342
880.015	0.0157326
880.093	0.0158393
880.171	0.0157951
880.249	0.0157292
880.328	0.0157608
880.406	0.0156991
880.484	0.0158057
880.562	0.0159559
880.640	0.0158162
880.718	0.0156818
880.796	0.0158842
880.874	0.0158640
880.953	0.0158165
881.031	0.0157639
881.109	0.0157006
881.187	0.0156824
881.265	0.0157830
881.343	0.0156989
881.421	0.0158110
881.499	0.0157201
881.578	0.0156819
881.656	0.0157537
881.734	0.0156944
881.812	0.0158227
881.890	0.0157788
881.968	0.0157481
882.046	0.0157593
882.124	0.0157372
882.203	0.0158748
882.281	0.0158480
882.359	0.0157085
882.437	0.0158602
882.515	0.0159213
882.593	0.0159672
882.671	0.0159242
882.749	0.0158225
882.828	0.0157591
882.906	0.0157391
882.984	0.0158153
883.062	0.0158784
883.140	0.0159962
883.218	0.0159741
883.296	0.0159258
883.374	0.0157912
883.453	0.0159699
883.531	0.0159230
883.609	0.0157322
883.687	0.0159148
883.765	0.0160039
883.843	0.0159595
883.921	0.0157987
883.999	0.0160405
884.078	0.0161287
884.156	0.0160080
884.234	0.0159818
884.312	0.0157896
884.390	0.0159454
884.468	0.0159531
884.546	0.0159000
884.624	0.0159946
884.703	0.0159829
884.781	0.0160715
884.859	0.0160912
884.937	0.0160743
885.015	0.0160243
885.093	0.0159107
885.171	0.0160445
885.249	0.0159737
885.328	0.0160244
885.406	0.0160450
885.484	0.0158972
885.562	0.0159615
885.640	0.0158896
885.718	0.0157953
885.796	0.0159058
885.874	0.0159541
885.953	0.0160209
886.031	0.0160114
886.109	0.0160944
886.187	0.0160625
886.265	0.0159412
886.343	0.0161021
886.421	0.0160875
886.499	0.0159557
886.578	0.0160379
886.656	0.0159534
886.734	0.0161620
886.812	0.0160233
886.890	0.0160157
886.968	0.0160061
887.046	0.0160576
887.124	0.0160867
887.203	0.0159473
887.281	0.0158760
887.359	0.0158595
887.437	0.0159171
887.515	0.0158438
887.593	0.0159122
887.671	0.0160056
887.749	0.0158646
887.828	0.0158367
887.906	0.0158390
887.984	0.0159737
888.062	0.0158298
888.140	0.0159081
888.218	0.0159618
888.296	0.0158813
888.374	0.0157328
888.453	0.0158089
888.531	0.0158479
888.609	0.0159529
888.687	0.0158473
888.765	0.0159576
888.843	0.0158337
888.921	0.0158446
888.999	0.0160040
889.078	0.0159956
889.156	0.0160602
889.234	0.0158109
889.312	0.0159320
889.390	0.0159743
889.468	0.0158500
889.546	0.0159900
889.624	0.0159071
889.703	0.0158870
889.781	0.0160919
889.859	0.0160297
889.937	0.0158662
890.015	0.0157580
890.093	0.0159762
890.171	0.0160082
890.249	0.0160023
890.328	0.0160534
890.406	0.0159531
890.484	0.0159565
890.562	0.0159543
890.640	0.0158087
890.718	0.0159346
890.796	0.0159361
890.874	0.0158693
890.953	0.0158911
891.031	0.0160095
891.109	0.0159399
891.187	0.0158240
891.265	0.0158353
891.343	0.0158611
891.421	0.0159444
891.499	0.0157882
891.578	0.0157807
891.656	0.0158566
891.734	0.0158293
891.812	0.0158051
891.890	0.0157608
891.968	0.0157896
892.046	0.0158289
892.124	0.0157947
892.203	0.0158152
892.281	0.0157942
892.359	0.0158994
892.437	0.0159484
892.515	0.0158498
892.593	0.0158933
892.671	0.0158556
892.749	0.0158195
892.828	0.0159254
892.906	0.0159013
892.984	0.0159390
893.062	0.0160461
893.140	0.0159482
893.218	0.0159176
893.296	0.0160662
893.374	0.0160539
893.453	0.0160654
893.531	0.0159383
893.609	0.0160416
893.687	0.0160118
893.765	0.0157874
893.843	0.0159042
893.921	0.0159327
893.999	0.0157610
894.078	0.0159123
894.156	0.0158492
894.234	0.0157967
894.312	0.0159415
894.390	0.0157350
894.468	0.0159444
894.546	0.0157254
894.624	0.0157800
894.703	0.0158334
894.781	0.0159173
894.859	0.0157691
894.937	0.0158630
895.015	0.0158377
895.093	0.0157699
895.171	0.0159032
895.249	0.0158625
895.328	0.0158730
895.406	0.0159090
895.484	0.0158430
895.562	0.0158850
895.640	0.0158885
895.718	0.0158665
895.796	0.0158710
895.874	0.0159574
895.953	0.0159548
896.031	0.0158860
896.109	0.0158521
896.187	0.0157807
896.265	0.0158463
896.343	0.0158453
896.421	0.0158320
896.499	0.0157931
896.578	0.0158411
896.656	0.0158510
896.734	0.0158320
896.812	0.0157151
896.890	0.0158187
896.968	0.0158260
897.046	0.0157360
897.124	0.0157378
897.203	0.0158521
897.281	0.0157784
897.359	0.0157332
897.437	0.0156886
897.515	0.0157500
897.593	0.0157771
897.671	0.0158665
897.749	0.0157578
897.828	0.0158281
897.906	0.0159810
897.984	0.0158368
898.062	0.0157541
898.140	0.0157819
898.218	0.0159870
898.296	0.0160048
898.374	0.0158995
898.453	0.0158797
898.531	0.0159315
898.609	0.0157688
898.687	0.0159519
898.765	0.0159422
898.843	0.0159170
898.921	0.0159090
898.999	0.0158903
899.078	0.0160187
899.156	0.0159001
899.234	0.0158770
899.312	0.0157829
899.390	0.0159565
899.468	0.0158306
899.546	0.0157775
899.624	0.0159917
899.703	0.0158707
899.781	0.0158212
899.859	0.0158478
899.937	0.0158026
900.015	0.0158002
900.093	0.0158436
900.171	0.0158530
900.249	0.0158115
900.328	0.0157830
900.406	0.0159121
900.484	0.0158047
900.562	0.0158402
900.640	0.0158826
900.718	0.0157948
900.796	0.0157508
900.874	0.0159033
900.953	0.0158366
901.031	0.0158278
901.109	0.0158463
901.187	0.0157819
901.265	0.0158575
901.343	0.0159569
901.421	0.0158347
901.499	0.0159093
901.578	0.0159903
901.656	0.0159156
901.734	0.0159444
901.812	0.0159079
901.890	0.0159581
901.968	0.0159838
902.046	0.0158287
902.124	0.0158198
902.203	0.0158904
902.281	0.0158338
902.359	0.0158203
902.437	0.0158259
902.515	0.0159687
902.593	0.0159155
902.671	0.0158712
902.749	0.0159271
902.828	0.0158659
902.906	0.0158954
902.984	0.0159885
903.062	0.0157838
903.140	0.0158488
903.218	0.0160461
903.296	0.0159858
903.374	0.0159011
903.453	0.0158826
903.531	0.0160210
903.609	0.0158091
903.687	0.0159370
903.765	0.0160402
903.843	0.0160513
903.921	0.0160394
903.999	0.0161439
904.078	0.0160475
904.156	0.0160595
904.234	0.0160943
904.312	0.0159903
904.390	0.0159496
904.468	0.0159354
904.546	0.0160825
904.624	0.0160035
904.703	0.0159886
904.781	0.0160093
904.859	0.0158986
904.937	0.0158318
905.015	0.0160571
905.093	0.0159080
905.171	0.0158274
905.249	0.0158928
905.328	0.0159563
905.406	0.0157599
905.484	0.0159721
905.562	0.0158707
905.640	0.0158627
905.718	0.0158481
905.796	0.0159888
905.874	0.0159733
905.953	0.0159518
906.031	0.0158102
906.109	0.0158019
906.187	0.0159444
906.265	0.0159158
906.343	0.0158443
906.421	0.0159461
906.499	0.0158720
906.578	0.0159624
906.656	0.0160204
906.734	0.0162253
906.812	0.0158919
906.890	0.0158820
906.968	0.0159571
907.046	0.0159310
907.124	0.0161292
907.203	0.0160197
907.281	0.0160258
907.359	0.0162080
907.437	0.0159606
907.515	0.0159107
907.593	0.0159697
907.671	0.0159962
907.749	0.0158054
907.828	0.0159408
907.906	0.0159103
907.984	0.0159026
908.062	0.0158215
908.140	0.0159103
908.218	0.0160086
908.296	0.0158428
908.374	0.0160316
908.453	0.0159245
908.531	0.0157876
908.609	0.0158070
908.687	0.0158614
908.765	0.0159412
908.843	0.0159006
908.921	0.0158695
908.999	0.0158765
909.078	0.0157547
909.156	0.0157533
909.234	0.0157909
909.312	0.0159685
909.390	0.0159298
909.468	0.0159135
909.546	0.0158164
909.624	0.0157622
909.703	0.0158948
909.781	0.0160159
909.859	0.0160434
909.937	0.0158981
910.015	0.0159705
910.093	0.0158831
910.171	0.0158997
910.249	0.0157833
910.328	0.0158324
910.406	0.0159611
910.484	0.0160359
910.562	0.0159667
910.640	0.0158406
910.718	0.0158828
910.796	0.0159756
910.874	0.0158535
910.953	0.0160170
911.031	0.0158836
911.109	0.0158665
911.187	0.0159312
911.265	0.0159279
911.343	0.0160232
911.421	0.0159859
911.499	0.0159074
911.578	0.0159404
911.656	0.0158701
911.734	0.0159265
911.812	0.0158862
911.890	0.0158186
911.968	0.0159821
912.046	0.0160233
912.124	0.0159864
912.203	0.0159733
912.281	0.0159716
912.359	0.0159671
912.437	0.0159135
912.515	0.0160165
912.593	0.0159326
912.671	0.0160558
912.749	0.0160580
912.828	0.0159684
912.906	0.0160684
912.984	0.0160279
913.062	0.0160449
913.140	0.0160281
913.218	0.0159393
913.296	0.0160269
913.374	0.0159443
913.453	0.0157895
913.531	0.0158954
913.609	0.0160297
913.687	0.0158856
913.765	0.0157860
913.843	0.0159328
913.921	0.0159336
913.999	0.0159180
914.078	0.0159947
914.156	0.0159094
914.234	0.0156465
914.312	0.0156747
914.390	0.0158171
914.468	0.0158038
914.546	0.0157335
914.624	0.0158009
914.703	0.0157405
914.781	0.0157946
914.859	0.0158419
914.937	0.0158262
915.015	0.0158242
915.093	0.0158121
915.171	0.0156440
915.249	0.0157884
915.328	0.0158079
915.406	0.0158624
915.484	0.0157143
915.562	0.0158051
915.640	0.0157234
915.718	0.0157584
915.796	0.0158348
915.874	0.0156835
915.953	0.0159299
916.031	0.0159151
916.109	0.0158013
916.187	0.0158440
916.265	0.0158904
916.343	0.0159410
916.421	0.0159235
916.499	0.0160101
916.578	0.0159330
916.656	0.0158517
916.734	0.0159753
916.812	0.0160460
916.890	0.0159414
916.968	0.0159260
917.046	0.0160204
917.124	0.0158656
917.203	0.0159651
917.281	0.0159592
917.359	0.0158552
917.437	0.0159752
917.515	0.0158505
917.593	0.0159921
917.671	0.0159484
917.749	0.0159554
917.828	0.0159670
917.906	0.0159019
917.984	0.0159018
918.062	0.0158660
918.140	0.0160420
918.218	0.0159861
918.296	0.0160712
918.374	0.0159161
918.453	0.0159077
918.531	0.0159871
918.609	0.0160075
918.687	0.0158797
918.765	0.0159509
918.843	0.0160244
918.921	0.0158062
918.999	0.0158772
919.078	0.0159682
919.156	0.0159648
919.234	0.0158842
919.312	0.0160137
919.390	0.0158717
919.468	0.0158118
919.546	0.0159970
919.624	0.0160917
919.703	0.0158781
919.781	0.0157847
919.859	0.0158509
919.937	0.0158385
