06/10/2022	18:57:00	Ver.	4.1	UNKNOWN
Optical Delay	600.015094	Delta X		0.078125	Sweeps	1	Scan Rate	0/0
Coordinates	Axis 1	NaN	Axis 2	NaN	Axis 3	NaN	Axis 4	NaN	Axis 5	NaN	Axis 6	0.000000
TX Power	0.000000	RX Power	0.000000

600.015	0.0165923
600.093	0.0164229
600.171	0.0164055
600.249	0.0166470
600.328	0.0166073
600.406	0.0164984
600.484	0.0164426
600.562	0.0165240
600.640	0.0165895
600.718	0.0165290
600.796	0.0164303
600.874	0.0165021
600.953	0.0166023
601.031	0.0165771
601.109	0.0165322
601.187	0.0164882
601.265	0.0164950
601.343	0.0165189
601.421	0.0164915
601.499	0.0166706
601.578	0.0164944
601.656	0.0165047
601.734	0.0165724
601.812	0.0164906
601.890	0.0165029
601.968	0.0165691
602.046	0.0164439
602.124	0.0166493
602.203	0.0165508
602.281	0.0165144
602.359	0.0164989
602.437	0.0166167
602.515	0.0165578
602.593	0.0165952
602.671	0.0165323
602.749	0.0165513
602.828	0.0165852
602.906	0.0164916
602.984	0.0165923
603.062	0.0165816
603.140	0.0166198
603.218	0.0166503
603.296	0.0165735
603.374	0.0165327
603.453	0.0165794
603.531	0.0165234
603.609	0.0165516
603.687	0.0166865
603.765	0.0165163
603.843	0.0165200
603.921	0.0166376
603.999	0.0165371
604.078	0.0166391
604.156	0.0165717
604.234	0.0165900
604.312	0.0165100
604.390	0.0166974
604.468	0.0166789
604.546	0.0165933
604.624	0.0164794
604.703	0.0165263
604.781	0.0164951
604.859	0.0166634
604.937	0.0166360
605.015	0.0165763
605.093	0.0165593
605.171	0.0165566
605.249	0.0166626
605.328	0.0166532
605.406	0.0164554
605.484	0.0166299
605.562	0.0167014
605.640	0.0164959
605.718	0.0165387
605.796	0.0165313
605.874	0.0165851
605.953	0.0164342
606.031	0.0166096
606.109	0.0167303
606.187	0.0167215
606.265	0.0166748
606.343	0.0166451
606.421	0.0166098
606.499	0.0163717
606.578	0.0165244
606.656	0.0166165
606.734	0.0166500
606.812	0.0165462
606.890	0.0165722
606.968	0.0166144
607.046	0.0165033
607.124	0.0166586
607.203	0.0167299
607.281	0.0166212
607.359	0.0165236
607.437	0.0165654
607.515	0.0165114
607.593	0.0166884
607.671	0.0166024
607.749	0.0164398
607.828	0.0165363
607.906	0.0167064
607.984	0.0166599
608.062	0.0166158
608.140	0.0165089
608.218	0.0167393
608.296	0.0165553
608.374	0.0166460
608.453	0.0166109
608.531	0.0165849
608.609	0.0166488
608.687	0.0166580
608.765	0.0165032
608.843	0.0166404
608.921	0.0166056
608.999	0.0166682
609.078	0.0167741
609.156	0.0164732
609.234	0.0165742
609.312	0.0167381
609.390	0.0166483
609.468	0.0164699
609.546	0.0165847
609.624	0.0166111
609.703	0.0166963
609.781	0.0166349
609.859	0.0165343
609.937	0.0165317
610.015	0.0164906
610.093	0.0167116
610.171	0.0166257
610.249	0.0166779
610.328	0.0166068
610.406	0.0166458
610.484	0.0165238
610.562	0.0165248
610.640	0.0166603
610.718	0.0166639
610.796	0.0166151
610.874	0.0165139
610.953	0.0166391
611.031	0.0166842
611.109	0.0166361
611.187	0.0166962
611.265	0.0167236
611.343	0.0165025
611.421	0.0165520
611.499	0.0166161
611.578	0.0167126
611.656	0.0166816
611.734	0.0165711
611.812	0.0167396
611.890	0.0166644
611.968	0.0165820
612.046	0.0166840
612.124	0.0166082
612.203	0.0165962
612.281	0.0167142
612.359	0.0165450
612.437	0.0167088
612.515	0.0165775
612.593	0.0166154
612.671	0.0165514
612.749	0.0167213
612.828	0.0166820
612.906	0.0165691
612.984	0.0165986
613.062	0.0167411
613.140	0.0166323
613.218	0.0166044
613.296	0.0166110
613.374	0.0165961
613.453	0.0165512
613.531	0.0165736
613.609	0.0168003
613.687	0.0166932
613.765	0.0166119
613.843	0.0166000
613.921	0.0167268
613.999	0.0166495
614.078	0.0167172
614.156	0.0165476
614.234	0.0165536
614.312	0.0165376
614.390	0.0166677
614.468	0.0165338
614.546	0.0165822
614.624	0.0166386
614.703	0.0167029
614.781	0.0166455
614.859	0.0168282
614.937	0.0166784
615.015	0.0166574
615.093	0.0166630
615.171	0.0165807
615.249	0.0165158
615.328	0.0166067
615.406	0.0167421
615.484	0.0166447
615.562	0.0166790
615.640	0.0166257
615.718	0.0166312
615.796	0.0166779
615.874	0.0165783
615.953	0.0165556
616.031	0.0165708
616.109	0.0166695
616.187	0.0167549
616.265	0.0166532
616.343	0.0167056
616.421	0.0166341
616.499	0.0166586
616.578	0.0166085
616.656	0.0166254
616.734	0.0166410
616.812	0.0167175
616.890	0.0166982
616.968	0.0166302
617.046	0.0165649
617.124	0.0165507
617.203	0.0165681
617.281	0.0166806
617.359	0.0165223
617.437	0.0165974
617.515	0.0167757
617.593	0.0165570
617.671	0.0165804
617.749	0.0166264
617.828	0.0166726
617.906	0.0167961
617.984	0.0166807
618.062	0.0165772
618.140	0.0166878
618.218	0.0166489
618.296	0.0166670
618.374	0.0166276
618.453	0.0166583
618.531	0.0167836
618.609	0.0167192
618.687	0.0165276
618.765	0.0167779
618.843	0.0166483
618.921	0.0167367
618.999	0.0165707
619.078	0.0166176
619.156	0.0166759
619.234	0.0166169
619.312	0.0165376
619.390	0.0166522
619.468	0.0167468
619.546	0.0166292
619.624	0.0165942
619.703	0.0165903
619.781	0.0166327
619.859	0.0165430
619.937	0.0166464
620.015	0.0166982
620.093	0.0165227
620.171	0.0165933
620.249	0.0166973
620.328	0.0165482
620.406	0.0164899
620.484	0.0166730
620.562	0.0166113
620.640	0.0166242
620.718	0.0165137
620.796	0.0164637
620.874	0.0165512
620.953	0.0167011
621.031	0.0166866
621.109	0.0166036
621.187	0.0166077
621.265	0.0164823
621.343	0.0164897
621.421	0.0165548
621.499	0.0166580
621.578	0.0165106
621.656	0.0164937
621.734	0.0166579
621.812	0.0166418
621.890	0.0164818
621.968	0.0164777
622.046	0.0165984
622.124	0.0164646
622.203	0.0165578
622.281	0.0165036
622.359	0.0165282
622.437	0.0166510
622.515	0.0164899
622.593	0.0165016
622.671	0.0165060
622.749	0.0165569
622.828	0.0165412
622.906	0.0164257
622.984	0.0164317
623.062	0.0165466
623.140	0.0166528
623.218	0.0164928
623.296	0.0167010
623.374	0.0166730
623.453	0.0165380
623.531	0.0164939
623.609	0.0165357
623.687	0.0164724
623.765	0.0165254
623.843	0.0164868
623.921	0.0164781
623.999	0.0163963
624.078	0.0164500
624.156	0.0165086
624.234	0.0164076
624.312	0.0163885
624.390	0.0165050
624.468	0.0165456
624.546	0.0166120
624.624	0.0164423
624.703	0.0164725
624.781	0.0163768
624.859	0.0164653
624.937	0.0164848
625.015	0.0163766
625.093	0.0163528
625.171	0.0164235
625.249	0.0163827
625.328	0.0164495
625.406	0.0165412
625.484	0.0164798
625.562	0.0164752
625.640	0.0163567
625.718	0.0165887
625.796	0.0165948
625.874	0.0163470
625.953	0.0163808
626.031	0.0164832
626.109	0.0163551
626.187	0.0165588
626.265	0.0165279
626.343	0.0165170
626.421	0.0164806
626.499	0.0164600
626.578	0.0164346
626.656	0.0163814
626.734	0.0164151
626.812	0.0165487
626.890	0.0164584
626.968	0.0164482
627.046	0.0163872
627.124	0.0165249
627.203	0.0165783
627.281	0.0163995
627.359	0.0163828
627.437	0.0165269
627.515	0.0165082
627.593	0.0164323
627.671	0.0164587
627.749	0.0165116
627.828	0.0165046
627.906	0.0164772
627.984	0.0164320
628.062	0.0164380
628.140	0.0164610
628.218	0.0164308
628.296	0.0164902
628.374	0.0165173
628.453	0.0164095
628.531	0.0164859
628.609	0.0164467
628.687	0.0163071
628.765	0.0164895
628.843	0.0164115
628.921	0.0166007
628.999	0.0164199
629.078	0.0164555
629.156	0.0162777
629.234	0.0163647
629.312	0.0164836
629.390	0.0165086
629.468	0.0163438
629.546	0.0164326
629.624	0.0165733
629.703	0.0164963
629.781	0.0164075
629.859	0.0164043
629.937	0.0164482
630.015	0.0165894
630.093	0.0165770
630.171	0.0163680
630.249	0.0165102
630.328	0.0165581
630.406	0.0164686
630.484	0.0164840
630.562	0.0164581
630.640	0.0164256
630.718	0.0165324
630.796	0.0166209
630.874	0.0165693
630.953	0.0165485
631.031	0.0165238
631.109	0.0165692
631.187	0.0166311
631.265	0.0164766
631.343	0.0165459
631.421	0.0166063
631.499	0.0165878
631.578	0.0166042
631.656	0.0165583
631.734	0.0166505
631.812	0.0164969
631.890	0.0165629
631.968	0.0165899
632.046	0.0164733
632.124	0.0165968
632.203	0.0165640
632.281	0.0166082
632.359	0.0165784
632.437	0.0166116
632.515	0.0164694
632.593	0.0166932
632.671	0.0167174
632.749	0.0165814
632.828	0.0166409
632.906	0.0165034
632.984	0.0165798
633.062	0.0166147
633.140	0.0165785
633.218	0.0165381
633.296	0.0166564
633.374	0.0164925
633.453	0.0166395
633.531	0.0167407
633.609	0.0166494
633.687	0.0166571
633.765	0.0166599
633.843	0.0165993
633.921	0.0166959
633.999	0.0166922
634.078	0.0166228
634.156	0.0165791
634.234	0.0166798
634.312	0.0166191
634.390	0.0165769
634.468	0.0166587
634.546	0.0166537
634.624	0.0166937
634.703	0.0167493
634.781	0.0166798
634.859	0.0164768
634.937	0.0166617
635.015	0.0167237
635.093	0.0166389
635.171	0.0166045
635.249	0.0166341
635.328	0.0167242
635.406	0.0166433
635.484	0.0166914
635.562	0.0168050
635.640	0.0166936
635.718	0.0165568
635.796	0.0166358
635.874	0.0165427
635.953	0.0166287
636.031	0.0166972
636.109	0.0166911
636.187	0.0165776
636.265	0.0166251
636.343	0.0166254
636.421	0.0166621
636.499	0.0166016
636.578	0.0166193
636.656	0.0165261
636.734	0.0164772
636.812	0.0165543
636.890	0.0167087
636.968	0.0166264
637.046	0.0166998
637.124	0.0166456
637.203	0.0166097
637.281	0.0165556
637.359	0.0166595
637.437	0.0166197
637.515	0.0165829
637.593	0.0166574
637.671	0.0165375
637.749	0.0166037
637.828	0.0167207
637.906	0.0168030
637.984	0.0165467
638.062	0.0166566
638.140	0.0165430
638.218	0.0166537
638.296	0.0166437
638.374	0.0166222
638.453	0.0165727
638.531	0.0164646
638.609	0.0165588
638.687	0.0165596
638.765	0.0166921
638.843	0.0166496
638.921	0.0165079
638.999	0.0165981
639.078	0.0165213
639.156	0.0166486
639.234	0.0165575
639.312	0.0166028
639.390	0.0164938
639.468	0.0164327
639.546	0.0165114
639.624	0.0165729
639.703	0.0164674
639.781	0.0164560
639.859	0.0166484
639.937	0.0165779
640.015	0.0164909
640.093	0.0165838
640.171	0.0166599
640.249	0.0164228
640.328	0.0165684
640.406	0.0164615
640.484	0.0165802
640.562	0.0165343
640.640	0.0164944
640.718	0.0165717
640.796	0.0166187
640.874	0.0164998
640.953	0.0165657
641.031	0.0164825
641.109	0.0165412
641.187	0.0164472
641.265	0.0165152
641.343	0.0165263
641.421	0.0164379
641.499	0.0164657
641.578	0.0164824
641.656	0.0165250
641.734	0.0164591
641.812	0.0165176
641.890	0.0164962
641.968	0.0166561
642.046	0.0165071
642.124	0.0163930
642.203	0.0164861
642.281	0.0164244
642.359	0.0165806
642.437	0.0165115
642.515	0.0164364
642.593	0.0165234
642.671	0.0164255
642.749	0.0163853
642.828	0.0164455
642.906	0.0164989
642.984	0.0164153
643.062	0.0164138
643.140	0.0165871
643.218	0.0163934
643.296	0.0163705
643.374	0.0164230
643.453	0.0164983
643.531	0.0164943
643.609	0.0166467
643.687	0.0164384
643.765	0.0164104
643.843	0.0165995
643.921	0.0165250
643.999	0.0164253
644.078	0.0165639
644.156	0.0165293
644.234	0.0164045
644.312	0.0165405
644.390	0.0164727
644.468	0.0163816
644.546	0.0164837
644.624	0.0165560
644.703	0.0164452
644.781	0.0165060
644.859	0.0165265
644.937	0.0165555
645.015	0.0165993
645.093	0.0165395
645.171	0.0164945
645.249	0.0164993
645.328	0.0165148
645.406	0.0166259
645.484	0.0165185
645.562	0.0165791
645.640	0.0165873
645.718	0.0165478
645.796	0.0165662
645.874	0.0166030
645.953	0.0166221
646.031	0.0165700
646.109	0.0166941
646.187	0.0167730
646.265	0.0165617
646.343	0.0165022
646.421	0.0165099
646.499	0.0166249
646.578	0.0165907
646.656	0.0165082
646.734	0.0166078
646.812	0.0165717
646.890	0.0166830
646.968	0.0166547
647.046	0.0164656
647.124	0.0166422
647.203	0.0166077
647.281	0.0167278
647.359	0.0166414
647.437	0.0165496
647.515	0.0166368
647.593	0.0166648
647.671	0.0166203
647.749	0.0166568
647.828	0.0165620
647.906	0.0167760
647.984	0.0166036
648.062	0.0165652
648.140	0.0164438
648.218	0.0166232
648.296	0.0165756
648.374	0.0165758
648.453	0.0166646
648.531	0.0165646
648.609	0.0165565
648.687	0.0165572
648.765	0.0165962
648.843	0.0164971
648.921	0.0164476
648.999	0.0165833
649.078	0.0166502
649.156	0.0164481
649.234	0.0165027
649.312	0.0165623
649.390	0.0165251
649.468	0.0164703
649.546	0.0164313
649.624	0.0165895
649.703	0.0166982
649.781	0.0165616
649.859	0.0166680
649.937	0.0166788
650.015	0.0165608
650.093	0.0165781
650.171	0.0164459
650.249	0.0165168
650.328	0.0165862
650.406	0.0164948
650.484	0.0166047
650.562	0.0165817
650.640	0.0165409
650.718	0.0165115
650.796	0.0165620
650.874	0.0165015
650.953	0.0164114
651.031	0.0165353
651.109	0.0165421
651.187	0.0164824
651.265	0.0164747
651.343	0.0165070
651.421	0.0165643
651.499	0.0165853
651.578	0.0164298
651.656	0.0165287
651.734	0.0165331
651.812	0.0165311
651.890	0.0165673
651.968	0.0164577
652.046	0.0165339
652.124	0.0166100
652.203	0.0165088
652.281	0.0166486
652.359	0.0166876
652.437	0.0166075
652.515	0.0164877
652.593	0.0165829
652.671	0.0166547
652.749	0.0164951
652.828	0.0165813
652.906	0.0166121
652.984	0.0165542
653.062	0.0165367
653.140	0.0166360
653.218	0.0165200
653.296	0.0165397
653.374	0.0165598
653.453	0.0164673
653.531	0.0164725
653.609	0.0166362
653.687	0.0165417
653.765	0.0164608
653.843	0.0165163
653.921	0.0165762
653.999	0.0165817
654.078	0.0164128
654.156	0.0165616
654.234	0.0165858
654.312	0.0165538
654.390	0.0166206
654.468	0.0165809
654.546	0.0165434
654.624	0.0167229
654.703	0.0165877
654.781	0.0165776
654.859	0.0166280
654.937	0.0165366
655.015	0.0166144
655.093	0.0166021
655.171	0.0165337
655.249	0.0166056
655.328	0.0166544
655.406	0.0166228
655.484	0.0166734
655.562	0.0165079
655.640	0.0165681
655.718	0.0165332
655.796	0.0166012
655.874	0.0166700
655.953	0.0166599
656.031	0.0165890
656.109	0.0165552
656.187	0.0166859
656.265	0.0166511
656.343	0.0166434
656.421	0.0166289
656.499	0.0166117
656.578	0.0166289
656.656	0.0166221
656.734	0.0166332
656.812	0.0166326
656.890	0.0166215
656.968	0.0166528
657.046	0.0165701
657.124	0.0165460
657.203	0.0165337
657.281	0.0166420
657.359	0.0166869
657.437	0.0165942
657.515	0.0166586
657.593	0.0166146
657.671	0.0165755
657.749	0.0166891
657.828	0.0166388
657.906	0.0165615
657.984	0.0166655
658.062	0.0165170
658.140	0.0166393
658.218	0.0166686
658.296	0.0165633
658.374	0.0165715
658.453	0.0165610
658.531	0.0165259
658.609	0.0165448
658.687	0.0166123
658.765	0.0166217
658.843	0.0167133
658.921	0.0166483
658.999	0.0166859
659.078	0.0166550
659.156	0.0167648
659.234	0.0167089
659.312	0.0166258
659.390	0.0167434
659.468	0.0166538
659.546	0.0165285
659.624	0.0166771
659.703	0.0166644
659.781	0.0165948
659.859	0.0166241
659.937	0.0165714
660.015	0.0166561
660.093	0.0167167
660.171	0.0166398
660.249	0.0167118
660.328	0.0166953
660.406	0.0166001
660.484	0.0165997
660.562	0.0166030
660.640	0.0166174
660.718	0.0167410
660.796	0.0167998
660.874	0.0165818
660.953	0.0166895
661.031	0.0166222
661.109	0.0167014
661.187	0.0167326
661.265	0.0166792
661.343	0.0166193
661.421	0.0164405
661.499	0.0167072
661.578	0.0167097
661.656	0.0167177
661.734	0.0166834
661.812	0.0167039
661.890	0.0167519
661.968	0.0166144
662.046	0.0167186
662.124	0.0167194
662.203	0.0166578
662.281	0.0165224
662.359	0.0166411
662.437	0.0166590
662.515	0.0166665
662.593	0.0167168
662.671	0.0167560
662.749	0.0166679
662.828	0.0166610
662.906	0.0165839
662.984	0.0166434
663.062	0.0167076
663.140	0.0166622
663.218	0.0165700
663.296	0.0165921
663.374	0.0166454
663.453	0.0166650
663.531	0.0166718
663.609	0.0167960
663.687	0.0165366
663.765	0.0166759
663.843	0.0166308
663.921	0.0165537
663.999	0.0165739
664.078	0.0165845
664.156	0.0166286
664.234	0.0165255
664.312	0.0165131
664.390	0.0167147
664.468	0.0165707
664.546	0.0165057
664.624	0.0166077
664.703	0.0165466
664.781	0.0165663
664.859	0.0164626
664.937	0.0165656
665.015	0.0166566
665.093	0.0164890
665.171	0.0167372
665.249	0.0164946
665.328	0.0165937
665.406	0.0165022
665.484	0.0164805
665.562	0.0165828
665.640	0.0165540
665.718	0.0164515
665.796	0.0164559
665.874	0.0165501
665.953	0.0166449
666.031	0.0165649
666.109	0.0165642
666.187	0.0164553
666.265	0.0166372
666.343	0.0166499
666.421	0.0165368
666.499	0.0165125
666.578	0.0166605
666.656	0.0166412
666.734	0.0166404
666.812	0.0166509
666.890	0.0166647
666.968	0.0165644
667.046	0.0166084
667.124	0.0166517
667.203	0.0167310
667.281	0.0165779
667.359	0.0165999
667.437	0.0165594
667.515	0.0167007
667.593	0.0166443
667.671	0.0166298
667.749	0.0166261
667.828	0.0165362
667.906	0.0166115
667.984	0.0165929
668.062	0.0166453
668.140	0.0166104
668.218	0.0166011
668.296	0.0166338
668.374	0.0165445
668.453	0.0166589
668.531	0.0166206
668.609	0.0166405
668.687	0.0166763
668.765	0.0167694
668.843	0.0165886
668.921	0.0166717
668.999	0.0166345
669.078	0.0166196
669.156	0.0166058
669.234	0.0165881
669.312	0.0165382
669.390	0.0165369
669.468	0.0165551
669.546	0.0166434
669.624	0.0166554
669.703	0.0166037
669.781	0.0167601
669.859	0.0165475
669.937	0.0165819
670.015	0.0165183
670.093	0.0166787
670.171	0.0166413
670.249	0.0166849
670.328	0.0167202
670.406	0.0166227
670.484	0.0166217
670.562	0.0166762
670.640	0.0167014
670.718	0.0168035
670.796	0.0166515
670.874	0.0166245
670.953	0.0165698
671.031	0.0165734
671.109	0.0166570
671.187	0.0165481
671.265	0.0167278
671.343	0.0165118
671.421	0.0164953
671.499	0.0167156
671.578	0.0167186
671.656	0.0165567
671.734	0.0165395
671.812	0.0165165
671.890	0.0166545
671.968	0.0166232
672.046	0.0168487
672.124	0.0166644
672.203	0.0166269
672.281	0.0166903
672.359	0.0166512
672.437	0.0164565
672.515	0.0165594
672.593	0.0166789
672.671	0.0165022
672.749	0.0165601
672.828	0.0165873
672.906	0.0166080
672.984	0.0166473
673.062	0.0164494
673.140	0.0165363
673.218	0.0165555
673.296	0.0165455
673.374	0.0165818
673.453	0.0166193
673.531	0.0165295
673.609	0.0164816
673.687	0.0166184
673.765	0.0166064
673.843	0.0164590
673.921	0.0166425
673.999	0.0166523
674.078	0.0165793
674.156	0.0167233
674.234	0.0166313
674.312	0.0165963
674.390	0.0166167
674.468	0.0167580
674.546	0.0166885
674.624	0.0166045
674.703	0.0165340
674.781	0.0164523
674.859	0.0166087
674.937	0.0167377
675.015	0.0165575
675.093	0.0166214
675.171	0.0165234
675.249	0.0165878
675.328	0.0165591
675.406	0.0165177
675.484	0.0165710
675.562	0.0166131
675.640	0.0166694
675.718	0.0166635
675.796	0.0166403
675.874	0.0164163
675.953	0.0165313
676.031	0.0165853
676.109	0.0166631
676.187	0.0164927
676.265	0.0165205
676.343	0.0165624
676.421	0.0165414
676.499	0.0166410
676.578	0.0165768
676.656	0.0163953
676.734	0.0165450
676.812	0.0165605
676.890	0.0164678
676.968	0.0164919
677.046	0.0165111
677.124	0.0166152
677.203	0.0166112
677.281	0.0165347
677.359	0.0165488
677.437	0.0165358
677.515	0.0166155
677.593	0.0165720
677.671	0.0165470
677.749	0.0164516
677.828	0.0165988
677.906	0.0164548
677.984	0.0164522
678.062	0.0165278
678.140	0.0165021
678.218	0.0166496
678.296	0.0165573
678.374	0.0165642
678.453	0.0165228
678.531	0.0165926
678.609	0.0165842
678.687	0.0164927
678.765	0.0164296
678.843	0.0164926
678.921	0.0165554
678.999	0.0165933
679.078	0.0166244
679.156	0.0165852
679.234	0.0164622
679.312	0.0165384
679.390	0.0164114
679.468	0.0163462
679.546	0.0166074
679.624	0.0165996
679.703	0.0164973
679.781	0.0164878
679.859	0.0166699
679.937	0.0164452
680.015	0.0164931
680.093	0.0165654
680.171	0.0166324
680.249	0.0166229
680.328	0.0166119
680.406	0.0165910
680.484	0.0165927
680.562	0.0164618
680.640	0.0165524
680.718	0.0166662
680.796	0.0165111
680.874	0.0164795
680.953	0.0165509
681.031	0.0166170
681.109	0.0165034
681.187	0.0165858
681.265	0.0165719
681.343	0.0166328
681.421	0.0165044
681.499	0.0164352
681.578	0.0166064
681.656	0.0168575
681.734	0.0166321
681.812	0.0165302
681.890	0.0164484
681.968	0.0165379
682.046	0.0166428
682.124	0.0165501
682.203	0.0166550
682.281	0.0165411
682.359	0.0165689
682.437	0.0166093
682.515	0.0165278
682.593	0.0165261
682.671	0.0166633
682.749	0.0165352
682.828	0.0165443
682.906	0.0165229
682.984	0.0166415
683.062	0.0166055
683.140	0.0166786
683.218	0.0164687
683.296	0.0164850
683.374	0.0165914
683.453	0.0165923
683.531	0.0166052
683.609	0.0166233
683.687	0.0165482
683.765	0.0165565
683.843	0.0165783
683.921	0.0166677
683.999	0.0166456
684.078	0.0166058
684.156	0.0165401
684.234	0.0166189
684.312	0.0165201
684.390	0.0167056
684.468	0.0166174
684.546	0.0166693
684.624	0.0166222
684.703	0.0165499
684.781	0.0166169
684.859	0.0167442
684.937	0.0166853
685.015	0.0167371
685.093	0.0166287
685.171	0.0165993
685.249	0.0167031
685.328	0.0166682
685.406	0.0166794
685.484	0.0166595
685.562	0.0165901
685.640	0.0166144
685.718	0.0167831
685.796	0.0165871
685.874	0.0165444
685.953	0.0165817
686.031	0.0166232
686.109	0.0167270
686.187	0.0165293
686.265	0.0165797
686.343	0.0168140
686.421	0.0166245
686.499	0.0166805
686.578	0.0166196
686.656	0.0166013
686.734	0.0165925
686.812	0.0166569
686.890	0.0167313
686.968	0.0167321
687.046	0.0166891
687.124	0.0166334
687.203	0.0167522
687.281	0.0166395
687.359	0.0165214
687.437	0.0166256
687.515	0.0166534
687.593	0.0166463
687.671	0.0165085
687.749	0.0166943
687.828	0.0167359
687.906	0.0165703
687.984	0.0165311
688.062	0.0166595
688.140	0.0165974
688.218	0.0166481
688.296	0.0166640
688.374	0.0165605
688.453	0.0166051
688.531	0.0166463
688.609	0.0165958
688.687	0.0166794
688.765	0.0166675
688.843	0.0165752
688.921	0.0166833
688.999	0.0166418
689.078	0.0164384
689.156	0.0164772
689.234	0.0166985
689.312	0.0166024
689.390	0.0165746
689.468	0.0167033
689.546	0.0166880
689.624	0.0166417
689.703	0.0166441
689.781	0.0166422
689.859	0.0166470
689.937	0.0167031
690.015	0.0165307
690.093	0.0166819
690.171	0.0166900
690.249	0.0165853
690.328	0.0165810
690.406	0.0166304
690.484	0.0166172
690.562	0.0165663
690.640	0.0166520
690.718	0.0166802
690.796	0.0166425
690.874	0.0166527
690.953	0.0166837
691.031	0.0167302
691.109	0.0166057
691.187	0.0166420
691.265	0.0166302
691.343	0.0165990
691.421	0.0166642
691.499	0.0166038
691.578	0.0166441
691.656	0.0167112
691.734	0.0167658
691.812	0.0165542
691.890	0.0165952
691.968	0.0166293
692.046	0.0165115
692.124	0.0165942
692.203	0.0167004
692.281	0.0165704
692.359	0.0165887
692.437	0.0166173
692.515	0.0167075
692.593	0.0166121
692.671	0.0166400
692.749	0.0167414
692.828	0.0166251
692.906	0.0167876
692.984	0.0165984
693.062	0.0165923
693.140	0.0166132
693.218	0.0166196
693.296	0.0165908
693.374	0.0167686
693.453	0.0167832
693.531	0.0166677
693.609	0.0165421
693.687	0.0165071
693.765	0.0166524
693.843	0.0165050
693.921	0.0165383
693.999	0.0166028
694.078	0.0166376
694.156	0.0165968
694.234	0.0166437
694.312	0.0166280
694.390	0.0165716
694.468	0.0164883
694.546	0.0165299
694.624	0.0165310
694.703	0.0166669
694.781	0.0167092
694.859	0.0166085
694.937	0.0164552
695.015	0.0165350
695.093	0.0166491
695.171	0.0168024
695.249	0.0164881
695.328	0.0165743
695.406	0.0166376
695.484	0.0165214
695.562	0.0165054
695.640	0.0166298
695.718	0.0165893
695.796	0.0165768
695.874	0.0165185
695.953	0.0166261
696.031	0.0165541
696.109	0.0164043
696.187	0.0164175
696.265	0.0165406
696.343	0.0165492
696.421	0.0165204
696.499	0.0166741
696.578	0.0165488
696.656	0.0164655
696.734	0.0163825
696.812	0.0165116
696.890	0.0164898
696.968	0.0165501
697.046	0.0166307
697.124	0.0166222
697.203	0.0165695
697.281	0.0166427
697.359	0.0165112
697.437	0.0165255
697.515	0.0165347
697.593	0.0165196
697.671	0.0165874
697.749	0.0164373
697.828	0.0166372
697.906	0.0167267
697.984	0.0165768
698.062	0.0163654
698.140	0.0164420
698.218	0.0165561
698.296	0.0165340
698.374	0.0164622
698.453	0.0164342
698.531	0.0165001
698.609	0.0166747
698.687	0.0164013
698.765	0.0164348
698.843	0.0166001
698.921	0.0165195
698.999	0.0166922
699.078	0.0164988
699.156	0.0166589
699.234	0.0167330
699.312	0.0166323
699.390	0.0165858
699.468	0.0165324
699.546	0.0165334
699.624	0.0163824
699.703	0.0165988
699.781	0.0164771
699.859	0.0164056
699.937	0.0164911
700.015	0.0166399
700.093	0.0164111
700.171	0.0165749
700.249	0.0165816
700.328	0.0165550
700.406	0.0163920
700.484	0.0163665
700.562	0.0165253
700.640	0.0164758
700.718	0.0162604
700.796	0.0163282
700.874	0.0165906
700.953	0.0164715
701.031	0.0164577
701.109	0.0165659
701.187	0.0164590
701.265	0.0164471
701.343	0.0164468
701.421	0.0165573
701.499	0.0164432
701.578	0.0164779
701.656	0.0164835
701.734	0.0164081
701.812	0.0164680
701.890	0.0163854
701.968	0.0164509
702.046	0.0164049
702.124	0.0164946
702.203	0.0164805
702.281	0.0164883
702.359	0.0164112
702.437	0.0165888
702.515	0.0166312
702.593	0.0164652
702.671	0.0164702
702.749	0.0166410
702.828	0.0166225
702.906	0.0164019
702.984	0.0164494
703.062	0.0165503
703.140	0.0164989
703.218	0.0165109
703.296	0.0166242
703.374	0.0163875
703.453	0.0164359
703.531	0.0165763
703.609	0.0164273
703.687	0.0164785
703.765	0.0166544
703.843	0.0165209
703.921	0.0165438
703.999	0.0163783
704.078	0.0163870
704.156	0.0165680
704.234	0.0165109
704.312	0.0165068
704.390	0.0163761
704.468	0.0164622
704.546	0.0165015
704.624	0.0165550
704.703	0.0165913
704.781	0.0164487
704.859	0.0165973
704.937	0.0165058
705.015	0.0164387
705.093	0.0163987
705.171	0.0164252
705.249	0.0164816
705.328	0.0163609
705.406	0.0163469
705.484	0.0164054
705.562	0.0163171
705.640	0.0163084
705.718	0.0164889
705.796	0.0166080
705.874	0.0165025
705.953	0.0164331
706.031	0.0165273
706.109	0.0164445
706.187	0.0164792
706.265	0.0165591
706.343	0.0165086
706.421	0.0163225
706.499	0.0163515
706.578	0.0163441
706.656	0.0164445
706.734	0.0164655
706.812	0.0165156
706.890	0.0164474
706.968	0.0163432
707.046	0.0164927
707.124	0.0164791
707.203	0.0164231
707.281	0.0163746
707.359	0.0162821
707.437	0.0164563
707.515	0.0166475
707.593	0.0163745
707.671	0.0163843
707.749	0.0164429
707.828	0.0165321
707.906	0.0165222
707.984	0.0165629
708.062	0.0165678
708.140	0.0164885
708.218	0.0163348
708.296	0.0165271
708.374	0.0166277
708.453	0.0164888
708.531	0.0164063
708.609	0.0164777
708.687	0.0165089
708.765	0.0165044
708.843	0.0166669
708.921	0.0164646
708.999	0.0165350
709.078	0.0165582
709.156	0.0165723
709.234	0.0164812
709.312	0.0165483
709.390	0.0164990
709.468	0.0164822
709.546	0.0165421
709.624	0.0164810
709.703	0.0165737
709.781	0.0165925
709.859	0.0165272
709.937	0.0164682
710.015	0.0165340
710.093	0.0167089
710.171	0.0165662
710.249	0.0165676
710.328	0.0165335
710.406	0.0165195
710.484	0.0165083
710.562	0.0164889
710.640	0.0165792
710.718	0.0165444
710.796	0.0164217
710.874	0.0164573
710.953	0.0165186
711.031	0.0167356
711.109	0.0166514
711.187	0.0165762
711.265	0.0166452
711.343	0.0166264
711.421	0.0165659
711.499	0.0165786
711.578	0.0165801
711.656	0.0165309
711.734	0.0165092
711.812	0.0165008
711.890	0.0166344
711.968	0.0167350
712.046	0.0165452
712.124	0.0165023
712.203	0.0166661
712.281	0.0165707
712.359	0.0166345
712.437	0.0165756
712.515	0.0166799
712.593	0.0166670
712.671	0.0164979
712.749	0.0165130
712.828	0.0165531
712.906	0.0165493
712.984	0.0166312
713.062	0.0165972
713.140	0.0165540
713.218	0.0165365
713.296	0.0165946
713.374	0.0164867
713.453	0.0165822
713.531	0.0165443
713.609	0.0166502
713.687	0.0165900
713.765	0.0167234
713.843	0.0166319
713.921	0.0166674
713.999	0.0164591
714.078	0.0166016
714.156	0.0166053
714.234	0.0165858
714.312	0.0166237
714.390	0.0165431
714.468	0.0165759
714.546	0.0165597
714.624	0.0163692
714.703	0.0165636
714.781	0.0167131
714.859	0.0165942
714.937	0.0164905
715.015	0.0166241
715.093	0.0165469
715.171	0.0166301
715.249	0.0165250
715.328	0.0165583
715.406	0.0165649
715.484	0.0166495
715.562	0.0166045
715.640	0.0165269
715.718	0.0166090
715.796	0.0164994
715.874	0.0166272
715.953	0.0166416
716.031	0.0164988
716.109	0.0165182
716.187	0.0166091
716.265	0.0166639
716.343	0.0166167
716.421	0.0164286
716.499	0.0166561
716.578	0.0164796
716.656	0.0164470
716.734	0.0167329
716.812	0.0167118
716.890	0.0167035
716.968	0.0166299
717.046	0.0166498
717.124	0.0165070
717.203	0.0164647
717.281	0.0165747
717.359	0.0164523
717.437	0.0166169
717.515	0.0165390
717.593	0.0165605
717.671	0.0165754
717.749	0.0166723
717.828	0.0165705
717.906	0.0164555
717.984	0.0165755
718.062	0.0164262
718.140	0.0164779
718.218	0.0163682
718.296	0.0165015
718.374	0.0165170
718.453	0.0165651
718.531	0.0166193
718.609	0.0165690
718.687	0.0165903
718.765	0.0164272
718.843	0.0164603
718.921	0.0166917
718.999	0.0165916
719.078	0.0165553
719.156	0.0165730
719.234	0.0164948
719.312	0.0165189
719.390	0.0165502
719.468	0.0164984
719.546	0.0165128
719.624	0.0165390
719.703	0.0164802
719.781	0.0166077
719.859	0.0166681
719.937	0.0165334
720.015	0.0165918
720.093	0.0166203
720.171	0.0163847
720.249	0.0164890
720.328	0.0165320
720.406	0.0166460
720.484	0.0165488
720.562	0.0166502
720.640	0.0165501
720.718	0.0166148
720.796	0.0166248
720.874	0.0165774
720.953	0.0167035
721.031	0.0166019
721.109	0.0166984
721.187	0.0166205
721.265	0.0166905
721.343	0.0165044
721.421	0.0166244
721.499	0.0166293
721.578	0.0164826
721.656	0.0166837
721.734	0.0165344
721.812	0.0165672
721.890	0.0164445
721.968	0.0165402
722.046	0.0165403
722.124	0.0165968
722.203	0.0164760
722.281	0.0164935
722.359	0.0165271
722.437	0.0164182
722.515	0.0165159
722.593	0.0164782
722.671	0.0164572
722.749	0.0165689
722.828	0.0165847
722.906	0.0165006
722.984	0.0164793
723.062	0.0165193
723.140	0.0164860
723.218	0.0163936
723.296	0.0164692
723.374	0.0165532
723.453	0.0165948
723.531	0.0165391
723.609	0.0164137
723.687	0.0166166
723.765	0.0165110
723.843	0.0164729
723.921	0.0164761
723.999	0.0165221
724.078	0.0164879
724.156	0.0164666
724.234	0.0165863
724.312	0.0165857
724.390	0.0164526
724.468	0.0163223
724.546	0.0164716
724.624	0.0166244
724.703	0.0166302
724.781	0.0165015
724.859	0.0166193
724.937	0.0164974
725.015	0.0165093
725.093	0.0164362
725.171	0.0165649
725.249	0.0164050
725.328	0.0164008
725.406	0.0164115
725.484	0.0165319
725.562	0.0164758
725.640	0.0165105
725.718	0.0165316
725.796	0.0164758
725.874	0.0164713
725.953	0.0164013
726.031	0.0166212
726.109	0.0165044
726.187	0.0165404
726.265	0.0165385
726.343	0.0165265
726.421	0.0164723
726.499	0.0165405
726.578	0.0166794
726.656	0.0164059
726.734	0.0164034
726.812	0.0163873
726.890	0.0164878
726.968	0.0166508
727.046	0.0165103
727.124	0.0164450
727.203	0.0164826
727.281	0.0165042
727.359	0.0163956
727.437	0.0163902
727.515	0.0165189
727.593	0.0165508
727.671	0.0165622
727.749	0.0163924
727.828	0.0163746
727.906	0.0164513
727.984	0.0163966
728.062	0.0165269
728.140	0.0165853
728.218	0.0164813
728.296	0.0164466
728.374	0.0164493
728.453	0.0165009
728.531	0.0164980
728.609	0.0164574
728.687	0.0165955
728.765	0.0165657
728.843	0.0164349
728.921	0.0164427
728.999	0.0163354
729.078	0.0164197
729.156	0.0164428
729.234	0.0164947
729.312	0.0163615
729.390	0.0165144
729.468	0.0164651
729.546	0.0166010
729.624	0.0164584
729.703	0.0165075
729.781	0.0164513
729.859	0.0164999
729.937	0.0164732
730.015	0.0164653
730.093	0.0164109
730.171	0.0164333
730.249	0.0165704
730.328	0.0164404
730.406	0.0164039
730.484	0.0165059
730.562	0.0164410
730.640	0.0165668
730.718	0.0164415
730.796	0.0164661
730.874	0.0165281
730.953	0.0164142
731.031	0.0164629
731.109	0.0164407
731.187	0.0164574
731.265	0.0165485
731.343	0.0166012
731.421	0.0164158
731.499	0.0164293
731.578	0.0164810
731.656	0.0164298
731.734	0.0164913
731.812	0.0165527
731.890	0.0163706
731.968	0.0164509
732.046	0.0165104
732.124	0.0165948
732.203	0.0166721
732.281	0.0164106
732.359	0.0165118
732.437	0.0164796
732.515	0.0165289
732.593	0.0163944
732.671	0.0165768
732.749	0.0165408
732.828	0.0165034
732.906	0.0165240
732.984	0.0165684
733.062	0.0165428
733.140	0.0164923
733.218	0.0164336
733.296	0.0163934
733.374	0.0164364
733.453	0.0165659
733.531	0.0165608
733.609	0.0166353
733.687	0.0166054
733.765	0.0166318
733.843	0.0164198
733.921	0.0165446
733.999	0.0163831
734.078	0.0166206
734.156	0.0166956
734.234	0.0167001
734.312	0.0166152
734.390	0.0166795
734.468	0.0165611
734.546	0.0166051
734.624	0.0164428
734.703	0.0166833
734.781	0.0166694
734.859	0.0167311
734.937	0.0164838
735.015	0.0166951
735.093	0.0166160
735.171	0.0165029
735.249	0.0165796
735.328	0.0166567
735.406	0.0165373
735.484	0.0165575
735.562	0.0165575
735.640	0.0166417
735.718	0.0165743
735.796	0.0165965
735.874	0.0166357
735.953	0.0167258
736.031	0.0167481
736.109	0.0166186
736.187	0.0167691
736.265	0.0166393
736.343	0.0165500
736.421	0.0166623
736.499	0.0167271
736.578	0.0167394
736.656	0.0165999
736.734	0.0167542
736.812	0.0166376
736.890	0.0165574
736.968	0.0167229
737.046	0.0166065
737.124	0.0166306
737.203	0.0166598
737.281	0.0165489
737.359	0.0166809
737.437	0.0166402
737.515	0.0166601
737.593	0.0166839
737.671	0.0166225
737.749	0.0166172
737.828	0.0166825
737.906	0.0166167
737.984	0.0167210
738.062	0.0165893
738.140	0.0165954
738.218	0.0166959
738.296	0.0167519
738.374	0.0166649
738.453	0.0166383
738.531	0.0165164
738.609	0.0166122
738.687	0.0165678
738.765	0.0165903
738.843	0.0164738
738.921	0.0166515
738.999	0.0165197
739.078	0.0166305
739.156	0.0166638
739.234	0.0166672
739.312	0.0166978
739.390	0.0166722
739.468	0.0167183
739.546	0.0165746
739.624	0.0165237
739.703	0.0166164
739.781	0.0165975
739.859	0.0166304
739.937	0.0166747
740.015	0.0166682
740.093	0.0167323
740.171	0.0165154
740.249	0.0166907
740.328	0.0165525
740.406	0.0166081
740.484	0.0166987
740.562	0.0166347
740.640	0.0164470
740.718	0.0165771
740.796	0.0165398
740.874	0.0164676
740.953	0.0166468
741.031	0.0166864
741.109	0.0167200
741.187	0.0165879
741.265	0.0166759
741.343	0.0166116
741.421	0.0164216
741.499	0.0165717
741.578	0.0166257
741.656	0.0166208
741.734	0.0166546
741.812	0.0166384
741.890	0.0165477
741.968	0.0166276
742.046	0.0166128
742.124	0.0165429
742.203	0.0165748
742.281	0.0165027
742.359	0.0165633
742.437	0.0165489
742.515	0.0165681
742.593	0.0164776
742.671	0.0167386
742.749	0.0165960
742.828	0.0165276
742.906	0.0165662
742.984	0.0168301
743.062	0.0165582
743.140	0.0166188
743.218	0.0165090
743.296	0.0164447
743.374	0.0164456
743.453	0.0165326
743.531	0.0165019
743.609	0.0166255
743.687	0.0166354
743.765	0.0165470
743.843	0.0167098
743.921	0.0167046
743.999	0.0165766
744.078	0.0166409
744.156	0.0165712
744.234	0.0166208
744.312	0.0166061
744.390	0.0164587
744.468	0.0165688
744.546	0.0166750
744.624	0.0166698
744.703	0.0165739
744.781	0.0166173
744.859	0.0165324
744.937	0.0167297
745.015	0.0165632
745.093	0.0165410
745.171	0.0165624
745.249	0.0166237
745.328	0.0166085
745.406	0.0166004
745.484	0.0165639
745.562	0.0166431
745.640	0.0166287
745.718	0.0165216
745.796	0.0164828
745.874	0.0166118
745.953	0.0164599
746.031	0.0166906
746.109	0.0166383
746.187	0.0167509
746.265	0.0165439
746.343	0.0164703
746.421	0.0166008
746.499	0.0164960
746.578	0.0165856
746.656	0.0166172
746.734	0.0164622
746.812	0.0165652
746.890	0.0165974
746.968	0.0166373
747.046	0.0166139
747.124	0.0166198
747.203	0.0166076
747.281	0.0167486
747.359	0.0166514
747.437	0.0165295
747.515	0.0165556
747.593	0.0166541
747.671	0.0168078
747.749	0.0166713
747.828	0.0166267
747.906	0.0166515
747.984	0.0166875
748.062	0.0166961
748.140	0.0164768
748.218	0.0165338
748.296	0.0165756
748.374	0.0165437
748.453	0.0164146
748.531	0.0165729
748.609	0.0165474
748.687	0.0165704
748.765	0.0164958
748.843	0.0164297
748.921	0.0164679
748.999	0.0164779
749.078	0.0166045
749.156	0.0164993
749.234	0.0165376
749.312	0.0166738
749.390	0.0165826
749.468	0.0163978
749.546	0.0166122
749.624	0.0165987
749.703	0.0164632
749.781	0.0166188
749.859	0.0166418
749.937	0.0166081
750.015	0.0166798
750.093	0.0166235
750.171	0.0164545
750.249	0.0165445
750.328	0.0166741
750.406	0.0165738
750.484	0.0166691
750.562	0.0166801
750.640	0.0165982
750.718	0.0165608
750.796	0.0167110
750.874	0.0165314
750.953	0.0165683
751.031	0.0163914
751.109	0.0164793
751.187	0.0166032
751.265	0.0167068
751.343	0.0166969
751.421	0.0167166
751.499	0.0166162
751.578	0.0166014
751.656	0.0166277
751.734	0.0167072
751.812	0.0165949
751.890	0.0166296
751.968	0.0166859
752.046	0.0166508
752.124	0.0168017
752.203	0.0165377
752.281	0.0166422
752.359	0.0166051
752.437	0.0164471
752.515	0.0165439
752.593	0.0165230
752.671	0.0164983
752.749	0.0164677
752.828	0.0164642
752.906	0.0163300
752.984	0.0167275
753.062	0.0165597
753.140	0.0165072
753.218	0.0164002
753.296	0.0165274
753.374	0.0166017
753.453	0.0166360
753.531	0.0165050
753.609	0.0163155
753.687	0.0164565
753.765	0.0164648
753.843	0.0165003
753.921	0.0165303
753.999	0.0164742
754.078	0.0165899
754.156	0.0164845
754.234	0.0167197
754.312	0.0165744
754.390	0.0166379
754.468	0.0166045
754.546	0.0166291
754.624	0.0165088
754.703	0.0167456
754.781	0.0166624
754.859	0.0166991
754.937	0.0165771
755.015	0.0166672
755.093	0.0166171
755.171	0.0167158
755.249	0.0166176
755.328	0.0166106
755.406	0.0166541
755.484	0.0165675
755.562	0.0165266
755.640	0.0164718
755.718	0.0166418
755.796	0.0165673
755.874	0.0165385
755.953	0.0165389
756.031	0.0165523
756.109	0.0165862
756.187	0.0166634
756.265	0.0167122
756.343	0.0165231
756.421	0.0164718
756.499	0.0167431
756.578	0.0166272
756.656	0.0165390
756.734	0.0166818
756.812	0.0167670
756.890	0.0166304
756.968	0.0166966
757.046	0.0166836
757.124	0.0167046
757.203	0.0167536
757.281	0.0168111
757.359	0.0168573
757.437	0.0166986
757.515	0.0167120
757.593	0.0167401
757.671	0.0167516
757.749	0.0166846
757.828	0.0166036
757.906	0.0165702
757.984	0.0166306
758.062	0.0165162
758.140	0.0166077
758.218	0.0166592
758.296	0.0165842
758.374	0.0164919
758.453	0.0165314
758.531	0.0166656
758.609	0.0165902
758.687	0.0165945
758.765	0.0166290
758.843	0.0166339
758.921	0.0165940
758.999	0.0165264
759.078	0.0165563
759.156	0.0164457
759.234	0.0165833
759.312	0.0166813
759.390	0.0165553
759.468	0.0164600
759.546	0.0165928
759.624	0.0167085
759.703	0.0165911
759.781	0.0167036
759.859	0.0167347
759.937	0.0167457
760.015	0.0166019
760.093	0.0167549
760.171	0.0168665
760.249	0.0167988
760.328	0.0167067
760.406	0.0166379
760.484	0.0167753
760.562	0.0167976
760.640	0.0167951
760.718	0.0168296
760.796	0.0169135
760.874	0.0169760
760.953	0.0169135
761.031	0.0169230
761.109	0.0168328
761.187	0.0167601
761.265	0.0167941
761.343	0.0168639
761.421	0.0168333
761.499	0.0167042
761.578	0.0166623
761.656	0.0166296
761.734	0.0165533
761.812	0.0168843
761.890	0.0167769
761.968	0.0166083
762.046	0.0165943
762.124	0.0167077
762.203	0.0167417
762.281	0.0165995
762.359	0.0165649
762.437	0.0166294
762.515	0.0166422
762.593	0.0165907
762.671	0.0165633
762.749	0.0166782
762.828	0.0165606
762.906	0.0164079
762.984	0.0163828
763.062	0.0165544
763.140	0.0164832
763.218	0.0164271
763.296	0.0164605
763.374	0.0163435
763.453	0.0163130
763.531	0.0163589
763.609	0.0162572
763.687	0.0163501
763.765	0.0161594
763.843	0.0163094
763.921	0.0164764
763.999	0.0164352
764.078	0.0163995
764.156	0.0165275
764.234	0.0165772
764.312	0.0166335
764.390	0.0165260
764.468	0.0166002
764.546	0.0166667
764.624	0.0166392
764.703	0.0167312
764.781	0.0167512
764.859	0.0169071
764.937	0.0168162
765.015	0.0167609
765.093	0.0166949
765.171	0.0168825
765.249	0.0168608
765.328	0.0168918
765.406	0.0167651
765.484	0.0167920
765.562	0.0167811
765.640	0.0169411
765.718	0.0169714
765.796	0.0169329
765.874	0.0168705
765.953	0.0168595
766.031	0.0167522
766.109	0.0166764
766.187	0.0165824
766.265	0.0166405
766.343	0.0166735
766.421	0.0165102
766.499	0.0165945
766.578	0.0166119
766.656	0.0165202
766.734	0.0164232
766.812	0.0164085
766.890	0.0164674
766.968	0.0162515
767.046	0.0161059
767.124	0.0161243
767.203	0.0161866
767.281	0.0162077
767.359	0.0162932
767.437	0.0162846
767.515	0.0162407
767.593	0.0164733
767.671	0.0165551
767.749	0.0166702
767.828	0.0168731
767.906	0.0166725
767.984	0.0169245
768.062	0.0168670
768.140	0.0169001
768.218	0.0169405
768.296	0.0168253
768.374	0.0169526
768.453	0.0168219
768.531	0.0169759
768.609	0.0167802
768.687	0.0169345
768.765	0.0170161
768.843	0.0170104
768.921	0.0169778
768.999	0.0170421
769.078	0.0170696
769.156	0.0169942
769.234	0.0167669
769.312	0.0165825
769.390	0.0167269
769.468	0.0165009
769.546	0.0166312
769.624	0.0164798
769.703	0.0164143
769.781	0.0163731
769.859	0.0163628
769.937	0.0163714
770.015	0.0161786
770.093	0.0162931
770.171	0.0163199
770.249	0.0162756
770.328	0.0161701
770.406	0.0162830
770.484	0.0162331
770.562	0.0162857
770.640	0.0165327
770.718	0.0164271
770.796	0.0164654
770.874	0.0164725
770.953	0.0164905
771.031	0.0165369
771.109	0.0165858
771.187	0.0166346
771.265	0.0168127
771.343	0.0167326
771.421	0.0166299
771.499	0.0167392
771.578	0.0167751
771.656	0.0165675
771.734	0.0166912
771.812	0.0165549
771.890	0.0164451
771.968	0.0165311
772.046	0.0164638
772.124	0.0165247
772.203	0.0164074
772.281	0.0165432
772.359	0.0166177
772.437	0.0166478
772.515	0.0165620
772.593	0.0165828
772.671	0.0166687
772.749	0.0166785
772.828	0.0166848
772.906	0.0168069
772.984	0.0167996
773.062	0.0168158
773.140	0.0169086
773.218	0.0169581
773.296	0.0168629
773.374	0.0170112
773.453	0.0169215
773.531	0.0169665
773.609	0.0170160
773.687	0.0168581
773.765	0.0166116
773.843	0.0166086
773.921	0.0166039
773.999	0.0164602
774.078	0.0163470
774.156	0.0162885
774.234	0.0162006
774.312	0.0160919
774.390	0.0160877
774.468	0.0162018
774.546	0.0161716
774.624	0.0160843
774.703	0.0162904
774.781	0.0161352
774.859	0.0160793
774.937	0.0160432
775.015	0.0160587
775.093	0.0160069
775.171	0.0160881
775.249	0.0161929
775.328	0.0162479
775.406	0.0163863
775.484	0.0162917
775.562	0.0164594
775.640	0.0166032
775.718	0.0166879
775.796	0.0167268
775.874	0.0168503
775.953	0.0167672
776.031	0.0166796
776.109	0.0167889
776.187	0.0169318
776.265	0.0168563
776.343	0.0167276
776.421	0.0166969
776.499	0.0168942
776.578	0.0167776
776.656	0.0167525
776.734	0.0167911
776.812	0.0167501
776.890	0.0166967
776.968	0.0166759
777.046	0.0165114
777.124	0.0166488
777.203	0.0167014
777.281	0.0165104
777.359	0.0165781
777.437	0.0166183
777.515	0.0164613
777.593	0.0165861
777.671	0.0163641
777.749	0.0164813
777.828	0.0164885
777.906	0.0164760
777.984	0.0164662
778.062	0.0165109
778.140	0.0166481
778.218	0.0166330
778.296	0.0166411
778.374	0.0166592
778.453	0.0166536
778.531	0.0167439
778.609	0.0166853
778.687	0.0165319
778.765	0.0165690
778.843	0.0166721
778.921	0.0163961
778.999	0.0165197
779.078	0.0164680
779.156	0.0162115
779.234	0.0161795
779.312	0.0161780
779.390	0.0161243
779.468	0.0162079
779.546	0.0161848
779.624	0.0160017
779.703	0.0160691
779.781	0.0160868
779.859	0.0161480
779.937	0.0162897
780.015	0.0163412
780.093	0.0163526
780.171	0.0165008
780.249	0.0165608
780.328	0.0166357
780.406	0.0166637
780.484	0.0167616
780.562	0.0168326
780.640	0.0167916
780.718	0.0168983
780.796	0.0169630
780.874	0.0169104
780.953	0.0168920
781.031	0.0170710
781.109	0.0170473
781.187	0.0170049
781.265	0.0170074
781.343	0.0170959
781.421	0.0169475
781.499	0.0168873
781.578	0.0166231
781.656	0.0167768
781.734	0.0165949
781.812	0.0163857
781.890	0.0164233
781.968	0.0163158
782.046	0.0161360
782.124	0.0160818
782.203	0.0160649
782.281	0.0158888
782.359	0.0160233
782.437	0.0160506
782.515	0.0161767
782.593	0.0160268
782.671	0.0160166
782.749	0.0163432
782.828	0.0162109
782.906	0.0162767
782.984	0.0163422
783.062	0.0163226
783.140	0.0164981
783.218	0.0164936
783.296	0.0165308
783.374	0.0166867
783.453	0.0166364
783.531	0.0168504
783.609	0.0168733
783.687	0.0168049
783.765	0.0170025
783.843	0.0170817
783.921	0.0171050
783.999	0.0171301
784.078	0.0171486
784.156	0.0171680
784.234	0.0172288
784.312	0.0170317
784.390	0.0169357
784.468	0.0169649
784.546	0.0168457
784.624	0.0168827
784.703	0.0165216
784.781	0.0164952
784.859	0.0165551
784.937	0.0164478
785.015	0.0164706
785.093	0.0163605
785.171	0.0162309
785.249	0.0161544
785.328	0.0162627
785.406	0.0161693
785.484	0.0161028
785.562	0.0162659
785.640	0.0161601
785.718	0.0163058
785.796	0.0161761
785.874	0.0162408
785.953	0.0162764
786.031	0.0161872
786.109	0.0163211
786.187	0.0163775
786.265	0.0163142
786.343	0.0163046
786.421	0.0162003
786.499	0.0162756
786.578	0.0163208
786.656	0.0164201
786.734	0.0162530
786.812	0.0162996
786.890	0.0161852
786.968	0.0163616
787.046	0.0163352
787.124	0.0163861
787.203	0.0165795
787.281	0.0167647
787.359	0.0166734
787.437	0.0165897
787.515	0.0166306
787.593	0.0166557
787.671	0.0168095
787.749	0.0167263
787.828	0.0169268
787.906	0.0168702
787.984	0.0169050
788.062	0.0168941
788.140	0.0168246
788.218	0.0168662
788.296	0.0169904
788.374	0.0169954
788.453	0.0169466
788.531	0.0169579
788.609	0.0167194
788.687	0.0169207
788.765	0.0167000
788.843	0.0168278
788.921	0.0168636
788.999	0.0168051
789.078	0.0168065
789.156	0.0166999
789.234	0.0166080
789.312	0.0166216
789.390	0.0166343
789.468	0.0167048
789.546	0.0166598
789.624	0.0166066
789.703	0.0164171
789.781	0.0165553
789.859	0.0163753
789.937	0.0162944
790.015	0.0161500
790.093	0.0161595
790.171	0.0160255
790.249	0.0159616
790.328	0.0159169
790.406	0.0159452
790.484	0.0157139
790.562	0.0157600
790.640	0.0157977
790.718	0.0157803
790.796	0.0159061
790.874	0.0159558
790.953	0.0161253
791.031	0.0161572
791.109	0.0161969
791.187	0.0165292
791.265	0.0165514
791.343	0.0166163
791.421	0.0167747
791.499	0.0167329
791.578	0.0168288
791.656	0.0169936
791.734	0.0170724
791.812	0.0170123
791.890	0.0170251
791.968	0.0171265
792.046	0.0171892
792.124	0.0171721
792.203	0.0171623
792.281	0.0171885
792.359	0.0170817
792.437	0.0169975
792.515	0.0169241
792.593	0.0168940
792.671	0.0167405
792.749	0.0166795
792.828	0.0165308
792.906	0.0163354
792.984	0.0163622
793.062	0.0161401
793.140	0.0159930
793.218	0.0159875
793.296	0.0159091
793.374	0.0159985
793.453	0.0158745
793.531	0.0158973
793.609	0.0160293
793.687	0.0160180
793.765	0.0160155
793.843	0.0162790
793.921	0.0162283
793.999	0.0162654
794.078	0.0164821
794.156	0.0165810
794.234	0.0166669
794.312	0.0166920
794.390	0.0168868
794.468	0.0167879
794.546	0.0169544
794.624	0.0169108
794.703	0.0170497
794.781	0.0169489
794.859	0.0170647
794.937	0.0171557
795.015	0.0170108
795.093	0.0170687
795.171	0.0171008
795.249	0.0172005
795.328	0.0170900
795.406	0.0171152
795.484	0.0170197
795.562	0.0168344
795.640	0.0168765
795.718	0.0168188
795.796	0.0166711
795.874	0.0165450
795.953	0.0166787
796.031	0.0164294
796.109	0.0163699
796.187	0.0162368
796.265	0.0161973
796.343	0.0162955
796.421	0.0161972
796.499	0.0161611
796.578	0.0160431
796.656	0.0160033
796.734	0.0159727
796.812	0.0160155
796.890	0.0159857
796.968	0.0159021
797.046	0.0160469
797.124	0.0159393
797.203	0.0159993
797.281	0.0160229
797.359	0.0159993
797.437	0.0160519
797.515	0.0162025
797.593	0.0162592
797.671	0.0162302
797.749	0.0164323
797.828	0.0164175
797.906	0.0166051
797.984	0.0166463
798.062	0.0167397
798.140	0.0166910
798.218	0.0167203
798.296	0.0168372
798.374	0.0169683
798.453	0.0168501
798.531	0.0168595
798.609	0.0169543
798.687	0.0168986
798.765	0.0168209
798.843	0.0167589
798.921	0.0168221
798.999	0.0168359
799.078	0.0169081
799.156	0.0169217
799.234	0.0170322
799.312	0.0168966
799.390	0.0169539
799.468	0.0168994
799.546	0.0170542
799.624	0.0170724
799.703	0.0170300
799.781	0.0168928
799.859	0.0169151
799.937	0.0168381
800.015	0.0166243
800.093	0.0165282
800.171	0.0165614
800.249	0.0166157
800.328	0.0165214
800.406	0.0162986
800.484	0.0162095
800.562	0.0163463
800.640	0.0162893
800.718	0.0161562
800.796	0.0162518
800.874	0.0160820
800.953	0.0161608
801.031	0.0161443
801.109	0.0159186
801.187	0.0158968
801.265	0.0159680
801.343	0.0159499
801.421	0.0160072
801.499	0.0159184
801.578	0.0160891
801.656	0.0159737
801.734	0.0159753
801.812	0.0159837
801.890	0.0159007
801.968	0.0162498
802.046	0.0163143
802.124	0.0163670
802.203	0.0164294
802.281	0.0163844
802.359	0.0165043
802.437	0.0167385
802.515	0.0166656
802.593	0.0167739
802.671	0.0168845
802.749	0.0168350
802.828	0.0166473
802.906	0.0169286
802.984	0.0169792
803.062	0.0169093
803.140	0.0168771
803.218	0.0168322
803.296	0.0167031
803.374	0.0168007
803.453	0.0166933
803.531	0.0166496
803.609	0.0164323
803.687	0.0164164
803.765	0.0164072
803.843	0.0163664
803.921	0.0165049
803.999	0.0164538
804.078	0.0163406
804.156	0.0163345
804.234	0.0164725
804.312	0.0164262
804.390	0.0164401
804.468	0.0163911
804.546	0.0163776
804.624	0.0163642
804.703	0.0163956
804.781	0.0164091
804.859	0.0163602
804.937	0.0165430
805.015	0.0165278
805.093	0.0164949
805.171	0.0165568
805.249	0.0167884
805.328	0.0168903
805.406	0.0166972
805.484	0.0165933
805.562	0.0169436
805.640	0.0169161
805.718	0.0166325
805.796	0.0167024
805.874	0.0166153
805.953	0.0166863
806.031	0.0167362
806.109	0.0166946
806.187	0.0167228
806.265	0.0166407
806.343	0.0165812
806.421	0.0165701
806.499	0.0165602
806.578	0.0164727
806.656	0.0163627
806.734	0.0162349
806.812	0.0161783
806.890	0.0161200
806.968	0.0161880
807.046	0.0159787
807.124	0.0158393
807.203	0.0160012
807.281	0.0157932
807.359	0.0157008
807.437	0.0157342
807.515	0.0158722
807.593	0.0160661
807.671	0.0160233
807.749	0.0161134
807.828	0.0161538
807.906	0.0161872
807.984	0.0163853
808.062	0.0165076
808.140	0.0166061
808.218	0.0167819
808.296	0.0166866
808.374	0.0168725
808.453	0.0168632
808.531	0.0168464
808.609	0.0167549
808.687	0.0167709
808.765	0.0169595
808.843	0.0167380
808.921	0.0170003
808.999	0.0168288
809.078	0.0167776
809.156	0.0167315
809.234	0.0167495
809.312	0.0167173
809.390	0.0167181
809.468	0.0168064
809.546	0.0165951
809.624	0.0167110
809.703	0.0168256
809.781	0.0169083
809.859	0.0167740
809.937	0.0167739
810.015	0.0167439
810.093	0.0167934
810.171	0.0168649
810.249	0.0167247
810.328	0.0167419
810.406	0.0166936
810.484	0.0166818
810.562	0.0166069
810.640	0.0166940
810.718	0.0166061
810.796	0.0165396
810.874	0.0165948
810.953	0.0165788
811.031	0.0165575
811.109	0.0166276
811.187	0.0165077
811.265	0.0164408
811.343	0.0165408
811.421	0.0163322
811.499	0.0164844
811.578	0.0164095
811.656	0.0162793
811.734	0.0162902
811.812	0.0162813
811.890	0.0161860
811.968	0.0161790
812.046	0.0161140
812.124	0.0160872
812.203	0.0162546
812.281	0.0162287
812.359	0.0162294
812.437	0.0164207
812.515	0.0164292
812.593	0.0162906
812.671	0.0163341
812.749	0.0163184
812.828	0.0164257
812.906	0.0164734
812.984	0.0163645
813.062	0.0165714
813.140	0.0165965
813.218	0.0166436
813.296	0.0165488
813.374	0.0165895
813.453	0.0166930
813.531	0.0165829
813.609	0.0167516
813.687	0.0167691
813.765	0.0168968
813.843	0.0169854
813.921	0.0169810
813.999	0.0168454
814.078	0.0169469
814.156	0.0170695
814.234	0.0169855
814.312	0.0170470
814.390	0.0171973
814.468	0.0171276
814.546	0.0172099
814.624	0.0172329
814.703	0.0171248
814.781	0.0169675
814.859	0.0169963
814.937	0.0169691
815.015	0.0168696
815.093	0.0168986
815.171	0.0167856
815.249	0.0168813
815.328	0.0166142
815.406	0.0164887
815.484	0.0164017
815.562	0.0164010
815.640	0.0164135
815.718	0.0164211
815.796	0.0164116
815.874	0.0162665
815.953	0.0162685
816.031	0.0163899
816.109	0.0163861
816.187	0.0164392
816.265	0.0164658
816.343	0.0164956
816.421	0.0164493
816.499	0.0165585
816.578	0.0164893
816.656	0.0164902
816.734	0.0165888
816.812	0.0165067
816.890	0.0164653
816.968	0.0163386
817.046	0.0163343
817.124	0.0163400
817.203	0.0163165
817.281	0.0161572
817.359	0.0162016
817.437	0.0163068
817.515	0.0163023
817.593	0.0164103
817.671	0.0164584
817.749	0.0164729
817.828	0.0165769
817.906	0.0165828
817.984	0.0165949
818.062	0.0167459
818.140	0.0166842
818.218	0.0166959
818.296	0.0166852
818.374	0.0166996
818.453	0.0168431
818.531	0.0168457
818.609	0.0169040
818.687	0.0169164
818.765	0.0168700
818.843	0.0169005
818.921	0.0169575
818.999	0.0169224
819.078	0.0169241
819.156	0.0171812
819.234	0.0170156
819.312	0.0170302
819.390	0.0170098
819.468	0.0170292
819.546	0.0168201
819.624	0.0170496
819.703	0.0170860
819.781	0.0170612
819.859	0.0170132
819.937	0.0170097
820.015	0.0168430
820.093	0.0169474
820.171	0.0169212
820.249	0.0167834
820.328	0.0165907
820.406	0.0165257
820.484	0.0165558
820.562	0.0163988
820.640	0.0163676
820.718	0.0162418
820.796	0.0162536
820.874	0.0162975
820.953	0.0161719
821.031	0.0160455
821.109	0.0162926
821.187	0.0161498
821.265	0.0162596
821.343	0.0163158
821.421	0.0162296
821.499	0.0163570
821.578	0.0163768
821.656	0.0162716
821.734	0.0165524
821.812	0.0164939
821.890	0.0164561
821.968	0.0164957
822.046	0.0165519
822.124	0.0164809
822.203	0.0164601
822.281	0.0165865
822.359	0.0165340
822.437	0.0165139
822.515	0.0167168
822.593	0.0167293
822.671	0.0166570
822.749	0.0166853
822.828	0.0168550
822.906	0.0168539
822.984	0.0166642
823.062	0.0167152
823.140	0.0168436
823.218	0.0168972
823.296	0.0170564
823.374	0.0170469
823.453	0.0170449
823.531	0.0169312
823.609	0.0170028
823.687	0.0170725
823.765	0.0170052
823.843	0.0168947
823.921	0.0168841
823.999	0.0168735
824.078	0.0167802
824.156	0.0167709
824.234	0.0167680
824.312	0.0166041
824.390	0.0166916
824.468	0.0166915
824.546	0.0165708
824.624	0.0165243
824.703	0.0165530
824.781	0.0163854
824.859	0.0161759
824.937	0.0162559
825.015	0.0162988
825.093	0.0163400
825.171	0.0161095
825.249	0.0161085
825.328	0.0161076
825.406	0.0161159
825.484	0.0161910
825.562	0.0162055
825.640	0.0161738
825.718	0.0163197
825.796	0.0164207
825.874	0.0165929
825.953	0.0166660
826.031	0.0167455
826.109	0.0167497
826.187	0.0168084
826.265	0.0170233
826.343	0.0170898
826.421	0.0171710
826.499	0.0172910
826.578	0.0173205
826.656	0.0174974
826.734	0.0173642
826.812	0.0173763
826.890	0.0171639
826.968	0.0171004
827.046	0.0171412
827.124	0.0171205
827.203	0.0169856
827.281	0.0167342
827.359	0.0166110
827.437	0.0164548
827.515	0.0162458
827.593	0.0161427
827.671	0.0159364
827.749	0.0158693
827.828	0.0156964
827.906	0.0156593
827.984	0.0155864
828.062	0.0156014
828.140	0.0155862
828.218	0.0155410
828.296	0.0156441
828.374	0.0157004
828.453	0.0157647
828.531	0.0158129
828.609	0.0159208
828.687	0.0158727
828.765	0.0159526
828.843	0.0161713
828.921	0.0162782
828.999	0.0164229
829.078	0.0165192
829.156	0.0165260
829.234	0.0167210
829.312	0.0168241
829.390	0.0169790
829.468	0.0169047
829.546	0.0170106
829.624	0.0172087
829.703	0.0173466
829.781	0.0174619
829.859	0.0174754
829.937	0.0173593
830.015	0.0174472
830.093	0.0174792
830.171	0.0173202
830.249	0.0173229
830.328	0.0171920
830.406	0.0172401
830.484	0.0170696
830.562	0.0169227
830.640	0.0168661
830.718	0.0167219
830.796	0.0167168
830.874	0.0166927
830.953	0.0164476
831.031	0.0163901
831.109	0.0162786
831.187	0.0162153
831.265	0.0161666
831.343	0.0162073
831.421	0.0160920
831.499	0.0160769
831.578	0.0161055
831.656	0.0160175
831.734	0.0159686
831.812	0.0160132
831.890	0.0161964
831.968	0.0163250
832.046	0.0161788
832.124	0.0162816
832.203	0.0164309
832.281	0.0162694
832.359	0.0163881
832.437	0.0165121
832.515	0.0164471
832.593	0.0165741
832.671	0.0165612
832.749	0.0166195
832.828	0.0164225
832.906	0.0164127
832.984	0.0165054
833.062	0.0165972
833.140	0.0164668
833.218	0.0163313
833.296	0.0163796
833.374	0.0164249
833.453	0.0165306
833.531	0.0164832
833.609	0.0165267
833.687	0.0165753
833.765	0.0165967
833.843	0.0165910
833.921	0.0167057
833.999	0.0167558
834.078	0.0168523
834.156	0.0168111
834.234	0.0168456
834.312	0.0170481
834.390	0.0170711
834.468	0.0170844
834.546	0.0171366
834.624	0.0172116
834.703	0.0171142
834.781	0.0171553
834.859	0.0171350
834.937	0.0171995
835.015	0.0171249
835.093	0.0171603
835.171	0.0169219
835.249	0.0169311
835.328	0.0168888
835.406	0.0168592
835.484	0.0168150
835.562	0.0167310
835.640	0.0166096
835.718	0.0165805
835.796	0.0164795
835.874	0.0164888
835.953	0.0162962
836.031	0.0163049
836.109	0.0163510
836.187	0.0162892
836.265	0.0161124
836.343	0.0161172
836.421	0.0159898
836.499	0.0160609
836.578	0.0159806
836.656	0.0161138
836.734	0.0160065
836.812	0.0161764
836.890	0.0161099
836.968	0.0161311
837.046	0.0161764
837.124	0.0162862
837.203	0.0163387
837.281	0.0165585
837.359	0.0165636
837.437	0.0167018
837.515	0.0167794
837.593	0.0169891
837.671	0.0170239
837.749	0.0170609
837.828	0.0170827
837.906	0.0171248
837.984	0.0173767
838.062	0.0173884
838.140	0.0173398
838.218	0.0172779
838.296	0.0174008
838.374	0.0173119
838.453	0.0172230
838.531	0.0172368
838.609	0.0171727
838.687	0.0169009
838.765	0.0169099
838.843	0.0167163
838.921	0.0165793
838.999	0.0164909
839.078	0.0162402
839.156	0.0163654
839.234	0.0161407
839.312	0.0161729
839.390	0.0159349
839.468	0.0160111
839.546	0.0160851
839.624	0.0159717
839.703	0.0158834
839.781	0.0160590
839.859	0.0160258
839.937	0.0160178
840.015	0.0162957
840.093	0.0161662
840.171	0.0163413
840.249	0.0164835
840.328	0.0164715
840.406	0.0166413
840.484	0.0167770
840.562	0.0168343
840.640	0.0167245
840.718	0.0168428
840.796	0.0169327
840.874	0.0170000
840.953	0.0169817
841.031	0.0170679
841.109	0.0170859
841.187	0.0170515
841.265	0.0169724
841.343	0.0171694
841.421	0.0170276
841.499	0.0169350
841.578	0.0171018
841.656	0.0171014
841.734	0.0168488
841.812	0.0168575
841.890	0.0169229
841.968	0.0167382
842.046	0.0167176
842.124	0.0166520
842.203	0.0166092
842.281	0.0166196
842.359	0.0164402
842.437	0.0163775
842.515	0.0164687
842.593	0.0164240
842.671	0.0161958
842.749	0.0162538
842.828	0.0161383
842.906	0.0161227
842.984	0.0162885
843.062	0.0161623
843.140	0.0161984
843.218	0.0164391
843.296	0.0163905
843.374	0.0163856
843.453	0.0164667
843.531	0.0164782
843.609	0.0165475
843.687	0.0166186
843.765	0.0167538
843.843	0.0167262
843.921	0.0165939
843.999	0.0169392
844.078	0.0168376
844.156	0.0167460
844.234	0.0169176
844.312	0.0167934
844.390	0.0168957
844.468	0.0169867
844.546	0.0169628
844.624	0.0168384
844.703	0.0169301
844.781	0.0168983
844.859	0.0169337
844.937	0.0169577
845.015	0.0169324
845.093	0.0169415
845.171	0.0169114
845.249	0.0170441
845.328	0.0168910
845.406	0.0169231
845.484	0.0170631
845.562	0.0169974
845.640	0.0168815
845.718	0.0170737
845.796	0.0169743
845.874	0.0169159
845.953	0.0169289
846.031	0.0168426
846.109	0.0167955
846.187	0.0169113
846.265	0.0168107
846.343	0.0166940
846.421	0.0167241
846.499	0.0166940
846.578	0.0165279
846.656	0.0166697
846.734	0.0166484
846.812	0.0163618
846.890	0.0166795
846.968	0.0165082
847.046	0.0166248
847.124	0.0167523
847.203	0.0165774
847.281	0.0165186
847.359	0.0165340
847.437	0.0166940
847.515	0.0166638
847.593	0.0166602
847.671	0.0166461
847.749	0.0167375
847.828	0.0166846
847.906	0.0166259
847.984	0.0165978
848.062	0.0166259
848.140	0.0167504
848.218	0.0167162
848.296	0.0167829
848.374	0.0167249
848.453	0.0166166
848.531	0.0166516
848.609	0.0166103
848.687	0.0166058
848.765	0.0165781
848.843	0.0167532
848.921	0.0168345
848.999	0.0166069
849.078	0.0166831
849.156	0.0165892
849.234	0.0166098
849.312	0.0166266
849.390	0.0166816
849.468	0.0165984
849.546	0.0164735
849.624	0.0164185
849.703	0.0164168
849.781	0.0165439
849.859	0.0164545
849.937	0.0164639
850.015	0.0163882
850.093	0.0165001
850.171	0.0163684
850.249	0.0163976
850.328	0.0163786
850.406	0.0163492
850.484	0.0165292
850.562	0.0164557
850.640	0.0164174
850.718	0.0164065
850.796	0.0165607
850.874	0.0166302
850.953	0.0166515
851.031	0.0165186
851.109	0.0166149
851.187	0.0166727
851.265	0.0166164
851.343	0.0166090
851.421	0.0167028
851.499	0.0165431
851.578	0.0165939
851.656	0.0166073
851.734	0.0166378
851.812	0.0167326
851.890	0.0166679
851.968	0.0167027
852.046	0.0165942
852.124	0.0164713
852.203	0.0164919
852.281	0.0164867
852.359	0.0166203
852.437	0.0165389
852.515	0.0164088
852.593	0.0163067
852.671	0.0164854
852.749	0.0164970
852.828	0.0163924
852.906	0.0164594
852.984	0.0164799
853.062	0.0164999
853.140	0.0166493
853.218	0.0164373
853.296	0.0165298
853.374	0.0166167
853.453	0.0168173
853.531	0.0166507
853.609	0.0166366
853.687	0.0167068
853.765	0.0165617
853.843	0.0167655
853.921	0.0167801
853.999	0.0166653
854.078	0.0166777
854.156	0.0168277
854.234	0.0166089
854.312	0.0167326
854.390	0.0167837
854.468	0.0165232
854.546	0.0165731
854.624	0.0165871
854.703	0.0166222
854.781	0.0164935
854.859	0.0165511
854.937	0.0165480
855.015	0.0163976
855.093	0.0164220
855.171	0.0163494
855.249	0.0164140
855.328	0.0164085
855.406	0.0163496
855.484	0.0163555
855.562	0.0163625
855.640	0.0163425
855.718	0.0164490
855.796	0.0164547
855.874	0.0164202
855.953	0.0164104
856.031	0.0165067
856.109	0.0165659
856.187	0.0165701
856.265	0.0164477
856.343	0.0164976
856.421	0.0165121
856.499	0.0165720
856.578	0.0165919
856.656	0.0165954
856.734	0.0165980
856.812	0.0166170
856.890	0.0166135
856.968	0.0166375
857.046	0.0167361
857.124	0.0165217
857.203	0.0165240
857.281	0.0165105
857.359	0.0165956
857.437	0.0166360
857.515	0.0166022
857.593	0.0165607
857.671	0.0165625
857.749	0.0165527
857.828	0.0164742
857.906	0.0166086
857.984	0.0165224
858.062	0.0165456
858.140	0.0165312
858.218	0.0165176
858.296	0.0164662
858.374	0.0165325
858.453	0.0165952
858.531	0.0164780
858.609	0.0164455
858.687	0.0165207
858.765	0.0163321
858.843	0.0164278
858.921	0.0164610
858.999	0.0164502
859.078	0.0164951
859.156	0.0165097
859.234	0.0166103
859.312	0.0165770
859.390	0.0165335
859.468	0.0164842
859.546	0.0166098
859.624	0.0165691
859.703	0.0166286
859.781	0.0166242
859.859	0.0165533
859.937	0.0166267
860.015	0.0166542
860.093	0.0166450
860.171	0.0165518
860.249	0.0165364
860.328	0.0166471
860.406	0.0166666
860.484	0.0166879
860.562	0.0166370
860.640	0.0165219
860.718	0.0165809
860.796	0.0164581
860.874	0.0164352
860.953	0.0163660
861.031	0.0163753
861.109	0.0163676
861.187	0.0162819
861.265	0.0164377
861.343	0.0164259
861.421	0.0162931
861.499	0.0162469
861.578	0.0162950
861.656	0.0164334
861.734	0.0164253
861.812	0.0163052
861.890	0.0164157
861.968	0.0163984
862.046	0.0164380
862.124	0.0164747
862.203	0.0164816
862.281	0.0165281
862.359	0.0167053
862.437	0.0165833
862.515	0.0166697
862.593	0.0166787
862.671	0.0167543
862.749	0.0166843
862.828	0.0167251
862.906	0.0167008
862.984	0.0166872
863.062	0.0167745
863.140	0.0166296
863.218	0.0167439
863.296	0.0166328
863.374	0.0166911
863.453	0.0166609
863.531	0.0166476
863.609	0.0166876
863.687	0.0166245
863.765	0.0165868
863.843	0.0166933
863.921	0.0167431
863.999	0.0166512
864.078	0.0166911
864.156	0.0165995
864.234	0.0166333
864.312	0.0166659
864.390	0.0165696
864.468	0.0166956
864.546	0.0166033
864.624	0.0167728
864.703	0.0167264
864.781	0.0167599
864.859	0.0167654
864.937	0.0166730
865.015	0.0167549
865.093	0.0168306
865.171	0.0167199
865.249	0.0168235
865.328	0.0166321
865.406	0.0167171
865.484	0.0166788
865.562	0.0167472
865.640	0.0167254
865.718	0.0165691
865.796	0.0167268
865.874	0.0165933
865.953	0.0167165
866.031	0.0168237
866.109	0.0165858
866.187	0.0164644
866.265	0.0165901
866.343	0.0165041
866.421	0.0166239
866.499	0.0165639
866.578	0.0163815
866.656	0.0165481
866.734	0.0164535
866.812	0.0162908
866.890	0.0165319
866.968	0.0163446
867.046	0.0165163
867.124	0.0164429
867.203	0.0164552
867.281	0.0165318
867.359	0.0163300
867.437	0.0164302
867.515	0.0164614
867.593	0.0163808
867.671	0.0163190
867.749	0.0164842
867.828	0.0164752
867.906	0.0165592
867.984	0.0165213
868.062	0.0166283
868.140	0.0166107
868.218	0.0165044
868.296	0.0164684
868.374	0.0166725
868.453	0.0166821
868.531	0.0165506
868.609	0.0166379
868.687	0.0167934
868.765	0.0165967
868.843	0.0167461
868.921	0.0167896
868.999	0.0166990
869.078	0.0168351
869.156	0.0166468
869.234	0.0166216
869.312	0.0168738
869.390	0.0167288
869.468	0.0167695
869.546	0.0167223
869.624	0.0166579
869.703	0.0166685
869.781	0.0167178
869.859	0.0166494
869.937	0.0165791
870.015	0.0165604
870.093	0.0165636
870.171	0.0164436
870.249	0.0165451
870.328	0.0164553
870.406	0.0164341
870.484	0.0164076
870.562	0.0163508
870.640	0.0163354
870.718	0.0164678
870.796	0.0162803
870.874	0.0162948
870.953	0.0164516
871.031	0.0163720
871.109	0.0163318
871.187	0.0162846
871.265	0.0163805
871.343	0.0164063
871.421	0.0165334
871.499	0.0166216
871.578	0.0164373
871.656	0.0164693
871.734	0.0164153
871.812	0.0164797
871.890	0.0165038
871.968	0.0166122
872.046	0.0165494
872.124	0.0165123
872.203	0.0165572
872.281	0.0165842
872.359	0.0165750
872.437	0.0164571
872.515	0.0166295
872.593	0.0167350
872.671	0.0167429
872.749	0.0165083
872.828	0.0164780
872.906	0.0166317
872.984	0.0166051
873.062	0.0166563
873.140	0.0164834
873.218	0.0166073
873.296	0.0164060
873.374	0.0164263
873.453	0.0163977
873.531	0.0163029
873.609	0.0162006
873.687	0.0163319
873.765	0.0163388
873.843	0.0164183
873.921	0.0162743
873.999	0.0163739
874.078	0.0163729
874.156	0.0163348
874.234	0.0164339
874.312	0.0163662
874.390	0.0165292
874.468	0.0165540
874.546	0.0164642
874.624	0.0165726
874.703	0.0166873
874.781	0.0167162
874.859	0.0167860
874.937	0.0167373
875.015	0.0166370
875.093	0.0167046
875.171	0.0166946
875.249	0.0165837
875.328	0.0166045
875.406	0.0165830
875.484	0.0166527
875.562	0.0164396
875.640	0.0165385
875.718	0.0166125
875.796	0.0164234
875.874	0.0164223
875.953	0.0164346
876.031	0.0164507
876.109	0.0163528
876.187	0.0163419
876.265	0.0163638
876.343	0.0163956
876.421	0.0162769
876.499	0.0162110
876.578	0.0164458
876.656	0.0162701
876.734	0.0161446
876.812	0.0162597
876.890	0.0162925
876.968	0.0161837
877.046	0.0163530
877.124	0.0162809
877.203	0.0163353
877.281	0.0163446
877.359	0.0164729
877.437	0.0163762
877.515	0.0165481
877.593	0.0165904
877.671	0.0165372
877.749	0.0166892
877.828	0.0166780
877.906	0.0166103
877.984	0.0165768
878.062	0.0167096
878.140	0.0165591
878.218	0.0167599
878.296	0.0166740
878.374	0.0165675
878.453	0.0166747
878.531	0.0165365
878.609	0.0164754
878.687	0.0165494
878.765	0.0164714
878.843	0.0164737
878.921	0.0164503
878.999	0.0164928
879.078	0.0164722
879.156	0.0164111
879.234	0.0166434
879.312	0.0164802
879.390	0.0164114
879.468	0.0164361
879.546	0.0164031
879.624	0.0164587
879.703	0.0164558
879.781	0.0166039
879.859	0.0164471
879.937	0.0165154
880.015	0.0166996
880.093	0.0165120
880.171	0.0165589
880.249	0.0166446
880.328	0.0165349
880.406	0.0165535
880.484	0.0164741
880.562	0.0165646
880.640	0.0164434
880.718	0.0165816
880.796	0.0165102
880.874	0.0164759
880.953	0.0164391
881.031	0.0165650
881.109	0.0165578
881.187	0.0165277
881.265	0.0165916
881.343	0.0165545
881.421	0.0165649
881.499	0.0165590
881.578	0.0165769
881.656	0.0163634
881.734	0.0164944
881.812	0.0165134
881.890	0.0164480
881.968	0.0164381
882.046	0.0165479
882.124	0.0165813
882.203	0.0164320
882.281	0.0165872
882.359	0.0163657
882.437	0.0164208
882.515	0.0165099
882.593	0.0165829
882.671	0.0165458
882.749	0.0165332
882.828	0.0164870
882.906	0.0166619
882.984	0.0166513
883.062	0.0165234
883.140	0.0164155
883.218	0.0164991
883.296	0.0165541
883.374	0.0165437
883.453	0.0167428
883.531	0.0166583
883.609	0.0164783
883.687	0.0165131
883.765	0.0167387
883.843	0.0165126
883.921	0.0165129
883.999	0.0166388
884.078	0.0165802
884.156	0.0163880
884.234	0.0165168
884.312	0.0166588
884.390	0.0165728
884.468	0.0163553
884.546	0.0163963
884.624	0.0165295
884.703	0.0164224
884.781	0.0164820
884.859	0.0165150
884.937	0.0164640
885.015	0.0164386
885.093	0.0164931
885.171	0.0164707
885.249	0.0164902
885.328	0.0163793
885.406	0.0165202
885.484	0.0165462
885.562	0.0164909
885.640	0.0164553
885.718	0.0166438
885.796	0.0166217
885.874	0.0165549
885.953	0.0165384
886.031	0.0165291
886.109	0.0165301
886.187	0.0165904
886.265	0.0164921
886.343	0.0166752
886.421	0.0164173
886.499	0.0164931
886.578	0.0165231
886.656	0.0165139
886.734	0.0166497
886.812	0.0165244
886.890	0.0164452
886.968	0.0164729
887.046	0.0166479
887.124	0.0165764
887.203	0.0164796
887.281	0.0164474
887.359	0.0164420
887.437	0.0165230
887.515	0.0166490
887.593	0.0165054
887.671	0.0165854
887.749	0.0164202
887.828	0.0166618
887.906	0.0164481
887.984	0.0164986
888.062	0.0164709
888.140	0.0166046
888.218	0.0165350
888.296	0.0164319
888.374	0.0164973
888.453	0.0166235
888.531	0.0165768
888.609	0.0165246
888.687	0.0166320
888.765	0.0167155
888.843	0.0166331
888.921	0.0167371
888.999	0.0167738
889.078	0.0167262
889.156	0.0166115
889.234	0.0166494
889.312	0.0166639
889.390	0.0167329
889.468	0.0166505
889.546	0.0166409
889.624	0.0166554
889.703	0.0165689
889.781	0.0167517
889.859	0.0167982
889.937	0.0166283
890.015	0.0165231
890.093	0.0166933
890.171	0.0165276
890.249	0.0166357
890.328	0.0166231
890.406	0.0164058
890.484	0.0165771
890.562	0.0165430
890.640	0.0164964
890.718	0.0164873
890.796	0.0164459
890.874	0.0165105
890.953	0.0163699
891.031	0.0164004
891.109	0.0164228
891.187	0.0164677
891.265	0.0163742
891.343	0.0164915
891.421	0.0164400
891.499	0.0163994
891.578	0.0163888
891.656	0.0164980
891.734	0.0165257
891.812	0.0164234
891.890	0.0166534
891.968	0.0163942
892.046	0.0164616
892.124	0.0166435
892.203	0.0166001
892.281	0.0164554
892.359	0.0165298
892.437	0.0165857
892.515	0.0165788
892.593	0.0165816
892.671	0.0165154
892.749	0.0165816
892.828	0.0165662
892.906	0.0164574
892.984	0.0164685
893.062	0.0165308
893.140	0.0164839
893.218	0.0164792
893.296	0.0165102
893.374	0.0165000
893.453	0.0164925
893.531	0.0164352
893.609	0.0163940
893.687	0.0164568
893.765	0.0164349
893.843	0.0163685
893.921	0.0163681
893.999	0.0165136
894.078	0.0164462
894.156	0.0165535
894.234	0.0164262
894.312	0.0165025
894.390	0.0164388
894.468	0.0164352
894.546	0.0165481
894.624	0.0164338
894.703	0.0165860
894.781	0.0164080
894.859	0.0165245
894.937	0.0164966
895.015	0.0165653
895.093	0.0165379
895.171	0.0165691
895.249	0.0165485
895.328	0.0164921
895.406	0.0165305
895.484	0.0165916
895.562	0.0165195
895.640	0.0164655
895.718	0.0165514
895.796	0.0165852
895.874	0.0165706
895.953	0.0164120
896.031	0.0164682
896.109	0.0165413
896.187	0.0164731
896.265	0.0164945
896.343	0.0165367
896.421	0.0164905
896.499	0.0165418
896.578	0.0164207
896.656	0.0163988
896.734	0.0163355
896.812	0.0164655
896.890	0.0163717
896.968	0.0164242
897.046	0.0164953
897.124	0.0163487
897.203	0.0164984
897.281	0.0164323
897.359	0.0163621
897.437	0.0163642
897.515	0.0163473
897.593	0.0163969
897.671	0.0164473
897.749	0.0163454
897.828	0.0165077
897.906	0.0165708
897.984	0.0166023
898.062	0.0164700
898.140	0.0163884
898.218	0.0164556
898.296	0.0164475
898.374	0.0164250
898.453	0.0164672
898.531	0.0164622
898.609	0.0166737
898.687	0.0165141
898.765	0.0165631
898.843	0.0166043
898.921	0.0165417
898.999	0.0164561
899.078	0.0166407
899.156	0.0167805
899.234	0.0165703
899.312	0.0166307
899.390	0.0165971
899.468	0.0164664
899.546	0.0166181
899.624	0.0165949
899.703	0.0165385
899.781	0.0165971
899.859	0.0165628
899.937	0.0165833
900.015	0.0165569
900.093	0.0165395
900.171	0.0164902
900.249	0.0165833
900.328	0.0163663
900.406	0.0165720
900.484	0.0165747
900.562	0.0165264
900.640	0.0165564
900.718	0.0166176
900.796	0.0165309
900.874	0.0164376
900.953	0.0165900
901.031	0.0165728
901.109	0.0164642
901.187	0.0165345
901.265	0.0165350
901.343	0.0165319
901.421	0.0165441
901.499	0.0166283
901.578	0.0166418
901.656	0.0166525
901.734	0.0165791
901.812	0.0165787
901.890	0.0166122
901.968	0.0166150
902.046	0.0165871
902.124	0.0165443
902.203	0.0166589
902.281	0.0165926
902.359	0.0166202
902.437	0.0166753
902.515	0.0166125
902.593	0.0166797
902.671	0.0164954
902.749	0.0167333
902.828	0.0167128
902.906	0.0166503
902.984	0.0165999
903.062	0.0165532
903.140	0.0166523
903.218	0.0164455
903.296	0.0166621
903.374	0.0167019
903.453	0.0164921
903.531	0.0166346
903.609	0.0165626
903.687	0.0166955
903.765	0.0166592
903.843	0.0165367
903.921	0.0166983
903.999	0.0166113
904.078	0.0165287
904.156	0.0166737
904.234	0.0165675
904.312	0.0166756
904.390	0.0167368
904.468	0.0165092
904.546	0.0165093
904.624	0.0164931
904.703	0.0165697
904.781	0.0165213
904.859	0.0165189
904.937	0.0164346
905.015	0.0165066
905.093	0.0165362
905.171	0.0166168
905.249	0.0166051
905.328	0.0165679
905.406	0.0164910
905.484	0.0165817
905.562	0.0166097
905.640	0.0165976
905.718	0.0165039
905.796	0.0164532
905.874	0.0165010
905.953	0.0165869
906.031	0.0165543
906.109	0.0166387
906.187	0.0165899
906.265	0.0166583
906.343	0.0165079
906.421	0.0165988
906.499	0.0166389
906.578	0.0166996
906.656	0.0165868
906.734	0.0165706
906.812	0.0166123
906.890	0.0166400
906.968	0.0166855
907.046	0.0166007
907.124	0.0165735
907.203	0.0165562
907.281	0.0164765
907.359	0.0166471
907.437	0.0166793
907.515	0.0165894
907.593	0.0165699
907.671	0.0166266
907.749	0.0165427
907.828	0.0164256
907.906	0.0165287
907.984	0.0166248
908.062	0.0165125
908.140	0.0165485
908.218	0.0164280
908.296	0.0166605
908.374	0.0165144
908.453	0.0165146
908.531	0.0166028
908.609	0.0164995
908.687	0.0164159
908.765	0.0164071
908.843	0.0167127
908.921	0.0164259
908.999	0.0166478
909.078	0.0165144
909.156	0.0165955
909.234	0.0165998
909.312	0.0165766
909.390	0.0165596
909.468	0.0165405
909.546	0.0166496
909.624	0.0165712
909.703	0.0165106
909.781	0.0165154
909.859	0.0165686
909.937	0.0165089
910.015	0.0166193
910.093	0.0165866
910.171	0.0164451
910.249	0.0164284
910.328	0.0163974
910.406	0.0164571
910.484	0.0164857
910.562	0.0164481
910.640	0.0164915
910.718	0.0164992
910.796	0.0165050
910.874	0.0164599
910.953	0.0164445
911.031	0.0163522
911.109	0.0165160
911.187	0.0165338
911.265	0.0164772
911.343	0.0165207
911.421	0.0165701
911.499	0.0164175
911.578	0.0165131
911.656	0.0165247
911.734	0.0166463
911.812	0.0166254
911.890	0.0163913
911.968	0.0165419
912.046	0.0165261
912.124	0.0167262
912.203	0.0165180
912.281	0.0165056
912.359	0.0165180
912.437	0.0165936
912.515	0.0165413
912.593	0.0166608
912.671	0.0165573
912.749	0.0165888
912.828	0.0166148
912.906	0.0167322
912.984	0.0165995
913.062	0.0165292
913.140	0.0164942
913.218	0.0165966
913.296	0.0167319
913.374	0.0166351
913.453	0.0166625
913.531	0.0167460
913.609	0.0166087
913.687	0.0165680
913.765	0.0166972
913.843	0.0164795
913.921	0.0166476
913.999	0.0166728
914.078	0.0165387
914.156	0.0165362
914.234	0.0165180
914.312	0.0166021
914.390	0.0164317
914.468	0.0164946
914.546	0.0165630
914.624	0.0164450
914.703	0.0166000
914.781	0.0166889
914.859	0.0164515
914.937	0.0164019
915.015	0.0165662
915.093	0.0163839
915.171	0.0165211
915.249	0.0166171
915.328	0.0165943
915.406	0.0163191
915.484	0.0164429
915.562	0.0166911
915.640	0.0166476
915.718	0.0164790
915.796	0.0166433
915.874	0.0165483
915.953	0.0165878
916.031	0.0165826
916.109	0.0166828
916.187	0.0164831
916.265	0.0165398
916.343	0.0165105
916.421	0.0165923
916.499	0.0165520
916.578	0.0165230
916.656	0.0164418
916.734	0.0165695
916.812	0.0166397
916.890	0.0165379
916.968	0.0164812
917.046	0.0165794
917.124	0.0164191
917.203	0.0164555
917.281	0.0165970
917.359	0.0165572
917.437	0.0165011
917.515	0.0164752
917.593	0.0166986
917.671	0.0167145
917.749	0.0166971
917.828	0.0166496
917.906	0.0166212
917.984	0.0166620
918.062	0.0167705
918.140	0.0166737
918.218	0.0166315
918.296	0.0166894
918.374	0.0166958
918.453	0.0167253
918.531	0.0167797
918.609	0.0168499
918.687	0.0166972
918.765	0.0165469
918.843	0.0166228
918.921	0.0166870
918.999	0.0165733
919.078	0.0165747
919.156	0.0166915
919.234	0.0166301
919.312	0.0164457
919.390	0.0166447
919.468	0.0165907
919.546	0.0165864
919.624	0.0166230
919.703	0.0164929
919.781	0.0165249
919.859	0.0164956
919.937	0.0166853
