06/10/2022	18:57:25	Ver.	4.1	UNKNOWN
Optical Delay	600.015094	Delta X		0.078125	Sweeps	1	Scan Rate	0/0
Coordinates	Axis 1	NaN	Axis 2	NaN	Axis 3	NaN	Axis 4	NaN	Axis 5	NaN	Axis 6	0.000000
TX Power	0.000000	RX Power	0.000000

600.015	0.0165150
600.093	0.0165653
600.171	0.0166225
600.249	0.0166044
600.328	0.0165239
600.406	0.0166033
600.484	0.0165434
600.562	0.0164824
600.640	0.0164880
600.718	0.0165183
600.796	0.0166242
600.874	0.0165043
600.953	0.0164144
601.031	0.0165491
601.109	0.0164219
601.187	0.0165187
601.265	0.0165509
601.343	0.0165531
601.421	0.0166704
601.499	0.0166135
601.578	0.0164245
601.656	0.0165498
601.734	0.0164733
601.812	0.0165485
601.890	0.0165553
601.968	0.0166019
602.046	0.0166235
602.124	0.0164891
602.203	0.0166898
602.281	0.0166457
602.359	0.0165106
602.437	0.0165400
602.515	0.0164021
602.593	0.0165012
602.671	0.0166067
602.749	0.0165529
602.828	0.0165524
602.906	0.0164771
602.984	0.0166443
603.062	0.0165088
603.140	0.0165322
603.218	0.0166004
603.296	0.0166330
603.374	0.0166291
603.453	0.0164993
603.531	0.0165637
603.609	0.0167696
603.687	0.0166012
603.765	0.0166021
603.843	0.0164211
603.921	0.0166300
603.999	0.0166080
604.078	0.0165685
604.156	0.0164430
604.234	0.0165002
604.312	0.0165251
604.390	0.0165209
604.468	0.0166242
604.546	0.0167422
604.624	0.0165237
604.703	0.0164411
604.781	0.0167055
604.859	0.0164890
604.937	0.0164680
605.015	0.0166679
605.093	0.0166396
605.171	0.0166124
605.249	0.0166008
605.328	0.0166906
605.406	0.0166100
605.484	0.0166190
605.562	0.0165263
605.640	0.0166498
605.718	0.0166048
605.796	0.0166871
605.874	0.0165957
605.953	0.0166167
606.031	0.0166331
606.109	0.0165676
606.187	0.0165546
606.265	0.0164466
606.343	0.0166839
606.421	0.0165489
606.499	0.0165970
606.578	0.0166499
606.656	0.0165103
606.734	0.0165801
606.812	0.0166154
606.890	0.0167052
606.968	0.0166485
607.046	0.0167313
607.124	0.0166852
607.203	0.0166259
607.281	0.0164695
607.359	0.0166305
607.437	0.0166777
607.515	0.0165389
607.593	0.0165712
607.671	0.0166280
607.749	0.0165665
607.828	0.0165891
607.906	0.0165624
607.984	0.0165838
608.062	0.0166540
608.140	0.0166640
608.218	0.0165984
608.296	0.0165698
608.374	0.0166935
608.453	0.0165421
608.531	0.0166566
608.609	0.0167307
608.687	0.0167017
608.765	0.0166879
608.843	0.0166735
608.921	0.0167641
608.999	0.0167892
609.078	0.0166714
609.156	0.0165427
609.234	0.0167177
609.312	0.0166024
609.390	0.0166775
609.468	0.0165946
609.546	0.0166585
609.624	0.0165930
609.703	0.0166341
609.781	0.0166258
609.859	0.0166092
609.937	0.0166390
610.015	0.0167229
610.093	0.0166833
610.171	0.0167310
610.249	0.0167474
610.328	0.0166276
610.406	0.0167419
610.484	0.0166705
610.562	0.0166949
610.640	0.0166810
610.718	0.0165582
610.796	0.0166116
610.874	0.0166579
610.953	0.0167349
611.031	0.0166125
611.109	0.0166526
611.187	0.0165076
611.265	0.0166364
611.343	0.0165585
611.421	0.0165870
611.499	0.0166819
611.578	0.0166547
611.656	0.0166700
611.734	0.0167226
611.812	0.0166042
611.890	0.0167167
611.968	0.0166427
612.046	0.0167346
612.124	0.0166224
612.203	0.0166180
612.281	0.0166306
612.359	0.0165543
612.437	0.0165915
612.515	0.0165618
612.593	0.0167127
612.671	0.0167159
612.749	0.0166897
612.828	0.0166428
612.906	0.0165910
612.984	0.0164587
613.062	0.0166734
613.140	0.0165298
613.218	0.0165726
613.296	0.0167606
613.374	0.0167348
613.453	0.0167204
613.531	0.0167234
613.609	0.0167768
613.687	0.0165604
613.765	0.0167580
613.843	0.0165995
613.921	0.0166069
613.999	0.0166522
614.078	0.0166403
614.156	0.0166576
614.234	0.0164896
614.312	0.0165192
614.390	0.0167679
614.468	0.0166874
614.546	0.0165834
614.624	0.0166781
614.703	0.0165329
614.781	0.0166784
614.859	0.0166980
614.937	0.0168299
615.015	0.0165836
615.093	0.0166062
615.171	0.0166718
615.249	0.0166284
615.328	0.0165727
615.406	0.0165887
615.484	0.0167741
615.562	0.0166770
615.640	0.0165861
615.718	0.0165267
615.796	0.0166694
615.874	0.0165581
615.953	0.0166395
616.031	0.0166434
616.109	0.0166492
616.187	0.0166213
616.265	0.0165576
616.343	0.0167302
616.421	0.0165657
616.499	0.0166158
616.578	0.0166939
616.656	0.0165379
616.734	0.0166046
616.812	0.0166888
616.890	0.0166396
616.968	0.0165098
617.046	0.0165826
617.124	0.0165554
617.203	0.0166264
617.281	0.0165728
617.359	0.0165012
617.437	0.0164783
617.515	0.0165358
617.593	0.0166765
617.671	0.0166309
617.749	0.0165509
617.828	0.0165685
617.906	0.0165772
617.984	0.0164915
618.062	0.0166193
618.140	0.0165511
618.218	0.0165635
618.296	0.0165629
618.374	0.0165165
618.453	0.0166010
618.531	0.0166951
618.609	0.0164928
618.687	0.0164320
618.765	0.0165767
618.843	0.0165737
618.921	0.0165953
618.999	0.0164796
619.078	0.0165536
619.156	0.0166010
619.234	0.0166483
619.312	0.0165032
619.390	0.0164612
619.468	0.0165672
619.546	0.0165702
619.624	0.0166212
619.703	0.0166490
619.781	0.0164560
619.859	0.0164818
619.937	0.0163967
620.015	0.0163995
620.093	0.0165359
620.171	0.0165068
620.249	0.0165137
620.328	0.0165386
620.406	0.0164619
620.484	0.0164569
620.562	0.0165008
620.640	0.0164733
620.718	0.0164136
620.796	0.0165105
620.874	0.0164062
620.953	0.0164619
621.031	0.0164397
621.109	0.0165305
621.187	0.0165092
621.265	0.0165164
621.343	0.0164098
621.421	0.0165162
621.499	0.0164083
621.578	0.0164238
621.656	0.0165352
621.734	0.0165540
621.812	0.0164064
621.890	0.0164814
621.968	0.0164260
622.046	0.0165607
622.124	0.0165572
622.203	0.0163871
622.281	0.0163403
622.359	0.0163792
622.437	0.0164366
622.515	0.0164945
622.593	0.0165058
622.671	0.0164541
622.749	0.0164948
622.828	0.0166171
622.906	0.0164191
622.984	0.0165117
623.062	0.0164971
623.140	0.0163847
623.218	0.0164277
623.296	0.0164410
623.374	0.0165881
623.453	0.0165331
623.531	0.0164265
623.609	0.0164980
623.687	0.0164182
623.765	0.0163564
623.843	0.0165447
623.921	0.0166843
623.999	0.0165327
624.078	0.0163580
624.156	0.0163422
624.234	0.0163579
624.312	0.0163866
624.390	0.0166133
624.468	0.0164409
624.546	0.0163852
624.624	0.0164249
624.703	0.0164013
624.781	0.0165170
624.859	0.0163689
624.937	0.0164453
625.015	0.0165176
625.093	0.0164915
625.171	0.0165542
625.249	0.0165474
625.328	0.0163495
625.406	0.0165838
625.484	0.0165093
625.562	0.0165565
625.640	0.0165392
625.718	0.0164998
625.796	0.0164529
625.874	0.0164525
625.953	0.0164793
626.031	0.0164606
626.109	0.0165506
626.187	0.0165058
626.265	0.0165350
626.343	0.0165870
626.421	0.0163989
626.499	0.0164725
626.578	0.0165112
626.656	0.0165865
626.734	0.0166235
626.812	0.0165311
626.890	0.0164742
626.968	0.0165701
627.046	0.0165675
627.124	0.0165371
627.203	0.0164349
627.281	0.0165636
627.359	0.0166280
627.437	0.0163602
627.515	0.0166471
627.593	0.0166147
627.671	0.0165200
627.749	0.0165780
627.828	0.0166109
627.906	0.0165373
627.984	0.0165118
628.062	0.0166968
628.140	0.0165778
628.218	0.0166812
628.296	0.0164524
628.374	0.0165355
628.453	0.0166305
628.531	0.0167536
628.609	0.0165283
628.687	0.0165995
628.765	0.0167539
628.843	0.0166318
628.921	0.0165152
628.999	0.0166160
629.078	0.0165065
629.156	0.0166344
629.234	0.0166069
629.312	0.0167310
629.390	0.0165756
629.468	0.0166297
629.546	0.0165901
629.624	0.0165285
629.703	0.0165592
629.781	0.0167990
629.859	0.0166589
629.937	0.0166329
630.015	0.0167209
630.093	0.0165432
630.171	0.0166037
630.249	0.0166013
630.328	0.0167430
630.406	0.0166422
630.484	0.0165437
630.562	0.0167061
630.640	0.0166816
630.718	0.0167583
630.796	0.0165952
630.874	0.0165437
630.953	0.0167381
631.031	0.0166978
631.109	0.0166122
631.187	0.0166322
631.265	0.0165064
631.343	0.0167228
631.421	0.0166887
631.499	0.0166837
631.578	0.0166498
631.656	0.0167343
631.734	0.0164959
631.812	0.0167243
631.890	0.0167157
631.968	0.0166933
632.046	0.0165566
632.124	0.0165814
632.203	0.0165408
632.281	0.0165100
632.359	0.0165130
632.437	0.0167211
632.515	0.0166415
632.593	0.0166573
632.671	0.0166444
632.749	0.0167221
632.828	0.0166522
632.906	0.0166486
632.984	0.0165662
633.062	0.0167162
633.140	0.0167107
633.218	0.0166042
633.296	0.0166578
633.374	0.0166232
633.453	0.0166596
633.531	0.0165462
633.609	0.0166115
633.687	0.0165664
633.765	0.0165890
633.843	0.0166599
633.921	0.0166058
633.999	0.0164182
634.078	0.0167654
634.156	0.0166249
634.234	0.0165863
634.312	0.0165688
634.390	0.0166118
634.468	0.0165873
634.546	0.0165244
634.624	0.0166423
634.703	0.0165268
634.781	0.0165018
634.859	0.0167588
634.937	0.0165658
635.015	0.0165862
635.093	0.0165985
635.171	0.0165131
635.249	0.0164914
635.328	0.0164370
635.406	0.0164759
635.484	0.0166282
635.562	0.0166415
635.640	0.0166049
635.718	0.0165797
635.796	0.0166099
635.874	0.0165631
635.953	0.0164844
636.031	0.0163960
636.109	0.0165062
636.187	0.0166252
636.265	0.0165455
636.343	0.0165982
636.421	0.0165076
636.499	0.0165033
636.578	0.0165439
636.656	0.0165645
636.734	0.0165442
636.812	0.0165466
636.890	0.0164317
636.968	0.0163905
637.046	0.0164638
637.124	0.0165086
637.203	0.0165418
637.281	0.0165774
637.359	0.0164672
637.437	0.0164828
637.515	0.0165673
637.593	0.0165305
637.671	0.0165052
637.749	0.0165904
637.828	0.0164989
637.906	0.0165160
637.984	0.0165246
638.062	0.0165618
638.140	0.0165322
638.218	0.0165188
638.296	0.0164830
638.374	0.0165037
638.453	0.0165011
638.531	0.0165108
638.609	0.0164771
638.687	0.0164573
638.765	0.0164631
638.843	0.0165974
638.921	0.0165125
638.999	0.0164189
639.078	0.0165935
639.156	0.0166803
639.234	0.0165138
639.312	0.0164029
639.390	0.0165487
639.468	0.0163123
639.546	0.0165172
639.624	0.0165067
639.703	0.0165758
639.781	0.0165366
639.859	0.0164804
639.937	0.0165777
640.015	0.0165171
640.093	0.0165007
640.171	0.0166183
640.249	0.0164876
640.328	0.0165520
640.406	0.0165760
640.484	0.0166214
640.562	0.0165157
640.640	0.0167245
640.718	0.0166815
640.796	0.0165878
640.874	0.0165138
640.953	0.0166650
641.031	0.0166193
641.109	0.0164849
641.187	0.0165426
641.265	0.0165151
641.343	0.0165486
641.421	0.0165984
641.499	0.0166616
641.578	0.0166203
641.656	0.0166923
641.734	0.0166370
641.812	0.0166216
641.890	0.0165609
641.968	0.0165116
642.046	0.0164359
642.124	0.0165303
642.203	0.0166625
642.281	0.0166440
642.359	0.0166216
642.437	0.0167210
642.515	0.0166735
642.593	0.0166230
642.671	0.0166689
642.749	0.0165790
642.828	0.0165668
642.906	0.0166039
642.984	0.0166840
643.062	0.0165617
643.140	0.0165791
643.218	0.0165380
643.296	0.0166117
643.374	0.0165717
643.453	0.0166529
643.531	0.0166309
643.609	0.0165569
643.687	0.0167049
643.765	0.0167495
643.843	0.0167622
643.921	0.0166196
643.999	0.0166772
644.078	0.0166059
644.156	0.0165647
644.234	0.0166213
644.312	0.0167236
644.390	0.0165626
644.468	0.0165997
644.546	0.0166547
644.624	0.0165990
644.703	0.0166024
644.781	0.0165816
644.859	0.0166148
644.937	0.0166550
645.015	0.0166432
645.093	0.0165693
645.171	0.0165063
645.249	0.0166991
645.328	0.0166453
645.406	0.0166051
645.484	0.0165369
645.562	0.0165945
645.640	0.0164571
645.718	0.0165056
645.796	0.0167747
645.874	0.0165001
645.953	0.0165787
646.031	0.0164916
646.109	0.0165578
646.187	0.0165947
646.265	0.0165979
646.343	0.0164596
646.421	0.0164245
646.499	0.0166603
646.578	0.0166971
646.656	0.0165892
646.734	0.0165373
646.812	0.0165718
646.890	0.0164673
646.968	0.0165272
647.046	0.0166184
647.124	0.0165854
647.203	0.0164861
647.281	0.0164323
647.359	0.0165466
647.437	0.0165746
647.515	0.0167004
647.593	0.0165235
647.671	0.0165088
647.749	0.0165186
647.828	0.0165176
647.906	0.0165150
647.984	0.0166118
648.062	0.0165733
648.140	0.0165485
648.218	0.0165195
648.296	0.0165111
648.374	0.0164883
648.453	0.0165225
648.531	0.0166357
648.609	0.0164622
648.687	0.0165459
648.765	0.0166366
648.843	0.0164589
648.921	0.0164492
648.999	0.0165443
649.078	0.0165150
649.156	0.0165250
649.234	0.0166084
649.312	0.0163946
649.390	0.0164933
649.468	0.0165524
649.546	0.0165501
649.624	0.0165524
649.703	0.0165845
649.781	0.0164928
649.859	0.0165505
649.937	0.0164829
650.015	0.0165056
650.093	0.0165562
650.171	0.0165822
650.249	0.0165807
650.328	0.0165466
650.406	0.0165392
650.484	0.0165472
650.562	0.0164946
650.640	0.0164859
650.718	0.0164149
650.796	0.0167159
650.874	0.0166718
650.953	0.0164691
651.031	0.0165681
651.109	0.0166244
651.187	0.0165598
651.265	0.0165791
651.343	0.0165611
651.421	0.0165377
651.499	0.0164904
651.578	0.0165994
651.656	0.0166595
651.734	0.0165625
651.812	0.0165210
651.890	0.0166081
651.968	0.0165815
652.046	0.0165436
652.124	0.0165245
652.203	0.0165788
652.281	0.0164871
652.359	0.0167601
652.437	0.0166420
652.515	0.0166003
652.593	0.0165997
652.671	0.0166134
652.749	0.0165754
652.828	0.0166322
652.906	0.0166226
652.984	0.0165866
653.062	0.0166428
653.140	0.0164642
653.218	0.0166299
653.296	0.0166866
653.374	0.0167920
653.453	0.0165958
653.531	0.0165940
653.609	0.0165774
653.687	0.0166647
653.765	0.0166840
653.843	0.0166577
653.921	0.0165768
653.999	0.0168172
654.078	0.0166522
654.156	0.0167717
654.234	0.0167323
654.312	0.0167035
654.390	0.0166569
654.468	0.0166469
654.546	0.0167484
654.624	0.0167046
654.703	0.0166266
654.781	0.0167036
654.859	0.0165863
654.937	0.0167171
655.015	0.0166441
655.093	0.0167120
655.171	0.0166528
655.249	0.0166059
655.328	0.0166499
655.406	0.0166695
655.484	0.0167049
655.562	0.0166059
655.640	0.0165604
655.718	0.0166772
655.796	0.0166462
655.874	0.0164955
655.953	0.0165910
656.031	0.0166498
656.109	0.0166396
656.187	0.0166000
656.265	0.0166925
656.343	0.0166005
656.421	0.0166351
656.499	0.0166409
656.578	0.0166502
656.656	0.0166020
656.734	0.0167004
656.812	0.0165979
656.890	0.0165292
656.968	0.0165003
657.046	0.0165903
657.124	0.0165826
657.203	0.0166024
657.281	0.0167392
657.359	0.0167332
657.437	0.0166768
657.515	0.0166010
657.593	0.0166505
657.671	0.0168382
657.749	0.0166946
657.828	0.0166236
657.906	0.0167535
657.984	0.0167231
658.062	0.0165775
658.140	0.0166407
658.218	0.0166011
658.296	0.0166312
658.374	0.0164127
658.453	0.0166544
658.531	0.0165710
658.609	0.0166544
658.687	0.0166438
658.765	0.0165940
658.843	0.0165002
658.921	0.0166909
658.999	0.0166869
659.078	0.0165627
659.156	0.0167171
659.234	0.0165379
659.312	0.0165793
659.390	0.0166842
659.468	0.0166261
659.546	0.0166726
659.624	0.0166335
659.703	0.0165057
659.781	0.0166878
659.859	0.0165472
659.937	0.0165437
660.015	0.0166141
660.093	0.0166238
660.171	0.0166669
660.249	0.0166180
660.328	0.0166441
660.406	0.0166642
660.484	0.0166280
660.562	0.0165868
660.640	0.0166451
660.718	0.0166259
660.796	0.0164492
660.874	0.0166190
660.953	0.0165367
661.031	0.0166005
661.109	0.0165871
661.187	0.0165861
661.265	0.0166013
661.343	0.0165536
661.421	0.0165972
661.499	0.0165907
661.578	0.0166206
661.656	0.0166647
661.734	0.0166334
661.812	0.0166269
661.890	0.0165134
661.968	0.0165542
662.046	0.0166969
662.124	0.0165925
662.203	0.0166689
662.281	0.0166377
662.359	0.0165642
662.437	0.0165495
662.515	0.0166451
662.593	0.0166987
662.671	0.0165231
662.749	0.0166036
662.828	0.0165245
662.906	0.0164871
662.984	0.0166508
663.062	0.0166257
663.140	0.0165510
663.218	0.0166667
663.296	0.0168194
663.374	0.0167969
663.453	0.0165402
663.531	0.0165874
663.609	0.0166446
663.687	0.0166191
663.765	0.0165649
663.843	0.0168009
663.921	0.0165826
663.999	0.0165061
664.078	0.0165739
664.156	0.0166125
664.234	0.0165686
664.312	0.0166226
664.390	0.0167241
664.468	0.0166651
664.546	0.0167257
664.624	0.0166077
664.703	0.0168118
664.781	0.0166634
664.859	0.0166915
664.937	0.0164587
665.015	0.0165443
665.093	0.0166160
665.171	0.0165496
665.249	0.0165356
665.328	0.0165836
665.406	0.0165865
665.484	0.0166050
665.562	0.0165530
665.640	0.0166480
665.718	0.0165406
665.796	0.0166489
665.874	0.0166072
665.953	0.0167388
666.031	0.0165868
666.109	0.0166035
666.187	0.0167381
666.265	0.0166392
666.343	0.0166978
666.421	0.0165662
666.499	0.0165932
666.578	0.0166322
666.656	0.0165730
666.734	0.0167443
666.812	0.0166452
666.890	0.0165790
666.968	0.0165647
667.046	0.0166640
667.124	0.0165742
667.203	0.0166261
667.281	0.0165579
667.359	0.0166347
667.437	0.0165993
667.515	0.0165612
667.593	0.0167219
667.671	0.0165559
667.749	0.0166328
667.828	0.0165944
667.906	0.0166438
667.984	0.0167381
668.062	0.0165863
668.140	0.0166544
668.218	0.0166297
668.296	0.0165010
668.374	0.0166232
668.453	0.0166061
668.531	0.0165801
668.609	0.0166534
668.687	0.0165644
668.765	0.0165932
668.843	0.0167389
668.921	0.0164955
668.999	0.0166426
669.078	0.0166140
669.156	0.0166365
669.234	0.0166553
669.312	0.0166930
669.390	0.0166441
669.468	0.0165441
669.546	0.0166215
669.624	0.0165488
669.703	0.0166682
669.781	0.0166181
669.859	0.0165688
669.937	0.0165615
670.015	0.0166810
670.093	0.0165511
670.171	0.0166923
670.249	0.0165865
670.328	0.0166260
670.406	0.0165964
670.484	0.0166781
670.562	0.0165874
670.640	0.0165170
670.718	0.0164847
670.796	0.0165853
670.874	0.0166518
670.953	0.0165649
671.031	0.0165761
671.109	0.0165057
671.187	0.0166621
671.265	0.0164576
671.343	0.0164794
671.421	0.0164292
671.499	0.0165034
671.578	0.0167029
671.656	0.0167055
671.734	0.0165807
671.812	0.0164664
671.890	0.0165792
671.968	0.0166357
672.046	0.0165737
672.124	0.0165578
672.203	0.0166635
672.281	0.0164787
672.359	0.0166110
672.437	0.0166640
672.515	0.0165874
672.593	0.0166914
672.671	0.0166875
672.749	0.0165874
672.828	0.0165091
672.906	0.0165250
672.984	0.0165398
673.062	0.0165900
673.140	0.0165637
673.218	0.0165502
673.296	0.0165422
673.374	0.0166096
673.453	0.0166137
673.531	0.0164727
673.609	0.0165937
673.687	0.0165728
673.765	0.0165315
673.843	0.0166422
673.921	0.0166467
673.999	0.0165852
674.078	0.0165078
674.156	0.0165489
674.234	0.0164883
674.312	0.0165287
674.390	0.0165379
674.468	0.0165729
674.546	0.0166332
674.624	0.0165861
674.703	0.0165630
674.781	0.0165157
674.859	0.0166834
674.937	0.0166133
675.015	0.0165800
675.093	0.0166924
675.171	0.0165867
675.249	0.0165736
675.328	0.0166128
675.406	0.0165224
675.484	0.0164801
675.562	0.0166362
675.640	0.0166505
675.718	0.0166492
675.796	0.0166367
675.874	0.0165414
675.953	0.0164925
676.031	0.0163171
676.109	0.0165839
676.187	0.0166161
676.265	0.0165730
676.343	0.0165726
676.421	0.0165842
676.499	0.0166035
676.578	0.0165805
676.656	0.0165855
676.734	0.0165833
676.812	0.0165061
676.890	0.0166376
676.968	0.0165163
677.046	0.0165485
677.124	0.0165737
677.203	0.0165271
677.281	0.0166986
677.359	0.0166238
677.437	0.0166348
677.515	0.0167227
677.593	0.0166530
677.671	0.0166298
677.749	0.0164731
677.828	0.0167249
677.906	0.0167003
677.984	0.0165811
678.062	0.0166668
678.140	0.0166348
678.218	0.0166228
678.296	0.0165830
678.374	0.0166359
678.453	0.0165043
678.531	0.0165960
678.609	0.0165495
678.687	0.0166780
678.765	0.0166978
678.843	0.0165836
678.921	0.0166118
678.999	0.0165685
679.078	0.0164861
679.156	0.0165382
679.234	0.0165796
679.312	0.0165825
679.390	0.0166847
679.468	0.0164970
679.546	0.0165913
679.624	0.0165517
679.703	0.0165476
679.781	0.0164561
679.859	0.0164840
679.937	0.0166236
680.015	0.0166225
680.093	0.0165814
680.171	0.0165664
680.249	0.0166806
680.328	0.0166367
680.406	0.0166091
680.484	0.0165987
680.562	0.0166714
680.640	0.0165393
680.718	0.0165839
680.796	0.0165622
680.874	0.0166863
680.953	0.0167286
681.031	0.0166227
681.109	0.0166974
681.187	0.0166087
681.265	0.0166783
681.343	0.0166386
681.421	0.0165867
681.499	0.0166039
681.578	0.0165680
681.656	0.0166655
681.734	0.0167177
681.812	0.0166574
681.890	0.0167314
681.968	0.0166549
682.046	0.0167796
682.124	0.0166892
682.203	0.0166903
682.281	0.0167219
682.359	0.0165925
682.437	0.0166880
682.515	0.0166296
682.593	0.0166814
682.671	0.0167677
682.749	0.0166325
682.828	0.0166879
682.906	0.0167239
682.984	0.0166529
683.062	0.0166023
683.140	0.0167024
683.218	0.0166866
683.296	0.0166488
683.374	0.0167013
683.453	0.0167590
683.531	0.0167318
683.609	0.0165149
683.687	0.0166785
683.765	0.0167278
683.843	0.0166876
683.921	0.0167342
683.999	0.0167264
684.078	0.0165873
684.156	0.0165640
684.234	0.0166332
684.312	0.0166285
684.390	0.0167308
684.468	0.0167910
684.546	0.0166810
684.624	0.0166647
684.703	0.0165839
684.781	0.0167007
684.859	0.0166437
684.937	0.0167861
685.015	0.0166650
685.093	0.0166046
685.171	0.0167162
685.249	0.0166929
685.328	0.0167220
685.406	0.0166879
685.484	0.0167516
685.562	0.0166680
685.640	0.0166695
685.718	0.0166869
685.796	0.0166782
685.874	0.0165652
685.953	0.0166714
686.031	0.0166788
686.109	0.0166649
686.187	0.0167497
686.265	0.0166825
686.343	0.0165784
686.421	0.0166352
686.499	0.0167001
686.578	0.0166893
686.656	0.0167017
686.734	0.0166621
686.812	0.0167641
686.890	0.0167659
686.968	0.0165965
687.046	0.0167332
687.124	0.0166830
687.203	0.0165636
687.281	0.0165639
687.359	0.0166574
687.437	0.0166614
687.515	0.0165714
687.593	0.0165350
687.671	0.0166026
687.749	0.0166428
687.828	0.0166276
687.906	0.0165508
687.984	0.0165696
688.062	0.0166372
688.140	0.0165644
688.218	0.0167301
688.296	0.0166115
688.374	0.0166322
688.453	0.0167132
688.531	0.0165852
688.609	0.0165681
688.687	0.0165986
688.765	0.0166590
688.843	0.0165256
688.921	0.0166192
688.999	0.0166631
689.078	0.0166460
689.156	0.0165523
689.234	0.0166472
689.312	0.0166012
689.390	0.0166300
689.468	0.0165331
689.546	0.0166336
689.624	0.0166919
689.703	0.0167182
689.781	0.0167046
689.859	0.0166464
689.937	0.0164808
690.015	0.0166108
690.093	0.0166857
690.171	0.0167767
690.249	0.0166525
690.328	0.0166299
690.406	0.0166297
690.484	0.0166595
690.562	0.0167242
690.640	0.0166199
690.718	0.0165134
690.796	0.0166579
690.874	0.0165950
690.953	0.0165855
691.031	0.0166126
691.109	0.0166200
691.187	0.0166486
691.265	0.0165246
691.343	0.0165896
691.421	0.0166659
691.499	0.0166038
691.578	0.0164799
691.656	0.0165825
691.734	0.0166232
691.812	0.0165862
691.890	0.0166246
691.968	0.0165987
692.046	0.0165334
692.124	0.0164857
692.203	0.0164920
692.281	0.0166275
692.359	0.0165942
692.437	0.0166045
692.515	0.0166316
692.593	0.0165829
692.671	0.0165674
692.749	0.0165655
692.828	0.0165646
692.906	0.0165637
692.984	0.0165259
693.062	0.0165734
693.140	0.0165385
693.218	0.0166077
693.296	0.0166705
693.374	0.0166241
693.453	0.0165515
693.531	0.0165136
693.609	0.0166539
693.687	0.0165916
693.765	0.0166342
693.843	0.0163791
693.921	0.0164378
693.999	0.0166476
694.078	0.0165976
694.156	0.0165961
694.234	0.0166922
694.312	0.0165738
694.390	0.0163930
694.468	0.0164341
694.546	0.0166138
694.624	0.0166372
694.703	0.0167220
694.781	0.0165112
694.859	0.0166857
694.937	0.0166154
695.015	0.0164385
695.093	0.0163667
695.171	0.0164960
695.249	0.0165477
695.328	0.0165174
695.406	0.0165877
695.484	0.0166121
695.562	0.0164779
695.640	0.0165788
695.718	0.0164508
695.796	0.0165742
695.874	0.0165360
695.953	0.0165222
696.031	0.0164795
696.109	0.0164808
696.187	0.0164524
696.265	0.0164174
696.343	0.0165188
696.421	0.0165207
696.499	0.0166787
696.578	0.0166466
696.656	0.0165446
696.734	0.0166263
696.812	0.0166056
696.890	0.0165623
696.968	0.0166031
697.046	0.0166148
697.124	0.0165755
697.203	0.0165221
697.281	0.0165253
697.359	0.0165197
697.437	0.0165549
697.515	0.0165230
697.593	0.0165253
697.671	0.0164735
697.749	0.0166464
697.828	0.0165755
697.906	0.0164579
697.984	0.0165463
698.062	0.0164024
698.140	0.0165023
698.218	0.0165209
698.296	0.0165280
698.374	0.0165485
698.453	0.0166770
698.531	0.0165488
698.609	0.0165188
698.687	0.0164471
698.765	0.0164663
698.843	0.0165053
698.921	0.0165095
698.999	0.0165822
699.078	0.0165030
699.156	0.0164298
699.234	0.0164681
699.312	0.0164946
699.390	0.0165283
699.468	0.0165323
699.546	0.0164373
699.624	0.0165439
699.703	0.0164848
699.781	0.0163234
699.859	0.0163885
699.937	0.0165005
700.015	0.0165656
700.093	0.0164667
700.171	0.0166119
700.249	0.0163564
700.328	0.0164665
700.406	0.0165824
700.484	0.0165176
700.562	0.0165643
700.640	0.0165340
700.718	0.0164259
700.796	0.0166736
700.874	0.0165033
700.953	0.0165437
701.031	0.0164281
701.109	0.0165457
701.187	0.0164317
701.265	0.0163973
701.343	0.0165174
701.421	0.0164778
701.499	0.0164780
701.578	0.0164632
701.656	0.0165347
701.734	0.0164474
701.812	0.0163342
701.890	0.0164512
701.968	0.0166013
702.046	0.0165434
702.124	0.0164304
702.203	0.0164756
702.281	0.0165015
702.359	0.0163896
702.437	0.0164301
702.515	0.0164408
702.593	0.0164694
702.671	0.0165825
702.749	0.0164886
702.828	0.0166740
702.906	0.0164686
702.984	0.0164527
703.062	0.0165375
703.140	0.0164970
703.218	0.0164309
703.296	0.0164822
703.374	0.0165795
703.453	0.0165027
703.531	0.0162831
703.609	0.0164385
703.687	0.0166241
703.765	0.0164549
703.843	0.0164445
703.921	0.0164243
703.999	0.0162925
704.078	0.0165504
704.156	0.0164535
704.234	0.0163382
704.312	0.0165454
704.390	0.0164790
704.468	0.0163588
704.546	0.0165250
704.624	0.0165715
704.703	0.0165117
704.781	0.0165739
704.859	0.0164541
704.937	0.0164458
705.015	0.0165654
705.093	0.0165041
705.171	0.0164575
705.249	0.0163970
705.328	0.0164068
705.406	0.0165530
705.484	0.0165166
705.562	0.0165376
705.640	0.0163895
705.718	0.0164478
705.796	0.0164642
705.874	0.0165308
705.953	0.0166755
706.031	0.0165386
706.109	0.0164781
706.187	0.0165141
706.265	0.0164909
706.343	0.0165591
706.421	0.0165768
706.499	0.0165614
706.578	0.0165860
706.656	0.0164812
706.734	0.0165340
706.812	0.0166920
706.890	0.0166958
706.968	0.0163963
707.046	0.0164614
707.124	0.0165957
707.203	0.0164637
707.281	0.0165595
707.359	0.0166186
707.437	0.0164919
707.515	0.0164525
707.593	0.0165545
707.671	0.0166825
707.749	0.0165785
707.828	0.0165871
707.906	0.0165828
707.984	0.0166145
708.062	0.0165219
708.140	0.0164897
708.218	0.0165263
708.296	0.0165967
708.374	0.0166771
708.453	0.0164876
708.531	0.0165370
708.609	0.0166214
708.687	0.0165948
708.765	0.0166617
708.843	0.0164606
708.921	0.0165256
708.999	0.0166336
709.078	0.0165369
709.156	0.0167681
709.234	0.0164314
709.312	0.0164426
709.390	0.0165759
709.468	0.0166455
709.546	0.0165846
709.624	0.0166837
709.703	0.0165197
709.781	0.0165314
709.859	0.0165479
709.937	0.0165173
710.015	0.0165672
710.093	0.0166096
710.171	0.0164445
710.249	0.0165974
710.328	0.0165625
710.406	0.0167152
710.484	0.0165489
710.562	0.0165219
710.640	0.0164260
710.718	0.0167055
710.796	0.0166301
710.874	0.0166101
710.953	0.0166254
711.031	0.0167238
711.109	0.0167021
711.187	0.0165305
711.265	0.0165453
711.343	0.0165871
711.421	0.0165703
711.499	0.0166142
711.578	0.0165125
711.656	0.0166592
711.734	0.0165829
711.812	0.0165282
711.890	0.0166684
711.968	0.0166250
712.046	0.0166704
712.124	0.0166925
712.203	0.0164587
712.281	0.0165253
712.359	0.0167979
712.437	0.0166170
712.515	0.0165833
712.593	0.0166350
712.671	0.0166099
712.749	0.0165337
712.828	0.0166630
712.906	0.0165331
712.984	0.0166202
713.062	0.0165516
713.140	0.0164040
713.218	0.0167240
713.296	0.0166049
713.374	0.0166873
713.453	0.0167360
713.531	0.0166153
713.609	0.0165636
713.687	0.0165628
713.765	0.0167047
713.843	0.0165179
713.921	0.0166074
713.999	0.0166691
714.078	0.0165190
714.156	0.0165208
714.234	0.0165247
714.312	0.0165655
714.390	0.0165534
714.468	0.0165101
714.546	0.0164375
714.624	0.0164662
714.703	0.0165720
714.781	0.0166472
714.859	0.0164400
714.937	0.0164561
715.015	0.0164774
715.093	0.0164758
715.171	0.0165578
715.249	0.0163481
715.328	0.0165839
715.406	0.0165579
715.484	0.0164261
715.562	0.0164394
715.640	0.0164455
715.718	0.0165335
715.796	0.0164466
715.874	0.0164333
715.953	0.0165449
716.031	0.0166486
716.109	0.0165778
716.187	0.0165089
716.265	0.0165089
716.343	0.0165153
716.421	0.0164796
716.499	0.0166090
716.578	0.0164721
716.656	0.0165814
716.734	0.0164945
716.812	0.0165032
716.890	0.0165145
716.968	0.0166173
717.046	0.0163952
717.124	0.0165059
717.203	0.0165269
717.281	0.0165293
717.359	0.0164922
717.437	0.0165086
717.515	0.0165974
717.593	0.0166042
717.671	0.0164565
717.749	0.0164571
717.828	0.0165878
717.906	0.0164933
717.984	0.0165836
718.062	0.0164241
718.140	0.0164703
718.218	0.0164162
718.296	0.0165258
718.374	0.0165466
718.453	0.0164553
718.531	0.0164676
718.609	0.0165493
718.687	0.0163644
718.765	0.0164986
718.843	0.0165001
718.921	0.0165385
718.999	0.0164275
719.078	0.0164143
719.156	0.0164936
719.234	0.0164488
719.312	0.0164010
719.390	0.0163690
719.468	0.0165106
719.546	0.0164532
719.624	0.0165574
719.703	0.0165008
719.781	0.0165182
719.859	0.0164662
719.937	0.0163919
720.015	0.0164285
720.093	0.0165841
720.171	0.0165205
720.249	0.0163539
720.328	0.0165588
720.406	0.0166384
720.484	0.0165147
720.562	0.0164910
720.640	0.0164455
720.718	0.0165736
720.796	0.0165325
720.874	0.0165232
720.953	0.0164854
721.031	0.0164315
721.109	0.0164354
721.187	0.0166677
721.265	0.0164332
721.343	0.0165275
721.421	0.0165141
721.499	0.0163792
721.578	0.0164005
721.656	0.0165167
721.734	0.0164185
721.812	0.0162805
721.890	0.0164220
721.968	0.0165834
722.046	0.0165144
722.124	0.0163900
722.203	0.0164793
722.281	0.0164092
722.359	0.0164093
722.437	0.0164172
722.515	0.0164828
722.593	0.0164629
722.671	0.0164425
722.749	0.0164747
722.828	0.0163855
722.906	0.0163794
722.984	0.0165257
723.062	0.0165120
723.140	0.0164373
723.218	0.0164842
723.296	0.0165256
723.374	0.0164749
723.453	0.0164284
723.531	0.0164971
723.609	0.0165646
723.687	0.0165115
723.765	0.0163586
723.843	0.0164539
723.921	0.0164888
723.999	0.0163985
724.078	0.0165146
724.156	0.0163406
724.234	0.0163606
724.312	0.0164954
724.390	0.0165865
724.468	0.0165647
724.546	0.0164499
724.624	0.0165067
724.703	0.0163149
724.781	0.0165369
724.859	0.0165331
724.937	0.0164923
725.015	0.0165285
725.093	0.0166038
725.171	0.0163903
725.249	0.0165439
725.328	0.0163897
725.406	0.0165478
725.484	0.0165717
725.562	0.0164258
725.640	0.0164715
725.718	0.0165827
725.796	0.0164987
725.874	0.0164529
725.953	0.0164855
726.031	0.0165273
726.109	0.0165569
726.187	0.0164695
726.265	0.0164720
726.343	0.0164101
726.421	0.0164855
726.499	0.0164787
726.578	0.0165887
726.656	0.0165507
726.734	0.0164784
726.812	0.0166149
726.890	0.0166142
726.968	0.0165089
727.046	0.0166328
727.124	0.0165088
727.203	0.0165401
727.281	0.0165108
727.359	0.0165454
727.437	0.0165699
727.515	0.0164842
727.593	0.0165094
727.671	0.0165149
727.749	0.0166512
727.828	0.0164730
727.906	0.0165331
727.984	0.0166603
728.062	0.0165633
728.140	0.0165284
728.218	0.0165663
728.296	0.0164468
728.374	0.0167178
728.453	0.0164772
728.531	0.0166142
728.609	0.0166650
728.687	0.0165694
728.765	0.0165983
728.843	0.0167545
728.921	0.0166468
728.999	0.0165296
729.078	0.0166985
729.156	0.0166284
729.234	0.0166640
729.312	0.0166653
729.390	0.0166470
729.468	0.0166933
729.546	0.0167199
729.624	0.0166004
729.703	0.0164692
729.781	0.0165834
729.859	0.0166135
729.937	0.0165913
730.015	0.0165626
730.093	0.0166277
730.171	0.0165333
730.249	0.0166946
730.328	0.0166720
730.406	0.0166377
730.484	0.0166726
730.562	0.0165723
730.640	0.0165882
730.718	0.0164651
730.796	0.0167220
730.874	0.0167474
730.953	0.0166323
731.031	0.0166174
731.109	0.0166455
731.187	0.0166614
731.265	0.0166529
731.343	0.0166134
731.421	0.0166760
731.499	0.0166880
731.578	0.0166253
731.656	0.0166326
731.734	0.0168076
731.812	0.0165990
731.890	0.0164796
731.968	0.0166973
732.046	0.0166055
732.124	0.0166993
732.203	0.0167739
732.281	0.0166661
732.359	0.0166178
732.437	0.0165561
732.515	0.0165201
732.593	0.0166915
732.671	0.0165448
732.749	0.0166707
732.828	0.0166112
732.906	0.0166925
732.984	0.0165364
733.062	0.0167103
733.140	0.0166488
733.218	0.0166033
733.296	0.0165881
733.374	0.0166033
733.453	0.0165433
733.531	0.0167342
733.609	0.0166692
733.687	0.0166029
733.765	0.0166387
733.843	0.0165981
733.921	0.0166565
733.999	0.0167562
734.078	0.0166259
734.156	0.0166749
734.234	0.0167242
734.312	0.0166917
734.390	0.0166241
734.468	0.0165672
734.546	0.0167341
734.624	0.0166088
734.703	0.0165951
734.781	0.0165323
734.859	0.0167262
734.937	0.0166898
735.015	0.0165195
735.093	0.0165244
735.171	0.0165723
735.249	0.0164793
735.328	0.0165816
735.406	0.0166510
735.484	0.0165140
735.562	0.0166354
735.640	0.0166579
735.718	0.0166548
735.796	0.0165598
735.874	0.0167632
735.953	0.0166247
736.031	0.0165202
736.109	0.0165475
736.187	0.0167213
736.265	0.0166449
736.343	0.0164479
736.421	0.0166809
736.499	0.0166531
736.578	0.0166989
736.656	0.0165698
736.734	0.0165465
736.812	0.0164784
736.890	0.0166709
736.968	0.0167439
737.046	0.0167022
737.124	0.0165430
737.203	0.0165444
737.281	0.0167046
737.359	0.0165450
737.437	0.0166742
737.515	0.0167546
737.593	0.0165817
737.671	0.0166445
737.749	0.0165528
737.828	0.0166172
737.906	0.0166906
737.984	0.0166225
738.062	0.0165807
738.140	0.0166885
738.218	0.0165462
738.296	0.0165224
738.374	0.0167275
738.453	0.0166183
738.531	0.0166148
738.609	0.0166795
738.687	0.0167049
738.765	0.0166132
738.843	0.0166399
738.921	0.0165698
738.999	0.0166108
739.078	0.0165637
739.156	0.0165756
739.234	0.0167327
739.312	0.0166359
739.390	0.0166253
739.468	0.0166685
739.546	0.0165782
739.624	0.0165942
739.703	0.0166849
739.781	0.0165638
739.859	0.0164182
739.937	0.0166188
740.015	0.0167314
740.093	0.0166519
740.171	0.0165553
740.249	0.0165561
740.328	0.0166965
740.406	0.0165903
740.484	0.0167372
740.562	0.0166791
740.640	0.0167319
740.718	0.0166385
740.796	0.0165947
740.874	0.0167176
740.953	0.0166447
741.031	0.0166627
741.109	0.0166198
741.187	0.0165699
741.265	0.0166382
741.343	0.0165880
741.421	0.0166452
741.499	0.0167396
741.578	0.0169154
741.656	0.0166174
741.734	0.0166051
741.812	0.0165926
741.890	0.0165881
741.968	0.0166941
742.046	0.0166109
742.124	0.0165471
742.203	0.0166441
742.281	0.0167129
742.359	0.0166036
742.437	0.0167800
742.515	0.0167021
742.593	0.0166083
742.671	0.0166118
742.749	0.0164441
742.828	0.0165954
742.906	0.0167361
742.984	0.0167695
743.062	0.0166237
743.140	0.0166516
743.218	0.0165507
743.296	0.0166266
743.374	0.0165842
743.453	0.0165801
743.531	0.0166968
743.609	0.0165675
743.687	0.0166611
743.765	0.0164154
743.843	0.0165945
743.921	0.0166586
743.999	0.0166042
744.078	0.0166653
744.156	0.0165083
744.234	0.0165808
744.312	0.0165571
744.390	0.0165971
744.468	0.0165278
744.546	0.0165409
744.624	0.0164495
744.703	0.0166954
744.781	0.0166145
744.859	0.0164799
744.937	0.0165185
745.015	0.0165780
745.093	0.0166994
745.171	0.0166599
745.249	0.0165506
745.328	0.0164603
745.406	0.0164816
745.484	0.0166090
745.562	0.0166440
745.640	0.0165275
745.718	0.0165038
745.796	0.0165656
745.874	0.0164658
745.953	0.0165137
746.031	0.0165609
746.109	0.0163702
746.187	0.0164995
746.265	0.0165984
746.343	0.0165389
746.421	0.0164385
746.499	0.0165605
746.578	0.0164556
746.656	0.0164817
746.734	0.0165890
746.812	0.0165010
746.890	0.0164194
746.968	0.0164108
747.046	0.0164720
747.124	0.0164073
747.203	0.0165024
747.281	0.0165165
747.359	0.0166286
747.437	0.0166441
747.515	0.0164298
747.593	0.0164847
747.671	0.0165162
747.749	0.0167570
747.828	0.0164840
747.906	0.0164951
747.984	0.0164642
748.062	0.0166649
748.140	0.0163828
748.218	0.0165048
748.296	0.0164122
748.374	0.0164794
748.453	0.0164961
748.531	0.0165022
748.609	0.0165086
748.687	0.0164926
748.765	0.0165562
748.843	0.0165110
748.921	0.0165765
748.999	0.0164528
749.078	0.0165382
749.156	0.0166201
749.234	0.0164841
749.312	0.0163759
749.390	0.0165984
749.468	0.0165446
749.546	0.0165712
749.624	0.0165834
749.703	0.0165310
749.781	0.0165484
749.859	0.0166105
749.937	0.0166071
750.015	0.0165836
750.093	0.0166866
750.171	0.0166322
750.249	0.0167245
750.328	0.0165359
750.406	0.0166773
750.484	0.0166418
750.562	0.0166394
750.640	0.0167583
750.718	0.0165371
750.796	0.0165160
750.874	0.0165336
750.953	0.0166126
751.031	0.0166431
751.109	0.0164989
751.187	0.0164411
751.265	0.0163993
751.343	0.0166203
751.421	0.0166454
751.499	0.0165745
751.578	0.0166167
751.656	0.0166482
751.734	0.0166142
751.812	0.0167200
751.890	0.0168385
751.968	0.0167037
752.046	0.0166476
752.124	0.0166676
752.203	0.0168081
752.281	0.0166635
752.359	0.0166277
752.437	0.0166805
752.515	0.0165584
752.593	0.0166370
752.671	0.0166009
752.749	0.0165213
752.828	0.0164393
752.906	0.0165999
752.984	0.0165115
753.062	0.0165174
753.140	0.0165793
753.218	0.0165807
753.296	0.0165725
753.374	0.0165333
753.453	0.0166371
753.531	0.0167234
753.609	0.0164735
753.687	0.0166164
753.765	0.0166441
753.843	0.0165085
753.921	0.0165726
753.999	0.0166272
754.078	0.0166207
754.156	0.0166057
754.234	0.0166335
754.312	0.0166686
754.390	0.0166628
754.468	0.0168122
754.546	0.0166637
754.624	0.0166173
754.703	0.0167907
754.781	0.0167328
754.859	0.0167200
754.937	0.0167685
755.015	0.0166885
755.093	0.0166520
755.171	0.0167454
755.249	0.0167482
755.328	0.0167175
755.406	0.0166649
755.484	0.0165990
755.562	0.0165862
755.640	0.0166335
755.718	0.0166708
755.796	0.0166312
755.874	0.0167193
755.953	0.0166859
756.031	0.0165506
756.109	0.0166837
756.187	0.0166219
756.265	0.0167741
756.343	0.0166310
756.421	0.0166329
756.499	0.0166568
756.578	0.0165742
756.656	0.0165484
756.734	0.0164847
756.812	0.0167728
756.890	0.0166085
756.968	0.0167130
757.046	0.0167390
757.124	0.0167017
757.203	0.0167440
757.281	0.0167109
757.359	0.0166665
757.437	0.0167926
757.515	0.0166551
757.593	0.0166324
757.671	0.0168238
757.749	0.0168678
757.828	0.0167525
757.906	0.0165823
757.984	0.0166401
758.062	0.0167028
758.140	0.0167106
758.218	0.0167301
758.296	0.0167288
758.374	0.0165125
758.453	0.0165665
758.531	0.0166322
758.609	0.0165965
758.687	0.0165431
758.765	0.0167017
758.843	0.0166779
758.921	0.0165785
758.999	0.0166202
759.078	0.0164854
759.156	0.0166577
759.234	0.0166307
759.312	0.0166156
759.390	0.0164320
759.468	0.0164299
759.546	0.0165401
759.624	0.0165517
759.703	0.0164655
759.781	0.0166402
759.859	0.0166193
759.937	0.0166454
760.015	0.0166484
760.093	0.0166148
760.171	0.0166860
760.249	0.0168059
760.328	0.0167179
760.406	0.0167017
760.484	0.0167666
760.562	0.0168732
760.640	0.0167816
760.718	0.0167834
760.796	0.0168067
760.874	0.0167891
760.953	0.0168355
761.031	0.0167854
761.109	0.0167926
761.187	0.0167869
761.265	0.0167914
761.343	0.0167883
761.421	0.0168065
761.499	0.0167776
761.578	0.0167503
761.656	0.0166019
761.734	0.0166879
761.812	0.0167489
761.890	0.0166692
761.968	0.0167030
762.046	0.0166862
762.124	0.0164819
762.203	0.0165063
762.281	0.0165511
762.359	0.0165472
762.437	0.0165397
762.515	0.0167376
762.593	0.0165272
762.671	0.0165059
762.749	0.0166043
762.828	0.0164544
762.906	0.0164749
762.984	0.0165296
763.062	0.0164576
763.140	0.0165153
763.218	0.0164713
763.296	0.0163406
763.374	0.0164202
763.453	0.0164415
763.531	0.0164742
763.609	0.0163731
763.687	0.0165831
763.765	0.0166300
763.843	0.0164494
763.921	0.0164421
763.999	0.0164299
764.078	0.0165144
764.156	0.0165755
764.234	0.0163998
764.312	0.0166708
764.390	0.0166361
764.468	0.0165977
764.546	0.0167035
764.624	0.0165244
764.703	0.0166714
764.781	0.0168114
764.859	0.0167507
764.937	0.0168921
765.015	0.0169351
765.093	0.0166653
765.171	0.0167548
765.249	0.0168350
765.328	0.0167966
765.406	0.0167294
765.484	0.0170065
765.562	0.0169898
765.640	0.0168967
765.718	0.0168642
765.796	0.0168407
765.874	0.0168176
765.953	0.0168799
766.031	0.0168316
766.109	0.0167976
766.187	0.0167369
766.265	0.0168031
766.343	0.0167007
766.421	0.0167049
766.499	0.0165157
766.578	0.0163985
766.656	0.0163947
766.734	0.0163669
766.812	0.0163845
766.890	0.0163072
766.968	0.0162137
767.046	0.0162692
767.124	0.0163291
767.203	0.0161607
767.281	0.0162624
767.359	0.0161442
767.437	0.0161794
767.515	0.0161558
767.593	0.0161749
767.671	0.0161579
767.749	0.0163243
767.828	0.0163593
767.906	0.0162991
767.984	0.0165798
768.062	0.0166286
768.140	0.0165840
768.218	0.0166730
768.296	0.0166814
768.374	0.0167740
768.453	0.0168328
768.531	0.0168452
768.609	0.0169133
768.687	0.0168458
768.765	0.0169196
768.843	0.0167700
768.921	0.0168591
768.999	0.0168831
769.078	0.0166492
769.156	0.0167075
769.234	0.0169024
769.312	0.0168843
769.390	0.0167194
769.468	0.0166983
769.546	0.0166608
769.624	0.0165382
769.703	0.0165997
769.781	0.0165441
769.859	0.0165647
769.937	0.0162770
770.015	0.0163851
770.093	0.0162333
770.171	0.0162573
770.249	0.0162975
770.328	0.0163167
770.406	0.0163465
770.484	0.0163022
770.562	0.0163416
770.640	0.0162904
770.718	0.0162881
770.796	0.0164430
770.874	0.0163808
770.953	0.0164587
771.031	0.0164456
771.109	0.0165329
771.187	0.0164047
771.265	0.0165142
771.343	0.0163880
771.421	0.0166681
771.499	0.0167481
771.578	0.0166921
771.656	0.0167085
771.734	0.0168049
771.812	0.0167238
771.890	0.0167898
771.968	0.0165081
772.046	0.0166455
772.124	0.0166743
772.203	0.0166073
772.281	0.0164151
772.359	0.0164838
772.437	0.0164680
772.515	0.0164717
772.593	0.0164682
772.671	0.0165739
772.749	0.0165019
772.828	0.0166685
772.906	0.0165794
772.984	0.0166705
773.062	0.0167509
773.140	0.0167734
773.218	0.0168246
773.296	0.0168453
773.374	0.0169456
773.453	0.0168471
773.531	0.0168434
773.609	0.0169532
773.687	0.0169436
773.765	0.0168632
773.843	0.0167085
773.921	0.0168150
773.999	0.0168049
774.078	0.0165584
774.156	0.0165742
774.234	0.0166264
774.312	0.0165302
774.390	0.0163397
774.468	0.0163160
774.546	0.0161227
774.624	0.0162051
774.703	0.0161428
774.781	0.0162090
774.859	0.0161911
774.937	0.0161987
775.015	0.0160921
775.093	0.0161082
775.171	0.0161761
775.249	0.0162379
775.328	0.0161985
775.406	0.0163667
775.484	0.0160880
775.562	0.0161078
775.640	0.0162630
775.718	0.0163306
775.796	0.0163852
775.874	0.0165267
775.953	0.0166164
776.031	0.0167162
776.109	0.0168214
776.187	0.0167677
776.265	0.0170318
776.343	0.0170377
776.421	0.0169014
776.499	0.0169583
776.578	0.0170172
776.656	0.0169300
776.734	0.0170659
776.812	0.0169147
776.890	0.0168670
776.968	0.0169020
777.046	0.0168102
777.124	0.0169399
777.203	0.0168604
777.281	0.0167516
777.359	0.0166760
777.437	0.0166911
777.515	0.0167423
777.593	0.0167936
777.671	0.0165338
777.749	0.0165956
777.828	0.0165517
777.906	0.0164507
777.984	0.0165414
778.062	0.0164834
778.140	0.0164214
778.218	0.0164665
778.296	0.0164854
778.374	0.0164367
778.453	0.0164557
778.531	0.0165355
778.609	0.0165423
778.687	0.0164761
778.765	0.0165307
778.843	0.0165557
778.921	0.0165639
778.999	0.0164161
779.078	0.0163732
779.156	0.0164584
779.234	0.0165539
779.312	0.0164780
779.390	0.0163184
779.468	0.0163866
779.546	0.0163663
779.624	0.0163641
779.703	0.0163181
779.781	0.0164252
779.859	0.0162487
779.937	0.0162721
780.015	0.0162385
780.093	0.0162688
780.171	0.0163850
780.249	0.0162045
780.328	0.0162605
780.406	0.0162659
780.484	0.0164128
780.562	0.0165973
780.640	0.0166888
780.718	0.0166761
780.796	0.0167377
780.874	0.0168333
780.953	0.0168513
781.031	0.0168864
781.109	0.0169002
781.187	0.0168826
781.265	0.0170979
781.343	0.0170193
781.421	0.0169115
781.499	0.0170901
781.578	0.0170171
781.656	0.0169648
781.734	0.0169973
781.812	0.0169353
781.890	0.0168844
781.968	0.0168219
782.046	0.0167799
782.124	0.0165445
782.203	0.0164571
782.281	0.0164233
782.359	0.0163042
782.437	0.0160813
782.515	0.0160381
782.593	0.0161687
782.671	0.0161948
782.749	0.0160420
782.828	0.0161678
782.906	0.0162117
782.984	0.0161218
783.062	0.0161767
783.140	0.0161944
783.218	0.0162437
783.296	0.0163329
783.374	0.0163407
783.453	0.0164356
783.531	0.0165602
783.609	0.0165446
783.687	0.0166463
783.765	0.0166309
783.843	0.0165316
783.921	0.0167481
783.999	0.0167810
784.078	0.0169286
784.156	0.0169013
784.234	0.0169292
784.312	0.0169853
784.390	0.0168359
784.468	0.0169794
784.546	0.0169685
784.624	0.0168919
784.703	0.0169289
784.781	0.0169026
784.859	0.0169003
784.937	0.0168755
785.015	0.0166059
785.093	0.0167999
785.171	0.0166696
785.249	0.0165744
785.328	0.0164964
785.406	0.0164512
785.484	0.0163714
785.562	0.0163377
785.640	0.0162950
785.718	0.0161193
785.796	0.0162109
785.874	0.0162410
785.953	0.0163304
786.031	0.0161793
786.109	0.0161461
786.187	0.0162394
786.265	0.0162923
786.343	0.0161417
786.421	0.0161626
786.499	0.0161330
786.578	0.0161229
786.656	0.0163070
786.734	0.0163593
786.812	0.0162272
786.890	0.0163465
786.968	0.0162300
787.046	0.0163168
787.124	0.0166391
787.203	0.0165082
787.281	0.0164536
787.359	0.0165143
787.437	0.0167139
787.515	0.0165736
787.593	0.0165873
787.671	0.0165347
787.749	0.0166050
787.828	0.0167361
787.906	0.0165060
787.984	0.0167258
788.062	0.0168514
788.140	0.0167099
788.218	0.0168114
788.296	0.0168571
788.374	0.0166499
788.453	0.0169298
788.531	0.0167558
788.609	0.0170119
788.687	0.0169363
788.765	0.0169616
788.843	0.0168860
788.921	0.0169987
788.999	0.0168128
789.078	0.0168242
789.156	0.0168892
789.234	0.0167550
789.312	0.0168097
789.390	0.0167080
789.468	0.0166587
789.546	0.0167329
789.624	0.0166527
789.703	0.0166074
789.781	0.0166138
789.859	0.0165884
789.937	0.0166081
790.015	0.0167349
790.093	0.0165564
790.171	0.0164674
790.249	0.0163322
790.328	0.0163116
790.406	0.0163454
790.484	0.0161308
790.562	0.0160381
790.640	0.0161471
790.718	0.0160099
790.796	0.0159761
790.874	0.0159132
790.953	0.0159481
791.031	0.0160278
791.109	0.0160292
791.187	0.0160144
791.265	0.0162723
791.343	0.0161791
791.421	0.0162981
791.499	0.0163371
791.578	0.0163773
791.656	0.0164449
791.734	0.0166873
791.812	0.0168327
791.890	0.0167368
791.968	0.0168284
792.046	0.0169248
792.124	0.0170589
792.203	0.0169228
792.281	0.0170335
792.359	0.0170949
792.437	0.0172154
792.515	0.0170863
792.593	0.0170958
792.671	0.0170634
792.749	0.0171478
792.828	0.0171867
792.906	0.0170612
792.984	0.0169448
793.062	0.0170056
793.140	0.0168617
793.218	0.0166892
793.296	0.0165948
793.374	0.0163830
793.453	0.0163687
793.531	0.0163334
793.609	0.0162474
793.687	0.0161543
793.765	0.0160815
793.843	0.0160940
793.921	0.0160968
793.999	0.0160573
794.078	0.0160783
794.156	0.0160214
794.234	0.0160452
794.312	0.0160947
794.390	0.0161724
794.468	0.0161560
794.546	0.0163831
794.624	0.0163834
794.703	0.0163477
794.781	0.0165073
794.859	0.0164560
794.937	0.0165903
795.015	0.0167135
795.093	0.0167089
795.171	0.0168382
795.249	0.0169043
795.328	0.0169009
795.406	0.0169381
795.484	0.0169977
795.562	0.0170575
795.640	0.0168416
795.718	0.0168854
795.796	0.0167894
795.874	0.0169821
795.953	0.0166946
796.031	0.0167502
796.109	0.0167545
796.187	0.0167646
796.265	0.0167854
796.343	0.0166188
796.421	0.0165099
796.499	0.0163958
796.578	0.0163736
796.656	0.0164494
796.734	0.0163941
796.812	0.0161240
796.890	0.0161333
796.968	0.0162592
797.046	0.0161946
797.124	0.0160514
797.203	0.0159948
797.281	0.0159647
797.359	0.0159313
797.437	0.0160104
797.515	0.0161197
797.593	0.0160664
797.671	0.0159639
797.749	0.0160787
797.828	0.0161265
797.906	0.0162328
797.984	0.0163794
798.062	0.0163163
798.140	0.0162875
798.218	0.0164925
798.296	0.0164453
798.374	0.0164632
798.453	0.0165257
798.531	0.0165985
798.609	0.0165655
798.687	0.0167275
798.765	0.0166451
798.843	0.0166335
798.921	0.0167115
798.999	0.0167062
799.078	0.0167017
799.156	0.0167934
799.234	0.0167430
799.312	0.0168513
799.390	0.0169557
799.468	0.0169160
799.546	0.0168161
799.624	0.0169554
799.703	0.0169125
799.781	0.0170151
799.859	0.0168538
799.937	0.0168283
800.015	0.0169897
800.093	0.0167210
800.171	0.0168690
800.249	0.0166770
800.328	0.0167015
800.406	0.0167396
800.484	0.0166740
800.562	0.0164481
800.640	0.0166180
800.718	0.0165019
800.796	0.0164468
800.874	0.0163897
800.953	0.0164427
801.031	0.0162840
801.109	0.0160651
801.187	0.0160731
801.265	0.0160706
801.343	0.0161041
801.421	0.0162685
801.499	0.0160226
801.578	0.0160156
801.656	0.0159965
801.734	0.0160164
801.812	0.0160374
801.890	0.0160506
801.968	0.0161478
802.046	0.0160301
802.124	0.0161318
802.203	0.0161098
802.281	0.0162289
802.359	0.0163255
802.437	0.0163498
802.515	0.0164246
802.593	0.0165859
802.671	0.0165709
802.749	0.0165389
802.828	0.0166969
802.906	0.0167278
802.984	0.0168621
803.062	0.0167556
803.140	0.0168847
803.218	0.0168124
803.296	0.0168194
803.374	0.0168110
803.453	0.0168422
803.531	0.0167842
803.609	0.0167753
803.687	0.0167934
803.765	0.0166917
803.843	0.0168047
803.921	0.0168882
803.999	0.0167773
804.078	0.0166993
804.156	0.0167392
804.234	0.0165319
804.312	0.0165369
804.390	0.0165730
804.468	0.0165371
804.546	0.0164417
804.624	0.0163640
804.703	0.0165044
804.781	0.0163601
804.859	0.0164058
804.937	0.0164465
805.015	0.0163245
805.093	0.0164435
805.171	0.0164259
805.249	0.0165218
805.328	0.0165021
805.406	0.0164548
805.484	0.0164569
805.562	0.0166402
805.640	0.0166929
805.718	0.0163932
805.796	0.0165128
805.874	0.0165718
805.953	0.0166328
806.031	0.0166923
806.109	0.0165626
806.187	0.0167020
806.265	0.0166608
806.343	0.0167285
806.421	0.0166005
806.499	0.0165073
806.578	0.0166488
806.656	0.0165636
806.734	0.0165714
806.812	0.0164472
806.890	0.0164551
806.968	0.0164584
807.046	0.0164563
807.124	0.0164242
807.203	0.0164114
807.281	0.0162051
807.359	0.0162084
807.437	0.0162903
807.515	0.0160761
807.593	0.0161799
807.671	0.0161936
807.749	0.0162257
807.828	0.0160390
807.906	0.0161135
807.984	0.0161108
808.062	0.0161150
808.140	0.0161936
808.218	0.0161809
808.296	0.0162430
808.374	0.0164040
808.453	0.0164812
808.531	0.0164883
808.609	0.0163833
808.687	0.0163221
808.765	0.0165368
808.843	0.0165490
808.921	0.0167809
808.999	0.0167467
809.078	0.0167289
809.156	0.0167944
809.234	0.0168216
809.312	0.0167880
809.390	0.0167419
809.468	0.0167448
809.546	0.0169170
809.624	0.0170393
809.703	0.0169544
809.781	0.0167542
809.859	0.0167329
809.937	0.0168303
810.015	0.0168863
810.093	0.0167597
810.171	0.0166532
810.249	0.0167052
810.328	0.0166460
810.406	0.0168138
810.484	0.0167677
810.562	0.0166782
810.640	0.0167506
810.718	0.0166329
810.796	0.0169519
810.874	0.0167844
810.953	0.0168211
811.031	0.0167078
811.109	0.0166779
811.187	0.0166395
811.265	0.0165483
811.343	0.0166235
811.421	0.0165776
811.499	0.0164777
811.578	0.0163982
811.656	0.0164361
811.734	0.0163939
811.812	0.0163490
811.890	0.0164594
811.968	0.0162709
812.046	0.0163597
812.124	0.0164546
812.203	0.0164046
812.281	0.0163300
812.359	0.0163498
812.437	0.0164144
812.515	0.0162168
812.593	0.0163738
812.671	0.0162117
812.749	0.0161747
812.828	0.0163967
812.906	0.0163034
812.984	0.0162704
813.062	0.0164012
813.140	0.0164307
813.218	0.0165253
813.296	0.0165556
813.374	0.0165378
813.453	0.0166437
813.531	0.0166307
813.609	0.0165572
813.687	0.0168514
813.765	0.0168166
813.843	0.0167991
813.921	0.0168826
813.999	0.0169576
814.078	0.0168552
814.156	0.0167435
814.234	0.0168222
814.312	0.0168344
814.390	0.0169326
814.468	0.0168280
814.546	0.0169758
814.624	0.0168925
814.703	0.0168816
814.781	0.0169009
814.859	0.0168200
814.937	0.0168260
815.015	0.0169328
815.093	0.0169257
815.171	0.0169079
815.249	0.0168404
815.328	0.0168602
815.406	0.0168404
815.484	0.0167693
815.562	0.0168805
815.640	0.0169546
815.718	0.0167820
815.796	0.0166392
815.874	0.0167226
815.953	0.0166967
816.031	0.0167686
816.109	0.0166892
816.187	0.0166441
816.265	0.0166277
816.343	0.0165005
816.421	0.0165945
816.499	0.0165582
816.578	0.0164393
816.656	0.0163541
816.734	0.0163684
816.812	0.0163495
816.890	0.0162920
816.968	0.0163719
817.046	0.0163791
817.124	0.0163121
817.203	0.0162379
817.281	0.0161767
817.359	0.0163763
817.437	0.0162653
817.515	0.0161820
817.593	0.0162463
817.671	0.0161849
817.749	0.0163393
817.828	0.0163452
817.906	0.0162955
817.984	0.0163792
818.062	0.0162998
818.140	0.0163438
818.218	0.0162697
818.296	0.0163837
818.374	0.0163721
818.453	0.0164776
818.531	0.0165656
818.609	0.0165685
818.687	0.0164820
818.765	0.0167049
818.843	0.0166985
818.921	0.0166731
818.999	0.0169213
819.078	0.0169929
819.156	0.0168404
819.234	0.0168595
819.312	0.0170626
819.390	0.0170562
819.468	0.0170916
819.546	0.0171822
819.624	0.0169903
819.703	0.0170216
819.781	0.0171197
819.859	0.0169691
819.937	0.0169738
820.015	0.0170020
820.093	0.0169200
820.171	0.0169936
820.249	0.0168375
820.328	0.0168491
820.406	0.0167294
820.484	0.0167940
820.562	0.0165067
820.640	0.0165477
820.718	0.0165977
820.796	0.0165646
820.874	0.0165383
820.953	0.0165430
821.031	0.0163850
821.109	0.0163760
821.187	0.0165261
821.265	0.0163997
821.343	0.0163978
821.421	0.0163779
821.499	0.0163445
821.578	0.0162761
821.656	0.0162848
821.734	0.0163187
821.812	0.0162813
821.890	0.0162809
821.968	0.0162070
822.046	0.0162721
822.124	0.0162476
822.203	0.0162928
822.281	0.0164642
822.359	0.0165469
822.437	0.0164362
822.515	0.0163943
822.593	0.0164333
822.671	0.0164732
822.749	0.0165475
822.828	0.0165389
822.906	0.0165771
822.984	0.0165353
823.062	0.0166707
823.140	0.0166779
823.218	0.0165753
823.296	0.0166445
823.374	0.0167413
823.453	0.0166023
823.531	0.0165646
823.609	0.0165094
823.687	0.0166309
823.765	0.0167197
823.843	0.0167088
823.921	0.0166139
823.999	0.0167999
824.078	0.0167422
824.156	0.0166586
824.234	0.0168988
824.312	0.0167255
824.390	0.0168970
824.468	0.0169560
824.546	0.0168548
824.624	0.0168127
824.703	0.0168446
824.781	0.0167726
824.859	0.0167457
824.937	0.0167442
825.015	0.0166106
825.093	0.0166133
825.171	0.0165285
825.249	0.0166169
825.328	0.0165261
825.406	0.0164877
825.484	0.0165074
825.562	0.0165140
825.640	0.0164276
825.718	0.0164555
825.796	0.0163145
825.874	0.0162551
825.953	0.0161649
826.031	0.0162954
826.109	0.0162750
826.187	0.0162511
826.265	0.0162650
826.343	0.0161161
826.421	0.0162464
826.499	0.0162749
826.578	0.0163649
826.656	0.0162614
826.734	0.0163537
826.812	0.0164489
826.890	0.0166537
826.968	0.0166605
827.046	0.0165918
827.124	0.0166729
827.203	0.0167633
827.281	0.0167476
827.359	0.0169555
827.437	0.0167966
827.515	0.0168089
827.593	0.0168056
827.671	0.0168751
827.749	0.0169952
827.828	0.0167741
827.906	0.0167982
827.984	0.0169078
828.062	0.0167133
828.140	0.0165751
828.218	0.0166541
828.296	0.0164381
828.374	0.0165395
828.453	0.0165478
828.531	0.0163412
828.609	0.0162133
828.687	0.0161176
828.765	0.0160290
828.843	0.0160207
828.921	0.0160365
828.999	0.0159812
829.078	0.0160046
829.156	0.0159702
829.234	0.0160095
829.312	0.0160585
829.390	0.0159707
829.468	0.0163068
829.546	0.0161929
829.624	0.0162572
829.703	0.0164352
829.781	0.0165162
829.859	0.0166151
829.937	0.0166318
830.015	0.0165536
830.093	0.0168128
830.171	0.0168652
830.249	0.0169859
830.328	0.0170573
830.406	0.0169899
830.484	0.0171193
830.562	0.0169997
830.640	0.0171262
830.718	0.0171824
830.796	0.0172758
830.874	0.0171305
830.953	0.0170169
831.031	0.0171090
831.109	0.0171598
831.187	0.0170211
831.265	0.0170875
831.343	0.0170206
831.421	0.0169224
831.499	0.0169785
831.578	0.0168258
831.656	0.0167345
831.734	0.0166757
831.812	0.0165958
831.890	0.0165155
831.968	0.0165038
832.046	0.0164737
832.124	0.0163685
832.203	0.0163759
832.281	0.0162912
832.359	0.0162697
832.437	0.0164230
832.515	0.0163377
832.593	0.0163796
832.671	0.0162745
832.749	0.0162369
832.828	0.0161568
832.906	0.0161372
832.984	0.0164278
833.062	0.0163966
833.140	0.0164528
833.218	0.0164388
833.296	0.0163319
833.374	0.0163578
833.453	0.0165195
833.531	0.0164346
833.609	0.0163912
833.687	0.0165079
833.765	0.0163718
833.843	0.0165576
833.921	0.0165599
833.999	0.0164278
834.078	0.0164777
834.156	0.0164964
834.234	0.0164508
834.312	0.0165993
834.390	0.0165608
834.468	0.0167386
834.546	0.0167441
834.624	0.0167315
834.703	0.0167940
834.781	0.0168639
834.859	0.0167609
834.937	0.0168386
835.015	0.0169211
835.093	0.0169127
835.171	0.0168787
835.249	0.0169518
835.328	0.0168912
835.406	0.0169971
835.484	0.0170651
835.562	0.0168706
835.640	0.0170882
835.718	0.0171143
835.796	0.0170358
835.874	0.0170360
835.953	0.0169071
836.031	0.0168315
836.109	0.0167229
836.187	0.0167184
836.265	0.0168091
836.343	0.0166846
836.421	0.0165598
836.499	0.0165880
836.578	0.0164148
836.656	0.0163239
836.734	0.0162514
836.812	0.0162476
836.890	0.0162003
836.968	0.0162173
837.046	0.0162554
837.124	0.0159817
837.203	0.0160948
837.281	0.0160713
837.359	0.0161514
837.437	0.0161756
837.515	0.0162421
837.593	0.0160863
837.671	0.0161743
837.749	0.0163354
837.828	0.0163858
837.906	0.0163781
837.984	0.0164206
838.062	0.0165014
838.140	0.0166334
838.218	0.0165983
838.296	0.0166846
838.374	0.0167697
838.453	0.0167908
838.531	0.0168122
838.609	0.0168277
838.687	0.0169639
838.765	0.0168739
838.843	0.0169659
838.921	0.0171099
838.999	0.0170354
839.078	0.0170918
839.156	0.0170655
839.234	0.0169312
839.312	0.0170687
839.390	0.0170547
839.468	0.0169406
839.546	0.0170922
839.624	0.0168879
839.703	0.0167578
839.781	0.0166123
839.859	0.0167010
839.937	0.0166779
840.015	0.0165652
840.093	0.0165533
840.171	0.0163557
840.249	0.0163174
840.328	0.0164177
840.406	0.0162818
840.484	0.0162021
840.562	0.0163097
840.640	0.0163484
840.718	0.0163428
840.796	0.0162807
840.874	0.0163393
840.953	0.0163949
841.031	0.0164869
841.109	0.0165019
841.187	0.0165873
841.265	0.0164999
841.343	0.0167179
841.421	0.0167097
841.499	0.0167448
841.578	0.0167613
841.656	0.0166600
841.734	0.0166026
841.812	0.0167648
841.890	0.0167908
841.968	0.0167313
842.046	0.0167534
842.124	0.0169581
842.203	0.0168231
842.281	0.0168874
842.359	0.0169382
842.437	0.0169359
842.515	0.0168311
842.593	0.0167993
842.671	0.0168774
842.749	0.0169395
842.828	0.0168845
842.906	0.0167751
842.984	0.0168149
843.062	0.0166875
843.140	0.0166908
843.218	0.0166029
843.296	0.0167218
843.374	0.0166557
843.453	0.0165803
843.531	0.0167000
843.609	0.0164317
843.687	0.0164108
843.765	0.0163264
843.843	0.0164268
843.921	0.0164690
843.999	0.0164991
844.078	0.0164044
844.156	0.0163882
844.234	0.0163813
844.312	0.0163881
844.390	0.0163110
844.468	0.0164512
844.546	0.0163851
844.624	0.0165475
844.703	0.0164797
844.781	0.0164474
844.859	0.0164471
844.937	0.0166547
845.015	0.0166109
845.093	0.0165335
845.171	0.0167693
845.249	0.0166483
845.328	0.0166516
845.406	0.0167164
845.484	0.0168011
845.562	0.0167581
845.640	0.0167113
845.718	0.0166805
845.796	0.0167684
845.874	0.0167664
845.953	0.0166840
846.031	0.0166804
846.109	0.0166689
846.187	0.0166958
846.265	0.0166766
846.343	0.0166975
846.421	0.0167872
846.499	0.0167957
846.578	0.0167697
846.656	0.0166553
846.734	0.0167142
846.812	0.0168229
846.890	0.0166949
846.968	0.0166225
847.046	0.0167107
847.124	0.0168046
847.203	0.0165421
847.281	0.0165777
847.359	0.0165097
847.437	0.0165694
847.515	0.0164570
847.593	0.0165073
847.671	0.0163457
847.749	0.0164005
847.828	0.0163640
847.906	0.0164043
847.984	0.0163463
848.062	0.0162643
848.140	0.0163389
848.218	0.0163748
848.296	0.0163871
848.374	0.0164190
848.453	0.0163763
848.531	0.0164327
848.609	0.0164742
848.687	0.0164494
848.765	0.0165102
848.843	0.0166045
848.921	0.0164967
848.999	0.0166083
849.078	0.0166524
849.156	0.0164572
849.234	0.0166380
849.312	0.0166743
849.390	0.0166415
849.468	0.0167821
849.546	0.0165161
849.624	0.0166582
849.703	0.0166460
849.781	0.0166411
849.859	0.0164730
849.937	0.0166310
850.015	0.0166390
850.093	0.0167544
850.171	0.0165795
850.249	0.0166196
850.328	0.0165221
850.406	0.0164639
850.484	0.0165147
850.562	0.0164468
850.640	0.0164733
850.718	0.0165228
850.796	0.0164069
850.874	0.0165118
850.953	0.0164181
851.031	0.0163809
851.109	0.0163497
851.187	0.0163721
851.265	0.0164632
851.343	0.0166173
851.421	0.0165060
851.499	0.0165375
851.578	0.0165202
851.656	0.0165102
851.734	0.0165962
851.812	0.0165559
851.890	0.0165057
851.968	0.0165575
852.046	0.0166262
852.124	0.0167283
852.203	0.0166451
852.281	0.0166084
852.359	0.0165827
852.437	0.0167615
852.515	0.0168230
852.593	0.0166768
852.671	0.0166397
852.749	0.0165314
852.828	0.0167168
852.906	0.0166308
852.984	0.0165693
853.062	0.0166599
853.140	0.0166186
853.218	0.0165137
853.296	0.0166725
853.374	0.0165158
853.453	0.0166072
853.531	0.0166429
853.609	0.0164499
853.687	0.0165662
853.765	0.0165966
853.843	0.0166486
853.921	0.0165205
853.999	0.0166541
854.078	0.0166030
854.156	0.0166088
854.234	0.0167203
854.312	0.0166169
854.390	0.0166048
854.468	0.0167071
854.546	0.0165703
854.624	0.0166570
854.703	0.0167423
854.781	0.0167395
854.859	0.0167816
854.937	0.0166941
855.015	0.0167915
855.093	0.0165849
855.171	0.0167752
855.249	0.0166747
855.328	0.0167486
855.406	0.0165955
855.484	0.0165898
855.562	0.0165980
855.640	0.0166067
855.718	0.0164828
855.796	0.0164405
855.874	0.0164825
855.953	0.0164993
856.031	0.0165356
856.109	0.0164151
856.187	0.0164944
856.265	0.0163638
856.343	0.0163472
856.421	0.0164288
856.499	0.0164632
856.578	0.0163490
856.656	0.0164777
856.734	0.0167439
856.812	0.0166790
856.890	0.0165134
856.968	0.0165022
857.046	0.0164544
857.124	0.0165601
857.203	0.0165717
857.281	0.0166231
857.359	0.0166581
857.437	0.0166032
857.515	0.0166652
857.593	0.0167577
857.671	0.0167348
857.749	0.0168157
857.828	0.0167001
857.906	0.0167127
857.984	0.0167888
858.062	0.0166822
858.140	0.0166170
858.218	0.0168510
858.296	0.0167522
858.374	0.0167538
858.453	0.0165241
858.531	0.0166528
858.609	0.0165759
858.687	0.0166756
858.765	0.0166068
858.843	0.0165112
858.921	0.0164597
858.999	0.0164575
859.078	0.0167482
859.156	0.0166158
859.234	0.0166431
859.312	0.0165263
859.390	0.0163933
859.468	0.0166059
859.546	0.0165737
859.624	0.0166360
859.703	0.0164266
859.781	0.0164587
859.859	0.0164876
859.937	0.0166271
860.015	0.0164754
860.093	0.0165475
860.171	0.0164532
860.249	0.0164923
860.328	0.0165686
860.406	0.0165206
860.484	0.0166270
860.562	0.0166245
860.640	0.0166356
860.718	0.0164532
860.796	0.0164557
860.874	0.0166874
860.953	0.0168044
861.031	0.0165455
861.109	0.0166102
861.187	0.0166724
861.265	0.0166580
861.343	0.0166440
861.421	0.0166135
861.499	0.0166388
861.578	0.0166383
861.656	0.0167299
861.734	0.0167761
861.812	0.0166060
861.890	0.0166144
861.968	0.0164735
862.046	0.0166103
862.124	0.0165932
862.203	0.0165434
862.281	0.0165402
862.359	0.0164203
862.437	0.0163844
862.515	0.0165780
862.593	0.0166557
862.671	0.0163775
862.749	0.0164693
862.828	0.0165338
862.906	0.0164743
862.984	0.0164421
863.062	0.0166295
863.140	0.0168382
863.218	0.0165733
863.296	0.0166241
863.374	0.0167458
863.453	0.0167058
863.531	0.0167484
863.609	0.0166782
863.687	0.0166660
863.765	0.0165577
863.843	0.0165591
863.921	0.0166560
863.999	0.0166191
864.078	0.0167467
864.156	0.0166313
864.234	0.0166040
864.312	0.0166631
864.390	0.0165591
864.468	0.0163959
864.546	0.0164923
864.624	0.0165881
864.703	0.0165829
864.781	0.0165450
864.859	0.0165042
864.937	0.0166016
865.015	0.0164670
865.093	0.0166233
865.171	0.0164514
865.249	0.0164885
865.328	0.0165869
865.406	0.0164784
865.484	0.0164434
865.562	0.0164210
865.640	0.0166216
865.718	0.0165450
865.796	0.0165310
865.874	0.0165123
865.953	0.0166634
866.031	0.0166675
866.109	0.0165168
866.187	0.0165092
866.265	0.0164749
866.343	0.0166326
866.421	0.0165576
866.499	0.0166081
866.578	0.0167210
866.656	0.0165694
866.734	0.0166841
866.812	0.0165469
866.890	0.0166785
866.968	0.0164541
867.046	0.0165627
867.124	0.0165199
867.203	0.0164190
867.281	0.0165247
867.359	0.0165774
867.437	0.0164691
867.515	0.0163804
867.593	0.0164414
867.671	0.0165236
867.749	0.0163734
867.828	0.0164757
867.906	0.0164845
867.984	0.0165025
868.062	0.0162869
868.140	0.0163351
868.218	0.0164199
868.296	0.0164384
868.374	0.0164602
868.453	0.0164166
868.531	0.0164280
868.609	0.0164404
868.687	0.0165546
868.765	0.0165156
868.843	0.0165428
868.921	0.0165652
868.999	0.0165715
869.078	0.0165337
869.156	0.0166425
869.234	0.0165839
869.312	0.0165839
869.390	0.0167649
869.468	0.0165525
869.546	0.0165990
869.624	0.0165698
869.703	0.0166484
869.781	0.0166235
869.859	0.0165837
869.937	0.0166909
870.015	0.0167031
870.093	0.0166277
870.171	0.0166473
870.249	0.0165487
870.328	0.0165938
870.406	0.0165611
870.484	0.0165500
870.562	0.0166557
870.640	0.0166958
870.718	0.0166969
870.796	0.0166821
870.874	0.0166396
870.953	0.0166467
871.031	0.0165345
871.109	0.0165188
871.187	0.0165375
871.265	0.0165056
871.343	0.0165450
871.421	0.0165850
871.499	0.0164042
871.578	0.0165058
871.656	0.0165733
871.734	0.0163309
871.812	0.0164317
871.890	0.0163993
871.968	0.0163525
872.046	0.0164030
872.124	0.0163940
872.203	0.0164051
872.281	0.0165862
872.359	0.0164513
872.437	0.0164969
872.515	0.0163809
872.593	0.0164571
872.671	0.0166130
872.749	0.0164680
872.828	0.0164635
872.906	0.0165250
872.984	0.0166025
873.062	0.0166563
873.140	0.0165130
873.218	0.0166167
873.296	0.0166763
873.374	0.0165894
873.453	0.0165724
873.531	0.0167383
873.609	0.0165837
873.687	0.0166742
873.765	0.0166985
873.843	0.0166876
873.921	0.0165096
873.999	0.0164877
874.078	0.0165663
874.156	0.0166605
874.234	0.0165423
874.312	0.0165296
874.390	0.0166186
874.468	0.0164645
874.546	0.0164098
874.624	0.0163633
874.703	0.0165016
874.781	0.0165044
874.859	0.0165623
874.937	0.0164452
875.015	0.0165358
875.093	0.0165788
875.171	0.0165231
875.249	0.0165576
875.328	0.0166815
875.406	0.0164844
875.484	0.0166917
875.562	0.0165186
875.640	0.0165815
875.718	0.0165987
875.796	0.0165771
875.874	0.0167245
875.953	0.0167062
876.031	0.0166513
876.109	0.0167323
876.187	0.0167180
876.265	0.0166219
876.343	0.0167305
876.421	0.0164467
876.499	0.0166798
876.578	0.0166292
876.656	0.0165203
876.734	0.0165369
876.812	0.0165815
876.890	0.0164706
876.968	0.0164146
877.046	0.0164514
877.124	0.0163546
877.203	0.0163879
877.281	0.0165005
877.359	0.0164169
877.437	0.0164860
877.515	0.0164226
877.593	0.0163505
877.671	0.0165761
877.749	0.0163724
877.828	0.0163033
877.906	0.0165022
877.984	0.0164951
878.062	0.0165135
878.140	0.0163448
878.218	0.0166454
878.296	0.0166821
878.374	0.0166560
878.453	0.0166399
878.531	0.0167339
878.609	0.0166993
878.687	0.0166875
878.765	0.0166902
878.843	0.0167875
878.921	0.0166660
878.999	0.0167004
879.078	0.0167920
879.156	0.0166994
879.234	0.0167225
879.312	0.0167950
879.390	0.0165950
879.468	0.0166257
879.546	0.0166272
879.624	0.0166625
879.703	0.0165675
879.781	0.0165405
879.859	0.0164896
879.937	0.0164690
880.015	0.0164681
880.093	0.0164547
880.171	0.0165685
880.249	0.0165432
880.328	0.0163567
880.406	0.0164510
880.484	0.0164941
880.562	0.0164854
880.640	0.0164780
880.718	0.0162653
880.796	0.0165426
880.874	0.0164767
880.953	0.0165196
881.031	0.0164593
881.109	0.0163641
881.187	0.0165456
881.265	0.0165291
881.343	0.0164948
881.421	0.0165361
881.499	0.0165607
881.578	0.0166053
881.656	0.0165170
881.734	0.0165496
881.812	0.0165539
881.890	0.0165619
881.968	0.0166139
882.046	0.0165762
882.124	0.0164581
882.203	0.0166029
882.281	0.0165829
882.359	0.0164396
882.437	0.0165051
882.515	0.0165343
882.593	0.0164334
882.671	0.0165038
882.749	0.0165406
882.828	0.0164962
882.906	0.0165324
882.984	0.0166273
883.062	0.0164835
883.140	0.0165608
883.218	0.0164960
883.296	0.0164945
883.374	0.0165827
883.453	0.0166148
883.531	0.0165580
883.609	0.0166435
883.687	0.0167806
883.765	0.0165958
883.843	0.0167069
883.921	0.0167242
883.999	0.0166554
884.078	0.0167633
884.156	0.0165862
884.234	0.0167907
884.312	0.0166875
884.390	0.0166843
884.468	0.0167089
884.546	0.0166921
884.624	0.0168837
884.703	0.0168305
884.781	0.0166529
884.859	0.0166410
884.937	0.0166707
885.015	0.0165951
885.093	0.0166837
885.171	0.0166351
885.249	0.0166379
885.328	0.0165759
885.406	0.0166380
885.484	0.0165302
885.562	0.0166553
885.640	0.0167607
885.718	0.0164863
885.796	0.0166283
885.874	0.0165384
885.953	0.0166763
886.031	0.0165431
886.109	0.0165112
886.187	0.0165471
886.265	0.0165050
886.343	0.0164174
886.421	0.0165323
886.499	0.0164745
886.578	0.0164185
886.656	0.0165316
886.734	0.0165576
886.812	0.0166512
886.890	0.0164941
886.968	0.0165253
887.046	0.0165333
887.124	0.0165603
887.203	0.0165992
887.281	0.0165734
887.359	0.0164248
887.437	0.0164757
887.515	0.0165028
887.593	0.0165043
887.671	0.0165442
887.749	0.0165461
887.828	0.0165733
887.906	0.0164901
887.984	0.0165060
888.062	0.0163547
888.140	0.0165269
888.218	0.0165518
888.296	0.0163485
888.374	0.0165761
888.453	0.0166615
888.531	0.0165778
888.609	0.0164182
888.687	0.0164339
888.765	0.0164889
888.843	0.0165324
888.921	0.0166486
888.999	0.0165987
889.078	0.0165018
889.156	0.0166262
889.234	0.0167056
889.312	0.0165418
889.390	0.0167390
889.468	0.0166644
889.546	0.0167542
889.624	0.0167283
889.703	0.0166683
889.781	0.0166670
889.859	0.0166588
889.937	0.0167489
890.015	0.0167819
890.093	0.0167632
890.171	0.0168154
890.249	0.0166203
890.328	0.0165411
890.406	0.0166274
890.484	0.0165355
890.562	0.0165112
890.640	0.0165090
890.718	0.0166597
890.796	0.0164275
890.874	0.0164967
890.953	0.0165511
891.031	0.0165304
891.109	0.0164499
891.187	0.0163670
891.265	0.0164066
891.343	0.0164325
891.421	0.0163071
891.499	0.0164772
891.578	0.0163910
891.656	0.0163189
891.734	0.0162966
891.812	0.0163571
891.890	0.0164217
891.968	0.0164232
892.046	0.0164422
892.124	0.0165708
892.203	0.0164623
892.281	0.0164866
892.359	0.0163789
892.437	0.0165074
892.515	0.0166745
892.593	0.0167391
892.671	0.0165019
892.749	0.0165390
892.828	0.0165701
892.906	0.0166641
892.984	0.0166506
893.062	0.0165915
893.140	0.0164703
893.218	0.0166456
893.296	0.0165732
893.374	0.0166526
893.453	0.0166438
893.531	0.0166364
893.609	0.0165674
893.687	0.0166222
893.765	0.0165868
893.843	0.0165647
893.921	0.0166631
893.999	0.0165630
894.078	0.0165607
894.156	0.0167503
894.234	0.0165973
894.312	0.0165643
894.390	0.0165407
894.468	0.0164845
894.546	0.0165672
894.624	0.0165987
894.703	0.0165394
894.781	0.0164753
894.859	0.0164699
894.937	0.0164907
895.015	0.0165108
895.093	0.0165315
895.171	0.0165395
895.249	0.0166776
895.328	0.0166747
895.406	0.0165549
895.484	0.0166257
895.562	0.0164931
895.640	0.0167497
895.718	0.0166183
895.796	0.0166401
895.874	0.0165768
895.953	0.0167085
896.031	0.0167893
896.109	0.0165831
896.187	0.0165834
896.265	0.0167615
896.343	0.0166342
896.421	0.0166394
896.499	0.0166959
896.578	0.0166142
896.656	0.0165411
896.734	0.0166840
896.812	0.0166558
896.890	0.0166331
896.968	0.0166927
897.046	0.0167178
897.124	0.0167470
897.203	0.0166448
897.281	0.0164153
897.359	0.0165760
897.437	0.0165803
897.515	0.0165280
897.593	0.0165629
897.671	0.0165691
897.749	0.0164426
897.828	0.0164075
897.906	0.0167554
897.984	0.0165120
898.062	0.0165009
898.140	0.0166048
898.218	0.0165239
898.296	0.0164124
898.374	0.0165240
898.453	0.0166186
898.531	0.0165472
898.609	0.0165098
898.687	0.0165462
898.765	0.0165802
898.843	0.0166737
898.921	0.0165084
898.999	0.0165847
899.078	0.0166100
899.156	0.0166830
899.234	0.0167010
899.312	0.0166471
899.390	0.0166019
899.468	0.0166808
899.546	0.0166642
899.624	0.0165275
899.703	0.0166267
899.781	0.0166148
899.859	0.0168053
899.937	0.0166448
900.015	0.0167886
900.093	0.0165546
900.171	0.0167532
900.249	0.0168124
900.328	0.0166342
900.406	0.0165868
900.484	0.0167119
900.562	0.0167699
900.640	0.0165472
900.718	0.0165479
900.796	0.0165372
900.874	0.0166173
900.953	0.0166222
901.031	0.0164746
901.109	0.0165834
901.187	0.0165184
901.265	0.0165923
901.343	0.0165619
901.421	0.0165637
901.499	0.0165652
901.578	0.0165365
901.656	0.0164738
901.734	0.0166191
901.812	0.0164946
901.890	0.0165187
901.968	0.0164833
902.046	0.0166119
902.124	0.0165349
902.203	0.0164512
902.281	0.0165828
902.359	0.0167421
902.437	0.0165752
902.515	0.0165003
902.593	0.0167447
902.671	0.0166214
902.749	0.0166276
902.828	0.0166779
902.906	0.0165415
902.984	0.0165599
903.062	0.0166270
903.140	0.0165428
903.218	0.0164951
903.296	0.0166196
903.374	0.0165529
903.453	0.0165987
903.531	0.0165912
903.609	0.0165923
903.687	0.0167346
903.765	0.0165855
903.843	0.0165980
903.921	0.0166060
903.999	0.0166832
904.078	0.0165148
904.156	0.0165668
904.234	0.0165752
904.312	0.0165707
904.390	0.0164708
904.468	0.0165407
904.546	0.0165862
904.624	0.0165654
904.703	0.0164044
904.781	0.0165606
904.859	0.0164396
904.937	0.0165222
905.015	0.0165770
905.093	0.0165900
905.171	0.0166353
905.249	0.0164564
905.328	0.0165446
905.406	0.0164500
905.484	0.0166612
905.562	0.0166582
905.640	0.0166962
905.718	0.0165681
905.796	0.0165275
905.874	0.0165033
905.953	0.0165709
906.031	0.0166372
906.109	0.0165404
906.187	0.0165526
906.265	0.0165731
906.343	0.0165811
906.421	0.0166345
906.499	0.0165990
906.578	0.0165584
906.656	0.0165562
906.734	0.0165988
906.812	0.0166470
906.890	0.0166256
906.968	0.0166274
907.046	0.0167584
907.124	0.0166991
907.203	0.0166363
907.281	0.0166453
907.359	0.0165865
907.437	0.0165918
907.515	0.0166148
907.593	0.0167007
907.671	0.0165835
907.749	0.0166284
907.828	0.0164606
907.906	0.0166123
907.984	0.0166680
908.062	0.0166389
908.140	0.0165096
908.218	0.0165500
908.296	0.0165829
908.374	0.0166267
908.453	0.0165855
908.531	0.0166036
908.609	0.0165370
908.687	0.0166750
908.765	0.0165456
908.843	0.0164457
908.921	0.0166059
908.999	0.0166068
909.078	0.0164727
909.156	0.0165274
909.234	0.0164684
909.312	0.0164913
909.390	0.0164824
909.468	0.0165121
909.546	0.0164964
909.624	0.0163486
909.703	0.0165301
909.781	0.0166976
909.859	0.0165237
909.937	0.0166634
910.015	0.0166449
910.093	0.0165779
910.171	0.0167102
910.249	0.0166482
910.328	0.0166369
910.406	0.0166787
910.484	0.0166116
910.562	0.0165934
910.640	0.0165200
910.718	0.0165007
910.796	0.0167286
910.874	0.0166779
910.953	0.0165781
911.031	0.0165642
911.109	0.0165748
911.187	0.0164903
911.265	0.0166978
911.343	0.0166953
911.421	0.0165272
911.499	0.0167246
911.578	0.0165031
911.656	0.0165073
911.734	0.0165404
911.812	0.0164856
911.890	0.0165444
911.968	0.0165392
912.046	0.0166758
912.124	0.0166063
912.203	0.0166799
912.281	0.0166000
912.359	0.0167371
912.437	0.0165849
912.515	0.0165901
912.593	0.0166776
912.671	0.0166248
912.749	0.0165665
912.828	0.0166487
912.906	0.0167658
912.984	0.0166351
913.062	0.0166700
913.140	0.0167804
913.218	0.0165966
913.296	0.0166960
913.374	0.0167941
913.453	0.0165070
913.531	0.0166103
913.609	0.0166562
913.687	0.0167130
913.765	0.0166534
913.843	0.0165746
913.921	0.0166028
913.999	0.0166953
914.078	0.0167252
914.156	0.0167561
914.234	0.0165261
914.312	0.0166898
914.390	0.0167652
914.468	0.0166710
914.546	0.0166812
914.624	0.0166071
914.703	0.0166326
914.781	0.0167052
914.859	0.0165710
914.937	0.0167126
915.015	0.0166637
915.093	0.0166295
915.171	0.0166908
915.249	0.0165924
915.328	0.0166079
915.406	0.0167266
915.484	0.0167136
915.562	0.0167012
915.640	0.0166924
915.718	0.0167316
915.796	0.0166954
915.874	0.0166881
915.953	0.0165992
916.031	0.0165855
916.109	0.0166647
916.187	0.0166834
916.265	0.0166686
916.343	0.0165784
916.421	0.0166199
916.499	0.0166729
916.578	0.0166616
916.656	0.0167200
916.734	0.0166587
916.812	0.0166689
916.890	0.0166669
916.968	0.0166163
917.046	0.0165449
917.124	0.0165301
917.203	0.0165282
917.281	0.0165948
917.359	0.0166200
917.437	0.0165747
917.515	0.0165486
917.593	0.0164664
917.671	0.0165941
917.749	0.0165850
917.828	0.0165241
917.906	0.0166378
917.984	0.0164953
918.062	0.0165182
918.140	0.0166721
918.218	0.0166683
918.296	0.0165134
918.374	0.0165380
918.453	0.0165844
918.531	0.0166494
918.609	0.0166663
918.687	0.0167735
918.765	0.0166659
918.843	0.0166362
918.921	0.0167333
918.999	0.0166318
919.078	0.0168051
919.156	0.0166988
919.234	0.0167069
919.312	0.0167062
919.390	0.0168789
919.468	0.0167169
919.546	0.0167540
919.624	0.0166841
919.703	0.0167126
919.781	0.0167371
919.859	0.0167656
919.937	0.0166764
