06/10/2022	18:57:45	Ver.	4.1	UNKNOWN
Optical Delay	600.015094	Delta X		0.078125	Sweeps	1	Scan Rate	0/0
Coordinates	Axis 1	NaN	Axis 2	NaN	Axis 3	NaN	Axis 4	NaN	Axis 5	NaN	Axis 6	0.000000
TX Power	0.000000	RX Power	0.000000

600.015	0.0162982
600.093	0.0164436
600.171	0.0165090
600.249	0.0163225
600.328	0.0163222
600.406	0.0163202
600.484	0.0164344
600.562	0.0163112
600.640	0.0162965
600.718	0.0163360
600.796	0.0164792
600.874	0.0163914
600.953	0.0162801
601.031	0.0164612
601.109	0.0165257
601.187	0.0164118
601.265	0.0162949
601.343	0.0162988
601.421	0.0165037
601.499	0.0163331
601.578	0.0163662
601.656	0.0164491
601.734	0.0164644
601.812	0.0164454
601.890	0.0162952
601.968	0.0164436
602.046	0.0164245
602.124	0.0163234
602.203	0.0163249
602.281	0.0163918
602.359	0.0165148
602.437	0.0163820
602.515	0.0164664
602.593	0.0162957
602.671	0.0163654
602.749	0.0162642
602.828	0.0165415
602.906	0.0164912
602.984	0.0163447
603.062	0.0164202
603.140	0.0164031
603.218	0.0164360
603.296	0.0164857
603.374	0.0164064
603.453	0.0163671
603.531	0.0164095
603.609	0.0163740
603.687	0.0163548
603.765	0.0163858
603.843	0.0164299
603.921	0.0164288
603.999	0.0164680
604.078	0.0164250
604.156	0.0164871
604.234	0.0163716
604.312	0.0163428
604.390	0.0163654
604.468	0.0165266
604.546	0.0164568
604.624	0.0165000
604.703	0.0164577
604.781	0.0163545
604.859	0.0164030
604.937	0.0164542
605.015	0.0165572
605.093	0.0165001
605.171	0.0164488
605.249	0.0165166
605.328	0.0164352
605.406	0.0163810
605.484	0.0164207
605.562	0.0165346
605.640	0.0164845
605.718	0.0164777
605.796	0.0163948
605.874	0.0164244
605.953	0.0164167
606.031	0.0164207
606.109	0.0165199
606.187	0.0165055
606.265	0.0164756
606.343	0.0163326
606.421	0.0163472
606.499	0.0164090
606.578	0.0164034
606.656	0.0163605
606.734	0.0162646
606.812	0.0165453
606.890	0.0165010
606.968	0.0164045
607.046	0.0164439
607.124	0.0164631
607.203	0.0164106
607.281	0.0163457
607.359	0.0164158
607.437	0.0163355
607.515	0.0165028
607.593	0.0164748
607.671	0.0165894
607.749	0.0165076
607.828	0.0162790
607.906	0.0162366
607.984	0.0163898
608.062	0.0165894
608.140	0.0164905
608.218	0.0164042
608.296	0.0163734
608.374	0.0163448
608.453	0.0164758
608.531	0.0163078
608.609	0.0164265
608.687	0.0164665
608.765	0.0164195
608.843	0.0163926
608.921	0.0165020
608.999	0.0163488
609.078	0.0163885
609.156	0.0164483
609.234	0.0164192
609.312	0.0163849
609.390	0.0165448
609.468	0.0165656
609.546	0.0164535
609.624	0.0164368
609.703	0.0163280
609.781	0.0165131
609.859	0.0163143
609.937	0.0164059
610.015	0.0164720
610.093	0.0163826
610.171	0.0163784
610.249	0.0163535
610.328	0.0164407
610.406	0.0163470
610.484	0.0164420
610.562	0.0163861
610.640	0.0164393
610.718	0.0164230
610.796	0.0163486
610.874	0.0164130
610.953	0.0164909
611.031	0.0163299
611.109	0.0165403
611.187	0.0164550
611.265	0.0165117
611.343	0.0165293
611.421	0.0163709
611.499	0.0163554
611.578	0.0164530
611.656	0.0163649
611.734	0.0163187
611.812	0.0163703
611.890	0.0164229
611.968	0.0165042
612.046	0.0164667
612.124	0.0163158
612.203	0.0164251
612.281	0.0165379
612.359	0.0164548
612.437	0.0165156
612.515	0.0164375
612.593	0.0164671
612.671	0.0165469
612.749	0.0163841
612.828	0.0166125
612.906	0.0165642
612.984	0.0165364
613.062	0.0164016
613.140	0.0164220
613.218	0.0164435
613.296	0.0163543
613.374	0.0163873
613.453	0.0165620
613.531	0.0165676
613.609	0.0164046
613.687	0.0163920
613.765	0.0165412
613.843	0.0163779
613.921	0.0163847
613.999	0.0166117
614.078	0.0164914
614.156	0.0163882
614.234	0.0163510
614.312	0.0164207
614.390	0.0164880
614.468	0.0164273
614.546	0.0162933
614.624	0.0164610
614.703	0.0163435
614.781	0.0163181
614.859	0.0163070
614.937	0.0164242
615.015	0.0164088
615.093	0.0164240
615.171	0.0163342
615.249	0.0162270
615.328	0.0163789
615.406	0.0161588
615.484	0.0161983
615.562	0.0163300
615.640	0.0164059
615.718	0.0163008
615.796	0.0163976
615.874	0.0162940
615.953	0.0163092
616.031	0.0164010
616.109	0.0163120
616.187	0.0163985
616.265	0.0164294
616.343	0.0164291
616.421	0.0164358
616.499	0.0162978
616.578	0.0164049
616.656	0.0162664
616.734	0.0163799
616.812	0.0163618
616.890	0.0163455
616.968	0.0164021
617.046	0.0163260
617.124	0.0162994
617.203	0.0162115
617.281	0.0162772
617.359	0.0163354
617.437	0.0164221
617.515	0.0162303
617.593	0.0162469
617.671	0.0161041
617.749	0.0162897
617.828	0.0163441
617.906	0.0163606
617.984	0.0162455
618.062	0.0163390
618.140	0.0164108
618.218	0.0163315
618.296	0.0162214
618.374	0.0162269
618.453	0.0164376
618.531	0.0163098
618.609	0.0162859
618.687	0.0163703
618.765	0.0163230
618.843	0.0162045
618.921	0.0162759
618.999	0.0162251
619.078	0.0163129
619.156	0.0162666
619.234	0.0162142
619.312	0.0160747
619.390	0.0162812
619.468	0.0163264
619.546	0.0161527
619.624	0.0161906
619.703	0.0162491
619.781	0.0161922
619.859	0.0162288
619.937	0.0162431
620.015	0.0163174
620.093	0.0162878
620.171	0.0162621
620.249	0.0163243
620.328	0.0161366
620.406	0.0161082
620.484	0.0161488
620.562	0.0163116
620.640	0.0162635
620.718	0.0162010
620.796	0.0161780
620.874	0.0162539
620.953	0.0161098
621.031	0.0162282
621.109	0.0161340
621.187	0.0163582
621.265	0.0162604
621.343	0.0161690
621.421	0.0162437
621.499	0.0163078
621.578	0.0162187
621.656	0.0164253
621.734	0.0162032
621.812	0.0162045
621.890	0.0162127
621.968	0.0162647
622.046	0.0163457
622.124	0.0163811
622.203	0.0163672
622.281	0.0160894
622.359	0.0162379
622.437	0.0162702
622.515	0.0162138
622.593	0.0164785
622.671	0.0163638
622.749	0.0162849
622.828	0.0162814
622.906	0.0164319
622.984	0.0163433
623.062	0.0162830
623.140	0.0162647
623.218	0.0163332
623.296	0.0162606
623.374	0.0162266
623.453	0.0162256
623.531	0.0163474
623.609	0.0163738
623.687	0.0163596
623.765	0.0163805
623.843	0.0163866
623.921	0.0165018
623.999	0.0163510
624.078	0.0164181
624.156	0.0164912
624.234	0.0163564
624.312	0.0164155
624.390	0.0164024
624.468	0.0163990
624.546	0.0164060
624.624	0.0163630
624.703	0.0162502
624.781	0.0163705
624.859	0.0164354
624.937	0.0164842
625.015	0.0163651
625.093	0.0163459
625.171	0.0163972
625.249	0.0163483
625.328	0.0164488
625.406	0.0163509
625.484	0.0164500
625.562	0.0165104
625.640	0.0163451
625.718	0.0163462
625.796	0.0164570
625.874	0.0163782
625.953	0.0164362
626.031	0.0163725
626.109	0.0163261
626.187	0.0165094
626.265	0.0165449
626.343	0.0166392
626.421	0.0165524
626.499	0.0163427
626.578	0.0163318
626.656	0.0163861
626.734	0.0163618
626.812	0.0165002
626.890	0.0165551
626.968	0.0164339
627.046	0.0164227
627.124	0.0164426
627.203	0.0164923
627.281	0.0163391
627.359	0.0164726
627.437	0.0164505
627.515	0.0163808
627.593	0.0164407
627.671	0.0164381
627.749	0.0163152
627.828	0.0164609
627.906	0.0164838
627.984	0.0164694
628.062	0.0163930
628.140	0.0164043
628.218	0.0164223
628.296	0.0163609
628.374	0.0164260
628.453	0.0164153
628.531	0.0162989
628.609	0.0163585
628.687	0.0165520
628.765	0.0165372
628.843	0.0163519
628.921	0.0164223
628.999	0.0164111
629.078	0.0164016
629.156	0.0164003
629.234	0.0163842
629.312	0.0164713
629.390	0.0165956
629.468	0.0165482
629.546	0.0164268
629.624	0.0164700
629.703	0.0164661
629.781	0.0162766
629.859	0.0163328
629.937	0.0164641
630.015	0.0164608
630.093	0.0164428
630.171	0.0163049
630.249	0.0163133
630.328	0.0163942
630.406	0.0164339
630.484	0.0163785
630.562	0.0164408
630.640	0.0163879
630.718	0.0162550
630.796	0.0163004
630.874	0.0164622
630.953	0.0162962
631.031	0.0164394
631.109	0.0165031
631.187	0.0162868
631.265	0.0164208
631.343	0.0163764
631.421	0.0163132
631.499	0.0162462
631.578	0.0163084
631.656	0.0162643
631.734	0.0163732
631.812	0.0162819
631.890	0.0162799
631.968	0.0164075
632.046	0.0164046
632.124	0.0162254
632.203	0.0161922
632.281	0.0163838
632.359	0.0163885
632.437	0.0164233
632.515	0.0163506
632.593	0.0162649
632.671	0.0165017
632.749	0.0163663
632.828	0.0163026
632.906	0.0163208
632.984	0.0163614
633.062	0.0164331
633.140	0.0163503
633.218	0.0162564
633.296	0.0163137
633.374	0.0161556
633.453	0.0163663
633.531	0.0164570
633.609	0.0162645
633.687	0.0163637
633.765	0.0162582
633.843	0.0162679
633.921	0.0162817
633.999	0.0163142
634.078	0.0162366
634.156	0.0162492
634.234	0.0162884
634.312	0.0163496
634.390	0.0162938
634.468	0.0163255
634.546	0.0163476
634.624	0.0162609
634.703	0.0164046
634.781	0.0162820
634.859	0.0162191
634.937	0.0162636
635.015	0.0162770
635.093	0.0163588
635.171	0.0162263
635.249	0.0162836
635.328	0.0163416
635.406	0.0163461
635.484	0.0161994
635.562	0.0161859
635.640	0.0163876
635.718	0.0163086
635.796	0.0163578
635.874	0.0163952
635.953	0.0163115
636.031	0.0162489
636.109	0.0163490
636.187	0.0163151
636.265	0.0163696
636.343	0.0162417
636.421	0.0164236
636.499	0.0162863
636.578	0.0163649
636.656	0.0164613
636.734	0.0163631
636.812	0.0163313
636.890	0.0162341
636.968	0.0162859
637.046	0.0163584
637.124	0.0164014
637.203	0.0163285
637.281	0.0163435
637.359	0.0163718
637.437	0.0163306
637.515	0.0163117
637.593	0.0164221
637.671	0.0164487
637.749	0.0164834
637.828	0.0163921
637.906	0.0163510
637.984	0.0163840
638.062	0.0163435
638.140	0.0163739
638.218	0.0164693
638.296	0.0164434
638.374	0.0163554
638.453	0.0164355
638.531	0.0164753
638.609	0.0165832
638.687	0.0163312
638.765	0.0163843
638.843	0.0164510
638.921	0.0164282
638.999	0.0163151
639.078	0.0161607
639.156	0.0163993
639.234	0.0165825
639.312	0.0164086
639.390	0.0163151
639.468	0.0162538
639.546	0.0164301
639.624	0.0163129
639.703	0.0163281
639.781	0.0164036
639.859	0.0163998
639.937	0.0165414
640.015	0.0164162
640.093	0.0164877
640.171	0.0162897
640.249	0.0165025
640.328	0.0164294
640.406	0.0163492
640.484	0.0164107
640.562	0.0164989
640.640	0.0163982
640.718	0.0163588
640.796	0.0163834
640.874	0.0165891
640.953	0.0164597
641.031	0.0163007
641.109	0.0163656
641.187	0.0164198
641.265	0.0164151
641.343	0.0164524
641.421	0.0164573
641.499	0.0163498
641.578	0.0163351
641.656	0.0164736
641.734	0.0163026
641.812	0.0163091
641.890	0.0164034
641.968	0.0164201
642.046	0.0164667
642.124	0.0164100
642.203	0.0162939
642.281	0.0162524
642.359	0.0164030
642.437	0.0163013
642.515	0.0163708
642.593	0.0164728
642.671	0.0163508
642.749	0.0163682
642.828	0.0164740
642.906	0.0163319
642.984	0.0163821
643.062	0.0163695
643.140	0.0161743
643.218	0.0163868
643.296	0.0164213
643.374	0.0163867
643.453	0.0161336
643.531	0.0163412
643.609	0.0164624
643.687	0.0162675
643.765	0.0163470
643.843	0.0161909
643.921	0.0162309
643.999	0.0163007
644.078	0.0164131
644.156	0.0162211
644.234	0.0163249
644.312	0.0162347
644.390	0.0163474
644.468	0.0163378
644.546	0.0164137
644.624	0.0162680
644.703	0.0162186
644.781	0.0163078
644.859	0.0163937
644.937	0.0164230
645.015	0.0163357
645.093	0.0164346
645.171	0.0162322
645.249	0.0163894
645.328	0.0163763
645.406	0.0163025
645.484	0.0162675
645.562	0.0162986
645.640	0.0163535
645.718	0.0164271
645.796	0.0161643
645.874	0.0163909
645.953	0.0163510
646.031	0.0163548
646.109	0.0163624
646.187	0.0163492
646.265	0.0163085
646.343	0.0162499
646.421	0.0164070
646.499	0.0163635
646.578	0.0163577
646.656	0.0164407
646.734	0.0162792
646.812	0.0163643
646.890	0.0162843
646.968	0.0163189
647.046	0.0162749
647.124	0.0163942
647.203	0.0163530
647.281	0.0163832
647.359	0.0164445
647.437	0.0164646
647.515	0.0165047
647.593	0.0164146
647.671	0.0163404
647.749	0.0163388
647.828	0.0164500
647.906	0.0164482
647.984	0.0164836
648.062	0.0165614
648.140	0.0164150
648.218	0.0164769
648.296	0.0164561
648.374	0.0164346
648.453	0.0164656
648.531	0.0163129
648.609	0.0164388
648.687	0.0164220
648.765	0.0164847
648.843	0.0164648
648.921	0.0162941
648.999	0.0163282
649.078	0.0164636
649.156	0.0164236
649.234	0.0164169
649.312	0.0165829
649.390	0.0163364
649.468	0.0163383
649.546	0.0164962
649.624	0.0164178
649.703	0.0163080
649.781	0.0162677
649.859	0.0164392
649.937	0.0164935
650.015	0.0164340
650.093	0.0164394
650.171	0.0163454
650.249	0.0163509
650.328	0.0164285
650.406	0.0164599
650.484	0.0163167
650.562	0.0163248
650.640	0.0164120
650.718	0.0163765
650.796	0.0164542
650.874	0.0163803
650.953	0.0163712
651.031	0.0164659
651.109	0.0164967
651.187	0.0164156
651.265	0.0163412
651.343	0.0164175
651.421	0.0164942
651.499	0.0164381
651.578	0.0164079
651.656	0.0165102
651.734	0.0164441
651.812	0.0164302
651.890	0.0164967
651.968	0.0165181
652.046	0.0164720
652.124	0.0165405
652.203	0.0162963
652.281	0.0163426
652.359	0.0163992
652.437	0.0164363
652.515	0.0164951
652.593	0.0164413
652.671	0.0164692
652.749	0.0164806
652.828	0.0162724
652.906	0.0163373
652.984	0.0164098
653.062	0.0164665
653.140	0.0164792
653.218	0.0164106
653.296	0.0162955
653.374	0.0164039
653.453	0.0163276
653.531	0.0164657
653.609	0.0164536
653.687	0.0164045
653.765	0.0165221
653.843	0.0164342
653.921	0.0164676
653.999	0.0165035
654.078	0.0164902
654.156	0.0164352
654.234	0.0164547
654.312	0.0164428
654.390	0.0164227
654.468	0.0164421
654.546	0.0164256
654.624	0.0164227
654.703	0.0164267
654.781	0.0165321
654.859	0.0164489
654.937	0.0165652
655.015	0.0163994
655.093	0.0163091
655.171	0.0164738
655.249	0.0165523
655.328	0.0164996
655.406	0.0164423
655.484	0.0164145
655.562	0.0165820
655.640	0.0163979
655.718	0.0164686
655.796	0.0164455
655.874	0.0165197
655.953	0.0165585
656.031	0.0164600
656.109	0.0164749
656.187	0.0164989
656.265	0.0166459
656.343	0.0164713
656.421	0.0165004
656.499	0.0163367
656.578	0.0162962
656.656	0.0163726
656.734	0.0164850
656.812	0.0165362
656.890	0.0163766
656.968	0.0164159
657.046	0.0163482
657.124	0.0164951
657.203	0.0166316
657.281	0.0162819
657.359	0.0163262
657.437	0.0163951
657.515	0.0164771
657.593	0.0164984
657.671	0.0163206
657.749	0.0163366
657.828	0.0164678
657.906	0.0164540
657.984	0.0164149
658.062	0.0164458
658.140	0.0163152
658.218	0.0162807
658.296	0.0164686
658.374	0.0163763
658.453	0.0163391
658.531	0.0164633
658.609	0.0163804
658.687	0.0163611
658.765	0.0163823
658.843	0.0164883
658.921	0.0162994
658.999	0.0164314
659.078	0.0163383
659.156	0.0163719
659.234	0.0162837
659.312	0.0164827
659.390	0.0163818
659.468	0.0164090
659.546	0.0164861
659.624	0.0164632
659.703	0.0164178
659.781	0.0164188
659.859	0.0163895
659.937	0.0163155
660.015	0.0162926
660.093	0.0164108
660.171	0.0163295
660.249	0.0163616
660.328	0.0164387
660.406	0.0163555
660.484	0.0162992
660.562	0.0163103
660.640	0.0164674
660.718	0.0163150
660.796	0.0164088
660.874	0.0163766
660.953	0.0163036
661.031	0.0164302
661.109	0.0164247
661.187	0.0163956
661.265	0.0162841
661.343	0.0164400
661.421	0.0163789
661.499	0.0165446
661.578	0.0163926
661.656	0.0163417
661.734	0.0164291
661.812	0.0163895
661.890	0.0164021
661.968	0.0164196
662.046	0.0164137
662.124	0.0165253
662.203	0.0164291
662.281	0.0162331
662.359	0.0163412
662.437	0.0163011
662.515	0.0162766
662.593	0.0162931
662.671	0.0164803
662.749	0.0164671
662.828	0.0164677
662.906	0.0162619
662.984	0.0165443
663.062	0.0163257
663.140	0.0162663
663.218	0.0163961
663.296	0.0162622
663.374	0.0163979
663.453	0.0164743
663.531	0.0164342
663.609	0.0163767
663.687	0.0164265
663.765	0.0162991
663.843	0.0163881
663.921	0.0163715
663.999	0.0164529
664.078	0.0163847
664.156	0.0164606
664.234	0.0164398
664.312	0.0164870
664.390	0.0163821
664.468	0.0162377
664.546	0.0161913
664.624	0.0163290
664.703	0.0164578
664.781	0.0164835
664.859	0.0164398
664.937	0.0163497
665.015	0.0165057
665.093	0.0164133
665.171	0.0163163
665.249	0.0163620
665.328	0.0163390
665.406	0.0164182
665.484	0.0163545
665.562	0.0164070
665.640	0.0163980
665.718	0.0163695
665.796	0.0163078
665.874	0.0162975
665.953	0.0164468
666.031	0.0163268
666.109	0.0163802
666.187	0.0163464
666.265	0.0162762
666.343	0.0162468
666.421	0.0163253
666.499	0.0164146
666.578	0.0164343
666.656	0.0163283
666.734	0.0164144
666.812	0.0163776
666.890	0.0162472
666.968	0.0163470
667.046	0.0163804
667.124	0.0163104
667.203	0.0163797
667.281	0.0163661
667.359	0.0163496
667.437	0.0163980
667.515	0.0163599
667.593	0.0164853
667.671	0.0164681
667.749	0.0164589
667.828	0.0162592
667.906	0.0163651
667.984	0.0165278
668.062	0.0164478
668.140	0.0163103
668.218	0.0165289
668.296	0.0164730
668.374	0.0164445
668.453	0.0164799
668.531	0.0163852
668.609	0.0163819
668.687	0.0163422
668.765	0.0164965
668.843	0.0163517
668.921	0.0163232
668.999	0.0164596
669.078	0.0164712
669.156	0.0163695
669.234	0.0163792
669.312	0.0164146
669.390	0.0164040
669.468	0.0163827
669.546	0.0163467
669.624	0.0164745
669.703	0.0165099
669.781	0.0163365
669.859	0.0165698
669.937	0.0163295
670.015	0.0164589
670.093	0.0163530
670.171	0.0164719
670.249	0.0165235
670.328	0.0164961
670.406	0.0164584
670.484	0.0164320
670.562	0.0164737
670.640	0.0163433
670.718	0.0163488
670.796	0.0163795
670.874	0.0164509
670.953	0.0164155
671.031	0.0164118
671.109	0.0164347
671.187	0.0163396
671.265	0.0164799
671.343	0.0165310
671.421	0.0164379
671.499	0.0163913
671.578	0.0164824
671.656	0.0164558
671.734	0.0164445
671.812	0.0163220
671.890	0.0164133
671.968	0.0162888
672.046	0.0163081
672.124	0.0163340
672.203	0.0162405
672.281	0.0163988
672.359	0.0163217
672.437	0.0163035
672.515	0.0162836
672.593	0.0163644
672.671	0.0163399
672.749	0.0162804
672.828	0.0163537
672.906	0.0163905
672.984	0.0163895
673.062	0.0164300
673.140	0.0164020
673.218	0.0164352
673.296	0.0162680
673.374	0.0163204
673.453	0.0164382
673.531	0.0163906
673.609	0.0163812
673.687	0.0164118
673.765	0.0163350
673.843	0.0163615
673.921	0.0165077
673.999	0.0162181
674.078	0.0164182
674.156	0.0164034
674.234	0.0164844
674.312	0.0163838
674.390	0.0162566
674.468	0.0162967
674.546	0.0163853
674.624	0.0163766
674.703	0.0164299
674.781	0.0163625
674.859	0.0164002
674.937	0.0163684
675.015	0.0165520
675.093	0.0163421
675.171	0.0163655
675.249	0.0164661
675.328	0.0165063
675.406	0.0165465
675.484	0.0164317
675.562	0.0163487
675.640	0.0163926
675.718	0.0164552
675.796	0.0163384
675.874	0.0163654
675.953	0.0163220
676.031	0.0164958
676.109	0.0165270
676.187	0.0164263
676.265	0.0164929
676.343	0.0164668
676.421	0.0164471
676.499	0.0164049
676.578	0.0164593
676.656	0.0165515
676.734	0.0164084
676.812	0.0164598
676.890	0.0165376
676.968	0.0164750
677.046	0.0163263
677.124	0.0164095
677.203	0.0164658
677.281	0.0164590
677.359	0.0164555
677.437	0.0162973
677.515	0.0164416
677.593	0.0163803
677.671	0.0163111
677.749	0.0164856
677.828	0.0164115
677.906	0.0165601
677.984	0.0163613
678.062	0.0164072
678.140	0.0163715
678.218	0.0165054
678.296	0.0164484
678.374	0.0164567
678.453	0.0164500
678.531	0.0164632
678.609	0.0164594
678.687	0.0164218
678.765	0.0165022
678.843	0.0163576
678.921	0.0163657
678.999	0.0164971
679.078	0.0164061
679.156	0.0164458
679.234	0.0162965
679.312	0.0164604
679.390	0.0163530
679.468	0.0165460
679.546	0.0164915
679.624	0.0164330
679.703	0.0164240
679.781	0.0164273
679.859	0.0164429
679.937	0.0164772
680.015	0.0164407
680.093	0.0163915
680.171	0.0163245
680.249	0.0163979
680.328	0.0164944
680.406	0.0164966
680.484	0.0164931
680.562	0.0166360
680.640	0.0164618
680.718	0.0163871
680.796	0.0164980
680.874	0.0165223
680.953	0.0164519
681.031	0.0163928
681.109	0.0164274
681.187	0.0164951
681.265	0.0164102
681.343	0.0165728
681.421	0.0165897
681.499	0.0164523
681.578	0.0164543
681.656	0.0165095
681.734	0.0164401
681.812	0.0163589
681.890	0.0164723
681.968	0.0165146
682.046	0.0166035
682.124	0.0163552
682.203	0.0164281
682.281	0.0164740
682.359	0.0164579
682.437	0.0164217
682.515	0.0163447
682.593	0.0165840
682.671	0.0165299
682.749	0.0163525
682.828	0.0164530
682.906	0.0164610
682.984	0.0165925
683.062	0.0164068
683.140	0.0163945
683.218	0.0164588
683.296	0.0164097
683.374	0.0165027
683.453	0.0164365
683.531	0.0165641
683.609	0.0164886
683.687	0.0164427
683.765	0.0164872
683.843	0.0164435
683.921	0.0165340
683.999	0.0165383
684.078	0.0164667
684.156	0.0164897
684.234	0.0164481
684.312	0.0162443
684.390	0.0165841
684.468	0.0163531
684.546	0.0163499
684.624	0.0163332
684.703	0.0164651
684.781	0.0164301
684.859	0.0165282
684.937	0.0163513
685.015	0.0162417
685.093	0.0165177
685.171	0.0162922
685.249	0.0163251
685.328	0.0164671
685.406	0.0164227
685.484	0.0164046
685.562	0.0163571
685.640	0.0165121
685.718	0.0164063
685.796	0.0165162
685.874	0.0164940
685.953	0.0164310
686.031	0.0163300
686.109	0.0164337
686.187	0.0163719
686.265	0.0163500
686.343	0.0165275
686.421	0.0164304
686.499	0.0163634
686.578	0.0164848
686.656	0.0162057
686.734	0.0163074
686.812	0.0165226
686.890	0.0164605
686.968	0.0163163
687.046	0.0163976
687.124	0.0163444
687.203	0.0162826
687.281	0.0163527
687.359	0.0163167
687.437	0.0165122
687.515	0.0163210
687.593	0.0162069
687.671	0.0164303
687.749	0.0165753
687.828	0.0163119
687.906	0.0163818
687.984	0.0164059
688.062	0.0163463
688.140	0.0163961
688.218	0.0163043
688.296	0.0162790
688.374	0.0163969
688.453	0.0164457
688.531	0.0164015
688.609	0.0165343
688.687	0.0164659
688.765	0.0164633
688.843	0.0163758
688.921	0.0164559
688.999	0.0165226
689.078	0.0164350
689.156	0.0164621
689.234	0.0165064
689.312	0.0163572
689.390	0.0164016
689.468	0.0163503
689.546	0.0164463
689.624	0.0165517
689.703	0.0163547
689.781	0.0164766
689.859	0.0163192
689.937	0.0163347
690.015	0.0163900
690.093	0.0163539
690.171	0.0164377
690.249	0.0163796
690.328	0.0163014
690.406	0.0162870
690.484	0.0165260
690.562	0.0163847
690.640	0.0164667
690.718	0.0164597
690.796	0.0162915
690.874	0.0163114
690.953	0.0163859
691.031	0.0163878
691.109	0.0163968
691.187	0.0163069
691.265	0.0162197
691.343	0.0164367
691.421	0.0163805
691.499	0.0164141
691.578	0.0164058
691.656	0.0163615
691.734	0.0163551
691.812	0.0164902
691.890	0.0163454
691.968	0.0162624
692.046	0.0163145
692.124	0.0163689
692.203	0.0162931
692.281	0.0165237
692.359	0.0163889
692.437	0.0162789
692.515	0.0162641
692.593	0.0163169
692.671	0.0163557
692.749	0.0163992
692.828	0.0163267
692.906	0.0162605
692.984	0.0162370
693.062	0.0164544
693.140	0.0162636
693.218	0.0163018
693.296	0.0164619
693.374	0.0163060
693.453	0.0162146
693.531	0.0163678
693.609	0.0163140
693.687	0.0163461
693.765	0.0162946
693.843	0.0163600
693.921	0.0161877
693.999	0.0163186
694.078	0.0163549
694.156	0.0164049
694.234	0.0163297
694.312	0.0161312
694.390	0.0163121
694.468	0.0163972
694.546	0.0162936
694.624	0.0163033
694.703	0.0163966
694.781	0.0163509
694.859	0.0162570
694.937	0.0164449
695.015	0.0162905
695.093	0.0164455
695.171	0.0164198
695.249	0.0162684
695.328	0.0161902
695.406	0.0163452
695.484	0.0163986
695.562	0.0164081
695.640	0.0163068
695.718	0.0162987
695.796	0.0163569
695.874	0.0163143
695.953	0.0163650
696.031	0.0162496
696.109	0.0162949
696.187	0.0164149
696.265	0.0162659
696.343	0.0163004
696.421	0.0161913
696.499	0.0163542
696.578	0.0163119
696.656	0.0165262
696.734	0.0163355
696.812	0.0162591
696.890	0.0163985
696.968	0.0162915
697.046	0.0162914
697.124	0.0163776
697.203	0.0164577
697.281	0.0164702
697.359	0.0162560
697.437	0.0161452
697.515	0.0163423
697.593	0.0163683
697.671	0.0163625
697.749	0.0161560
697.828	0.0162946
697.906	0.0164933
697.984	0.0163234
698.062	0.0161961
698.140	0.0163501
698.218	0.0164524
698.296	0.0163400
698.374	0.0162125
698.453	0.0162997
698.531	0.0163599
698.609	0.0163050
698.687	0.0161073
698.765	0.0161740
698.843	0.0162768
698.921	0.0161898
698.999	0.0162766
699.078	0.0163669
699.156	0.0163357
699.234	0.0162538
699.312	0.0162567
699.390	0.0162512
699.468	0.0162618
699.546	0.0163972
699.624	0.0163644
699.703	0.0162939
699.781	0.0162840
699.859	0.0161371
699.937	0.0163301
700.015	0.0164126
700.093	0.0162570
700.171	0.0163494
700.249	0.0161667
700.328	0.0162122
700.406	0.0163831
700.484	0.0163150
700.562	0.0163277
700.640	0.0161649
700.718	0.0163071
700.796	0.0162849
700.874	0.0161513
700.953	0.0162759
701.031	0.0163551
701.109	0.0163554
701.187	0.0162603
701.265	0.0163619
701.343	0.0163091
701.421	0.0162224
701.499	0.0162370
701.578	0.0162497
701.656	0.0161871
701.734	0.0163161
701.812	0.0162360
701.890	0.0162303
701.968	0.0162385
702.046	0.0162930
702.124	0.0163441
702.203	0.0161912
702.281	0.0162428
702.359	0.0162347
702.437	0.0165230
702.515	0.0163073
702.593	0.0163077
702.671	0.0162309
702.749	0.0163629
702.828	0.0163293
702.906	0.0162976
702.984	0.0162585
703.062	0.0163188
703.140	0.0162928
703.218	0.0162322
703.296	0.0163393
703.374	0.0162761
703.453	0.0162537
703.531	0.0163762
703.609	0.0164308
703.687	0.0163309
703.765	0.0163871
703.843	0.0162865
703.921	0.0162745
703.999	0.0163232
704.078	0.0164057
704.156	0.0164036
704.234	0.0162086
704.312	0.0163825
704.390	0.0164605
704.468	0.0163551
704.546	0.0164153
704.624	0.0162999
704.703	0.0163489
704.781	0.0163779
704.859	0.0164692
704.937	0.0163490
705.015	0.0164105
705.093	0.0164635
705.171	0.0164540
705.249	0.0163591
705.328	0.0164060
705.406	0.0163404
705.484	0.0163750
705.562	0.0164146
705.640	0.0164204
705.718	0.0163773
705.796	0.0164861
705.874	0.0163526
705.953	0.0165639
706.031	0.0165176
706.109	0.0165062
706.187	0.0164321
706.265	0.0164178
706.343	0.0164759
706.421	0.0165074
706.499	0.0163970
706.578	0.0166057
706.656	0.0165197
706.734	0.0165265
706.812	0.0164471
706.890	0.0163003
706.968	0.0164198
707.046	0.0165229
707.124	0.0164436
707.203	0.0163163
707.281	0.0165298
707.359	0.0163641
707.437	0.0162862
707.515	0.0163595
707.593	0.0164436
707.671	0.0164590
707.749	0.0162866
707.828	0.0162444
707.906	0.0164936
707.984	0.0165385
708.062	0.0165517
708.140	0.0165022
708.218	0.0165033
708.296	0.0164661
708.374	0.0163868
708.453	0.0163464
708.531	0.0164856
708.609	0.0164236
708.687	0.0164429
708.765	0.0164294
708.843	0.0164714
708.921	0.0164297
708.999	0.0164402
709.078	0.0164948
709.156	0.0163686
709.234	0.0166277
709.312	0.0165690
709.390	0.0163434
709.468	0.0164812
709.546	0.0164580
709.624	0.0164773
709.703	0.0165155
709.781	0.0162985
709.859	0.0162702
709.937	0.0165450
710.015	0.0164151
710.093	0.0164458
710.171	0.0164071
710.249	0.0164691
710.328	0.0164341
710.406	0.0163850
710.484	0.0163683
710.562	0.0162274
710.640	0.0163885
710.718	0.0164412
710.796	0.0163327
710.874	0.0162011
710.953	0.0163853
711.031	0.0164565
711.109	0.0162512
711.187	0.0162637
711.265	0.0163515
711.343	0.0164297
711.421	0.0164227
711.499	0.0164121
711.578	0.0163353
711.656	0.0162885
711.734	0.0163432
711.812	0.0165008
711.890	0.0164493
711.968	0.0164602
712.046	0.0164181
712.124	0.0163807
712.203	0.0163877
712.281	0.0165157
712.359	0.0163885
712.437	0.0163451
712.515	0.0163136
712.593	0.0164264
712.671	0.0163914
712.749	0.0165259
712.828	0.0162855
712.906	0.0163223
712.984	0.0164592
713.062	0.0164104
713.140	0.0163245
713.218	0.0163949
713.296	0.0163407
713.374	0.0164516
713.453	0.0165268
713.531	0.0164367
713.609	0.0163335
713.687	0.0163912
713.765	0.0164678
713.843	0.0162915
713.921	0.0163329
713.999	0.0163634
714.078	0.0164369
714.156	0.0164139
714.234	0.0163196
714.312	0.0162973
714.390	0.0163487
714.468	0.0163797
714.546	0.0164087
714.624	0.0163900
714.703	0.0164899
714.781	0.0163195
714.859	0.0163144
714.937	0.0163506
715.015	0.0161787
715.093	0.0163816
715.171	0.0164072
715.249	0.0163300
715.328	0.0163416
715.406	0.0163930
715.484	0.0163385
715.562	0.0163206
715.640	0.0164253
715.718	0.0164467
715.796	0.0163434
715.874	0.0162320
715.953	0.0162809
716.031	0.0164327
716.109	0.0163326
716.187	0.0162136
716.265	0.0164018
716.343	0.0163045
716.421	0.0163837
716.499	0.0162666
716.578	0.0162852
716.656	0.0161616
716.734	0.0163959
716.812	0.0164114
716.890	0.0162071
716.968	0.0161887
717.046	0.0163175
717.124	0.0162710
717.203	0.0163242
717.281	0.0163383
717.359	0.0162817
717.437	0.0162572
717.515	0.0161564
717.593	0.0162061
717.671	0.0163464
717.749	0.0162823
717.828	0.0162621
717.906	0.0162681
717.984	0.0162805
718.062	0.0163004
718.140	0.0161951
718.218	0.0163274
718.296	0.0161919
718.374	0.0161380
718.453	0.0162969
718.531	0.0162366
718.609	0.0163025
718.687	0.0163603
718.765	0.0162129
718.843	0.0162341
718.921	0.0161789
718.999	0.0163563
719.078	0.0161461
719.156	0.0162377
719.234	0.0161943
719.312	0.0161877
719.390	0.0161848
719.468	0.0162574
719.546	0.0163139
719.624	0.0163036
719.703	0.0161792
719.781	0.0162926
719.859	0.0163776
719.937	0.0163281
720.015	0.0162235
720.093	0.0162341
720.171	0.0162655
720.249	0.0163150
720.328	0.0162102
720.406	0.0163327
720.484	0.0162230
720.562	0.0162856
720.640	0.0161992
720.718	0.0162807
720.796	0.0161666
720.874	0.0163174
720.953	0.0162609
721.031	0.0162040
721.109	0.0162010
721.187	0.0163349
721.265	0.0163579
721.343	0.0163072
721.421	0.0163151
721.499	0.0163588
721.578	0.0161987
721.656	0.0162673
721.734	0.0163918
721.812	0.0162747
721.890	0.0163515
721.968	0.0163580
722.046	0.0162229
722.124	0.0161348
722.203	0.0163223
722.281	0.0162508
722.359	0.0163158
722.437	0.0162420
722.515	0.0162387
722.593	0.0162116
722.671	0.0163233
722.749	0.0164200
722.828	0.0163594
722.906	0.0162557
722.984	0.0163419
723.062	0.0163870
723.140	0.0163226
723.218	0.0164199
723.296	0.0163081
723.374	0.0163050
723.453	0.0164186
723.531	0.0163030
723.609	0.0163569
723.687	0.0164067
723.765	0.0162817
723.843	0.0163236
723.921	0.0164321
723.999	0.0164070
724.078	0.0162653
724.156	0.0163932
724.234	0.0162257
724.312	0.0163767
724.390	0.0164477
724.468	0.0162953
724.546	0.0164553
724.624	0.0163744
724.703	0.0164713
724.781	0.0163882
724.859	0.0162305
724.937	0.0163603
725.015	0.0163371
725.093	0.0162997
725.171	0.0164207
725.249	0.0163867
725.328	0.0163599
725.406	0.0162546
725.484	0.0163371
725.562	0.0163747
725.640	0.0163887
725.718	0.0164370
725.796	0.0165263
725.874	0.0163535
725.953	0.0164678
726.031	0.0164125
726.109	0.0163666
726.187	0.0164821
726.265	0.0163422
726.343	0.0165774
726.421	0.0165104
726.499	0.0164265
726.578	0.0164106
726.656	0.0164317
726.734	0.0164348
726.812	0.0165445
726.890	0.0164833
726.968	0.0165760
727.046	0.0166776
727.124	0.0166286
727.203	0.0164425
727.281	0.0163140
727.359	0.0165756
727.437	0.0165314
727.515	0.0163600
727.593	0.0164056
727.671	0.0164300
727.749	0.0164748
727.828	0.0165858
727.906	0.0163770
727.984	0.0163290
728.062	0.0165697
728.140	0.0164181
728.218	0.0165778
728.296	0.0164000
728.374	0.0163516
728.453	0.0164755
728.531	0.0165834
728.609	0.0164597
728.687	0.0165096
728.765	0.0164357
728.843	0.0164387
728.921	0.0165260
728.999	0.0165362
729.078	0.0164712
729.156	0.0164376
729.234	0.0163615
729.312	0.0164120
729.390	0.0164215
729.468	0.0164032
729.546	0.0165514
729.624	0.0165332
729.703	0.0163855
729.781	0.0163180
729.859	0.0163332
729.937	0.0164148
730.015	0.0162946
730.093	0.0163165
730.171	0.0164550
730.249	0.0163301
730.328	0.0164208
730.406	0.0164481
730.484	0.0165002
730.562	0.0164706
730.640	0.0163466
730.718	0.0163886
730.796	0.0163406
730.874	0.0163224
730.953	0.0164949
731.031	0.0163306
731.109	0.0162855
731.187	0.0164242
731.265	0.0164505
731.343	0.0164091
731.421	0.0163129
731.499	0.0163464
731.578	0.0163628
731.656	0.0163864
731.734	0.0163480
731.812	0.0164279
731.890	0.0163580
731.968	0.0164355
732.046	0.0164137
732.124	0.0164679
732.203	0.0164874
732.281	0.0163666
732.359	0.0163969
732.437	0.0164244
732.515	0.0163921
732.593	0.0165934
732.671	0.0163134
732.749	0.0163654
732.828	0.0163567
732.906	0.0163766
732.984	0.0162775
733.062	0.0162981
733.140	0.0164639
733.218	0.0163737
733.296	0.0162892
733.374	0.0164385
733.453	0.0163924
733.531	0.0163719
733.609	0.0164110
733.687	0.0163506
733.765	0.0164569
733.843	0.0165253
733.921	0.0164924
733.999	0.0163760
734.078	0.0164792
734.156	0.0164017
734.234	0.0165282
734.312	0.0164845
734.390	0.0164346
734.468	0.0165181
734.546	0.0162984
734.624	0.0162977
734.703	0.0163882
734.781	0.0164217
734.859	0.0165071
734.937	0.0164439
735.015	0.0164571
735.093	0.0164172
735.171	0.0163849
735.249	0.0164558
735.328	0.0163720
735.406	0.0163543
735.484	0.0163338
735.562	0.0163790
735.640	0.0163307
735.718	0.0164474
735.796	0.0165443
735.874	0.0163937
735.953	0.0162599
736.031	0.0163760
736.109	0.0164368
736.187	0.0164114
736.265	0.0164088
736.343	0.0163406
736.421	0.0164241
736.499	0.0164201
736.578	0.0163807
736.656	0.0165395
736.734	0.0165559
736.812	0.0165150
736.890	0.0164876
736.968	0.0164512
737.046	0.0163524
737.124	0.0163654
737.203	0.0163548
737.281	0.0164170
737.359	0.0163934
737.437	0.0163922
737.515	0.0164970
737.593	0.0163388
737.671	0.0163247
737.749	0.0164384
737.828	0.0165275
737.906	0.0165253
737.984	0.0163882
738.062	0.0164056
738.140	0.0164368
738.218	0.0163200
738.296	0.0163893
738.374	0.0164293
738.453	0.0164413
738.531	0.0164423
738.609	0.0165020
738.687	0.0163449
738.765	0.0165177
738.843	0.0164676
738.921	0.0164507
738.999	0.0165592
739.078	0.0163796
739.156	0.0163006
739.234	0.0164144
739.312	0.0163982
739.390	0.0164427
739.468	0.0164957
739.546	0.0165005
739.624	0.0163831
739.703	0.0164637
739.781	0.0164273
739.859	0.0165030
739.937	0.0166486
740.015	0.0163471
740.093	0.0164930
740.171	0.0165053
740.249	0.0163707
740.328	0.0164973
740.406	0.0164520
740.484	0.0165000
740.562	0.0164282
740.640	0.0163548
740.718	0.0164631
740.796	0.0164161
740.874	0.0164368
740.953	0.0164772
741.031	0.0164397
741.109	0.0164530
741.187	0.0164180
741.265	0.0164931
741.343	0.0164111
741.421	0.0163879
741.499	0.0164190
741.578	0.0163958
741.656	0.0163831
741.734	0.0164782
741.812	0.0163984
741.890	0.0162713
741.968	0.0163834
742.046	0.0164695
742.124	0.0164646
742.203	0.0163655
742.281	0.0163639
742.359	0.0164003
742.437	0.0164310
742.515	0.0164898
742.593	0.0163049
742.671	0.0163462
742.749	0.0162190
742.828	0.0164574
742.906	0.0163874
742.984	0.0162627
743.062	0.0162917
743.140	0.0162916
743.218	0.0163718
743.296	0.0163422
743.374	0.0164141
743.453	0.0163442
743.531	0.0162574
743.609	0.0163465
743.687	0.0162882
743.765	0.0163405
743.843	0.0162752
743.921	0.0163590
743.999	0.0163085
744.078	0.0163317
744.156	0.0163416
744.234	0.0164348
744.312	0.0163160
744.390	0.0163509
744.468	0.0162570
744.546	0.0164223
744.624	0.0162737
744.703	0.0163377
744.781	0.0162500
744.859	0.0163007
744.937	0.0163275
745.015	0.0162258
745.093	0.0162286
745.171	0.0162811
745.249	0.0164209
745.328	0.0162502
745.406	0.0162978
745.484	0.0164425
745.562	0.0162778
745.640	0.0162962
745.718	0.0163052
745.796	0.0164473
745.874	0.0163411
745.953	0.0162697
746.031	0.0163298
746.109	0.0163152
746.187	0.0162841
746.265	0.0163390
746.343	0.0163087
746.421	0.0163758
746.499	0.0163168
746.578	0.0162667
746.656	0.0163213
746.734	0.0163686
746.812	0.0163949
746.890	0.0164159
746.968	0.0162873
747.046	0.0163737
747.124	0.0164839
747.203	0.0164484
747.281	0.0162753
747.359	0.0164368
747.437	0.0162503
747.515	0.0164143
747.593	0.0164428
747.671	0.0165117
747.749	0.0164894
747.828	0.0163958
747.906	0.0163662
747.984	0.0164723
748.062	0.0162677
748.140	0.0164013
748.218	0.0163863
748.296	0.0163525
748.374	0.0164407
748.453	0.0164857
748.531	0.0164151
748.609	0.0162928
748.687	0.0164702
748.765	0.0163533
748.843	0.0165188
748.921	0.0164266
748.999	0.0163742
749.078	0.0164420
749.156	0.0165252
749.234	0.0164223
749.312	0.0163105
749.390	0.0163771
749.468	0.0165228
749.546	0.0165055
749.624	0.0164387
749.703	0.0164993
749.781	0.0163997
749.859	0.0164951
749.937	0.0164635
750.015	0.0166402
750.093	0.0165984
750.171	0.0166951
750.249	0.0167316
750.328	0.0165292
750.406	0.0167289
750.484	0.0167139
750.562	0.0166435
750.640	0.0166006
750.718	0.0165459
750.796	0.0165461
750.874	0.0164503
750.953	0.0164162
751.031	0.0165158
751.109	0.0165517
751.187	0.0165022
751.265	0.0165123
751.343	0.0165299
751.421	0.0165651
751.499	0.0166222
751.578	0.0165575
751.656	0.0167567
751.734	0.0166944
751.812	0.0166787
751.890	0.0166990
751.968	0.0165034
752.046	0.0165015
752.124	0.0165822
752.203	0.0165027
752.281	0.0164301
752.359	0.0163963
752.437	0.0165011
752.515	0.0163549
752.593	0.0163484
752.671	0.0163366
752.749	0.0162280
752.828	0.0161916
752.906	0.0163515
752.984	0.0163243
753.062	0.0162981
753.140	0.0163799
753.218	0.0163594
753.296	0.0164448
753.374	0.0163790
753.453	0.0163043
753.531	0.0164079
753.609	0.0163291
753.687	0.0164513
753.765	0.0163795
753.843	0.0164178
753.921	0.0166030
753.999	0.0163780
754.078	0.0165578
754.156	0.0164439
754.234	0.0164007
754.312	0.0164722
754.390	0.0165353
754.468	0.0166235
754.546	0.0166717
754.624	0.0166550
754.703	0.0166733
754.781	0.0165170
754.859	0.0164941
754.937	0.0165163
755.015	0.0166100
755.093	0.0164869
755.171	0.0164932
755.249	0.0164979
755.328	0.0165782
755.406	0.0164314
755.484	0.0164606
755.562	0.0164735
755.640	0.0164615
755.718	0.0164281
755.796	0.0164262
755.874	0.0164354
755.953	0.0166094
756.031	0.0166193
756.109	0.0164672
756.187	0.0162959
756.265	0.0165239
756.343	0.0164487
756.421	0.0165543
756.499	0.0164461
756.578	0.0163847
756.656	0.0164570
756.734	0.0164690
756.812	0.0166130
756.890	0.0165867
756.968	0.0165963
757.046	0.0165059
757.124	0.0167171
757.203	0.0165499
757.281	0.0166487
757.359	0.0166866
757.437	0.0166870
757.515	0.0166228
757.593	0.0166333
757.671	0.0167005
757.749	0.0165735
757.828	0.0164638
757.906	0.0166504
757.984	0.0164427
758.062	0.0164861
758.140	0.0163256
758.218	0.0163127
758.296	0.0165217
758.374	0.0164391
758.453	0.0164008
758.531	0.0165123
758.609	0.0163539
758.687	0.0163554
758.765	0.0163094
758.843	0.0163934
758.921	0.0163865
758.999	0.0162220
759.078	0.0163587
759.156	0.0162201
759.234	0.0161497
759.312	0.0163272
759.390	0.0162035
759.468	0.0162375
759.546	0.0161343
759.624	0.0162829
759.703	0.0165116
759.781	0.0165727
759.859	0.0163824
759.937	0.0164127
760.015	0.0164024
760.093	0.0164931
760.171	0.0165949
760.249	0.0165305
760.328	0.0165649
760.406	0.0164767
760.484	0.0166399
760.562	0.0165225
760.640	0.0165762
760.718	0.0167213
760.796	0.0165491
760.874	0.0165875
760.953	0.0167407
761.031	0.0165984
761.109	0.0165891
761.187	0.0165869
761.265	0.0165979
761.343	0.0166031
761.421	0.0165102
761.499	0.0165589
761.578	0.0165542
761.656	0.0165714
761.734	0.0163992
761.812	0.0164693
761.890	0.0164624
761.968	0.0164236
762.046	0.0163555
762.124	0.0162963
762.203	0.0163108
762.281	0.0164950
762.359	0.0163215
762.437	0.0164500
762.515	0.0165264
762.593	0.0163542
762.671	0.0163017
762.749	0.0160974
762.828	0.0163826
762.906	0.0163076
762.984	0.0161361
763.062	0.0162363
763.140	0.0162595
763.218	0.0160565
763.296	0.0161875
763.374	0.0162208
763.453	0.0161591
763.531	0.0161879
763.609	0.0162160
763.687	0.0161626
763.765	0.0161665
763.843	0.0162827
763.921	0.0161916
763.999	0.0163375
764.078	0.0161987
764.156	0.0164021
764.234	0.0163890
764.312	0.0163018
764.390	0.0163717
764.468	0.0163298
764.546	0.0164984
764.624	0.0165254
764.703	0.0165335
764.781	0.0164740
764.859	0.0165997
764.937	0.0165508
765.015	0.0166943
765.093	0.0167255
765.171	0.0166351
765.249	0.0166357
765.328	0.0166948
765.406	0.0168765
765.484	0.0167133
765.562	0.0167269
765.640	0.0167631
765.718	0.0166992
765.796	0.0166323
765.874	0.0167200
765.953	0.0165943
766.031	0.0166135
766.109	0.0165303
766.187	0.0164546
766.265	0.0164803
766.343	0.0163884
766.421	0.0164371
766.499	0.0163136
766.578	0.0163190
766.656	0.0162444
766.734	0.0162573
766.812	0.0161844
766.890	0.0161432
766.968	0.0161929
767.046	0.0160791
767.124	0.0160259
767.203	0.0159761
767.281	0.0158833
767.359	0.0158566
767.437	0.0159789
767.515	0.0158987
767.593	0.0159031
767.671	0.0160744
767.749	0.0161436
767.828	0.0161112
767.906	0.0162713
767.984	0.0164568
768.062	0.0165107
768.140	0.0163874
768.218	0.0166321
768.296	0.0167526
768.374	0.0167551
768.453	0.0167857
768.531	0.0167113
768.609	0.0168699
768.687	0.0168369
768.765	0.0167058
768.843	0.0166057
768.921	0.0168166
768.999	0.0166135
769.078	0.0166534
769.156	0.0166876
769.234	0.0165096
769.312	0.0165413
769.390	0.0166628
769.468	0.0165279
769.546	0.0164919
769.624	0.0163882
769.703	0.0162514
769.781	0.0161987
769.859	0.0161674
769.937	0.0161785
770.015	0.0161017
770.093	0.0161253
770.171	0.0161153
770.249	0.0160027
770.328	0.0160708
770.406	0.0159972
770.484	0.0160448
770.562	0.0161572
770.640	0.0161202
770.718	0.0161168
770.796	0.0160004
770.874	0.0160795
770.953	0.0161649
771.031	0.0162183
771.109	0.0163019
771.187	0.0162984
771.265	0.0164326
771.343	0.0164828
771.421	0.0164761
771.499	0.0165651
771.578	0.0167093
771.656	0.0167007
771.734	0.0166029
771.812	0.0167600
771.890	0.0164165
771.968	0.0165421
772.046	0.0162701
772.124	0.0163925
772.203	0.0162902
772.281	0.0161659
772.359	0.0161774
772.437	0.0162038
772.515	0.0160812
772.593	0.0161945
772.671	0.0163967
772.749	0.0164432
772.828	0.0164496
772.906	0.0164529
772.984	0.0165276
773.062	0.0166410
773.140	0.0167008
773.218	0.0165804
773.296	0.0166428
773.374	0.0165620
773.453	0.0165910
773.531	0.0166679
773.609	0.0166190
773.687	0.0165859
773.765	0.0165585
773.843	0.0166468
773.921	0.0164612
773.999	0.0164278
774.078	0.0165493
774.156	0.0165060
774.234	0.0163226
774.312	0.0160780
774.390	0.0162746
774.468	0.0161933
774.546	0.0159910
774.624	0.0159827
774.703	0.0159244
774.781	0.0160259
774.859	0.0161003
774.937	0.0158585
775.015	0.0158987
775.093	0.0160766
775.171	0.0159253
775.249	0.0160169
775.328	0.0159101
775.406	0.0159013
775.484	0.0160276
775.562	0.0159648
775.640	0.0159455
775.718	0.0161503
775.796	0.0162231
775.874	0.0162624
775.953	0.0163997
776.031	0.0164212
776.109	0.0166643
776.187	0.0166541
776.265	0.0168818
776.343	0.0167760
776.421	0.0168409
776.499	0.0168722
776.578	0.0167576
776.656	0.0167876
776.734	0.0166791
776.812	0.0167418
776.890	0.0166152
776.968	0.0165888
777.046	0.0165569
777.124	0.0166180
777.203	0.0165993
777.281	0.0166455
777.359	0.0165078
777.437	0.0164983
777.515	0.0164878
777.593	0.0164313
777.671	0.0163312
777.749	0.0161737
777.828	0.0162267
777.906	0.0161702
777.984	0.0162845
778.062	0.0161205
778.140	0.0160999
778.218	0.0162487
778.296	0.0162917
778.374	0.0162673
778.453	0.0163819
778.531	0.0163725
778.609	0.0164567
778.687	0.0163610
778.765	0.0163528
778.843	0.0163081
778.921	0.0162212
778.999	0.0162676
779.078	0.0162886
779.156	0.0162970
779.234	0.0163577
779.312	0.0163109
779.390	0.0160826
779.468	0.0161897
779.546	0.0161082
779.624	0.0160612
779.703	0.0162338
779.781	0.0161060
779.859	0.0159595
779.937	0.0159927
780.015	0.0161333
780.093	0.0159946
780.171	0.0161739
780.249	0.0159914
780.328	0.0161758
780.406	0.0160070
780.484	0.0160464
780.562	0.0162592
780.640	0.0162106
780.718	0.0162844
780.796	0.0162836
780.874	0.0163143
780.953	0.0165320
781.031	0.0166865
781.109	0.0166303
781.187	0.0168470
781.265	0.0169370
781.343	0.0168656
781.421	0.0168818
781.499	0.0169319
781.578	0.0167303
781.656	0.0169999
781.734	0.0169282
781.812	0.0169456
781.890	0.0167248
781.968	0.0167233
782.046	0.0167165
782.124	0.0163298
782.203	0.0164671
782.281	0.0163291
782.359	0.0161568
782.437	0.0161412
782.515	0.0160844
782.593	0.0160552
782.671	0.0160261
782.749	0.0159203
782.828	0.0160393
782.906	0.0160412
782.984	0.0160608
783.062	0.0158800
783.140	0.0161116
783.218	0.0160043
783.296	0.0160243
783.374	0.0159711
783.453	0.0160859
783.531	0.0161536
783.609	0.0160589
783.687	0.0162155
783.765	0.0161925
783.843	0.0161555
783.921	0.0163410
783.999	0.0163928
784.078	0.0164900
784.156	0.0165899
784.234	0.0166846
784.312	0.0166116
784.390	0.0167059
784.468	0.0168609
784.546	0.0167542
784.624	0.0167819
784.703	0.0168499
784.781	0.0168414
784.859	0.0167192
784.937	0.0167795
785.015	0.0167798
785.093	0.0167306
785.171	0.0166113
785.249	0.0165884
785.328	0.0164852
785.406	0.0164019
785.484	0.0162052
785.562	0.0162968
785.640	0.0163282
785.718	0.0161536
785.796	0.0160534
785.874	0.0160973
785.953	0.0159468
786.031	0.0159619
786.109	0.0160316
786.187	0.0161075
786.265	0.0160062
786.343	0.0158852
786.421	0.0158238
786.499	0.0160273
786.578	0.0160550
786.656	0.0161103
786.734	0.0160471
786.812	0.0161301
786.890	0.0161591
786.968	0.0161785
787.046	0.0162257
787.124	0.0161908
787.203	0.0162165
787.281	0.0162600
787.359	0.0163747
787.437	0.0164069
787.515	0.0162695
787.593	0.0163242
787.671	0.0164055
787.749	0.0162684
787.828	0.0164542
787.906	0.0164111
787.984	0.0163642
788.062	0.0165078
788.140	0.0166558
788.218	0.0165381
788.296	0.0166183
788.374	0.0166483
788.453	0.0166577
788.531	0.0166164
788.609	0.0167671
788.687	0.0166660
788.765	0.0166463
788.843	0.0165253
788.921	0.0167448
788.999	0.0166383
789.078	0.0165853
789.156	0.0166576
789.234	0.0166757
789.312	0.0166195
789.390	0.0167625
789.468	0.0165210
789.546	0.0165794
789.624	0.0164183
789.703	0.0165423
789.781	0.0165252
789.859	0.0166270
789.937	0.0164919
790.015	0.0163808
790.093	0.0164161
790.171	0.0164913
790.249	0.0162541
790.328	0.0160860
790.406	0.0161753
790.484	0.0158687
790.562	0.0157836
790.640	0.0159415
790.718	0.0158910
790.796	0.0157368
790.874	0.0156969
790.953	0.0157679
791.031	0.0158826
791.109	0.0158018
791.187	0.0158158
791.265	0.0157725
791.343	0.0159134
791.421	0.0158498
791.499	0.0160192
791.578	0.0161402
791.656	0.0161691
791.734	0.0161648
791.812	0.0162984
791.890	0.0163210
791.968	0.0164204
792.046	0.0164256
792.124	0.0166880
792.203	0.0166653
792.281	0.0167117
792.359	0.0168614
792.437	0.0169875
792.515	0.0168144
792.593	0.0169811
792.671	0.0170597
792.749	0.0171017
792.828	0.0169855
792.906	0.0170911
792.984	0.0170892
793.062	0.0170519
793.140	0.0169469
793.218	0.0167818
793.296	0.0167793
793.374	0.0167397
793.453	0.0165968
793.531	0.0163916
793.609	0.0161569
793.687	0.0160751
793.765	0.0160324
793.843	0.0159516
793.921	0.0158421
793.999	0.0157951
794.078	0.0158207
794.156	0.0157359
794.234	0.0157203
794.312	0.0157512
794.390	0.0157273
794.468	0.0158521
794.546	0.0159268
794.624	0.0159917
794.703	0.0158582
794.781	0.0160831
794.859	0.0159405
794.937	0.0161248
795.015	0.0164590
795.093	0.0164047
795.171	0.0163730
795.249	0.0164374
795.328	0.0165804
795.406	0.0166151
795.484	0.0167400
795.562	0.0168623
795.640	0.0168494
795.718	0.0169073
795.796	0.0169109
795.874	0.0168201
795.953	0.0169347
796.031	0.0168035
796.109	0.0167172
796.187	0.0167681
796.265	0.0166822
796.343	0.0167469
796.421	0.0167352
796.499	0.0164915
796.578	0.0165147
796.656	0.0165606
796.734	0.0164038
796.812	0.0163809
796.890	0.0163081
796.968	0.0162131
797.046	0.0161012
797.124	0.0160764
797.203	0.0160514
797.281	0.0159350
797.359	0.0159159
797.437	0.0158293
797.515	0.0158015
797.593	0.0158910
797.671	0.0157942
797.749	0.0157545
797.828	0.0158764
797.906	0.0159037
797.984	0.0159270
798.062	0.0159515
798.140	0.0161023
798.218	0.0160641
798.296	0.0160815
798.374	0.0162494
798.453	0.0161572
798.531	0.0162345
798.609	0.0162799
798.687	0.0164987
798.765	0.0163609
798.843	0.0165215
798.921	0.0166056
798.999	0.0165800
799.078	0.0164407
799.156	0.0166563
799.234	0.0166734
799.312	0.0167547
799.390	0.0167768
799.468	0.0167284
799.546	0.0167577
799.624	0.0169149
799.703	0.0169183
799.781	0.0167747
799.859	0.0167928
799.937	0.0169261
800.015	0.0168043
800.093	0.0167509
800.171	0.0166578
800.249	0.0167570
800.328	0.0165787
800.406	0.0165086
800.484	0.0165672
800.562	0.0165168
800.640	0.0164983
800.718	0.0164144
800.796	0.0164160
800.874	0.0165192
800.953	0.0162166
801.031	0.0162135
801.109	0.0161428
801.187	0.0159930
801.265	0.0160680
801.343	0.0160155
801.421	0.0158231
801.499	0.0158257
801.578	0.0158156
801.656	0.0157848
801.734	0.0156888
801.812	0.0157841
801.890	0.0155958
801.968	0.0157247
802.046	0.0157442
802.124	0.0157771
802.203	0.0158761
802.281	0.0160210
802.359	0.0159873
802.437	0.0161043
802.515	0.0161076
802.593	0.0161035
802.671	0.0162677
802.749	0.0163651
802.828	0.0163563
802.906	0.0164819
802.984	0.0166589
803.062	0.0166227
803.140	0.0165956
803.218	0.0165908
803.296	0.0166280
803.374	0.0166627
803.453	0.0167011
803.531	0.0166324
803.609	0.0168482
803.687	0.0166492
803.765	0.0166876
803.843	0.0166924
803.921	0.0167711
803.999	0.0167908
804.078	0.0167480
804.156	0.0166051
804.234	0.0165968
804.312	0.0165900
804.390	0.0166521
804.468	0.0164026
804.546	0.0165118
804.624	0.0163577
804.703	0.0161874
804.781	0.0162675
804.859	0.0160165
804.937	0.0160416
805.015	0.0161436
805.093	0.0159996
805.171	0.0160728
805.249	0.0161355
805.328	0.0160089
805.406	0.0160844
805.484	0.0161995
805.562	0.0161644
805.640	0.0163332
805.718	0.0162302
805.796	0.0164203
805.874	0.0163827
805.953	0.0163410
806.031	0.0163955
806.109	0.0163490
806.187	0.0164989
806.265	0.0165123
806.343	0.0164162
806.421	0.0165079
806.499	0.0164332
806.578	0.0163777
806.656	0.0165082
806.734	0.0165916
806.812	0.0165249
806.890	0.0164976
806.968	0.0163921
807.046	0.0165079
807.124	0.0163900
807.203	0.0163526
807.281	0.0162757
807.359	0.0161794
807.437	0.0162053
807.515	0.0162235
807.593	0.0162746
807.671	0.0162083
807.749	0.0161224
807.828	0.0161762
807.906	0.0161925
807.984	0.0162379
808.062	0.0162576
808.140	0.0162560
808.218	0.0164060
808.296	0.0163064
808.374	0.0162305
808.453	0.0162302
808.531	0.0162545
808.609	0.0162718
808.687	0.0163032
808.765	0.0164355
808.843	0.0164040
808.921	0.0164009
808.999	0.0164355
809.078	0.0165157
809.156	0.0165453
809.234	0.0165054
809.312	0.0166105
809.390	0.0166734
809.468	0.0167414
809.546	0.0166891
809.624	0.0166914
809.703	0.0167180
809.781	0.0166521
809.859	0.0167419
809.937	0.0166442
810.015	0.0166689
810.093	0.0166933
810.171	0.0166423
810.249	0.0166330
810.328	0.0167458
810.406	0.0165660
810.484	0.0167277
810.562	0.0164618
810.640	0.0165582
810.718	0.0167430
810.796	0.0166037
810.874	0.0167317
810.953	0.0167464
811.031	0.0165455
811.109	0.0166920
811.187	0.0166118
811.265	0.0165901
811.343	0.0166148
811.421	0.0166843
811.499	0.0164789
811.578	0.0165070
811.656	0.0163186
811.734	0.0164002
811.812	0.0162882
811.890	0.0162429
811.968	0.0161671
812.046	0.0161597
812.124	0.0160512
812.203	0.0159797
812.281	0.0160172
812.359	0.0160540
812.437	0.0160526
812.515	0.0159697
812.593	0.0160977
812.671	0.0160503
812.749	0.0161561
812.828	0.0160728
812.906	0.0160119
812.984	0.0160272
813.062	0.0160869
813.140	0.0161404
813.218	0.0161858
813.296	0.0161757
813.374	0.0162550
813.453	0.0162676
813.531	0.0164487
813.609	0.0165671
813.687	0.0164574
813.765	0.0165965
813.843	0.0166049
813.921	0.0166894
813.999	0.0167004
814.078	0.0167464
814.156	0.0167644
814.234	0.0167416
814.312	0.0166805
814.390	0.0167801
814.468	0.0167296
814.546	0.0166420
814.624	0.0165911
814.703	0.0164614
814.781	0.0166101
814.859	0.0165656
814.937	0.0165930
815.015	0.0165625
815.093	0.0165728
815.171	0.0166422
815.249	0.0166329
815.328	0.0166340
815.406	0.0165033
815.484	0.0164469
815.562	0.0164350
815.640	0.0165761
815.718	0.0164922
815.796	0.0166351
815.874	0.0166075
815.953	0.0165881
816.031	0.0166828
816.109	0.0166334
816.187	0.0166806
816.265	0.0165847
816.343	0.0166230
816.421	0.0165974
816.499	0.0164631
816.578	0.0165480
816.656	0.0165019
816.734	0.0163998
816.812	0.0163725
816.890	0.0162635
816.968	0.0162797
817.046	0.0162466
817.124	0.0160914
817.203	0.0159972
817.281	0.0160655
817.359	0.0161034
817.437	0.0160083
817.515	0.0159804
817.593	0.0160581
817.671	0.0160194
817.749	0.0159217
817.828	0.0159747
817.906	0.0161044
817.984	0.0159226
818.062	0.0160542
818.140	0.0161107
818.218	0.0162159
818.296	0.0161703
818.374	0.0161068
818.453	0.0161386
818.531	0.0161691
818.609	0.0161832
818.687	0.0162477
818.765	0.0162699
818.843	0.0164024
818.921	0.0163680
818.999	0.0164256
819.078	0.0165278
819.156	0.0164388
819.234	0.0168868
819.312	0.0168725
819.390	0.0169054
819.468	0.0169236
819.546	0.0169925
819.624	0.0171035
819.703	0.0171244
819.781	0.0169769
819.859	0.0168811
819.937	0.0168803
820.015	0.0168404
820.093	0.0168497
820.171	0.0168476
820.249	0.0168031
820.328	0.0166762
820.406	0.0166870
820.484	0.0164764
820.562	0.0165987
820.640	0.0165685
820.718	0.0163725
820.796	0.0164693
820.874	0.0165246
820.953	0.0163750
821.031	0.0162671
821.109	0.0162652
821.187	0.0162674
821.265	0.0162886
821.343	0.0162643
821.421	0.0162231
821.499	0.0162222
821.578	0.0162061
821.656	0.0161340
821.734	0.0161095
821.812	0.0158977
821.890	0.0159991
821.968	0.0161103
822.046	0.0160947
822.124	0.0160213
822.203	0.0161620
822.281	0.0159584
822.359	0.0160258
822.437	0.0160688
822.515	0.0161359
822.593	0.0161474
822.671	0.0161677
822.749	0.0162296
822.828	0.0162125
822.906	0.0161894
822.984	0.0164498
823.062	0.0164034
823.140	0.0163990
823.218	0.0162866
823.296	0.0164098
823.374	0.0164046
823.453	0.0165391
823.531	0.0164052
823.609	0.0163689
823.687	0.0163987
823.765	0.0164336
823.843	0.0163956
823.921	0.0164802
823.999	0.0165358
824.078	0.0164383
824.156	0.0165527
824.234	0.0164920
824.312	0.0164011
824.390	0.0167254
824.468	0.0166850
824.546	0.0166944
824.624	0.0168069
824.703	0.0166995
824.781	0.0167616
824.859	0.0168254
824.937	0.0167783
825.015	0.0168601
825.093	0.0167563
825.171	0.0167631
825.249	0.0167714
825.328	0.0167329
825.406	0.0167027
825.484	0.0166178
825.562	0.0165044
825.640	0.0165350
825.718	0.0165041
825.796	0.0165575
825.874	0.0164302
825.953	0.0163104
826.031	0.0163892
826.109	0.0163078
826.187	0.0163296
826.265	0.0161943
826.343	0.0160065
826.421	0.0161748
826.499	0.0161204
826.578	0.0161073
826.656	0.0160299
826.734	0.0159412
826.812	0.0159496
826.890	0.0159543
826.968	0.0160294
827.046	0.0162472
827.124	0.0160706
827.203	0.0162509
827.281	0.0162914
827.359	0.0164071
827.437	0.0164045
827.515	0.0164845
827.593	0.0165244
827.671	0.0166354
827.749	0.0167349
827.828	0.0168638
827.906	0.0169819
827.984	0.0170085
828.062	0.0169518
828.140	0.0169742
828.218	0.0169212
828.296	0.0168862
828.374	0.0168348
828.453	0.0169556
828.531	0.0169711
828.609	0.0167560
828.687	0.0166491
828.765	0.0165964
828.843	0.0165971
828.921	0.0165340
828.999	0.0162622
829.078	0.0163130
829.156	0.0160228
829.234	0.0159527
829.312	0.0160782
829.390	0.0159472
829.468	0.0159462
829.546	0.0160459
829.624	0.0158812
829.703	0.0159695
829.781	0.0159650
829.859	0.0159896
829.937	0.0159999
830.015	0.0160922
830.093	0.0160474
830.171	0.0161947
830.249	0.0162195
830.328	0.0163603
830.406	0.0165537
830.484	0.0166360
830.562	0.0166280
830.640	0.0166588
830.718	0.0167647
830.796	0.0168237
830.874	0.0168663
830.953	0.0167815
831.031	0.0170209
831.109	0.0169891
831.187	0.0169812
831.265	0.0170048
831.343	0.0169475
831.421	0.0170435
831.499	0.0169511
831.578	0.0168938
831.656	0.0170144
831.734	0.0169522
831.812	0.0169670
831.890	0.0168388
831.968	0.0167626
832.046	0.0167260
832.124	0.0167133
832.203	0.0165263
832.281	0.0165377
832.359	0.0165793
832.437	0.0163868
832.515	0.0163670
832.593	0.0163242
832.671	0.0162676
832.749	0.0162882
832.828	0.0162061
832.906	0.0160656
832.984	0.0160770
833.062	0.0160583
833.140	0.0160637
833.218	0.0161624
833.296	0.0159842
833.374	0.0161385
833.453	0.0160719
833.531	0.0159706
833.609	0.0159322
833.687	0.0158952
833.765	0.0159937
833.843	0.0159280
833.921	0.0160799
833.999	0.0160975
834.078	0.0160365
834.156	0.0159357
834.234	0.0161069
834.312	0.0162479
834.390	0.0162611
834.468	0.0162553
834.546	0.0162782
834.624	0.0162179
834.703	0.0161621
834.781	0.0164415
834.859	0.0164850
834.937	0.0165234
835.015	0.0165800
835.093	0.0164752
835.171	0.0165203
835.249	0.0166740
835.328	0.0167429
835.406	0.0166602
835.484	0.0168153
835.562	0.0168507
835.640	0.0168835
835.718	0.0168273
835.796	0.0169552
835.874	0.0169987
835.953	0.0169225
836.031	0.0170345
836.109	0.0170435
836.187	0.0169283
836.265	0.0169805
836.343	0.0169107
836.421	0.0168753
836.499	0.0167589
836.578	0.0168385
836.656	0.0165776
836.734	0.0164069
836.812	0.0163584
836.890	0.0164884
836.968	0.0162659
837.046	0.0160873
837.124	0.0161678
837.203	0.0159435
837.281	0.0160321
837.359	0.0160094
837.437	0.0159687
837.515	0.0157642
837.593	0.0158143
837.671	0.0158974
837.749	0.0159029
837.828	0.0158086
837.906	0.0158169
837.984	0.0159269
838.062	0.0160591
838.140	0.0160614
838.218	0.0159010
838.296	0.0160526
838.374	0.0162196
838.453	0.0160938
838.531	0.0162229
838.609	0.0163230
838.687	0.0163220
838.765	0.0164373
838.843	0.0166081
838.921	0.0167268
838.999	0.0167230
839.078	0.0167807
839.156	0.0168992
839.234	0.0168371
839.312	0.0169282
839.390	0.0172077
839.468	0.0171693
839.546	0.0170204
839.624	0.0170247
839.703	0.0170531
839.781	0.0170657
839.859	0.0170434
839.937	0.0170289
840.015	0.0169508
840.093	0.0167831
840.171	0.0168510
840.249	0.0168476
840.328	0.0166145
840.406	0.0165086
840.484	0.0165250
840.562	0.0164051
840.640	0.0162062
840.718	0.0163317
840.796	0.0163113
840.874	0.0162775
840.953	0.0162659
841.031	0.0159521
841.109	0.0161653
841.187	0.0160355
841.265	0.0159258
841.343	0.0160082
841.421	0.0161664
841.499	0.0161565
841.578	0.0161723
841.656	0.0161407
841.734	0.0162213
841.812	0.0161783
841.890	0.0162671
841.968	0.0162230
842.046	0.0162518
842.124	0.0163087
842.203	0.0164394
842.281	0.0164026
842.359	0.0164193
842.437	0.0165917
842.515	0.0164666
842.593	0.0163819
842.671	0.0166399
842.749	0.0166687
842.828	0.0168311
842.906	0.0167284
842.984	0.0168140
843.062	0.0168259
843.140	0.0167611
843.218	0.0166325
843.296	0.0167246
843.374	0.0166988
843.453	0.0166865
843.531	0.0167373
843.609	0.0166426
843.687	0.0167142
843.765	0.0165389
843.843	0.0165605
843.921	0.0165888
843.999	0.0165123
844.078	0.0164911
844.156	0.0163377
844.234	0.0162941
844.312	0.0162106
844.390	0.0161233
844.468	0.0161128
844.546	0.0160319
844.624	0.0161977
844.703	0.0160374
844.781	0.0161076
844.859	0.0160568
844.937	0.0159492
845.015	0.0161043
845.093	0.0160715
845.171	0.0161766
845.249	0.0162252
845.328	0.0163557
845.406	0.0161776
845.484	0.0162693
845.562	0.0162933
845.640	0.0162395
845.718	0.0163853
845.796	0.0162852
845.874	0.0163320
845.953	0.0164333
846.031	0.0163654
846.109	0.0164887
846.187	0.0166906
846.265	0.0164562
846.343	0.0165418
846.421	0.0166741
846.499	0.0165720
846.578	0.0166679
846.656	0.0168377
846.734	0.0167605
846.812	0.0167099
846.890	0.0167854
846.968	0.0169268
847.046	0.0167731
847.124	0.0167578
847.203	0.0168424
847.281	0.0166978
847.359	0.0166872
847.437	0.0165826
847.515	0.0164851
847.593	0.0165617
847.671	0.0165112
847.749	0.0162907
847.828	0.0162614
847.906	0.0161859
847.984	0.0163035
848.062	0.0161768
848.140	0.0160687
848.218	0.0161856
848.296	0.0160460
848.374	0.0160849
848.453	0.0160143
848.531	0.0160614
848.609	0.0160456
848.687	0.0160724
848.765	0.0161847
848.843	0.0162273
848.921	0.0161939
848.999	0.0163145
849.078	0.0164821
849.156	0.0163773
849.234	0.0164006
849.312	0.0164286
849.390	0.0164368
849.468	0.0165321
849.546	0.0165488
849.624	0.0165736
849.703	0.0166582
849.781	0.0164880
849.859	0.0164075
849.937	0.0164911
850.015	0.0164847
850.093	0.0166424
850.171	0.0164948
850.249	0.0164968
850.328	0.0166372
850.406	0.0164447
850.484	0.0164806
850.562	0.0165771
850.640	0.0165157
850.718	0.0164344
850.796	0.0164425
850.874	0.0164664
850.953	0.0164112
851.031	0.0163913
851.109	0.0164320
851.187	0.0163699
851.265	0.0164142
851.343	0.0165617
851.421	0.0165298
851.499	0.0164983
851.578	0.0164045
851.656	0.0164084
851.734	0.0164489
851.812	0.0163905
851.890	0.0164977
851.968	0.0163660
852.046	0.0165810
852.124	0.0165252
852.203	0.0164892
852.281	0.0165711
852.359	0.0164695
852.437	0.0164804
852.515	0.0164875
852.593	0.0164569
852.671	0.0164198
852.749	0.0165750
852.828	0.0165369
852.906	0.0163858
852.984	0.0164307
853.062	0.0164030
853.140	0.0164358
853.218	0.0163499
853.296	0.0163150
853.374	0.0163314
853.453	0.0162981
853.531	0.0162702
853.609	0.0161580
853.687	0.0162742
853.765	0.0163667
853.843	0.0163033
853.921	0.0163682
853.999	0.0163326
854.078	0.0162681
854.156	0.0164608
854.234	0.0165012
854.312	0.0163506
854.390	0.0164437
854.468	0.0166248
854.546	0.0164835
854.624	0.0164265
854.703	0.0165711
854.781	0.0166047
854.859	0.0165793
854.937	0.0165268
855.015	0.0165917
855.093	0.0165707
855.171	0.0165598
855.249	0.0165527
855.328	0.0164360
855.406	0.0164596
855.484	0.0164558
855.562	0.0165074
855.640	0.0164502
855.718	0.0164739
855.796	0.0164041
855.874	0.0161948
855.953	0.0163204
856.031	0.0162202
856.109	0.0162296
856.187	0.0160944
856.265	0.0162859
856.343	0.0162434
856.421	0.0161381
856.499	0.0161372
856.578	0.0162202
856.656	0.0162228
856.734	0.0161910
856.812	0.0161076
856.890	0.0160598
856.968	0.0161878
857.046	0.0162228
857.124	0.0163335
857.203	0.0162663
857.281	0.0162841
857.359	0.0163724
857.437	0.0162915
857.515	0.0164090
857.593	0.0163353
857.671	0.0165078
857.749	0.0163660
857.828	0.0165891
857.906	0.0166150
857.984	0.0166203
858.062	0.0167030
858.140	0.0166955
858.218	0.0167570
858.296	0.0166521
858.374	0.0167072
858.453	0.0165582
858.531	0.0166356
858.609	0.0165410
858.687	0.0164985
858.765	0.0166067
858.843	0.0164084
858.921	0.0164548
858.999	0.0164223
859.078	0.0163011
859.156	0.0163862
859.234	0.0164001
859.312	0.0161969
859.390	0.0162663
859.468	0.0162776
859.546	0.0163042
859.624	0.0162821
859.703	0.0162624
859.781	0.0163558
859.859	0.0161839
859.937	0.0161951
860.015	0.0162766
860.093	0.0160783
860.171	0.0162969
860.249	0.0163389
860.328	0.0161687
860.406	0.0161110
860.484	0.0161076
860.562	0.0162195
860.640	0.0160914
860.718	0.0161079
860.796	0.0161456
860.874	0.0161503
860.953	0.0162434
861.031	0.0162921
861.109	0.0163071
861.187	0.0163081
861.265	0.0161897
861.343	0.0162186
861.421	0.0163452
861.499	0.0164620
861.578	0.0164022
861.656	0.0163943
861.734	0.0164240
861.812	0.0163306
861.890	0.0163181
861.968	0.0163242
862.046	0.0163552
862.124	0.0163806
862.203	0.0164463
862.281	0.0162947
862.359	0.0163013
862.437	0.0163746
862.515	0.0164256
862.593	0.0162248
862.671	0.0162642
862.749	0.0162442
862.828	0.0162355
862.906	0.0162800
862.984	0.0162469
863.062	0.0164006
863.140	0.0162138
863.218	0.0162517
863.296	0.0163809
863.374	0.0163817
863.453	0.0162798
863.531	0.0163118
863.609	0.0163731
863.687	0.0165276
863.765	0.0164757
863.843	0.0163779
863.921	0.0164799
863.999	0.0163757
864.078	0.0164634
864.156	0.0164400
864.234	0.0164008
864.312	0.0165824
864.390	0.0164658
864.468	0.0165668
864.546	0.0164555
864.624	0.0164484
864.703	0.0164146
864.781	0.0163692
864.859	0.0163545
864.937	0.0163705
865.015	0.0163174
865.093	0.0163617
865.171	0.0162640
865.249	0.0162115
865.328	0.0162556
865.406	0.0163906
865.484	0.0162794
865.562	0.0163023
865.640	0.0163580
865.718	0.0163622
865.796	0.0163111
865.874	0.0163483
865.953	0.0161232
866.031	0.0163963
866.109	0.0162905
866.187	0.0163280
866.265	0.0163378
866.343	0.0164082
866.421	0.0163689
866.499	0.0163891
866.578	0.0163428
866.656	0.0163069
866.734	0.0163322
866.812	0.0164213
866.890	0.0163737
866.968	0.0164286
867.046	0.0164931
867.124	0.0164739
867.203	0.0164393
867.281	0.0164764
867.359	0.0163960
867.437	0.0163828
867.515	0.0163940
867.593	0.0164150
867.671	0.0164257
867.749	0.0163115
867.828	0.0163802
867.906	0.0163713
867.984	0.0164732
868.062	0.0164475
868.140	0.0163557
868.218	0.0162508
868.296	0.0161685
868.374	0.0162378
868.453	0.0161307
868.531	0.0163095
868.609	0.0162431
868.687	0.0161612
868.765	0.0162060
868.843	0.0162764
868.921	0.0162920
868.999	0.0163224
869.078	0.0163169
869.156	0.0162621
869.234	0.0163248
869.312	0.0163796
869.390	0.0163506
869.468	0.0164690
869.546	0.0164222
869.624	0.0164595
869.703	0.0164756
869.781	0.0165735
869.859	0.0164223
869.937	0.0164996
870.015	0.0164038
870.093	0.0165463
870.171	0.0164819
870.249	0.0164729
870.328	0.0165517
870.406	0.0165517
870.484	0.0166389
870.562	0.0165023
870.640	0.0165192
870.718	0.0166219
870.796	0.0164824
870.874	0.0164194
870.953	0.0164764
871.031	0.0165327
871.109	0.0166306
871.187	0.0164863
871.265	0.0163249
871.343	0.0164098
871.421	0.0164901
871.499	0.0164928
871.578	0.0163671
871.656	0.0162170
871.734	0.0161209
871.812	0.0162681
871.890	0.0162926
871.968	0.0161053
872.046	0.0160953
872.124	0.0161742
872.203	0.0160970
872.281	0.0160833
872.359	0.0162862
872.437	0.0162175
872.515	0.0162599
872.593	0.0161544
872.671	0.0161542
872.749	0.0163008
872.828	0.0163089
872.906	0.0162184
872.984	0.0162151
873.062	0.0163467
873.140	0.0164337
873.218	0.0164243
873.296	0.0163850
873.374	0.0163859
873.453	0.0164582
873.531	0.0164502
873.609	0.0165119
873.687	0.0165933
873.765	0.0164356
873.843	0.0164806
873.921	0.0165333
873.999	0.0164654
874.078	0.0164608
874.156	0.0164973
874.234	0.0163371
874.312	0.0164949
874.390	0.0165073
874.468	0.0164136
874.546	0.0163858
874.624	0.0162532
874.703	0.0162581
874.781	0.0163633
874.859	0.0163341
874.937	0.0162580
875.015	0.0161632
875.093	0.0163933
875.171	0.0161002
875.249	0.0161337
875.328	0.0162431
875.406	0.0161565
875.484	0.0162045
875.562	0.0162885
875.640	0.0163609
875.718	0.0162123
875.796	0.0163398
875.874	0.0164301
875.953	0.0163277
876.031	0.0163535
876.109	0.0163429
876.187	0.0165105
876.265	0.0165572
876.343	0.0164201
876.421	0.0165090
876.499	0.0164463
876.578	0.0163574
876.656	0.0164068
876.734	0.0165406
876.812	0.0163763
876.890	0.0164565
876.968	0.0163474
877.046	0.0164295
877.124	0.0164336
877.203	0.0163837
877.281	0.0163538
877.359	0.0161689
877.437	0.0162770
877.515	0.0162167
877.593	0.0160773
877.671	0.0160575
877.749	0.0161632
877.828	0.0162189
877.906	0.0161421
877.984	0.0160876
878.062	0.0160683
878.140	0.0161339
878.218	0.0160486
878.296	0.0160310
878.374	0.0159706
878.453	0.0162189
878.531	0.0162533
878.609	0.0163197
878.687	0.0162302
878.765	0.0164152
878.843	0.0163000
878.921	0.0163387
878.999	0.0165665
879.078	0.0163654
879.156	0.0164227
879.234	0.0165186
879.312	0.0165479
879.390	0.0165316
879.468	0.0165234
879.546	0.0166157
879.624	0.0166030
879.703	0.0165961
879.781	0.0164508
879.859	0.0165429
879.937	0.0164164
880.015	0.0163250
880.093	0.0164514
880.171	0.0163334
880.249	0.0162593
880.328	0.0163744
880.406	0.0162570
880.484	0.0161806
880.562	0.0161538
880.640	0.0161143
880.718	0.0161543
880.796	0.0162164
880.874	0.0161848
880.953	0.0162843
881.031	0.0163771
881.109	0.0164120
881.187	0.0162970
881.265	0.0164056
881.343	0.0164613
881.421	0.0164565
881.499	0.0163598
881.578	0.0165628
881.656	0.0165649
881.734	0.0165398
881.812	0.0165893
881.890	0.0166058
881.968	0.0164595
882.046	0.0165958
882.124	0.0164809
882.203	0.0164551
882.281	0.0165026
882.359	0.0164575
882.437	0.0164589
882.515	0.0165052
882.593	0.0163789
882.671	0.0164420
882.749	0.0162795
882.828	0.0162818
882.906	0.0163706
882.984	0.0164099
883.062	0.0162558
883.140	0.0163885
883.218	0.0163867
883.296	0.0162187
883.374	0.0163470
883.453	0.0163433
883.531	0.0163330
883.609	0.0163339
883.687	0.0162950
883.765	0.0162809
883.843	0.0162852
883.921	0.0162008
883.999	0.0165122
884.078	0.0164622
884.156	0.0164491
884.234	0.0164046
884.312	0.0164046
884.390	0.0165453
884.468	0.0165643
884.546	0.0164700
884.624	0.0166656
884.703	0.0166054
884.781	0.0164018
884.859	0.0166285
884.937	0.0167005
885.015	0.0166937
885.093	0.0166533
885.171	0.0165588
885.249	0.0165873
885.328	0.0165918
885.406	0.0166209
885.484	0.0164469
885.562	0.0164809
885.640	0.0165131
885.718	0.0163850
885.796	0.0163986
885.874	0.0164678
885.953	0.0164049
886.031	0.0163610
886.109	0.0163007
886.187	0.0162991
886.265	0.0162475
886.343	0.0161931
886.421	0.0161205
886.499	0.0162753
886.578	0.0162688
886.656	0.0163771
886.734	0.0161975
886.812	0.0162784
886.890	0.0162052
886.968	0.0162888
887.046	0.0162790
887.124	0.0162895
887.203	0.0163336
887.281	0.0163161
887.359	0.0163098
887.437	0.0164307
887.515	0.0164550
887.593	0.0162851
887.671	0.0163592
887.749	0.0162285
887.828	0.0163873
887.906	0.0163491
887.984	0.0163074
888.062	0.0162928
888.140	0.0163651
888.218	0.0164300
888.296	0.0165414
888.374	0.0163744
888.453	0.0162037
888.531	0.0164000
888.609	0.0163692
888.687	0.0164073
888.765	0.0163361
888.843	0.0162038
888.921	0.0162749
888.999	0.0162499
889.078	0.0163042
889.156	0.0163442
889.234	0.0163016
889.312	0.0163604
889.390	0.0164930
889.468	0.0165414
889.546	0.0163454
889.624	0.0164836
889.703	0.0163921
889.781	0.0165294
889.859	0.0165282
889.937	0.0164902
890.015	0.0165083
890.093	0.0165810
890.171	0.0166033
890.249	0.0166812
890.328	0.0165722
890.406	0.0165061
890.484	0.0164864
890.562	0.0166546
890.640	0.0165636
890.718	0.0164703
890.796	0.0165027
890.874	0.0164139
890.953	0.0164312
891.031	0.0164630
891.109	0.0164234
891.187	0.0164587
891.265	0.0163767
891.343	0.0163580
891.421	0.0164257
891.499	0.0163563
891.578	0.0163326
891.656	0.0163368
891.734	0.0163315
891.812	0.0162228
891.890	0.0162496
891.968	0.0163400
892.046	0.0163165
892.124	0.0164294
892.203	0.0162917
892.281	0.0163075
892.359	0.0164401
892.437	0.0163937
892.515	0.0165125
892.593	0.0164657
892.671	0.0163330
892.749	0.0165403
892.828	0.0165318
892.906	0.0165195
892.984	0.0164781
893.062	0.0165137
893.140	0.0164375
893.218	0.0165192
893.296	0.0165622
893.374	0.0164513
893.453	0.0166090
893.531	0.0165424
893.609	0.0163703
893.687	0.0165122
893.765	0.0166376
893.843	0.0164303
893.921	0.0163384
893.999	0.0164101
894.078	0.0165475
894.156	0.0163724
894.234	0.0164592
894.312	0.0164120
894.390	0.0162667
894.468	0.0164516
894.546	0.0163253
894.624	0.0164235
894.703	0.0163685
894.781	0.0164608
894.859	0.0163847
894.937	0.0163150
895.015	0.0161010
895.093	0.0163686
895.171	0.0164098
895.249	0.0163380
895.328	0.0163386
895.406	0.0163925
895.484	0.0164564
895.562	0.0164186
895.640	0.0163995
895.718	0.0164811
895.796	0.0165684
895.874	0.0163866
895.953	0.0165297
896.031	0.0164294
896.109	0.0164696
896.187	0.0164737
896.265	0.0164271
896.343	0.0164304
896.421	0.0166160
896.499	0.0164318
896.578	0.0163955
896.656	0.0165538
896.734	0.0166223
896.812	0.0165500
896.890	0.0164150
896.968	0.0165608
897.046	0.0164336
897.124	0.0163590
897.203	0.0165379
897.281	0.0163877
897.359	0.0163841
897.437	0.0164001
897.515	0.0165207
897.593	0.0163961
897.671	0.0163521
897.749	0.0163129
897.828	0.0163814
897.906	0.0163793
897.984	0.0163128
898.062	0.0162510
898.140	0.0163061
898.218	0.0163944
898.296	0.0163605
898.374	0.0162539
898.453	0.0163932
898.531	0.0162017
898.609	0.0163026
898.687	0.0161483
898.765	0.0163692
898.843	0.0161794
898.921	0.0162502
898.999	0.0163674
899.078	0.0163951
899.156	0.0161903
899.234	0.0164227
899.312	0.0162797
899.390	0.0164975
899.468	0.0162328
899.546	0.0163393
899.624	0.0163840
899.703	0.0163110
899.781	0.0163950
899.859	0.0163107
899.937	0.0163721
900.015	0.0165556
900.093	0.0164016
900.171	0.0165751
900.249	0.0164701
900.328	0.0164024
900.406	0.0164902
900.484	0.0164806
900.562	0.0165820
900.640	0.0164762
900.718	0.0163409
900.796	0.0164819
900.874	0.0163953
900.953	0.0163943
901.031	0.0164470
901.109	0.0163930
901.187	0.0164285
901.265	0.0163605
901.343	0.0162729
901.421	0.0164150
901.499	0.0165121
901.578	0.0163172
901.656	0.0163287
901.734	0.0163449
901.812	0.0162918
901.890	0.0161971
901.968	0.0161786
902.046	0.0163186
902.124	0.0163834
902.203	0.0164452
902.281	0.0162975
902.359	0.0163625
902.437	0.0163262
902.515	0.0163679
902.593	0.0163682
902.671	0.0162868
902.749	0.0162654
902.828	0.0163052
902.906	0.0164417
902.984	0.0162478
903.062	0.0162041
903.140	0.0163705
903.218	0.0164980
903.296	0.0163627
903.374	0.0164254
903.453	0.0162601
903.531	0.0162997
903.609	0.0164089
903.687	0.0163716
903.765	0.0163297
903.843	0.0162359
903.921	0.0162760
903.999	0.0164818
904.078	0.0163262
904.156	0.0163084
904.234	0.0162339
904.312	0.0164211
904.390	0.0162059
904.468	0.0162678
904.546	0.0163262
904.624	0.0162593
904.703	0.0162568
904.781	0.0162144
904.859	0.0163033
904.937	0.0164159
905.015	0.0162911
905.093	0.0161913
905.171	0.0163918
905.249	0.0161816
905.328	0.0162244
905.406	0.0163109
905.484	0.0163914
905.562	0.0163126
905.640	0.0162591
905.718	0.0163364
905.796	0.0162792
905.874	0.0163970
905.953	0.0162778
906.031	0.0163428
906.109	0.0163399
906.187	0.0162217
906.265	0.0164276
906.343	0.0164772
906.421	0.0164087
906.499	0.0164864
906.578	0.0162955
906.656	0.0163416
906.734	0.0165067
906.812	0.0162885
906.890	0.0163889
906.968	0.0164492
907.046	0.0163275
907.124	0.0163949
907.203	0.0163896
907.281	0.0163020
907.359	0.0164224
907.437	0.0163924
907.515	0.0165308
907.593	0.0162416
907.671	0.0163943
907.749	0.0164845
907.828	0.0164240
907.906	0.0164818
907.984	0.0164827
908.062	0.0164375
908.140	0.0164065
908.218	0.0163693
908.296	0.0163861
908.374	0.0164322
908.453	0.0164878
908.531	0.0165122
908.609	0.0165877
908.687	0.0164448
908.765	0.0164295
908.843	0.0162891
908.921	0.0164557
908.999	0.0165330
909.078	0.0164339
909.156	0.0164399
909.234	0.0165411
909.312	0.0165786
909.390	0.0164745
909.468	0.0165211
909.546	0.0164216
909.624	0.0165245
909.703	0.0164727
909.781	0.0164336
909.859	0.0164374
909.937	0.0164800
910.015	0.0164326
910.093	0.0164264
910.171	0.0163694
910.249	0.0163822
910.328	0.0164795
910.406	0.0164732
910.484	0.0164413
910.562	0.0164638
910.640	0.0164824
910.718	0.0164178
910.796	0.0165166
910.874	0.0165465
910.953	0.0165474
911.031	0.0165190
911.109	0.0165665
911.187	0.0164824
911.265	0.0165869
911.343	0.0164716
911.421	0.0163151
911.499	0.0162762
911.578	0.0163373
911.656	0.0164064
911.734	0.0164037
911.812	0.0164101
911.890	0.0163125
911.968	0.0164873
912.046	0.0163373
912.124	0.0164090
912.203	0.0165768
912.281	0.0164061
912.359	0.0162315
912.437	0.0164321
912.515	0.0164981
912.593	0.0165051
912.671	0.0165508
912.749	0.0165765
912.828	0.0165733
912.906	0.0164101
912.984	0.0164354
913.062	0.0164455
913.140	0.0166344
913.218	0.0164216
913.296	0.0165536
913.374	0.0166961
913.453	0.0167619
913.531	0.0166712
913.609	0.0166411
913.687	0.0166383
913.765	0.0165859
913.843	0.0166805
913.921	0.0166283
913.999	0.0165526
914.078	0.0165611
914.156	0.0164783
914.234	0.0165170
914.312	0.0165630
914.390	0.0165960
914.468	0.0165685
914.546	0.0165733
914.624	0.0164971
914.703	0.0164792
914.781	0.0165350
914.859	0.0164603
914.937	0.0164877
915.015	0.0164127
915.093	0.0163786
915.171	0.0164090
915.249	0.0165038
915.328	0.0163120
915.406	0.0164407
915.484	0.0164969
915.562	0.0162868
915.640	0.0163304
915.718	0.0165667
915.796	0.0163303
915.874	0.0163740
915.953	0.0163873
916.031	0.0165031
916.109	0.0164250
916.187	0.0162829
916.265	0.0163799
916.343	0.0164300
916.421	0.0164148
916.499	0.0163968
916.578	0.0164253
916.656	0.0162988
916.734	0.0164278
916.812	0.0164952
916.890	0.0165034
916.968	0.0164055
917.046	0.0163166
917.124	0.0165812
917.203	0.0166138
917.281	0.0163947
917.359	0.0164333
917.437	0.0165437
917.515	0.0164391
917.593	0.0164162
917.671	0.0163982
917.749	0.0163651
917.828	0.0165169
917.906	0.0164521
917.984	0.0163012
918.062	0.0163400
918.140	0.0162872
918.218	0.0163296
918.296	0.0162958
918.374	0.0163412
918.453	0.0163938
918.531	0.0163284
918.609	0.0163126
918.687	0.0163776
918.765	0.0163180
918.843	0.0163490
918.921	0.0162753
918.999	0.0163777
919.078	0.0164137
919.156	0.0163736
919.234	0.0163734
919.312	0.0165060
919.390	0.0165610
919.468	0.0165071
919.546	0.0165988
919.624	0.0165076
919.703	0.0165105
919.781	0.0165891
919.859	0.0165722
919.937	0.0165590
