06/10/2022	18:26:49	Ver.	4.1	UNKNOWN
Optical Delay	600.015094	Delta X		0.078125	Sweeps	1	Scan Rate	0/0
Coordinates	Axis 1	NaN	Axis 2	NaN	Axis 3	NaN	Axis 4	NaN	Axis 5	NaN	Axis 6	0.000000
TX Power	0.000000	RX Power	0.000000

600.015	0.0157219
600.093	0.0156520
600.171	0.0156053
600.249	0.0155705
600.328	0.0156688
600.406	0.0157016
600.484	0.0156235
600.562	0.0157352
600.640	0.0155664
600.718	0.0156457
600.796	0.0156651
600.874	0.0156564
600.953	0.0156224
601.031	0.0157291
601.109	0.0156944
601.187	0.0156469
601.265	0.0156261
601.343	0.0155412
601.421	0.0157316
601.499	0.0157270
601.578	0.0157972
601.656	0.0156637
601.734	0.0157049
601.812	0.0156750
601.890	0.0156243
601.968	0.0156281
602.046	0.0157187
602.124	0.0157603
602.203	0.0155547
602.281	0.0156680
602.359	0.0155586
602.437	0.0156822
602.515	0.0155879
602.593	0.0155714
602.671	0.0156241
602.749	0.0155700
602.828	0.0156667
602.906	0.0157156
602.984	0.0157036
603.062	0.0156686
603.140	0.0156859
603.218	0.0156931
603.296	0.0157560
603.374	0.0156625
603.453	0.0156258
603.531	0.0157545
603.609	0.0157001
603.687	0.0156606
603.765	0.0156589
603.843	0.0158789
603.921	0.0156837
603.999	0.0156622
604.078	0.0158202
604.156	0.0158141
604.234	0.0155845
604.312	0.0157409
604.390	0.0156995
604.468	0.0156326
604.546	0.0157462
604.624	0.0156507
604.703	0.0155584
604.781	0.0157156
604.859	0.0157405
604.937	0.0156725
605.015	0.0157261
605.093	0.0157085
605.171	0.0156180
605.249	0.0156318
605.328	0.0156516
605.406	0.0156721
605.484	0.0158225
605.562	0.0156844
605.640	0.0156593
605.718	0.0157402
605.796	0.0155967
605.874	0.0157233
605.953	0.0157376
606.031	0.0157628
606.109	0.0157917
606.187	0.0156732
606.265	0.0157183
606.343	0.0156553
606.421	0.0156855
606.499	0.0156699
606.578	0.0156367
606.656	0.0157925
606.734	0.0157205
606.812	0.0157639
606.890	0.0155753
606.968	0.0157603
607.046	0.0157619
607.124	0.0157851
607.203	0.0156239
607.281	0.0155646
607.359	0.0157691
607.437	0.0157317
607.515	0.0156787
607.593	0.0156732
607.671	0.0157378
607.749	0.0157412
607.828	0.0157552
607.906	0.0156348
607.984	0.0157710
608.062	0.0156370
608.140	0.0157228
608.218	0.0156340
608.296	0.0156061
608.374	0.0158178
608.453	0.0156689
608.531	0.0156288
608.609	0.0157625
608.687	0.0157835
608.765	0.0157425
608.843	0.0158553
608.921	0.0156129
608.999	0.0155924
609.078	0.0157519
609.156	0.0157121
609.234	0.0156227
609.312	0.0156139
609.390	0.0158078
609.468	0.0157045
609.546	0.0156094
609.624	0.0157523
609.703	0.0157655
609.781	0.0156667
609.859	0.0157551
609.937	0.0156318
610.015	0.0156454
610.093	0.0156640
610.171	0.0157487
610.249	0.0156914
610.328	0.0157454
610.406	0.0157412
610.484	0.0156617
610.562	0.0156783
610.640	0.0157121
610.718	0.0157009
610.796	0.0156924
610.874	0.0158220
610.953	0.0156545
611.031	0.0158073
611.109	0.0157427
611.187	0.0157878
611.265	0.0157473
611.343	0.0156614
611.421	0.0155788
611.499	0.0155905
611.578	0.0157653
611.656	0.0158053
611.734	0.0156301
611.812	0.0156908
611.890	0.0155373
611.968	0.0157428
612.046	0.0158208
612.124	0.0155289
612.203	0.0157006
612.281	0.0155270
612.359	0.0155610
612.437	0.0157898
612.515	0.0157021
612.593	0.0156495
612.671	0.0156194
612.749	0.0156293
612.828	0.0157068
612.906	0.0156657
612.984	0.0158096
613.062	0.0157544
613.140	0.0156669
613.218	0.0156106
613.296	0.0155844
613.374	0.0156742
613.453	0.0156342
613.531	0.0156984
613.609	0.0155817
613.687	0.0157314
613.765	0.0157595
613.843	0.0156125
613.921	0.0155070
613.999	0.0156757
614.078	0.0157533
614.156	0.0156579
614.234	0.0157044
614.312	0.0157619
614.390	0.0156422
614.468	0.0157301
614.546	0.0157072
614.624	0.0157188
614.703	0.0155795
614.781	0.0155930
614.859	0.0157870
614.937	0.0156919
615.015	0.0157027
615.093	0.0157162
615.171	0.0156593
615.249	0.0155881
615.328	0.0156924
615.406	0.0158154
615.484	0.0158519
615.562	0.0157047
615.640	0.0156710
615.718	0.0156808
615.796	0.0157156
615.874	0.0157808
615.953	0.0156567
616.031	0.0156129
616.109	0.0157077
616.187	0.0157288
616.265	0.0157856
616.343	0.0157208
616.421	0.0157786
616.499	0.0157420
616.578	0.0156071
616.656	0.0156875
616.734	0.0156629
616.812	0.0156075
616.890	0.0156904
616.968	0.0156094
617.046	0.0158191
617.124	0.0157731
617.203	0.0156477
617.281	0.0157296
617.359	0.0156149
617.437	0.0156824
617.515	0.0155553
617.593	0.0156894
617.671	0.0156551
617.749	0.0156760
617.828	0.0157436
617.906	0.0157681
617.984	0.0156168
618.062	0.0156737
618.140	0.0157310
618.218	0.0157442
618.296	0.0157728
618.374	0.0158759
618.453	0.0157227
618.531	0.0157465
618.609	0.0157720
618.687	0.0157675
618.765	0.0156922
618.843	0.0156853
618.921	0.0159027
618.999	0.0157680
619.078	0.0156789
619.156	0.0156992
619.234	0.0157084
619.312	0.0156438
619.390	0.0157292
619.468	0.0158320
619.546	0.0158431
619.624	0.0157560
619.703	0.0156799
619.781	0.0156142
619.859	0.0158109
619.937	0.0156192
620.015	0.0156495
620.093	0.0157465
620.171	0.0156718
620.249	0.0156911
620.328	0.0157110
620.406	0.0156396
620.484	0.0155600
620.562	0.0156259
620.640	0.0157504
620.718	0.0157845
620.796	0.0158588
620.874	0.0157535
620.953	0.0158066
621.031	0.0155420
621.109	0.0156464
621.187	0.0159138
621.265	0.0156667
621.343	0.0155884
621.421	0.0155512
621.499	0.0155602
621.578	0.0156667
621.656	0.0156625
621.734	0.0156853
621.812	0.0157169
621.890	0.0157584
621.968	0.0156877
622.046	0.0156258
622.124	0.0157439
622.203	0.0157336
622.281	0.0157648
622.359	0.0156207
622.437	0.0155065
622.515	0.0157721
622.593	0.0156900
622.671	0.0156713
622.749	0.0156880
622.828	0.0156754
622.906	0.0156537
622.984	0.0155744
623.062	0.0157211
623.140	0.0157146
623.218	0.0156690
623.296	0.0157757
623.374	0.0156715
623.453	0.0156380
623.531	0.0157217
623.609	0.0156588
623.687	0.0157594
623.765	0.0156271
623.843	0.0156985
623.921	0.0156866
623.999	0.0158865
624.078	0.0156828
624.156	0.0158916
624.234	0.0158136
624.312	0.0155471
624.390	0.0157699
624.468	0.0156329
624.546	0.0157151
624.624	0.0155692
624.703	0.0157785
624.781	0.0157156
624.859	0.0156972
624.937	0.0157569
625.015	0.0157400
625.093	0.0157349
625.171	0.0156908
625.249	0.0156853
625.328	0.0156826
625.406	0.0156965
625.484	0.0157124
625.562	0.0157987
625.640	0.0157471
625.718	0.0157117
625.796	0.0157538
625.874	0.0157067
625.953	0.0157110
626.031	0.0159274
626.109	0.0156026
626.187	0.0156645
626.265	0.0157172
626.343	0.0158110
626.421	0.0158460
626.499	0.0157072
626.578	0.0157890
626.656	0.0157361
626.734	0.0156277
626.812	0.0157018
626.890	0.0155993
626.968	0.0156331
627.046	0.0156604
627.124	0.0158127
627.203	0.0156350
627.281	0.0157301
627.359	0.0156905
627.437	0.0157104
627.515	0.0155301
627.593	0.0156667
627.671	0.0157267
627.749	0.0156118
627.828	0.0157069
627.906	0.0158595
627.984	0.0157836
628.062	0.0157953
628.140	0.0156918
628.218	0.0156882
628.296	0.0156432
628.374	0.0155714
628.453	0.0155686
628.531	0.0156185
628.609	0.0157203
628.687	0.0158345
628.765	0.0157520
628.843	0.0157220
628.921	0.0157484
628.999	0.0158205
629.078	0.0157559
629.156	0.0156830
629.234	0.0156313
629.312	0.0156422
629.390	0.0155910
629.468	0.0157233
629.546	0.0156677
629.624	0.0156823
629.703	0.0157961
629.781	0.0156776
629.859	0.0156918
629.937	0.0157906
630.015	0.0156271
630.093	0.0157088
630.171	0.0157457
630.249	0.0157030
630.328	0.0158015
630.406	0.0157252
630.484	0.0156701
630.562	0.0156644
630.640	0.0157729
630.718	0.0157090
630.796	0.0156523
630.874	0.0157858
630.953	0.0156007
631.031	0.0156519
631.109	0.0156050
631.187	0.0158680
631.265	0.0158482
631.343	0.0157721
631.421	0.0156082
631.499	0.0156829
631.578	0.0156989
631.656	0.0157410
631.734	0.0158270
631.812	0.0157510
631.890	0.0156448
631.968	0.0157375
632.046	0.0157326
632.124	0.0158479
632.203	0.0156994
632.281	0.0157499
632.359	0.0157487
632.437	0.0156984
632.515	0.0157880
632.593	0.0157098
632.671	0.0157227
632.749	0.0156563
632.828	0.0156409
632.906	0.0156569
632.984	0.0157552
633.062	0.0156660
633.140	0.0156209
633.218	0.0157452
633.296	0.0156792
633.374	0.0158294
633.453	0.0158083
633.531	0.0157417
633.609	0.0157552
633.687	0.0157092
633.765	0.0156995
633.843	0.0156922
633.921	0.0156348
633.999	0.0157921
634.078	0.0156297
634.156	0.0157061
634.234	0.0155725
634.312	0.0156771
634.390	0.0158306
634.468	0.0157757
634.546	0.0156607
634.624	0.0155921
634.703	0.0157008
634.781	0.0157748
634.859	0.0156645
634.937	0.0157388
635.015	0.0156257
635.093	0.0156892
635.171	0.0156739
635.249	0.0156839
635.328	0.0157598
635.406	0.0157201
635.484	0.0157875
635.562	0.0156065
635.640	0.0156976
635.718	0.0157577
635.796	0.0156670
635.874	0.0156989
635.953	0.0156457
636.031	0.0156197
636.109	0.0156949
636.187	0.0157263
636.265	0.0156550
636.343	0.0157333
636.421	0.0156381
636.499	0.0157099
636.578	0.0156740
636.656	0.0156516
636.734	0.0156416
636.812	0.0156674
636.890	0.0157827
636.968	0.0157663
637.046	0.0157227
637.124	0.0156304
637.203	0.0157413
637.281	0.0157704
637.359	0.0157720
637.437	0.0157497
637.515	0.0158089
637.593	0.0156229
637.671	0.0157135
637.749	0.0157398
637.828	0.0156103
637.906	0.0157122
637.984	0.0156673
638.062	0.0157191
638.140	0.0156869
638.218	0.0156859
638.296	0.0156398
638.374	0.0157056
638.453	0.0157483
638.531	0.0157097
638.609	0.0156919
638.687	0.0156087
638.765	0.0157548
638.843	0.0157053
638.921	0.0156566
638.999	0.0156537
639.078	0.0158199
639.156	0.0156387
639.234	0.0158336
639.312	0.0157013
639.390	0.0156683
639.468	0.0156368
639.546	0.0158266
639.624	0.0157019
639.703	0.0156873
639.781	0.0156980
639.859	0.0157365
639.937	0.0157063
640.015	0.0155978
640.093	0.0156883
640.171	0.0157097
640.249	0.0158128
640.328	0.0155531
640.406	0.0156089
640.484	0.0157925
640.562	0.0157677
640.640	0.0156308
640.718	0.0157863
640.796	0.0157095
640.874	0.0157269
640.953	0.0156158
641.031	0.0156915
641.109	0.0157279
641.187	0.0156686
641.265	0.0157650
641.343	0.0156317
641.421	0.0157009
641.499	0.0156900
641.578	0.0155911
641.656	0.0156783
641.734	0.0157261
641.812	0.0156623
641.890	0.0156297
641.968	0.0157108
642.046	0.0155849
642.124	0.0156969
642.203	0.0156809
642.281	0.0158266
642.359	0.0155598
642.437	0.0157698
642.515	0.0156270
642.593	0.0155304
642.671	0.0157638
642.749	0.0157998
642.828	0.0157625
642.906	0.0155950
642.984	0.0157349
643.062	0.0156905
643.140	0.0157005
643.218	0.0158031
643.296	0.0157801
643.374	0.0156688
643.453	0.0157825
643.531	0.0157844
643.609	0.0157324
643.687	0.0157922
643.765	0.0156138
643.843	0.0156287
643.921	0.0157070
643.999	0.0157882
644.078	0.0156750
644.156	0.0157258
644.234	0.0158401
644.312	0.0157527
644.390	0.0156894
644.468	0.0157584
644.546	0.0157357
644.624	0.0158387
644.703	0.0158538
644.781	0.0157232
644.859	0.0157013
644.937	0.0157148
645.015	0.0155602
645.093	0.0157350
645.171	0.0155820
645.249	0.0156568
645.328	0.0157282
645.406	0.0156986
645.484	0.0157018
645.562	0.0157852
645.640	0.0156083
645.718	0.0156924
645.796	0.0156961
645.874	0.0156003
645.953	0.0156265
646.031	0.0156216
646.109	0.0155459
646.187	0.0155502
646.265	0.0157566
646.343	0.0157703
646.421	0.0158253
646.499	0.0157354
646.578	0.0156945
646.656	0.0156909
646.734	0.0157471
646.812	0.0156505
646.890	0.0158289
646.968	0.0158197
647.046	0.0157545
647.124	0.0158038
647.203	0.0157024
647.281	0.0157317
647.359	0.0156649
647.437	0.0155591
647.515	0.0156284
647.593	0.0157024
647.671	0.0156703
647.749	0.0155670
647.828	0.0156142
647.906	0.0158051
647.984	0.0157273
648.062	0.0156472
648.140	0.0157570
648.218	0.0157761
648.296	0.0156612
648.374	0.0157098
648.453	0.0156359
648.531	0.0156872
648.609	0.0157535
648.687	0.0157349
648.765	0.0158762
648.843	0.0158106
648.921	0.0157121
648.999	0.0156155
649.078	0.0156373
649.156	0.0157043
649.234	0.0156223
649.312	0.0158170
649.390	0.0157298
649.468	0.0156623
649.546	0.0157005
649.624	0.0157104
649.703	0.0156653
649.781	0.0156863
649.859	0.0156679
649.937	0.0158800
650.015	0.0156965
650.093	0.0158643
650.171	0.0158128
650.249	0.0157595
650.328	0.0157763
650.406	0.0156876
650.484	0.0157898
650.562	0.0156818
650.640	0.0158455
650.718	0.0157327
650.796	0.0155741
650.874	0.0156973
650.953	0.0156706
651.031	0.0158781
651.109	0.0156902
651.187	0.0156693
651.265	0.0157130
651.343	0.0156883
651.421	0.0157014
651.499	0.0157700
651.578	0.0158294
651.656	0.0157859
651.734	0.0157336
651.812	0.0157476
651.890	0.0155933
651.968	0.0157084
652.046	0.0158022
652.124	0.0158086
652.203	0.0158669
652.281	0.0156677
652.359	0.0157986
652.437	0.0156760
652.515	0.0156783
652.593	0.0156283
652.671	0.0156508
652.749	0.0156466
652.828	0.0156192
652.906	0.0157345
652.984	0.0157343
653.062	0.0156018
653.140	0.0157250
653.218	0.0158347
653.296	0.0156386
653.374	0.0156360
653.453	0.0157812
653.531	0.0157017
653.609	0.0158039
653.687	0.0157382
653.765	0.0155750
653.843	0.0157885
653.921	0.0157430
653.999	0.0156957
654.078	0.0156749
654.156	0.0156238
654.234	0.0157909
654.312	0.0157034
654.390	0.0157095
654.468	0.0156026
654.546	0.0157121
654.624	0.0158051
654.703	0.0156895
654.781	0.0157108
654.859	0.0156343
654.937	0.0156517
655.015	0.0157322
655.093	0.0156502
655.171	0.0157455
655.249	0.0156530
655.328	0.0155659
655.406	0.0157598
655.484	0.0157705
655.562	0.0157356
655.640	0.0157210
655.718	0.0156927
655.796	0.0156920
655.874	0.0157038
655.953	0.0157008
656.031	0.0157563
656.109	0.0157978
656.187	0.0154017
656.265	0.0155836
656.343	0.0156312
656.421	0.0156850
656.499	0.0156183
656.578	0.0156733
656.656	0.0156872
656.734	0.0158699
656.812	0.0156714
656.890	0.0156663
656.968	0.0156867
657.046	0.0156959
657.124	0.0156230
657.203	0.0156886
657.281	0.0156535
657.359	0.0157265
657.437	0.0157219
657.515	0.0156595
657.593	0.0157552
657.671	0.0157967
657.749	0.0157427
657.828	0.0157742
657.906	0.0157337
657.984	0.0156880
658.062	0.0158708
658.140	0.0157192
658.218	0.0157830
658.296	0.0157123
658.374	0.0158186
658.453	0.0156304
658.531	0.0156949
658.609	0.0155863
658.687	0.0156924
658.765	0.0156872
658.843	0.0156654
658.921	0.0157454
658.999	0.0157377
659.078	0.0155754
659.156	0.0157187
659.234	0.0156919
659.312	0.0156353
659.390	0.0155917
659.468	0.0155447
659.546	0.0155646
659.624	0.0156960
659.703	0.0157932
659.781	0.0156188
659.859	0.0156206
659.937	0.0155925
660.015	0.0156672
660.093	0.0157622
660.171	0.0157143
660.249	0.0155983
660.328	0.0156153
660.406	0.0155610
660.484	0.0156522
660.562	0.0156241
660.640	0.0156881
660.718	0.0156487
660.796	0.0156714
660.874	0.0156189
660.953	0.0155901
661.031	0.0156688
661.109	0.0158578
661.187	0.0156622
661.265	0.0157441
661.343	0.0157177
661.421	0.0156069
661.499	0.0156361
661.578	0.0158030
661.656	0.0156044
661.734	0.0156260
661.812	0.0158712
661.890	0.0155074
661.968	0.0157288
662.046	0.0156647
662.124	0.0156091
662.203	0.0156472
662.281	0.0157079
662.359	0.0157407
662.437	0.0156763
662.515	0.0157878
662.593	0.0157571
662.671	0.0156065
662.749	0.0156452
662.828	0.0157318
662.906	0.0156760
662.984	0.0157059
663.062	0.0158109
663.140	0.0157583
663.218	0.0156805
663.296	0.0156576
663.374	0.0155779
663.453	0.0156789
663.531	0.0156280
663.609	0.0156194
663.687	0.0157950
663.765	0.0156661
663.843	0.0158015
663.921	0.0156695
663.999	0.0155559
664.078	0.0156208
664.156	0.0156831
664.234	0.0157870
664.312	0.0156084
664.390	0.0156742
664.468	0.0156431
664.546	0.0156702
664.624	0.0157486
664.703	0.0157059
664.781	0.0157163
664.859	0.0156776
664.937	0.0157848
665.015	0.0157033
665.093	0.0155861
665.171	0.0157213
665.249	0.0157858
665.328	0.0156776
665.406	0.0156847
665.484	0.0157107
665.562	0.0155975
665.640	0.0156621
665.718	0.0156535
665.796	0.0156174
665.874	0.0157777
665.953	0.0157941
666.031	0.0155701
666.109	0.0157577
666.187	0.0156812
666.265	0.0155475
666.343	0.0156990
666.421	0.0156773
666.499	0.0156451
666.578	0.0156856
666.656	0.0155536
666.734	0.0156886
666.812	0.0157545
666.890	0.0156065
666.968	0.0155768
667.046	0.0157610
667.124	0.0156856
667.203	0.0156126
667.281	0.0156698
667.359	0.0157531
667.437	0.0155753
667.515	0.0156190
667.593	0.0156882
667.671	0.0156824
667.749	0.0157414
667.828	0.0157476
667.906	0.0155606
667.984	0.0156642
668.062	0.0157744
668.140	0.0157115
668.218	0.0156895
668.296	0.0156480
668.374	0.0158013
668.453	0.0156428
668.531	0.0156349
668.609	0.0156886
668.687	0.0157347
668.765	0.0156731
668.843	0.0157475
668.921	0.0156209
668.999	0.0156674
669.078	0.0157394
669.156	0.0156987
669.234	0.0157432
669.312	0.0157932
669.390	0.0155366
669.468	0.0156110
669.546	0.0157713
669.624	0.0155755
669.703	0.0157401
669.781	0.0156828
669.859	0.0156703
669.937	0.0157069
670.015	0.0156519
670.093	0.0156219
670.171	0.0155859
670.249	0.0156320
670.328	0.0156864
670.406	0.0157278
670.484	0.0156412
670.562	0.0157894
670.640	0.0157429
670.718	0.0158270
670.796	0.0156226
670.874	0.0156810
670.953	0.0157027
671.031	0.0157745
671.109	0.0156796
671.187	0.0157131
671.265	0.0157365
671.343	0.0157525
671.421	0.0157582
671.499	0.0156994
671.578	0.0157407
671.656	0.0156262
671.734	0.0156239
671.812	0.0157195
671.890	0.0157851
671.968	0.0156609
672.046	0.0157201
672.124	0.0156524
672.203	0.0156390
672.281	0.0156965
672.359	0.0157153
672.437	0.0157892
672.515	0.0155990
672.593	0.0155769
672.671	0.0158215
672.749	0.0156786
672.828	0.0156754
672.906	0.0157330
672.984	0.0158032
673.062	0.0155463
673.140	0.0156797
673.218	0.0156004
673.296	0.0157433
673.374	0.0156882
673.453	0.0156887
673.531	0.0156382
673.609	0.0157445
673.687	0.0156606
673.765	0.0157205
673.843	0.0157289
673.921	0.0156638
673.999	0.0157138
674.078	0.0157465
674.156	0.0157813
674.234	0.0157272
674.312	0.0155579
674.390	0.0156374
674.468	0.0157375
674.546	0.0157816
674.624	0.0156400
674.703	0.0156799
674.781	0.0156946
674.859	0.0157910
674.937	0.0156785
675.015	0.0156065
675.093	0.0157227
675.171	0.0156500
675.249	0.0156071
675.328	0.0155823
675.406	0.0156940
675.484	0.0157969
675.562	0.0156272
675.640	0.0155179
675.718	0.0157220
675.796	0.0156955
675.874	0.0156280
675.953	0.0156831
676.031	0.0157114
676.109	0.0157592
676.187	0.0157268
676.265	0.0156917
676.343	0.0157463
676.421	0.0155891
676.499	0.0156092
676.578	0.0156783
676.656	0.0157133
676.734	0.0157345
676.812	0.0157301
676.890	0.0156757
676.968	0.0156683
677.046	0.0154829
677.124	0.0156290
677.203	0.0156998
677.281	0.0156441
677.359	0.0155666
677.437	0.0156233
677.515	0.0157360
677.593	0.0158231
677.671	0.0157079
677.749	0.0157509
677.828	0.0156901
677.906	0.0156004
677.984	0.0156695
678.062	0.0156934
678.140	0.0155685
678.218	0.0156668
678.296	0.0156680
678.374	0.0156818
678.453	0.0156573
678.531	0.0156220
678.609	0.0156670
678.687	0.0156386
678.765	0.0156296
678.843	0.0157054
678.921	0.0156683
678.999	0.0156264
679.078	0.0156399
679.156	0.0155670
679.234	0.0156856
679.312	0.0157320
679.390	0.0156608
679.468	0.0156164
679.546	0.0157658
679.624	0.0158255
679.703	0.0156506
679.781	0.0155562
679.859	0.0155756
679.937	0.0156841
680.015	0.0156717
680.093	0.0157465
680.171	0.0157863
680.249	0.0157069
680.328	0.0155901
680.406	0.0156082
680.484	0.0156220
680.562	0.0157563
680.640	0.0156452
680.718	0.0156692
680.796	0.0157562
680.874	0.0157157
680.953	0.0157551
681.031	0.0158353
681.109	0.0156550
681.187	0.0157631
681.265	0.0157218
681.343	0.0157067
681.421	0.0156564
681.499	0.0157229
681.578	0.0157649
681.656	0.0156255
681.734	0.0156768
681.812	0.0156522
681.890	0.0157634
681.968	0.0158305
682.046	0.0157724
682.124	0.0155795
682.203	0.0156954
682.281	0.0157520
682.359	0.0157144
682.437	0.0156571
682.515	0.0157047
682.593	0.0157035
682.671	0.0158465
682.749	0.0156791
682.828	0.0157207
682.906	0.0156719
682.984	0.0157397
683.062	0.0157521
683.140	0.0156319
683.218	0.0156982
683.296	0.0157308
683.374	0.0156776
683.453	0.0157359
683.531	0.0155764
683.609	0.0156005
683.687	0.0158270
683.765	0.0157547
683.843	0.0157715
683.921	0.0156400
683.999	0.0156573
684.078	0.0157759
684.156	0.0157108
684.234	0.0157684
684.312	0.0155682
684.390	0.0156619
684.468	0.0156294
684.546	0.0157072
684.624	0.0156410
684.703	0.0155929
684.781	0.0157246
684.859	0.0156422
684.937	0.0158512
685.015	0.0156911
685.093	0.0155741
685.171	0.0157256
685.249	0.0157215
685.328	0.0157928
685.406	0.0156027
685.484	0.0156833
685.562	0.0157783
685.640	0.0157439
685.718	0.0156724
685.796	0.0156326
685.874	0.0156223
685.953	0.0157009
686.031	0.0156234
686.109	0.0157115
686.187	0.0157032
686.265	0.0157432
686.343	0.0156374
686.421	0.0157202
686.499	0.0156054
686.578	0.0156616
686.656	0.0158537
686.734	0.0155929
686.812	0.0156306
686.890	0.0156047
686.968	0.0157625
687.046	0.0156730
687.124	0.0156282
687.203	0.0157555
687.281	0.0157291
687.359	0.0159180
687.437	0.0156633
687.515	0.0156316
687.593	0.0157372
687.671	0.0157982
687.749	0.0156351
687.828	0.0157011
687.906	0.0156494
687.984	0.0157843
688.062	0.0156415
688.140	0.0156547
688.218	0.0157909
688.296	0.0157777
688.374	0.0156970
688.453	0.0156644
688.531	0.0156683
688.609	0.0157664
688.687	0.0156364
688.765	0.0157393
688.843	0.0157654
688.921	0.0158172
688.999	0.0156581
689.078	0.0156627
689.156	0.0157049
689.234	0.0158862
689.312	0.0156725
689.390	0.0156248
689.468	0.0157316
689.546	0.0158294
689.624	0.0156182
689.703	0.0157891
689.781	0.0156940
689.859	0.0157695
689.937	0.0156472
690.015	0.0156358
690.093	0.0157918
690.171	0.0159304
690.249	0.0157137
690.328	0.0155974
690.406	0.0157020
690.484	0.0156848
690.562	0.0157915
690.640	0.0157098
690.718	0.0157080
690.796	0.0157719
690.874	0.0157153
690.953	0.0156444
691.031	0.0156602
691.109	0.0156302
691.187	0.0157650
691.265	0.0156783
691.343	0.0157614
691.421	0.0157940
691.499	0.0157064
691.578	0.0158105
691.656	0.0156989
691.734	0.0155674
691.812	0.0157132
691.890	0.0157552
691.968	0.0157163
692.046	0.0156367
692.124	0.0155694
692.203	0.0156049
692.281	0.0157448
692.359	0.0156473
692.437	0.0157285
692.515	0.0156926
692.593	0.0156768
692.671	0.0156400
692.749	0.0156990
692.828	0.0156806
692.906	0.0156649
692.984	0.0156968
693.062	0.0157987
693.140	0.0156411
693.218	0.0156862
693.296	0.0155888
693.374	0.0155991
693.453	0.0156467
693.531	0.0156950
693.609	0.0156918
693.687	0.0156649
693.765	0.0157655
693.843	0.0156747
693.921	0.0156792
693.999	0.0157670
694.078	0.0156525
694.156	0.0156581
694.234	0.0157289
694.312	0.0157115
694.390	0.0156178
694.468	0.0157793
694.546	0.0157492
694.624	0.0155787
694.703	0.0157817
694.781	0.0156022
694.859	0.0157161
694.937	0.0158430
695.015	0.0155998
695.093	0.0156379
695.171	0.0156365
695.249	0.0156263
695.328	0.0156542
695.406	0.0156198
695.484	0.0156451
695.562	0.0157522
695.640	0.0156208
695.718	0.0156458
695.796	0.0157282
695.874	0.0156866
695.953	0.0157758
696.031	0.0156489
696.109	0.0156432
696.187	0.0156411
696.265	0.0158057
696.343	0.0156429
696.421	0.0157005
696.499	0.0156883
696.578	0.0157610
696.656	0.0156859
696.734	0.0156678
696.812	0.0157072
696.890	0.0157521
696.968	0.0157185
697.046	0.0156369
697.124	0.0158201
697.203	0.0158447
697.281	0.0157307
697.359	0.0155834
697.437	0.0157164
697.515	0.0157549
697.593	0.0156995
697.671	0.0157550
697.749	0.0158447
697.828	0.0156512
697.906	0.0157269
697.984	0.0156664
698.062	0.0156593
698.140	0.0157545
698.218	0.0157207
698.296	0.0157275
698.374	0.0158062
698.453	0.0157686
698.531	0.0156110
698.609	0.0156744
698.687	0.0158907
698.765	0.0158102
698.843	0.0156992
698.921	0.0156860
698.999	0.0157344
699.078	0.0157529
699.156	0.0157401
699.234	0.0156473
699.312	0.0156311
699.390	0.0158751
699.468	0.0157926
699.546	0.0157436
699.624	0.0157795
699.703	0.0158129
699.781	0.0157166
699.859	0.0156512
699.937	0.0156774
700.015	0.0157351
700.093	0.0157058
700.171	0.0155428
700.249	0.0156506
700.328	0.0157504
700.406	0.0155923
700.484	0.0157840
700.562	0.0157910
700.640	0.0156199
700.718	0.0157813
700.796	0.0157191
700.874	0.0157056
700.953	0.0157531
701.031	0.0157107
701.109	0.0156231
701.187	0.0157411
701.265	0.0158196
701.343	0.0157356
701.421	0.0156171
701.499	0.0156166
701.578	0.0157220
701.656	0.0157813
701.734	0.0155863
701.812	0.0157365
701.890	0.0157126
701.968	0.0156962
702.046	0.0157626
702.124	0.0156709
702.203	0.0156602
702.281	0.0157079
702.359	0.0157595
702.437	0.0156918
702.515	0.0155480
702.593	0.0156272
702.671	0.0157420
702.749	0.0156894
702.828	0.0157325
702.906	0.0155450
702.984	0.0156103
703.062	0.0156963
703.140	0.0156721
703.218	0.0158031
703.296	0.0157397
703.374	0.0156959
703.453	0.0156517
703.531	0.0157071
703.609	0.0157630
703.687	0.0157285
703.765	0.0157175
703.843	0.0156982
703.921	0.0157207
703.999	0.0156155
704.078	0.0157546
704.156	0.0157300
704.234	0.0155957
704.312	0.0158118
704.390	0.0156899
704.468	0.0155968
704.546	0.0156033
704.624	0.0156976
704.703	0.0157802
704.781	0.0156536
704.859	0.0157271
704.937	0.0156238
705.015	0.0157574
705.093	0.0157211
705.171	0.0156889
705.249	0.0157377
705.328	0.0156537
705.406	0.0157330
705.484	0.0156039
705.562	0.0157111
705.640	0.0158253
705.718	0.0155637
705.796	0.0156021
705.874	0.0156550
705.953	0.0157738
706.031	0.0155820
706.109	0.0155730
706.187	0.0156743
706.265	0.0157356
706.343	0.0156369
706.421	0.0155917
706.499	0.0156441
706.578	0.0157607
706.656	0.0156831
706.734	0.0155807
706.812	0.0156705
706.890	0.0157622
706.968	0.0155502
707.046	0.0155658
707.124	0.0157423
707.203	0.0157413
707.281	0.0157397
707.359	0.0155166
707.437	0.0157548
707.515	0.0157299
707.593	0.0157658
707.671	0.0157399
707.749	0.0156474
707.828	0.0156982
707.906	0.0158503
707.984	0.0157594
708.062	0.0157124
708.140	0.0157237
708.218	0.0157020
708.296	0.0156332
708.374	0.0156357
708.453	0.0156960
708.531	0.0155851
708.609	0.0157903
708.687	0.0156834
708.765	0.0156851
708.843	0.0156142
708.921	0.0156178
708.999	0.0156345
709.078	0.0156458
709.156	0.0157825
709.234	0.0157284
709.312	0.0157594
709.390	0.0158092
709.468	0.0156712
709.546	0.0156538
709.624	0.0156694
709.703	0.0157925
709.781	0.0156685
709.859	0.0157470
709.937	0.0157822
710.015	0.0155638
710.093	0.0158134
710.171	0.0156834
710.249	0.0156311
710.328	0.0159576
710.406	0.0157954
710.484	0.0155429
710.562	0.0157934
710.640	0.0157352
710.718	0.0156178
710.796	0.0157153
710.874	0.0157372
710.953	0.0157336
711.031	0.0157378
711.109	0.0157912
711.187	0.0156241
711.265	0.0156391
711.343	0.0158270
711.421	0.0156854
711.499	0.0156624
711.578	0.0157952
711.656	0.0156441
711.734	0.0156770
711.812	0.0157317
711.890	0.0155993
711.968	0.0156794
712.046	0.0157262
712.124	0.0158170
712.203	0.0157043
712.281	0.0157714
712.359	0.0158208
712.437	0.0157880
712.515	0.0155645
712.593	0.0157755
712.671	0.0155615
712.749	0.0157083
712.828	0.0156626
712.906	0.0157401
712.984	0.0156939
713.062	0.0156082
713.140	0.0157201
713.218	0.0156999
713.296	0.0157570
713.374	0.0156859
713.453	0.0157397
713.531	0.0155486
713.609	0.0156904
713.687	0.0156416
713.765	0.0156265
713.843	0.0157355
713.921	0.0156647
713.999	0.0156939
714.078	0.0157932
714.156	0.0157586
714.234	0.0157504
714.312	0.0156639
714.390	0.0157117
714.468	0.0156859
714.546	0.0157280
714.624	0.0157607
714.703	0.0156799
714.781	0.0156928
714.859	0.0156441
714.937	0.0156575
715.015	0.0157025
715.093	0.0156830
715.171	0.0156899
715.249	0.0157812
715.328	0.0157423
715.406	0.0156896
715.484	0.0155480
715.562	0.0156055
715.640	0.0157441
715.718	0.0158551
715.796	0.0157836
715.874	0.0156622
715.953	0.0156912
716.031	0.0156322
716.109	0.0156518
716.187	0.0157317
716.265	0.0157234
716.343	0.0157199
716.421	0.0157005
716.499	0.0157163
716.578	0.0156279
716.656	0.0156275
716.734	0.0156506
716.812	0.0157098
716.890	0.0156219
716.968	0.0155534
717.046	0.0155122
717.124	0.0155917
717.203	0.0155939
717.281	0.0157041
717.359	0.0155665
717.437	0.0156384
717.515	0.0156454
717.593	0.0157204
717.671	0.0155395
717.749	0.0157245
717.828	0.0156681
717.906	0.0156016
717.984	0.0156437
718.062	0.0156999
718.140	0.0157573
718.218	0.0156222
718.296	0.0155790
718.374	0.0156852
718.453	0.0156901
718.531	0.0156506
718.609	0.0156715
718.687	0.0156387
718.765	0.0155975
718.843	0.0158252
718.921	0.0157251
718.999	0.0156091
719.078	0.0155103
719.156	0.0156815
719.234	0.0157484
719.312	0.0156487
719.390	0.0156242
719.468	0.0156019
719.546	0.0155575
719.624	0.0155533
719.703	0.0156685
719.781	0.0156137
719.859	0.0156512
719.937	0.0155911
720.015	0.0156551
720.093	0.0156244
720.171	0.0156084
720.249	0.0156724
720.328	0.0156087
720.406	0.0155644
720.484	0.0157590
720.562	0.0155491
720.640	0.0155695
720.718	0.0157297
720.796	0.0156116
720.874	0.0156732
720.953	0.0156776
721.031	0.0156936
721.109	0.0156055
721.187	0.0155860
721.265	0.0156451
721.343	0.0157716
721.421	0.0156741
721.499	0.0157288
721.578	0.0156289
721.656	0.0155849
721.734	0.0156998
721.812	0.0155682
721.890	0.0158154
721.968	0.0156381
722.046	0.0155799
722.124	0.0157024
722.203	0.0157239
722.281	0.0157307
722.359	0.0156625
722.437	0.0157601
722.515	0.0157382
722.593	0.0157009
722.671	0.0157908
722.749	0.0158262
722.828	0.0157239
722.906	0.0156712
722.984	0.0158148
723.062	0.0156615
723.140	0.0157735
723.218	0.0157027
723.296	0.0157261
723.374	0.0155814
723.453	0.0156864
723.531	0.0158826
723.609	0.0156478
723.687	0.0158324
723.765	0.0157526
723.843	0.0158127
723.921	0.0158508
723.999	0.0157018
724.078	0.0157483
724.156	0.0156861
724.234	0.0157131
724.312	0.0157050
724.390	0.0157022
724.468	0.0157307
724.546	0.0157587
724.624	0.0157387
724.703	0.0157442
724.781	0.0158337
724.859	0.0157200
724.937	0.0158411
725.015	0.0157521
725.093	0.0156849
725.171	0.0157780
725.249	0.0157713
725.328	0.0157551
725.406	0.0156902
725.484	0.0158454
725.562	0.0156747
725.640	0.0157349
725.718	0.0159040
725.796	0.0158134
725.874	0.0156783
725.953	0.0157268
726.031	0.0157310
726.109	0.0158552
726.187	0.0157522
726.265	0.0157743
726.343	0.0158167
726.421	0.0157063
726.499	0.0157896
726.578	0.0158139
726.656	0.0158260
726.734	0.0159202
726.812	0.0158279
726.890	0.0157583
726.968	0.0158959
727.046	0.0158238
727.124	0.0158517
727.203	0.0157365
727.281	0.0157703
727.359	0.0156990
727.437	0.0157406
727.515	0.0157719
727.593	0.0156554
727.671	0.0156937
727.749	0.0157499
727.828	0.0156630
727.906	0.0158472
727.984	0.0158791
728.062	0.0155989
728.140	0.0156697
728.218	0.0157134
728.296	0.0156441
728.374	0.0157014
728.453	0.0156131
728.531	0.0156718
728.609	0.0157990
728.687	0.0156566
728.765	0.0156251
728.843	0.0157096
728.921	0.0156155
728.999	0.0156677
729.078	0.0157542
729.156	0.0156915
729.234	0.0156332
729.312	0.0155930
729.390	0.0156043
729.468	0.0157407
729.546	0.0156484
729.624	0.0156314
729.703	0.0157118
729.781	0.0157360
729.859	0.0156957
729.937	0.0156150
730.015	0.0156604
730.093	0.0156288
730.171	0.0156078
730.249	0.0155356
730.328	0.0156493
730.406	0.0157128
730.484	0.0155230
730.562	0.0156918
730.640	0.0156533
730.718	0.0154311
730.796	0.0156404
730.874	0.0156727
730.953	0.0155017
731.031	0.0155479
731.109	0.0156995
731.187	0.0157405
731.265	0.0157273
731.343	0.0156262
731.421	0.0156138
731.499	0.0156261
731.578	0.0154897
731.656	0.0155808
731.734	0.0156506
731.812	0.0156404
731.890	0.0156420
731.968	0.0155885
732.046	0.0156166
732.124	0.0156670
732.203	0.0156905
732.281	0.0155912
732.359	0.0155018
732.437	0.0156686
732.515	0.0156819
732.593	0.0156824
732.671	0.0155861
732.749	0.0155643
732.828	0.0155753
732.906	0.0157423
732.984	0.0156601
733.062	0.0156126
733.140	0.0157981
733.218	0.0155436
733.296	0.0155763
733.374	0.0157553
733.453	0.0155094
733.531	0.0155980
733.609	0.0156429
733.687	0.0157759
733.765	0.0155013
733.843	0.0157321
733.921	0.0157586
733.999	0.0156231
734.078	0.0157458
734.156	0.0157280
734.234	0.0157388
734.312	0.0157009
734.390	0.0156381
734.468	0.0157030
734.546	0.0158002
734.624	0.0156643
734.703	0.0156504
734.781	0.0156431
734.859	0.0155450
734.937	0.0156244
735.015	0.0157549
735.093	0.0156156
735.171	0.0155856
735.249	0.0158044
735.328	0.0156225
735.406	0.0156455
735.484	0.0156713
735.562	0.0156128
735.640	0.0156879
735.718	0.0155247
735.796	0.0156447
735.874	0.0156677
735.953	0.0157520
736.031	0.0157150
736.109	0.0155852
736.187	0.0155920
736.265	0.0156345
736.343	0.0156304
736.421	0.0157495
736.499	0.0157941
736.578	0.0156957
736.656	0.0156036
736.734	0.0156781
736.812	0.0159325
736.890	0.0159547
736.968	0.0158476
737.046	0.0159679
737.124	0.0159750
737.203	0.0158572
737.281	0.0158072
737.359	0.0155484
737.437	0.0154655
737.515	0.0155282
737.593	0.0153239
737.671	0.0150285
737.749	0.0152309
737.828	0.0149805
737.906	0.0150214
737.984	0.0153463
738.062	0.0155386
738.140	0.0157797
738.218	0.0162871
738.296	0.0164232
738.374	0.0165881
738.453	0.0168420
738.531	0.0169542
738.609	0.0168060
738.687	0.0168333
738.765	0.0165764
738.843	0.0164479
738.921	0.0158960
738.999	0.0155151
739.078	0.0150496
739.156	0.0147218
739.234	0.0144431
739.312	0.0141263
739.390	0.0140948
739.468	0.0141401
739.546	0.0142712
739.624	0.0144965
739.703	0.0148762
739.781	0.0152195
739.859	0.0155384
739.937	0.0161240
740.015	0.0162939
740.093	0.0165689
740.171	0.0169499
740.249	0.0171089
740.328	0.0171468
740.406	0.0172305
740.484	0.0172490
740.562	0.0170573
740.640	0.0169814
740.718	0.0166039
740.796	0.0162891
740.874	0.0159930
740.953	0.0154990
741.031	0.0152292
741.109	0.0147579
741.187	0.0145253
741.265	0.0142857
741.343	0.0140561
741.421	0.0141846
741.499	0.0142065
741.578	0.0144269
741.656	0.0146241
741.734	0.0149168
741.812	0.0152723
741.890	0.0157418
741.968	0.0160963
742.046	0.0162035
742.124	0.0164010
742.203	0.0164320
742.281	0.0165185
742.359	0.0164219
742.437	0.0164099
742.515	0.0161503
742.593	0.0161467
742.671	0.0159422
742.749	0.0157011
742.828	0.0153958
742.906	0.0150571
742.984	0.0148307
743.062	0.0148676
743.140	0.0145290
743.218	0.0144793
743.296	0.0144659
743.374	0.0147053
743.453	0.0147984
743.531	0.0148718
743.609	0.0151860
743.687	0.0155447
743.765	0.0159153
743.843	0.0163176
743.921	0.0165705
743.999	0.0169340
744.078	0.0173584
744.156	0.0177914
744.234	0.0179845
744.312	0.0182866
744.390	0.0182943
744.468	0.0183319
744.546	0.0182599
744.624	0.0179024
744.703	0.0175394
744.781	0.0171164
744.859	0.0167346
744.937	0.0161917
745.015	0.0156753
745.093	0.0149488
745.171	0.0146435
745.249	0.0140319
745.328	0.0137021
745.406	0.0134321
745.484	0.0129291
745.562	0.0129177
745.640	0.0126740
745.718	0.0125806
745.796	0.0125246
745.874	0.0124020
745.953	0.0124629
746.031	0.0124765
746.109	0.0126636
746.187	0.0131062
746.265	0.0133636
746.343	0.0138450
746.421	0.0142010
746.499	0.0148827
746.578	0.0154461
746.656	0.0160693
746.734	0.0166803
746.812	0.0173262
746.890	0.0178157
746.968	0.0181537
747.046	0.0185732
747.124	0.0189866
747.203	0.0192186
747.281	0.0194625
747.359	0.0193382
747.437	0.0193651
747.515	0.0190743
747.593	0.0188358
747.671	0.0185298
747.749	0.0179787
747.828	0.0176485
747.906	0.0172073
747.984	0.0167213
748.062	0.0162608
748.140	0.0159834
748.218	0.0156025
748.296	0.0154403
748.374	0.0152272
748.453	0.0148868
748.531	0.0148674
748.609	0.0146033
748.687	0.0144202
748.765	0.0142583
748.843	0.0140162
748.921	0.0139619
748.999	0.0139384
749.078	0.0137361
749.156	0.0137500
749.234	0.0138760
749.312	0.0138770
749.390	0.0139201
749.468	0.0141662
749.546	0.0143207
749.624	0.0146760
749.703	0.0149610
749.781	0.0150297
749.859	0.0152431
749.937	0.0154205
750.015	0.0154773
750.093	0.0155838
750.171	0.0155332
750.249	0.0154626
750.328	0.0153481
750.406	0.0151092
750.484	0.0150342
750.562	0.0150339
750.640	0.0147524
750.718	0.0146178
750.796	0.0147838
750.874	0.0147832
750.953	0.0148290
751.031	0.0149340
751.109	0.0152788
751.187	0.0156115
751.265	0.0161482
751.343	0.0168145
751.421	0.0171701
751.499	0.0174685
751.578	0.0179340
751.656	0.0184912
751.734	0.0187667
751.812	0.0187474
751.890	0.0189532
751.968	0.0187734
752.046	0.0185783
752.124	0.0184531
752.203	0.0182045
752.281	0.0176237
752.359	0.0170847
752.437	0.0167432
752.515	0.0161772
752.593	0.0155831
752.671	0.0151278
752.749	0.0148292
752.828	0.0143690
752.906	0.0141057
752.984	0.0139359
753.062	0.0138475
753.140	0.0137238
753.218	0.0137228
753.296	0.0137386
753.374	0.0138647
753.453	0.0142283
753.531	0.0141979
753.609	0.0144398
753.687	0.0146881
753.765	0.0149818
753.843	0.0151854
753.921	0.0152512
753.999	0.0153116
754.078	0.0154373
754.156	0.0154380
754.234	0.0154231
754.312	0.0153703
754.390	0.0153617
754.468	0.0153181
754.546	0.0153904
754.624	0.0154539
754.703	0.0155005
754.781	0.0156373
754.859	0.0156334
754.937	0.0156634
755.015	0.0157272
755.093	0.0157215
755.171	0.0158084
755.249	0.0157813
755.328	0.0158763
755.406	0.0159647
755.484	0.0160826
755.562	0.0159768
755.640	0.0160005
755.718	0.0159052
755.796	0.0159221
755.874	0.0159135
755.953	0.0158412
756.031	0.0157649
756.109	0.0157859
756.187	0.0159068
756.265	0.0158958
756.343	0.0158923
756.421	0.0161205
756.499	0.0163209
756.578	0.0163092
756.656	0.0164502
756.734	0.0166049
756.812	0.0166669
756.890	0.0167343
756.968	0.0168288
757.046	0.0166596
757.124	0.0166287
757.203	0.0165165
757.281	0.0163103
757.359	0.0162598
757.437	0.0161623
757.515	0.0160631
757.593	0.0158136
757.671	0.0155010
757.749	0.0155839
757.828	0.0153829
757.906	0.0151092
757.984	0.0150691
758.062	0.0151475
758.140	0.0150489
758.218	0.0150429
758.296	0.0149682
758.374	0.0151132
758.453	0.0150304
758.531	0.0150788
758.609	0.0150740
758.687	0.0150517
758.765	0.0152303
758.843	0.0151841
758.921	0.0150159
758.999	0.0150459
759.078	0.0151550
759.156	0.0151173
759.234	0.0150045
759.312	0.0150249
759.390	0.0149201
759.468	0.0148949
759.546	0.0149390
759.624	0.0149863
759.703	0.0149539
759.781	0.0148744
759.859	0.0149935
759.937	0.0151528
760.015	0.0153075
760.093	0.0154017
760.171	0.0154871
760.249	0.0157587
760.328	0.0159222
760.406	0.0159791
760.484	0.0161324
760.562	0.0160877
760.640	0.0161440
760.718	0.0163817
760.796	0.0162138
760.874	0.0163562
760.953	0.0163850
761.031	0.0161940
761.109	0.0162862
761.187	0.0161536
761.265	0.0162487
761.343	0.0163616
761.421	0.0162143
761.499	0.0163207
761.578	0.0163046
761.656	0.0163190
761.734	0.0163057
761.812	0.0160661
761.890	0.0161424
761.968	0.0162462
762.046	0.0161001
762.124	0.0160437
762.203	0.0161072
762.281	0.0160881
762.359	0.0161585
762.437	0.0161273
762.515	0.0160497
762.593	0.0160076
762.671	0.0158732
762.749	0.0158249
762.828	0.0159313
762.906	0.0157085
762.984	0.0156416
763.062	0.0155150
763.140	0.0154579
763.218	0.0154350
763.296	0.0152758
763.374	0.0153339
763.453	0.0153198
763.531	0.0151609
763.609	0.0151109
763.687	0.0150546
763.765	0.0150069
763.843	0.0150117
763.921	0.0149570
763.999	0.0147974
764.078	0.0147650
764.156	0.0148177
764.234	0.0146912
764.312	0.0146938
764.390	0.0148788
764.468	0.0147462
764.546	0.0149933
764.624	0.0150721
764.703	0.0151287
764.781	0.0153180
764.859	0.0153951
764.937	0.0156685
765.015	0.0159043
765.093	0.0158514
765.171	0.0159542
765.249	0.0161961
765.328	0.0162807
765.406	0.0162825
765.484	0.0165468
765.562	0.0165405
765.640	0.0164480
765.718	0.0166107
765.796	0.0164867
765.874	0.0163491
765.953	0.0164249
766.031	0.0163195
766.109	0.0165844
766.187	0.0166106
766.265	0.0163686
766.343	0.0164526
766.421	0.0165239
766.499	0.0164708
766.578	0.0163286
766.656	0.0163533
766.734	0.0164299
766.812	0.0163550
766.890	0.0162648
766.968	0.0161223
767.046	0.0158929
767.124	0.0159174
767.203	0.0155770
767.281	0.0153259
767.359	0.0153533
767.437	0.0151927
767.515	0.0150481
767.593	0.0149995
767.671	0.0148606
767.749	0.0148186
767.828	0.0150369
767.906	0.0149569
767.984	0.0150111
768.062	0.0149688
768.140	0.0148544
768.218	0.0152787
768.296	0.0154222
768.374	0.0153783
768.453	0.0153329
768.531	0.0154286
768.609	0.0153577
768.687	0.0152827
768.765	0.0152842
768.843	0.0151769
768.921	0.0151238
768.999	0.0150569
769.078	0.0151032
769.156	0.0150150
769.234	0.0149256
769.312	0.0151139
769.390	0.0152232
769.468	0.0152023
769.546	0.0153201
769.624	0.0153807
769.703	0.0156788
769.781	0.0156039
769.859	0.0158864
769.937	0.0158323
770.015	0.0160236
770.093	0.0162291
770.171	0.0163386
770.249	0.0164404
770.328	0.0165759
770.406	0.0166319
770.484	0.0166170
770.562	0.0163842
770.640	0.0164314
770.718	0.0165717
770.796	0.0162951
770.874	0.0161176
770.953	0.0158898
771.031	0.0158287
771.109	0.0158030
771.187	0.0157069
771.265	0.0157196
771.343	0.0158522
771.421	0.0157024
771.499	0.0157014
771.578	0.0156392
771.656	0.0158511
771.734	0.0159016
771.812	0.0160953
771.890	0.0159410
771.968	0.0159663
772.046	0.0160189
772.124	0.0159669
772.203	0.0158643
772.281	0.0157964
772.359	0.0158295
772.437	0.0154111
772.515	0.0154041
772.593	0.0153788
772.671	0.0151305
772.749	0.0150719
772.828	0.0149319
772.906	0.0149417
772.984	0.0149884
773.062	0.0148987
773.140	0.0148809
773.218	0.0149400
773.296	0.0150365
773.374	0.0150440
773.453	0.0151405
773.531	0.0154060
773.609	0.0153801
773.687	0.0156600
773.765	0.0156071
773.843	0.0157434
773.921	0.0159657
773.999	0.0159897
774.078	0.0160353
774.156	0.0161477
774.234	0.0162475
774.312	0.0161659
774.390	0.0161497
774.468	0.0162939
774.546	0.0162503
774.624	0.0162391
774.703	0.0162978
774.781	0.0162402
774.859	0.0162919
774.937	0.0161050
775.015	0.0161401
775.093	0.0159808
775.171	0.0158991
775.249	0.0157896
775.328	0.0157084
775.406	0.0156698
775.484	0.0157206
775.562	0.0155316
775.640	0.0155513
775.718	0.0155110
775.796	0.0155015
775.874	0.0154362
775.953	0.0154119
776.031	0.0154770
776.109	0.0153681
776.187	0.0153679
776.265	0.0153822
776.343	0.0152650
776.421	0.0152891
776.499	0.0153208
776.578	0.0154300
776.656	0.0154990
776.734	0.0154365
776.812	0.0157861
776.890	0.0156958
776.968	0.0158728
777.046	0.0158159
777.124	0.0159771
777.203	0.0160802
777.281	0.0160956
777.359	0.0159524
777.437	0.0160935
777.515	0.0162184
777.593	0.0161028
777.671	0.0160902
777.749	0.0160844
777.828	0.0161085
777.906	0.0161423
777.984	0.0160487
778.062	0.0159926
778.140	0.0159731
778.218	0.0158638
778.296	0.0160030
778.374	0.0158794
778.453	0.0157664
778.531	0.0157635
778.609	0.0155350
778.687	0.0155987
778.765	0.0155980
778.843	0.0153344
778.921	0.0153347
778.999	0.0154696
779.078	0.0153605
779.156	0.0152613
779.234	0.0152073
779.312	0.0152013
779.390	0.0152943
779.468	0.0153361
779.546	0.0152463
779.624	0.0153699
779.703	0.0154596
779.781	0.0155836
779.859	0.0154374
779.937	0.0156207
780.015	0.0155685
780.093	0.0156961
780.171	0.0156973
780.249	0.0157731
780.328	0.0158424
780.406	0.0158014
780.484	0.0158387
780.562	0.0159351
780.640	0.0158429
780.718	0.0158708
780.796	0.0159499
780.874	0.0159219
780.953	0.0158505
781.031	0.0158466
781.109	0.0158022
781.187	0.0158810
781.265	0.0156195
781.343	0.0154990
781.421	0.0155193
781.499	0.0156178
781.578	0.0156832
781.656	0.0155412
781.734	0.0157435
781.812	0.0156230
781.890	0.0155569
781.968	0.0157201
782.046	0.0158235
782.124	0.0157481
782.203	0.0159272
782.281	0.0159430
782.359	0.0158887
782.437	0.0160036
782.515	0.0159969
782.593	0.0159579
782.671	0.0160490
782.749	0.0161578
782.828	0.0160217
782.906	0.0159814
782.984	0.0161263
783.062	0.0160402
783.140	0.0160600
783.218	0.0160046
783.296	0.0160291
783.374	0.0158978
783.453	0.0156361
783.531	0.0157754
783.609	0.0156418
783.687	0.0156796
783.765	0.0155774
783.843	0.0153918
783.921	0.0153423
783.999	0.0154089
784.078	0.0153386
784.156	0.0153259
784.234	0.0153314
784.312	0.0153487
784.390	0.0153227
784.468	0.0153943
784.546	0.0153464
784.624	0.0154587
784.703	0.0154426
784.781	0.0155112
784.859	0.0156290
784.937	0.0155806
785.015	0.0157602
785.093	0.0158228
785.171	0.0157846
785.249	0.0158212
785.328	0.0157607
785.406	0.0159431
785.484	0.0158170
785.562	0.0157249
785.640	0.0158788
785.718	0.0159021
785.796	0.0158665
785.874	0.0158051
785.953	0.0157574
786.031	0.0160307
786.109	0.0159541
786.187	0.0158251
786.265	0.0158131
786.343	0.0157620
786.421	0.0157732
786.499	0.0156864
786.578	0.0156974
786.656	0.0157713
786.734	0.0156967
786.812	0.0155648
786.890	0.0155524
786.968	0.0155897
787.046	0.0155766
787.124	0.0155783
787.203	0.0155160
787.281	0.0154890
787.359	0.0154792
787.437	0.0157397
787.515	0.0155597
787.593	0.0155021
787.671	0.0154079
787.749	0.0155244
787.828	0.0156138
787.906	0.0156537
787.984	0.0154219
788.062	0.0156222
788.140	0.0157333
788.218	0.0156472
788.296	0.0157381
788.374	0.0156998
788.453	0.0156958
788.531	0.0156802
788.609	0.0156902
788.687	0.0157574
788.765	0.0158366
788.843	0.0157148
788.921	0.0156522
788.999	0.0156404
789.078	0.0156243
789.156	0.0157679
789.234	0.0156777
789.312	0.0158488
789.390	0.0157641
789.468	0.0158565
789.546	0.0158920
789.624	0.0158766
789.703	0.0161294
789.781	0.0162188
789.859	0.0162186
789.937	0.0163049
790.015	0.0164030
790.093	0.0162064
790.171	0.0162325
790.249	0.0164208
790.328	0.0161543
790.406	0.0161003
790.484	0.0160098
790.562	0.0159679
790.640	0.0157064
790.718	0.0155961
790.796	0.0155305
790.874	0.0154513
790.953	0.0153207
791.031	0.0153533
791.109	0.0150681
791.187	0.0150732
791.265	0.0149939
791.343	0.0150362
791.421	0.0150386
791.499	0.0149376
791.578	0.0150828
791.656	0.0151919
791.734	0.0152752
791.812	0.0152340
791.890	0.0154759
791.968	0.0154920
792.046	0.0156390
792.124	0.0156895
792.203	0.0157452
792.281	0.0159450
792.359	0.0159762
792.437	0.0161589
792.515	0.0161485
792.593	0.0161568
792.671	0.0161830
792.749	0.0161918
792.828	0.0163991
792.906	0.0161987
792.984	0.0160135
793.062	0.0160956
793.140	0.0161740
793.218	0.0159326
793.296	0.0159952
793.374	0.0158445
793.453	0.0158716
793.531	0.0158464
793.609	0.0158133
793.687	0.0157387
793.765	0.0156471
793.843	0.0156783
793.921	0.0156162
793.999	0.0155086
794.078	0.0155717
794.156	0.0154087
794.234	0.0155143
794.312	0.0155354
794.390	0.0153426
794.468	0.0153245
794.546	0.0154740
794.624	0.0154829
794.703	0.0153057
794.781	0.0154661
794.859	0.0153569
794.937	0.0154522
795.015	0.0155349
795.093	0.0156316
795.171	0.0154716
795.249	0.0156178
795.328	0.0155268
795.406	0.0157102
795.484	0.0156417
795.562	0.0157130
795.640	0.0159401
795.718	0.0158295
795.796	0.0158185
795.874	0.0158952
795.953	0.0158832
796.031	0.0158485
796.109	0.0159027
796.187	0.0158237
796.265	0.0158851
796.343	0.0157964
796.421	0.0158167
796.499	0.0156753
796.578	0.0157179
796.656	0.0156337
796.734	0.0155972
796.812	0.0156031
796.890	0.0156747
796.968	0.0156498
797.046	0.0156473
797.124	0.0156440
797.203	0.0157086
797.281	0.0158098
797.359	0.0157054
797.437	0.0157476
797.515	0.0156608
797.593	0.0158652
797.671	0.0158612
797.749	0.0158126
797.828	0.0158025
797.906	0.0157889
797.984	0.0156670
798.062	0.0157155
798.140	0.0156837
798.218	0.0154916
798.296	0.0157411
798.374	0.0156284
798.453	0.0155263
798.531	0.0153926
798.609	0.0153648
798.687	0.0153905
798.765	0.0155062
798.843	0.0153964
798.921	0.0153338
798.999	0.0152230
799.078	0.0152837
799.156	0.0155430
799.234	0.0155159
799.312	0.0153989
799.390	0.0153959
799.468	0.0155201
799.546	0.0155372
799.624	0.0155813
799.703	0.0156922
799.781	0.0157785
799.859	0.0157526
799.937	0.0158616
800.015	0.0158907
800.093	0.0159822
800.171	0.0159750
800.249	0.0160064
800.328	0.0160670
800.406	0.0161566
800.484	0.0162532
800.562	0.0160989
800.640	0.0162448
800.718	0.0161723
800.796	0.0161299
800.874	0.0162367
800.953	0.0160864
801.031	0.0158769
801.109	0.0160373
801.187	0.0160278
801.265	0.0159112
801.343	0.0158647
801.421	0.0159475
801.499	0.0158672
801.578	0.0157708
801.656	0.0156508
801.734	0.0156818
801.812	0.0155630
801.890	0.0155285
801.968	0.0153990
802.046	0.0153389
802.124	0.0154362
802.203	0.0152723
802.281	0.0152789
802.359	0.0154652
802.437	0.0153405
802.515	0.0152017
802.593	0.0153538
802.671	0.0153531
802.749	0.0154636
802.828	0.0153436
802.906	0.0153156
802.984	0.0154112
803.062	0.0154209
803.140	0.0154878
803.218	0.0154801
803.296	0.0155243
803.374	0.0156469
803.453	0.0156963
803.531	0.0157132
803.609	0.0155866
803.687	0.0156824
803.765	0.0158471
803.843	0.0157851
803.921	0.0158649
803.999	0.0158289
804.078	0.0159479
804.156	0.0158624
804.234	0.0160231
804.312	0.0158588
804.390	0.0159760
804.468	0.0157216
804.546	0.0158774
804.624	0.0158611
804.703	0.0158231
804.781	0.0159673
804.859	0.0158475
804.937	0.0157568
805.015	0.0155819
805.093	0.0158166
805.171	0.0156745
805.249	0.0156438
805.328	0.0155804
805.406	0.0157861
805.484	0.0157123
805.562	0.0156493
805.640	0.0157651
805.718	0.0157408
805.796	0.0157346
805.874	0.0155897
805.953	0.0158427
806.031	0.0158879
806.109	0.0158640
806.187	0.0157894
806.265	0.0158666
806.343	0.0160150
806.421	0.0158080
806.499	0.0158047
806.578	0.0159199
806.656	0.0159491
806.734	0.0159595
806.812	0.0160711
806.890	0.0159697
806.968	0.0158593
807.046	0.0156537
807.124	0.0156075
807.203	0.0157998
807.281	0.0156306
807.359	0.0155666
807.437	0.0155717
807.515	0.0155442
807.593	0.0155247
807.671	0.0153682
807.749	0.0154463
807.828	0.0153841
807.906	0.0154264
807.984	0.0153104
808.062	0.0154607
808.140	0.0154079
808.218	0.0155623
808.296	0.0155074
808.374	0.0155727
808.453	0.0155070
808.531	0.0156678
808.609	0.0157189
808.687	0.0157504
808.765	0.0157822
808.843	0.0157690
808.921	0.0158241
808.999	0.0159979
809.078	0.0160826
809.156	0.0159275
809.234	0.0159751
809.312	0.0159783
809.390	0.0159246
809.468	0.0158504
809.546	0.0159208
809.624	0.0158015
809.703	0.0157824
809.781	0.0157806
809.859	0.0158118
809.937	0.0157331
810.015	0.0158291
810.093	0.0156906
810.171	0.0155706
810.249	0.0157164
810.328	0.0156960
810.406	0.0154824
810.484	0.0156142
810.562	0.0156470
810.640	0.0155785
810.718	0.0155597
810.796	0.0157030
810.874	0.0156306
810.953	0.0157672
811.031	0.0158063
811.109	0.0157764
811.187	0.0157956
811.265	0.0157899
811.343	0.0156881
811.421	0.0158084
811.499	0.0157146
811.578	0.0156417
811.656	0.0156329
811.734	0.0155667
811.812	0.0155874
811.890	0.0156760
811.968	0.0154694
812.046	0.0156207
812.124	0.0156464
812.203	0.0155475
812.281	0.0155486
812.359	0.0156982
812.437	0.0155800
812.515	0.0157832
812.593	0.0156694
812.671	0.0157598
812.749	0.0157052
812.828	0.0157626
812.906	0.0157533
812.984	0.0158227
813.062	0.0158369
813.140	0.0158839
813.218	0.0157554
813.296	0.0158537
813.374	0.0157424
813.453	0.0157648
813.531	0.0157231
813.609	0.0157120
813.687	0.0155445
813.765	0.0156445
813.843	0.0155686
813.921	0.0156390
813.999	0.0155558
814.078	0.0156365
814.156	0.0156402
814.234	0.0157246
814.312	0.0156464
814.390	0.0156040
814.468	0.0156873
814.546	0.0156292
814.624	0.0157581
814.703	0.0156761
814.781	0.0157300
814.859	0.0158543
814.937	0.0156081
815.015	0.0157995
815.093	0.0157814
815.171	0.0158504
815.249	0.0158180
815.328	0.0159296
815.406	0.0157970
815.484	0.0158376
815.562	0.0158630
815.640	0.0159447
815.718	0.0158302
815.796	0.0159399
815.874	0.0158860
815.953	0.0159203
816.031	0.0158486
816.109	0.0158717
816.187	0.0158631
816.265	0.0158807
816.343	0.0158207
816.421	0.0156496
816.499	0.0156592
816.578	0.0158350
816.656	0.0158162
816.734	0.0157005
816.812	0.0156446
816.890	0.0156975
816.968	0.0158205
817.046	0.0157180
817.124	0.0157273
817.203	0.0156290
817.281	0.0156518
817.359	0.0154659
817.437	0.0155887
817.515	0.0155388
817.593	0.0155294
817.671	0.0155235
817.749	0.0155844
817.828	0.0154502
817.906	0.0154845
817.984	0.0154550
818.062	0.0155180
818.140	0.0153175
818.218	0.0153497
818.296	0.0154749
818.374	0.0154902
818.453	0.0155939
818.531	0.0156531
818.609	0.0156039
818.687	0.0154964
818.765	0.0155293
818.843	0.0155415
818.921	0.0157153
818.999	0.0157518
819.078	0.0155730
819.156	0.0156085
819.234	0.0157732
819.312	0.0158562
819.390	0.0158033
819.468	0.0157936
819.546	0.0158795
819.624	0.0159271
819.703	0.0157542
819.781	0.0158961
819.859	0.0158568
819.937	0.0159511
820.015	0.0158698
820.093	0.0158378
820.171	0.0159049
820.249	0.0159518
820.328	0.0159414
820.406	0.0159161
820.484	0.0157034
820.562	0.0158013
820.640	0.0159554
820.718	0.0157454
820.796	0.0156935
820.874	0.0157606
820.953	0.0157198
821.031	0.0156013
821.109	0.0156700
821.187	0.0155228
821.265	0.0155799
821.343	0.0154826
821.421	0.0155427
821.499	0.0154821
821.578	0.0156274
821.656	0.0154885
821.734	0.0153658
821.812	0.0153992
821.890	0.0156032
821.968	0.0154839
822.046	0.0155906
822.124	0.0155666
822.203	0.0153493
822.281	0.0155820
822.359	0.0155627
822.437	0.0155229
822.515	0.0156584
822.593	0.0155625
822.671	0.0155646
822.749	0.0156913
822.828	0.0156375
822.906	0.0156444
822.984	0.0156974
823.062	0.0157719
823.140	0.0157478
823.218	0.0157684
823.296	0.0158116
823.374	0.0158578
823.453	0.0158569
823.531	0.0158662
823.609	0.0158472
823.687	0.0157783
823.765	0.0157895
823.843	0.0159048
823.921	0.0158965
823.999	0.0156911
824.078	0.0155904
824.156	0.0157784
824.234	0.0156653
824.312	0.0157287
824.390	0.0156887
824.468	0.0156272
824.546	0.0157402
824.624	0.0157671
824.703	0.0156678
824.781	0.0155273
824.859	0.0156012
824.937	0.0155518
825.015	0.0155627
825.093	0.0157449
825.171	0.0156861
825.249	0.0157125
825.328	0.0159014
825.406	0.0157107
825.484	0.0156414
825.562	0.0156244
825.640	0.0156729
825.718	0.0156465
825.796	0.0156656
825.874	0.0156356
825.953	0.0156669
826.031	0.0158617
826.109	0.0157684
826.187	0.0158360
826.265	0.0158218
826.343	0.0156946
826.421	0.0158495
826.499	0.0157940
826.578	0.0158316
826.656	0.0157230
826.734	0.0158069
826.812	0.0157413
826.890	0.0157755
826.968	0.0158027
827.046	0.0157703
827.124	0.0157863
827.203	0.0156641
827.281	0.0158131
827.359	0.0157727
827.437	0.0156921
827.515	0.0155315
827.593	0.0155537
827.671	0.0157838
827.749	0.0155447
827.828	0.0155145
827.906	0.0156828
827.984	0.0157064
828.062	0.0155311
828.140	0.0156766
828.218	0.0155685
828.296	0.0155660
828.374	0.0156176
828.453	0.0154932
828.531	0.0156693
828.609	0.0156184
828.687	0.0155766
828.765	0.0156819
828.843	0.0156402
828.921	0.0156432
828.999	0.0156606
829.078	0.0157191
829.156	0.0156953
829.234	0.0157349
829.312	0.0157040
829.390	0.0156098
829.468	0.0157428
829.546	0.0158753
829.624	0.0158622
829.703	0.0158356
829.781	0.0156753
829.859	0.0158521
829.937	0.0159132
830.015	0.0156991
830.093	0.0158247
830.171	0.0158135
830.249	0.0157725
830.328	0.0157465
830.406	0.0157968
830.484	0.0157095
830.562	0.0157711
830.640	0.0157563
830.718	0.0158044
830.796	0.0158527
830.874	0.0157879
830.953	0.0158492
831.031	0.0158142
831.109	0.0158707
831.187	0.0157647
831.265	0.0158272
831.343	0.0158044
831.421	0.0157627
831.499	0.0157718
831.578	0.0157697
831.656	0.0157947
831.734	0.0158451
831.812	0.0156812
831.890	0.0156583
831.968	0.0158506
832.046	0.0155194
832.124	0.0156975
832.203	0.0156893
832.281	0.0155953
832.359	0.0155233
832.437	0.0156180
832.515	0.0156663
832.593	0.0156050
832.671	0.0156194
832.749	0.0156180
832.828	0.0156000
832.906	0.0155602
832.984	0.0154580
833.062	0.0155963
833.140	0.0156107
833.218	0.0155967
833.296	0.0156461
833.374	0.0154829
833.453	0.0156313
833.531	0.0157972
833.609	0.0156435
833.687	0.0154742
833.765	0.0156322
833.843	0.0157978
833.921	0.0156497
833.999	0.0157952
834.078	0.0157407
834.156	0.0158999
834.234	0.0156258
834.312	0.0158437
834.390	0.0158012
834.468	0.0157189
834.546	0.0157851
834.624	0.0157706
834.703	0.0157265
834.781	0.0158545
834.859	0.0158156
834.937	0.0157473
835.015	0.0159101
835.093	0.0158786
835.171	0.0158346
835.249	0.0157996
835.328	0.0159516
835.406	0.0158711
835.484	0.0158802
835.562	0.0158103
835.640	0.0158876
835.718	0.0158522
835.796	0.0157872
835.874	0.0157115
835.953	0.0156698
836.031	0.0155530
836.109	0.0155106
836.187	0.0155244
836.265	0.0155781
836.343	0.0155826
836.421	0.0154599
836.499	0.0155634
836.578	0.0155460
836.656	0.0156410
836.734	0.0156035
836.812	0.0156038
836.890	0.0156300
836.968	0.0156979
837.046	0.0157600
837.124	0.0157879
837.203	0.0157685
837.281	0.0157159
837.359	0.0157696
837.437	0.0158063
837.515	0.0157048
837.593	0.0157167
837.671	0.0157618
837.749	0.0157356
837.828	0.0155974
837.906	0.0156638
837.984	0.0157014
838.062	0.0157398
838.140	0.0158892
838.218	0.0157695
838.296	0.0157478
838.374	0.0156497
838.453	0.0157541
838.531	0.0157571
838.609	0.0156862
838.687	0.0157433
838.765	0.0157088
838.843	0.0156947
838.921	0.0158816
838.999	0.0155460
839.078	0.0155876
839.156	0.0156538
839.234	0.0157556
839.312	0.0157149
839.390	0.0155853
839.468	0.0156389
839.546	0.0156075
839.624	0.0156995
839.703	0.0155844
839.781	0.0155395
839.859	0.0155605
839.937	0.0154974
840.015	0.0157108
840.093	0.0156761
840.171	0.0156467
840.249	0.0156496
840.328	0.0157550
840.406	0.0158976
840.484	0.0158929
840.562	0.0159940
840.640	0.0160065
840.718	0.0159033
840.796	0.0160199
840.874	0.0160748
840.953	0.0159198
841.031	0.0161137
841.109	0.0158582
841.187	0.0158869
841.265	0.0156918
841.343	0.0158210
841.421	0.0158205
841.499	0.0157573
841.578	0.0157637
841.656	0.0156844
841.734	0.0156399
841.812	0.0157077
841.890	0.0156554
841.968	0.0156422
842.046	0.0155247
842.124	0.0156545
842.203	0.0154437
842.281	0.0156543
842.359	0.0155488
842.437	0.0153674
842.515	0.0155265
842.593	0.0155357
842.671	0.0155236
842.749	0.0156523
842.828	0.0155881
842.906	0.0155022
842.984	0.0157176
843.062	0.0156058
843.140	0.0155366
843.218	0.0157114
843.296	0.0156914
843.374	0.0157231
843.453	0.0154948
843.531	0.0157365
843.609	0.0155787
843.687	0.0156286
843.765	0.0156567
843.843	0.0156956
843.921	0.0156882
843.999	0.0156535
844.078	0.0157552
844.156	0.0157951
844.234	0.0157748
844.312	0.0158271
844.390	0.0158459
844.468	0.0159525
844.546	0.0160609
844.624	0.0160939
844.703	0.0160462
844.781	0.0160629
844.859	0.0160039
844.937	0.0160727
845.015	0.0161375
845.093	0.0160693
845.171	0.0159502
845.249	0.0159496
845.328	0.0159664
845.406	0.0157903
845.484	0.0157175
845.562	0.0157426
845.640	0.0156979
845.718	0.0156448
845.796	0.0155087
845.874	0.0156310
845.953	0.0154395
846.031	0.0152277
846.109	0.0152810
846.187	0.0153088
846.265	0.0153288
846.343	0.0152863
846.421	0.0154155
846.499	0.0153851
846.578	0.0151664
846.656	0.0152804
846.734	0.0154704
846.812	0.0153761
846.890	0.0155312
846.968	0.0155050
847.046	0.0156520
847.124	0.0156744
847.203	0.0156593
847.281	0.0157442
847.359	0.0157277
847.437	0.0158691
847.515	0.0158739
847.593	0.0160564
847.671	0.0159428
847.749	0.0159663
847.828	0.0160563
847.906	0.0160495
847.984	0.0159291
848.062	0.0159712
848.140	0.0158465
848.218	0.0159249
848.296	0.0158398
848.374	0.0158766
848.453	0.0158673
848.531	0.0157236
848.609	0.0156550
848.687	0.0156505
848.765	0.0157308
848.843	0.0157851
848.921	0.0157400
848.999	0.0157159
849.078	0.0156395
849.156	0.0155402
849.234	0.0155511
849.312	0.0156977
849.390	0.0157121
849.468	0.0157346
849.546	0.0156232
849.624	0.0157197
849.703	0.0158034
849.781	0.0158751
849.859	0.0158224
849.937	0.0158151
850.015	0.0158292
850.093	0.0156602
850.171	0.0156644
850.249	0.0157977
850.328	0.0158103
850.406	0.0155795
850.484	0.0157165
850.562	0.0155573
850.640	0.0156096
850.718	0.0155569
850.796	0.0155666
850.874	0.0154163
850.953	0.0153958
851.031	0.0154077
851.109	0.0154594
851.187	0.0154465
851.265	0.0154309
851.343	0.0154160
851.421	0.0153684
851.499	0.0155958
851.578	0.0155384
851.656	0.0155544
851.734	0.0157838
851.812	0.0156754
851.890	0.0159515
851.968	0.0157838
852.046	0.0157040
852.124	0.0159333
852.203	0.0159363
852.281	0.0158685
852.359	0.0158868
852.437	0.0159563
852.515	0.0159568
852.593	0.0157752
852.671	0.0157973
852.749	0.0158339
852.828	0.0159165
852.906	0.0157606
852.984	0.0156779
853.062	0.0157362
853.140	0.0158925
853.218	0.0157620
853.296	0.0157225
853.374	0.0157141
853.453	0.0157299
853.531	0.0157029
853.609	0.0157203
853.687	0.0156700
853.765	0.0156095
853.843	0.0157085
853.921	0.0155569
853.999	0.0156692
854.078	0.0157658
854.156	0.0157487
854.234	0.0158483
854.312	0.0157521
854.390	0.0157742
854.468	0.0158327
854.546	0.0157286
854.624	0.0156416
854.703	0.0158514
854.781	0.0157394
854.859	0.0156930
854.937	0.0157802
855.015	0.0155693
855.093	0.0155713
855.171	0.0157151
855.249	0.0155312
855.328	0.0155894
855.406	0.0156326
855.484	0.0156252
855.562	0.0154582
855.640	0.0153880
855.718	0.0155337
855.796	0.0153606
855.874	0.0153978
855.953	0.0154945
856.031	0.0156149
856.109	0.0157192
856.187	0.0155328
856.265	0.0156739
856.343	0.0157864
856.421	0.0157365
856.499	0.0157327
856.578	0.0158170
856.656	0.0158241
856.734	0.0157909
856.812	0.0158875
856.890	0.0159158
856.968	0.0158880
857.046	0.0160045
857.124	0.0157531
857.203	0.0160399
857.281	0.0159518
857.359	0.0158920
857.437	0.0160194
857.515	0.0158321
857.593	0.0157785
857.671	0.0158309
857.749	0.0158314
857.828	0.0157951
857.906	0.0158644
857.984	0.0157918
858.062	0.0156464
858.140	0.0157790
858.218	0.0159173
858.296	0.0157867
858.374	0.0159370
858.453	0.0157504
858.531	0.0156914
858.609	0.0157951
858.687	0.0157274
858.765	0.0158607
858.843	0.0158660
858.921	0.0157129
858.999	0.0157708
859.078	0.0158984
859.156	0.0157493
859.234	0.0157400
859.312	0.0156960
859.390	0.0155840
859.468	0.0157038
859.546	0.0156268
859.624	0.0155901
859.703	0.0156510
859.781	0.0157027
859.859	0.0157125
859.937	0.0156528
860.015	0.0156184
860.093	0.0154818
860.171	0.0157516
860.249	0.0156472
860.328	0.0157420
860.406	0.0156414
860.484	0.0158406
860.562	0.0156819
860.640	0.0156965
860.718	0.0157082
860.796	0.0159170
860.874	0.0157343
860.953	0.0155573
861.031	0.0157329
861.109	0.0156845
861.187	0.0156760
861.265	0.0157287
861.343	0.0156178
861.421	0.0156509
861.499	0.0155899
861.578	0.0156452
861.656	0.0156279
861.734	0.0156450
861.812	0.0157452
861.890	0.0157687
861.968	0.0159037
862.046	0.0158168
862.124	0.0158257
862.203	0.0156641
862.281	0.0158150
862.359	0.0158268
862.437	0.0159521
862.515	0.0158454
862.593	0.0158157
862.671	0.0158902
862.749	0.0157972
862.828	0.0157664
862.906	0.0157661
862.984	0.0157030
863.062	0.0156258
863.140	0.0157568
863.218	0.0158289
863.296	0.0156647
863.374	0.0155755
863.453	0.0156260
863.531	0.0156802
863.609	0.0156982
863.687	0.0156181
863.765	0.0156738
863.843	0.0156622
863.921	0.0156147
863.999	0.0155755
864.078	0.0156126
864.156	0.0156108
864.234	0.0155054
864.312	0.0154506
864.390	0.0154381
864.468	0.0154790
864.546	0.0155238
864.624	0.0156396
864.703	0.0155815
864.781	0.0154572
864.859	0.0156071
864.937	0.0155714
865.015	0.0155174
865.093	0.0157756
865.171	0.0157189
865.249	0.0156704
865.328	0.0157864
865.406	0.0158086
865.484	0.0158293
865.562	0.0157100
865.640	0.0157585
865.718	0.0157195
865.796	0.0158325
865.874	0.0158842
865.953	0.0157368
866.031	0.0157520
866.109	0.0157256
866.187	0.0156522
866.265	0.0157003
866.343	0.0157520
866.421	0.0156496
866.499	0.0157474
866.578	0.0158054
866.656	0.0157903
866.734	0.0157939
866.812	0.0157257
866.890	0.0158423
866.968	0.0156593
867.046	0.0157141
867.124	0.0157246
867.203	0.0157014
867.281	0.0156380
867.359	0.0157552
867.437	0.0157178
867.515	0.0155790
867.593	0.0156941
867.671	0.0157610
867.749	0.0157162
867.828	0.0156724
867.906	0.0157466
867.984	0.0157050
868.062	0.0156506
868.140	0.0156858
868.218	0.0157359
868.296	0.0157950
868.374	0.0157916
868.453	0.0157394
868.531	0.0159129
868.609	0.0156409
868.687	0.0157501
868.765	0.0157119
868.843	0.0157594
868.921	0.0156817
868.999	0.0157246
869.078	0.0157114
869.156	0.0156040
869.234	0.0156479
869.312	0.0157967
869.390	0.0156980
869.468	0.0157542
869.546	0.0156566
869.624	0.0156068
869.703	0.0157931
869.781	0.0156623
869.859	0.0155431
869.937	0.0156511
870.015	0.0156480
870.093	0.0155285
870.171	0.0155749
870.249	0.0156432
870.328	0.0155196
870.406	0.0155300
870.484	0.0156387
870.562	0.0155278
870.640	0.0154462
870.718	0.0155491
870.796	0.0156022
870.874	0.0154666
870.953	0.0155096
871.031	0.0154583
871.109	0.0156238
871.187	0.0155779
871.265	0.0155513
871.343	0.0156277
871.421	0.0156585
871.499	0.0157401
871.578	0.0155693
871.656	0.0156178
871.734	0.0158299
871.812	0.0158291
871.890	0.0157111
871.968	0.0158004
872.046	0.0158257
872.124	0.0156757
872.203	0.0159254
872.281	0.0158828
872.359	0.0158456
872.437	0.0157001
872.515	0.0158028
872.593	0.0157139
872.671	0.0155439
872.749	0.0156023
872.828	0.0156538
872.906	0.0155840
872.984	0.0157604
873.062	0.0156217
873.140	0.0156180
873.218	0.0156303
873.296	0.0156817
873.374	0.0158053
873.453	0.0157819
873.531	0.0156583
873.609	0.0156137
873.687	0.0156953
873.765	0.0155851
873.843	0.0157180
873.921	0.0157365
873.999	0.0155653
874.078	0.0157545
874.156	0.0157164
874.234	0.0154987
874.312	0.0156702
874.390	0.0156568
874.468	0.0156876
874.546	0.0156543
874.624	0.0157152
874.703	0.0157497
874.781	0.0156879
874.859	0.0156017
874.937	0.0155970
875.015	0.0156037
875.093	0.0156802
875.171	0.0157552
875.249	0.0158621
875.328	0.0156988
875.406	0.0158327
875.484	0.0157600
875.562	0.0156104
875.640	0.0158424
875.718	0.0158089
875.796	0.0157864
875.874	0.0157883
875.953	0.0157285
876.031	0.0156638
876.109	0.0157475
876.187	0.0156971
876.265	0.0158385
876.343	0.0156747
876.421	0.0156285
876.499	0.0156345
876.578	0.0157619
876.656	0.0158759
876.734	0.0158531
876.812	0.0157201
876.890	0.0158170
876.968	0.0159274
877.046	0.0158004
877.124	0.0158629
877.203	0.0159316
877.281	0.0158591
877.359	0.0157637
877.437	0.0156706
877.515	0.0157240
877.593	0.0157513
877.671	0.0157743
877.749	0.0159644
877.828	0.0156449
877.906	0.0156591
877.984	0.0155978
878.062	0.0157629
878.140	0.0157053
878.218	0.0156207
878.296	0.0156860
878.374	0.0156867
878.453	0.0155099
878.531	0.0155309
878.609	0.0155239
878.687	0.0157091
878.765	0.0157181
878.843	0.0157113
878.921	0.0156140
878.999	0.0155923
879.078	0.0155424
879.156	0.0156821
879.234	0.0157154
879.312	0.0157990
879.390	0.0157117
879.468	0.0157835
879.546	0.0157007
879.624	0.0158611
879.703	0.0157702
879.781	0.0157745
879.859	0.0157969
879.937	0.0159035
880.015	0.0158097
880.093	0.0157676
880.171	0.0158201
880.249	0.0157096
880.328	0.0158253
880.406	0.0157825
880.484	0.0158459
880.562	0.0157650
880.640	0.0157468
880.718	0.0158782
880.796	0.0155878
880.874	0.0156792
880.953	0.0158480
881.031	0.0156419
881.109	0.0158192
881.187	0.0157265
881.265	0.0157372
881.343	0.0157381
881.421	0.0156358
881.499	0.0156402
881.578	0.0157085
881.656	0.0155801
881.734	0.0155915
881.812	0.0155781
881.890	0.0155733
881.968	0.0154619
882.046	0.0156486
882.124	0.0154567
882.203	0.0155198
882.281	0.0154939
882.359	0.0156705
882.437	0.0156087
882.515	0.0155816
882.593	0.0153964
882.671	0.0155764
882.749	0.0155767
882.828	0.0156402
882.906	0.0156657
882.984	0.0155730
883.062	0.0158065
883.140	0.0157108
883.218	0.0158345
883.296	0.0158793
883.374	0.0157958
883.453	0.0158410
883.531	0.0157871
883.609	0.0157983
883.687	0.0157253
883.765	0.0158074
883.843	0.0157738
883.921	0.0156989
883.999	0.0157156
884.078	0.0158527
884.156	0.0155833
884.234	0.0156606
884.312	0.0158198
884.390	0.0158691
884.468	0.0158677
884.546	0.0157639
884.624	0.0158285
884.703	0.0157008
884.781	0.0158047
884.859	0.0158723
884.937	0.0157878
885.015	0.0158310
885.093	0.0158629
885.171	0.0158311
885.249	0.0159358
885.328	0.0159197
885.406	0.0158997
885.484	0.0158731
885.562	0.0158651
885.640	0.0159571
885.718	0.0158681
885.796	0.0157620
885.874	0.0159202
885.953	0.0158756
886.031	0.0157934
886.109	0.0157511
886.187	0.0157709
886.265	0.0156348
886.343	0.0156252
886.421	0.0156274
886.499	0.0156529
886.578	0.0154977
886.656	0.0155942
886.734	0.0155086
886.812	0.0154681
886.890	0.0153592
886.968	0.0153838
887.046	0.0153967
887.124	0.0154695
887.203	0.0154710
887.281	0.0154143
887.359	0.0153648
887.437	0.0154805
887.515	0.0154877
887.593	0.0154707
887.671	0.0155458
887.749	0.0155408
887.828	0.0155750
887.906	0.0156119
887.984	0.0157704
888.062	0.0157239
888.140	0.0157370
888.218	0.0158573
888.296	0.0158553
888.374	0.0158359
888.453	0.0158193
888.531	0.0158480
888.609	0.0158837
888.687	0.0158761
888.765	0.0158342
888.843	0.0156986
888.921	0.0158027
888.999	0.0158782
889.078	0.0156851
889.156	0.0157902
889.234	0.0156964
889.312	0.0157862
889.390	0.0156976
889.468	0.0156037
889.546	0.0155767
889.624	0.0155042
889.703	0.0156547
889.781	0.0155589
889.859	0.0155212
889.937	0.0155665
890.015	0.0155579
890.093	0.0155398
890.171	0.0157014
890.249	0.0157224
890.328	0.0156044
890.406	0.0156488
890.484	0.0157293
890.562	0.0158083
890.640	0.0156472
890.718	0.0156635
890.796	0.0157922
890.874	0.0158122
890.953	0.0156463
891.031	0.0158363
891.109	0.0158524
891.187	0.0156653
891.265	0.0157785
891.343	0.0157306
891.421	0.0157705
891.499	0.0157389
891.578	0.0157684
891.656	0.0157664
891.734	0.0157319
891.812	0.0157755
891.890	0.0157198
891.968	0.0157430
892.046	0.0157607
892.124	0.0156676
892.203	0.0157237
892.281	0.0157022
892.359	0.0155496
892.437	0.0156138
892.515	0.0156124
892.593	0.0156579
892.671	0.0155798
892.749	0.0156921
892.828	0.0155888
892.906	0.0154745
892.984	0.0155929
893.062	0.0156295
893.140	0.0155657
893.218	0.0156741
893.296	0.0156427
893.374	0.0154710
893.453	0.0155663
893.531	0.0156107
893.609	0.0157028
893.687	0.0157265
893.765	0.0156581
893.843	0.0155991
893.921	0.0155289
893.999	0.0154981
894.078	0.0156117
894.156	0.0156171
894.234	0.0157090
894.312	0.0156719
894.390	0.0154588
894.468	0.0156181
894.546	0.0155668
894.624	0.0154550
894.703	0.0155785
894.781	0.0153696
894.859	0.0156410
894.937	0.0155166
895.015	0.0155882
895.093	0.0156239
895.171	0.0155678
895.249	0.0156629
895.328	0.0156655
895.406	0.0157694
895.484	0.0158550
895.562	0.0157008
895.640	0.0157388
895.718	0.0158495
895.796	0.0159492
895.874	0.0159191
895.953	0.0158930
896.031	0.0158964
896.109	0.0160187
896.187	0.0158405
896.265	0.0158096
896.343	0.0158549
896.421	0.0158615
896.499	0.0158157
896.578	0.0157954
896.656	0.0157118
896.734	0.0157828
896.812	0.0158077
896.890	0.0156960
896.968	0.0156503
897.046	0.0156869
897.124	0.0157455
897.203	0.0156680
897.281	0.0157817
897.359	0.0156593
897.437	0.0157024
897.515	0.0157201
897.593	0.0156672
897.671	0.0155695
897.749	0.0156000
897.828	0.0157040
897.906	0.0156731
897.984	0.0156414
898.062	0.0157011
898.140	0.0155795
898.218	0.0156977
898.296	0.0157179
898.374	0.0156408
898.453	0.0156187
898.531	0.0157539
898.609	0.0156042
898.687	0.0156251
898.765	0.0156977
898.843	0.0154890
898.921	0.0154429
898.999	0.0154673
899.078	0.0155993
899.156	0.0157513
899.234	0.0156898
899.312	0.0156103
899.390	0.0155460
899.468	0.0155621
899.546	0.0156633
899.624	0.0157941
899.703	0.0157397
899.781	0.0156502
899.859	0.0157781
899.937	0.0158947
900.015	0.0157571
900.093	0.0158752
900.171	0.0156778
900.249	0.0157523
900.328	0.0157809
900.406	0.0157052
900.484	0.0157636
900.562	0.0157568
900.640	0.0156588
900.718	0.0157304
900.796	0.0157057
900.874	0.0156580
900.953	0.0155521
901.031	0.0155409
901.109	0.0157456
901.187	0.0157328
901.265	0.0155710
901.343	0.0157983
901.421	0.0156723
901.499	0.0157259
901.578	0.0157560
901.656	0.0156172
901.734	0.0156310
901.812	0.0157556
901.890	0.0156899
901.968	0.0155763
902.046	0.0157051
902.124	0.0157402
902.203	0.0156216
902.281	0.0157485
902.359	0.0158850
902.437	0.0158826
902.515	0.0158279
902.593	0.0156744
902.671	0.0156888
902.749	0.0158372
902.828	0.0157188
902.906	0.0156828
902.984	0.0157721
903.062	0.0156894
903.140	0.0157537
903.218	0.0156271
903.296	0.0156026
903.374	0.0158773
903.453	0.0156893
903.531	0.0156815
903.609	0.0156593
903.687	0.0156683
903.765	0.0156266
903.843	0.0157526
903.921	0.0154379
903.999	0.0156045
904.078	0.0157358
904.156	0.0155763
904.234	0.0157092
904.312	0.0155268
904.390	0.0156399
904.468	0.0155035
904.546	0.0154778
904.624	0.0156136
904.703	0.0156005
904.781	0.0156107
904.859	0.0155165
904.937	0.0155412
905.015	0.0156524
905.093	0.0155589
905.171	0.0156831
905.249	0.0156769
905.328	0.0156049
905.406	0.0157544
905.484	0.0157423
905.562	0.0155944
905.640	0.0157328
905.718	0.0156974
905.796	0.0157502
905.874	0.0157548
905.953	0.0157307
906.031	0.0157976
906.109	0.0157413
906.187	0.0157145
906.265	0.0157652
906.343	0.0156880
906.421	0.0158528
906.499	0.0158173
906.578	0.0159183
906.656	0.0157981
906.734	0.0157629
906.812	0.0157796
906.890	0.0157268
906.968	0.0157799
907.046	0.0157053
907.124	0.0158311
907.203	0.0160302
907.281	0.0159428
907.359	0.0158557
907.437	0.0157896
907.515	0.0158237
907.593	0.0159172
907.671	0.0160980
907.749	0.0158799
907.828	0.0158188
907.906	0.0157291
907.984	0.0159237
908.062	0.0158745
908.140	0.0158801
908.218	0.0157350
908.296	0.0156505
908.374	0.0156075
908.453	0.0154984
908.531	0.0156013
908.609	0.0156925
908.687	0.0155541
908.765	0.0154964
908.843	0.0155556
908.921	0.0155389
908.999	0.0155657
909.078	0.0154688
909.156	0.0154780
909.234	0.0155872
909.312	0.0155931
909.390	0.0156265
909.468	0.0155603
909.546	0.0156677
909.624	0.0156187
909.703	0.0155886
909.781	0.0157825
909.859	0.0158272
909.937	0.0157243
910.015	0.0158316
910.093	0.0158075
910.171	0.0156618
910.249	0.0157676
910.328	0.0158001
910.406	0.0158917
910.484	0.0158912
910.562	0.0158410
910.640	0.0157623
910.718	0.0157974
910.796	0.0159365
910.874	0.0157248
910.953	0.0157133
911.031	0.0158836
911.109	0.0158075
911.187	0.0159259
911.265	0.0157237
911.343	0.0157791
911.421	0.0157082
911.499	0.0157740
911.578	0.0159541
911.656	0.0158688
911.734	0.0156829
911.812	0.0156809
911.890	0.0158135
911.968	0.0157425
912.046	0.0157784
912.124	0.0156989
912.203	0.0157387
912.281	0.0157109
912.359	0.0155383
912.437	0.0156138
912.515	0.0157970
912.593	0.0155635
912.671	0.0157191
912.749	0.0154659
912.828	0.0153981
912.906	0.0156853
912.984	0.0157171
913.062	0.0155252
913.140	0.0156976
913.218	0.0155933
913.296	0.0156841
913.374	0.0157475
913.453	0.0157089
913.531	0.0156136
913.609	0.0155345
913.687	0.0155065
913.765	0.0154816
913.843	0.0156313
913.921	0.0155778
913.999	0.0155272
914.078	0.0158032
914.156	0.0156183
914.234	0.0156735
914.312	0.0156287
914.390	0.0157027
914.468	0.0158538
914.546	0.0156488
914.624	0.0157042
914.703	0.0157705
914.781	0.0157095
914.859	0.0157611
914.937	0.0157333
915.015	0.0156627
915.093	0.0155919
915.171	0.0157130
915.249	0.0156687
915.328	0.0156322
915.406	0.0156881
915.484	0.0157663
915.562	0.0157666
915.640	0.0154356
915.718	0.0156303
915.796	0.0157377
915.874	0.0155004
915.953	0.0156425
916.031	0.0154981
916.109	0.0156628
916.187	0.0156755
916.265	0.0156768
916.343	0.0156636
916.421	0.0156712
916.499	0.0155776
916.578	0.0155946
916.656	0.0156476
916.734	0.0156857
916.812	0.0157096
916.890	0.0156734
916.968	0.0156516
917.046	0.0157445
917.124	0.0157880
917.203	0.0156974
917.281	0.0156666
917.359	0.0157075
917.437	0.0158251
917.515	0.0157442
917.593	0.0157095
917.671	0.0156586
917.749	0.0157355
917.828	0.0155138
917.906	0.0156890
917.984	0.0155338
918.062	0.0155869
918.140	0.0155141
918.218	0.0156349
918.296	0.0157159
918.374	0.0157578
918.453	0.0156306
918.531	0.0156578
918.609	0.0157547
918.687	0.0157095
918.765	0.0157115
918.843	0.0156191
918.921	0.0157842
918.999	0.0156088
919.078	0.0156001
919.156	0.0154726
919.234	0.0155553
919.312	0.0157231
919.390	0.0157150
919.468	0.0155578
919.546	0.0155916
919.624	0.0156033
919.703	0.0155350
919.781	0.0155560
919.859	0.0154993
919.937	0.0156355
