06/10/2022	18:58:55	Ver.	4.1	UNKNOWN
Optical Delay	600.015094	Delta X		0.078125	Sweeps	1	Scan Rate	0/0
Coordinates	Axis 1	NaN	Axis 2	NaN	Axis 3	NaN	Axis 4	NaN	Axis 5	NaN	Axis 6	0.000000
TX Power	0.000000	RX Power	0.000000

600.015	0.0161224
600.093	0.0160667
600.171	0.0162396
600.249	0.0160934
600.328	0.0161246
600.406	0.0160902
600.484	0.0161097
600.562	0.0160078
600.640	0.0160973
600.718	0.0160661
600.796	0.0161693
600.874	0.0160962
600.953	0.0160595
601.031	0.0160799
601.109	0.0161147
601.187	0.0161687
601.265	0.0161926
601.343	0.0161065
601.421	0.0161919
601.499	0.0161259
601.578	0.0160120
601.656	0.0160960
601.734	0.0161139
601.812	0.0161037
601.890	0.0159602
601.968	0.0161654
602.046	0.0161957
602.124	0.0162360
602.203	0.0161657
602.281	0.0161936
602.359	0.0162105
602.437	0.0161365
602.515	0.0161057
602.593	0.0161430
602.671	0.0160535
602.749	0.0160462
602.828	0.0162366
602.906	0.0161741
602.984	0.0160220
603.062	0.0161120
603.140	0.0161354
603.218	0.0160864
603.296	0.0161525
603.374	0.0159966
603.453	0.0159721
603.531	0.0159509
603.609	0.0160217
603.687	0.0161239
603.765	0.0160754
603.843	0.0160226
603.921	0.0160043
603.999	0.0161049
604.078	0.0161178
604.156	0.0159711
604.234	0.0161196
604.312	0.0161098
604.390	0.0161423
604.468	0.0160220
604.546	0.0161584
604.624	0.0160295
604.703	0.0160828
604.781	0.0160275
604.859	0.0160674
604.937	0.0160572
605.015	0.0160836
605.093	0.0160876
605.171	0.0160614
605.249	0.0161298
605.328	0.0161929
605.406	0.0160572
605.484	0.0160004
605.562	0.0160316
605.640	0.0159734
605.718	0.0160593
605.796	0.0161469
605.874	0.0161239
605.953	0.0161876
606.031	0.0159406
606.109	0.0160222
606.187	0.0161234
606.265	0.0160825
606.343	0.0161281
606.421	0.0159517
606.499	0.0161888
606.578	0.0161013
606.656	0.0161214
606.734	0.0160168
606.812	0.0161344
606.890	0.0160539
606.968	0.0160213
607.046	0.0162019
607.124	0.0161210
607.203	0.0161122
607.281	0.0160977
607.359	0.0160997
607.437	0.0161519
607.515	0.0160608
607.593	0.0160622
607.671	0.0160779
607.749	0.0161546
607.828	0.0160865
607.906	0.0161327
607.984	0.0160291
608.062	0.0160596
608.140	0.0160355
608.218	0.0160891
608.296	0.0159211
608.374	0.0159622
608.453	0.0161797
608.531	0.0160328
608.609	0.0160984
608.687	0.0161417
608.765	0.0160251
608.843	0.0159671
608.921	0.0161268
608.999	0.0161610
609.078	0.0161437
609.156	0.0160858
609.234	0.0159579
609.312	0.0161177
609.390	0.0160836
609.468	0.0159381
609.546	0.0160166
609.624	0.0160720
609.703	0.0161264
609.781	0.0160544
609.859	0.0161475
609.937	0.0160123
610.015	0.0160319
610.093	0.0161534
610.171	0.0160140
610.249	0.0160620
610.328	0.0159818
610.406	0.0161299
610.484	0.0160703
610.562	0.0159750
610.640	0.0160777
610.718	0.0159635
610.796	0.0161292
610.874	0.0161849
610.953	0.0160522
611.031	0.0160933
611.109	0.0160101
611.187	0.0160007
611.265	0.0161397
611.343	0.0159795
611.421	0.0159849
611.499	0.0160271
611.578	0.0161337
611.656	0.0159991
611.734	0.0160096
611.812	0.0161140
611.890	0.0159863
611.968	0.0160275
612.046	0.0162281
612.124	0.0161554
612.203	0.0160104
612.281	0.0160796
612.359	0.0160625
612.437	0.0159590
612.515	0.0161227
612.593	0.0160664
612.671	0.0160014
612.749	0.0160838
612.828	0.0161314
612.906	0.0160002
612.984	0.0161060
613.062	0.0160802
613.140	0.0160980
613.218	0.0160143
613.296	0.0159975
613.374	0.0160163
613.453	0.0160187
613.531	0.0160681
613.609	0.0159975
613.687	0.0160867
613.765	0.0159351
613.843	0.0160464
613.921	0.0160410
613.999	0.0160995
614.078	0.0159631
614.156	0.0160719
614.234	0.0161330
614.312	0.0159938
614.390	0.0160034
614.468	0.0160542
614.546	0.0160004
614.624	0.0158791
614.703	0.0159790
614.781	0.0160958
614.859	0.0159016
614.937	0.0159169
615.015	0.0160354
615.093	0.0159705
615.171	0.0160052
615.249	0.0159258
615.328	0.0160017
615.406	0.0160981
615.484	0.0159261
615.562	0.0158710
615.640	0.0160130
615.718	0.0159785
615.796	0.0159443
615.874	0.0160780
615.953	0.0158732
616.031	0.0159279
616.109	0.0160092
616.187	0.0160312
616.265	0.0160387
616.343	0.0159039
616.421	0.0159867
616.499	0.0159525
616.578	0.0159329
616.656	0.0160802
616.734	0.0161391
616.812	0.0159960
616.890	0.0160942
616.968	0.0159412
617.046	0.0160087
617.124	0.0160572
617.203	0.0160451
617.281	0.0159603
617.359	0.0160052
617.437	0.0160884
617.515	0.0160760
617.593	0.0160747
617.671	0.0160648
617.749	0.0159286
617.828	0.0160123
617.906	0.0161165
617.984	0.0159691
618.062	0.0160025
618.140	0.0160846
618.218	0.0160593
618.296	0.0159120
618.374	0.0160629
618.453	0.0160481
618.531	0.0160453
618.609	0.0161377
618.687	0.0158785
618.765	0.0160081
618.843	0.0160960
618.921	0.0160049
618.999	0.0161089
619.078	0.0161407
619.156	0.0161983
619.234	0.0162068
619.312	0.0160641
619.390	0.0160663
619.468	0.0160718
619.546	0.0162484
619.624	0.0161450
619.703	0.0161526
619.781	0.0161575
619.859	0.0160983
619.937	0.0160847
620.015	0.0159757
620.093	0.0161825
620.171	0.0162520
620.249	0.0160114
620.328	0.0161964
620.406	0.0161856
620.484	0.0161203
620.562	0.0160244
620.640	0.0160826
620.718	0.0161488
620.796	0.0161073
620.874	0.0161907
620.953	0.0162265
621.031	0.0162096
621.109	0.0159876
621.187	0.0160120
621.265	0.0161320
621.343	0.0160303
621.421	0.0161911
621.499	0.0161595
621.578	0.0160378
621.656	0.0161341
621.734	0.0160817
621.812	0.0160357
621.890	0.0160344
621.968	0.0160957
622.046	0.0160502
622.124	0.0161546
622.203	0.0160956
622.281	0.0160037
622.359	0.0161892
622.437	0.0161037
622.515	0.0161118
622.593	0.0161533
622.671	0.0162353
622.749	0.0160231
622.828	0.0161848
622.906	0.0161497
622.984	0.0161008
623.062	0.0160450
623.140	0.0159654
623.218	0.0159575
623.296	0.0160590
623.374	0.0162114
623.453	0.0159370
623.531	0.0160674
623.609	0.0160559
623.687	0.0159171
623.765	0.0160294
623.843	0.0162374
623.921	0.0160970
623.999	0.0160128
624.078	0.0160395
624.156	0.0160424
624.234	0.0161458
624.312	0.0159592
624.390	0.0160262
624.468	0.0159423
624.546	0.0161092
624.624	0.0162284
624.703	0.0160027
624.781	0.0161121
624.859	0.0160915
624.937	0.0162885
625.015	0.0161411
625.093	0.0159948
625.171	0.0160811
625.249	0.0160136
625.328	0.0161523
625.406	0.0159946
625.484	0.0160512
625.562	0.0160942
625.640	0.0159824
625.718	0.0161095
625.796	0.0161352
625.874	0.0160179
625.953	0.0161211
626.031	0.0161740
626.109	0.0161525
626.187	0.0161098
626.265	0.0162545
626.343	0.0161623
626.421	0.0160217
626.499	0.0161979
626.578	0.0161811
626.656	0.0161296
626.734	0.0161366
626.812	0.0161466
626.890	0.0161098
626.968	0.0161094
627.046	0.0161497
627.124	0.0160709
627.203	0.0161505
627.281	0.0160864
627.359	0.0161611
627.437	0.0161129
627.515	0.0161960
627.593	0.0161327
627.671	0.0161034
627.749	0.0161292
627.828	0.0160867
627.906	0.0161462
627.984	0.0161615
628.062	0.0162881
628.140	0.0161344
628.218	0.0161245
628.296	0.0161906
628.374	0.0161682
628.453	0.0162260
628.531	0.0162981
628.609	0.0161580
628.687	0.0161756
628.765	0.0160046
628.843	0.0161798
628.921	0.0161813
628.999	0.0162411
629.078	0.0163480
629.156	0.0161656
629.234	0.0162292
629.312	0.0161623
629.390	0.0162390
629.468	0.0160675
629.546	0.0162326
629.624	0.0162043
629.703	0.0161366
629.781	0.0162174
629.859	0.0161974
629.937	0.0162967
630.015	0.0162355
630.093	0.0161491
630.171	0.0161841
630.249	0.0161881
630.328	0.0161627
630.406	0.0163448
630.484	0.0161740
630.562	0.0161392
630.640	0.0161562
630.718	0.0162363
630.796	0.0160730
630.874	0.0160016
630.953	0.0161507
631.031	0.0161552
631.109	0.0161742
631.187	0.0162015
631.265	0.0160810
631.343	0.0161615
631.421	0.0160746
631.499	0.0161699
631.578	0.0161712
631.656	0.0160419
631.734	0.0161165
631.812	0.0161029
631.890	0.0161655
631.968	0.0160414
632.046	0.0161361
632.124	0.0161195
632.203	0.0161116
632.281	0.0160587
632.359	0.0159450
632.437	0.0162112
632.515	0.0161151
632.593	0.0160182
632.671	0.0160851
632.749	0.0161156
632.828	0.0160534
632.906	0.0160950
632.984	0.0161170
633.062	0.0161590
633.140	0.0160071
633.218	0.0160603
633.296	0.0160860
633.374	0.0160474
633.453	0.0160721
633.531	0.0160450
633.609	0.0160365
633.687	0.0160153
633.765	0.0160483
633.843	0.0160194
633.921	0.0160465
633.999	0.0160776
634.078	0.0159962
634.156	0.0160085
634.234	0.0160867
634.312	0.0160865
634.390	0.0161614
634.468	0.0159658
634.546	0.0159553
634.624	0.0160075
634.703	0.0160395
634.781	0.0160735
634.859	0.0160691
634.937	0.0161116
635.015	0.0161567
635.093	0.0159186
635.171	0.0160740
635.249	0.0160448
635.328	0.0160650
635.406	0.0160352
635.484	0.0159786
635.562	0.0161128
635.640	0.0159957
635.718	0.0160715
635.796	0.0160589
635.874	0.0161463
635.953	0.0159097
636.031	0.0159593
636.109	0.0160873
636.187	0.0159212
636.265	0.0159753
636.343	0.0160772
636.421	0.0160521
636.499	0.0160558
636.578	0.0161226
636.656	0.0160650
636.734	0.0161266
636.812	0.0159677
636.890	0.0160043
636.968	0.0159863
637.046	0.0161217
637.124	0.0159518
637.203	0.0160941
637.281	0.0159559
637.359	0.0159230
637.437	0.0158754
637.515	0.0159212
637.593	0.0160028
637.671	0.0161336
637.749	0.0160304
637.828	0.0159492
637.906	0.0160562
637.984	0.0160428
638.062	0.0158980
638.140	0.0159328
638.218	0.0159749
638.296	0.0161093
638.374	0.0160218
638.453	0.0159067
638.531	0.0159914
638.609	0.0159921
638.687	0.0159928
638.765	0.0158560
638.843	0.0159149
638.921	0.0158712
638.999	0.0160522
639.078	0.0158859
639.156	0.0158994
639.234	0.0160105
639.312	0.0160135
639.390	0.0159942
639.468	0.0159412
639.546	0.0160131
639.624	0.0160910
639.703	0.0159541
639.781	0.0160671
639.859	0.0159759
639.937	0.0159193
640.015	0.0160092
640.093	0.0160087
640.171	0.0160081
640.249	0.0159459
640.328	0.0159418
640.406	0.0160403
640.484	0.0160648
640.562	0.0159174
640.640	0.0160815
640.718	0.0160388
640.796	0.0160409
640.874	0.0160062
640.953	0.0159850
641.031	0.0160643
641.109	0.0161162
641.187	0.0161014
641.265	0.0160848
641.343	0.0160884
641.421	0.0159827
641.499	0.0161150
641.578	0.0159898
641.656	0.0160999
641.734	0.0160786
641.812	0.0161359
641.890	0.0160471
641.968	0.0159785
642.046	0.0160224
642.124	0.0160014
642.203	0.0159791
642.281	0.0159553
642.359	0.0161583
642.437	0.0160368
642.515	0.0159819
642.593	0.0159908
642.671	0.0161016
642.749	0.0161181
642.828	0.0158348
642.906	0.0160093
642.984	0.0160677
643.062	0.0160905
643.140	0.0159988
643.218	0.0160364
643.296	0.0161861
643.374	0.0162169
643.453	0.0161563
643.531	0.0161100
643.609	0.0161243
643.687	0.0161418
643.765	0.0161954
643.843	0.0161859
643.921	0.0160883
643.999	0.0161777
644.078	0.0160024
644.156	0.0161958
644.234	0.0161497
644.312	0.0161884
644.390	0.0160946
644.468	0.0161997
644.546	0.0162331
644.624	0.0162553
644.703	0.0161601
644.781	0.0160801
644.859	0.0160511
644.937	0.0160007
645.015	0.0161585
645.093	0.0161640
645.171	0.0161195
645.249	0.0160801
645.328	0.0162586
645.406	0.0160414
645.484	0.0161652
645.562	0.0161475
645.640	0.0161309
645.718	0.0162354
645.796	0.0160696
645.874	0.0161192
645.953	0.0161601
646.031	0.0160127
646.109	0.0161043
646.187	0.0162079
646.265	0.0160352
646.343	0.0162465
646.421	0.0161256
646.499	0.0159917
646.578	0.0161679
646.656	0.0160223
646.734	0.0161745
646.812	0.0161431
646.890	0.0161490
646.968	0.0161642
647.046	0.0161501
647.124	0.0160974
647.203	0.0161867
647.281	0.0161085
647.359	0.0161469
647.437	0.0162174
647.515	0.0161356
647.593	0.0160647
647.671	0.0161051
647.749	0.0160815
647.828	0.0162106
647.906	0.0161550
647.984	0.0161434
648.062	0.0161097
648.140	0.0160720
648.218	0.0160510
648.296	0.0161069
648.374	0.0160872
648.453	0.0160727
648.531	0.0161734
648.609	0.0161835
648.687	0.0162095
648.765	0.0162549
648.843	0.0162654
648.921	0.0161494
648.999	0.0160218
649.078	0.0161713
649.156	0.0162405
649.234	0.0161575
649.312	0.0162683
649.390	0.0163235
649.468	0.0160806
649.546	0.0160303
649.624	0.0161056
649.703	0.0161086
649.781	0.0161900
649.859	0.0161300
649.937	0.0161529
650.015	0.0161987
650.093	0.0162988
650.171	0.0161316
650.249	0.0161857
650.328	0.0161706
650.406	0.0162592
650.484	0.0163223
650.562	0.0161909
650.640	0.0162035
650.718	0.0161856
650.796	0.0162267
650.874	0.0162031
650.953	0.0162276
651.031	0.0162499
651.109	0.0162392
651.187	0.0162269
651.265	0.0161468
651.343	0.0161335
651.421	0.0160612
651.499	0.0162267
651.578	0.0163743
651.656	0.0161154
651.734	0.0160446
651.812	0.0161261
651.890	0.0162122
651.968	0.0161504
652.046	0.0161327
652.124	0.0163139
652.203	0.0161741
652.281	0.0161833
652.359	0.0161786
652.437	0.0161961
652.515	0.0161272
652.593	0.0161626
652.671	0.0163038
652.749	0.0161837
652.828	0.0161258
652.906	0.0162018
652.984	0.0162996
653.062	0.0161882
653.140	0.0162122
653.218	0.0161833
653.296	0.0162750
653.374	0.0161491
653.453	0.0161047
653.531	0.0161290
653.609	0.0161765
653.687	0.0161050
653.765	0.0161538
653.843	0.0162957
653.921	0.0161295
653.999	0.0160866
654.078	0.0161599
654.156	0.0161984
654.234	0.0162815
654.312	0.0162809
654.390	0.0161342
654.468	0.0160744
654.546	0.0161677
654.624	0.0162776
654.703	0.0162159
654.781	0.0161987
654.859	0.0161179
654.937	0.0162164
655.015	0.0162537
655.093	0.0160983
655.171	0.0160145
655.249	0.0161102
655.328	0.0161028
655.406	0.0160784
655.484	0.0161848
655.562	0.0161503
655.640	0.0161001
655.718	0.0160399
655.796	0.0161084
655.874	0.0160777
655.953	0.0158950
656.031	0.0161660
656.109	0.0161197
656.187	0.0161099
656.265	0.0160569
656.343	0.0161490
656.421	0.0160490
656.499	0.0159740
656.578	0.0162245
656.656	0.0161392
656.734	0.0160674
656.812	0.0161450
656.890	0.0161374
656.968	0.0161838
657.046	0.0160652
657.124	0.0160996
657.203	0.0160486
657.281	0.0160580
657.359	0.0159488
657.437	0.0160601
657.515	0.0161004
657.593	0.0160789
657.671	0.0160038
657.749	0.0161337
657.828	0.0161073
657.906	0.0160935
657.984	0.0161356
658.062	0.0160113
658.140	0.0160984
658.218	0.0161535
658.296	0.0161009
658.374	0.0161379
658.453	0.0161938
658.531	0.0161043
658.609	0.0161160
658.687	0.0161164
658.765	0.0161370
658.843	0.0160283
658.921	0.0161388
658.999	0.0160001
659.078	0.0160555
659.156	0.0160251
659.234	0.0161536
659.312	0.0160652
659.390	0.0160344
659.468	0.0161607
659.546	0.0161118
659.624	0.0160800
659.703	0.0160223
659.781	0.0160187
659.859	0.0160960
659.937	0.0160139
660.015	0.0161199
660.093	0.0161956
660.171	0.0161694
660.249	0.0160328
660.328	0.0160158
660.406	0.0160654
660.484	0.0161312
660.562	0.0159655
660.640	0.0160381
660.718	0.0159641
660.796	0.0161327
660.874	0.0160984
660.953	0.0160136
661.031	0.0160402
661.109	0.0158594
661.187	0.0159173
661.265	0.0159232
661.343	0.0158926
661.421	0.0159343
661.499	0.0158775
661.578	0.0159162
661.656	0.0159752
661.734	0.0160577
661.812	0.0159043
661.890	0.0158670
661.968	0.0159354
662.046	0.0159956
662.124	0.0158443
662.203	0.0160568
662.281	0.0160242
662.359	0.0161039
662.437	0.0159534
662.515	0.0158727
662.593	0.0159563
662.671	0.0159068
662.749	0.0159370
662.828	0.0159542
662.906	0.0160146
662.984	0.0160435
663.062	0.0159575
663.140	0.0159451
663.218	0.0160129
663.296	0.0160428
663.374	0.0160693
663.453	0.0159982
663.531	0.0159670
663.609	0.0160934
663.687	0.0160498
663.765	0.0159657
663.843	0.0158858
663.921	0.0161352
663.999	0.0159747
664.078	0.0158501
664.156	0.0158936
664.234	0.0159210
664.312	0.0161099
664.390	0.0161068
664.468	0.0159238
664.546	0.0159521
664.624	0.0160435
664.703	0.0159399
664.781	0.0159512
664.859	0.0159727
664.937	0.0159472
665.015	0.0160318
665.093	0.0160387
665.171	0.0160550
665.249	0.0160503
665.328	0.0159737
665.406	0.0158627
665.484	0.0159972
665.562	0.0160132
665.640	0.0160398
665.718	0.0160896
665.796	0.0159625
665.874	0.0159731
665.953	0.0159953
666.031	0.0159303
666.109	0.0159914
666.187	0.0159976
666.265	0.0160562
666.343	0.0160410
666.421	0.0159785
666.499	0.0158843
666.578	0.0159335
666.656	0.0159243
666.734	0.0159434
666.812	0.0159319
666.890	0.0160262
666.968	0.0159512
667.046	0.0160770
667.124	0.0160317
667.203	0.0161234
667.281	0.0160394
667.359	0.0159329
667.437	0.0161192
667.515	0.0161411
667.593	0.0160490
667.671	0.0160547
667.749	0.0160326
667.828	0.0161304
667.906	0.0159646
667.984	0.0159423
668.062	0.0159899
668.140	0.0161652
668.218	0.0159982
668.296	0.0160929
668.374	0.0160817
668.453	0.0160621
668.531	0.0160034
668.609	0.0160422
668.687	0.0161445
668.765	0.0161417
668.843	0.0160171
668.921	0.0161276
668.999	0.0160601
669.078	0.0160449
669.156	0.0161517
669.234	0.0160097
669.312	0.0161340
669.390	0.0161619
669.468	0.0160678
669.546	0.0161015
669.624	0.0161898
669.703	0.0161855
669.781	0.0161370
669.859	0.0161355
669.937	0.0160924
670.015	0.0161336
670.093	0.0161597
670.171	0.0162587
670.249	0.0160822
670.328	0.0160593
670.406	0.0162598
670.484	0.0161829
670.562	0.0161546
670.640	0.0161874
670.718	0.0162451
670.796	0.0161125
670.874	0.0160679
670.953	0.0162738
671.031	0.0162217
671.109	0.0162492
671.187	0.0161040
671.265	0.0161366
671.343	0.0160815
671.421	0.0163165
671.499	0.0161586
671.578	0.0161617
671.656	0.0161858
671.734	0.0160743
671.812	0.0162022
671.890	0.0160962
671.968	0.0162704
672.046	0.0161677
672.124	0.0160771
672.203	0.0162103
672.281	0.0163451
672.359	0.0161325
672.437	0.0161031
672.515	0.0161228
672.593	0.0162437
672.671	0.0161434
672.749	0.0159707
672.828	0.0162167
672.906	0.0163317
672.984	0.0161180
673.062	0.0162236
673.140	0.0162681
673.218	0.0161005
673.296	0.0161278
673.374	0.0161852
673.453	0.0160461
673.531	0.0161079
673.609	0.0162389
673.687	0.0160946
673.765	0.0161261
673.843	0.0159769
673.921	0.0161529
673.999	0.0161230
674.078	0.0161227
674.156	0.0161055
674.234	0.0161526
674.312	0.0160213
674.390	0.0160819
674.468	0.0161983
674.546	0.0162199
674.624	0.0161375
674.703	0.0161970
674.781	0.0161406
674.859	0.0161638
674.937	0.0161358
675.015	0.0161026
675.093	0.0161172
675.171	0.0161013
675.249	0.0161657
675.328	0.0161481
675.406	0.0161685
675.484	0.0161304
675.562	0.0160179
675.640	0.0161189
675.718	0.0162802
675.796	0.0161397
675.874	0.0161552
675.953	0.0161918
676.031	0.0161038
676.109	0.0161192
676.187	0.0162226
676.265	0.0161108
676.343	0.0159869
676.421	0.0160702
676.499	0.0163703
676.578	0.0162462
676.656	0.0161751
676.734	0.0160912
676.812	0.0161382
676.890	0.0160890
676.968	0.0161140
677.046	0.0161559
677.124	0.0159583
677.203	0.0159914
677.281	0.0162583
677.359	0.0162296
677.437	0.0162657
677.515	0.0161392
677.593	0.0160662
677.671	0.0160428
677.749	0.0160903
677.828	0.0160033
677.906	0.0160509
677.984	0.0161984
678.062	0.0162164
678.140	0.0161746
678.218	0.0161628
678.296	0.0160749
678.374	0.0161586
678.453	0.0161866
678.531	0.0161269
678.609	0.0161954
678.687	0.0162346
678.765	0.0162545
678.843	0.0161914
678.921	0.0162196
678.999	0.0161520
679.078	0.0160806
679.156	0.0162002
679.234	0.0160088
679.312	0.0160070
679.390	0.0160995
679.468	0.0162170
679.546	0.0161629
679.624	0.0160846
679.703	0.0162299
679.781	0.0160777
679.859	0.0160625
679.937	0.0160950
680.015	0.0160452
680.093	0.0161774
680.171	0.0160606
680.249	0.0161391
680.328	0.0159786
680.406	0.0161765
680.484	0.0160963
680.562	0.0159897
680.640	0.0160519
680.718	0.0160853
680.796	0.0160423
680.874	0.0161680
680.953	0.0161369
681.031	0.0160065
681.109	0.0158550
681.187	0.0160214
681.265	0.0160941
681.343	0.0160461
681.421	0.0160133
681.499	0.0159373
681.578	0.0159442
681.656	0.0159768
681.734	0.0160817
681.812	0.0159632
681.890	0.0160483
681.968	0.0160023
682.046	0.0159405
682.124	0.0159908
682.203	0.0158791
682.281	0.0161243
682.359	0.0161731
682.437	0.0159885
682.515	0.0160577
682.593	0.0158646
682.671	0.0159530
682.749	0.0160548
682.828	0.0159710
682.906	0.0160849
682.984	0.0158768
683.062	0.0160249
683.140	0.0160903
683.218	0.0157857
683.296	0.0160239
683.374	0.0160217
683.453	0.0159497
683.531	0.0161494
683.609	0.0159391
683.687	0.0159364
683.765	0.0159745
683.843	0.0159570
683.921	0.0160806
683.999	0.0160264
684.078	0.0160252
684.156	0.0159904
684.234	0.0158762
684.312	0.0159158
684.390	0.0159195
684.468	0.0159624
684.546	0.0161127
684.624	0.0160654
684.703	0.0160657
684.781	0.0158567
684.859	0.0160052
684.937	0.0161002
685.015	0.0160305
685.093	0.0160217
685.171	0.0160773
685.249	0.0161361
685.328	0.0161298
685.406	0.0161099
685.484	0.0159888
685.562	0.0159607
685.640	0.0161460
685.718	0.0160207
685.796	0.0159650
685.874	0.0160269
685.953	0.0159692
686.031	0.0160180
686.109	0.0159345
686.187	0.0160500
686.265	0.0159333
686.343	0.0158852
686.421	0.0161398
686.499	0.0160101
686.578	0.0158699
686.656	0.0160006
686.734	0.0161214
686.812	0.0160260
686.890	0.0159785
686.968	0.0160891
687.046	0.0159416
687.124	0.0159691
687.203	0.0158143
687.281	0.0159790
687.359	0.0159997
687.437	0.0159505
687.515	0.0159241
687.593	0.0159022
687.671	0.0159488
687.749	0.0160308
687.828	0.0159792
687.906	0.0159431
687.984	0.0160349
688.062	0.0158678
688.140	0.0158864
688.218	0.0160504
688.296	0.0160736
688.374	0.0159812
688.453	0.0159520
688.531	0.0159629
688.609	0.0159834
688.687	0.0159405
688.765	0.0159151
688.843	0.0159059
688.921	0.0161130
688.999	0.0161651
689.078	0.0159184
689.156	0.0159259
689.234	0.0158994
689.312	0.0159444
689.390	0.0160765
689.468	0.0159045
689.546	0.0159550
689.624	0.0159811
689.703	0.0159904
689.781	0.0158899
689.859	0.0160320
689.937	0.0159570
690.015	0.0158348
690.093	0.0160471
690.171	0.0159357
690.249	0.0158530
690.328	0.0159512
690.406	0.0159350
690.484	0.0159129
690.562	0.0159095
690.640	0.0159306
690.718	0.0159125
690.796	0.0158479
690.874	0.0159008
690.953	0.0159252
691.031	0.0159937
691.109	0.0159125
691.187	0.0160532
691.265	0.0160034
691.343	0.0159927
691.421	0.0159531
691.499	0.0160310
691.578	0.0160210
691.656	0.0158804
691.734	0.0160387
691.812	0.0159879
691.890	0.0158884
691.968	0.0159800
692.046	0.0161690
692.124	0.0160968
692.203	0.0159919
692.281	0.0159477
692.359	0.0159602
692.437	0.0160484
692.515	0.0160983
692.593	0.0159742
692.671	0.0160968
692.749	0.0159225
692.828	0.0159879
692.906	0.0160907
692.984	0.0159731
693.062	0.0160583
693.140	0.0160215
693.218	0.0159978
693.296	0.0160239
693.374	0.0160703
693.453	0.0159599
693.531	0.0159737
693.609	0.0160995
693.687	0.0160988
693.765	0.0160590
693.843	0.0161004
693.921	0.0160709
693.999	0.0159619
694.078	0.0159377
694.156	0.0159535
694.234	0.0159821
694.312	0.0160697
694.390	0.0160831
694.468	0.0161446
694.546	0.0160209
694.624	0.0161105
694.703	0.0160951
694.781	0.0160171
694.859	0.0161769
694.937	0.0160445
695.015	0.0160714
695.093	0.0161028
695.171	0.0159757
695.249	0.0161360
695.328	0.0161471
695.406	0.0162848
695.484	0.0161744
695.562	0.0160308
695.640	0.0161759
695.718	0.0162077
695.796	0.0163519
695.874	0.0161252
695.953	0.0161800
696.031	0.0162157
696.109	0.0161729
696.187	0.0161225
696.265	0.0162151
696.343	0.0162532
696.421	0.0161055
696.499	0.0162560
696.578	0.0162647
696.656	0.0161036
696.734	0.0160938
696.812	0.0161877
696.890	0.0161201
696.968	0.0160704
697.046	0.0160860
697.124	0.0161086
697.203	0.0162025
697.281	0.0162054
697.359	0.0162942
697.437	0.0161791
697.515	0.0161720
697.593	0.0161019
697.671	0.0160254
697.749	0.0161054
697.828	0.0162273
697.906	0.0160478
697.984	0.0160654
698.062	0.0160336
698.140	0.0162306
698.218	0.0160440
698.296	0.0160809
698.374	0.0160483
698.453	0.0161009
698.531	0.0162230
698.609	0.0161064
698.687	0.0161030
698.765	0.0161824
698.843	0.0159481
698.921	0.0160210
698.999	0.0162807
699.078	0.0161961
699.156	0.0162173
699.234	0.0161633
699.312	0.0160672
699.390	0.0160558
699.468	0.0160984
699.546	0.0163692
699.624	0.0161523
699.703	0.0161116
699.781	0.0161512
699.859	0.0161465
699.937	0.0161432
700.015	0.0160982
700.093	0.0161964
700.171	0.0162052
700.249	0.0161581
700.328	0.0162711
700.406	0.0161626
700.484	0.0160854
700.562	0.0161584
700.640	0.0162045
700.718	0.0161360
700.796	0.0161778
700.874	0.0161171
700.953	0.0162281
701.031	0.0160114
701.109	0.0160158
701.187	0.0160631
701.265	0.0161465
701.343	0.0160016
701.421	0.0160976
701.499	0.0161543
701.578	0.0159534
701.656	0.0160770
701.734	0.0160318
701.812	0.0160124
701.890	0.0160956
701.968	0.0161166
702.046	0.0161977
702.124	0.0160928
702.203	0.0160415
702.281	0.0160651
702.359	0.0161237
702.437	0.0160474
702.515	0.0161616
702.593	0.0159988
702.671	0.0160223
702.749	0.0159704
702.828	0.0161272
702.906	0.0161299
702.984	0.0159390
703.062	0.0160915
703.140	0.0161279
703.218	0.0161666
703.296	0.0161190
703.374	0.0161465
703.453	0.0159861
703.531	0.0160339
703.609	0.0161034
703.687	0.0160264
703.765	0.0160816
703.843	0.0161174
703.921	0.0160481
703.999	0.0160098
704.078	0.0160062
704.156	0.0161530
704.234	0.0160888
704.312	0.0160410
704.390	0.0159686
704.468	0.0161092
704.546	0.0159850
704.624	0.0158518
704.703	0.0161296
704.781	0.0160687
704.859	0.0160715
704.937	0.0161047
705.015	0.0159937
705.093	0.0162137
705.171	0.0160406
705.249	0.0160210
705.328	0.0160419
705.406	0.0161785
705.484	0.0161176
705.562	0.0161597
705.640	0.0160899
705.718	0.0161632
705.796	0.0160490
705.874	0.0161321
705.953	0.0160686
706.031	0.0161604
706.109	0.0161880
706.187	0.0160081
706.265	0.0160571
706.343	0.0159989
706.421	0.0160351
706.499	0.0160810
706.578	0.0161928
706.656	0.0160827
706.734	0.0160736
706.812	0.0160651
706.890	0.0161250
706.968	0.0160003
707.046	0.0160175
707.124	0.0162340
707.203	0.0161877
707.281	0.0161649
707.359	0.0161543
707.437	0.0160490
707.515	0.0161284
707.593	0.0159589
707.671	0.0159491
707.749	0.0159843
707.828	0.0158511
707.906	0.0159796
707.984	0.0160896
708.062	0.0160827
708.140	0.0161058
708.218	0.0161791
708.296	0.0161261
708.374	0.0160590
708.453	0.0160456
708.531	0.0160546
708.609	0.0159010
708.687	0.0160229
708.765	0.0159762
708.843	0.0160194
708.921	0.0160203
708.999	0.0162148
709.078	0.0160970
709.156	0.0159624
709.234	0.0159186
709.312	0.0161220
709.390	0.0162154
709.468	0.0161413
709.546	0.0159570
709.624	0.0160261
709.703	0.0160053
709.781	0.0160392
709.859	0.0161205
709.937	0.0159097
710.015	0.0160007
710.093	0.0161134
710.171	0.0159371
710.249	0.0159779
710.328	0.0160217
710.406	0.0159747
710.484	0.0160483
710.562	0.0161218
710.640	0.0162224
710.718	0.0160080
710.796	0.0159673
710.874	0.0160122
710.953	0.0160713
711.031	0.0158779
711.109	0.0158937
711.187	0.0161877
711.265	0.0161171
711.343	0.0160054
711.421	0.0159116
711.499	0.0160944
711.578	0.0160335
711.656	0.0158808
711.734	0.0160834
711.812	0.0158846
711.890	0.0159172
711.968	0.0160175
712.046	0.0160520
712.124	0.0160785
712.203	0.0160398
712.281	0.0159749
712.359	0.0159792
712.437	0.0158710
712.515	0.0159285
712.593	0.0160191
712.671	0.0160817
712.749	0.0160120
712.828	0.0160065
712.906	0.0159691
712.984	0.0159883
713.062	0.0160695
713.140	0.0160896
713.218	0.0159785
713.296	0.0159001
713.374	0.0160574
713.453	0.0159196
713.531	0.0160283
713.609	0.0160626
713.687	0.0160321
713.765	0.0160126
713.843	0.0160167
713.921	0.0160397
713.999	0.0160130
714.078	0.0160412
714.156	0.0160212
714.234	0.0160278
714.312	0.0160290
714.390	0.0160378
714.468	0.0160756
714.546	0.0158491
714.624	0.0160072
714.703	0.0160178
714.781	0.0158782
714.859	0.0159727
714.937	0.0160352
715.015	0.0159745
715.093	0.0160894
715.171	0.0159786
715.249	0.0160268
715.328	0.0159901
715.406	0.0160433
715.484	0.0160196
715.562	0.0160599
715.640	0.0160400
715.718	0.0160940
715.796	0.0161470
715.874	0.0159825
715.953	0.0160140
716.031	0.0161791
716.109	0.0160406
716.187	0.0161349
716.265	0.0161424
716.343	0.0161466
716.421	0.0160638
716.499	0.0160506
716.578	0.0160693
716.656	0.0160297
716.734	0.0159583
716.812	0.0160835
716.890	0.0161686
716.968	0.0160407
717.046	0.0161008
717.124	0.0160433
717.203	0.0161106
717.281	0.0160370
717.359	0.0160448
717.437	0.0160234
717.515	0.0162569
717.593	0.0160729
717.671	0.0160151
717.749	0.0160288
717.828	0.0159799
717.906	0.0160893
717.984	0.0160655
718.062	0.0160336
718.140	0.0160311
718.218	0.0159096
718.296	0.0160310
718.374	0.0161006
718.453	0.0161212
718.531	0.0161457
718.609	0.0160851
718.687	0.0161239
718.765	0.0159544
718.843	0.0160697
718.921	0.0160137
718.999	0.0160398
719.078	0.0160368
719.156	0.0160960
719.234	0.0161122
719.312	0.0160636
719.390	0.0160690
719.468	0.0160115
719.546	0.0159187
719.624	0.0160332
719.703	0.0161681
719.781	0.0161196
719.859	0.0159033
719.937	0.0161207
720.015	0.0161217
720.093	0.0160564
720.171	0.0160473
720.249	0.0160830
720.328	0.0160055
720.406	0.0159684
720.484	0.0161491
720.562	0.0160690
720.640	0.0161844
720.718	0.0159745
720.796	0.0160839
720.874	0.0161259
720.953	0.0160732
721.031	0.0160902
721.109	0.0160745
721.187	0.0160582
721.265	0.0160977
721.343	0.0160679
721.421	0.0161505
721.499	0.0161322
721.578	0.0162473
721.656	0.0161181
721.734	0.0159795
721.812	0.0159755
721.890	0.0160493
721.968	0.0161777
722.046	0.0160403
722.124	0.0160731
722.203	0.0160677
722.281	0.0161397
722.359	0.0161921
722.437	0.0162035
722.515	0.0162075
722.593	0.0162221
722.671	0.0162117
722.749	0.0161160
722.828	0.0161498
722.906	0.0162874
722.984	0.0161464
723.062	0.0160831
723.140	0.0160615
723.218	0.0161398
723.296	0.0163512
723.374	0.0160814
723.453	0.0162119
723.531	0.0162700
723.609	0.0161453
723.687	0.0161015
723.765	0.0161753
723.843	0.0161050
723.921	0.0161884
723.999	0.0161603
724.078	0.0161247
724.156	0.0160326
724.234	0.0159758
724.312	0.0162244
724.390	0.0160563
724.468	0.0159903
724.546	0.0161562
724.624	0.0162609
724.703	0.0161443
724.781	0.0160403
724.859	0.0159454
724.937	0.0161118
725.015	0.0162023
725.093	0.0162592
725.171	0.0160831
725.249	0.0161646
725.328	0.0160751
725.406	0.0160373
725.484	0.0162012
725.562	0.0162128
725.640	0.0160719
725.718	0.0161515
725.796	0.0162340
725.874	0.0161135
725.953	0.0162062
726.031	0.0162128
726.109	0.0160953
726.187	0.0159473
726.265	0.0160292
726.343	0.0161099
726.421	0.0160154
726.499	0.0160963
726.578	0.0161113
726.656	0.0161561
726.734	0.0161951
726.812	0.0161118
726.890	0.0160012
726.968	0.0160787
727.046	0.0160919
727.124	0.0162104
727.203	0.0161947
727.281	0.0161730
727.359	0.0161840
727.437	0.0159455
727.515	0.0161297
727.593	0.0160503
727.671	0.0160004
727.749	0.0161800
727.828	0.0161110
727.906	0.0160965
727.984	0.0161648
728.062	0.0160657
728.140	0.0161094
728.218	0.0160649
728.296	0.0160526
728.374	0.0161745
728.453	0.0161494
728.531	0.0160888
728.609	0.0159809
728.687	0.0162276
728.765	0.0161575
728.843	0.0161354
728.921	0.0160413
728.999	0.0160175
729.078	0.0161495
729.156	0.0162543
729.234	0.0162611
729.312	0.0161356
729.390	0.0160278
729.468	0.0161040
729.546	0.0160487
729.624	0.0160699
729.703	0.0161285
729.781	0.0160287
729.859	0.0160532
729.937	0.0161874
730.015	0.0161151
730.093	0.0161987
730.171	0.0161453
730.249	0.0158977
730.328	0.0160794
730.406	0.0160797
730.484	0.0160500
730.562	0.0161514
730.640	0.0160877
730.718	0.0161594
730.796	0.0162159
730.874	0.0160542
730.953	0.0160574
731.031	0.0161810
731.109	0.0161106
731.187	0.0161768
731.265	0.0161240
731.343	0.0161954
731.421	0.0161121
731.499	0.0160306
731.578	0.0161454
731.656	0.0162489
731.734	0.0160899
731.812	0.0162054
731.890	0.0162284
731.968	0.0161926
732.046	0.0160996
732.124	0.0161720
732.203	0.0161684
732.281	0.0162514
732.359	0.0160923
732.437	0.0160651
732.515	0.0162093
732.593	0.0161522
732.671	0.0160272
732.749	0.0160858
732.828	0.0161575
732.906	0.0159756
732.984	0.0159666
733.062	0.0159519
733.140	0.0159866
733.218	0.0160899
733.296	0.0162008
733.374	0.0159366
733.453	0.0159575
733.531	0.0160830
733.609	0.0159529
733.687	0.0159846
733.765	0.0161349
733.843	0.0159764
733.921	0.0160139
733.999	0.0160587
734.078	0.0159720
734.156	0.0160487
734.234	0.0160689
734.312	0.0159515
734.390	0.0161014
734.468	0.0160783
734.546	0.0160204
734.624	0.0160924
734.703	0.0160722
734.781	0.0160743
734.859	0.0159687
734.937	0.0159675
735.015	0.0161263
735.093	0.0160168
735.171	0.0159776
735.249	0.0159630
735.328	0.0160774
735.406	0.0160377
735.484	0.0161362
735.562	0.0160047
735.640	0.0159211
735.718	0.0159877
735.796	0.0161159
735.874	0.0160863
735.953	0.0160676
736.031	0.0160947
736.109	0.0161253
736.187	0.0158798
736.265	0.0158957
736.343	0.0159738
736.421	0.0159130
736.499	0.0159280
736.578	0.0161657
736.656	0.0161526
736.734	0.0161367
736.812	0.0159401
736.890	0.0161766
736.968	0.0158894
737.046	0.0159541
737.124	0.0160376
737.203	0.0160380
737.281	0.0159988
737.359	0.0160989
737.437	0.0161500
737.515	0.0161086
737.593	0.0159314
737.671	0.0160870
737.749	0.0159570
737.828	0.0160655
737.906	0.0159695
737.984	0.0161240
738.062	0.0160192
738.140	0.0159798
738.218	0.0161498
738.296	0.0161411
738.374	0.0158923
738.453	0.0159913
738.531	0.0161101
738.609	0.0162560
738.687	0.0160913
738.765	0.0161971
738.843	0.0161501
738.921	0.0161250
738.999	0.0159309
739.078	0.0162215
739.156	0.0161116
739.234	0.0161181
739.312	0.0160911
739.390	0.0161500
739.468	0.0159775
739.546	0.0161874
739.624	0.0159998
739.703	0.0160602
739.781	0.0161377
739.859	0.0160316
739.937	0.0160419
740.015	0.0161613
740.093	0.0162235
740.171	0.0160154
740.249	0.0162012
740.328	0.0161948
740.406	0.0160783
740.484	0.0160690
740.562	0.0161079
740.640	0.0160601
740.718	0.0160844
740.796	0.0161124
740.874	0.0160750
740.953	0.0163036
741.031	0.0161652
741.109	0.0161034
741.187	0.0161326
741.265	0.0162327
741.343	0.0160707
741.421	0.0161822
741.499	0.0161016
741.578	0.0161312
741.656	0.0160835
741.734	0.0161761
741.812	0.0161410
741.890	0.0162040
741.968	0.0161588
742.046	0.0159482
742.124	0.0161210
742.203	0.0162228
742.281	0.0160652
742.359	0.0161299
742.437	0.0161227
742.515	0.0161953
742.593	0.0160299
742.671	0.0162173
742.749	0.0162570
742.828	0.0161267
742.906	0.0161079
742.984	0.0162341
743.062	0.0161881
743.140	0.0162057
743.218	0.0160911
743.296	0.0159837
743.374	0.0162565
743.453	0.0162576
743.531	0.0161766
743.609	0.0161850
743.687	0.0162440
743.765	0.0162085
743.843	0.0160993
743.921	0.0162301
743.999	0.0162530
744.078	0.0161806
744.156	0.0161376
744.234	0.0161503
744.312	0.0162086
744.390	0.0161171
744.468	0.0161625
744.546	0.0161717
744.624	0.0161626
744.703	0.0162139
744.781	0.0160326
744.859	0.0161107
744.937	0.0161326
745.015	0.0160800
745.093	0.0161612
745.171	0.0162324
745.249	0.0160114
745.328	0.0160761
745.406	0.0161925
745.484	0.0161652
745.562	0.0162048
745.640	0.0162681
745.718	0.0161850
745.796	0.0161900
745.874	0.0161935
745.953	0.0159925
746.031	0.0160814
746.109	0.0161409
746.187	0.0161534
746.265	0.0161912
746.343	0.0160512
746.421	0.0160602
746.499	0.0161480
746.578	0.0162720
746.656	0.0161160
746.734	0.0161275
746.812	0.0161749
746.890	0.0161040
746.968	0.0161338
747.046	0.0161073
747.124	0.0160572
747.203	0.0160995
747.281	0.0161364
747.359	0.0161839
747.437	0.0162571
747.515	0.0161613
747.593	0.0160283
747.671	0.0161738
747.749	0.0161550
747.828	0.0161792
747.906	0.0161627
747.984	0.0161792
748.062	0.0161677
748.140	0.0160502
748.218	0.0159774
748.296	0.0162058
748.374	0.0162843
748.453	0.0162978
748.531	0.0162108
748.609	0.0162839
748.687	0.0162830
748.765	0.0158762
748.843	0.0161172
748.921	0.0162406
748.999	0.0160901
749.078	0.0161952
749.156	0.0159784
749.234	0.0160783
749.312	0.0160992
749.390	0.0161112
749.468	0.0160208
749.546	0.0161557
749.624	0.0161738
749.703	0.0160923
749.781	0.0160505
749.859	0.0159303
749.937	0.0159796
750.015	0.0160547
750.093	0.0160087
750.171	0.0160580
750.249	0.0161053
750.328	0.0160694
750.406	0.0160867
750.484	0.0161633
750.562	0.0159853
750.640	0.0159580
750.718	0.0161400
750.796	0.0161630
750.874	0.0161044
750.953	0.0161351
751.031	0.0160973
751.109	0.0160384
751.187	0.0159924
751.265	0.0158788
751.343	0.0159434
751.421	0.0158962
751.499	0.0160603
751.578	0.0159636
751.656	0.0159794
751.734	0.0159585
751.812	0.0160063
751.890	0.0161787
751.968	0.0159522
752.046	0.0158882
752.124	0.0159518
752.203	0.0160521
752.281	0.0161400
752.359	0.0161926
752.437	0.0159934
752.515	0.0161190
752.593	0.0161536
752.671	0.0160852
752.749	0.0161494
752.828	0.0161198
752.906	0.0161668
752.984	0.0160864
753.062	0.0161649
753.140	0.0161294
753.218	0.0162316
753.296	0.0162418
753.374	0.0161674
753.453	0.0162086
753.531	0.0162504
753.609	0.0162416
753.687	0.0163005
753.765	0.0160657
753.843	0.0160623
753.921	0.0161996
753.999	0.0161449
754.078	0.0160150
754.156	0.0160307
754.234	0.0159765
754.312	0.0161063
754.390	0.0160471
754.468	0.0159987
754.546	0.0159372
754.624	0.0160915
754.703	0.0161352
754.781	0.0159777
754.859	0.0160243
754.937	0.0160825
755.015	0.0161298
755.093	0.0161317
755.171	0.0160585
755.249	0.0161969
755.328	0.0159906
755.406	0.0158591
755.484	0.0159687
755.562	0.0159832
755.640	0.0160046
755.718	0.0161270
755.796	0.0160571
755.874	0.0160510
755.953	0.0160458
756.031	0.0160748
756.109	0.0160430
756.187	0.0160473
756.265	0.0160973
756.343	0.0160152
756.421	0.0161349
756.499	0.0161854
756.578	0.0161395
756.656	0.0160014
756.734	0.0159823
756.812	0.0160099
756.890	0.0160825
756.968	0.0159698
757.046	0.0161043
757.124	0.0160706
757.203	0.0159420
757.281	0.0160889
757.359	0.0160108
757.437	0.0160796
757.515	0.0160822
757.593	0.0161630
757.671	0.0161613
757.749	0.0160596
757.828	0.0160701
757.906	0.0160578
757.984	0.0160809
758.062	0.0159874
758.140	0.0159552
758.218	0.0159689
758.296	0.0159594
758.374	0.0159426
758.453	0.0159348
758.531	0.0159772
758.609	0.0159293
758.687	0.0159587
758.765	0.0159396
758.843	0.0157304
758.921	0.0159341
758.999	0.0161618
759.078	0.0160251
759.156	0.0160264
759.234	0.0162019
759.312	0.0161435
759.390	0.0162067
759.468	0.0161699
759.546	0.0161341
759.624	0.0161433
759.703	0.0162419
759.781	0.0162679
759.859	0.0160559
759.937	0.0159247
760.015	0.0161288
760.093	0.0160867
760.171	0.0159296
760.249	0.0160196
760.328	0.0160742
760.406	0.0159147
760.484	0.0159486
760.562	0.0159436
760.640	0.0160300
760.718	0.0160212
760.796	0.0159147
760.874	0.0160995
760.953	0.0159927
761.031	0.0160440
761.109	0.0159716
761.187	0.0158428
761.265	0.0159273
761.343	0.0160000
761.421	0.0159801
761.499	0.0158811
761.578	0.0157650
761.656	0.0158077
761.734	0.0158429
761.812	0.0158641
761.890	0.0157537
761.968	0.0158394
762.046	0.0157412
762.124	0.0159622
762.203	0.0158561
762.281	0.0158022
762.359	0.0157505
762.437	0.0158064
762.515	0.0158307
762.593	0.0158542
762.671	0.0159904
762.749	0.0160182
762.828	0.0159633
762.906	0.0160721
762.984	0.0159903
763.062	0.0160114
763.140	0.0161507
763.218	0.0162270
763.296	0.0160806
763.374	0.0160960
763.453	0.0161028
763.531	0.0161208
763.609	0.0160931
763.687	0.0162836
763.765	0.0161633
763.843	0.0163215
763.921	0.0162343
763.999	0.0162238
764.078	0.0161832
764.156	0.0162697
764.234	0.0161903
764.312	0.0162030
764.390	0.0161516
764.468	0.0161154
764.546	0.0163422
764.624	0.0162245
764.703	0.0163597
764.781	0.0162253
764.859	0.0162935
764.937	0.0163258
765.015	0.0161166
765.093	0.0161738
765.171	0.0161863
765.249	0.0161433
765.328	0.0159678
765.406	0.0159478
765.484	0.0159574
765.562	0.0159698
765.640	0.0158517
765.718	0.0158640
765.796	0.0159065
765.874	0.0158144
765.953	0.0159371
766.031	0.0158369
766.109	0.0158727
766.187	0.0158615
766.265	0.0159600
766.343	0.0157638
766.421	0.0158240
766.499	0.0158322
766.578	0.0158574
766.656	0.0157773
766.734	0.0158810
766.812	0.0156674
766.890	0.0157419
766.968	0.0159261
767.046	0.0158279
767.124	0.0157975
767.203	0.0159430
767.281	0.0160465
767.359	0.0161612
767.437	0.0160641
767.515	0.0162234
767.593	0.0162159
767.671	0.0161774
767.749	0.0163325
767.828	0.0163326
767.906	0.0163982
767.984	0.0163544
768.062	0.0163699
768.140	0.0164133
768.218	0.0164117
768.296	0.0164008
768.374	0.0164751
768.453	0.0163837
768.531	0.0163764
768.609	0.0163155
768.687	0.0163430
768.765	0.0163068
768.843	0.0163111
768.921	0.0162725
768.999	0.0162448
769.078	0.0161427
769.156	0.0161708
769.234	0.0161597
769.312	0.0161628
769.390	0.0160228
769.468	0.0161162
769.546	0.0159709
769.624	0.0159320
769.703	0.0159386
769.781	0.0159570
769.859	0.0158287
769.937	0.0157857
770.015	0.0156859
770.093	0.0158157
770.171	0.0158995
770.249	0.0159036
770.328	0.0159081
770.406	0.0160818
770.484	0.0159865
770.562	0.0161627
770.640	0.0161612
770.718	0.0162001
770.796	0.0161302
770.874	0.0163083
770.953	0.0163654
771.031	0.0163195
771.109	0.0164310
771.187	0.0163824
771.265	0.0162323
771.343	0.0162838
771.421	0.0163612
771.499	0.0163337
771.578	0.0162716
771.656	0.0162521
771.734	0.0161954
771.812	0.0160208
771.890	0.0160910
771.968	0.0161950
772.046	0.0161214
772.124	0.0160015
772.203	0.0160776
772.281	0.0161971
772.359	0.0162270
772.437	0.0161250
772.515	0.0161960
772.593	0.0162730
772.671	0.0162223
772.749	0.0161189
772.828	0.0161338
772.906	0.0161452
772.984	0.0160489
773.062	0.0160075
773.140	0.0160485
773.218	0.0159686
773.296	0.0159460
773.374	0.0159489
773.453	0.0159683
773.531	0.0159261
773.609	0.0158340
773.687	0.0158850
773.765	0.0158330
773.843	0.0160214
773.921	0.0159176
773.999	0.0159555
774.078	0.0159415
774.156	0.0158244
774.234	0.0159090
774.312	0.0161413
774.390	0.0160795
774.468	0.0159338
774.546	0.0158031
774.624	0.0158934
774.703	0.0158810
774.781	0.0158358
774.859	0.0159436
774.937	0.0161214
775.015	0.0159795
775.093	0.0158203
775.171	0.0157574
775.249	0.0157269
775.328	0.0158127
775.406	0.0159962
775.484	0.0158604
775.562	0.0157740
775.640	0.0160136
775.718	0.0160704
775.796	0.0160514
775.874	0.0161169
775.953	0.0162270
776.031	0.0161903
776.109	0.0162747
776.187	0.0164236
776.265	0.0163604
776.343	0.0165034
776.421	0.0165049
776.499	0.0164567
776.578	0.0164549
776.656	0.0165197
776.734	0.0163075
776.812	0.0163515
776.890	0.0162012
776.968	0.0162121
777.046	0.0161933
777.124	0.0161990
777.203	0.0161829
777.281	0.0159995
777.359	0.0161819
777.437	0.0158963
777.515	0.0159007
777.593	0.0158984
777.671	0.0158057
777.749	0.0158430
777.828	0.0158362
777.906	0.0158805
777.984	0.0157587
778.062	0.0158002
778.140	0.0157133
778.218	0.0156841
778.296	0.0157310
778.374	0.0156282
778.453	0.0156561
778.531	0.0156635
778.609	0.0155972
778.687	0.0157558
778.765	0.0157178
778.843	0.0158036
778.921	0.0159487
778.999	0.0159528
779.078	0.0160992
779.156	0.0160487
779.234	0.0161691
779.312	0.0162383
779.390	0.0164153
779.468	0.0162903
779.546	0.0162374
779.624	0.0161951
779.703	0.0163558
779.781	0.0162699
779.859	0.0161662
779.937	0.0160865
780.015	0.0161787
780.093	0.0161847
780.171	0.0160830
780.249	0.0159896
780.328	0.0160501
780.406	0.0160741
780.484	0.0161399
780.562	0.0160225
780.640	0.0161922
780.718	0.0161791
780.796	0.0162169
780.874	0.0162682
780.953	0.0162585
781.031	0.0163314
781.109	0.0163255
781.187	0.0165451
781.265	0.0163688
781.343	0.0163605
781.421	0.0164413
781.499	0.0162375
781.578	0.0163029
781.656	0.0163555
781.734	0.0162379
781.812	0.0161782
781.890	0.0161288
781.968	0.0162553
782.046	0.0163415
782.124	0.0162224
782.203	0.0162273
782.281	0.0162458
782.359	0.0161786
782.437	0.0160668
782.515	0.0160512
782.593	0.0157246
782.671	0.0157855
782.749	0.0157640
782.828	0.0156203
782.906	0.0156615
782.984	0.0155634
783.062	0.0155601
783.140	0.0154068
783.218	0.0154949
783.296	0.0153390
783.374	0.0155167
783.453	0.0154716
783.531	0.0153559
783.609	0.0154745
783.687	0.0154362
783.765	0.0156173
783.843	0.0157306
783.921	0.0158633
783.999	0.0158836
784.078	0.0158773
784.156	0.0161116
784.234	0.0162392
784.312	0.0162251
784.390	0.0163442
784.468	0.0163621
784.546	0.0165886
784.624	0.0165691
784.703	0.0166171
784.781	0.0166141
784.859	0.0166922
784.937	0.0166241
785.015	0.0164232
785.093	0.0166156
785.171	0.0164120
785.249	0.0164213
785.328	0.0163247
785.406	0.0162487
785.484	0.0163046
785.562	0.0160957
785.640	0.0160531
785.718	0.0161127
785.796	0.0161639
785.874	0.0157870
785.953	0.0158933
786.031	0.0157578
786.109	0.0156792
786.187	0.0157247
786.265	0.0156478
786.343	0.0156123
786.421	0.0156798
786.499	0.0156050
786.578	0.0156360
786.656	0.0156260
786.734	0.0156040
786.812	0.0156020
786.890	0.0156760
786.968	0.0158028
787.046	0.0159264
787.124	0.0161803
787.203	0.0160008
787.281	0.0159406
787.359	0.0161482
787.437	0.0163432
787.515	0.0161660
787.593	0.0160329
787.671	0.0162168
787.749	0.0162380
787.828	0.0162228
787.906	0.0162376
787.984	0.0162017
788.062	0.0163004
788.140	0.0161132
788.218	0.0161414
788.296	0.0161621
788.374	0.0160654
788.453	0.0163777
788.531	0.0162334
788.609	0.0162064
788.687	0.0163591
788.765	0.0160790
788.843	0.0161461
788.921	0.0161391
788.999	0.0162655
789.078	0.0162175
789.156	0.0163407
789.234	0.0162560
789.312	0.0162647
789.390	0.0161711
789.468	0.0162395
789.546	0.0162540
789.624	0.0160620
789.703	0.0161958
789.781	0.0162880
789.859	0.0160725
789.937	0.0158604
790.015	0.0160529
790.093	0.0159940
790.171	0.0160336
790.249	0.0158971
790.328	0.0159811
790.406	0.0159460
790.484	0.0157826
790.562	0.0157321
790.640	0.0157276
790.718	0.0156905
790.796	0.0156807
790.874	0.0155443
790.953	0.0157122
791.031	0.0156792
791.109	0.0156349
791.187	0.0156795
791.265	0.0156551
791.343	0.0156305
791.421	0.0157269
791.499	0.0156799
791.578	0.0157397
791.656	0.0159077
791.734	0.0159499
791.812	0.0159796
791.890	0.0160418
791.968	0.0161529
792.046	0.0162095
792.124	0.0163990
792.203	0.0163713
792.281	0.0163664
792.359	0.0163774
792.437	0.0165847
792.515	0.0166024
792.593	0.0166556
792.671	0.0166894
792.749	0.0166299
792.828	0.0166165
792.906	0.0167205
792.984	0.0165481
793.062	0.0165009
793.140	0.0165644
793.218	0.0164806
793.296	0.0163079
793.374	0.0163414
793.453	0.0163485
793.531	0.0161897
793.609	0.0160567
793.687	0.0161448
793.765	0.0160632
793.843	0.0158222
793.921	0.0158783
793.999	0.0156982
794.078	0.0157954
794.156	0.0157790
794.234	0.0156440
794.312	0.0155786
794.390	0.0156095
794.468	0.0156583
794.546	0.0154478
794.624	0.0154612
794.703	0.0154539
794.781	0.0155750
794.859	0.0154002
794.937	0.0154998
795.015	0.0154973
795.093	0.0154762
795.171	0.0156587
795.249	0.0157323
795.328	0.0157817
795.406	0.0158146
795.484	0.0158106
795.562	0.0159313
795.640	0.0161035
795.718	0.0160581
795.796	0.0161897
795.874	0.0161724
795.953	0.0162754
796.031	0.0164582
796.109	0.0164747
796.187	0.0164994
796.265	0.0165099
796.343	0.0164458
796.421	0.0165221
796.499	0.0165374
796.578	0.0166741
796.656	0.0166117
796.734	0.0165505
796.812	0.0167047
796.890	0.0166187
796.968	0.0166122
797.046	0.0165666
797.124	0.0164867
797.203	0.0163713
797.281	0.0162027
797.359	0.0162222
797.437	0.0162335
797.515	0.0160217
797.593	0.0158388
797.671	0.0158949
797.749	0.0156935
797.828	0.0156397
797.906	0.0157703
797.984	0.0155823
798.062	0.0157106
798.140	0.0156667
798.218	0.0156310
798.296	0.0157253
798.374	0.0157558
798.453	0.0157651
798.531	0.0158730
798.609	0.0157934
798.687	0.0159636
798.765	0.0161005
798.843	0.0161189
798.921	0.0160712
798.999	0.0162559
799.078	0.0162762
799.156	0.0163026
799.234	0.0162317
799.312	0.0162459
799.390	0.0164627
799.468	0.0163079
799.546	0.0163841
799.624	0.0163417
799.703	0.0165492
799.781	0.0164703
799.859	0.0165075
799.937	0.0163963
800.015	0.0164823
800.093	0.0164835
800.171	0.0164266
800.249	0.0162656
800.328	0.0162268
800.406	0.0162042
800.484	0.0162418
800.562	0.0161237
800.640	0.0162134
800.718	0.0161531
800.796	0.0160603
800.874	0.0160829
800.953	0.0161629
801.031	0.0162405
801.109	0.0161485
801.187	0.0161726
801.265	0.0161134
801.343	0.0160638
801.421	0.0160435
801.499	0.0161328
801.578	0.0159869
801.656	0.0160686
801.734	0.0159943
801.812	0.0159011
801.890	0.0160407
801.968	0.0158940
802.046	0.0158883
802.124	0.0159209
802.203	0.0157931
802.281	0.0158012
802.359	0.0160356
802.437	0.0158771
802.515	0.0158294
802.593	0.0158845
802.671	0.0157555
802.749	0.0158978
802.828	0.0158511
802.906	0.0159783
802.984	0.0158938
803.062	0.0160178
803.140	0.0160692
803.218	0.0160742
803.296	0.0160767
803.374	0.0162151
803.453	0.0162421
803.531	0.0165173
803.609	0.0164920
803.687	0.0164791
803.765	0.0166069
803.843	0.0165863
803.921	0.0167440
803.999	0.0167084
804.078	0.0167731
804.156	0.0166784
804.234	0.0168864
804.312	0.0167665
804.390	0.0166756
804.468	0.0168427
804.546	0.0167890
804.624	0.0166322
804.703	0.0164577
804.781	0.0164084
804.859	0.0164876
804.937	0.0164044
805.015	0.0161842
805.093	0.0160274
805.171	0.0157922
805.249	0.0159821
805.328	0.0157146
805.406	0.0157988
805.484	0.0158517
805.562	0.0156916
805.640	0.0156429
805.718	0.0155579
805.796	0.0156091
805.874	0.0156411
805.953	0.0157896
806.031	0.0156672
806.109	0.0157650
806.187	0.0157870
806.265	0.0158916
806.343	0.0158042
806.421	0.0159162
806.499	0.0161656
806.578	0.0158768
806.656	0.0161459
806.734	0.0161066
806.812	0.0162684
806.890	0.0163644
806.968	0.0163103
807.046	0.0163818
807.124	0.0165538
807.203	0.0165331
807.281	0.0163930
807.359	0.0163511
807.437	0.0165271
807.515	0.0165682
807.593	0.0164310
807.671	0.0164295
807.749	0.0163858
807.828	0.0163721
807.906	0.0161859
807.984	0.0162035
808.062	0.0163123
808.140	0.0161995
808.218	0.0161214
808.296	0.0160394
808.374	0.0160591
808.453	0.0159808
808.531	0.0160226
808.609	0.0160316
808.687	0.0160740
808.765	0.0162823
808.843	0.0162838
808.921	0.0162466
808.999	0.0162078
809.078	0.0162444
809.156	0.0162189
809.234	0.0162386
809.312	0.0162377
809.390	0.0161316
809.468	0.0161102
809.546	0.0161933
809.624	0.0160716
809.703	0.0161183
809.781	0.0159771
809.859	0.0158798
809.937	0.0161131
810.015	0.0159416
810.093	0.0160734
810.171	0.0158989
810.249	0.0160631
810.328	0.0161553
810.406	0.0161066
810.484	0.0162115
810.562	0.0161853
810.640	0.0161179
810.718	0.0162843
810.796	0.0161700
810.874	0.0161984
810.953	0.0163742
811.031	0.0163960
811.109	0.0162955
811.187	0.0162556
811.265	0.0163554
811.343	0.0164676
811.421	0.0164314
811.499	0.0162946
811.578	0.0162383
811.656	0.0163434
811.734	0.0165068
811.812	0.0163378
811.890	0.0163220
811.968	0.0161954
812.046	0.0161806
812.124	0.0162594
812.203	0.0162335
812.281	0.0161227
812.359	0.0162809
812.437	0.0161156
812.515	0.0160690
812.593	0.0160422
812.671	0.0159954
812.749	0.0159274
812.828	0.0158592
812.906	0.0158220
812.984	0.0158196
813.062	0.0157324
813.140	0.0156673
813.218	0.0157986
813.296	0.0156414
813.374	0.0157060
813.453	0.0155805
813.531	0.0155952
813.609	0.0156870
813.687	0.0156947
813.765	0.0157650
813.843	0.0157886
813.921	0.0157026
813.999	0.0158111
814.078	0.0158559
814.156	0.0159346
814.234	0.0162285
814.312	0.0161111
814.390	0.0159887
814.468	0.0162549
814.546	0.0163421
814.624	0.0163980
814.703	0.0164936
814.781	0.0163480
814.859	0.0163892
814.937	0.0164220
815.015	0.0163351
815.093	0.0163644
815.171	0.0163208
815.249	0.0162489
815.328	0.0162685
815.406	0.0162821
815.484	0.0162451
815.562	0.0162070
815.640	0.0162642
815.718	0.0161560
815.796	0.0161515
815.874	0.0162033
815.953	0.0162354
816.031	0.0162799
816.109	0.0161064
816.187	0.0159975
816.265	0.0161494
816.343	0.0161067
816.421	0.0161021
816.499	0.0160890
816.578	0.0159323
816.656	0.0159629
816.734	0.0159967
816.812	0.0158391
816.890	0.0158682
816.968	0.0156072
817.046	0.0158388
817.124	0.0158265
817.203	0.0157362
817.281	0.0157259
817.359	0.0158126
817.437	0.0159586
817.515	0.0160177
817.593	0.0158559
817.671	0.0159707
817.749	0.0160406
817.828	0.0158018
817.906	0.0158543
817.984	0.0159610
818.062	0.0160093
818.140	0.0159509
818.218	0.0159626
818.296	0.0160320
818.374	0.0160246
818.453	0.0160187
818.531	0.0161205
818.609	0.0161010
818.687	0.0161905
818.765	0.0161382
818.843	0.0160303
818.921	0.0162240
818.999	0.0162345
819.078	0.0162788
819.156	0.0162318
819.234	0.0161470
819.312	0.0161509
819.390	0.0162235
819.468	0.0160922
819.546	0.0160670
819.624	0.0161469
819.703	0.0158915
819.781	0.0159680
819.859	0.0158808
819.937	0.0159736
820.015	0.0159467
820.093	0.0160507
820.171	0.0158823
820.249	0.0160848
820.328	0.0160764
820.406	0.0159574
820.484	0.0162484
820.562	0.0163596
820.640	0.0162052
820.718	0.0163309
820.796	0.0163785
820.874	0.0163062
820.953	0.0164304
821.031	0.0165835
821.109	0.0164835
821.187	0.0164864
821.265	0.0164465
821.343	0.0164341
821.421	0.0163101
821.499	0.0163772
821.578	0.0163844
821.656	0.0165088
821.734	0.0162479
821.812	0.0161502
821.890	0.0160424
821.968	0.0160844
822.046	0.0159969
822.124	0.0158231
822.203	0.0158523
822.281	0.0157195
822.359	0.0158067
822.437	0.0158142
822.515	0.0157956
822.593	0.0158847
822.671	0.0157313
822.749	0.0157971
822.828	0.0157658
822.906	0.0158055
822.984	0.0157831
823.062	0.0157915
823.140	0.0157646
823.218	0.0157872
823.296	0.0158292
823.374	0.0158821
823.453	0.0158392
823.531	0.0158349
823.609	0.0157728
823.687	0.0159922
823.765	0.0159016
823.843	0.0158814
823.921	0.0159824
823.999	0.0161690
824.078	0.0160560
824.156	0.0160716
824.234	0.0159544
824.312	0.0161858
824.390	0.0163941
824.468	0.0163438
824.546	0.0162975
824.624	0.0163349
824.703	0.0163559
824.781	0.0163203
824.859	0.0163668
824.937	0.0163412
825.015	0.0164287
825.093	0.0163456
825.171	0.0164372
825.249	0.0164285
825.328	0.0164803
825.406	0.0164834
825.484	0.0164417
825.562	0.0162907
825.640	0.0165209
825.718	0.0164734
825.796	0.0164279
825.874	0.0164381
825.953	0.0164177
826.031	0.0162743
826.109	0.0163294
826.187	0.0163659
826.265	0.0163539
826.343	0.0162000
826.421	0.0161739
826.499	0.0160252
826.578	0.0158881
826.656	0.0158114
826.734	0.0159065
826.812	0.0158841
826.890	0.0158234
826.968	0.0158787
827.046	0.0158625
827.124	0.0159975
827.203	0.0160542
827.281	0.0159217
827.359	0.0161715
827.437	0.0162466
827.515	0.0160892
827.593	0.0161202
827.671	0.0161520
827.749	0.0161550
827.828	0.0161949
827.906	0.0162505
827.984	0.0162484
828.062	0.0161528
828.140	0.0161413
828.218	0.0161880
828.296	0.0160874
828.374	0.0160830
828.453	0.0159846
828.531	0.0161140
828.609	0.0157988
828.687	0.0159478
828.765	0.0158800
828.843	0.0158939
828.921	0.0159650
828.999	0.0159838
829.078	0.0160123
829.156	0.0159382
829.234	0.0160226
829.312	0.0160982
829.390	0.0162080
829.468	0.0162350
829.546	0.0162658
829.624	0.0162836
829.703	0.0163065
829.781	0.0163800
829.859	0.0165375
829.937	0.0164648
830.015	0.0165266
830.093	0.0164931
830.171	0.0165343
830.249	0.0166024
830.328	0.0166292
830.406	0.0163541
830.484	0.0166216
830.562	0.0166696
830.640	0.0165630
830.718	0.0165227
830.796	0.0164783
830.874	0.0164161
830.953	0.0164649
831.031	0.0163958
831.109	0.0162814
831.187	0.0163110
831.265	0.0163412
831.343	0.0162241
831.421	0.0161010
831.499	0.0162659
831.578	0.0162081
831.656	0.0160991
831.734	0.0159633
831.812	0.0158487
831.890	0.0159117
831.968	0.0158220
832.046	0.0157558
832.124	0.0158607
832.203	0.0157546
832.281	0.0157304
832.359	0.0159171
832.437	0.0158400
832.515	0.0157016
832.593	0.0158654
832.671	0.0158638
832.749	0.0157350
832.828	0.0160271
832.906	0.0161232
832.984	0.0160619
833.062	0.0161149
833.140	0.0162296
833.218	0.0162830
833.296	0.0162282
833.374	0.0162244
833.453	0.0163507
833.531	0.0164179
833.609	0.0163699
833.687	0.0163995
833.765	0.0163236
833.843	0.0164023
833.921	0.0164495
833.999	0.0163052
834.078	0.0164695
834.156	0.0163093
834.234	0.0163103
834.312	0.0163375
834.390	0.0162745
834.468	0.0162664
834.546	0.0162226
834.624	0.0160757
834.703	0.0159727
834.781	0.0158110
834.859	0.0158177
834.937	0.0158902
835.015	0.0156770
835.093	0.0156764
835.171	0.0156898
835.249	0.0155394
835.328	0.0155569
835.406	0.0156553
835.484	0.0157109
835.562	0.0156223
835.640	0.0156808
835.718	0.0157818
835.796	0.0157825
835.874	0.0159075
835.953	0.0159884
836.031	0.0159043
836.109	0.0160401
836.187	0.0160593
836.265	0.0161163
836.343	0.0162013
836.421	0.0162909
836.499	0.0162630
836.578	0.0163528
836.656	0.0164780
836.734	0.0163078
836.812	0.0160882
836.890	0.0163194
836.968	0.0163595
837.046	0.0162650
837.124	0.0163010
837.203	0.0163577
837.281	0.0162166
837.359	0.0163356
837.437	0.0162403
837.515	0.0162616
837.593	0.0162816
837.671	0.0163638
837.749	0.0162471
837.828	0.0162263
837.906	0.0162875
837.984	0.0162881
838.062	0.0163247
838.140	0.0163300
838.218	0.0161430
838.296	0.0161192
838.374	0.0160438
838.453	0.0161353
838.531	0.0159184
838.609	0.0157883
838.687	0.0157927
838.765	0.0157674
838.843	0.0155443
838.921	0.0155712
838.999	0.0155305
839.078	0.0155344
839.156	0.0156160
839.234	0.0155006
839.312	0.0155032
839.390	0.0157330
839.468	0.0155515
839.546	0.0154715
839.624	0.0154710
839.703	0.0155579
839.781	0.0155847
839.859	0.0156298
839.937	0.0156480
840.015	0.0156567
840.093	0.0157494
840.171	0.0158121
840.249	0.0158181
840.328	0.0159346
840.406	0.0159696
840.484	0.0159783
840.562	0.0160168
840.640	0.0160735
840.718	0.0161668
840.796	0.0162972
840.874	0.0163445
840.953	0.0162636
841.031	0.0163432
841.109	0.0164792
841.187	0.0164646
841.265	0.0167069
841.343	0.0166264
841.421	0.0165347
841.499	0.0165770
841.578	0.0165657
841.656	0.0165768
841.734	0.0164557
841.812	0.0165549
841.890	0.0164662
841.968	0.0163142
842.046	0.0163191
842.124	0.0163506
842.203	0.0162462
842.281	0.0161919
842.359	0.0161327
842.437	0.0161547
842.515	0.0159124
842.593	0.0159266
842.671	0.0157819
842.749	0.0157710
842.828	0.0157565
842.906	0.0156859
842.984	0.0157320
843.062	0.0156411
843.140	0.0155050
843.218	0.0155412
843.296	0.0155076
843.374	0.0154847
843.453	0.0155368
843.531	0.0154831
843.609	0.0154338
843.687	0.0154428
843.765	0.0154293
843.843	0.0155033
843.921	0.0156396
843.999	0.0157252
844.078	0.0156134
844.156	0.0158103
844.234	0.0157623
844.312	0.0157845
844.390	0.0159202
844.468	0.0160574
844.546	0.0161466
844.624	0.0161002
844.703	0.0161944
844.781	0.0162926
844.859	0.0163787
844.937	0.0162688
845.015	0.0163050
845.093	0.0164308
845.171	0.0164150
845.249	0.0163882
845.328	0.0162782
845.406	0.0164272
845.484	0.0164306
845.562	0.0162817
845.640	0.0161550
845.718	0.0162188
845.796	0.0160564
845.874	0.0161488
845.953	0.0161279
846.031	0.0160825
846.109	0.0160378
846.187	0.0159583
846.265	0.0161401
846.343	0.0159502
846.421	0.0160151
846.499	0.0158983
846.578	0.0158729
846.656	0.0159800
846.734	0.0160413
846.812	0.0160658
846.890	0.0158952
846.968	0.0158911
847.046	0.0160366
847.124	0.0160871
847.203	0.0159924
847.281	0.0159460
847.359	0.0158887
847.437	0.0160387
847.515	0.0161324
847.593	0.0159428
847.671	0.0159518
847.749	0.0159761
847.828	0.0158017
847.906	0.0157410
847.984	0.0159280
848.062	0.0157436
848.140	0.0158736
848.218	0.0158884
848.296	0.0159278
848.374	0.0157729
848.453	0.0159311
848.531	0.0160188
848.609	0.0160336
848.687	0.0160363
848.765	0.0160697
848.843	0.0160246
848.921	0.0160536
848.999	0.0161426
849.078	0.0161170
849.156	0.0160583
849.234	0.0163455
849.312	0.0163779
849.390	0.0163714
849.468	0.0162344
849.546	0.0163553
849.624	0.0163895
849.703	0.0163080
849.781	0.0163515
849.859	0.0162809
849.937	0.0161697
850.015	0.0163903
850.093	0.0163431
850.171	0.0162624
850.249	0.0162045
850.328	0.0162468
850.406	0.0162517
850.484	0.0161769
850.562	0.0161539
850.640	0.0160923
850.718	0.0161487
850.796	0.0159698
850.874	0.0160787
850.953	0.0161260
851.031	0.0159665
851.109	0.0159123
851.187	0.0161310
851.265	0.0159432
851.343	0.0157739
851.421	0.0158487
851.499	0.0158937
851.578	0.0158833
851.656	0.0158039
851.734	0.0157423
851.812	0.0158420
851.890	0.0156892
851.968	0.0159041
852.046	0.0157871
852.124	0.0159440
852.203	0.0160770
852.281	0.0158842
852.359	0.0159911
852.437	0.0161145
852.515	0.0161025
852.593	0.0161572
852.671	0.0161673
852.749	0.0161575
852.828	0.0163199
852.906	0.0162529
852.984	0.0163470
853.062	0.0164050
853.140	0.0164029
853.218	0.0165096
853.296	0.0164516
853.374	0.0163963
853.453	0.0164438
853.531	0.0165724
853.609	0.0165466
853.687	0.0163867
853.765	0.0164362
853.843	0.0164585
853.921	0.0163315
853.999	0.0163615
854.078	0.0162363
854.156	0.0160931
854.234	0.0161193
854.312	0.0159826
854.390	0.0159691
854.468	0.0159556
854.546	0.0158614
854.624	0.0157343
854.703	0.0157233
854.781	0.0158279
854.859	0.0157828
854.937	0.0156334
855.015	0.0157469
855.093	0.0156442
855.171	0.0158209
855.249	0.0159725
855.328	0.0158144
855.406	0.0159391
855.484	0.0159711
855.562	0.0160618
855.640	0.0161512
855.718	0.0159550
855.796	0.0160722
855.874	0.0162119
855.953	0.0161158
856.031	0.0161697
856.109	0.0162000
856.187	0.0161868
856.265	0.0161438
856.343	0.0162736
856.421	0.0163212
856.499	0.0161543
856.578	0.0163098
856.656	0.0161761
856.734	0.0162437
856.812	0.0161752
856.890	0.0161839
856.968	0.0162688
857.046	0.0160970
857.124	0.0160887
857.203	0.0159406
857.281	0.0160389
857.359	0.0161486
857.437	0.0161169
857.515	0.0159741
857.593	0.0160461
857.671	0.0159489
857.749	0.0159765
857.828	0.0159211
857.906	0.0160485
857.984	0.0159602
858.062	0.0158458
858.140	0.0159971
858.218	0.0159945
858.296	0.0158081
858.374	0.0158798
858.453	0.0158587
858.531	0.0158775
858.609	0.0159592
858.687	0.0159801
858.765	0.0158234
858.843	0.0159425
858.921	0.0159518
858.999	0.0160371
859.078	0.0160165
859.156	0.0158385
859.234	0.0159524
859.312	0.0159398
859.390	0.0159005
859.468	0.0158600
859.546	0.0160388
859.624	0.0159727
859.703	0.0160630
859.781	0.0159599
859.859	0.0160590
859.937	0.0160187
860.015	0.0160065
860.093	0.0160715
860.171	0.0160896
860.249	0.0159748
860.328	0.0160865
860.406	0.0161935
860.484	0.0160913
860.562	0.0161190
860.640	0.0162172
860.718	0.0161842
860.796	0.0161644
860.874	0.0161980
860.953	0.0162472
861.031	0.0161203
861.109	0.0160619
861.187	0.0161550
861.265	0.0161299
861.343	0.0161239
861.421	0.0160673
861.499	0.0161066
861.578	0.0162548
861.656	0.0160744
861.734	0.0161815
861.812	0.0161984
861.890	0.0160809
861.968	0.0160270
862.046	0.0160660
862.124	0.0160576
862.203	0.0160888
862.281	0.0159542
862.359	0.0159508
862.437	0.0159588
862.515	0.0157533
862.593	0.0158784
862.671	0.0158353
862.749	0.0158800
862.828	0.0158776
862.906	0.0158556
862.984	0.0159215
863.062	0.0159458
863.140	0.0159861
863.218	0.0159317
863.296	0.0159647
863.374	0.0160106
863.453	0.0161458
863.531	0.0162227
863.609	0.0161886
863.687	0.0161638
863.765	0.0162406
863.843	0.0161878
863.921	0.0161347
863.999	0.0161285
864.078	0.0162125
864.156	0.0162898
864.234	0.0162615
864.312	0.0162994
864.390	0.0162799
864.468	0.0161884
864.546	0.0162482
864.624	0.0161636
864.703	0.0160427
864.781	0.0161318
864.859	0.0162341
864.937	0.0161369
865.015	0.0162064
865.093	0.0159796
865.171	0.0160493
865.249	0.0161326
865.328	0.0160493
865.406	0.0160586
865.484	0.0160712
865.562	0.0159528
865.640	0.0160545
865.718	0.0159424
865.796	0.0159649
865.874	0.0160535
865.953	0.0159093
866.031	0.0158800
866.109	0.0160158
866.187	0.0159727
866.265	0.0159980
866.343	0.0160698
866.421	0.0160657
866.499	0.0160631
866.578	0.0159627
866.656	0.0159805
866.734	0.0159492
866.812	0.0159260
866.890	0.0159646
866.968	0.0159132
867.046	0.0158743
867.124	0.0159870
867.203	0.0159963
867.281	0.0160284
867.359	0.0159908
867.437	0.0158965
867.515	0.0159405
867.593	0.0159104
867.671	0.0159194
867.749	0.0157167
867.828	0.0157549
867.906	0.0159319
867.984	0.0157962
868.062	0.0159767
868.140	0.0159007
868.218	0.0159042
868.296	0.0160241
868.374	0.0160947
868.453	0.0160265
868.531	0.0160467
868.609	0.0162517
868.687	0.0162210
868.765	0.0160930
868.843	0.0162333
868.921	0.0161366
868.999	0.0161733
869.078	0.0162653
869.156	0.0162154
869.234	0.0161527
869.312	0.0161830
869.390	0.0161990
869.468	0.0161490
869.546	0.0161061
869.624	0.0160561
869.703	0.0161179
869.781	0.0161184
869.859	0.0161318
869.937	0.0160397
870.015	0.0162210
870.093	0.0161356
870.171	0.0159758
870.249	0.0160168
870.328	0.0161231
870.406	0.0159833
870.484	0.0161046
870.562	0.0160288
870.640	0.0160374
870.718	0.0160487
870.796	0.0160384
870.874	0.0159653
870.953	0.0158525
871.031	0.0158864
871.109	0.0159584
871.187	0.0160068
871.265	0.0158093
871.343	0.0159600
871.421	0.0160047
871.499	0.0159086
871.578	0.0159840
871.656	0.0159906
871.734	0.0160583
871.812	0.0160636
871.890	0.0161265
871.968	0.0161346
872.046	0.0162205
872.124	0.0162764
872.203	0.0161493
872.281	0.0162444
872.359	0.0163235
872.437	0.0162463
872.515	0.0161574
872.593	0.0163566
872.671	0.0163228
872.749	0.0162951
872.828	0.0163097
872.906	0.0161922
872.984	0.0162453
873.062	0.0164105
873.140	0.0163068
873.218	0.0163386
873.296	0.0162464
873.374	0.0163074
873.453	0.0162735
873.531	0.0162302
873.609	0.0162070
873.687	0.0162433
873.765	0.0162229
873.843	0.0162936
873.921	0.0161961
873.999	0.0160481
874.078	0.0162138
874.156	0.0161440
874.234	0.0160941
874.312	0.0161430
874.390	0.0160670
874.468	0.0159373
874.546	0.0160949
874.624	0.0160188
874.703	0.0161959
874.781	0.0162212
874.859	0.0162115
874.937	0.0161266
875.015	0.0163126
875.093	0.0160820
875.171	0.0161903
875.249	0.0161189
875.328	0.0161474
875.406	0.0161441
875.484	0.0161960
875.562	0.0161301
875.640	0.0162080
875.718	0.0160683
875.796	0.0160799
875.874	0.0161514
875.953	0.0160420
876.031	0.0160767
876.109	0.0159304
876.187	0.0158904
876.265	0.0159520
876.343	0.0160508
876.421	0.0160690
876.499	0.0158749
876.578	0.0160486
876.656	0.0161115
876.734	0.0160876
876.812	0.0160066
876.890	0.0160265
876.968	0.0160672
877.046	0.0159915
877.124	0.0160915
877.203	0.0161501
877.281	0.0160951
877.359	0.0160515
877.437	0.0160075
877.515	0.0160351
877.593	0.0159834
877.671	0.0161654
877.749	0.0161152
877.828	0.0160174
877.906	0.0161411
877.984	0.0162155
878.062	0.0161594
878.140	0.0161991
878.218	0.0161171
878.296	0.0161337
878.374	0.0160424
878.453	0.0159599
878.531	0.0162179
878.609	0.0161234
878.687	0.0161042
878.765	0.0160845
878.843	0.0161259
878.921	0.0160545
878.999	0.0161669
879.078	0.0160005
879.156	0.0160432
879.234	0.0159527
879.312	0.0159354
879.390	0.0160765
879.468	0.0158942
879.546	0.0160506
879.624	0.0158517
879.703	0.0159241
879.781	0.0158883
879.859	0.0158858
879.937	0.0159364
880.015	0.0159578
880.093	0.0159657
880.171	0.0161017
880.249	0.0160616
880.328	0.0160778
880.406	0.0161530
880.484	0.0160173
880.562	0.0159892
880.640	0.0160706
880.718	0.0161500
880.796	0.0161230
880.874	0.0160536
880.953	0.0159225
881.031	0.0161910
881.109	0.0161454
881.187	0.0160006
881.265	0.0159761
881.343	0.0159986
881.421	0.0160561
881.499	0.0159395
881.578	0.0161178
881.656	0.0159726
881.734	0.0160701
881.812	0.0160764
881.890	0.0159693
881.968	0.0160049
882.046	0.0160395
882.124	0.0160761
882.203	0.0161268
882.281	0.0161433
882.359	0.0160656
882.437	0.0160279
882.515	0.0160037
882.593	0.0159196
882.671	0.0159502
882.749	0.0159542
882.828	0.0158988
882.906	0.0159687
882.984	0.0159776
883.062	0.0159431
883.140	0.0159671
883.218	0.0159389
883.296	0.0160619
883.374	0.0160641
883.453	0.0161271
883.531	0.0160961
883.609	0.0161568
883.687	0.0161917
883.765	0.0161214
883.843	0.0160786
883.921	0.0161436
883.999	0.0162045
884.078	0.0161436
884.156	0.0161372
884.234	0.0161570
884.312	0.0162071
884.390	0.0161900
884.468	0.0160333
884.546	0.0160981
884.624	0.0162190
884.703	0.0161565
884.781	0.0161407
884.859	0.0161659
884.937	0.0160764
885.015	0.0161289
885.093	0.0162125
885.171	0.0162159
885.249	0.0161182
885.328	0.0162082
885.406	0.0162868
885.484	0.0162814
885.562	0.0161145
885.640	0.0160388
885.718	0.0162097
885.796	0.0160874
885.874	0.0160537
885.953	0.0159901
886.031	0.0160247
886.109	0.0160065
886.187	0.0160413
886.265	0.0160162
886.343	0.0161049
886.421	0.0161085
886.499	0.0159371
886.578	0.0162005
886.656	0.0161101
886.734	0.0160613
886.812	0.0161806
886.890	0.0161736
886.968	0.0162347
887.046	0.0160327
887.124	0.0160705
887.203	0.0160919
887.281	0.0159798
887.359	0.0160444
887.437	0.0160817
887.515	0.0160695
887.593	0.0160416
887.671	0.0159579
887.749	0.0158189
887.828	0.0158628
887.906	0.0158495
887.984	0.0158809
888.062	0.0158189
888.140	0.0158651
888.218	0.0158915
888.296	0.0159244
888.374	0.0159416
888.453	0.0159549
888.531	0.0158717
888.609	0.0159612
888.687	0.0160738
888.765	0.0160879
888.843	0.0161307
888.921	0.0162276
888.999	0.0161718
889.078	0.0161256
889.156	0.0162190
889.234	0.0162997
889.312	0.0163251
889.390	0.0161060
889.468	0.0162100
889.546	0.0163595
889.624	0.0163308
889.703	0.0161997
889.781	0.0162781
889.859	0.0162362
889.937	0.0162580
890.015	0.0162466
890.093	0.0161706
890.171	0.0162801
890.249	0.0160992
890.328	0.0160001
890.406	0.0162364
890.484	0.0161313
890.562	0.0161618
890.640	0.0158773
890.718	0.0160313
890.796	0.0159565
890.874	0.0157973
890.953	0.0159685
891.031	0.0159171
891.109	0.0159285
891.187	0.0158629
891.265	0.0160764
891.343	0.0160313
891.421	0.0159480
891.499	0.0160105
891.578	0.0159303
891.656	0.0161427
891.734	0.0160165
891.812	0.0159985
891.890	0.0160694
891.968	0.0161079
892.046	0.0160465
892.124	0.0160251
892.203	0.0161205
892.281	0.0161102
892.359	0.0161559
892.437	0.0161724
892.515	0.0161862
892.593	0.0160718
892.671	0.0162518
892.749	0.0161670
892.828	0.0161814
892.906	0.0161570
892.984	0.0160839
893.062	0.0161132
893.140	0.0160989
893.218	0.0160931
893.296	0.0160776
893.374	0.0161387
893.453	0.0161343
893.531	0.0161418
893.609	0.0160915
893.687	0.0160514
893.765	0.0161302
893.843	0.0161026
893.921	0.0159895
893.999	0.0159614
894.078	0.0160362
894.156	0.0159655
894.234	0.0159876
894.312	0.0161346
894.390	0.0161190
894.468	0.0159453
894.546	0.0161093
894.624	0.0160738
894.703	0.0161231
894.781	0.0160936
894.859	0.0160567
894.937	0.0161267
895.015	0.0161887
895.093	0.0161083
895.171	0.0162708
895.249	0.0161012
895.328	0.0161338
895.406	0.0161748
895.484	0.0160470
895.562	0.0160445
895.640	0.0159927
895.718	0.0161839
895.796	0.0161067
895.874	0.0160541
895.953	0.0161117
896.031	0.0159801
896.109	0.0160835
896.187	0.0160602
896.265	0.0159006
896.343	0.0160123
896.421	0.0160653
896.499	0.0160197
896.578	0.0161013
896.656	0.0161187
896.734	0.0160760
896.812	0.0162119
896.890	0.0161683
896.968	0.0160360
897.046	0.0159784
897.124	0.0160091
897.203	0.0161329
897.281	0.0161458
897.359	0.0162820
897.437	0.0162186
897.515	0.0162169
897.593	0.0163173
897.671	0.0162407
897.749	0.0164711
897.828	0.0161780
897.906	0.0163320
897.984	0.0161046
898.062	0.0161685
898.140	0.0161984
898.218	0.0162360
898.296	0.0162575
898.374	0.0161578
898.453	0.0162045
898.531	0.0161169
898.609	0.0160441
898.687	0.0160670
898.765	0.0161112
898.843	0.0160307
898.921	0.0159840
898.999	0.0160988
899.078	0.0161222
899.156	0.0159396
899.234	0.0160324
899.312	0.0160104
899.390	0.0160477
899.468	0.0159592
899.546	0.0160341
899.624	0.0160431
899.703	0.0159929
899.781	0.0159674
899.859	0.0161794
899.937	0.0160486
900.015	0.0160857
900.093	0.0160909
900.171	0.0161708
900.249	0.0160030
900.328	0.0161907
900.406	0.0161429
900.484	0.0161070
900.562	0.0161791
900.640	0.0161845
900.718	0.0161645
900.796	0.0161609
900.874	0.0161673
900.953	0.0162510
901.031	0.0160563
901.109	0.0161871
901.187	0.0162168
901.265	0.0162325
901.343	0.0162585
901.421	0.0160767
901.499	0.0161853
901.578	0.0161018
901.656	0.0160978
901.734	0.0160976
901.812	0.0160922
901.890	0.0161595
901.968	0.0161341
902.046	0.0160926
902.124	0.0161036
902.203	0.0160004
902.281	0.0161046
902.359	0.0160295
902.437	0.0160102
902.515	0.0161013
902.593	0.0161375
902.671	0.0160815
902.749	0.0161488
902.828	0.0162038
902.906	0.0160993
902.984	0.0161198
903.062	0.0161591
903.140	0.0161223
903.218	0.0162064
903.296	0.0162220
903.374	0.0162839
903.453	0.0162474
903.531	0.0161594
903.609	0.0160907
903.687	0.0161753
903.765	0.0161502
903.843	0.0161790
903.921	0.0162635
903.999	0.0160490
904.078	0.0161929
904.156	0.0161684
904.234	0.0161652
904.312	0.0160921
904.390	0.0160110
904.468	0.0160617
904.546	0.0161224
904.624	0.0160495
904.703	0.0160206
904.781	0.0160661
904.859	0.0160101
904.937	0.0158991
905.015	0.0159113
905.093	0.0159118
905.171	0.0159196
905.249	0.0159366
905.328	0.0158916
905.406	0.0159990
905.484	0.0160651
905.562	0.0160910
905.640	0.0160095
905.718	0.0160046
905.796	0.0162247
905.874	0.0161590
905.953	0.0162251
906.031	0.0162043
906.109	0.0161156
906.187	0.0162119
906.265	0.0162329
906.343	0.0161517
906.421	0.0162357
906.499	0.0162169
906.578	0.0160968
906.656	0.0162583
906.734	0.0160655
906.812	0.0161917
906.890	0.0162806
906.968	0.0161458
907.046	0.0161381
907.124	0.0161045
907.203	0.0162071
907.281	0.0159306
907.359	0.0161440
907.437	0.0161723
907.515	0.0160744
907.593	0.0160117
907.671	0.0160516
907.749	0.0161304
907.828	0.0160629
907.906	0.0159417
907.984	0.0160188
908.062	0.0159607
908.140	0.0160126
908.218	0.0161594
908.296	0.0161640
908.374	0.0160650
908.453	0.0161002
908.531	0.0161777
908.609	0.0161134
908.687	0.0162416
908.765	0.0161814
908.843	0.0162172
908.921	0.0162090
908.999	0.0161768
909.078	0.0162025
909.156	0.0160868
909.234	0.0162019
909.312	0.0163297
909.390	0.0162128
909.468	0.0161056
909.546	0.0161375
909.624	0.0161655
909.703	0.0162018
909.781	0.0161458
909.859	0.0160432
909.937	0.0159969
910.015	0.0161297
910.093	0.0160339
910.171	0.0159306
910.249	0.0160251
910.328	0.0161083
910.406	0.0159885
910.484	0.0160706
910.562	0.0161043
910.640	0.0159482
910.718	0.0160077
910.796	0.0160594
910.874	0.0159748
910.953	0.0160651
911.031	0.0160548
911.109	0.0159357
911.187	0.0160287
911.265	0.0158813
911.343	0.0160409
911.421	0.0159956
911.499	0.0160594
911.578	0.0161503
911.656	0.0160860
911.734	0.0161685
911.812	0.0161573
911.890	0.0160648
911.968	0.0160546
912.046	0.0161076
912.124	0.0161303
912.203	0.0159615
912.281	0.0160225
912.359	0.0161431
912.437	0.0160742
912.515	0.0160166
912.593	0.0161116
912.671	0.0160823
912.749	0.0161079
912.828	0.0160082
912.906	0.0161736
912.984	0.0160477
913.062	0.0160547
913.140	0.0161761
913.218	0.0160093
913.296	0.0160280
913.374	0.0159738
913.453	0.0158643
913.531	0.0159419
913.609	0.0161269
913.687	0.0160162
913.765	0.0161428
913.843	0.0160500
913.921	0.0160030
913.999	0.0159173
914.078	0.0160472
914.156	0.0161370
914.234	0.0160121
914.312	0.0159748
914.390	0.0158964
914.468	0.0159856
914.546	0.0160887
914.624	0.0160299
914.703	0.0160618
914.781	0.0160115
914.859	0.0158606
914.937	0.0159569
915.015	0.0159256
915.093	0.0161399
915.171	0.0160675
915.249	0.0158223
915.328	0.0161449
915.406	0.0160099
915.484	0.0158919
915.562	0.0160150
915.640	0.0159131
915.718	0.0158920
915.796	0.0159827
915.874	0.0158282
915.953	0.0159363
916.031	0.0159534
916.109	0.0159134
916.187	0.0159384
916.265	0.0160262
916.343	0.0159462
916.421	0.0159028
916.499	0.0159164
916.578	0.0158196
916.656	0.0158614
916.734	0.0159991
916.812	0.0159178
916.890	0.0159339
916.968	0.0159428
917.046	0.0159686
917.124	0.0160577
917.203	0.0159935
917.281	0.0160480
917.359	0.0160074
917.437	0.0159735
917.515	0.0160241
917.593	0.0162852
917.671	0.0161594
917.749	0.0161192
917.828	0.0160645
917.906	0.0160648
917.984	0.0161450
918.062	0.0162244
918.140	0.0161256
918.218	0.0161344
918.296	0.0161253
918.374	0.0162008
918.453	0.0160995
918.531	0.0161037
918.609	0.0160501
918.687	0.0161251
918.765	0.0160506
918.843	0.0159776
918.921	0.0161690
918.999	0.0160764
919.078	0.0161005
919.156	0.0161058
919.234	0.0161544
919.312	0.0160265
919.390	0.0158781
919.468	0.0159747
919.546	0.0159389
919.624	0.0160787
919.703	0.0159953
919.781	0.0159374
919.859	0.0158947
919.937	0.0159364
