06/10/2022	18:59:10	Ver.	4.1	UNKNOWN
Optical Delay	600.015094	Delta X		0.078125	Sweeps	1	Scan Rate	0/0
Coordinates	Axis 1	NaN	Axis 2	NaN	Axis 3	NaN	Axis 4	NaN	Axis 5	NaN	Axis 6	0.000000
TX Power	0.000000	RX Power	0.000000

600.015	0.0162006
600.093	0.0162878
600.171	0.0162219
600.249	0.0163284
600.328	0.0163760
600.406	0.0161916
600.484	0.0162154
600.562	0.0162283
600.640	0.0162516
600.718	0.0162756
600.796	0.0163371
600.874	0.0163337
600.953	0.0162778
601.031	0.0161759
601.109	0.0162997
601.187	0.0161864
601.265	0.0161600
601.343	0.0161467
601.421	0.0162436
601.499	0.0161936
601.578	0.0161328
601.656	0.0162469
601.734	0.0163164
601.812	0.0162569
601.890	0.0160116
601.968	0.0161530
602.046	0.0161840
602.124	0.0162328
602.203	0.0161861
602.281	0.0161924
602.359	0.0161411
602.437	0.0162420
602.515	0.0160804
602.593	0.0162582
602.671	0.0161834
602.749	0.0161199
602.828	0.0162249
602.906	0.0163261
602.984	0.0162457
603.062	0.0160538
603.140	0.0162450
603.218	0.0161462
603.296	0.0161750
603.374	0.0160523
603.453	0.0160430
603.531	0.0161377
603.609	0.0161706
603.687	0.0161923
603.765	0.0163110
603.843	0.0160967
603.921	0.0161392
603.999	0.0162170
604.078	0.0162458
604.156	0.0162463
604.234	0.0161758
604.312	0.0161079
604.390	0.0161813
604.468	0.0161914
604.546	0.0162301
604.624	0.0161155
604.703	0.0162412
604.781	0.0162565
604.859	0.0161133
604.937	0.0161977
605.015	0.0161655
605.093	0.0161491
605.171	0.0160897
605.249	0.0160734
605.328	0.0161520
605.406	0.0161154
605.484	0.0162304
605.562	0.0161129
605.640	0.0159942
605.718	0.0162290
605.796	0.0160378
605.874	0.0161111
605.953	0.0160799
606.031	0.0160738
606.109	0.0160794
606.187	0.0160000
606.265	0.0161555
606.343	0.0160632
606.421	0.0161436
606.499	0.0159657
606.578	0.0160741
606.656	0.0161479
606.734	0.0159985
606.812	0.0160300
606.890	0.0160659
606.968	0.0160093
607.046	0.0160984
607.124	0.0160141
607.203	0.0159491
607.281	0.0160555
607.359	0.0160091
607.437	0.0160379
607.515	0.0160095
607.593	0.0160112
607.671	0.0159321
607.749	0.0159720
607.828	0.0161127
607.906	0.0159721
607.984	0.0160416
608.062	0.0159580
608.140	0.0159685
608.218	0.0158637
608.296	0.0161055
608.374	0.0162022
608.453	0.0159946
608.531	0.0160417
608.609	0.0160925
608.687	0.0160949
608.765	0.0160976
608.843	0.0162272
608.921	0.0161068
608.999	0.0159039
609.078	0.0161162
609.156	0.0160312
609.234	0.0160403
609.312	0.0161073
609.390	0.0160393
609.468	0.0162390
609.546	0.0161875
609.624	0.0160036
609.703	0.0159043
609.781	0.0160738
609.859	0.0160303
609.937	0.0160342
610.015	0.0160777
610.093	0.0161205
610.171	0.0160553
610.249	0.0161971
610.328	0.0160786
610.406	0.0160335
610.484	0.0160368
610.562	0.0159478
610.640	0.0158881
610.718	0.0159343
610.796	0.0160537
610.874	0.0160545
610.953	0.0161662
611.031	0.0160305
611.109	0.0160778
611.187	0.0159535
611.265	0.0160832
611.343	0.0161115
611.421	0.0159545
611.499	0.0161485
611.578	0.0160966
611.656	0.0159119
611.734	0.0160461
611.812	0.0160135
611.890	0.0160286
611.968	0.0162717
612.046	0.0160897
612.124	0.0160959
612.203	0.0161356
612.281	0.0160061
612.359	0.0158857
612.437	0.0159393
612.515	0.0160825
612.593	0.0160876
612.671	0.0160374
612.749	0.0159005
612.828	0.0160696
612.906	0.0161036
612.984	0.0161024
613.062	0.0160455
613.140	0.0161151
613.218	0.0160646
613.296	0.0159321
613.374	0.0160934
613.453	0.0159608
613.531	0.0161100
613.609	0.0160998
613.687	0.0160648
613.765	0.0158816
613.843	0.0160406
613.921	0.0161301
613.999	0.0160920
614.078	0.0159689
614.156	0.0161481
614.234	0.0158417
614.312	0.0161178
614.390	0.0163151
614.468	0.0161005
614.546	0.0161552
614.624	0.0161964
614.703	0.0160191
614.781	0.0161389
614.859	0.0159957
614.937	0.0161548
615.015	0.0161307
615.093	0.0160752
615.171	0.0161139
615.249	0.0160630
615.328	0.0162245
615.406	0.0161838
615.484	0.0161671
615.562	0.0160814
615.640	0.0160912
615.718	0.0160714
615.796	0.0160831
615.874	0.0161783
615.953	0.0163256
616.031	0.0161845
616.109	0.0161980
616.187	0.0161665
616.265	0.0161440
616.343	0.0160980
616.421	0.0162376
616.499	0.0162579
616.578	0.0163217
616.656	0.0162351
616.734	0.0162404
616.812	0.0162256
616.890	0.0161159
616.968	0.0160556
617.046	0.0162041
617.124	0.0163051
617.203	0.0162344
617.281	0.0163237
617.359	0.0160793
617.437	0.0160299
617.515	0.0160336
617.593	0.0162234
617.671	0.0162117
617.749	0.0160979
617.828	0.0161234
617.906	0.0161773
617.984	0.0161755
618.062	0.0161053
618.140	0.0161985
618.218	0.0161767
618.296	0.0160809
618.374	0.0161860
618.453	0.0162775
618.531	0.0161321
618.609	0.0160844
618.687	0.0161783
618.765	0.0161745
618.843	0.0160464
618.921	0.0162293
618.999	0.0162431
619.078	0.0162652
619.156	0.0161833
619.234	0.0161558
619.312	0.0163011
619.390	0.0162016
619.468	0.0161196
619.546	0.0161348
619.624	0.0162291
619.703	0.0161048
619.781	0.0160835
619.859	0.0162265
619.937	0.0161032
620.015	0.0161109
620.093	0.0161622
620.171	0.0161790
620.249	0.0162489
620.328	0.0162337
620.406	0.0160579
620.484	0.0160634
620.562	0.0162280
620.640	0.0160896
620.718	0.0161504
620.796	0.0162359
620.874	0.0160507
620.953	0.0161995
621.031	0.0162075
621.109	0.0161359
621.187	0.0161015
621.265	0.0161401
621.343	0.0161159
621.421	0.0162222
621.499	0.0162566
621.578	0.0160757
621.656	0.0161652
621.734	0.0162701
621.812	0.0161006
621.890	0.0161073
621.968	0.0160640
622.046	0.0161775
622.124	0.0161808
622.203	0.0160766
622.281	0.0161243
622.359	0.0161079
622.437	0.0161733
622.515	0.0161528
622.593	0.0160764
622.671	0.0161708
622.749	0.0160656
622.828	0.0162638
622.906	0.0160770
622.984	0.0162433
623.062	0.0161063
623.140	0.0161471
623.218	0.0162758
623.296	0.0162868
623.374	0.0161042
623.453	0.0161460
623.531	0.0162201
623.609	0.0161471
623.687	0.0163137
623.765	0.0162544
623.843	0.0161864
623.921	0.0161586
623.999	0.0162685
624.078	0.0161706
624.156	0.0161380
624.234	0.0162278
624.312	0.0161385
624.390	0.0162351
624.468	0.0161391
624.546	0.0162121
624.624	0.0163519
624.703	0.0162752
624.781	0.0162522
624.859	0.0162211
624.937	0.0161404
625.015	0.0163918
625.093	0.0163110
625.171	0.0160870
625.249	0.0162993
625.328	0.0162830
625.406	0.0161095
625.484	0.0162188
625.562	0.0162454
625.640	0.0161823
625.718	0.0161935
625.796	0.0162453
625.874	0.0161709
625.953	0.0162183
626.031	0.0162321
626.109	0.0162337
626.187	0.0163539
626.265	0.0162327
626.343	0.0162426
626.421	0.0162220
626.499	0.0163268
626.578	0.0162721
626.656	0.0162738
626.734	0.0161657
626.812	0.0161824
626.890	0.0162059
626.968	0.0162141
627.046	0.0161510
627.124	0.0163141
627.203	0.0162408
627.281	0.0162608
627.359	0.0162197
627.437	0.0162373
627.515	0.0162086
627.593	0.0162096
627.671	0.0161209
627.749	0.0162632
627.828	0.0161726
627.906	0.0162326
627.984	0.0162241
628.062	0.0162537
628.140	0.0161140
628.218	0.0161171
628.296	0.0161164
628.374	0.0161996
628.453	0.0161901
628.531	0.0161237
628.609	0.0163432
628.687	0.0161440
628.765	0.0162357
628.843	0.0161299
628.921	0.0162682
628.999	0.0160593
629.078	0.0161470
629.156	0.0160564
629.234	0.0160564
629.312	0.0161616
629.390	0.0161861
629.468	0.0160693
629.546	0.0161447
629.624	0.0160705
629.703	0.0162214
629.781	0.0160463
629.859	0.0160557
629.937	0.0160993
630.015	0.0160890
630.093	0.0161201
630.171	0.0160519
630.249	0.0159884
630.328	0.0160875
630.406	0.0161330
630.484	0.0162173
630.562	0.0161709
630.640	0.0161188
630.718	0.0162029
630.796	0.0159668
630.874	0.0161166
630.953	0.0160785
631.031	0.0161785
631.109	0.0161395
631.187	0.0161081
631.265	0.0161844
631.343	0.0160793
631.421	0.0161954
631.499	0.0161942
631.578	0.0160872
631.656	0.0160209
631.734	0.0161905
631.812	0.0160135
631.890	0.0159936
631.968	0.0162106
632.046	0.0162405
632.124	0.0160726
632.203	0.0160748
632.281	0.0161046
632.359	0.0160473
632.437	0.0160938
632.515	0.0160893
632.593	0.0160595
632.671	0.0161662
632.749	0.0161485
632.828	0.0161558
632.906	0.0160606
632.984	0.0160396
633.062	0.0160458
633.140	0.0160551
633.218	0.0160145
633.296	0.0161949
633.374	0.0161727
633.453	0.0160561
633.531	0.0160992
633.609	0.0160345
633.687	0.0160117
633.765	0.0160749
633.843	0.0161788
633.921	0.0160780
633.999	0.0160740
634.078	0.0160813
634.156	0.0159788
634.234	0.0159464
634.312	0.0159862
634.390	0.0160782
634.468	0.0161027
634.546	0.0161205
634.624	0.0161948
634.703	0.0159168
634.781	0.0159402
634.859	0.0159885
634.937	0.0161519
635.015	0.0161386
635.093	0.0160556
635.171	0.0160552
635.249	0.0161501
635.328	0.0160559
635.406	0.0160201
635.484	0.0161294
635.562	0.0161398
635.640	0.0161193
635.718	0.0160755
635.796	0.0160798
635.874	0.0161723
635.953	0.0161217
636.031	0.0162120
636.109	0.0159415
636.187	0.0160696
636.265	0.0160397
636.343	0.0158658
636.421	0.0159845
636.499	0.0160760
636.578	0.0161172
636.656	0.0161598
636.734	0.0161648
636.812	0.0161584
636.890	0.0160718
636.968	0.0158392
637.046	0.0161066
637.124	0.0161290
637.203	0.0161181
637.281	0.0160711
637.359	0.0161180
637.437	0.0160493
637.515	0.0160224
637.593	0.0161060
637.671	0.0160941
637.749	0.0160929
637.828	0.0161959
637.906	0.0159990
637.984	0.0159783
638.062	0.0161739
638.140	0.0160468
638.218	0.0160576
638.296	0.0160501
638.374	0.0160720
638.453	0.0161689
638.531	0.0160403
638.609	0.0161182
638.687	0.0160058
638.765	0.0161487
638.843	0.0160615
638.921	0.0161947
638.999	0.0160564
639.078	0.0161584
639.156	0.0161908
639.234	0.0161892
639.312	0.0160731
639.390	0.0161252
639.468	0.0161665
639.546	0.0161171
639.624	0.0159676
639.703	0.0161278
639.781	0.0160207
639.859	0.0159767
639.937	0.0161465
640.015	0.0163053
640.093	0.0161607
640.171	0.0160603
640.249	0.0161539
640.328	0.0162309
640.406	0.0161462
640.484	0.0161118
640.562	0.0162045
640.640	0.0161432
640.718	0.0160998
640.796	0.0160890
640.874	0.0161006
640.953	0.0161927
641.031	0.0162444
641.109	0.0163547
641.187	0.0161995
641.265	0.0161343
641.343	0.0161211
641.421	0.0161860
641.499	0.0161620
641.578	0.0162130
641.656	0.0162452
641.734	0.0161721
641.812	0.0161510
641.890	0.0163130
641.968	0.0162248
642.046	0.0163107
642.124	0.0162300
642.203	0.0162264
642.281	0.0162817
642.359	0.0161485
642.437	0.0161504
642.515	0.0162631
642.593	0.0162425
642.671	0.0162109
642.749	0.0162930
642.828	0.0161916
642.906	0.0162610
642.984	0.0161980
643.062	0.0161447
643.140	0.0163326
643.218	0.0163313
643.296	0.0163268
643.374	0.0160764
643.453	0.0163385
643.531	0.0162341
643.609	0.0162237
643.687	0.0162323
643.765	0.0161941
643.843	0.0162331
643.921	0.0160964
643.999	0.0162910
644.078	0.0163266
644.156	0.0161916
644.234	0.0160434
644.312	0.0163408
644.390	0.0163905
644.468	0.0163207
644.546	0.0161588
644.624	0.0161463
644.703	0.0160947
644.781	0.0163405
644.859	0.0162538
644.937	0.0161914
645.015	0.0161105
645.093	0.0163383
645.171	0.0161816
645.249	0.0160291
645.328	0.0162334
645.406	0.0160989
645.484	0.0162434
645.562	0.0161974
645.640	0.0161034
645.718	0.0162447
645.796	0.0161977
645.874	0.0161574
645.953	0.0161524
646.031	0.0161200
646.109	0.0161385
646.187	0.0161028
646.265	0.0161849
646.343	0.0162315
646.421	0.0162469
646.499	0.0162306
646.578	0.0161774
646.656	0.0163453
646.734	0.0163968
646.812	0.0162358
646.890	0.0160433
646.968	0.0163907
647.046	0.0162357
647.124	0.0160509
647.203	0.0161632
647.281	0.0162675
647.359	0.0161537
647.437	0.0161590
647.515	0.0161862
647.593	0.0162553
647.671	0.0162210
647.749	0.0161807
647.828	0.0161777
647.906	0.0162537
647.984	0.0162263
648.062	0.0162202
648.140	0.0162239
648.218	0.0162613
648.296	0.0161919
648.374	0.0161454
648.453	0.0161993
648.531	0.0161715
648.609	0.0161346
648.687	0.0162574
648.765	0.0161792
648.843	0.0162029
648.921	0.0163379
648.999	0.0160699
649.078	0.0162263
649.156	0.0162077
649.234	0.0162085
649.312	0.0161488
649.390	0.0161625
649.468	0.0162000
649.546	0.0161625
649.624	0.0162189
649.703	0.0161115
649.781	0.0161711
649.859	0.0161588
649.937	0.0161681
650.015	0.0161346
650.093	0.0161833
650.171	0.0161776
650.249	0.0162016
650.328	0.0162614
650.406	0.0161760
650.484	0.0159946
650.562	0.0161291
650.640	0.0163380
650.718	0.0162366
650.796	0.0162508
650.874	0.0161221
650.953	0.0163051
651.031	0.0161712
651.109	0.0162923
651.187	0.0162589
651.265	0.0161320
651.343	0.0162142
651.421	0.0162961
651.499	0.0161066
651.578	0.0162311
651.656	0.0161493
651.734	0.0163011
651.812	0.0161494
651.890	0.0162260
651.968	0.0161789
652.046	0.0161604
652.124	0.0161772
652.203	0.0161383
652.281	0.0161288
652.359	0.0162056
652.437	0.0162037
652.515	0.0161801
652.593	0.0160680
652.671	0.0162714
652.749	0.0161382
652.828	0.0161941
652.906	0.0160642
652.984	0.0160248
653.062	0.0163109
653.140	0.0162617
653.218	0.0162105
653.296	0.0160809
653.374	0.0161208
653.453	0.0162003
653.531	0.0160706
653.609	0.0162478
653.687	0.0162243
653.765	0.0160725
653.843	0.0159495
653.921	0.0160207
653.999	0.0162206
654.078	0.0160622
654.156	0.0160820
654.234	0.0160475
654.312	0.0162217
654.390	0.0160749
654.468	0.0161966
654.546	0.0160957
654.624	0.0159244
654.703	0.0161095
654.781	0.0161306
654.859	0.0162804
654.937	0.0160834
655.015	0.0161337
655.093	0.0161226
655.171	0.0160743
655.249	0.0161411
655.328	0.0160638
655.406	0.0159763
655.484	0.0161067
655.562	0.0161226
655.640	0.0159715
655.718	0.0160106
655.796	0.0161333
655.874	0.0161526
655.953	0.0161000
656.031	0.0161967
656.109	0.0161435
656.187	0.0161922
656.265	0.0160553
656.343	0.0160287
656.421	0.0160350
656.499	0.0161819
656.578	0.0160672
656.656	0.0160476
656.734	0.0160930
656.812	0.0160390
656.890	0.0159757
656.968	0.0161715
657.046	0.0159953
657.124	0.0161050
657.203	0.0161806
657.281	0.0160217
657.359	0.0160366
657.437	0.0161173
657.515	0.0161568
657.593	0.0161340
657.671	0.0161055
657.749	0.0161379
657.828	0.0160580
657.906	0.0160272
657.984	0.0160350
658.062	0.0161223
658.140	0.0162083
658.218	0.0159187
658.296	0.0160077
658.374	0.0159213
658.453	0.0160225
658.531	0.0161221
658.609	0.0160400
658.687	0.0159097
658.765	0.0158775
658.843	0.0158797
658.921	0.0159212
658.999	0.0159828
659.078	0.0158753
659.156	0.0159349
659.234	0.0159559
659.312	0.0160547
659.390	0.0159592
659.468	0.0158490
659.546	0.0160777
659.624	0.0160629
659.703	0.0160536
659.781	0.0159430
659.859	0.0160796
659.937	0.0159966
660.015	0.0159640
660.093	0.0160544
660.171	0.0160275
660.249	0.0160016
660.328	0.0159566
660.406	0.0160871
660.484	0.0160999
660.562	0.0160071
660.640	0.0160662
660.718	0.0160103
660.796	0.0160284
660.874	0.0159543
660.953	0.0159660
661.031	0.0159743
661.109	0.0159853
661.187	0.0160374
661.265	0.0158355
661.343	0.0158374
661.421	0.0160619
661.499	0.0158858
661.578	0.0160159
661.656	0.0160912
661.734	0.0160591
661.812	0.0160674
661.890	0.0160764
661.968	0.0161136
662.046	0.0160133
662.124	0.0159207
662.203	0.0160921
662.281	0.0161127
662.359	0.0161043
662.437	0.0160141
662.515	0.0160571
662.593	0.0160823
662.671	0.0160497
662.749	0.0160757
662.828	0.0161195
662.906	0.0160634
662.984	0.0160470
663.062	0.0160757
663.140	0.0160532
663.218	0.0160275
663.296	0.0161276
663.374	0.0160849
663.453	0.0161333
663.531	0.0161471
663.609	0.0159998
663.687	0.0159975
663.765	0.0160933
663.843	0.0160815
663.921	0.0161332
663.999	0.0161888
664.078	0.0159988
664.156	0.0160096
664.234	0.0161204
664.312	0.0160517
664.390	0.0161080
664.468	0.0161472
664.546	0.0161794
664.624	0.0161669
664.703	0.0160441
664.781	0.0160499
664.859	0.0161485
664.937	0.0161089
665.015	0.0161064
665.093	0.0162305
665.171	0.0160581
665.249	0.0161304
665.328	0.0160799
665.406	0.0160040
665.484	0.0160895
665.562	0.0161774
665.640	0.0161907
665.718	0.0161915
665.796	0.0161058
665.874	0.0162039
665.953	0.0161959
666.031	0.0160867
666.109	0.0161916
666.187	0.0160889
666.265	0.0160881
666.343	0.0160925
666.421	0.0160909
666.499	0.0160582
666.578	0.0160459
666.656	0.0161838
666.734	0.0160791
666.812	0.0160166
666.890	0.0163132
666.968	0.0162872
667.046	0.0160821
667.124	0.0162200
667.203	0.0162140
667.281	0.0161361
667.359	0.0161993
667.437	0.0160971
667.515	0.0162988
667.593	0.0162431
667.671	0.0162811
667.749	0.0160910
667.828	0.0161948
667.906	0.0161820
667.984	0.0162682
668.062	0.0161603
668.140	0.0162353
668.218	0.0163098
668.296	0.0162660
668.374	0.0161031
668.453	0.0161549
668.531	0.0162310
668.609	0.0162155
668.687	0.0162177
668.765	0.0161327
668.843	0.0163248
668.921	0.0163235
668.999	0.0162318
669.078	0.0161953
669.156	0.0162081
669.234	0.0161606
669.312	0.0163503
669.390	0.0162384
669.468	0.0162085
669.546	0.0163145
669.624	0.0162958
669.703	0.0162650
669.781	0.0162855
669.859	0.0162662
669.937	0.0161412
670.015	0.0162970
670.093	0.0163072
670.171	0.0163850
670.249	0.0162482
670.328	0.0162392
670.406	0.0162380
670.484	0.0162636
670.562	0.0163023
670.640	0.0163200
670.718	0.0162695
670.796	0.0162352
670.874	0.0162674
670.953	0.0162937
671.031	0.0162126
671.109	0.0162138
671.187	0.0162524
671.265	0.0162537
671.343	0.0162448
671.421	0.0162673
671.499	0.0163254
671.578	0.0161777
671.656	0.0161928
671.734	0.0162093
671.812	0.0161893
671.890	0.0162611
671.968	0.0162816
672.046	0.0162636
672.124	0.0162560
672.203	0.0162559
672.281	0.0162707
672.359	0.0161612
672.437	0.0163074
672.515	0.0162645
672.593	0.0163487
672.671	0.0162946
672.749	0.0163190
672.828	0.0162416
672.906	0.0162367
672.984	0.0161636
673.062	0.0162830
673.140	0.0162685
673.218	0.0161600
673.296	0.0163004
673.374	0.0161492
673.453	0.0162048
673.531	0.0162063
673.609	0.0162987
673.687	0.0162909
673.765	0.0161372
673.843	0.0161258
673.921	0.0162823
673.999	0.0161309
674.078	0.0162314
674.156	0.0161405
674.234	0.0163042
674.312	0.0162803
674.390	0.0161609
674.468	0.0162348
674.546	0.0161710
674.624	0.0162729
674.703	0.0161304
674.781	0.0161052
674.859	0.0161565
674.937	0.0160775
675.015	0.0160863
675.093	0.0161182
675.171	0.0161560
675.249	0.0161874
675.328	0.0162085
675.406	0.0160902
675.484	0.0161986
675.562	0.0161307
675.640	0.0161008
675.718	0.0161189
675.796	0.0160911
675.874	0.0160540
675.953	0.0161393
676.031	0.0161929
676.109	0.0161786
676.187	0.0161045
676.265	0.0162027
676.343	0.0161785
676.421	0.0161552
676.499	0.0163914
676.578	0.0162220
676.656	0.0161340
676.734	0.0161031
676.812	0.0161001
676.890	0.0162314
676.968	0.0161423
677.046	0.0161105
677.124	0.0161456
677.203	0.0160017
677.281	0.0160681
677.359	0.0163024
677.437	0.0161231
677.515	0.0160685
677.593	0.0160474
677.671	0.0161449
677.749	0.0161485
677.828	0.0162931
677.906	0.0160411
677.984	0.0161344
678.062	0.0161975
678.140	0.0161243
678.218	0.0161561
678.296	0.0161093
678.374	0.0162135
678.453	0.0161996
678.531	0.0161514
678.609	0.0162326
678.687	0.0159806
678.765	0.0161031
678.843	0.0160889
678.921	0.0161097
678.999	0.0160976
679.078	0.0160522
679.156	0.0160174
679.234	0.0161096
679.312	0.0161691
679.390	0.0160884
679.468	0.0161131
679.546	0.0161835
679.624	0.0163383
679.703	0.0161221
679.781	0.0161658
679.859	0.0160997
679.937	0.0161546
680.015	0.0160655
680.093	0.0160948
680.171	0.0161481
680.249	0.0161508
680.328	0.0161494
680.406	0.0160381
680.484	0.0161745
680.562	0.0162604
680.640	0.0160796
680.718	0.0161092
680.796	0.0159946
680.874	0.0160704
680.953	0.0161262
681.031	0.0160886
681.109	0.0161159
681.187	0.0161624
681.265	0.0160889
681.343	0.0160880
681.421	0.0161433
681.499	0.0160773
681.578	0.0161436
681.656	0.0160660
681.734	0.0160368
681.812	0.0160194
681.890	0.0161283
681.968	0.0160281
682.046	0.0160433
682.124	0.0161476
682.203	0.0161572
682.281	0.0160450
682.359	0.0160927
682.437	0.0160912
682.515	0.0161439
682.593	0.0160609
682.671	0.0158739
682.749	0.0160388
682.828	0.0162093
682.906	0.0158550
682.984	0.0161057
683.062	0.0160796
683.140	0.0161102
683.218	0.0160411
683.296	0.0161851
683.374	0.0159451
683.453	0.0158279
683.531	0.0159631
683.609	0.0160001
683.687	0.0160562
683.765	0.0160842
683.843	0.0159720
683.921	0.0159812
683.999	0.0159673
684.078	0.0160941
684.156	0.0159939
684.234	0.0160365
684.312	0.0161117
684.390	0.0160444
684.468	0.0161259
684.546	0.0159297
684.624	0.0159362
684.703	0.0160578
684.781	0.0159743
684.859	0.0159818
684.937	0.0160116
685.015	0.0160324
685.093	0.0158656
685.171	0.0160670
685.249	0.0159562
685.328	0.0160679
685.406	0.0159724
685.484	0.0160462
685.562	0.0160429
685.640	0.0160470
685.718	0.0161049
685.796	0.0160326
685.874	0.0160178
685.953	0.0160830
686.031	0.0160036
686.109	0.0160336
686.187	0.0160697
686.265	0.0161499
686.343	0.0160809
686.421	0.0159419
686.499	0.0160295
686.578	0.0160838
686.656	0.0160197
686.734	0.0160085
686.812	0.0160555
686.890	0.0160891
686.968	0.0160090
687.046	0.0160593
687.124	0.0159900
687.203	0.0161734
687.281	0.0159783
687.359	0.0159583
687.437	0.0160925
687.515	0.0160960
687.593	0.0161019
687.671	0.0159319
687.749	0.0159598
687.828	0.0158978
687.906	0.0160419
687.984	0.0159451
688.062	0.0160365
688.140	0.0160232
688.218	0.0160309
688.296	0.0159765
688.374	0.0160963
688.453	0.0159952
688.531	0.0161414
688.609	0.0161653
688.687	0.0159914
688.765	0.0159853
688.843	0.0160356
688.921	0.0161036
688.999	0.0160924
689.078	0.0159634
689.156	0.0160928
689.234	0.0162099
689.312	0.0161736
689.390	0.0159924
689.468	0.0159923
689.546	0.0161195
689.624	0.0161313
689.703	0.0161358
689.781	0.0161449
689.859	0.0161771
689.937	0.0160938
690.015	0.0161009
690.093	0.0161362
690.171	0.0161359
690.249	0.0160957
690.328	0.0161330
690.406	0.0161893
690.484	0.0161671
690.562	0.0161187
690.640	0.0161319
690.718	0.0160996
690.796	0.0161220
690.874	0.0160953
690.953	0.0161779
691.031	0.0162078
691.109	0.0161195
691.187	0.0161595
691.265	0.0160664
691.343	0.0162066
691.421	0.0160916
691.499	0.0161643
691.578	0.0162128
691.656	0.0161428
691.734	0.0161828
691.812	0.0161221
691.890	0.0161486
691.968	0.0162031
692.046	0.0162577
692.124	0.0162276
692.203	0.0161737
692.281	0.0162962
692.359	0.0162061
692.437	0.0161283
692.515	0.0161497
692.593	0.0162303
692.671	0.0162473
692.749	0.0161206
692.828	0.0160674
692.906	0.0161239
692.984	0.0161333
693.062	0.0162064
693.140	0.0161349
693.218	0.0162011
693.296	0.0161095
693.374	0.0162593
693.453	0.0161337
693.531	0.0161150
693.609	0.0161122
693.687	0.0161890
693.765	0.0162064
693.843	0.0160771
693.921	0.0160789
693.999	0.0162369
694.078	0.0161063
694.156	0.0161172
694.234	0.0161652
694.312	0.0162857
694.390	0.0161331
694.468	0.0161681
694.546	0.0162692
694.624	0.0161684
694.703	0.0160841
694.781	0.0160945
694.859	0.0162807
694.937	0.0163245
695.015	0.0161423
695.093	0.0161166
695.171	0.0161980
695.249	0.0162273
695.328	0.0163346
695.406	0.0162999
695.484	0.0161939
695.562	0.0163026
695.640	0.0162093
695.718	0.0163419
695.796	0.0162766
695.874	0.0162509
695.953	0.0161926
696.031	0.0162855
696.109	0.0161962
696.187	0.0162598
696.265	0.0162533
696.343	0.0161870
696.421	0.0161832
696.499	0.0162452
696.578	0.0162125
696.656	0.0162209
696.734	0.0162539
696.812	0.0162491
696.890	0.0161655
696.968	0.0162848
697.046	0.0163994
697.124	0.0163272
697.203	0.0160857
697.281	0.0161888
697.359	0.0163325
697.437	0.0162336
697.515	0.0162351
697.593	0.0162043
697.671	0.0162200
697.749	0.0163272
697.828	0.0162112
697.906	0.0161621
697.984	0.0161786
698.062	0.0163148
698.140	0.0162982
698.218	0.0161617
698.296	0.0162031
698.374	0.0161885
698.453	0.0162777
698.531	0.0163412
698.609	0.0162012
698.687	0.0162339
698.765	0.0161842
698.843	0.0161192
698.921	0.0161584
698.999	0.0161640
699.078	0.0161158
699.156	0.0161292
699.234	0.0161823
699.312	0.0162137
699.390	0.0161554
699.468	0.0160516
699.546	0.0162655
699.624	0.0161279
699.703	0.0161926
699.781	0.0161308
699.859	0.0162220
699.937	0.0161417
700.015	0.0161343
700.093	0.0163326
700.171	0.0162669
700.249	0.0160343
700.328	0.0162191
700.406	0.0161710
700.484	0.0162710
700.562	0.0162018
700.640	0.0161501
700.718	0.0160374
700.796	0.0162171
700.874	0.0162611
700.953	0.0160754
701.031	0.0161235
701.109	0.0161823
701.187	0.0161111
701.265	0.0161396
701.343	0.0161694
701.421	0.0161833
701.499	0.0159354
701.578	0.0161223
701.656	0.0162247
701.734	0.0160664
701.812	0.0160387
701.890	0.0162029
701.968	0.0163052
702.046	0.0162471
702.124	0.0161641
702.203	0.0162592
702.281	0.0162137
702.359	0.0161732
702.437	0.0162064
702.515	0.0162006
702.593	0.0162494
702.671	0.0161868
702.749	0.0162327
702.828	0.0161493
702.906	0.0161768
702.984	0.0161647
703.062	0.0161035
703.140	0.0161507
703.218	0.0161263
703.296	0.0161729
703.374	0.0164185
703.453	0.0163443
703.531	0.0161738
703.609	0.0161247
703.687	0.0160827
703.765	0.0162175
703.843	0.0162781
703.921	0.0162859
703.999	0.0160735
704.078	0.0160780
704.156	0.0163042
704.234	0.0161793
704.312	0.0161523
704.390	0.0162882
704.468	0.0161316
704.546	0.0159785
704.624	0.0159904
704.703	0.0161368
704.781	0.0161756
704.859	0.0162478
704.937	0.0161297
705.015	0.0161145
705.093	0.0161546
705.171	0.0162378
705.249	0.0159496
705.328	0.0161252
705.406	0.0161984
705.484	0.0160652
705.562	0.0160095
705.640	0.0160390
705.718	0.0160721
705.796	0.0161086
705.874	0.0160290
705.953	0.0161515
706.031	0.0160560
706.109	0.0161568
706.187	0.0160577
706.265	0.0161109
706.343	0.0160519
706.421	0.0160350
706.499	0.0159882
706.578	0.0160493
706.656	0.0161064
706.734	0.0159557
706.812	0.0160962
706.890	0.0161147
706.968	0.0160516
707.046	0.0161267
707.124	0.0160719
707.203	0.0160215
707.281	0.0160394
707.359	0.0161005
707.437	0.0160722
707.515	0.0160858
707.593	0.0159434
707.671	0.0160882
707.749	0.0160636
707.828	0.0160086
707.906	0.0159413
707.984	0.0160639
708.062	0.0161472
708.140	0.0160689
708.218	0.0160739
708.296	0.0159852
708.374	0.0159940
708.453	0.0161298
708.531	0.0160693
708.609	0.0160386
708.687	0.0159808
708.765	0.0161110
708.843	0.0160677
708.921	0.0161236
708.999	0.0160261
709.078	0.0160544
709.156	0.0161824
709.234	0.0160741
709.312	0.0159807
709.390	0.0160467
709.468	0.0159244
709.546	0.0160620
709.624	0.0160780
709.703	0.0160690
709.781	0.0161583
709.859	0.0160213
709.937	0.0160342
710.015	0.0160186
710.093	0.0160831
710.171	0.0160498
710.249	0.0161494
710.328	0.0160928
710.406	0.0160429
710.484	0.0160374
710.562	0.0160543
710.640	0.0159587
710.718	0.0160989
710.796	0.0161868
710.874	0.0160325
710.953	0.0160681
711.031	0.0160174
711.109	0.0160934
711.187	0.0159972
711.265	0.0161039
711.343	0.0160305
711.421	0.0160242
711.499	0.0160536
711.578	0.0160778
711.656	0.0161293
711.734	0.0160582
711.812	0.0160403
711.890	0.0162344
711.968	0.0161494
712.046	0.0161567
712.124	0.0161113
712.203	0.0160833
712.281	0.0162107
712.359	0.0161076
712.437	0.0161251
712.515	0.0161371
712.593	0.0162495
712.671	0.0161572
712.749	0.0161958
712.828	0.0162151
712.906	0.0161399
712.984	0.0161234
713.062	0.0160882
713.140	0.0161884
713.218	0.0160613
713.296	0.0162960
713.374	0.0161480
713.453	0.0161478
713.531	0.0162276
713.609	0.0161889
713.687	0.0161822
713.765	0.0162570
713.843	0.0160873
713.921	0.0161662
713.999	0.0160119
714.078	0.0162145
714.156	0.0160905
714.234	0.0162515
714.312	0.0161948
714.390	0.0161668
714.468	0.0161113
714.546	0.0161402
714.624	0.0160761
714.703	0.0160967
714.781	0.0161248
714.859	0.0160706
714.937	0.0163377
715.015	0.0162708
715.093	0.0160997
715.171	0.0162932
715.249	0.0161482
715.328	0.0160620
715.406	0.0162270
715.484	0.0160747
715.562	0.0161273
715.640	0.0162058
715.718	0.0161604
715.796	0.0161655
715.874	0.0162422
715.953	0.0162476
716.031	0.0162014
716.109	0.0161211
716.187	0.0160693
716.265	0.0161951
716.343	0.0162898
716.421	0.0163248
716.499	0.0161524
716.578	0.0160578
716.656	0.0161838
716.734	0.0162720
716.812	0.0161312
716.890	0.0161398
716.968	0.0162823
717.046	0.0161144
717.124	0.0161436
717.203	0.0162917
717.281	0.0162103
717.359	0.0161490
717.437	0.0161243
717.515	0.0162556
717.593	0.0161636
717.671	0.0161063
717.749	0.0161260
717.828	0.0162791
717.906	0.0164068
717.984	0.0162130
718.062	0.0162213
718.140	0.0161818
718.218	0.0162902
718.296	0.0161909
718.374	0.0162722
718.453	0.0161589
718.531	0.0162305
718.609	0.0160642
718.687	0.0162529
718.765	0.0161488
718.843	0.0162777
718.921	0.0161303
718.999	0.0163335
719.078	0.0162987
719.156	0.0161602
719.234	0.0161169
719.312	0.0162529
719.390	0.0162543
719.468	0.0161352
719.546	0.0161389
719.624	0.0163404
719.703	0.0160976
719.781	0.0160961
719.859	0.0162708
719.937	0.0162436
720.015	0.0162423
720.093	0.0162238
720.171	0.0161688
720.249	0.0162421
720.328	0.0161231
720.406	0.0161939
720.484	0.0162350
720.562	0.0160612
720.640	0.0161832
720.718	0.0161955
720.796	0.0161114
720.874	0.0160340
720.953	0.0162072
721.031	0.0163138
721.109	0.0162785
721.187	0.0162782
721.265	0.0161891
721.343	0.0161451
721.421	0.0161971
721.499	0.0161638
721.578	0.0162044
721.656	0.0162857
721.734	0.0162606
721.812	0.0161739
721.890	0.0162388
721.968	0.0163837
722.046	0.0161063
722.124	0.0161302
722.203	0.0163053
722.281	0.0161565
722.359	0.0160450
722.437	0.0161525
722.515	0.0162984
722.593	0.0161938
722.671	0.0162019
722.749	0.0161791
722.828	0.0160800
722.906	0.0160780
722.984	0.0161359
723.062	0.0162618
723.140	0.0162325
723.218	0.0160905
723.296	0.0161572
723.374	0.0161903
723.453	0.0162463
723.531	0.0161806
723.609	0.0160403
723.687	0.0161798
723.765	0.0162706
723.843	0.0162174
723.921	0.0162601
723.999	0.0162152
724.078	0.0161267
724.156	0.0161335
724.234	0.0162453
724.312	0.0163379
724.390	0.0161104
724.468	0.0162208
724.546	0.0162871
724.624	0.0161707
724.703	0.0162164
724.781	0.0161559
724.859	0.0161690
724.937	0.0161295
725.015	0.0161473
725.093	0.0161319
725.171	0.0161724
725.249	0.0162253
725.328	0.0161321
725.406	0.0160082
725.484	0.0160505
725.562	0.0161583
725.640	0.0162174
725.718	0.0163046
725.796	0.0161329
725.874	0.0162576
725.953	0.0162325
726.031	0.0161442
726.109	0.0161298
726.187	0.0161146
726.265	0.0162190
726.343	0.0161396
726.421	0.0162214
726.499	0.0161893
726.578	0.0161496
726.656	0.0162012
726.734	0.0163387
726.812	0.0161848
726.890	0.0160571
726.968	0.0161564
727.046	0.0161319
727.124	0.0162002
727.203	0.0161967
727.281	0.0161478
727.359	0.0163526
727.437	0.0160885
727.515	0.0161082
727.593	0.0162332
727.671	0.0163686
727.749	0.0162077
727.828	0.0161720
727.906	0.0161765
727.984	0.0160986
728.062	0.0162150
728.140	0.0162796
728.218	0.0162731
728.296	0.0161137
728.374	0.0162671
728.453	0.0162270
728.531	0.0161890
728.609	0.0161059
728.687	0.0162488
728.765	0.0163783
728.843	0.0162033
728.921	0.0161366
728.999	0.0161668
729.078	0.0161214
729.156	0.0162704
729.234	0.0162811
729.312	0.0161343
729.390	0.0162306
729.468	0.0162191
729.546	0.0161638
729.624	0.0161068
729.703	0.0162431
729.781	0.0162407
729.859	0.0162166
729.937	0.0162027
730.015	0.0162656
730.093	0.0161877
730.171	0.0160795
730.249	0.0162210
730.328	0.0161007
730.406	0.0161623
730.484	0.0162044
730.562	0.0162033
730.640	0.0162231
730.718	0.0161212
730.796	0.0161940
730.874	0.0162223
730.953	0.0161320
731.031	0.0160789
731.109	0.0160738
731.187	0.0161047
731.265	0.0161035
731.343	0.0162402
731.421	0.0161954
731.499	0.0161451
731.578	0.0160048
731.656	0.0161401
731.734	0.0160509
731.812	0.0161413
731.890	0.0161335
731.968	0.0160474
732.046	0.0162167
732.124	0.0161409
732.203	0.0160658
732.281	0.0159552
732.359	0.0161964
732.437	0.0161325
732.515	0.0159919
732.593	0.0160594
732.671	0.0161348
732.749	0.0160053
732.828	0.0161443
732.906	0.0161050
732.984	0.0159824
733.062	0.0160585
733.140	0.0160122
733.218	0.0160463
733.296	0.0161113
733.374	0.0160390
733.453	0.0160613
733.531	0.0160886
733.609	0.0160728
733.687	0.0160287
733.765	0.0160497
733.843	0.0160311
733.921	0.0162149
733.999	0.0162185
734.078	0.0161528
734.156	0.0161797
734.234	0.0160437
734.312	0.0161296
734.390	0.0161720
734.468	0.0160796
734.546	0.0160726
734.624	0.0161146
734.703	0.0160614
734.781	0.0161053
734.859	0.0160450
734.937	0.0161066
735.015	0.0161385
735.093	0.0161423
735.171	0.0160954
735.249	0.0159784
735.328	0.0161014
735.406	0.0160742
735.484	0.0160342
735.562	0.0161353
735.640	0.0160924
735.718	0.0159525
735.796	0.0161365
735.874	0.0161812
735.953	0.0161768
736.031	0.0161679
736.109	0.0161333
736.187	0.0162581
736.265	0.0162428
736.343	0.0161700
736.421	0.0162034
736.499	0.0161630
736.578	0.0162650
736.656	0.0161880
736.734	0.0161747
736.812	0.0163770
736.890	0.0161221
736.968	0.0162165
737.046	0.0162731
737.124	0.0162890
737.203	0.0161076
737.281	0.0161158
737.359	0.0163536
737.437	0.0162847
737.515	0.0161665
737.593	0.0162586
737.671	0.0161281
737.749	0.0162444
737.828	0.0163099
737.906	0.0162422
737.984	0.0161119
738.062	0.0162623
738.140	0.0161901
738.218	0.0162695
738.296	0.0163218
738.374	0.0162055
738.453	0.0162461
738.531	0.0159760
738.609	0.0163719
738.687	0.0162965
738.765	0.0163465
738.843	0.0161745
738.921	0.0162532
738.999	0.0162616
739.078	0.0161384
739.156	0.0161284
739.234	0.0162671
739.312	0.0162604
739.390	0.0160600
739.468	0.0161824
739.546	0.0162963
739.624	0.0160167
739.703	0.0162382
739.781	0.0162360
739.859	0.0162579
739.937	0.0159877
740.015	0.0162069
740.093	0.0161727
740.171	0.0162425
740.249	0.0161801
740.328	0.0162437
740.406	0.0163002
740.484	0.0161044
740.562	0.0161642
740.640	0.0162858
740.718	0.0161816
740.796	0.0162042
740.874	0.0162948
740.953	0.0162000
741.031	0.0161271
741.109	0.0161589
741.187	0.0161874
741.265	0.0162073
741.343	0.0160963
741.421	0.0162356
741.499	0.0161559
741.578	0.0162042
741.656	0.0160371
741.734	0.0162692
741.812	0.0162936
741.890	0.0161277
741.968	0.0161097
742.046	0.0162016
742.124	0.0162522
742.203	0.0161694
742.281	0.0162200
742.359	0.0161714
742.437	0.0159517
742.515	0.0160881
742.593	0.0162292
742.671	0.0162414
742.749	0.0162655
742.828	0.0162572
742.906	0.0161919
742.984	0.0161172
743.062	0.0162601
743.140	0.0162389
743.218	0.0162270
743.296	0.0163787
743.374	0.0163396
743.453	0.0161685
743.531	0.0162638
743.609	0.0162697
743.687	0.0161045
743.765	0.0161739
743.843	0.0161694
743.921	0.0162452
743.999	0.0162958
744.078	0.0161526
744.156	0.0161529
744.234	0.0161716
744.312	0.0161289
744.390	0.0162602
744.468	0.0161201
744.546	0.0161975
744.624	0.0163437
744.703	0.0163091
744.781	0.0160774
744.859	0.0162143
744.937	0.0162020
745.015	0.0162024
745.093	0.0160922
745.171	0.0161162
745.249	0.0162457
745.328	0.0161951
745.406	0.0162456
745.484	0.0162189
745.562	0.0161056
745.640	0.0162869
745.718	0.0162563
745.796	0.0160897
745.874	0.0160384
745.953	0.0162515
746.031	0.0161008
746.109	0.0161010
746.187	0.0161100
746.265	0.0161080
746.343	0.0162229
746.421	0.0160546
746.499	0.0161602
746.578	0.0162540
746.656	0.0160549
746.734	0.0161625
746.812	0.0161016
746.890	0.0162331
746.968	0.0161008
747.046	0.0161167
747.124	0.0160564
747.203	0.0161709
747.281	0.0161832
747.359	0.0160876
747.437	0.0161742
747.515	0.0160844
747.593	0.0162228
747.671	0.0162039
747.749	0.0162453
747.828	0.0162902
747.906	0.0163005
747.984	0.0163299
748.062	0.0162229
748.140	0.0162440
748.218	0.0161813
748.296	0.0162022
748.374	0.0161741
748.453	0.0162048
748.531	0.0160744
748.609	0.0162794
748.687	0.0161318
748.765	0.0162769
748.843	0.0163139
748.921	0.0161414
748.999	0.0162946
749.078	0.0162494
749.156	0.0162283
749.234	0.0161031
749.312	0.0160910
749.390	0.0162630
749.468	0.0161053
749.546	0.0161308
749.624	0.0160960
749.703	0.0161145
749.781	0.0160741
749.859	0.0161747
749.937	0.0162012
750.015	0.0162517
750.093	0.0161802
750.171	0.0162585
750.249	0.0161273
750.328	0.0161770
750.406	0.0161282
750.484	0.0161963
750.562	0.0161613
750.640	0.0161789
750.718	0.0162156
750.796	0.0162349
750.874	0.0161546
750.953	0.0162053
751.031	0.0162286
751.109	0.0162173
751.187	0.0160256
751.265	0.0161585
751.343	0.0160462
751.421	0.0160050
751.499	0.0160955
751.578	0.0161718
751.656	0.0161003
751.734	0.0161636
751.812	0.0160971
751.890	0.0162016
751.968	0.0161951
752.046	0.0161017
752.124	0.0161600
752.203	0.0160713
752.281	0.0161147
752.359	0.0162268
752.437	0.0161824
752.515	0.0162460
752.593	0.0162319
752.671	0.0162095
752.749	0.0162257
752.828	0.0163370
752.906	0.0163046
752.984	0.0161938
753.062	0.0162131
753.140	0.0161591
753.218	0.0161526
753.296	0.0161032
753.374	0.0161430
753.453	0.0160858
753.531	0.0159878
753.609	0.0160440
753.687	0.0159897
753.765	0.0160564
753.843	0.0160537
753.921	0.0160397
753.999	0.0159426
754.078	0.0160238
754.156	0.0160613
754.234	0.0160786
754.312	0.0160041
754.390	0.0159909
754.468	0.0160198
754.546	0.0160804
754.624	0.0159462
754.703	0.0159990
754.781	0.0162123
754.859	0.0160335
754.937	0.0159855
755.015	0.0161014
755.093	0.0160148
755.171	0.0160262
755.249	0.0160432
755.328	0.0161178
755.406	0.0160461
755.484	0.0159118
755.562	0.0159946
755.640	0.0162778
755.718	0.0161796
755.796	0.0159846
755.874	0.0161066
755.953	0.0161327
756.031	0.0163378
756.109	0.0161866
756.187	0.0160575
756.265	0.0159618
756.343	0.0159434
756.421	0.0158829
756.499	0.0159077
756.578	0.0160849
756.656	0.0161505
756.734	0.0160532
756.812	0.0160139
756.890	0.0159595
756.968	0.0160320
757.046	0.0160762
757.124	0.0160049
757.203	0.0160211
757.281	0.0161057
757.359	0.0161682
757.437	0.0160621
757.515	0.0160188
757.593	0.0161060
757.671	0.0160994
757.749	0.0161299
757.828	0.0159926
757.906	0.0160695
757.984	0.0161346
758.062	0.0161470
758.140	0.0160686
758.218	0.0160145
758.296	0.0158755
758.374	0.0158244
758.453	0.0159992
758.531	0.0160685
758.609	0.0160353
758.687	0.0161062
758.765	0.0161227
758.843	0.0161957
758.921	0.0161308
758.999	0.0162135
759.078	0.0162338
759.156	0.0164263
759.234	0.0163425
759.312	0.0162508
759.390	0.0162523
759.468	0.0162565
759.546	0.0162405
759.624	0.0161932
759.703	0.0160863
759.781	0.0160237
759.859	0.0161957
759.937	0.0160552
760.015	0.0160506
760.093	0.0161060
760.171	0.0162180
760.249	0.0160726
760.328	0.0161346
760.406	0.0160364
760.484	0.0162617
760.562	0.0162428
760.640	0.0160426
760.718	0.0161083
760.796	0.0159980
760.874	0.0160045
760.953	0.0159486
761.031	0.0159378
761.109	0.0158595
761.187	0.0159258
761.265	0.0157876
761.343	0.0160959
761.421	0.0160231
761.499	0.0159815
761.578	0.0159196
761.656	0.0158920
761.734	0.0158532
761.812	0.0158593
761.890	0.0158189
761.968	0.0159051
762.046	0.0158568
762.124	0.0157994
762.203	0.0159897
762.281	0.0159676
762.359	0.0160122
762.437	0.0161958
762.515	0.0159811
762.593	0.0160032
762.671	0.0160690
762.749	0.0162199
762.828	0.0161341
762.906	0.0162632
762.984	0.0162777
763.062	0.0163818
763.140	0.0162112
763.218	0.0163194
763.296	0.0162534
763.374	0.0162781
763.453	0.0163155
763.531	0.0163383
763.609	0.0162168
763.687	0.0163406
763.765	0.0162687
763.843	0.0161152
763.921	0.0162303
763.999	0.0162379
764.078	0.0163172
764.156	0.0162504
764.234	0.0162216
764.312	0.0163557
764.390	0.0163096
764.468	0.0161980
764.546	0.0163842
764.624	0.0162436
764.703	0.0161752
764.781	0.0162047
764.859	0.0161291
764.937	0.0162031
765.015	0.0161211
765.093	0.0159329
765.171	0.0159539
765.249	0.0158922
765.328	0.0160646
765.406	0.0159846
765.484	0.0159051
765.562	0.0158576
765.640	0.0158817
765.718	0.0159593
765.796	0.0159039
765.874	0.0158537
765.953	0.0158532
766.031	0.0158571
766.109	0.0158195
766.187	0.0157934
766.265	0.0158139
766.343	0.0160197
766.421	0.0159144
766.499	0.0158733
766.578	0.0159850
766.656	0.0159413
766.734	0.0157364
766.812	0.0158174
766.890	0.0159350
766.968	0.0160020
767.046	0.0160081
767.124	0.0158672
767.203	0.0160489
767.281	0.0161365
767.359	0.0162043
767.437	0.0162952
767.515	0.0163704
767.593	0.0164194
767.671	0.0164499
767.749	0.0163205
767.828	0.0164875
767.906	0.0164186
767.984	0.0162571
768.062	0.0164024
768.140	0.0165892
768.218	0.0163870
768.296	0.0165165
768.374	0.0163058
768.453	0.0162352
768.531	0.0161809
768.609	0.0162968
768.687	0.0163074
768.765	0.0162984
768.843	0.0161029
768.921	0.0161907
768.999	0.0160953
769.078	0.0161102
769.156	0.0160909
769.234	0.0159824
769.312	0.0159956
769.390	0.0159312
769.468	0.0158822
769.546	0.0158406
769.624	0.0158218
769.703	0.0156772
769.781	0.0156816
769.859	0.0156662
769.937	0.0156098
770.015	0.0158329
770.093	0.0157240
770.171	0.0158602
770.249	0.0157823
770.328	0.0159202
770.406	0.0160564
770.484	0.0159929
770.562	0.0160353
770.640	0.0161232
770.718	0.0161449
770.796	0.0161407
770.874	0.0160294
770.953	0.0162194
771.031	0.0162676
771.109	0.0162415
771.187	0.0162673
771.265	0.0163592
771.343	0.0162213
771.421	0.0161591
771.499	0.0162112
771.578	0.0162375
771.656	0.0163317
771.734	0.0161246
771.812	0.0161076
771.890	0.0161401
771.968	0.0162638
772.046	0.0161791
772.124	0.0161554
772.203	0.0161521
772.281	0.0161633
772.359	0.0162935
772.437	0.0164877
772.515	0.0162392
772.593	0.0161230
772.671	0.0162606
772.749	0.0160128
772.828	0.0160032
772.906	0.0159962
772.984	0.0158739
773.062	0.0159837
773.140	0.0159370
773.218	0.0160431
773.296	0.0160173
773.374	0.0158891
773.453	0.0160525
773.531	0.0160234
773.609	0.0159858
773.687	0.0159117
773.765	0.0161148
773.843	0.0159739
773.921	0.0160194
773.999	0.0160606
774.078	0.0160473
774.156	0.0163007
774.234	0.0161719
774.312	0.0160452
774.390	0.0160527
774.468	0.0161382
774.546	0.0161451
774.624	0.0160055
774.703	0.0160374
774.781	0.0160937
774.859	0.0160267
774.937	0.0160313
775.015	0.0160024
775.093	0.0161443
775.171	0.0159588
775.249	0.0160062
775.328	0.0160513
775.406	0.0160798
775.484	0.0160772
775.562	0.0161157
775.640	0.0162183
775.718	0.0162491
775.796	0.0161508
775.874	0.0162616
775.953	0.0163593
776.031	0.0164383
776.109	0.0165546
776.187	0.0163703
776.265	0.0163676
776.343	0.0164906
776.421	0.0165041
776.499	0.0164910
776.578	0.0164188
776.656	0.0164003
776.734	0.0164462
776.812	0.0164058
776.890	0.0163310
776.968	0.0162897
777.046	0.0161497
777.124	0.0159808
777.203	0.0160933
777.281	0.0161286
777.359	0.0160782
777.437	0.0160724
777.515	0.0158598
777.593	0.0158872
777.671	0.0159526
777.749	0.0156702
777.828	0.0157232
777.906	0.0158316
777.984	0.0157480
778.062	0.0155933
778.140	0.0156331
778.218	0.0155875
778.296	0.0156841
778.374	0.0155787
778.453	0.0156178
778.531	0.0156403
778.609	0.0157746
778.687	0.0158053
778.765	0.0159286
778.843	0.0159541
778.921	0.0160529
778.999	0.0162547
779.078	0.0163721
779.156	0.0163226
779.234	0.0163865
779.312	0.0164305
779.390	0.0162961
779.468	0.0162714
779.546	0.0163676
779.624	0.0163434
779.703	0.0163001
779.781	0.0163103
779.859	0.0162221
779.937	0.0160597
780.015	0.0162192
780.093	0.0162418
780.171	0.0160511
780.249	0.0161140
780.328	0.0161124
780.406	0.0161242
780.484	0.0161077
780.562	0.0160910
780.640	0.0161008
780.718	0.0160387
780.796	0.0161581
780.874	0.0162686
780.953	0.0163400
781.031	0.0162688
781.109	0.0162321
781.187	0.0161990
781.265	0.0162997
781.343	0.0164063
781.421	0.0163249
781.499	0.0164489
781.578	0.0164777
781.656	0.0163764
781.734	0.0162380
781.812	0.0162537
781.890	0.0162740
781.968	0.0164337
782.046	0.0164627
782.124	0.0163347
782.203	0.0161297
782.281	0.0160637
782.359	0.0161856
782.437	0.0159876
782.515	0.0158647
782.593	0.0159268
782.671	0.0158296
782.749	0.0157961
782.828	0.0157044
782.906	0.0155383
782.984	0.0156218
783.062	0.0155972
783.140	0.0155269
783.218	0.0155393
783.296	0.0155240
783.374	0.0155196
783.453	0.0155029
783.531	0.0155058
783.609	0.0155619
783.687	0.0157400
783.765	0.0158979
783.843	0.0159367
783.921	0.0160158
783.999	0.0160593
784.078	0.0162013
784.156	0.0164306
784.234	0.0164937
784.312	0.0164691
784.390	0.0166637
784.468	0.0165659
784.546	0.0166891
784.624	0.0166922
784.703	0.0166869
784.781	0.0167284
784.859	0.0166562
784.937	0.0165664
785.015	0.0165197
785.093	0.0165594
785.171	0.0164908
785.249	0.0164629
785.328	0.0162932
785.406	0.0163124
785.484	0.0161520
785.562	0.0163069
785.640	0.0161201
785.718	0.0160065
785.796	0.0160648
785.874	0.0160813
785.953	0.0160874
786.031	0.0157683
786.109	0.0157790
786.187	0.0156477
786.265	0.0156889
786.343	0.0156623
786.421	0.0155702
786.499	0.0156050
786.578	0.0157322
786.656	0.0156689
786.734	0.0156133
786.812	0.0157114
786.890	0.0159752
786.968	0.0159124
787.046	0.0159389
787.124	0.0160495
787.203	0.0161276
787.281	0.0161196
787.359	0.0162049
787.437	0.0162984
787.515	0.0161609
787.593	0.0163120
787.671	0.0162790
787.749	0.0162059
787.828	0.0162154
787.906	0.0161594
787.984	0.0162471
788.062	0.0161739
788.140	0.0161270
788.218	0.0160956
788.296	0.0161140
788.374	0.0160851
788.453	0.0161785
788.531	0.0162119
788.609	0.0161269
788.687	0.0162656
788.765	0.0162358
788.843	0.0162064
788.921	0.0163036
788.999	0.0162867
789.078	0.0162307
789.156	0.0162385
789.234	0.0163787
789.312	0.0162715
789.390	0.0163132
789.468	0.0161962
789.546	0.0160441
789.624	0.0160574
789.703	0.0159949
789.781	0.0160315
789.859	0.0162061
789.937	0.0161352
790.015	0.0160308
790.093	0.0158431
790.171	0.0158447
790.249	0.0158156
790.328	0.0159051
790.406	0.0157926
790.484	0.0158296
790.562	0.0158006
790.640	0.0157764
790.718	0.0157964
790.796	0.0158183
790.874	0.0155446
790.953	0.0156474
791.031	0.0157085
791.109	0.0156698
791.187	0.0157609
791.265	0.0155756
791.343	0.0156580
791.421	0.0157818
791.499	0.0157520
791.578	0.0159562
791.656	0.0158951
791.734	0.0159692
791.812	0.0161163
791.890	0.0161585
791.968	0.0161864
792.046	0.0163777
792.124	0.0164816
792.203	0.0164651
792.281	0.0163880
792.359	0.0165708
792.437	0.0167477
792.515	0.0166182
792.593	0.0166666
792.671	0.0167418
792.749	0.0166383
792.828	0.0166640
792.906	0.0165547
792.984	0.0167501
793.062	0.0165089
793.140	0.0164986
793.218	0.0164667
793.296	0.0163726
793.374	0.0164061
793.453	0.0163920
793.531	0.0162183
793.609	0.0162482
793.687	0.0160392
793.765	0.0161063
793.843	0.0159267
793.921	0.0158715
793.999	0.0158878
794.078	0.0159806
794.156	0.0158849
794.234	0.0157758
794.312	0.0157074
794.390	0.0156719
794.468	0.0156822
794.546	0.0155668
794.624	0.0156434
794.703	0.0156243
794.781	0.0156120
794.859	0.0156645
794.937	0.0157271
795.015	0.0157776
795.093	0.0158416
795.171	0.0158866
795.249	0.0159122
795.328	0.0159438
795.406	0.0159274
795.484	0.0161275
795.562	0.0161538
795.640	0.0162983
795.718	0.0163184
795.796	0.0163999
795.874	0.0162899
795.953	0.0164687
796.031	0.0164751
796.109	0.0165557
796.187	0.0164856
796.265	0.0166852
796.343	0.0167191
796.421	0.0167336
796.499	0.0168262
796.578	0.0168496
796.656	0.0169154
796.734	0.0169146
796.812	0.0167240
796.890	0.0167476
796.968	0.0167509
797.046	0.0168227
797.124	0.0167276
797.203	0.0166264
797.281	0.0165224
797.359	0.0164321
797.437	0.0163508
797.515	0.0161980
797.593	0.0161325
797.671	0.0158307
797.749	0.0157810
797.828	0.0157816
797.906	0.0158756
797.984	0.0157593
798.062	0.0158405
798.140	0.0157240
798.218	0.0157413
798.296	0.0156840
798.374	0.0158010
798.453	0.0157320
798.531	0.0156799
798.609	0.0157990
798.687	0.0158437
798.765	0.0159726
798.843	0.0159013
798.921	0.0159038
798.999	0.0160152
799.078	0.0162261
799.156	0.0162832
799.234	0.0162823
799.312	0.0163892
799.390	0.0164055
799.468	0.0165112
799.546	0.0165480
799.624	0.0167213
799.703	0.0166161
799.781	0.0165189
799.859	0.0166447
799.937	0.0164862
800.015	0.0165221
800.093	0.0164677
800.171	0.0163917
800.249	0.0163928
800.328	0.0162933
800.406	0.0164336
800.484	0.0162391
800.562	0.0161931
800.640	0.0162257
800.718	0.0162546
800.796	0.0163184
800.874	0.0162656
800.953	0.0161808
801.031	0.0160758
801.109	0.0163408
801.187	0.0162675
801.265	0.0162646
801.343	0.0161595
801.421	0.0162260
801.499	0.0160448
801.578	0.0160282
801.656	0.0161095
801.734	0.0160168
801.812	0.0160612
801.890	0.0160755
801.968	0.0158920
802.046	0.0158580
802.124	0.0157455
802.203	0.0159117
802.281	0.0158809
802.359	0.0158109
802.437	0.0159245
802.515	0.0158506
802.593	0.0158104
802.671	0.0158660
802.749	0.0159257
802.828	0.0159396
802.906	0.0160777
802.984	0.0161184
803.062	0.0160609
803.140	0.0161550
803.218	0.0158869
803.296	0.0161066
803.374	0.0162151
803.453	0.0162363
803.531	0.0162022
803.609	0.0161922
803.687	0.0164112
803.765	0.0163950
803.843	0.0164069
803.921	0.0166605
803.999	0.0166945
804.078	0.0166338
804.156	0.0166704
804.234	0.0167887
804.312	0.0167622
804.390	0.0167870
804.468	0.0168567
804.546	0.0167816
804.624	0.0166438
804.703	0.0166763
804.781	0.0165255
804.859	0.0164945
804.937	0.0164428
805.015	0.0164728
805.093	0.0162570
805.171	0.0162565
805.249	0.0161348
805.328	0.0160530
805.406	0.0158754
805.484	0.0156233
805.562	0.0157783
805.640	0.0156121
805.718	0.0156749
805.796	0.0156978
805.874	0.0155280
805.953	0.0156277
806.031	0.0157142
806.109	0.0157357
806.187	0.0157820
806.265	0.0158107
806.343	0.0159869
806.421	0.0159507
806.499	0.0160826
806.578	0.0159805
806.656	0.0160947
806.734	0.0161639
806.812	0.0162386
806.890	0.0162602
806.968	0.0164092
807.046	0.0164465
807.124	0.0163789
807.203	0.0164505
807.281	0.0165840
807.359	0.0165530
807.437	0.0167210
807.515	0.0166340
807.593	0.0165669
807.671	0.0166729
807.749	0.0166473
807.828	0.0166052
807.906	0.0165983
807.984	0.0165241
808.062	0.0164313
808.140	0.0163641
808.218	0.0162915
808.296	0.0163028
808.374	0.0162158
808.453	0.0162137
808.531	0.0161860
808.609	0.0160970
808.687	0.0161388
808.765	0.0160277
808.843	0.0161652
808.921	0.0162630
808.999	0.0161555
809.078	0.0161638
809.156	0.0162495
809.234	0.0162636
809.312	0.0162815
809.390	0.0162069
809.468	0.0161924
809.546	0.0162027
809.624	0.0160995
809.703	0.0162514
809.781	0.0160381
809.859	0.0159281
809.937	0.0160551
810.015	0.0160022
810.093	0.0158473
810.171	0.0158507
810.249	0.0159625
810.328	0.0158416
810.406	0.0159232
810.484	0.0159472
810.562	0.0159570
810.640	0.0161421
810.718	0.0159602
810.796	0.0158898
810.874	0.0162025
810.953	0.0163027
811.031	0.0161446
811.109	0.0162501
811.187	0.0164986
811.265	0.0164306
811.343	0.0163898
811.421	0.0163899
811.499	0.0161754
811.578	0.0162897
811.656	0.0162530
811.734	0.0162282
811.812	0.0162647
811.890	0.0163926
811.968	0.0162426
812.046	0.0161845
812.124	0.0161945
812.203	0.0161801
812.281	0.0161974
812.359	0.0160809
812.437	0.0161171
812.515	0.0160686
812.593	0.0161206
812.671	0.0160246
812.749	0.0159460
812.828	0.0159410
812.906	0.0160406
812.984	0.0159808
813.062	0.0157590
813.140	0.0158262
813.218	0.0158749
813.296	0.0158669
813.374	0.0157362
813.453	0.0157746
813.531	0.0156793
813.609	0.0157748
813.687	0.0158008
813.765	0.0156806
813.843	0.0158009
813.921	0.0158363
813.999	0.0157554
814.078	0.0157644
814.156	0.0158454
814.234	0.0159734
814.312	0.0160607
814.390	0.0159944
814.468	0.0160486
814.546	0.0160052
814.624	0.0161025
814.703	0.0162055
814.781	0.0164212
814.859	0.0164764
814.937	0.0164795
815.015	0.0164435
815.093	0.0164971
815.171	0.0164851
815.249	0.0165122
815.328	0.0163397
815.406	0.0164462
815.484	0.0165166
815.562	0.0165875
815.640	0.0163116
815.718	0.0163297
815.796	0.0165005
815.874	0.0162494
815.953	0.0164318
816.031	0.0163630
816.109	0.0163648
816.187	0.0164327
816.265	0.0163084
816.343	0.0160524
816.421	0.0160099
816.499	0.0160857
816.578	0.0162701
816.656	0.0160625
816.734	0.0160514
816.812	0.0159704
816.890	0.0159226
816.968	0.0160210
817.046	0.0160287
817.124	0.0157862
817.203	0.0157664
817.281	0.0157819
817.359	0.0158655
817.437	0.0157478
817.515	0.0157148
817.593	0.0157314
817.671	0.0159386
817.749	0.0158527
817.828	0.0160297
817.906	0.0160671
817.984	0.0160293
818.062	0.0161342
818.140	0.0161581
818.218	0.0160749
818.296	0.0162226
818.374	0.0163010
818.453	0.0161579
818.531	0.0162812
818.609	0.0162984
818.687	0.0162074
818.765	0.0162920
818.843	0.0162816
818.921	0.0161553
818.999	0.0163645
819.078	0.0165294
819.156	0.0164899
819.234	0.0164094
819.312	0.0164314
819.390	0.0163688
819.468	0.0163383
819.546	0.0163574
819.624	0.0163767
819.703	0.0164013
819.781	0.0163243
819.859	0.0162931
819.937	0.0162592
820.015	0.0161651
820.093	0.0159492
820.171	0.0161296
820.249	0.0160368
820.328	0.0158935
820.406	0.0159559
820.484	0.0159442
820.562	0.0158977
820.640	0.0160293
820.718	0.0160816
820.796	0.0162121
820.874	0.0163486
820.953	0.0162514
821.031	0.0163020
821.109	0.0164494
821.187	0.0164787
821.265	0.0164099
821.343	0.0165674
821.421	0.0166705
821.499	0.0165539
821.578	0.0165372
821.656	0.0163947
821.734	0.0164322
821.812	0.0165769
821.890	0.0163152
821.968	0.0163234
822.046	0.0164340
822.124	0.0162671
822.203	0.0162904
822.281	0.0161511
822.359	0.0161097
822.437	0.0160662
822.515	0.0159725
822.593	0.0161272
822.671	0.0159127
822.749	0.0158808
822.828	0.0159000
822.906	0.0158145
822.984	0.0158577
823.062	0.0158667
823.140	0.0158859
823.218	0.0159137
823.296	0.0159097
823.374	0.0160521
823.453	0.0159946
823.531	0.0159423
823.609	0.0160922
823.687	0.0160853
823.765	0.0162246
823.843	0.0161524
823.921	0.0162086
823.999	0.0161724
824.078	0.0162309
824.156	0.0162275
824.234	0.0163435
824.312	0.0162552
824.390	0.0163954
824.468	0.0164152
824.546	0.0164413
824.624	0.0164914
824.703	0.0164730
824.781	0.0162455
824.859	0.0165070
824.937	0.0165285
825.015	0.0165237
825.093	0.0164798
825.171	0.0163479
825.249	0.0164860
825.328	0.0165132
825.406	0.0163110
825.484	0.0162685
825.562	0.0164229
825.640	0.0163770
825.718	0.0163836
825.796	0.0164263
825.874	0.0164224
825.953	0.0163677
826.031	0.0163439
826.109	0.0163419
826.187	0.0164092
826.265	0.0164703
826.343	0.0163454
826.421	0.0162284
826.499	0.0162839
826.578	0.0162879
826.656	0.0162437
826.734	0.0160680
826.812	0.0161443
826.890	0.0160390
826.968	0.0159379
827.046	0.0159194
827.124	0.0158536
827.203	0.0157767
827.281	0.0156090
827.359	0.0157212
827.437	0.0157577
827.515	0.0158122
827.593	0.0158175
827.671	0.0159476
827.749	0.0158780
827.828	0.0158702
827.906	0.0160338
827.984	0.0161970
828.062	0.0160671
828.140	0.0161115
828.218	0.0162105
828.296	0.0163036
828.374	0.0162698
828.453	0.0161239
828.531	0.0163678
828.609	0.0161548
828.687	0.0161398
828.765	0.0162045
828.843	0.0161623
828.921	0.0161334
828.999	0.0162505
829.078	0.0161810
829.156	0.0159342
829.234	0.0159492
829.312	0.0159863
829.390	0.0159533
829.468	0.0159843
829.546	0.0160049
829.624	0.0161264
829.703	0.0161331
829.781	0.0161284
829.859	0.0161336
829.937	0.0163224
830.015	0.0163135
830.093	0.0163014
830.171	0.0164552
830.249	0.0162261
830.328	0.0163829
830.406	0.0164206
830.484	0.0164419
830.562	0.0163255
830.640	0.0163399
830.718	0.0163868
830.796	0.0163935
830.874	0.0163792
830.953	0.0164783
831.031	0.0163243
831.109	0.0163448
831.187	0.0163771
831.265	0.0163327
831.343	0.0163264
831.421	0.0164074
831.499	0.0164224
831.578	0.0162954
831.656	0.0162246
831.734	0.0162444
831.812	0.0162016
831.890	0.0162525
831.968	0.0161613
832.046	0.0160539
832.124	0.0158625
832.203	0.0159291
832.281	0.0159296
832.359	0.0158921
832.437	0.0157185
832.515	0.0159032
832.593	0.0157385
832.671	0.0157983
832.749	0.0157046
832.828	0.0158530
832.906	0.0156598
832.984	0.0157061
833.062	0.0157774
833.140	0.0156918
833.218	0.0159375
833.296	0.0157697
833.374	0.0159607
833.453	0.0160710
833.531	0.0161401
833.609	0.0160226
833.687	0.0160180
833.765	0.0162013
833.843	0.0160105
833.921	0.0161021
833.999	0.0161470
834.078	0.0162506
834.156	0.0163350
834.234	0.0163885
834.312	0.0163021
834.390	0.0163736
834.468	0.0163603
834.546	0.0163756
834.624	0.0164124
834.703	0.0163956
834.781	0.0163621
834.859	0.0163844
834.937	0.0164017
835.015	0.0161253
835.093	0.0161469
835.171	0.0160951
835.249	0.0160387
835.328	0.0159097
835.406	0.0160055
835.484	0.0159145
835.562	0.0158489
835.640	0.0158958
835.718	0.0157973
835.796	0.0157979
835.874	0.0158398
835.953	0.0157491
836.031	0.0157508
836.109	0.0158748
836.187	0.0157859
836.265	0.0158142
836.343	0.0157598
836.421	0.0158659
836.499	0.0160039
836.578	0.0159430
836.656	0.0159573
836.734	0.0160497
836.812	0.0161535
836.890	0.0160945
836.968	0.0160309
837.046	0.0161678
837.124	0.0161193
837.203	0.0163544
837.281	0.0162145
837.359	0.0162143
837.437	0.0161459
837.515	0.0163452
837.593	0.0163838
837.671	0.0162892
837.749	0.0163586
837.828	0.0163570
837.906	0.0162705
837.984	0.0162724
838.062	0.0162418
838.140	0.0163736
838.218	0.0164291
838.296	0.0163034
838.374	0.0162748
838.453	0.0162098
838.531	0.0163743
838.609	0.0160857
838.687	0.0161938
838.765	0.0162357
838.843	0.0160658
838.921	0.0160703
838.999	0.0159391
839.078	0.0159494
839.156	0.0156729
839.234	0.0159372
839.312	0.0157196
839.390	0.0156046
839.468	0.0155700
839.546	0.0155851
839.624	0.0154980
839.703	0.0154547
839.781	0.0153987
839.859	0.0155340
839.937	0.0156823
840.015	0.0156375
840.093	0.0157065
840.171	0.0157198
840.249	0.0157196
840.328	0.0158646
840.406	0.0159502
840.484	0.0159338
840.562	0.0159102
840.640	0.0161550
840.718	0.0160583
840.796	0.0161250
840.874	0.0162672
840.953	0.0162968
841.031	0.0164533
841.109	0.0163709
841.187	0.0163641
841.265	0.0164748
841.343	0.0166560
841.421	0.0166134
841.499	0.0165658
841.578	0.0165915
841.656	0.0165192
841.734	0.0166157
841.812	0.0167413
841.890	0.0166100
841.968	0.0166531
842.046	0.0165977
842.124	0.0164334
842.203	0.0165601
842.281	0.0164598
842.359	0.0163979
842.437	0.0162757
842.515	0.0162920
842.593	0.0160733
842.671	0.0161416
842.749	0.0158873
842.828	0.0160595
842.906	0.0160100
842.984	0.0158429
843.062	0.0157221
843.140	0.0157635
843.218	0.0156468
843.296	0.0156964
843.374	0.0156953
843.453	0.0156033
843.531	0.0155563
843.609	0.0156020
843.687	0.0156446
843.765	0.0156264
843.843	0.0156878
843.921	0.0157404
843.999	0.0156719
844.078	0.0157024
844.156	0.0158141
844.234	0.0157577
844.312	0.0158335
844.390	0.0157608
844.468	0.0158939
844.546	0.0158756
844.624	0.0159893
844.703	0.0159104
844.781	0.0160535
844.859	0.0162327
844.937	0.0161153
845.015	0.0163181
845.093	0.0162965
845.171	0.0162424
845.249	0.0162225
845.328	0.0162090
845.406	0.0163973
845.484	0.0164682
845.562	0.0163419
845.640	0.0164240
845.718	0.0163498
845.796	0.0164774
845.874	0.0163776
845.953	0.0164304
846.031	0.0163468
846.109	0.0162502
846.187	0.0163500
846.265	0.0164101
846.343	0.0162309
846.421	0.0163083
846.499	0.0162827
846.578	0.0162718
846.656	0.0162304
846.734	0.0161423
846.812	0.0161452
846.890	0.0163400
846.968	0.0162385
847.046	0.0162074
847.124	0.0162158
847.203	0.0161884
847.281	0.0161542
847.359	0.0161115
847.437	0.0162577
847.515	0.0162691
847.593	0.0159813
847.671	0.0160761
847.749	0.0161344
847.828	0.0160060
847.906	0.0158929
847.984	0.0160436
848.062	0.0159776
848.140	0.0158562
848.218	0.0159173
848.296	0.0158095
848.374	0.0157669
848.453	0.0157223
848.531	0.0157606
848.609	0.0157832
848.687	0.0157757
848.765	0.0157390
848.843	0.0158605
848.921	0.0157627
848.999	0.0158813
849.078	0.0158262
849.156	0.0159123
849.234	0.0160302
849.312	0.0159676
849.390	0.0160892
849.468	0.0160648
849.546	0.0161428
849.624	0.0161189
849.703	0.0161727
849.781	0.0163132
849.859	0.0163808
849.937	0.0163976
850.015	0.0164967
850.093	0.0164845
850.171	0.0164938
850.249	0.0164343
850.328	0.0164319
850.406	0.0163916
850.484	0.0163338
850.562	0.0163379
850.640	0.0164280
850.718	0.0163590
850.796	0.0162207
850.874	0.0161797
850.953	0.0162348
851.031	0.0161840
851.109	0.0160780
851.187	0.0160875
851.265	0.0160326
851.343	0.0158600
851.421	0.0157961
851.499	0.0159965
851.578	0.0158856
851.656	0.0158733
851.734	0.0157819
851.812	0.0159114
851.890	0.0158453
851.968	0.0157452
852.046	0.0158575
852.124	0.0158022
852.203	0.0157314
852.281	0.0156538
852.359	0.0158219
852.437	0.0158677
852.515	0.0159396
852.593	0.0158755
852.671	0.0159091
852.749	0.0159278
852.828	0.0159868
852.906	0.0160610
852.984	0.0160420
853.062	0.0160674
853.140	0.0161105
853.218	0.0160838
853.296	0.0161411
853.374	0.0162097
853.453	0.0161591
853.531	0.0162404
853.609	0.0162582
853.687	0.0162640
853.765	0.0163931
853.843	0.0163458
853.921	0.0164244
853.999	0.0162769
854.078	0.0163047
854.156	0.0162874
854.234	0.0161595
854.312	0.0161354
854.390	0.0163018
854.468	0.0162460
854.546	0.0161340
854.624	0.0161022
854.703	0.0159203
854.781	0.0159482
854.859	0.0158820
854.937	0.0159928
855.015	0.0159295
855.093	0.0159585
855.171	0.0158435
855.249	0.0158102
855.328	0.0158625
855.406	0.0158028
855.484	0.0158674
855.562	0.0159732
855.640	0.0158201
855.718	0.0158675
855.796	0.0159196
855.874	0.0158433
855.953	0.0159247
856.031	0.0158957
856.109	0.0161069
856.187	0.0161336
856.265	0.0161581
856.343	0.0160921
856.421	0.0159727
856.499	0.0161661
856.578	0.0161275
856.656	0.0161131
856.734	0.0162201
856.812	0.0163729
856.890	0.0161660
856.968	0.0162690
857.046	0.0162454
857.124	0.0163436
857.203	0.0163963
857.281	0.0163546
857.359	0.0163193
857.437	0.0162396
857.515	0.0163245
857.593	0.0163421
857.671	0.0162424
857.749	0.0161583
857.828	0.0160538
857.906	0.0162630
857.984	0.0162623
858.062	0.0162141
858.140	0.0161870
858.218	0.0161131
858.296	0.0161531
858.374	0.0161287
858.453	0.0160544
858.531	0.0161346
858.609	0.0160786
858.687	0.0162035
858.765	0.0161607
858.843	0.0161370
858.921	0.0161710
858.999	0.0160345
859.078	0.0161382
859.156	0.0161424
859.234	0.0159958
859.312	0.0160804
859.390	0.0161366
859.468	0.0159035
859.546	0.0160236
859.624	0.0160498
859.703	0.0159422
859.781	0.0160539
859.859	0.0161079
859.937	0.0159910
860.015	0.0160223
860.093	0.0159921
860.171	0.0160008
860.249	0.0160558
860.328	0.0161167
860.406	0.0161645
860.484	0.0162364
860.562	0.0162159
860.640	0.0162246
860.718	0.0162431
860.796	0.0161845
860.874	0.0161160
860.953	0.0163348
861.031	0.0162478
861.109	0.0162176
861.187	0.0162653
861.265	0.0160577
861.343	0.0161425
861.421	0.0162903
861.499	0.0163173
861.578	0.0162376
861.656	0.0161239
861.734	0.0162814
861.812	0.0162411
861.890	0.0162506
861.968	0.0162287
862.046	0.0162711
862.124	0.0162743
862.203	0.0161554
862.281	0.0161159
862.359	0.0161057
862.437	0.0160789
862.515	0.0160680
862.593	0.0160437
862.671	0.0159487
862.749	0.0158904
862.828	0.0159781
862.906	0.0158444
862.984	0.0158860
863.062	0.0157814
863.140	0.0157838
863.218	0.0157507
863.296	0.0157802
863.374	0.0158807
863.453	0.0159835
863.531	0.0159136
863.609	0.0159557
863.687	0.0160193
863.765	0.0161116
863.843	0.0161031
863.921	0.0160829
863.999	0.0162231
864.078	0.0162005
864.156	0.0162120
864.234	0.0163013
864.312	0.0164107
864.390	0.0162032
864.468	0.0160814
864.546	0.0162299
864.624	0.0163311
864.703	0.0161798
864.781	0.0161708
864.859	0.0161060
864.937	0.0160902
865.015	0.0161266
865.093	0.0160573
865.171	0.0160403
865.249	0.0161709
865.328	0.0161355
865.406	0.0160780
865.484	0.0160900
865.562	0.0160461
865.640	0.0161143
865.718	0.0162442
865.796	0.0161494
865.874	0.0159870
865.953	0.0161153
866.031	0.0161232
866.109	0.0160028
866.187	0.0160449
866.265	0.0160275
866.343	0.0160995
866.421	0.0161325
866.499	0.0160310
866.578	0.0161160
866.656	0.0161313
866.734	0.0160606
866.812	0.0160336
866.890	0.0161785
866.968	0.0162720
867.046	0.0162160
867.124	0.0160725
867.203	0.0161958
867.281	0.0160084
867.359	0.0161929
867.437	0.0161188
867.515	0.0159878
867.593	0.0161261
867.671	0.0162292
867.749	0.0161152
867.828	0.0161013
867.906	0.0160706
867.984	0.0160700
868.062	0.0158639
868.140	0.0160739
868.218	0.0161030
868.296	0.0159642
868.374	0.0160636
868.453	0.0161221
868.531	0.0160838
868.609	0.0161272
868.687	0.0160592
868.765	0.0161107
868.843	0.0160172
868.921	0.0161642
868.999	0.0162265
869.078	0.0163506
869.156	0.0162305
869.234	0.0160978
869.312	0.0162326
869.390	0.0163152
869.468	0.0162660
869.546	0.0162460
869.624	0.0161900
869.703	0.0162119
869.781	0.0162180
869.859	0.0162087
869.937	0.0162246
870.015	0.0161047
870.093	0.0162486
870.171	0.0161800
870.249	0.0161317
870.328	0.0162059
870.406	0.0162403
870.484	0.0162675
870.562	0.0162228
870.640	0.0160773
870.718	0.0160924
870.796	0.0162310
870.874	0.0162667
870.953	0.0162297
871.031	0.0161409
871.109	0.0161980
871.187	0.0160903
871.265	0.0160977
871.343	0.0161330
871.421	0.0161790
871.499	0.0159505
871.578	0.0160252
871.656	0.0160091
871.734	0.0159969
871.812	0.0162144
871.890	0.0162424
871.968	0.0161211
872.046	0.0160712
872.124	0.0161269
872.203	0.0161260
872.281	0.0162254
872.359	0.0163217
872.437	0.0161525
872.515	0.0163204
872.593	0.0163001
872.671	0.0162289
872.749	0.0161530
872.828	0.0162963
872.906	0.0163517
872.984	0.0162803
873.062	0.0161909
873.140	0.0162746
873.218	0.0161915
873.296	0.0162117
873.374	0.0162036
873.453	0.0162552
873.531	0.0163681
873.609	0.0162699
873.687	0.0162788
873.765	0.0161890
873.843	0.0162011
873.921	0.0162334
873.999	0.0161926
874.078	0.0162157
874.156	0.0160677
874.234	0.0161537
874.312	0.0160542
874.390	0.0161704
874.468	0.0160399
874.546	0.0160198
874.624	0.0159589
874.703	0.0160647
874.781	0.0160030
874.859	0.0160506
874.937	0.0161148
875.015	0.0160177
875.093	0.0159868
875.171	0.0159911
875.249	0.0159854
875.328	0.0160555
875.406	0.0161628
875.484	0.0161185
875.562	0.0161982
875.640	0.0162643
875.718	0.0162193
875.796	0.0162640
875.874	0.0162333
875.953	0.0163242
876.031	0.0161967
876.109	0.0162794
876.187	0.0163851
876.265	0.0161377
876.343	0.0159865
876.421	0.0161965
876.499	0.0160275
876.578	0.0160591
876.656	0.0161006
876.734	0.0162902
876.812	0.0161057
876.890	0.0159798
876.968	0.0161064
877.046	0.0161993
877.124	0.0161860
877.203	0.0160952
877.281	0.0161643
877.359	0.0161729
877.437	0.0163113
877.515	0.0163347
877.593	0.0162192
877.671	0.0162824
877.749	0.0161382
877.828	0.0161551
877.906	0.0161539
877.984	0.0161897
878.062	0.0163077
878.140	0.0162019
878.218	0.0161816
878.296	0.0162314
878.374	0.0162159
878.453	0.0161053
878.531	0.0161764
878.609	0.0160664
878.687	0.0161625
878.765	0.0161128
878.843	0.0161281
878.921	0.0160207
878.999	0.0161703
879.078	0.0161575
879.156	0.0160165
879.234	0.0161789
879.312	0.0160530
879.390	0.0161985
879.468	0.0160509
879.546	0.0161212
879.624	0.0160158
879.703	0.0159286
879.781	0.0161067
879.859	0.0160294
879.937	0.0160029
880.015	0.0160928
880.093	0.0160934
880.171	0.0162331
880.249	0.0160401
880.328	0.0159971
880.406	0.0161827
880.484	0.0162667
880.562	0.0162116
880.640	0.0163058
880.718	0.0161906
880.796	0.0162833
880.874	0.0162354
880.953	0.0161906
881.031	0.0162682
881.109	0.0162786
881.187	0.0163853
881.265	0.0161538
881.343	0.0163549
881.421	0.0162144
881.499	0.0162203
881.578	0.0161996
881.656	0.0161613
881.734	0.0162451
881.812	0.0161843
881.890	0.0162043
881.968	0.0163289
882.046	0.0160548
882.124	0.0161208
882.203	0.0163084
882.281	0.0161434
882.359	0.0162788
882.437	0.0162877
882.515	0.0162194
882.593	0.0161654
882.671	0.0162097
882.749	0.0161753
882.828	0.0162798
882.906	0.0162243
882.984	0.0160764
883.062	0.0163371
883.140	0.0164095
883.218	0.0161640
883.296	0.0161562
883.374	0.0163316
883.453	0.0160851
883.531	0.0161108
883.609	0.0161881
883.687	0.0161543
883.765	0.0163244
883.843	0.0162808
883.921	0.0162518
883.999	0.0160552
884.078	0.0162142
884.156	0.0162373
884.234	0.0162234
884.312	0.0162207
884.390	0.0162594
884.468	0.0162093
884.546	0.0162237
884.624	0.0161356
884.703	0.0163522
884.781	0.0162944
884.859	0.0160555
884.937	0.0159863
885.015	0.0160992
885.093	0.0162459
885.171	0.0161495
885.249	0.0160937
885.328	0.0162357
885.406	0.0162401
885.484	0.0160754
885.562	0.0160484
885.640	0.0161272
885.718	0.0161423
885.796	0.0161524
885.874	0.0161456
885.953	0.0161768
886.031	0.0161259
886.109	0.0160922
886.187	0.0161077
886.265	0.0162286
886.343	0.0161096
886.421	0.0161134
886.499	0.0160565
886.578	0.0161195
886.656	0.0159787
886.734	0.0159860
886.812	0.0161502
886.890	0.0161560
886.968	0.0161494
887.046	0.0161379
887.124	0.0160700
887.203	0.0160958
887.281	0.0161246
887.359	0.0160928
887.437	0.0162262
887.515	0.0162099
887.593	0.0162123
887.671	0.0161349
887.749	0.0162122
887.828	0.0159966
887.906	0.0160536
887.984	0.0160905
888.062	0.0161456
888.140	0.0160914
888.218	0.0162362
888.296	0.0160712
888.374	0.0160040
888.453	0.0161229
888.531	0.0161913
888.609	0.0160220
888.687	0.0162082
888.765	0.0161807
888.843	0.0161534
888.921	0.0162140
888.999	0.0161060
889.078	0.0161421
889.156	0.0162160
889.234	0.0163915
889.312	0.0162080
889.390	0.0161137
889.468	0.0162203
889.546	0.0161555
889.624	0.0162627
889.703	0.0162565
889.781	0.0161143
889.859	0.0162698
889.937	0.0163434
890.015	0.0163156
890.093	0.0162542
890.171	0.0161864
890.249	0.0162756
890.328	0.0162469
890.406	0.0161961
890.484	0.0161951
890.562	0.0162395
890.640	0.0160898
890.718	0.0161473
890.796	0.0160816
890.874	0.0159664
890.953	0.0161023
891.031	0.0160056
891.109	0.0160063
891.187	0.0158473
891.265	0.0159362
891.343	0.0161153
891.421	0.0160319
891.499	0.0160922
891.578	0.0161223
891.656	0.0159715
891.734	0.0159692
891.812	0.0161005
891.890	0.0159941
891.968	0.0159789
892.046	0.0160948
892.124	0.0162315
892.203	0.0161568
892.281	0.0161427
892.359	0.0160630
892.437	0.0160611
892.515	0.0162007
892.593	0.0162495
892.671	0.0162966
892.749	0.0162152
892.828	0.0162297
892.906	0.0162762
892.984	0.0162482
893.062	0.0164555
893.140	0.0163092
893.218	0.0162268
893.296	0.0162486
893.374	0.0160877
893.453	0.0161114
893.531	0.0161591
893.609	0.0161594
893.687	0.0161737
893.765	0.0161674
893.843	0.0161626
893.921	0.0161262
893.999	0.0160982
894.078	0.0160728
894.156	0.0160176
894.234	0.0158739
894.312	0.0159370
894.390	0.0159798
894.468	0.0160763
894.546	0.0159602
894.624	0.0160027
894.703	0.0161540
894.781	0.0159682
894.859	0.0160762
894.937	0.0160658
895.015	0.0160161
895.093	0.0160870
895.171	0.0162107
895.249	0.0161313
895.328	0.0160706
895.406	0.0161989
895.484	0.0161327
895.562	0.0161534
895.640	0.0162109
895.718	0.0161883
895.796	0.0162391
895.874	0.0161156
895.953	0.0161324
896.031	0.0162419
896.109	0.0162321
896.187	0.0162600
896.265	0.0163055
896.343	0.0162112
896.421	0.0161008
896.499	0.0162704
896.578	0.0162308
896.656	0.0161797
896.734	0.0163551
896.812	0.0162204
896.890	0.0160828
896.968	0.0159945
897.046	0.0160914
897.124	0.0161800
897.203	0.0162569
897.281	0.0160966
897.359	0.0159540
897.437	0.0160628
897.515	0.0162111
897.593	0.0163127
897.671	0.0162554
897.749	0.0161607
897.828	0.0162634
897.906	0.0163162
897.984	0.0162746
898.062	0.0163034
898.140	0.0162219
898.218	0.0162761
898.296	0.0162926
898.374	0.0162902
898.453	0.0162344
898.531	0.0162128
898.609	0.0162311
898.687	0.0163049
898.765	0.0162561
898.843	0.0161757
898.921	0.0163253
898.999	0.0161916
899.078	0.0161628
899.156	0.0161398
899.234	0.0161328
899.312	0.0161221
899.390	0.0160714
899.468	0.0161574
899.546	0.0161067
899.624	0.0161771
899.703	0.0161557
899.781	0.0161720
899.859	0.0161400
899.937	0.0161481
900.015	0.0160885
900.093	0.0159618
900.171	0.0160888
900.249	0.0161959
900.328	0.0161282
900.406	0.0160838
900.484	0.0160825
900.562	0.0161852
900.640	0.0163360
900.718	0.0161522
900.796	0.0163831
900.874	0.0162220
900.953	0.0162117
901.031	0.0162998
901.109	0.0163490
901.187	0.0163803
901.265	0.0162671
901.343	0.0161050
901.421	0.0163336
901.499	0.0163605
901.578	0.0163731
901.656	0.0162589
901.734	0.0161575
901.812	0.0161330
901.890	0.0161214
901.968	0.0161187
902.046	0.0161079
902.124	0.0160903
902.203	0.0161798
902.281	0.0160445
902.359	0.0160168
902.437	0.0160827
902.515	0.0160428
902.593	0.0159681
902.671	0.0159547
902.749	0.0160291
902.828	0.0160523
902.906	0.0160532
902.984	0.0160662
903.062	0.0160931
903.140	0.0161734
903.218	0.0161851
903.296	0.0162725
903.374	0.0162581
903.453	0.0160992
903.531	0.0162279
903.609	0.0163469
903.687	0.0163026
903.765	0.0163522
903.843	0.0162486
903.921	0.0163461
903.999	0.0162528
904.078	0.0163383
904.156	0.0164023
904.234	0.0162927
904.312	0.0162360
904.390	0.0162122
904.468	0.0162196
904.546	0.0162969
904.624	0.0161460
904.703	0.0162916
904.781	0.0161071
904.859	0.0161102
904.937	0.0162275
905.015	0.0161559
905.093	0.0161481
905.171	0.0162272
905.249	0.0160942
905.328	0.0160972
905.406	0.0161230
905.484	0.0160892
905.562	0.0161369
905.640	0.0161320
905.718	0.0161101
905.796	0.0159912
905.874	0.0161300
905.953	0.0161921
906.031	0.0162576
906.109	0.0161703
906.187	0.0161591
906.265	0.0163078
906.343	0.0162204
906.421	0.0161516
906.499	0.0161974
906.578	0.0162892
906.656	0.0162879
906.734	0.0162150
906.812	0.0162465
906.890	0.0162688
906.968	0.0163683
907.046	0.0162962
907.124	0.0162338
907.203	0.0162646
907.281	0.0163147
907.359	0.0162521
907.437	0.0163511
907.515	0.0163678
907.593	0.0162202
907.671	0.0161906
907.749	0.0162215
907.828	0.0163257
907.906	0.0161851
907.984	0.0160104
908.062	0.0160831
908.140	0.0162764
908.218	0.0161700
908.296	0.0161694
908.374	0.0160947
908.453	0.0161230
908.531	0.0160551
908.609	0.0161260
908.687	0.0162402
908.765	0.0161421
908.843	0.0162670
908.921	0.0162551
908.999	0.0160609
909.078	0.0161149
909.156	0.0161917
909.234	0.0162438
909.312	0.0162730
909.390	0.0162620
909.468	0.0161793
909.546	0.0162858
909.624	0.0161080
909.703	0.0161749
909.781	0.0162163
909.859	0.0161755
909.937	0.0162041
910.015	0.0162086
910.093	0.0161517
910.171	0.0160891
910.249	0.0162100
910.328	0.0161218
910.406	0.0160667
910.484	0.0159264
910.562	0.0160397
910.640	0.0159467
910.718	0.0160332
910.796	0.0160941
910.874	0.0159805
910.953	0.0160497
911.031	0.0159553
911.109	0.0158664
911.187	0.0159843
911.265	0.0160046
911.343	0.0160318
911.421	0.0160493
911.499	0.0160152
911.578	0.0159529
911.656	0.0160182
911.734	0.0161199
911.812	0.0158302
911.890	0.0158823
911.968	0.0159581
912.046	0.0161130
912.124	0.0160109
912.203	0.0160862
912.281	0.0159744
912.359	0.0160403
912.437	0.0159825
912.515	0.0160497
912.593	0.0161051
912.671	0.0159113
912.749	0.0159792
912.828	0.0161866
912.906	0.0161016
912.984	0.0161074
913.062	0.0161380
913.140	0.0162092
913.218	0.0160662
913.296	0.0162303
913.374	0.0160512
913.453	0.0159345
913.531	0.0160333
913.609	0.0160664
913.687	0.0161362
913.765	0.0160581
913.843	0.0160262
913.921	0.0161555
913.999	0.0160117
914.078	0.0159969
914.156	0.0158594
914.234	0.0160131
914.312	0.0160242
914.390	0.0158148
914.468	0.0159643
914.546	0.0160645
914.624	0.0159119
914.703	0.0159623
914.781	0.0160439
914.859	0.0159563
914.937	0.0160158
915.015	0.0160606
915.093	0.0159482
915.171	0.0160236
915.249	0.0161698
915.328	0.0160158
915.406	0.0161106
915.484	0.0161757
915.562	0.0161460
915.640	0.0160782
915.718	0.0162035
915.796	0.0161660
915.874	0.0160470
915.953	0.0160294
916.031	0.0162322
916.109	0.0161113
916.187	0.0161663
916.265	0.0161578
916.343	0.0160876
916.421	0.0160475
916.499	0.0161183
916.578	0.0161640
916.656	0.0161563
916.734	0.0161472
916.812	0.0161758
916.890	0.0162411
916.968	0.0160802
917.046	0.0161404
917.124	0.0161301
917.203	0.0160244
917.281	0.0161082
917.359	0.0162273
917.437	0.0162458
917.515	0.0161514
917.593	0.0161352
917.671	0.0161599
917.749	0.0161603
917.828	0.0162923
917.906	0.0163424
917.984	0.0162322
918.062	0.0163431
918.140	0.0162299
918.218	0.0163097
918.296	0.0163482
918.374	0.0162041
918.453	0.0161614
918.531	0.0161916
918.609	0.0163824
918.687	0.0162759
918.765	0.0162222
918.843	0.0162254
918.921	0.0162067
918.999	0.0164085
919.078	0.0163546
919.156	0.0162312
919.234	0.0162242
919.312	0.0163113
919.390	0.0163020
919.468	0.0162207
919.546	0.0162756
919.624	0.0162840
919.703	0.0162033
919.781	0.0162085
919.859	0.0162427
919.937	0.0162535
