06/10/2022	18:59:45	Ver.	4.1	UNKNOWN
Optical Delay	600.015094	Delta X		0.078125	Sweeps	1	Scan Rate	0/0
Coordinates	Axis 1	NaN	Axis 2	NaN	Axis 3	NaN	Axis 4	NaN	Axis 5	NaN	Axis 6	0.000000
TX Power	0.000000	RX Power	0.000000

600.015	0.0160626
600.093	0.0160677
600.171	0.0159844
600.249	0.0160332
600.328	0.0159093
600.406	0.0158862
600.484	0.0160023
600.562	0.0160629
600.640	0.0158108
600.718	0.0159554
600.796	0.0160087
600.874	0.0159586
600.953	0.0159007
601.031	0.0159964
601.109	0.0159648
601.187	0.0158704
601.265	0.0159132
601.343	0.0160732
601.421	0.0160681
601.499	0.0159532
601.578	0.0158738
601.656	0.0158914
601.734	0.0160712
601.812	0.0161393
601.890	0.0160107
601.968	0.0158891
602.046	0.0159156
602.124	0.0159586
602.203	0.0160285
602.281	0.0158842
602.359	0.0160203
602.437	0.0160534
602.515	0.0159309
602.593	0.0158839
602.671	0.0159946
602.749	0.0159554
602.828	0.0160529
602.906	0.0159733
602.984	0.0159359
603.062	0.0159034
603.140	0.0158497
603.218	0.0159824
603.296	0.0160545
603.374	0.0158907
603.453	0.0158770
603.531	0.0158462
603.609	0.0160282
603.687	0.0160174
603.765	0.0160139
603.843	0.0159077
603.921	0.0158576
603.999	0.0159239
604.078	0.0159227
604.156	0.0159442
604.234	0.0158888
604.312	0.0159706
604.390	0.0160569
604.468	0.0158809
604.546	0.0159113
604.624	0.0159432
604.703	0.0158825
604.781	0.0159718
604.859	0.0161112
604.937	0.0159324
605.015	0.0160796
605.093	0.0160980
605.171	0.0159251
605.249	0.0159985
605.328	0.0161890
605.406	0.0159589
605.484	0.0157919
605.562	0.0161923
605.640	0.0161120
605.718	0.0160461
605.796	0.0160236
605.874	0.0160458
605.953	0.0160503
606.031	0.0159715
606.109	0.0161404
606.187	0.0160417
606.265	0.0160822
606.343	0.0162153
606.421	0.0161480
606.499	0.0160614
606.578	0.0161052
606.656	0.0160678
606.734	0.0160010
606.812	0.0160642
606.890	0.0161000
606.968	0.0159586
607.046	0.0160590
607.124	0.0160507
607.203	0.0160830
607.281	0.0161662
607.359	0.0161049
607.437	0.0160766
607.515	0.0161377
607.593	0.0160477
607.671	0.0160558
607.749	0.0161205
607.828	0.0160439
607.906	0.0159953
607.984	0.0160631
608.062	0.0160365
608.140	0.0160114
608.218	0.0160392
608.296	0.0160899
608.374	0.0160600
608.453	0.0159734
608.531	0.0161443
608.609	0.0159908
608.687	0.0159809
608.765	0.0159378
608.843	0.0161864
608.921	0.0162068
608.999	0.0161691
609.078	0.0162347
609.156	0.0160872
609.234	0.0161671
609.312	0.0161285
609.390	0.0161187
609.468	0.0162553
609.546	0.0162444
609.624	0.0161451
609.703	0.0160841
609.781	0.0160078
609.859	0.0161520
609.937	0.0160633
610.015	0.0161354
610.093	0.0161419
610.171	0.0161339
610.249	0.0161481
610.328	0.0161626
610.406	0.0161275
610.484	0.0160104
610.562	0.0160819
610.640	0.0161685
610.718	0.0160957
610.796	0.0161173
610.874	0.0161222
610.953	0.0159724
611.031	0.0160400
611.109	0.0160194
611.187	0.0161089
611.265	0.0160031
611.343	0.0159633
611.421	0.0161054
611.499	0.0160355
611.578	0.0160997
611.656	0.0160926
611.734	0.0161449
611.812	0.0160361
611.890	0.0161448
611.968	0.0160438
612.046	0.0161533
612.124	0.0161131
612.203	0.0161980
612.281	0.0159491
612.359	0.0160053
612.437	0.0160950
612.515	0.0160395
612.593	0.0160022
612.671	0.0159464
612.749	0.0161971
612.828	0.0161466
612.906	0.0159694
612.984	0.0161497
613.062	0.0161030
613.140	0.0160683
613.218	0.0161062
613.296	0.0160399
613.374	0.0159754
613.453	0.0160384
613.531	0.0159816
613.609	0.0160242
613.687	0.0161210
613.765	0.0159990
613.843	0.0161333
613.921	0.0161469
613.999	0.0161661
614.078	0.0161937
614.156	0.0160343
614.234	0.0160831
614.312	0.0161836
614.390	0.0161414
614.468	0.0161761
614.546	0.0161008
614.624	0.0161498
614.703	0.0160740
614.781	0.0160315
614.859	0.0161229
614.937	0.0161806
615.015	0.0161155
615.093	0.0161005
615.171	0.0161194
615.249	0.0160302
615.328	0.0161152
615.406	0.0161542
615.484	0.0159561
615.562	0.0161431
615.640	0.0160545
615.718	0.0160596
615.796	0.0161721
615.874	0.0160477
615.953	0.0161276
616.031	0.0162246
616.109	0.0160758
616.187	0.0160037
616.265	0.0161954
616.343	0.0161868
616.421	0.0161560
616.499	0.0160954
616.578	0.0161266
616.656	0.0161548
616.734	0.0162077
616.812	0.0160432
616.890	0.0160403
616.968	0.0161425
617.046	0.0161266
617.124	0.0160778
617.203	0.0161595
617.281	0.0161375
617.359	0.0160915
617.437	0.0161879
617.515	0.0162497
617.593	0.0160471
617.671	0.0161631
617.749	0.0161145
617.828	0.0160612
617.906	0.0160760
617.984	0.0162028
618.062	0.0162827
618.140	0.0159943
618.218	0.0160693
618.296	0.0161560
618.374	0.0161207
618.453	0.0160535
618.531	0.0160887
618.609	0.0161672
618.687	0.0161412
618.765	0.0162625
618.843	0.0161228
618.921	0.0160647
618.999	0.0161582
619.078	0.0160471
619.156	0.0162047
619.234	0.0161382
619.312	0.0162928
619.390	0.0162204
619.468	0.0160353
619.546	0.0163091
619.624	0.0161783
619.703	0.0161034
619.781	0.0160400
619.859	0.0161306
619.937	0.0161533
620.015	0.0161831
620.093	0.0160576
620.171	0.0160222
620.249	0.0161848
620.328	0.0161664
620.406	0.0161315
620.484	0.0160480
620.562	0.0161368
620.640	0.0162726
620.718	0.0161682
620.796	0.0162219
620.874	0.0161652
620.953	0.0160525
621.031	0.0160947
621.109	0.0162222
621.187	0.0161455
621.265	0.0160938
621.343	0.0161687
621.421	0.0161224
621.499	0.0161320
621.578	0.0161003
621.656	0.0161160
621.734	0.0162023
621.812	0.0161562
621.890	0.0161507
621.968	0.0161977
622.046	0.0161996
622.124	0.0161709
622.203	0.0161108
622.281	0.0162849
622.359	0.0161064
622.437	0.0161139
622.515	0.0161977
622.593	0.0161119
622.671	0.0161369
622.749	0.0160981
622.828	0.0159929
622.906	0.0161823
622.984	0.0160845
623.062	0.0160630
623.140	0.0162311
623.218	0.0160755
623.296	0.0161819
623.374	0.0161109
623.453	0.0160571
623.531	0.0159856
623.609	0.0160303
623.687	0.0160381
623.765	0.0162174
623.843	0.0159819
623.921	0.0160590
623.999	0.0163044
624.078	0.0162379
624.156	0.0159892
624.234	0.0160928
624.312	0.0161192
624.390	0.0161591
624.468	0.0161730
624.546	0.0160436
624.624	0.0160597
624.703	0.0161330
624.781	0.0160915
624.859	0.0160406
624.937	0.0161569
625.015	0.0159998
625.093	0.0160489
625.171	0.0159858
625.249	0.0161452
625.328	0.0159743
625.406	0.0160686
625.484	0.0161826
625.562	0.0160458
625.640	0.0160014
625.718	0.0159888
625.796	0.0161057
625.874	0.0161306
625.953	0.0159679
626.031	0.0160253
626.109	0.0161700
626.187	0.0161557
626.265	0.0159826
626.343	0.0160440
626.421	0.0159807
626.499	0.0159836
626.578	0.0161167
626.656	0.0160394
626.734	0.0160418
626.812	0.0160881
626.890	0.0159587
626.968	0.0159753
627.046	0.0160030
627.124	0.0160213
627.203	0.0160527
627.281	0.0160449
627.359	0.0160505
627.437	0.0160947
627.515	0.0160424
627.593	0.0161053
627.671	0.0160239
627.749	0.0161327
627.828	0.0161839
627.906	0.0160034
627.984	0.0160758
628.062	0.0159538
628.140	0.0160749
628.218	0.0160635
628.296	0.0161371
628.374	0.0159272
628.453	0.0161057
628.531	0.0160716
628.609	0.0160909
628.687	0.0161047
628.765	0.0160815
628.843	0.0159458
628.921	0.0158875
628.999	0.0159813
629.078	0.0160907
629.156	0.0160226
629.234	0.0159952
629.312	0.0160722
629.390	0.0159749
629.468	0.0158700
629.546	0.0159506
629.624	0.0160779
629.703	0.0160683
629.781	0.0160754
629.859	0.0160009
629.937	0.0160513
630.015	0.0159711
630.093	0.0160097
630.171	0.0160970
630.249	0.0161672
630.328	0.0160386
630.406	0.0161250
630.484	0.0160494
630.562	0.0161643
630.640	0.0159801
630.718	0.0160116
630.796	0.0160301
630.874	0.0161582
630.953	0.0158725
631.031	0.0160804
631.109	0.0160841
631.187	0.0158675
631.265	0.0159620
631.343	0.0160678
631.421	0.0161527
631.499	0.0159558
631.578	0.0161114
631.656	0.0162321
631.734	0.0161597
631.812	0.0161317
631.890	0.0160285
631.968	0.0160683
632.046	0.0161845
632.124	0.0161269
632.203	0.0160594
632.281	0.0161437
632.359	0.0161489
632.437	0.0161255
632.515	0.0161073
632.593	0.0160828
632.671	0.0160303
632.749	0.0160832
632.828	0.0159219
632.906	0.0160638
632.984	0.0159992
633.062	0.0161494
633.140	0.0161592
633.218	0.0159622
633.296	0.0159687
633.374	0.0160604
633.453	0.0161697
633.531	0.0160590
633.609	0.0161361
633.687	0.0160896
633.765	0.0161402
633.843	0.0160442
633.921	0.0160474
633.999	0.0160841
634.078	0.0161774
634.156	0.0160042
634.234	0.0159264
634.312	0.0160168
634.390	0.0160915
634.468	0.0160795
634.546	0.0159225
634.624	0.0160749
634.703	0.0160561
634.781	0.0160409
634.859	0.0161654
634.937	0.0161385
635.015	0.0160649
635.093	0.0161862
635.171	0.0162376
635.249	0.0160275
635.328	0.0159429
635.406	0.0159497
635.484	0.0161334
635.562	0.0161069
635.640	0.0161060
635.718	0.0161127
635.796	0.0160620
635.874	0.0162388
635.953	0.0161517
636.031	0.0160946
636.109	0.0160455
636.187	0.0160925
636.265	0.0161806
636.343	0.0162682
636.421	0.0162220
636.499	0.0160548
636.578	0.0160549
636.656	0.0161284
636.734	0.0161392
636.812	0.0161917
636.890	0.0162130
636.968	0.0161758
637.046	0.0162034
637.124	0.0160838
637.203	0.0163371
637.281	0.0160706
637.359	0.0161969
637.437	0.0162759
637.515	0.0161656
637.593	0.0161157
637.671	0.0161476
637.749	0.0161227
637.828	0.0162560
637.906	0.0160751
637.984	0.0162868
638.062	0.0161947
638.140	0.0161675
638.218	0.0161722
638.296	0.0162015
638.374	0.0161600
638.453	0.0162155
638.531	0.0163340
638.609	0.0162462
638.687	0.0161589
638.765	0.0161565
638.843	0.0162772
638.921	0.0163097
638.999	0.0163523
639.078	0.0162727
639.156	0.0160184
639.234	0.0161587
639.312	0.0161620
639.390	0.0161187
639.468	0.0162195
639.546	0.0162513
639.624	0.0161268
639.703	0.0160905
639.781	0.0161071
639.859	0.0161901
639.937	0.0162672
640.015	0.0161001
640.093	0.0161192
640.171	0.0160777
640.249	0.0160697
640.328	0.0161504
640.406	0.0161625
640.484	0.0160852
640.562	0.0161108
640.640	0.0160118
640.718	0.0160497
640.796	0.0161495
640.874	0.0162115
640.953	0.0161661
641.031	0.0162032
641.109	0.0161800
641.187	0.0162063
641.265	0.0161887
641.343	0.0162400
641.421	0.0160415
641.499	0.0159841
641.578	0.0161440
641.656	0.0161313
641.734	0.0161972
641.812	0.0161867
641.890	0.0162756
641.968	0.0162404
642.046	0.0161478
642.124	0.0163031
642.203	0.0161781
642.281	0.0161149
642.359	0.0161886
642.437	0.0161534
642.515	0.0161003
642.593	0.0162021
642.671	0.0160688
642.749	0.0159615
642.828	0.0160746
642.906	0.0160921
642.984	0.0161079
643.062	0.0163055
643.140	0.0162516
643.218	0.0161456
643.296	0.0162531
643.374	0.0160950
643.453	0.0160932
643.531	0.0162221
643.609	0.0162554
643.687	0.0162192
643.765	0.0159795
643.843	0.0160625
643.921	0.0161472
643.999	0.0162840
644.078	0.0160631
644.156	0.0161938
644.234	0.0160351
644.312	0.0162013
644.390	0.0160364
644.468	0.0160492
644.546	0.0161658
644.624	0.0161738
644.703	0.0161406
644.781	0.0161930
644.859	0.0162920
644.937	0.0160566
645.015	0.0161049
645.093	0.0161343
645.171	0.0161361
645.249	0.0161591
645.328	0.0162644
645.406	0.0161132
645.484	0.0159993
645.562	0.0160604
645.640	0.0161501
645.718	0.0162202
645.796	0.0161659
645.874	0.0161269
645.953	0.0161538
646.031	0.0162055
646.109	0.0159843
646.187	0.0160221
646.265	0.0162167
646.343	0.0161971
646.421	0.0161364
646.499	0.0162041
646.578	0.0160494
646.656	0.0161694
646.734	0.0161340
646.812	0.0161523
646.890	0.0161990
646.968	0.0161437
647.046	0.0161637
647.124	0.0161357
647.203	0.0162221
647.281	0.0161947
647.359	0.0162582
647.437	0.0161330
647.515	0.0162069
647.593	0.0163012
647.671	0.0161150
647.749	0.0161521
647.828	0.0161069
647.906	0.0161909
647.984	0.0161070
648.062	0.0162349
648.140	0.0161980
648.218	0.0160737
648.296	0.0161427
648.374	0.0162092
648.453	0.0161559
648.531	0.0159675
648.609	0.0162601
648.687	0.0161550
648.765	0.0160981
648.843	0.0160956
648.921	0.0160423
648.999	0.0160757
649.078	0.0161738
649.156	0.0161729
649.234	0.0161313
649.312	0.0161739
649.390	0.0162001
649.468	0.0160675
649.546	0.0161815
649.624	0.0161149
649.703	0.0162188
649.781	0.0160767
649.859	0.0163290
649.937	0.0162556
650.015	0.0160573
650.093	0.0161982
650.171	0.0162038
650.249	0.0161944
650.328	0.0161930
650.406	0.0160888
650.484	0.0160574
650.562	0.0161453
650.640	0.0160776
650.718	0.0161938
650.796	0.0161302
650.874	0.0160802
650.953	0.0160723
651.031	0.0162532
651.109	0.0162567
651.187	0.0160416
651.265	0.0161653
651.343	0.0160542
651.421	0.0161443
651.499	0.0161211
651.578	0.0162415
651.656	0.0159914
651.734	0.0161980
651.812	0.0161405
651.890	0.0160840
651.968	0.0159884
652.046	0.0161440
652.124	0.0160983
652.203	0.0162342
652.281	0.0161579
652.359	0.0159825
652.437	0.0162285
652.515	0.0162789
652.593	0.0161805
652.671	0.0160094
652.749	0.0161157
652.828	0.0161433
652.906	0.0160841
652.984	0.0162244
653.062	0.0160490
653.140	0.0160027
653.218	0.0161269
653.296	0.0159899
653.374	0.0160147
653.453	0.0160123
653.531	0.0160831
653.609	0.0159321
653.687	0.0160956
653.765	0.0159397
653.843	0.0159059
653.921	0.0159630
653.999	0.0159724
654.078	0.0160069
654.156	0.0159900
654.234	0.0160312
654.312	0.0159628
654.390	0.0159137
654.468	0.0158981
654.546	0.0160513
654.624	0.0159803
654.703	0.0159711
654.781	0.0161362
654.859	0.0160471
654.937	0.0160509
655.015	0.0159937
655.093	0.0162068
655.171	0.0159225
655.249	0.0160526
655.328	0.0160305
655.406	0.0160566
655.484	0.0159740
655.562	0.0160523
655.640	0.0160545
655.718	0.0160085
655.796	0.0160966
655.874	0.0160355
655.953	0.0160796
656.031	0.0160729
656.109	0.0160022
656.187	0.0160706
656.265	0.0160152
656.343	0.0160998
656.421	0.0159811
656.499	0.0158379
656.578	0.0159845
656.656	0.0159408
656.734	0.0159682
656.812	0.0160448
656.890	0.0160071
656.968	0.0160268
657.046	0.0159612
657.124	0.0159640
657.203	0.0161710
657.281	0.0158792
657.359	0.0159985
657.437	0.0160152
657.515	0.0160561
657.593	0.0161166
657.671	0.0160382
657.749	0.0161118
657.828	0.0161852
657.906	0.0159465
657.984	0.0159795
658.062	0.0161504
658.140	0.0160038
658.218	0.0160738
658.296	0.0159859
658.374	0.0160535
658.453	0.0160209
658.531	0.0160244
658.609	0.0160135
658.687	0.0160302
658.765	0.0160707
658.843	0.0160087
658.921	0.0159559
658.999	0.0161063
659.078	0.0161897
659.156	0.0160382
659.234	0.0159740
659.312	0.0159453
659.390	0.0160521
659.468	0.0160560
659.546	0.0160680
659.624	0.0161132
659.703	0.0160152
659.781	0.0160361
659.859	0.0159562
659.937	0.0161697
660.015	0.0160464
660.093	0.0159873
660.171	0.0161250
660.249	0.0160528
660.328	0.0161215
660.406	0.0160539
660.484	0.0161751
660.562	0.0161371
660.640	0.0160924
660.718	0.0160178
660.796	0.0162820
660.874	0.0160237
660.953	0.0161024
661.031	0.0161353
661.109	0.0161426
661.187	0.0160645
661.265	0.0161272
661.343	0.0162225
661.421	0.0162499
661.499	0.0162371
661.578	0.0162367
661.656	0.0161646
661.734	0.0162077
661.812	0.0163409
661.890	0.0162083
661.968	0.0162010
662.046	0.0161234
662.124	0.0160970
662.203	0.0162482
662.281	0.0161217
662.359	0.0160713
662.437	0.0162077
662.515	0.0161954
662.593	0.0161334
662.671	0.0161282
662.749	0.0161841
662.828	0.0161781
662.906	0.0161785
662.984	0.0161671
663.062	0.0161181
663.140	0.0161943
663.218	0.0162977
663.296	0.0161683
663.374	0.0161639
663.453	0.0160980
663.531	0.0162068
663.609	0.0161733
663.687	0.0160893
663.765	0.0162032
663.843	0.0160952
663.921	0.0162115
663.999	0.0161324
664.078	0.0161425
664.156	0.0162495
664.234	0.0161469
664.312	0.0162595
664.390	0.0161758
664.468	0.0162072
664.546	0.0161213
664.624	0.0161912
664.703	0.0162210
664.781	0.0161114
664.859	0.0162017
664.937	0.0161113
665.015	0.0161705
665.093	0.0161912
665.171	0.0161375
665.249	0.0160442
665.328	0.0160829
665.406	0.0160710
665.484	0.0163064
665.562	0.0161115
665.640	0.0161287
665.718	0.0161366
665.796	0.0163255
665.874	0.0162982
665.953	0.0160384
666.031	0.0161275
666.109	0.0161714
666.187	0.0160607
666.265	0.0161270
666.343	0.0161842
666.421	0.0162621
666.499	0.0161335
666.578	0.0161675
666.656	0.0160757
666.734	0.0162053
666.812	0.0161330
666.890	0.0161551
666.968	0.0162019
667.046	0.0160286
667.124	0.0160554
667.203	0.0161172
667.281	0.0161304
667.359	0.0162319
667.437	0.0162110
667.515	0.0161665
667.593	0.0162289
667.671	0.0161777
667.749	0.0161850
667.828	0.0162073
667.906	0.0161600
667.984	0.0161210
668.062	0.0161220
668.140	0.0161440
668.218	0.0162409
668.296	0.0161385
668.374	0.0162416
668.453	0.0161993
668.531	0.0160327
668.609	0.0161636
668.687	0.0161433
668.765	0.0161733
668.843	0.0161219
668.921	0.0161904
668.999	0.0162447
669.078	0.0162376
669.156	0.0160160
669.234	0.0161580
669.312	0.0161620
669.390	0.0161451
669.468	0.0162040
669.546	0.0161079
669.624	0.0162227
669.703	0.0162314
669.781	0.0161452
669.859	0.0160930
669.937	0.0160891
670.015	0.0160084
670.093	0.0160439
670.171	0.0160143
670.249	0.0161115
670.328	0.0160922
670.406	0.0159791
670.484	0.0160384
670.562	0.0160815
670.640	0.0161752
670.718	0.0162370
670.796	0.0161008
670.874	0.0161342
670.953	0.0161769
671.031	0.0159980
671.109	0.0161127
671.187	0.0160378
671.265	0.0161159
671.343	0.0160793
671.421	0.0161011
671.499	0.0161637
671.578	0.0161520
671.656	0.0160613
671.734	0.0160384
671.812	0.0161234
671.890	0.0161772
671.968	0.0161710
672.046	0.0159959
672.124	0.0162055
672.203	0.0161909
672.281	0.0160080
672.359	0.0160416
672.437	0.0161668
672.515	0.0160102
672.593	0.0161253
672.671	0.0161748
672.749	0.0161752
672.828	0.0161591
672.906	0.0160965
672.984	0.0160880
673.062	0.0160976
673.140	0.0161533
673.218	0.0161319
673.296	0.0158756
673.374	0.0161983
673.453	0.0161700
673.531	0.0161082
673.609	0.0160163
673.687	0.0161036
673.765	0.0160108
673.843	0.0162416
673.921	0.0161107
673.999	0.0161747
674.078	0.0160933
674.156	0.0161118
674.234	0.0161275
674.312	0.0160355
674.390	0.0161608
674.468	0.0162399
674.546	0.0161397
674.624	0.0160889
674.703	0.0160841
674.781	0.0161191
674.859	0.0161562
674.937	0.0161984
675.015	0.0162080
675.093	0.0160514
675.171	0.0161410
675.249	0.0161854
675.328	0.0161312
675.406	0.0159853
675.484	0.0161384
675.562	0.0161246
675.640	0.0160030
675.718	0.0160254
675.796	0.0159897
675.874	0.0160963
675.953	0.0160803
676.031	0.0160673
676.109	0.0161137
676.187	0.0161636
676.265	0.0159940
676.343	0.0161294
676.421	0.0161148
676.499	0.0160916
676.578	0.0161536
676.656	0.0161796
676.734	0.0159117
676.812	0.0161785
676.890	0.0160809
676.968	0.0160140
677.046	0.0160555
677.124	0.0160295
677.203	0.0160802
677.281	0.0160550
677.359	0.0160993
677.437	0.0160825
677.515	0.0160167
677.593	0.0159479
677.671	0.0160349
677.749	0.0160741
677.828	0.0160632
677.906	0.0159876
677.984	0.0160029
678.062	0.0161252
678.140	0.0162174
678.218	0.0160330
678.296	0.0159177
678.374	0.0160741
678.453	0.0160478
678.531	0.0161428
678.609	0.0159898
678.687	0.0159972
678.765	0.0159015
678.843	0.0158888
678.921	0.0158466
678.999	0.0158831
679.078	0.0160628
679.156	0.0160797
679.234	0.0160039
679.312	0.0159519
679.390	0.0160188
679.468	0.0159188
679.546	0.0159674
679.624	0.0159148
679.703	0.0159119
679.781	0.0160699
679.859	0.0159733
679.937	0.0160089
680.015	0.0159494
680.093	0.0159468
680.171	0.0159964
680.249	0.0158884
680.328	0.0160447
680.406	0.0160613
680.484	0.0158563
680.562	0.0159994
680.640	0.0158743
680.718	0.0159311
680.796	0.0159605
680.874	0.0159875
680.953	0.0159078
681.031	0.0160305
681.109	0.0160047
681.187	0.0159981
681.265	0.0160048
681.343	0.0160505
681.421	0.0160155
681.499	0.0159587
681.578	0.0159425
681.656	0.0158676
681.734	0.0159786
681.812	0.0159227
681.890	0.0160385
681.968	0.0159267
682.046	0.0159771
682.124	0.0159190
682.203	0.0160518
682.281	0.0160401
682.359	0.0159377
682.437	0.0159163
682.515	0.0160535
682.593	0.0159358
682.671	0.0160170
682.749	0.0158096
682.828	0.0159641
682.906	0.0160791
682.984	0.0160355
683.062	0.0159916
683.140	0.0160240
683.218	0.0159563
683.296	0.0159776
683.374	0.0158224
683.453	0.0159271
683.531	0.0158826
683.609	0.0159690
683.687	0.0160616
683.765	0.0161755
683.843	0.0162128
683.921	0.0160368
683.999	0.0159715
684.078	0.0160169
684.156	0.0159503
684.234	0.0160316
684.312	0.0161208
684.390	0.0160001
684.468	0.0158907
684.546	0.0159100
684.624	0.0160541
684.703	0.0159833
684.781	0.0160542
684.859	0.0161120
684.937	0.0159304
685.015	0.0159715
685.093	0.0159872
685.171	0.0159909
685.249	0.0159588
685.328	0.0159652
685.406	0.0159414
685.484	0.0160606
685.562	0.0160111
685.640	0.0161679
685.718	0.0160706
685.796	0.0160057
685.874	0.0162223
685.953	0.0159911
686.031	0.0161596
686.109	0.0161428
686.187	0.0160612
686.265	0.0161323
686.343	0.0161063
686.421	0.0161611
686.499	0.0161955
686.578	0.0161346
686.656	0.0160635
686.734	0.0160291
686.812	0.0161547
686.890	0.0160747
686.968	0.0160771
687.046	0.0162747
687.124	0.0160738
687.203	0.0161927
687.281	0.0161489
687.359	0.0161257
687.437	0.0161513
687.515	0.0163269
687.593	0.0161263
687.671	0.0161423
687.749	0.0160059
687.828	0.0160769
687.906	0.0162912
687.984	0.0162764
688.062	0.0162341
688.140	0.0161143
688.218	0.0160270
688.296	0.0161615
688.374	0.0161569
688.453	0.0162361
688.531	0.0161296
688.609	0.0161803
688.687	0.0161092
688.765	0.0162454
688.843	0.0161552
688.921	0.0161237
688.999	0.0161206
689.078	0.0160512
689.156	0.0160838
689.234	0.0160162
689.312	0.0160853
689.390	0.0161727
689.468	0.0163044
689.546	0.0161095
689.624	0.0161374
689.703	0.0162475
689.781	0.0162089
689.859	0.0160279
689.937	0.0162016
690.015	0.0161221
690.093	0.0161570
690.171	0.0160477
690.249	0.0160773
690.328	0.0161986
690.406	0.0162030
690.484	0.0162829
690.562	0.0161398
690.640	0.0161301
690.718	0.0161290
690.796	0.0161897
690.874	0.0160741
690.953	0.0162289
691.031	0.0162353
691.109	0.0160944
691.187	0.0162112
691.265	0.0162491
691.343	0.0160736
691.421	0.0159866
691.499	0.0161489
691.578	0.0161981
691.656	0.0161461
691.734	0.0161403
691.812	0.0162259
691.890	0.0161393
691.968	0.0161783
692.046	0.0161400
692.124	0.0162540
692.203	0.0162912
692.281	0.0161357
692.359	0.0163354
692.437	0.0161498
692.515	0.0160431
692.593	0.0162414
692.671	0.0162719
692.749	0.0162180
692.828	0.0161729
692.906	0.0162045
692.984	0.0161403
693.062	0.0162827
693.140	0.0161837
693.218	0.0161688
693.296	0.0161641
693.374	0.0162988
693.453	0.0162365
693.531	0.0162043
693.609	0.0163528
693.687	0.0161847
693.765	0.0162553
693.843	0.0162123
693.921	0.0162394
693.999	0.0161292
694.078	0.0160176
694.156	0.0160932
694.234	0.0161972
694.312	0.0162961
694.390	0.0161815
694.468	0.0161887
694.546	0.0162624
694.624	0.0162572
694.703	0.0162060
694.781	0.0161258
694.859	0.0160633
694.937	0.0161677
695.015	0.0162011
695.093	0.0161831
695.171	0.0161401
695.249	0.0161601
695.328	0.0160786
695.406	0.0161630
695.484	0.0161739
695.562	0.0161002
695.640	0.0161372
695.718	0.0161505
695.796	0.0160912
695.874	0.0161766
695.953	0.0160838
696.031	0.0162094
696.109	0.0160747
696.187	0.0160896
696.265	0.0161835
696.343	0.0161506
696.421	0.0162604
696.499	0.0161446
696.578	0.0161335
696.656	0.0160716
696.734	0.0160796
696.812	0.0162559
696.890	0.0161371
696.968	0.0160320
697.046	0.0161796
697.124	0.0161219
697.203	0.0162462
697.281	0.0161540
697.359	0.0161834
697.437	0.0161538
697.515	0.0161320
697.593	0.0161971
697.671	0.0162051
697.749	0.0161673
697.828	0.0160874
697.906	0.0160739
697.984	0.0160635
698.062	0.0160075
698.140	0.0161331
698.218	0.0160484
698.296	0.0161465
698.374	0.0161263
698.453	0.0162113
698.531	0.0161002
698.609	0.0162069
698.687	0.0161352
698.765	0.0158949
698.843	0.0159572
698.921	0.0161355
698.999	0.0161353
699.078	0.0159740
699.156	0.0160184
699.234	0.0160903
699.312	0.0160822
699.390	0.0160157
699.468	0.0159021
699.546	0.0160779
699.624	0.0161674
699.703	0.0160878
699.781	0.0161315
699.859	0.0161008
699.937	0.0159143
700.015	0.0160498
700.093	0.0161251
700.171	0.0160341
700.249	0.0159825
700.328	0.0160433
700.406	0.0159998
700.484	0.0160716
700.562	0.0160435
700.640	0.0161979
700.718	0.0159309
700.796	0.0160750
700.874	0.0159224
700.953	0.0160027
701.031	0.0160487
701.109	0.0159507
701.187	0.0158382
701.265	0.0159676
701.343	0.0160175
701.421	0.0160815
701.499	0.0159917
701.578	0.0159975
701.656	0.0159713
701.734	0.0160738
701.812	0.0159913
701.890	0.0160617
701.968	0.0159889
702.046	0.0160506
702.124	0.0159251
702.203	0.0159415
702.281	0.0159676
702.359	0.0159669
702.437	0.0159762
702.515	0.0159238
702.593	0.0159693
702.671	0.0159690
702.749	0.0159409
702.828	0.0159229
702.906	0.0159756
702.984	0.0160868
703.062	0.0161817
703.140	0.0160320
703.218	0.0159186
703.296	0.0160129
703.374	0.0159139
703.453	0.0160900
703.531	0.0159698
703.609	0.0159007
703.687	0.0159924
703.765	0.0159361
703.843	0.0160326
703.921	0.0161256
703.999	0.0160722
704.078	0.0160050
704.156	0.0161434
704.234	0.0160463
704.312	0.0160303
704.390	0.0159728
704.468	0.0160644
704.546	0.0160179
704.624	0.0159957
704.703	0.0159692
704.781	0.0161280
704.859	0.0160301
704.937	0.0159525
705.015	0.0159579
705.093	0.0159750
705.171	0.0159918
705.249	0.0160550
705.328	0.0160402
705.406	0.0159663
705.484	0.0161149
705.562	0.0160854
705.640	0.0158849
705.718	0.0160397
705.796	0.0160326
705.874	0.0159804
705.953	0.0160041
706.031	0.0159342
706.109	0.0160586
706.187	0.0160979
706.265	0.0159340
706.343	0.0159457
706.421	0.0160358
706.499	0.0160813
706.578	0.0159121
706.656	0.0159843
706.734	0.0158386
706.812	0.0159389
706.890	0.0159815
706.968	0.0160884
707.046	0.0160606
707.124	0.0159402
707.203	0.0160157
707.281	0.0159854
707.359	0.0158746
707.437	0.0161841
707.515	0.0159663
707.593	0.0160184
707.671	0.0160385
707.749	0.0160300
707.828	0.0161046
707.906	0.0160007
707.984	0.0160265
708.062	0.0159937
708.140	0.0160503
708.218	0.0160974
708.296	0.0160403
708.374	0.0160366
708.453	0.0162461
708.531	0.0159700
708.609	0.0161538
708.687	0.0160835
708.765	0.0161700
708.843	0.0161107
708.921	0.0160255
708.999	0.0160235
709.078	0.0160461
709.156	0.0161194
709.234	0.0160943
709.312	0.0161094
709.390	0.0160986
709.468	0.0161211
709.546	0.0159517
709.624	0.0160833
709.703	0.0161182
709.781	0.0160523
709.859	0.0162887
709.937	0.0161403
710.015	0.0160860
710.093	0.0161018
710.171	0.0160999
710.249	0.0160307
710.328	0.0161740
710.406	0.0161710
710.484	0.0160969
710.562	0.0159415
710.640	0.0161435
710.718	0.0159772
710.796	0.0159641
710.874	0.0160603
710.953	0.0161478
711.031	0.0160918
711.109	0.0160036
711.187	0.0158578
711.265	0.0159448
711.343	0.0158863
711.421	0.0159115
711.499	0.0160603
711.578	0.0160252
711.656	0.0159692
711.734	0.0161185
711.812	0.0160674
711.890	0.0161287
711.968	0.0160175
712.046	0.0160499
712.124	0.0161650
712.203	0.0161053
712.281	0.0160680
712.359	0.0160677
712.437	0.0160638
712.515	0.0160977
712.593	0.0160847
712.671	0.0161206
712.749	0.0161722
712.828	0.0161338
712.906	0.0160710
712.984	0.0160719
713.062	0.0161876
713.140	0.0160649
713.218	0.0161093
713.296	0.0160725
713.374	0.0161485
713.453	0.0160896
713.531	0.0160686
713.609	0.0160898
713.687	0.0161681
713.765	0.0161612
713.843	0.0161786
713.921	0.0159912
713.999	0.0160143
714.078	0.0162379
714.156	0.0161561
714.234	0.0160920
714.312	0.0161240
714.390	0.0160467
714.468	0.0161871
714.546	0.0162212
714.624	0.0161452
714.703	0.0162235
714.781	0.0160728
714.859	0.0161191
714.937	0.0161893
715.015	0.0162479
715.093	0.0161719
715.171	0.0162095
715.249	0.0161631
715.328	0.0161752
715.406	0.0161474
715.484	0.0162133
715.562	0.0161769
715.640	0.0160658
715.718	0.0162166
715.796	0.0162189
715.874	0.0163895
715.953	0.0161404
716.031	0.0161842
716.109	0.0162212
716.187	0.0163148
716.265	0.0161839
716.343	0.0161822
716.421	0.0162653
716.499	0.0161870
716.578	0.0161036
716.656	0.0162316
716.734	0.0161420
716.812	0.0161705
716.890	0.0162306
716.968	0.0162920
717.046	0.0162542
717.124	0.0161611
717.203	0.0161898
717.281	0.0162354
717.359	0.0161681
717.437	0.0162383
717.515	0.0162246
717.593	0.0162268
717.671	0.0161154
717.749	0.0160875
717.828	0.0161892
717.906	0.0163089
717.984	0.0162524
718.062	0.0162579
718.140	0.0163892
718.218	0.0162911
718.296	0.0163116
718.374	0.0162633
718.453	0.0162534
718.531	0.0161246
718.609	0.0162234
718.687	0.0162780
718.765	0.0162044
718.843	0.0162796
718.921	0.0162146
718.999	0.0162952
719.078	0.0162025
719.156	0.0161490
719.234	0.0161716
719.312	0.0162462
719.390	0.0161024
719.468	0.0163407
719.546	0.0162801
719.624	0.0162563
719.703	0.0161905
719.781	0.0163255
719.859	0.0161820
719.937	0.0160777
720.015	0.0163448
720.093	0.0162009
720.171	0.0162205
720.249	0.0162387
720.328	0.0161741
720.406	0.0162366
720.484	0.0161147
720.562	0.0162177
720.640	0.0161713
720.718	0.0160921
720.796	0.0160242
720.874	0.0162195
720.953	0.0161352
721.031	0.0161066
721.109	0.0162047
721.187	0.0161571
721.265	0.0161681
721.343	0.0162405
721.421	0.0162112
721.499	0.0161747
721.578	0.0161800
721.656	0.0161492
721.734	0.0161884
721.812	0.0161176
721.890	0.0161127
721.968	0.0160256
722.046	0.0161074
722.124	0.0161494
722.203	0.0160784
722.281	0.0162988
722.359	0.0162806
722.437	0.0160856
722.515	0.0162212
722.593	0.0161380
722.671	0.0162707
722.749	0.0161442
722.828	0.0161515
722.906	0.0162109
722.984	0.0161507
723.062	0.0160736
723.140	0.0160951
723.218	0.0159753
723.296	0.0160632
723.374	0.0160990
723.453	0.0161156
723.531	0.0160748
723.609	0.0161042
723.687	0.0161143
723.765	0.0162031
723.843	0.0161800
723.921	0.0160511
723.999	0.0159887
724.078	0.0161119
724.156	0.0160913
724.234	0.0160919
724.312	0.0161359
724.390	0.0161028
724.468	0.0162400
724.546	0.0159596
724.624	0.0159937
724.703	0.0161354
724.781	0.0159905
724.859	0.0160403
724.937	0.0161703
725.015	0.0160927
725.093	0.0160937
725.171	0.0161232
725.249	0.0160695
725.328	0.0161725
725.406	0.0160932
725.484	0.0161691
725.562	0.0161102
725.640	0.0160847
725.718	0.0160065
725.796	0.0161028
725.874	0.0162072
725.953	0.0161423
726.031	0.0160390
726.109	0.0159463
726.187	0.0161127
726.265	0.0161501
726.343	0.0160081
726.421	0.0160997
726.499	0.0160386
726.578	0.0161479
726.656	0.0160772
726.734	0.0161724
726.812	0.0160697
726.890	0.0159603
726.968	0.0160320
727.046	0.0160805
727.124	0.0161628
727.203	0.0159896
727.281	0.0161265
727.359	0.0160747
727.437	0.0161064
727.515	0.0160504
727.593	0.0159377
727.671	0.0160808
727.749	0.0160203
727.828	0.0160654
727.906	0.0160323
727.984	0.0159389
728.062	0.0159890
728.140	0.0161148
728.218	0.0161313
728.296	0.0160013
728.374	0.0160162
728.453	0.0162115
728.531	0.0161298
728.609	0.0160424
728.687	0.0160462
728.765	0.0161405
728.843	0.0160453
728.921	0.0159876
728.999	0.0160908
729.078	0.0160735
729.156	0.0159392
729.234	0.0160400
729.312	0.0160318
729.390	0.0159858
729.468	0.0161871
729.546	0.0162531
729.624	0.0160014
729.703	0.0161819
729.781	0.0160157
729.859	0.0159325
729.937	0.0161105
730.015	0.0160188
730.093	0.0159484
730.171	0.0159753
730.249	0.0160400
730.328	0.0160779
730.406	0.0161398
730.484	0.0160415
730.562	0.0160189
730.640	0.0160113
730.718	0.0159161
730.796	0.0159428
730.874	0.0161161
730.953	0.0159733
731.031	0.0162454
731.109	0.0160197
731.187	0.0159304
731.265	0.0160214
731.343	0.0160102
731.421	0.0159371
731.499	0.0159408
731.578	0.0159901
731.656	0.0160907
731.734	0.0160960
731.812	0.0160351
731.890	0.0161298
731.968	0.0161922
732.046	0.0159939
732.124	0.0160263
732.203	0.0160708
732.281	0.0159933
732.359	0.0159856
732.437	0.0160535
732.515	0.0160848
732.593	0.0159476
732.671	0.0161375
732.749	0.0160793
732.828	0.0161497
732.906	0.0160617
732.984	0.0161571
733.062	0.0160947
733.140	0.0161713
733.218	0.0160917
733.296	0.0161292
733.374	0.0161764
733.453	0.0162660
733.531	0.0161523
733.609	0.0162877
733.687	0.0161670
733.765	0.0161030
733.843	0.0161664
733.921	0.0161844
733.999	0.0160473
734.078	0.0161617
734.156	0.0161193
734.234	0.0160057
734.312	0.0161177
734.390	0.0161319
734.468	0.0161212
734.546	0.0159872
734.624	0.0161036
734.703	0.0160636
734.781	0.0159997
734.859	0.0161593
734.937	0.0161349
735.015	0.0161945
735.093	0.0159764
735.171	0.0159719
735.249	0.0161813
735.328	0.0161977
735.406	0.0162489
735.484	0.0161342
735.562	0.0161945
735.640	0.0161584
735.718	0.0162868
735.796	0.0161595
735.874	0.0161730
735.953	0.0161166
736.031	0.0162704
736.109	0.0162907
736.187	0.0160877
736.265	0.0161683
736.343	0.0160489
736.421	0.0161758
736.499	0.0162058
736.578	0.0162304
736.656	0.0161257
736.734	0.0162164
736.812	0.0160358
736.890	0.0161216
736.968	0.0160051
737.046	0.0159308
737.124	0.0161080
737.203	0.0162135
737.281	0.0162354
737.359	0.0161690
737.437	0.0160641
737.515	0.0162284
737.593	0.0162164
737.671	0.0162026
737.749	0.0162386
737.828	0.0161250
737.906	0.0161938
737.984	0.0163405
738.062	0.0161953
738.140	0.0162662
738.218	0.0162693
738.296	0.0162354
738.374	0.0161692
738.453	0.0160979
738.531	0.0161369
738.609	0.0161572
738.687	0.0161439
738.765	0.0162119
738.843	0.0161411
738.921	0.0162547
738.999	0.0161451
739.078	0.0162148
739.156	0.0161306
739.234	0.0162393
739.312	0.0160588
739.390	0.0160846
739.468	0.0161706
739.546	0.0162321
739.624	0.0160947
739.703	0.0162049
739.781	0.0162560
739.859	0.0160814
739.937	0.0161332
740.015	0.0161700
740.093	0.0160893
740.171	0.0162140
740.249	0.0160391
740.328	0.0161298
740.406	0.0161053
740.484	0.0160217
740.562	0.0160622
740.640	0.0161436
740.718	0.0160773
740.796	0.0160303
740.874	0.0161041
740.953	0.0161811
741.031	0.0161154
741.109	0.0161229
741.187	0.0160892
741.265	0.0162183
741.343	0.0161739
741.421	0.0161833
741.499	0.0161944
741.578	0.0160844
741.656	0.0160786
741.734	0.0161405
741.812	0.0158376
741.890	0.0162107
741.968	0.0162533
742.046	0.0160847
742.124	0.0162215
742.203	0.0162089
742.281	0.0161450
742.359	0.0160991
742.437	0.0160372
742.515	0.0161329
742.593	0.0161819
742.671	0.0163758
742.749	0.0162446
742.828	0.0161800
742.906	0.0160863
742.984	0.0162447
743.062	0.0160920
743.140	0.0161526
743.218	0.0162555
743.296	0.0162475
743.374	0.0162323
743.453	0.0162331
743.531	0.0161037
743.609	0.0161572
743.687	0.0162522
743.765	0.0161422
743.843	0.0160973
743.921	0.0162013
743.999	0.0161189
744.078	0.0162392
744.156	0.0162472
744.234	0.0161200
744.312	0.0161550
744.390	0.0161327
744.468	0.0161790
744.546	0.0162461
744.624	0.0161401
744.703	0.0159421
744.781	0.0160572
744.859	0.0162872
744.937	0.0162473
745.015	0.0161516
745.093	0.0161719
745.171	0.0162509
745.249	0.0160449
745.328	0.0160786
745.406	0.0160052
745.484	0.0161367
745.562	0.0160578
745.640	0.0160773
745.718	0.0159237
745.796	0.0161027
745.874	0.0160062
745.953	0.0160715
746.031	0.0162048
746.109	0.0162456
746.187	0.0161156
746.265	0.0159055
746.343	0.0161540
746.421	0.0160598
746.499	0.0160832
746.578	0.0160761
746.656	0.0160389
746.734	0.0161225
746.812	0.0160822
746.890	0.0160387
746.968	0.0160740
747.046	0.0161023
747.124	0.0160703
747.203	0.0160780
747.281	0.0161674
747.359	0.0161443
747.437	0.0162265
747.515	0.0161302
747.593	0.0161055
747.671	0.0160669
747.749	0.0162230
747.828	0.0161599
747.906	0.0161931
747.984	0.0161954
748.062	0.0158802
748.140	0.0159314
748.218	0.0160697
748.296	0.0161449
748.374	0.0161224
748.453	0.0161205
748.531	0.0159868
748.609	0.0160727
748.687	0.0160337
748.765	0.0161156
748.843	0.0160853
748.921	0.0161649
748.999	0.0159504
749.078	0.0159387
749.156	0.0159698
749.234	0.0160362
749.312	0.0159913
749.390	0.0159856
749.468	0.0161165
749.546	0.0160609
749.624	0.0160583
749.703	0.0160589
749.781	0.0162242
749.859	0.0161656
749.937	0.0162141
750.015	0.0162322
750.093	0.0162454
750.171	0.0162223
750.249	0.0162495
750.328	0.0162201
750.406	0.0162349
750.484	0.0161470
750.562	0.0161618
750.640	0.0161236
750.718	0.0159444
750.796	0.0160321
750.874	0.0160075
750.953	0.0160757
751.031	0.0160100
751.109	0.0159503
751.187	0.0158863
751.265	0.0161211
751.343	0.0159753
751.421	0.0159490
751.499	0.0159605
751.578	0.0161073
751.656	0.0161835
751.734	0.0160308
751.812	0.0160332
751.890	0.0161062
751.968	0.0161604
752.046	0.0160701
752.124	0.0161012
752.203	0.0161258
752.281	0.0161915
752.359	0.0159918
752.437	0.0160765
752.515	0.0161018
752.593	0.0159888
752.671	0.0161344
752.749	0.0160989
752.828	0.0162300
752.906	0.0160944
752.984	0.0161354
753.062	0.0159698
753.140	0.0158427
753.218	0.0159798
753.296	0.0160918
753.374	0.0160598
753.453	0.0159147
753.531	0.0158424
753.609	0.0159715
753.687	0.0158826
753.765	0.0159932
753.843	0.0159901
753.921	0.0159356
753.999	0.0158856
754.078	0.0158721
754.156	0.0157854
754.234	0.0160427
754.312	0.0160152
754.390	0.0157402
754.468	0.0159874
754.546	0.0160174
754.624	0.0159981
754.703	0.0159170
754.781	0.0159523
754.859	0.0159704
754.937	0.0158764
755.015	0.0160239
755.093	0.0159659
755.171	0.0159800
755.249	0.0161624
755.328	0.0160812
755.406	0.0160166
755.484	0.0160661
755.562	0.0162196
755.640	0.0160169
755.718	0.0159453
755.796	0.0161407
755.874	0.0160917
755.953	0.0160653
756.031	0.0161436
756.109	0.0161221
756.187	0.0160916
756.265	0.0159940
756.343	0.0161255
756.421	0.0159829
756.499	0.0159149
756.578	0.0160195
756.656	0.0161515
756.734	0.0160049
756.812	0.0158900
756.890	0.0159450
756.968	0.0160126
757.046	0.0158182
757.124	0.0161858
757.203	0.0158589
757.281	0.0159823
757.359	0.0159369
757.437	0.0159316
757.515	0.0160450
757.593	0.0159377
757.671	0.0158604
757.749	0.0159447
757.828	0.0159990
757.906	0.0159687
757.984	0.0159486
758.062	0.0158495
758.140	0.0160487
758.218	0.0160809
758.296	0.0160648
758.374	0.0160239
758.453	0.0159296
758.531	0.0161476
758.609	0.0161201
758.687	0.0161723
758.765	0.0162775
758.843	0.0161729
758.921	0.0162191
758.999	0.0161367
759.078	0.0160851
759.156	0.0161749
759.234	0.0161020
759.312	0.0161965
759.390	0.0160711
759.468	0.0158589
759.546	0.0159550
759.624	0.0160114
759.703	0.0159077
759.781	0.0159097
759.859	0.0160458
759.937	0.0160377
760.015	0.0160358
760.093	0.0160069
760.171	0.0160709
760.249	0.0160988
760.328	0.0159993
760.406	0.0161578
760.484	0.0160696
760.562	0.0159663
760.640	0.0159049
760.718	0.0159683
760.796	0.0160664
760.874	0.0160077
760.953	0.0159731
761.031	0.0160740
761.109	0.0158279
761.187	0.0159353
761.265	0.0160361
761.343	0.0159679
761.421	0.0160067
761.499	0.0159781
761.578	0.0159892
761.656	0.0160307
761.734	0.0160238
761.812	0.0160830
761.890	0.0161577
761.968	0.0161578
762.046	0.0160145
762.124	0.0161576
762.203	0.0161029
762.281	0.0162204
762.359	0.0162775
762.437	0.0162568
762.515	0.0162260
762.593	0.0163103
762.671	0.0161716
762.749	0.0163815
762.828	0.0163866
762.906	0.0162509
762.984	0.0162453
763.062	0.0164037
763.140	0.0163017
763.218	0.0161860
763.296	0.0162647
763.374	0.0161140
763.453	0.0162970
763.531	0.0163253
763.609	0.0162662
763.687	0.0163215
763.765	0.0162743
763.843	0.0162129
763.921	0.0162548
763.999	0.0162981
764.078	0.0162415
764.156	0.0163273
764.234	0.0162964
764.312	0.0161420
764.390	0.0161176
764.468	0.0160587
764.546	0.0160829
764.624	0.0160651
764.703	0.0161029
764.781	0.0159648
764.859	0.0159917
764.937	0.0159035
765.015	0.0159274
765.093	0.0160689
765.171	0.0159364
765.249	0.0159286
765.328	0.0160365
765.406	0.0159235
765.484	0.0159043
765.562	0.0159553
765.640	0.0158715
765.718	0.0158535
765.796	0.0158529
765.874	0.0158666
765.953	0.0159530
766.031	0.0158088
766.109	0.0158736
766.187	0.0159678
766.265	0.0158410
766.343	0.0158934
766.421	0.0159939
766.499	0.0159425
766.578	0.0159406
766.656	0.0162058
766.734	0.0161867
766.812	0.0161856
766.890	0.0162019
766.968	0.0162623
767.046	0.0162378
767.124	0.0162737
767.203	0.0161623
767.281	0.0162343
767.359	0.0163063
767.437	0.0163722
767.515	0.0161656
767.593	0.0162981
767.671	0.0163464
767.749	0.0164893
767.828	0.0164406
767.906	0.0162344
767.984	0.0164606
768.062	0.0164971
768.140	0.0164043
768.218	0.0164620
768.296	0.0164902
768.374	0.0162077
768.453	0.0162693
768.531	0.0161967
768.609	0.0160997
768.687	0.0159923
768.765	0.0160810
768.843	0.0161575
768.921	0.0160130
768.999	0.0159279
769.078	0.0158606
769.156	0.0158941
769.234	0.0159459
769.312	0.0157767
769.390	0.0160093
769.468	0.0158399
769.546	0.0158164
769.624	0.0157959
769.703	0.0158817
769.781	0.0158354
769.859	0.0159454
769.937	0.0160908
770.015	0.0160108
770.093	0.0160070
770.171	0.0161254
770.249	0.0161527
770.328	0.0162499
770.406	0.0161683
770.484	0.0162987
770.562	0.0162045
770.640	0.0163643
770.718	0.0164176
770.796	0.0162693
770.874	0.0164301
770.953	0.0163136
771.031	0.0161865
771.109	0.0163478
771.187	0.0163116
771.265	0.0162457
771.343	0.0163332
771.421	0.0161250
771.499	0.0162625
771.578	0.0161790
771.656	0.0162288
771.734	0.0162878
771.812	0.0163172
771.890	0.0163272
771.968	0.0162334
772.046	0.0163023
772.124	0.0163356
772.203	0.0163229
772.281	0.0161349
772.359	0.0162106
772.437	0.0162485
772.515	0.0160458
772.593	0.0161108
772.671	0.0160024
772.749	0.0160489
772.828	0.0159586
772.906	0.0158961
772.984	0.0159402
773.062	0.0159782
773.140	0.0160186
773.218	0.0159604
773.296	0.0161674
773.374	0.0161774
773.453	0.0160948
773.531	0.0161205
773.609	0.0161673
773.687	0.0160812
773.765	0.0161989
773.843	0.0160973
773.921	0.0161584
773.999	0.0161002
774.078	0.0161571
774.156	0.0162376
774.234	0.0160921
774.312	0.0162071
774.390	0.0161176
774.468	0.0162669
774.546	0.0161919
774.624	0.0160506
774.703	0.0161679
774.781	0.0161054
774.859	0.0160410
774.937	0.0160875
775.015	0.0160218
775.093	0.0158711
775.171	0.0159620
775.249	0.0160694
775.328	0.0159000
775.406	0.0159548
775.484	0.0160257
775.562	0.0161369
775.640	0.0162450
775.718	0.0161993
775.796	0.0161340
775.874	0.0162084
775.953	0.0163170
776.031	0.0163838
776.109	0.0163608
776.187	0.0164401
776.265	0.0163530
776.343	0.0162199
776.421	0.0164969
776.499	0.0162761
776.578	0.0162516
776.656	0.0162376
776.734	0.0162505
776.812	0.0162506
776.890	0.0161308
776.968	0.0160423
777.046	0.0159880
777.124	0.0159739
777.203	0.0159457
777.281	0.0158384
777.359	0.0156641
777.437	0.0157580
777.515	0.0156813
777.593	0.0157262
777.671	0.0156394
777.749	0.0155867
777.828	0.0155784
777.906	0.0154942
777.984	0.0156717
778.062	0.0156640
778.140	0.0156328
778.218	0.0156680
778.296	0.0157355
778.374	0.0157095
778.453	0.0158949
778.531	0.0158801
778.609	0.0159582
778.687	0.0160079
778.765	0.0162148
778.843	0.0161280
778.921	0.0162702
778.999	0.0162321
779.078	0.0162709
779.156	0.0164909
779.234	0.0165505
779.312	0.0164276
779.390	0.0162818
779.468	0.0163727
779.546	0.0164253
779.624	0.0162955
779.703	0.0160939
779.781	0.0160991
779.859	0.0161756
779.937	0.0161878
780.015	0.0161285
780.093	0.0159590
780.171	0.0160389
780.249	0.0159804
780.328	0.0159533
780.406	0.0161321
780.484	0.0161006
780.562	0.0161053
780.640	0.0161495
780.718	0.0161488
780.796	0.0160834
780.874	0.0162141
780.953	0.0161991
781.031	0.0161743
781.109	0.0162434
781.187	0.0161476
781.265	0.0163297
781.343	0.0162651
781.421	0.0162383
781.499	0.0161902
781.578	0.0162933
781.656	0.0164033
781.734	0.0163567
781.812	0.0161922
781.890	0.0162153
781.968	0.0162783
782.046	0.0160896
782.124	0.0160023
782.203	0.0160645
782.281	0.0159229
782.359	0.0160452
782.437	0.0159440
782.515	0.0157722
782.593	0.0157996
782.671	0.0156977
782.749	0.0157133
782.828	0.0156372
782.906	0.0154528
782.984	0.0154741
783.062	0.0155467
783.140	0.0155154
783.218	0.0155611
783.296	0.0154433
783.374	0.0155618
783.453	0.0155466
783.531	0.0157885
783.609	0.0158664
783.687	0.0158593
783.765	0.0159656
783.843	0.0161819
783.921	0.0162822
783.999	0.0163294
784.078	0.0163058
784.156	0.0164537
784.234	0.0166106
784.312	0.0165855
784.390	0.0165348
784.468	0.0166729
784.546	0.0166059
784.624	0.0165490
784.703	0.0165243
784.781	0.0166512
784.859	0.0164145
784.937	0.0164178
785.015	0.0164273
785.093	0.0163681
785.171	0.0164537
785.249	0.0163809
785.328	0.0163295
785.406	0.0162926
785.484	0.0161994
785.562	0.0161788
785.640	0.0160849
785.718	0.0159687
785.796	0.0161333
785.874	0.0159885
785.953	0.0158071
786.031	0.0158488
786.109	0.0158605
786.187	0.0156273
786.265	0.0156313
786.343	0.0155689
786.421	0.0156897
786.499	0.0156783
786.578	0.0156078
786.656	0.0158159
786.734	0.0157153
786.812	0.0158507
786.890	0.0157752
786.968	0.0158814
787.046	0.0157952
787.124	0.0159664
787.203	0.0158603
787.281	0.0158832
787.359	0.0158295
787.437	0.0160114
787.515	0.0158744
787.593	0.0159621
787.671	0.0160318
787.749	0.0160278
787.828	0.0160314
787.906	0.0159765
787.984	0.0159633
788.062	0.0160018
788.140	0.0161801
788.218	0.0161876
788.296	0.0163198
788.374	0.0163035
788.453	0.0162369
788.531	0.0162623
788.609	0.0163246
788.687	0.0162834
788.765	0.0163523
788.843	0.0164070
788.921	0.0162295
788.999	0.0163198
789.078	0.0162644
789.156	0.0161769
789.234	0.0162251
789.312	0.0162605
789.390	0.0161803
789.468	0.0160578
789.546	0.0160309
789.624	0.0162701
789.703	0.0162407
789.781	0.0160533
789.859	0.0161289
789.937	0.0161479
790.015	0.0160511
790.093	0.0160674
790.171	0.0161546
790.249	0.0160340
790.328	0.0160846
790.406	0.0160359
790.484	0.0159417
790.562	0.0158022
790.640	0.0158477
790.718	0.0158634
790.796	0.0158960
790.874	0.0157758
790.953	0.0159623
791.031	0.0159616
791.109	0.0157846
791.187	0.0157713
791.265	0.0158363
791.343	0.0158581
791.421	0.0159127
791.499	0.0160019
791.578	0.0159576
791.656	0.0160124
791.734	0.0160687
791.812	0.0162216
791.890	0.0162915
791.968	0.0163837
792.046	0.0163703
792.124	0.0163715
792.203	0.0164958
792.281	0.0165347
792.359	0.0167715
792.437	0.0165988
792.515	0.0167958
792.593	0.0166991
792.671	0.0166653
792.749	0.0166633
792.828	0.0166370
792.906	0.0166789
792.984	0.0165116
793.062	0.0166500
793.140	0.0164764
793.218	0.0163839
793.296	0.0164601
793.374	0.0163116
793.453	0.0163485
793.531	0.0161668
793.609	0.0163705
793.687	0.0162008
793.765	0.0160216
793.843	0.0160276
793.921	0.0158907
793.999	0.0158203
794.078	0.0158552
794.156	0.0158076
794.234	0.0158148
794.312	0.0157971
794.390	0.0156479
794.468	0.0156573
794.546	0.0156061
794.624	0.0156209
794.703	0.0157630
794.781	0.0157713
794.859	0.0157699
794.937	0.0156413
795.015	0.0158963
795.093	0.0158707
795.171	0.0159368
795.249	0.0160030
795.328	0.0160081
795.406	0.0160670
795.484	0.0161450
795.562	0.0160677
795.640	0.0159523
795.718	0.0160076
795.796	0.0161434
795.874	0.0162475
795.953	0.0162294
796.031	0.0163352
796.109	0.0162129
796.187	0.0161991
796.265	0.0163183
796.343	0.0163137
796.421	0.0164869
796.499	0.0166097
796.578	0.0166170
796.656	0.0165763
796.734	0.0166061
796.812	0.0167008
796.890	0.0166951
796.968	0.0166421
797.046	0.0166138
797.124	0.0166415
797.203	0.0166136
797.281	0.0166749
797.359	0.0163750
797.437	0.0164216
797.515	0.0165355
797.593	0.0161990
797.671	0.0161525
797.749	0.0160960
797.828	0.0159777
797.906	0.0159369
797.984	0.0158453
798.062	0.0158385
798.140	0.0157911
798.218	0.0154777
798.296	0.0156329
798.374	0.0155025
798.453	0.0154046
798.531	0.0154381
798.609	0.0154633
798.687	0.0156583
798.765	0.0153896
798.843	0.0156963
798.921	0.0157534
798.999	0.0157858
799.078	0.0157794
799.156	0.0158053
799.234	0.0160380
799.312	0.0161510
799.390	0.0161131
799.468	0.0161273
799.546	0.0160949
799.624	0.0161858
799.703	0.0162991
799.781	0.0162807
799.859	0.0162444
799.937	0.0162775
800.015	0.0164094
800.093	0.0164265
800.171	0.0163868
800.249	0.0165034
800.328	0.0163431
800.406	0.0163483
800.484	0.0163586
800.562	0.0165063
800.640	0.0165846
800.718	0.0164285
800.796	0.0162225
800.874	0.0163206
800.953	0.0162738
801.031	0.0162552
801.109	0.0162550
801.187	0.0162407
801.265	0.0163325
801.343	0.0162303
801.421	0.0160952
801.499	0.0160366
801.578	0.0159890
801.656	0.0160252
801.734	0.0161184
801.812	0.0160047
801.890	0.0159338
801.968	0.0158536
802.046	0.0158891
802.124	0.0158437
802.203	0.0160114
802.281	0.0159824
802.359	0.0159155
802.437	0.0158467
802.515	0.0158297
802.593	0.0159355
802.671	0.0159985
802.749	0.0158357
802.828	0.0158521
802.906	0.0159830
802.984	0.0158638
803.062	0.0159642
803.140	0.0159769
803.218	0.0160343
803.296	0.0159127
803.374	0.0158750
803.453	0.0159750
803.531	0.0160433
803.609	0.0160212
803.687	0.0160960
803.765	0.0162360
803.843	0.0161425
803.921	0.0161772
803.999	0.0162875
804.078	0.0162004
804.156	0.0162800
804.234	0.0163217
804.312	0.0164053
804.390	0.0165028
804.468	0.0164607
804.546	0.0165087
804.624	0.0164082
804.703	0.0163891
804.781	0.0165235
804.859	0.0165310
804.937	0.0164287
805.015	0.0164333
805.093	0.0161879
805.171	0.0162223
805.249	0.0163406
805.328	0.0159620
805.406	0.0160053
805.484	0.0160878
805.562	0.0159419
805.640	0.0158799
805.718	0.0159624
805.796	0.0156686
805.874	0.0156686
805.953	0.0156713
806.031	0.0155686
806.109	0.0155497
806.187	0.0155794
806.265	0.0155394
806.343	0.0154308
806.421	0.0155521
806.499	0.0155552
806.578	0.0156480
806.656	0.0157688
806.734	0.0158281
806.812	0.0157363
806.890	0.0160496
806.968	0.0159275
807.046	0.0159699
807.124	0.0161153
807.203	0.0160438
807.281	0.0161726
807.359	0.0161397
807.437	0.0162600
807.515	0.0164330
807.593	0.0162658
807.671	0.0163219
807.749	0.0162118
807.828	0.0163503
807.906	0.0164114
807.984	0.0164355
808.062	0.0165234
808.140	0.0163172
808.218	0.0164685
808.296	0.0163633
808.374	0.0164104
808.453	0.0164147
808.531	0.0163203
808.609	0.0164193
808.687	0.0162167
808.765	0.0161854
808.843	0.0162240
808.921	0.0161478
808.999	0.0159953
809.078	0.0160438
809.156	0.0161347
809.234	0.0160275
809.312	0.0159418
809.390	0.0159539
809.468	0.0159466
809.546	0.0160426
809.624	0.0159246
809.703	0.0159177
809.781	0.0159520
809.859	0.0159071
809.937	0.0158713
810.015	0.0159408
810.093	0.0159790
810.171	0.0159857
810.249	0.0159405
810.328	0.0158342
810.406	0.0158083
810.484	0.0157434
810.562	0.0157062
810.640	0.0158064
810.718	0.0158306
810.796	0.0158418
810.874	0.0158263
810.953	0.0159843
811.031	0.0160622
811.109	0.0160079
811.187	0.0162294
811.265	0.0160950
811.343	0.0163654
811.421	0.0162373
811.499	0.0163789
811.578	0.0163634
811.656	0.0162495
811.734	0.0163287
811.812	0.0164136
811.890	0.0163208
811.968	0.0164359
812.046	0.0163223
812.124	0.0163641
812.203	0.0163818
812.281	0.0163042
812.359	0.0162753
812.437	0.0163791
812.515	0.0161213
812.593	0.0161574
812.671	0.0162112
812.749	0.0161201
812.828	0.0162523
812.906	0.0160316
812.984	0.0160745
813.062	0.0159665
813.140	0.0160207
813.218	0.0162186
813.296	0.0161641
813.374	0.0161256
813.453	0.0162006
813.531	0.0160725
813.609	0.0160622
813.687	0.0160120
813.765	0.0160781
813.843	0.0158873
813.921	0.0159418
813.999	0.0158817
814.078	0.0158739
814.156	0.0159202
814.234	0.0158280
814.312	0.0158369
814.390	0.0158941
814.468	0.0159352
814.546	0.0159866
814.624	0.0159512
814.703	0.0159724
814.781	0.0160480
814.859	0.0160197
814.937	0.0159778
815.015	0.0160490
815.093	0.0162653
815.171	0.0162793
815.249	0.0163943
815.328	0.0164841
815.406	0.0164336
815.484	0.0163625
815.562	0.0163490
815.640	0.0165337
815.718	0.0166148
815.796	0.0164882
815.874	0.0164586
815.953	0.0164707
816.031	0.0164523
816.109	0.0165288
816.187	0.0163200
816.265	0.0163075
816.343	0.0162756
816.421	0.0162331
816.499	0.0162974
816.578	0.0162244
816.656	0.0161489
816.734	0.0161928
816.812	0.0160908
816.890	0.0159460
816.968	0.0160685
817.046	0.0159019
817.124	0.0159612
817.203	0.0158707
817.281	0.0159203
817.359	0.0157689
817.437	0.0157507
817.515	0.0157980
817.593	0.0157263
817.671	0.0158000
817.749	0.0157883
817.828	0.0158446
817.906	0.0157422
817.984	0.0157790
818.062	0.0158112
818.140	0.0158462
818.218	0.0157207
818.296	0.0158910
818.374	0.0158963
818.453	0.0159089
818.531	0.0158784
818.609	0.0159565
818.687	0.0159370
818.765	0.0161090
818.843	0.0160582
818.921	0.0161485
818.999	0.0162428
819.078	0.0164173
819.156	0.0163797
819.234	0.0163766
819.312	0.0164040
819.390	0.0162953
819.468	0.0161855
819.546	0.0163485
819.624	0.0163974
819.703	0.0163957
819.781	0.0164143
819.859	0.0164619
819.937	0.0163886
820.015	0.0163739
820.093	0.0164207
820.171	0.0163042
820.249	0.0164722
820.328	0.0161861
820.406	0.0160928
820.484	0.0161262
820.562	0.0161176
820.640	0.0158775
820.718	0.0158981
820.796	0.0158720
820.874	0.0158781
820.953	0.0158402
821.031	0.0157416
821.109	0.0155922
821.187	0.0156571
821.265	0.0156359
821.343	0.0156369
821.421	0.0156728
821.499	0.0157350
821.578	0.0157527
821.656	0.0158556
821.734	0.0157498
821.812	0.0160674
821.890	0.0160255
821.968	0.0161298
822.046	0.0161452
822.124	0.0161256
822.203	0.0163853
822.281	0.0162800
822.359	0.0161879
822.437	0.0163670
822.515	0.0164551
822.593	0.0162472
822.671	0.0161962
822.749	0.0161346
822.828	0.0162271
822.906	0.0162333
822.984	0.0160851
823.062	0.0160866
823.140	0.0160336
823.218	0.0159962
823.296	0.0160329
823.374	0.0159548
823.453	0.0159805
823.531	0.0159719
823.609	0.0158713
823.687	0.0158806
823.765	0.0159264
823.843	0.0158889
823.921	0.0158163
823.999	0.0157745
824.078	0.0158984
824.156	0.0158032
824.234	0.0158978
824.312	0.0158926
824.390	0.0158243
824.468	0.0160755
824.546	0.0159869
824.624	0.0159859
824.703	0.0159566
824.781	0.0159912
824.859	0.0159713
824.937	0.0159055
825.015	0.0160052
825.093	0.0160963
825.171	0.0162939
825.249	0.0160678
825.328	0.0161050
825.406	0.0163419
825.484	0.0162636
825.562	0.0162776
825.640	0.0162768
825.718	0.0163516
825.796	0.0163330
825.874	0.0162693
825.953	0.0162611
826.031	0.0163759
826.109	0.0162591
826.187	0.0162379
826.265	0.0162977
826.343	0.0162904
826.421	0.0161660
826.499	0.0163306
826.578	0.0160770
826.656	0.0160466
826.734	0.0162045
826.812	0.0160369
826.890	0.0161025
826.968	0.0161711
827.046	0.0161386
827.124	0.0162410
827.203	0.0161629
827.281	0.0159344
827.359	0.0159372
827.437	0.0160512
827.515	0.0160679
827.593	0.0159680
827.671	0.0159245
827.749	0.0159155
827.828	0.0158626
827.906	0.0157227
827.984	0.0158008
828.062	0.0158508
828.140	0.0156889
828.218	0.0157365
828.296	0.0157529
828.374	0.0157269
828.453	0.0156577
828.531	0.0158487
828.609	0.0158173
828.687	0.0159213
828.765	0.0161124
828.843	0.0161175
828.921	0.0160442
828.999	0.0161914
829.078	0.0162563
829.156	0.0162206
829.234	0.0163733
829.312	0.0162199
829.390	0.0162856
829.468	0.0163246
829.546	0.0163057
829.624	0.0161803
829.703	0.0163960
829.781	0.0162649
829.859	0.0161151
829.937	0.0160838
830.015	0.0161680
830.093	0.0161756
830.171	0.0160693
830.249	0.0160895
830.328	0.0161021
830.406	0.0161121
830.484	0.0160322
830.562	0.0160491
830.640	0.0161829
830.718	0.0161057
830.796	0.0160840
830.874	0.0160948
830.953	0.0161681
831.031	0.0160713
831.109	0.0161160
831.187	0.0159711
831.265	0.0160654
831.343	0.0160441
831.421	0.0161717
831.499	0.0161063
831.578	0.0161652
831.656	0.0160316
831.734	0.0161704
831.812	0.0161684
831.890	0.0160851
831.968	0.0160851
832.046	0.0161526
832.124	0.0162712
832.203	0.0161869
832.281	0.0162524
832.359	0.0162499
832.437	0.0161590
832.515	0.0162000
832.593	0.0162488
832.671	0.0160787
832.749	0.0161531
832.828	0.0161272
832.906	0.0160855
832.984	0.0161137
833.062	0.0160338
833.140	0.0158563
833.218	0.0158740
833.296	0.0159345
833.374	0.0157744
833.453	0.0157500
833.531	0.0156800
833.609	0.0156387
833.687	0.0158114
833.765	0.0156291
833.843	0.0155916
833.921	0.0156459
833.999	0.0157429
834.078	0.0157302
834.156	0.0157357
834.234	0.0159441
834.312	0.0159524
834.390	0.0158695
834.468	0.0159560
834.546	0.0159468
834.624	0.0159100
834.703	0.0160238
834.781	0.0161530
834.859	0.0161965
834.937	0.0161003
835.015	0.0162858
835.093	0.0163521
835.171	0.0162653
835.249	0.0163811
835.328	0.0164298
835.406	0.0166233
835.484	0.0166106
835.562	0.0165697
835.640	0.0165904
835.718	0.0166041
835.796	0.0165788
835.874	0.0165768
835.953	0.0165298
836.031	0.0164638
836.109	0.0163329
836.187	0.0163645
836.265	0.0161876
836.343	0.0161604
836.421	0.0160374
836.499	0.0158453
836.578	0.0159219
836.656	0.0157398
836.734	0.0156361
836.812	0.0156703
836.890	0.0157011
836.968	0.0155099
837.046	0.0154322
837.124	0.0154083
837.203	0.0155951
837.281	0.0155327
837.359	0.0156326
837.437	0.0155894
837.515	0.0156864
837.593	0.0157788
837.671	0.0156337
837.749	0.0159073
837.828	0.0158907
837.906	0.0159809
837.984	0.0159867
838.062	0.0159589
838.140	0.0161287
838.218	0.0160973
838.296	0.0161263
838.374	0.0162167
838.453	0.0163300
838.531	0.0162445
838.609	0.0163519
838.687	0.0163686
838.765	0.0165031
838.843	0.0164788
838.921	0.0166272
838.999	0.0165636
839.078	0.0163959
839.156	0.0164317
839.234	0.0165086
839.312	0.0163542
839.390	0.0162723
839.468	0.0163428
839.546	0.0162511
839.624	0.0161182
839.703	0.0161185
839.781	0.0160352
839.859	0.0158294
839.937	0.0157132
840.015	0.0157732
840.093	0.0156999
840.171	0.0155817
840.249	0.0154456
840.328	0.0156639
840.406	0.0154884
840.484	0.0154626
840.562	0.0154906
840.640	0.0154476
840.718	0.0154488
840.796	0.0156676
840.874	0.0157728
840.953	0.0158533
841.031	0.0157462
841.109	0.0157746
841.187	0.0161167
841.265	0.0160226
841.343	0.0160074
841.421	0.0161288
841.499	0.0161350
841.578	0.0162109
841.656	0.0162017
841.734	0.0162623
841.812	0.0163170
841.890	0.0164084
841.968	0.0164551
842.046	0.0163880
842.124	0.0165186
842.203	0.0165503
842.281	0.0163996
842.359	0.0164635
842.437	0.0163811
842.515	0.0163955
842.593	0.0163188
842.671	0.0163544
842.749	0.0162884
842.828	0.0162758
842.906	0.0163605
842.984	0.0163920
843.062	0.0162190
843.140	0.0160720
843.218	0.0160294
843.296	0.0160384
843.374	0.0158566
843.453	0.0159418
843.531	0.0158667
843.609	0.0158508
843.687	0.0158749
843.765	0.0158037
843.843	0.0156454
843.921	0.0155540
843.999	0.0157069
844.078	0.0156097
844.156	0.0155659
844.234	0.0154991
844.312	0.0155436
844.390	0.0155875
844.468	0.0154831
844.546	0.0155900
844.624	0.0156013
844.703	0.0157631
844.781	0.0157439
844.859	0.0157482
844.937	0.0158578
845.015	0.0157811
845.093	0.0159417
845.171	0.0158638
845.249	0.0159062
845.328	0.0159991
845.406	0.0162075
845.484	0.0160273
845.562	0.0160728
845.640	0.0160941
845.718	0.0161642
845.796	0.0160683
845.874	0.0162757
845.953	0.0163480
846.031	0.0161424
846.109	0.0162629
846.187	0.0162370
846.265	0.0163605
846.343	0.0162698
846.421	0.0163179
846.499	0.0162799
846.578	0.0163769
846.656	0.0163307
846.734	0.0162860
846.812	0.0162106
846.890	0.0164645
846.968	0.0161872
847.046	0.0162584
847.124	0.0162006
847.203	0.0162482
847.281	0.0162448
847.359	0.0161993
847.437	0.0162022
847.515	0.0161613
847.593	0.0163155
847.671	0.0163557
847.749	0.0162002
847.828	0.0162675
847.906	0.0161994
847.984	0.0161952
848.062	0.0161803
848.140	0.0161683
848.218	0.0161567
848.296	0.0160818
848.374	0.0161366
848.453	0.0160268
848.531	0.0159841
848.609	0.0159755
848.687	0.0160435
848.765	0.0159430
848.843	0.0158187
848.921	0.0158638
848.999	0.0158130
849.078	0.0157416
849.156	0.0157774
849.234	0.0158254
849.312	0.0157989
849.390	0.0157594
849.468	0.0157732
849.546	0.0158686
849.624	0.0158379
849.703	0.0159632
849.781	0.0157484
849.859	0.0159576
849.937	0.0160621
850.015	0.0159801
850.093	0.0159119
850.171	0.0159645
850.249	0.0160386
850.328	0.0162235
850.406	0.0162312
850.484	0.0162025
850.562	0.0162273
850.640	0.0162601
850.718	0.0162033
850.796	0.0162978
850.874	0.0161932
850.953	0.0162494
851.031	0.0162770
851.109	0.0164221
851.187	0.0164808
851.265	0.0164216
851.343	0.0163488
851.421	0.0163438
851.499	0.0165785
851.578	0.0163362
851.656	0.0163080
851.734	0.0163251
851.812	0.0163095
851.890	0.0163199
851.968	0.0163411
852.046	0.0162774
852.124	0.0162974
852.203	0.0163806
852.281	0.0161639
852.359	0.0162180
852.437	0.0161131
852.515	0.0160484
852.593	0.0162384
852.671	0.0162191
852.749	0.0161456
852.828	0.0159220
852.906	0.0159724
852.984	0.0158430
853.062	0.0159925
853.140	0.0159321
853.218	0.0158786
853.296	0.0158409
853.374	0.0159782
853.453	0.0158076
853.531	0.0157999
853.609	0.0158037
853.687	0.0158356
853.765	0.0158723
853.843	0.0159173
853.921	0.0159074
853.999	0.0157839
854.078	0.0158640
854.156	0.0161053
854.234	0.0159285
854.312	0.0159956
854.390	0.0160190
854.468	0.0159615
854.546	0.0162099
854.624	0.0162491
854.703	0.0161343
854.781	0.0162511
854.859	0.0163080
854.937	0.0162878
855.015	0.0163123
855.093	0.0163551
855.171	0.0164746
855.249	0.0162849
855.328	0.0164594
855.406	0.0163663
855.484	0.0163560
855.562	0.0163168
855.640	0.0164590
855.718	0.0164152
855.796	0.0162670
855.874	0.0161317
855.953	0.0161713
856.031	0.0160686
856.109	0.0161996
856.187	0.0160480
856.265	0.0161661
856.343	0.0161044
856.421	0.0159606
856.499	0.0158294
856.578	0.0160003
856.656	0.0159816
856.734	0.0159527
856.812	0.0159381
856.890	0.0158886
856.968	0.0159161
857.046	0.0160812
857.124	0.0158744
857.203	0.0158974
857.281	0.0159166
857.359	0.0158793
857.437	0.0159772
857.515	0.0160757
857.593	0.0159505
857.671	0.0161808
857.749	0.0160316
857.828	0.0161674
857.906	0.0161272
857.984	0.0162343
858.062	0.0161943
858.140	0.0161010
858.218	0.0161361
858.296	0.0162954
858.374	0.0161226
858.453	0.0160864
858.531	0.0162080
858.609	0.0162269
858.687	0.0161759
858.765	0.0160504
858.843	0.0161124
858.921	0.0162765
858.999	0.0162416
859.078	0.0161877
859.156	0.0161909
859.234	0.0161204
859.312	0.0161298
859.390	0.0162015
859.468	0.0161451
859.546	0.0161283
859.624	0.0161209
859.703	0.0160414
859.781	0.0162592
859.859	0.0162479
859.937	0.0161520
860.015	0.0161452
860.093	0.0159802
860.171	0.0159927
860.249	0.0160583
860.328	0.0160224
860.406	0.0160004
860.484	0.0160036
860.562	0.0157702
860.640	0.0158558
860.718	0.0158989
860.796	0.0158765
860.874	0.0157610
860.953	0.0157755
861.031	0.0157481
861.109	0.0160979
861.187	0.0159740
861.265	0.0160379
861.343	0.0160716
861.421	0.0159153
861.499	0.0161380
861.578	0.0160422
861.656	0.0160754
861.734	0.0160931
861.812	0.0161182
861.890	0.0160629
861.968	0.0161449
862.046	0.0162894
862.124	0.0160639
862.203	0.0160324
862.281	0.0161385
862.359	0.0161579
862.437	0.0161121
862.515	0.0159409
862.593	0.0160130
862.671	0.0162128
862.749	0.0159849
862.828	0.0160160
862.906	0.0160390
862.984	0.0161890
863.062	0.0161391
863.140	0.0159177
863.218	0.0160358
863.296	0.0161249
863.374	0.0160025
863.453	0.0160229
863.531	0.0160065
863.609	0.0160903
863.687	0.0159073
863.765	0.0159422
863.843	0.0159204
863.921	0.0159953
863.999	0.0159518
864.078	0.0160203
864.156	0.0159859
864.234	0.0160809
864.312	0.0160258
864.390	0.0160353
864.468	0.0159553
864.546	0.0159243
864.624	0.0160347
864.703	0.0161204
864.781	0.0161190
864.859	0.0160075
864.937	0.0160737
865.015	0.0161269
865.093	0.0160675
865.171	0.0160333
865.249	0.0160889
865.328	0.0160751
865.406	0.0160945
865.484	0.0161223
865.562	0.0159950
865.640	0.0160193
865.718	0.0161596
865.796	0.0160518
865.874	0.0160130
865.953	0.0160828
866.031	0.0161474
866.109	0.0161259
866.187	0.0161349
866.265	0.0160928
866.343	0.0160351
866.421	0.0161965
866.499	0.0161874
866.578	0.0160282
866.656	0.0160856
866.734	0.0160005
866.812	0.0160086
866.890	0.0160950
866.968	0.0162270
867.046	0.0161442
867.124	0.0160371
867.203	0.0161943
867.281	0.0161899
867.359	0.0162955
867.437	0.0162392
867.515	0.0163354
867.593	0.0162652
867.671	0.0162627
867.749	0.0164306
867.828	0.0163417
867.906	0.0162638
867.984	0.0163821
868.062	0.0161880
868.140	0.0162927
868.218	0.0161811
868.296	0.0162697
868.374	0.0163113
868.453	0.0162053
868.531	0.0161142
868.609	0.0162165
868.687	0.0162285
868.765	0.0161125
868.843	0.0161942
868.921	0.0161026
868.999	0.0161301
869.078	0.0161496
869.156	0.0161456
869.234	0.0162576
869.312	0.0163313
869.390	0.0162180
869.468	0.0162738
869.546	0.0162814
869.624	0.0163393
869.703	0.0162527
869.781	0.0162275
869.859	0.0163492
869.937	0.0162540
870.015	0.0162141
870.093	0.0162143
870.171	0.0161885
870.249	0.0162596
870.328	0.0161577
870.406	0.0162151
870.484	0.0161228
870.562	0.0159566
870.640	0.0160345
870.718	0.0161816
870.796	0.0160203
870.874	0.0159797
870.953	0.0160379
871.031	0.0160618
871.109	0.0160656
871.187	0.0160893
871.265	0.0161351
871.343	0.0161432
871.421	0.0160468
871.499	0.0160529
871.578	0.0160464
871.656	0.0162108
871.734	0.0161040
871.812	0.0159509
871.890	0.0161309
871.968	0.0161270
872.046	0.0160123
872.124	0.0161406
872.203	0.0161596
872.281	0.0160461
872.359	0.0161195
872.437	0.0160309
872.515	0.0161043
872.593	0.0163427
872.671	0.0161686
872.749	0.0160865
872.828	0.0161621
872.906	0.0162190
872.984	0.0160371
873.062	0.0160510
873.140	0.0161299
873.218	0.0160883
873.296	0.0161472
873.374	0.0161713
873.453	0.0161809
873.531	0.0160492
873.609	0.0161228
873.687	0.0161562
873.765	0.0160229
873.843	0.0161333
873.921	0.0160739
873.999	0.0161012
874.078	0.0161951
874.156	0.0160905
874.234	0.0160258
874.312	0.0160944
874.390	0.0160930
874.468	0.0161359
874.546	0.0161412
874.624	0.0160671
874.703	0.0162502
874.781	0.0161855
874.859	0.0161370
874.937	0.0161204
875.015	0.0160880
875.093	0.0162683
875.171	0.0160847
875.249	0.0161716
875.328	0.0161676
875.406	0.0160952
875.484	0.0161465
875.562	0.0162501
875.640	0.0161269
875.718	0.0162047
875.796	0.0160963
875.874	0.0162111
875.953	0.0162148
876.031	0.0161193
876.109	0.0161241
876.187	0.0162662
876.265	0.0160726
876.343	0.0161628
876.421	0.0163451
876.499	0.0162518
876.578	0.0162095
876.656	0.0161405
876.734	0.0162234
876.812	0.0161586
876.890	0.0161971
876.968	0.0162305
877.046	0.0160881
877.124	0.0161996
877.203	0.0162547
877.281	0.0161301
877.359	0.0160400
877.437	0.0161150
877.515	0.0159742
877.593	0.0159995
877.671	0.0161095
877.749	0.0160992
877.828	0.0161586
877.906	0.0162945
877.984	0.0161344
878.062	0.0161115
878.140	0.0161340
878.218	0.0161002
878.296	0.0160889
878.374	0.0161077
878.453	0.0161355
878.531	0.0162176
878.609	0.0160760
878.687	0.0162150
878.765	0.0159881
878.843	0.0161198
878.921	0.0162717
878.999	0.0162259
879.078	0.0161150
879.156	0.0161317
879.234	0.0161896
879.312	0.0160307
879.390	0.0161517
879.468	0.0161353
879.546	0.0161767
879.624	0.0160770
879.703	0.0159590
879.781	0.0160970
879.859	0.0161477
879.937	0.0160373
880.015	0.0159357
880.093	0.0161775
880.171	0.0160960
880.249	0.0160574
880.328	0.0160693
880.406	0.0159835
880.484	0.0161565
880.562	0.0160316
880.640	0.0158803
880.718	0.0161383
880.796	0.0160501
880.874	0.0162370
880.953	0.0160840
881.031	0.0159312
881.109	0.0159520
881.187	0.0160335
881.265	0.0159389
881.343	0.0159952
881.421	0.0161957
881.499	0.0160175
881.578	0.0162041
881.656	0.0160229
881.734	0.0160358
881.812	0.0161265
881.890	0.0160568
881.968	0.0160330
882.046	0.0161791
882.124	0.0160603
882.203	0.0160386
882.281	0.0160069
882.359	0.0160260
882.437	0.0160394
882.515	0.0159023
882.593	0.0159860
882.671	0.0159222
882.749	0.0159007
882.828	0.0158406
882.906	0.0159005
882.984	0.0160031
883.062	0.0159662
883.140	0.0159430
883.218	0.0160094
883.296	0.0158948
883.374	0.0159532
883.453	0.0159591
883.531	0.0160535
883.609	0.0160133
883.687	0.0160965
883.765	0.0160267
883.843	0.0159747
883.921	0.0160079
883.999	0.0160420
884.078	0.0161071
884.156	0.0160399
884.234	0.0160786
884.312	0.0159883
884.390	0.0160052
884.468	0.0162107
884.546	0.0161341
884.624	0.0161026
884.703	0.0161180
884.781	0.0161912
884.859	0.0162692
884.937	0.0162823
885.015	0.0162264
885.093	0.0159461
885.171	0.0160963
885.249	0.0161782
885.328	0.0161860
885.406	0.0159871
885.484	0.0160744
885.562	0.0160689
885.640	0.0159662
885.718	0.0160779
885.796	0.0160076
885.874	0.0160391
885.953	0.0159558
886.031	0.0159549
886.109	0.0160568
886.187	0.0160462
886.265	0.0159851
886.343	0.0159908
886.421	0.0158121
886.499	0.0160364
886.578	0.0162356
886.656	0.0160889
886.734	0.0161140
886.812	0.0159007
886.890	0.0161536
886.968	0.0160745
887.046	0.0159772
887.124	0.0160772
887.203	0.0160919
887.281	0.0160290
887.359	0.0161491
887.437	0.0159987
887.515	0.0159042
887.593	0.0161125
887.671	0.0159864
887.749	0.0159972
887.828	0.0160307
887.906	0.0160278
887.984	0.0161642
888.062	0.0160694
888.140	0.0161841
888.218	0.0161771
888.296	0.0160854
888.374	0.0161184
888.453	0.0160188
888.531	0.0160307
888.609	0.0162569
888.687	0.0161448
888.765	0.0161770
888.843	0.0162231
888.921	0.0162126
888.999	0.0160843
889.078	0.0162504
889.156	0.0162827
889.234	0.0161201
889.312	0.0160958
889.390	0.0162611
889.468	0.0162724
889.546	0.0160960
889.624	0.0159982
889.703	0.0160596
889.781	0.0161017
889.859	0.0161068
889.937	0.0161240
890.015	0.0160515
890.093	0.0159877
890.171	0.0160674
890.249	0.0161202
890.328	0.0160613
890.406	0.0159005
890.484	0.0160926
890.562	0.0159559
890.640	0.0160638
890.718	0.0160363
890.796	0.0161076
890.874	0.0161346
890.953	0.0160037
891.031	0.0160303
891.109	0.0160236
891.187	0.0161729
891.265	0.0161640
891.343	0.0160968
891.421	0.0161153
891.499	0.0162356
891.578	0.0161133
891.656	0.0161198
891.734	0.0162457
891.812	0.0161662
891.890	0.0162321
891.968	0.0161159
892.046	0.0161608
892.124	0.0162014
892.203	0.0161308
892.281	0.0161489
892.359	0.0161330
892.437	0.0161817
892.515	0.0161712
892.593	0.0160230
892.671	0.0162325
892.749	0.0162330
892.828	0.0161314
892.906	0.0161772
892.984	0.0162587
893.062	0.0162247
893.140	0.0161280
893.218	0.0162117
893.296	0.0161852
893.374	0.0162656
893.453	0.0162540
893.531	0.0162682
893.609	0.0163571
893.687	0.0164771
893.765	0.0162814
893.843	0.0162397
893.921	0.0164099
893.999	0.0163112
894.078	0.0163651
894.156	0.0162957
894.234	0.0163445
894.312	0.0162691
894.390	0.0163265
894.468	0.0164024
894.546	0.0162740
894.624	0.0163000
894.703	0.0163074
894.781	0.0164111
894.859	0.0161672
894.937	0.0162814
895.015	0.0161485
895.093	0.0160979
895.171	0.0162022
895.249	0.0161665
895.328	0.0161624
895.406	0.0161451
895.484	0.0162456
895.562	0.0162109
895.640	0.0161080
895.718	0.0160564
895.796	0.0161707
895.874	0.0161968
895.953	0.0161383
896.031	0.0162280
896.109	0.0161206
896.187	0.0161649
896.265	0.0161674
896.343	0.0160686
896.421	0.0161674
896.499	0.0159561
896.578	0.0160439
896.656	0.0162228
896.734	0.0160586
896.812	0.0160902
896.890	0.0160220
896.968	0.0160606
897.046	0.0160529
897.124	0.0160256
897.203	0.0160925
897.281	0.0161396
897.359	0.0161582
897.437	0.0160359
897.515	0.0160766
897.593	0.0161198
897.671	0.0160908
897.749	0.0161626
897.828	0.0159606
897.906	0.0159524
897.984	0.0161467
898.062	0.0160055
898.140	0.0159348
898.218	0.0160000
898.296	0.0159160
898.374	0.0160006
898.453	0.0160436
898.531	0.0160914
898.609	0.0160778
898.687	0.0160424
898.765	0.0160766
898.843	0.0160166
898.921	0.0160693
898.999	0.0162911
899.078	0.0160901
899.156	0.0161540
899.234	0.0162634
899.312	0.0161523
899.390	0.0160816
899.468	0.0161613
899.546	0.0162211
899.624	0.0161890
899.703	0.0159733
899.781	0.0162448
899.859	0.0162620
899.937	0.0160953
900.015	0.0160613
900.093	0.0162065
900.171	0.0161726
900.249	0.0161249
900.328	0.0161561
900.406	0.0160916
900.484	0.0159918
900.562	0.0160915
900.640	0.0161529
900.718	0.0160185
900.796	0.0160768
900.874	0.0161996
900.953	0.0160638
901.031	0.0160649
901.109	0.0160831
901.187	0.0160458
901.265	0.0161801
901.343	0.0162074
901.421	0.0162323
901.499	0.0162496
901.578	0.0162961
901.656	0.0161933
901.734	0.0161636
901.812	0.0162794
901.890	0.0160847
901.968	0.0162685
902.046	0.0162727
902.124	0.0162382
902.203	0.0163480
902.281	0.0162935
902.359	0.0162944
902.437	0.0161919
902.515	0.0161687
902.593	0.0161460
902.671	0.0163354
902.749	0.0161581
902.828	0.0160697
902.906	0.0161058
902.984	0.0161863
903.062	0.0161129
903.140	0.0161239
903.218	0.0161597
903.296	0.0160857
903.374	0.0161602
903.453	0.0161691
903.531	0.0161456
903.609	0.0158852
903.687	0.0159447
903.765	0.0161359
903.843	0.0160040
903.921	0.0161667
903.999	0.0160056
904.078	0.0161019
904.156	0.0161913
904.234	0.0162057
904.312	0.0160934
904.390	0.0161363
904.468	0.0162909
904.546	0.0163033
904.624	0.0163257
904.703	0.0161752
904.781	0.0161812
904.859	0.0162812
904.937	0.0163140
905.015	0.0161943
905.093	0.0162909
905.171	0.0162202
905.249	0.0163247
905.328	0.0161453
905.406	0.0161229
905.484	0.0162715
905.562	0.0160956
905.640	0.0162164
905.718	0.0160399
905.796	0.0158958
905.874	0.0160656
905.953	0.0159790
906.031	0.0159064
906.109	0.0160278
906.187	0.0159537
906.265	0.0158138
906.343	0.0158292
906.421	0.0160208
906.499	0.0160102
906.578	0.0158524
906.656	0.0157916
906.734	0.0158281
906.812	0.0159089
906.890	0.0158986
906.968	0.0158702
907.046	0.0158084
907.124	0.0158389
907.203	0.0159589
907.281	0.0159113
907.359	0.0158617
907.437	0.0160344
907.515	0.0160744
907.593	0.0162006
907.671	0.0160638
907.749	0.0159596
907.828	0.0160377
907.906	0.0160423
907.984	0.0162923
908.062	0.0160489
908.140	0.0161366
908.218	0.0160943
908.296	0.0161508
908.374	0.0160912
908.453	0.0160898
908.531	0.0159681
908.609	0.0158873
908.687	0.0159087
908.765	0.0159026
908.843	0.0161040
908.921	0.0158621
908.999	0.0158880
909.078	0.0159203
909.156	0.0159793
909.234	0.0159112
909.312	0.0159299
909.390	0.0158862
909.468	0.0160072
909.546	0.0159646
909.624	0.0159040
909.703	0.0158907
909.781	0.0160432
909.859	0.0161005
909.937	0.0160337
910.015	0.0162459
910.093	0.0162217
910.171	0.0158817
910.249	0.0160771
910.328	0.0161575
910.406	0.0161127
910.484	0.0162922
910.562	0.0161694
910.640	0.0161526
910.718	0.0163316
910.796	0.0162252
910.874	0.0161181
910.953	0.0160890
911.031	0.0161417
911.109	0.0161983
911.187	0.0160056
911.265	0.0160189
911.343	0.0160204
911.421	0.0160931
911.499	0.0160357
911.578	0.0160504
911.656	0.0161691
911.734	0.0160809
911.812	0.0160426
911.890	0.0160462
911.968	0.0160586
912.046	0.0160627
912.124	0.0160384
912.203	0.0159674
912.281	0.0160658
912.359	0.0160188
912.437	0.0160223
912.515	0.0159484
912.593	0.0159864
912.671	0.0161946
912.749	0.0161387
912.828	0.0160339
912.906	0.0161986
912.984	0.0161745
913.062	0.0160828
913.140	0.0161520
913.218	0.0162378
913.296	0.0162157
913.374	0.0161642
913.453	0.0161042
913.531	0.0162457
913.609	0.0161105
913.687	0.0161095
913.765	0.0160698
913.843	0.0161967
913.921	0.0160328
913.999	0.0160931
914.078	0.0160673
914.156	0.0159900
914.234	0.0160461
914.312	0.0160151
914.390	0.0161282
914.468	0.0159679
914.546	0.0158676
914.624	0.0160970
914.703	0.0159805
914.781	0.0159361
914.859	0.0160348
914.937	0.0159981
915.015	0.0160058
915.093	0.0159092
915.171	0.0159209
915.249	0.0158694
915.328	0.0160345
915.406	0.0158954
915.484	0.0159265
915.562	0.0160184
915.640	0.0158556
915.718	0.0160408
915.796	0.0160720
915.874	0.0161371
915.953	0.0160369
916.031	0.0160299
916.109	0.0159864
916.187	0.0160484
916.265	0.0160844
916.343	0.0161340
916.421	0.0160387
916.499	0.0160885
916.578	0.0161434
916.656	0.0160932
916.734	0.0162057
916.812	0.0160461
916.890	0.0161591
916.968	0.0160869
917.046	0.0161263
917.124	0.0160516
917.203	0.0160791
917.281	0.0160348
917.359	0.0160485
917.437	0.0160003
917.515	0.0162096
917.593	0.0160439
917.671	0.0160148
917.749	0.0160018
917.828	0.0160332
917.906	0.0162841
917.984	0.0160647
918.062	0.0159686
918.140	0.0161333
918.218	0.0161288
918.296	0.0160680
918.374	0.0161482
918.453	0.0161140
918.531	0.0160339
918.609	0.0161708
918.687	0.0159661
918.765	0.0161884
918.843	0.0162472
918.921	0.0160854
918.999	0.0161707
919.078	0.0161026
919.156	0.0161478
919.234	0.0161261
919.312	0.0160694
919.390	0.0161328
919.468	0.0161598
919.546	0.0162109
919.624	0.0161609
919.703	0.0160310
919.781	0.0162131
919.859	0.0161917
919.937	0.0162288
