06/10/2022	19:00:00	Ver.	4.1	UNKNOWN
Optical Delay	600.015094	Delta X		0.078125	Sweeps	1	Scan Rate	0/0
Coordinates	Axis 1	NaN	Axis 2	NaN	Axis 3	NaN	Axis 4	NaN	Axis 5	NaN	Axis 6	0.000000
TX Power	0.000000	RX Power	0.000000

600.015	0.0157156
600.093	0.0156977
600.171	0.0156299
600.249	0.0156420
600.328	0.0155707
600.406	0.0156907
600.484	0.0156908
600.562	0.0157028
600.640	0.0157570
600.718	0.0156089
600.796	0.0158430
600.874	0.0157143
600.953	0.0156710
601.031	0.0157075
601.109	0.0157337
601.187	0.0156303
601.265	0.0156770
601.343	0.0158100
601.421	0.0158150
601.499	0.0158094
601.578	0.0157465
601.656	0.0158446
601.734	0.0158034
601.812	0.0157266
601.890	0.0158215
601.968	0.0156292
602.046	0.0157948
602.124	0.0157207
602.203	0.0157822
602.281	0.0157952
602.359	0.0156448
602.437	0.0157648
602.515	0.0157497
602.593	0.0157693
602.671	0.0157371
602.749	0.0158407
602.828	0.0157387
602.906	0.0157901
602.984	0.0158490
603.062	0.0158180
603.140	0.0158762
603.218	0.0158138
603.296	0.0158213
603.374	0.0158750
603.453	0.0157780
603.531	0.0158464
603.609	0.0158657
603.687	0.0156771
603.765	0.0158481
603.843	0.0157674
603.921	0.0158921
603.999	0.0159093
604.078	0.0158846
604.156	0.0158711
604.234	0.0157175
604.312	0.0157810
604.390	0.0157645
604.468	0.0157528
604.546	0.0158344
604.624	0.0158585
604.703	0.0158382
604.781	0.0158604
604.859	0.0157926
604.937	0.0158205
605.015	0.0159573
605.093	0.0158590
605.171	0.0159061
605.249	0.0159393
605.328	0.0158984
605.406	0.0159090
605.484	0.0158825
605.562	0.0157816
605.640	0.0159633
605.718	0.0158185
605.796	0.0158649
605.874	0.0157399
605.953	0.0157104
606.031	0.0157700
606.109	0.0157681
606.187	0.0159410
606.265	0.0158349
606.343	0.0157515
606.421	0.0158746
606.499	0.0158366
606.578	0.0158739
606.656	0.0158973
606.734	0.0158273
606.812	0.0158707
606.890	0.0157565
606.968	0.0157343
607.046	0.0160316
607.124	0.0158852
607.203	0.0158391
607.281	0.0157292
607.359	0.0157609
607.437	0.0159278
607.515	0.0158225
607.593	0.0157262
607.671	0.0158091
607.749	0.0158602
607.828	0.0158116
607.906	0.0156831
607.984	0.0158244
608.062	0.0157745
608.140	0.0159705
608.218	0.0157771
608.296	0.0157777
608.374	0.0158878
608.453	0.0157841
608.531	0.0158189
608.609	0.0158168
608.687	0.0158553
608.765	0.0158209
608.843	0.0157991
608.921	0.0158276
608.999	0.0157613
609.078	0.0157961
609.156	0.0157775
609.234	0.0158924
609.312	0.0157667
609.390	0.0159372
609.468	0.0157618
609.546	0.0157605
609.624	0.0158377
609.703	0.0158950
609.781	0.0158970
609.859	0.0156860
609.937	0.0158263
610.015	0.0158413
610.093	0.0158034
610.171	0.0156306
610.249	0.0158202
610.328	0.0158322
610.406	0.0158323
610.484	0.0158710
610.562	0.0158189
610.640	0.0158278
610.718	0.0157451
610.796	0.0157719
610.874	0.0159000
610.953	0.0158555
611.031	0.0158973
611.109	0.0158640
611.187	0.0157625
611.265	0.0157980
611.343	0.0158386
611.421	0.0157381
611.499	0.0158338
611.578	0.0157827
611.656	0.0158192
611.734	0.0158192
611.812	0.0159253
611.890	0.0158941
611.968	0.0157899
612.046	0.0159392
612.124	0.0159564
612.203	0.0158414
612.281	0.0158183
612.359	0.0158817
612.437	0.0158792
612.515	0.0158305
612.593	0.0159503
612.671	0.0157247
612.749	0.0157951
612.828	0.0158181
612.906	0.0159274
612.984	0.0158257
613.062	0.0157597
613.140	0.0158758
613.218	0.0159799
613.296	0.0158249
613.374	0.0158791
613.453	0.0156506
613.531	0.0157271
613.609	0.0159637
613.687	0.0158501
613.765	0.0158615
613.843	0.0157991
613.921	0.0157936
613.999	0.0157457
614.078	0.0156629
614.156	0.0156007
614.234	0.0158632
614.312	0.0158804
614.390	0.0159346
614.468	0.0159753
614.546	0.0158358
614.624	0.0158808
614.703	0.0157163
614.781	0.0158672
614.859	0.0157970
614.937	0.0158577
615.015	0.0159399
615.093	0.0157962
615.171	0.0158402
615.249	0.0158591
615.328	0.0157642
615.406	0.0157722
615.484	0.0157425
615.562	0.0159075
615.640	0.0157719
615.718	0.0158599
615.796	0.0158465
615.874	0.0158292
615.953	0.0158784
616.031	0.0158484
616.109	0.0158327
616.187	0.0158311
616.265	0.0158134
616.343	0.0159047
616.421	0.0158140
616.499	0.0159569
616.578	0.0158678
616.656	0.0159711
616.734	0.0158083
616.812	0.0158782
616.890	0.0159298
616.968	0.0157511
617.046	0.0158155
617.124	0.0158379
617.203	0.0157368
617.281	0.0158090
617.359	0.0157513
617.437	0.0157740
617.515	0.0157539
617.593	0.0156814
617.671	0.0158221
617.749	0.0159123
617.828	0.0158240
617.906	0.0157380
617.984	0.0157643
618.062	0.0158114
618.140	0.0159061
618.218	0.0159027
618.296	0.0158545
618.374	0.0158842
618.453	0.0159054
618.531	0.0156112
618.609	0.0158453
618.687	0.0158493
618.765	0.0156896
618.843	0.0158659
618.921	0.0159355
618.999	0.0159942
619.078	0.0158492
619.156	0.0157248
619.234	0.0156512
619.312	0.0157928
619.390	0.0158524
619.468	0.0158021
619.546	0.0157905
619.624	0.0158845
619.703	0.0157172
619.781	0.0158943
619.859	0.0157736
619.937	0.0156749
620.015	0.0159395
620.093	0.0158047
620.171	0.0158503
620.249	0.0158456
620.328	0.0158169
620.406	0.0157946
620.484	0.0158096
620.562	0.0156763
620.640	0.0158369
620.718	0.0158273
620.796	0.0158330
620.874	0.0158818
620.953	0.0157516
621.031	0.0158901
621.109	0.0159139
621.187	0.0157603
621.265	0.0157572
621.343	0.0158260
621.421	0.0158212
621.499	0.0156766
621.578	0.0157368
621.656	0.0158225
621.734	0.0159025
621.812	0.0157926
621.890	0.0156654
621.968	0.0156645
622.046	0.0157423
622.124	0.0156891
622.203	0.0157852
622.281	0.0157327
622.359	0.0156300
622.437	0.0157373
622.515	0.0159283
622.593	0.0157854
622.671	0.0156886
622.749	0.0157596
622.828	0.0158247
622.906	0.0157732
622.984	0.0156790
623.062	0.0157445
623.140	0.0157139
623.218	0.0157393
623.296	0.0157555
623.374	0.0157681
623.453	0.0158512
623.531	0.0157014
623.609	0.0157338
623.687	0.0157337
623.765	0.0157229
623.843	0.0157774
623.921	0.0159072
623.999	0.0159299
624.078	0.0157714
624.156	0.0156768
624.234	0.0156967
624.312	0.0157137
624.390	0.0157293
624.468	0.0157410
624.546	0.0156889
624.624	0.0156654
624.703	0.0157776
624.781	0.0156728
624.859	0.0157780
624.937	0.0157256
625.015	0.0158047
625.093	0.0157610
625.171	0.0157938
625.249	0.0156511
625.328	0.0157050
625.406	0.0158688
625.484	0.0158659
625.562	0.0158743
625.640	0.0158174
625.718	0.0158058
625.796	0.0157482
625.874	0.0157956
625.953	0.0156896
626.031	0.0158399
626.109	0.0156647
626.187	0.0157700
626.265	0.0157311
626.343	0.0157469
626.421	0.0155772
626.499	0.0157019
626.578	0.0157379
626.656	0.0155952
626.734	0.0156164
626.812	0.0156595
626.890	0.0156910
626.968	0.0156146
627.046	0.0158414
627.124	0.0157551
627.203	0.0157226
627.281	0.0157628
627.359	0.0157097
627.437	0.0156818
627.515	0.0157943
627.593	0.0158002
627.671	0.0157230
627.749	0.0156731
627.828	0.0157753
627.906	0.0158045
627.984	0.0156797
628.062	0.0156232
628.140	0.0156529
628.218	0.0156385
628.296	0.0157115
628.374	0.0158120
628.453	0.0156629
628.531	0.0156402
628.609	0.0158443
628.687	0.0156606
628.765	0.0157243
628.843	0.0156570
628.921	0.0157312
628.999	0.0157099
629.078	0.0155972
629.156	0.0157124
629.234	0.0156849
629.312	0.0157742
629.390	0.0157311
629.468	0.0157175
629.546	0.0155914
629.624	0.0157223
629.703	0.0155453
629.781	0.0157104
629.859	0.0156423
629.937	0.0156970
630.015	0.0157117
630.093	0.0156918
630.171	0.0157097
630.249	0.0156403
630.328	0.0155084
630.406	0.0155843
630.484	0.0156927
630.562	0.0157749
630.640	0.0157712
630.718	0.0157673
630.796	0.0156239
630.874	0.0157139
630.953	0.0157966
631.031	0.0157973
631.109	0.0156631
631.187	0.0157081
631.265	0.0156804
631.343	0.0158869
631.421	0.0156979
631.499	0.0157980
631.578	0.0157925
631.656	0.0158496
631.734	0.0157865
631.812	0.0158438
631.890	0.0158393
631.968	0.0157578
632.046	0.0159168
632.124	0.0158204
632.203	0.0155955
632.281	0.0157980
632.359	0.0157590
632.437	0.0156702
632.515	0.0157787
632.593	0.0158621
632.671	0.0158130
632.749	0.0157474
632.828	0.0156644
632.906	0.0158073
632.984	0.0158161
633.062	0.0157590
633.140	0.0157472
633.218	0.0158576
633.296	0.0157572
633.374	0.0157955
633.453	0.0158372
633.531	0.0158271
633.609	0.0157774
633.687	0.0157337
633.765	0.0156683
633.843	0.0158050
633.921	0.0158018
633.999	0.0160112
634.078	0.0159812
634.156	0.0159171
634.234	0.0158604
634.312	0.0159389
634.390	0.0159412
634.468	0.0159027
634.546	0.0157982
634.624	0.0158994
634.703	0.0160416
634.781	0.0159151
634.859	0.0158963
634.937	0.0158185
635.015	0.0159267
635.093	0.0160304
635.171	0.0159183
635.249	0.0158147
635.328	0.0158892
635.406	0.0160214
635.484	0.0159326
635.562	0.0159164
635.640	0.0159670
635.718	0.0159327
635.796	0.0159116
635.874	0.0159740
635.953	0.0160551
636.031	0.0159018
636.109	0.0159586
636.187	0.0159142
636.265	0.0159792
636.343	0.0158366
636.421	0.0158905
636.499	0.0159889
636.578	0.0158720
636.656	0.0157964
636.734	0.0158767
636.812	0.0158579
636.890	0.0157349
636.968	0.0157928
637.046	0.0159806
637.124	0.0158304
637.203	0.0158982
637.281	0.0157597
637.359	0.0158527
637.437	0.0158770
637.515	0.0158183
637.593	0.0158385
637.671	0.0157293
637.749	0.0157939
637.828	0.0158346
637.906	0.0156645
637.984	0.0157964
638.062	0.0158035
638.140	0.0157451
638.218	0.0158875
638.296	0.0158524
638.374	0.0157619
638.453	0.0158538
638.531	0.0157985
638.609	0.0157201
638.687	0.0157521
638.765	0.0158244
638.843	0.0159065
638.921	0.0159021
638.999	0.0157790
639.078	0.0159396
639.156	0.0158297
639.234	0.0157696
639.312	0.0159807
639.390	0.0157246
639.468	0.0157653
639.546	0.0157181
639.624	0.0158080
639.703	0.0157917
639.781	0.0156838
639.859	0.0158543
639.937	0.0158949
640.015	0.0158232
640.093	0.0157400
640.171	0.0157388
640.249	0.0157866
640.328	0.0159219
640.406	0.0157777
640.484	0.0157995
640.562	0.0158158
640.640	0.0157492
640.718	0.0158344
640.796	0.0158141
640.874	0.0158450
640.953	0.0158957
641.031	0.0158844
641.109	0.0158051
641.187	0.0158462
641.265	0.0158667
641.343	0.0158372
641.421	0.0157835
641.499	0.0157806
641.578	0.0158179
641.656	0.0159883
641.734	0.0157915
641.812	0.0157050
641.890	0.0159917
641.968	0.0159100
642.046	0.0158176
642.124	0.0159301
642.203	0.0158685
642.281	0.0158657
642.359	0.0159044
642.437	0.0158098
642.515	0.0158559
642.593	0.0158135
642.671	0.0158329
642.749	0.0160034
642.828	0.0159190
642.906	0.0159702
642.984	0.0157700
643.062	0.0157815
643.140	0.0159179
643.218	0.0158992
643.296	0.0158257
643.374	0.0158249
643.453	0.0158093
643.531	0.0159254
643.609	0.0158086
643.687	0.0158195
643.765	0.0158849
643.843	0.0158835
643.921	0.0158895
643.999	0.0159624
644.078	0.0158660
644.156	0.0158270
644.234	0.0159957
644.312	0.0158073
644.390	0.0158649
644.468	0.0159266
644.546	0.0159587
644.624	0.0159767
644.703	0.0158390
644.781	0.0159116
644.859	0.0159122
644.937	0.0158797
645.015	0.0159209
645.093	0.0159380
645.171	0.0159180
645.249	0.0158149
645.328	0.0159137
645.406	0.0158856
645.484	0.0157246
645.562	0.0158472
645.640	0.0159441
645.718	0.0158722
645.796	0.0159228
645.874	0.0160159
645.953	0.0158514
646.031	0.0158082
646.109	0.0158035
646.187	0.0158116
646.265	0.0158263
646.343	0.0159204
646.421	0.0159377
646.499	0.0157322
646.578	0.0157478
646.656	0.0157762
646.734	0.0158485
646.812	0.0158218
646.890	0.0157998
646.968	0.0158511
647.046	0.0158003
647.124	0.0158301
647.203	0.0159032
647.281	0.0157603
647.359	0.0157342
647.437	0.0158527
647.515	0.0157387
647.593	0.0158163
647.671	0.0158130
647.749	0.0158981
647.828	0.0159251
647.906	0.0157572
647.984	0.0156059
648.062	0.0158327
648.140	0.0158906
648.218	0.0158805
648.296	0.0158244
648.374	0.0159273
648.453	0.0158140
648.531	0.0158888
648.609	0.0156913
648.687	0.0159360
648.765	0.0158674
648.843	0.0157802
648.921	0.0157348
648.999	0.0157902
649.078	0.0158349
649.156	0.0157417
649.234	0.0158911
649.312	0.0158875
649.390	0.0157566
649.468	0.0157791
649.546	0.0158326
649.624	0.0159212
649.703	0.0156928
649.781	0.0157572
649.859	0.0157916
649.937	0.0157616
650.015	0.0158672
650.093	0.0159702
650.171	0.0158636
650.249	0.0157796
650.328	0.0157809
650.406	0.0157291
650.484	0.0157909
650.562	0.0158281
650.640	0.0157449
650.718	0.0158348
650.796	0.0156863
650.874	0.0157454
650.953	0.0158886
651.031	0.0157207
651.109	0.0157970
651.187	0.0157790
651.265	0.0157372
651.343	0.0156855
651.421	0.0158121
651.499	0.0158511
651.578	0.0157870
651.656	0.0156034
651.734	0.0156628
651.812	0.0155987
651.890	0.0157011
651.968	0.0156260
652.046	0.0156396
652.124	0.0156823
652.203	0.0157177
652.281	0.0157015
652.359	0.0156535
652.437	0.0157204
652.515	0.0156407
652.593	0.0156794
652.671	0.0156199
652.749	0.0156600
652.828	0.0156461
652.906	0.0158037
652.984	0.0155931
653.062	0.0157608
653.140	0.0158303
653.218	0.0157485
653.296	0.0157514
653.374	0.0158994
653.453	0.0157612
653.531	0.0157949
653.609	0.0157267
653.687	0.0157143
653.765	0.0157359
653.843	0.0157864
653.921	0.0157216
653.999	0.0157646
654.078	0.0156580
654.156	0.0157301
654.234	0.0156312
654.312	0.0156415
654.390	0.0156226
654.468	0.0156776
654.546	0.0156318
654.624	0.0155978
654.703	0.0156219
654.781	0.0156960
654.859	0.0156938
654.937	0.0155840
655.015	0.0156513
655.093	0.0156874
655.171	0.0157831
655.249	0.0156796
655.328	0.0158106
655.406	0.0155929
655.484	0.0157509
655.562	0.0157275
655.640	0.0158199
655.718	0.0156271
655.796	0.0156548
655.874	0.0157294
655.953	0.0156580
656.031	0.0157023
656.109	0.0158685
656.187	0.0157602
656.265	0.0158116
656.343	0.0155666
656.421	0.0158228
656.499	0.0157756
656.578	0.0157177
656.656	0.0156918
656.734	0.0157079
656.812	0.0157071
656.890	0.0157348
656.968	0.0158411
657.046	0.0158463
657.124	0.0156943
657.203	0.0157643
657.281	0.0157738
657.359	0.0155946
657.437	0.0156520
657.515	0.0156771
657.593	0.0157012
657.671	0.0156805
657.749	0.0158318
657.828	0.0157432
657.906	0.0158302
657.984	0.0156751
658.062	0.0158276
658.140	0.0158005
658.218	0.0158192
658.296	0.0157193
658.374	0.0159114
658.453	0.0157961
658.531	0.0157279
658.609	0.0157950
658.687	0.0157986
658.765	0.0157935
658.843	0.0156625
658.921	0.0159279
658.999	0.0159309
659.078	0.0158237
659.156	0.0158929
659.234	0.0158597
659.312	0.0159924
659.390	0.0158508
659.468	0.0157733
659.546	0.0159666
659.624	0.0159457
659.703	0.0158504
659.781	0.0158583
659.859	0.0160687
659.937	0.0158739
660.015	0.0159592
660.093	0.0158510
660.171	0.0157867
660.249	0.0158359
660.328	0.0159972
660.406	0.0159211
660.484	0.0158450
660.562	0.0158562
660.640	0.0159440
660.718	0.0160072
660.796	0.0160527
660.874	0.0159046
660.953	0.0157928
661.031	0.0159588
661.109	0.0160365
661.187	0.0159029
661.265	0.0159414
661.343	0.0159689
661.421	0.0160013
661.499	0.0158887
661.578	0.0159789
661.656	0.0158892
661.734	0.0159470
661.812	0.0159254
661.890	0.0158298
661.968	0.0160165
662.046	0.0159499
662.124	0.0158972
662.203	0.0159049
662.281	0.0159598
662.359	0.0157416
662.437	0.0159599
662.515	0.0160023
662.593	0.0160015
662.671	0.0158281
662.749	0.0159112
662.828	0.0159539
662.906	0.0158820
662.984	0.0159885
663.062	0.0160008
663.140	0.0157832
663.218	0.0159500
663.296	0.0158152
663.374	0.0159578
663.453	0.0159863
663.531	0.0158628
663.609	0.0159034
663.687	0.0159030
663.765	0.0158719
663.843	0.0158674
663.921	0.0159705
663.999	0.0158799
664.078	0.0159457
664.156	0.0158411
664.234	0.0158679
664.312	0.0159232
664.390	0.0159209
664.468	0.0159251
664.546	0.0158408
664.624	0.0158047
664.703	0.0158595
664.781	0.0159193
664.859	0.0157947
664.937	0.0157964
665.015	0.0158327
665.093	0.0159194
665.171	0.0158553
665.249	0.0156580
665.328	0.0158356
665.406	0.0159050
665.484	0.0158991
665.562	0.0157860
665.640	0.0158390
665.718	0.0158661
665.796	0.0158285
665.874	0.0159145
665.953	0.0160168
666.031	0.0158813
666.109	0.0158173
666.187	0.0157781
666.265	0.0158682
666.343	0.0157874
666.421	0.0157399
666.499	0.0159492
666.578	0.0158823
666.656	0.0159219
666.734	0.0158914
666.812	0.0159136
666.890	0.0158211
666.968	0.0159170
667.046	0.0158574
667.124	0.0158591
667.203	0.0159567
667.281	0.0158361
667.359	0.0158903
667.437	0.0158913
667.515	0.0157752
667.593	0.0159195
667.671	0.0160006
667.749	0.0157898
667.828	0.0158154
667.906	0.0159326
667.984	0.0158212
668.062	0.0158421
668.140	0.0157839
668.218	0.0157913
668.296	0.0157651
668.374	0.0158368
668.453	0.0159564
668.531	0.0157611
668.609	0.0158026
668.687	0.0157410
668.765	0.0157354
668.843	0.0159579
668.921	0.0158729
668.999	0.0159586
669.078	0.0159110
669.156	0.0157432
669.234	0.0158365
669.312	0.0158398
669.390	0.0158575
669.468	0.0158344
669.546	0.0157706
669.624	0.0157043
669.703	0.0158342
669.781	0.0159892
669.859	0.0158874
669.937	0.0157801
670.015	0.0157529
670.093	0.0158668
670.171	0.0158956
670.249	0.0157613
670.328	0.0157153
670.406	0.0158588
670.484	0.0158104
670.562	0.0157655
670.640	0.0158500
670.718	0.0157993
670.796	0.0158052
670.874	0.0158652
670.953	0.0158300
671.031	0.0157207
671.109	0.0158620
671.187	0.0158839
671.265	0.0158318
671.343	0.0158813
671.421	0.0159701
671.499	0.0159518
671.578	0.0157642
671.656	0.0158904
671.734	0.0157945
671.812	0.0158790
671.890	0.0158411
671.968	0.0158200
672.046	0.0157632
672.124	0.0157718
672.203	0.0157687
672.281	0.0158566
672.359	0.0158040
672.437	0.0158145
672.515	0.0157377
672.593	0.0157983
672.671	0.0157166
672.749	0.0157896
672.828	0.0157738
672.906	0.0158380
672.984	0.0157874
673.062	0.0156831
673.140	0.0158461
673.218	0.0158481
673.296	0.0158200
673.374	0.0158734
673.453	0.0158505
673.531	0.0157402
673.609	0.0158730
673.687	0.0156446
673.765	0.0157868
673.843	0.0159062
673.921	0.0157648
673.999	0.0157718
674.078	0.0158081
674.156	0.0157156
674.234	0.0157150
674.312	0.0159131
674.390	0.0158527
674.468	0.0158274
674.546	0.0156786
674.624	0.0156905
674.703	0.0158332
674.781	0.0158366
674.859	0.0157982
674.937	0.0157828
675.015	0.0159258
675.093	0.0157441
675.171	0.0157781
675.249	0.0157903
675.328	0.0157348
675.406	0.0157075
675.484	0.0157145
675.562	0.0158582
675.640	0.0157835
675.718	0.0157893
675.796	0.0156884
675.874	0.0157173
675.953	0.0157333
676.031	0.0158292
676.109	0.0158004
676.187	0.0157882
676.265	0.0156625
676.343	0.0157348
676.421	0.0157089
676.499	0.0156763
676.578	0.0156865
676.656	0.0157867
676.734	0.0157590
676.812	0.0156371
676.890	0.0156905
676.968	0.0156590
677.046	0.0157008
677.124	0.0157695
677.203	0.0156245
677.281	0.0158435
677.359	0.0157220
677.437	0.0157769
677.515	0.0155989
677.593	0.0156997
677.671	0.0156301
677.749	0.0155999
677.828	0.0156339
677.906	0.0157366
677.984	0.0156985
678.062	0.0156843
678.140	0.0157107
678.218	0.0156002
678.296	0.0156476
678.374	0.0156490
678.453	0.0158192
678.531	0.0155689
678.609	0.0155467
678.687	0.0156066
678.765	0.0156557
678.843	0.0156590
678.921	0.0155575
678.999	0.0156353
679.078	0.0156848
679.156	0.0156709
679.234	0.0156150
679.312	0.0157041
679.390	0.0156419
679.468	0.0157056
679.546	0.0157052
679.624	0.0154723
679.703	0.0156499
679.781	0.0156066
679.859	0.0157597
679.937	0.0157274
680.015	0.0154836
680.093	0.0154543
680.171	0.0157156
680.249	0.0156361
680.328	0.0156464
680.406	0.0155435
680.484	0.0156179
680.562	0.0156765
680.640	0.0156986
680.718	0.0158057
680.796	0.0155932
680.874	0.0155518
680.953	0.0157122
681.031	0.0157636
681.109	0.0157384
681.187	0.0155979
681.265	0.0157209
681.343	0.0155742
681.421	0.0155533
681.499	0.0156851
681.578	0.0156801
681.656	0.0156593
681.734	0.0156891
681.812	0.0156976
681.890	0.0156287
681.968	0.0156309
682.046	0.0157572
682.124	0.0157584
682.203	0.0157565
682.281	0.0157986
682.359	0.0157666
682.437	0.0157031
682.515	0.0157477
682.593	0.0156683
682.671	0.0157671
682.749	0.0156029
682.828	0.0158603
682.906	0.0156255
682.984	0.0156790
683.062	0.0158092
683.140	0.0156945
683.218	0.0158478
683.296	0.0158129
683.374	0.0157605
683.453	0.0157944
683.531	0.0158118
683.609	0.0157275
683.687	0.0156437
683.765	0.0157135
683.843	0.0158234
683.921	0.0158673
683.999	0.0157970
684.078	0.0157248
684.156	0.0158120
684.234	0.0157661
684.312	0.0158642
684.390	0.0157854
684.468	0.0159550
684.546	0.0157767
684.624	0.0158970
684.703	0.0159368
684.781	0.0157893
684.859	0.0157760
684.937	0.0158810
685.015	0.0157627
685.093	0.0158472
685.171	0.0157919
685.249	0.0157497
685.328	0.0156686
685.406	0.0157906
685.484	0.0158627
685.562	0.0157367
685.640	0.0157700
685.718	0.0158545
685.796	0.0159467
685.874	0.0157499
685.953	0.0157840
686.031	0.0158125
686.109	0.0158559
686.187	0.0157323
686.265	0.0156733
686.343	0.0157800
686.421	0.0159929
686.499	0.0157813
686.578	0.0158604
686.656	0.0158736
686.734	0.0159100
686.812	0.0158891
686.890	0.0157964
686.968	0.0159180
687.046	0.0158408
687.124	0.0159138
687.203	0.0159834
687.281	0.0159129
687.359	0.0158109
687.437	0.0158595
687.515	0.0159107
687.593	0.0158636
687.671	0.0158963
687.749	0.0159713
687.828	0.0160585
687.906	0.0159026
687.984	0.0160809
688.062	0.0160262
688.140	0.0159693
688.218	0.0158673
688.296	0.0158228
688.374	0.0158952
688.453	0.0159429
688.531	0.0159771
688.609	0.0159374
688.687	0.0159027
688.765	0.0158682
688.843	0.0158403
688.921	0.0160411
688.999	0.0160147
689.078	0.0161090
689.156	0.0159348
689.234	0.0158358
689.312	0.0159648
689.390	0.0161064
689.468	0.0160065
689.546	0.0159877
689.624	0.0159496
689.703	0.0158488
689.781	0.0159228
689.859	0.0160464
689.937	0.0159965
690.015	0.0159034
690.093	0.0158189
690.171	0.0159417
690.249	0.0159644
690.328	0.0159810
690.406	0.0157565
690.484	0.0159502
690.562	0.0158969
690.640	0.0160011
690.718	0.0160256
690.796	0.0158973
690.874	0.0156871
690.953	0.0159285
691.031	0.0159088
691.109	0.0159772
691.187	0.0159110
691.265	0.0158817
691.343	0.0158051
691.421	0.0157608
691.499	0.0159036
691.578	0.0159277
691.656	0.0158665
691.734	0.0157317
691.812	0.0158812
691.890	0.0158186
691.968	0.0158464
692.046	0.0158888
692.124	0.0157957
692.203	0.0157897
692.281	0.0159208
692.359	0.0159692
692.437	0.0160368
692.515	0.0158578
692.593	0.0158257
692.671	0.0157431
692.749	0.0159554
692.828	0.0160451
692.906	0.0158437
692.984	0.0159116
693.062	0.0159711
693.140	0.0158999
693.218	0.0158717
693.296	0.0159652
693.374	0.0159621
693.453	0.0159487
693.531	0.0159493
693.609	0.0159953
693.687	0.0159003
693.765	0.0159183
693.843	0.0159547
693.921	0.0158739
693.999	0.0158630
694.078	0.0158468
694.156	0.0158511
694.234	0.0157975
694.312	0.0160423
694.390	0.0157785
694.468	0.0158399
694.546	0.0158270
694.624	0.0159737
694.703	0.0157233
694.781	0.0159279
694.859	0.0158532
694.937	0.0157376
695.015	0.0158659
695.093	0.0157528
695.171	0.0157157
695.249	0.0158056
695.328	0.0158054
695.406	0.0158644
695.484	0.0158237
695.562	0.0159715
695.640	0.0158443
695.718	0.0158408
695.796	0.0158781
695.874	0.0158752
695.953	0.0157442
696.031	0.0156855
696.109	0.0158698
696.187	0.0158689
696.265	0.0157632
696.343	0.0158150
696.421	0.0159634
696.499	0.0157948
696.578	0.0156934
696.656	0.0158033
696.734	0.0159281
696.812	0.0158289
696.890	0.0158236
696.968	0.0157066
697.046	0.0158069
697.124	0.0156378
697.203	0.0157725
697.281	0.0157601
697.359	0.0158257
697.437	0.0156710
697.515	0.0158639
697.593	0.0157974
697.671	0.0157298
697.749	0.0158134
697.828	0.0156854
697.906	0.0157629
697.984	0.0157175
698.062	0.0157201
698.140	0.0157575
698.218	0.0157008
698.296	0.0156029
698.374	0.0158381
698.453	0.0158733
698.531	0.0157829
698.609	0.0157054
698.687	0.0157962
698.765	0.0156883
698.843	0.0157476
698.921	0.0158239
698.999	0.0158424
699.078	0.0156503
699.156	0.0158040
699.234	0.0157638
699.312	0.0156091
699.390	0.0157087
699.468	0.0157105
699.546	0.0157103
699.624	0.0158511
699.703	0.0157901
699.781	0.0158014
699.859	0.0157133
699.937	0.0157172
700.015	0.0158504
700.093	0.0157920
700.171	0.0157060
700.249	0.0157679
700.328	0.0157172
700.406	0.0157076
700.484	0.0155772
700.562	0.0157353
700.640	0.0157859
700.718	0.0157723
700.796	0.0156225
700.874	0.0158653
700.953	0.0157186
701.031	0.0156209
701.109	0.0156544
701.187	0.0156938
701.265	0.0156828
701.343	0.0158498
701.421	0.0156992
701.499	0.0158260
701.578	0.0157380
701.656	0.0156663
701.734	0.0156673
701.812	0.0156625
701.890	0.0157934
701.968	0.0156774
702.046	0.0157649
702.124	0.0157197
702.203	0.0157566
702.281	0.0156397
702.359	0.0156989
702.437	0.0158393
702.515	0.0157027
702.593	0.0156010
702.671	0.0156635
702.749	0.0157498
702.828	0.0157847
702.906	0.0156702
702.984	0.0157071
703.062	0.0157473
703.140	0.0158789
703.218	0.0157197
703.296	0.0156953
703.374	0.0156002
703.453	0.0157308
703.531	0.0157090
703.609	0.0156601
703.687	0.0155685
703.765	0.0157645
703.843	0.0157510
703.921	0.0157625
703.999	0.0157387
704.078	0.0157802
704.156	0.0156018
704.234	0.0157587
704.312	0.0156368
704.390	0.0158555
704.468	0.0157095
704.546	0.0157052
704.624	0.0157742
704.703	0.0158264
704.781	0.0157781
704.859	0.0157487
704.937	0.0156708
705.015	0.0157042
705.093	0.0158768
705.171	0.0158000
705.249	0.0157553
705.328	0.0157919
705.406	0.0157347
705.484	0.0157821
705.562	0.0157287
705.640	0.0157416
705.718	0.0156771
705.796	0.0158324
705.874	0.0157005
705.953	0.0159280
706.031	0.0158055
706.109	0.0158305
706.187	0.0158047
706.265	0.0158156
706.343	0.0158123
706.421	0.0157100
706.499	0.0156836
706.578	0.0157439
706.656	0.0156693
706.734	0.0157503
706.812	0.0157433
706.890	0.0156744
706.968	0.0158221
707.046	0.0158201
707.124	0.0158226
707.203	0.0156906
707.281	0.0158395
707.359	0.0157906
707.437	0.0159130
707.515	0.0157656
707.593	0.0156944
707.671	0.0158151
707.749	0.0159109
707.828	0.0158999
707.906	0.0156299
707.984	0.0158855
708.062	0.0157990
708.140	0.0159336
708.218	0.0156766
708.296	0.0156533
708.374	0.0157787
708.453	0.0158826
708.531	0.0158354
708.609	0.0158746
708.687	0.0158414
708.765	0.0158750
708.843	0.0158029
708.921	0.0157374
708.999	0.0158604
709.078	0.0157944
709.156	0.0156653
709.234	0.0158010
709.312	0.0158270
709.390	0.0158641
709.468	0.0159565
709.546	0.0158306
709.624	0.0156838
709.703	0.0158248
709.781	0.0158199
709.859	0.0157131
709.937	0.0157436
710.015	0.0157492
710.093	0.0157862
710.171	0.0159183
710.249	0.0157587
710.328	0.0159245
710.406	0.0158794
710.484	0.0158916
710.562	0.0158274
710.640	0.0158421
710.718	0.0157967
710.796	0.0158683
710.874	0.0159495
710.953	0.0159077
711.031	0.0158150
711.109	0.0158917
711.187	0.0157564
711.265	0.0158799
711.343	0.0160390
711.421	0.0160201
711.499	0.0157471
711.578	0.0158600
711.656	0.0158339
711.734	0.0159029
711.812	0.0159483
711.890	0.0158342
711.968	0.0159016
712.046	0.0159107
712.124	0.0159923
712.203	0.0158643
712.281	0.0158710
712.359	0.0159448
712.437	0.0159967
712.515	0.0159708
712.593	0.0158451
712.671	0.0157764
712.749	0.0158123
712.828	0.0158739
712.906	0.0159002
712.984	0.0159557
713.062	0.0158552
713.140	0.0158537
713.218	0.0158855
713.296	0.0157621
713.374	0.0159327
713.453	0.0158381
713.531	0.0158827
713.609	0.0159206
713.687	0.0159967
713.765	0.0159572
713.843	0.0159045
713.921	0.0158477
713.999	0.0159729
714.078	0.0159818
714.156	0.0159205
714.234	0.0159518
714.312	0.0160302
714.390	0.0159478
714.468	0.0159187
714.546	0.0158514
714.624	0.0159419
714.703	0.0159334
714.781	0.0159846
714.859	0.0160410
714.937	0.0159222
715.015	0.0158886
715.093	0.0159385
715.171	0.0160192
715.249	0.0159782
715.328	0.0160202
715.406	0.0160088
715.484	0.0158784
715.562	0.0159190
715.640	0.0160217
715.718	0.0158794
715.796	0.0160395
715.874	0.0158407
715.953	0.0156991
716.031	0.0158231
716.109	0.0158724
716.187	0.0159224
716.265	0.0159219
716.343	0.0158822
716.421	0.0159802
716.499	0.0159663
716.578	0.0158553
716.656	0.0158712
716.734	0.0159648
716.812	0.0158755
716.890	0.0157751
716.968	0.0157594
717.046	0.0159401
717.124	0.0159832
717.203	0.0158717
717.281	0.0160123
717.359	0.0159387
717.437	0.0159713
717.515	0.0159436
717.593	0.0159755
717.671	0.0158894
717.749	0.0159442
717.828	0.0160428
717.906	0.0161165
717.984	0.0158612
718.062	0.0158331
718.140	0.0159460
718.218	0.0159354
718.296	0.0158996
718.374	0.0160039
718.453	0.0160257
718.531	0.0158752
718.609	0.0159465
718.687	0.0159541
718.765	0.0158674
718.843	0.0158654
718.921	0.0159637
718.999	0.0160423
719.078	0.0157713
719.156	0.0159065
719.234	0.0158786
719.312	0.0159880
719.390	0.0158907
719.468	0.0159166
719.546	0.0159265
719.624	0.0157350
719.703	0.0160290
719.781	0.0160239
719.859	0.0159520
719.937	0.0158407
720.015	0.0158611
720.093	0.0158721
720.171	0.0159469
720.249	0.0160866
720.328	0.0159055
720.406	0.0157551
720.484	0.0158831
720.562	0.0159204
720.640	0.0158804
720.718	0.0158592
720.796	0.0158241
720.874	0.0157130
720.953	0.0158741
721.031	0.0158935
721.109	0.0158327
721.187	0.0158682
721.265	0.0157549
721.343	0.0158366
721.421	0.0158421
721.499	0.0158149
721.578	0.0158820
721.656	0.0158058
721.734	0.0158081
721.812	0.0157530
721.890	0.0158313
721.968	0.0158275
722.046	0.0157713
722.124	0.0158505
722.203	0.0159121
722.281	0.0158258
722.359	0.0156623
722.437	0.0157529
722.515	0.0157668
722.593	0.0158475
722.671	0.0158608
722.749	0.0158763
722.828	0.0158656
722.906	0.0159010
722.984	0.0157375
723.062	0.0157618
723.140	0.0157716
723.218	0.0158837
723.296	0.0157952
723.374	0.0157540
723.453	0.0158791
723.531	0.0157626
723.609	0.0157616
723.687	0.0157938
723.765	0.0157105
723.843	0.0158004
723.921	0.0158210
723.999	0.0158594
724.078	0.0157639
724.156	0.0157510
724.234	0.0157428
724.312	0.0157918
724.390	0.0156624
724.468	0.0155854
724.546	0.0157713
724.624	0.0157322
724.703	0.0158778
724.781	0.0158913
724.859	0.0156447
724.937	0.0156131
725.015	0.0157797
725.093	0.0157654
725.171	0.0157334
725.249	0.0156046
725.328	0.0156721
725.406	0.0157732
725.484	0.0158921
725.562	0.0158482
725.640	0.0155991
725.718	0.0157646
725.796	0.0157331
725.874	0.0157250
725.953	0.0157290
726.031	0.0156944
726.109	0.0156956
726.187	0.0157642
726.265	0.0156966
726.343	0.0155736
726.421	0.0157474
726.499	0.0156801
726.578	0.0157646
726.656	0.0156904
726.734	0.0157030
726.812	0.0158241
726.890	0.0157190
726.968	0.0156701
727.046	0.0159007
727.124	0.0158179
727.203	0.0156559
727.281	0.0157431
727.359	0.0157421
727.437	0.0157187
727.515	0.0156070
727.593	0.0156591
727.671	0.0156898
727.749	0.0156465
727.828	0.0158247
727.906	0.0156766
727.984	0.0158808
728.062	0.0157236
728.140	0.0157455
728.218	0.0157449
728.296	0.0155935
728.374	0.0158316
728.453	0.0158431
728.531	0.0158010
728.609	0.0158424
728.687	0.0156425
728.765	0.0159303
728.843	0.0157081
728.921	0.0157499
728.999	0.0157383
729.078	0.0158002
729.156	0.0157576
729.234	0.0157598
729.312	0.0157442
729.390	0.0160288
729.468	0.0157544
729.546	0.0159128
729.624	0.0159840
729.703	0.0159407
729.781	0.0159855
729.859	0.0157750
729.937	0.0158101
730.015	0.0159167
730.093	0.0158847
730.171	0.0159115
730.249	0.0158974
730.328	0.0158639
730.406	0.0158291
730.484	0.0158504
730.562	0.0158916
730.640	0.0158337
730.718	0.0157848
730.796	0.0159174
730.874	0.0158279
730.953	0.0158731
731.031	0.0157778
731.109	0.0157882
731.187	0.0158674
731.265	0.0160551
731.343	0.0159057
731.421	0.0158103
731.499	0.0159069
731.578	0.0159266
731.656	0.0158477
731.734	0.0157673
731.812	0.0157790
731.890	0.0158720
731.968	0.0159077
732.046	0.0159763
732.124	0.0158317
732.203	0.0158562
732.281	0.0159428
732.359	0.0158855
732.437	0.0157524
732.515	0.0158801
732.593	0.0158868
732.671	0.0159792
732.749	0.0158167
732.828	0.0157995
732.906	0.0158160
732.984	0.0158580
733.062	0.0159709
733.140	0.0159189
733.218	0.0159383
733.296	0.0159494
733.374	0.0158591
733.453	0.0159837
733.531	0.0158950
733.609	0.0158126
733.687	0.0158692
733.765	0.0158636
733.843	0.0158421
733.921	0.0159342
733.999	0.0159171
734.078	0.0159045
734.156	0.0159190
734.234	0.0159364
734.312	0.0158945
734.390	0.0158148
734.468	0.0157966
734.546	0.0159296
734.624	0.0157619
734.703	0.0158651
734.781	0.0158983
734.859	0.0157396
734.937	0.0158784
735.015	0.0157843
735.093	0.0157919
735.171	0.0157703
735.249	0.0158570
735.328	0.0159744
735.406	0.0158376
735.484	0.0159374
735.562	0.0159459
735.640	0.0159792
735.718	0.0159338
735.796	0.0160237
735.874	0.0158842
735.953	0.0158887
736.031	0.0159502
736.109	0.0158864
736.187	0.0159415
736.265	0.0159720
736.343	0.0159420
736.421	0.0160044
736.499	0.0160003
736.578	0.0159037
736.656	0.0158194
736.734	0.0158278
736.812	0.0158322
736.890	0.0159398
736.968	0.0157661
737.046	0.0158869
737.124	0.0158562
737.203	0.0160220
737.281	0.0159624
737.359	0.0158865
737.437	0.0159361
737.515	0.0159479
737.593	0.0158833
737.671	0.0158137
737.749	0.0157888
737.828	0.0160086
737.906	0.0159293
737.984	0.0158662
738.062	0.0159545
738.140	0.0158939
738.218	0.0158778
738.296	0.0158173
738.374	0.0158079
738.453	0.0157705
738.531	0.0157320
738.609	0.0159390
738.687	0.0157896
738.765	0.0159247
738.843	0.0159531
738.921	0.0159439
738.999	0.0157952
739.078	0.0159056
739.156	0.0159232
739.234	0.0158579
739.312	0.0159401
739.390	0.0159812
739.468	0.0159772
739.546	0.0159329
739.624	0.0158096
739.703	0.0158693
739.781	0.0159547
739.859	0.0158175
739.937	0.0158716
740.015	0.0158455
740.093	0.0158551
740.171	0.0159916
740.249	0.0158720
740.328	0.0157787
740.406	0.0158111
740.484	0.0159431
740.562	0.0159496
740.640	0.0158396
740.718	0.0159278
740.796	0.0159818
740.874	0.0159922
740.953	0.0159109
741.031	0.0159206
741.109	0.0158818
741.187	0.0159515
741.265	0.0158590
741.343	0.0159115
741.421	0.0158459
741.499	0.0159741
741.578	0.0159677
741.656	0.0158872
741.734	0.0159347
741.812	0.0158139
741.890	0.0159978
741.968	0.0159526
742.046	0.0159847
742.124	0.0158113
742.203	0.0160115
742.281	0.0160001
742.359	0.0157874
742.437	0.0159861
742.515	0.0159145
742.593	0.0159944
742.671	0.0158543
742.749	0.0158590
742.828	0.0157607
742.906	0.0158813
742.984	0.0160128
743.062	0.0158596
743.140	0.0159930
743.218	0.0157572
743.296	0.0160206
743.374	0.0159543
743.453	0.0159000
743.531	0.0158796
743.609	0.0158556
743.687	0.0159724
743.765	0.0156888
743.843	0.0158190
743.921	0.0158923
743.999	0.0158939
744.078	0.0158128
744.156	0.0158118
744.234	0.0158865
744.312	0.0158986
744.390	0.0158490
744.468	0.0158894
744.546	0.0158897
744.624	0.0159279
744.703	0.0157739
744.781	0.0158337
744.859	0.0160017
744.937	0.0158891
745.015	0.0158208
745.093	0.0159013
745.171	0.0158511
745.249	0.0157525
745.328	0.0157542
745.406	0.0159103
745.484	0.0158526
745.562	0.0157895
745.640	0.0158266
745.718	0.0159653
745.796	0.0158173
745.874	0.0157148
745.953	0.0157875
746.031	0.0159541
746.109	0.0157498
746.187	0.0157668
746.265	0.0158386
746.343	0.0157458
746.421	0.0158343
746.499	0.0158574
746.578	0.0158737
746.656	0.0158382
746.734	0.0158823
746.812	0.0158327
746.890	0.0158206
746.968	0.0157098
747.046	0.0158255
747.124	0.0158998
747.203	0.0159368
747.281	0.0159109
747.359	0.0159210
747.437	0.0159018
747.515	0.0159078
747.593	0.0159779
747.671	0.0159672
747.749	0.0159485
747.828	0.0158784
747.906	0.0158881
747.984	0.0157884
748.062	0.0158151
748.140	0.0158783
748.218	0.0158781
748.296	0.0158224
748.374	0.0158914
748.453	0.0158604
748.531	0.0158920
748.609	0.0157932
748.687	0.0156002
748.765	0.0155489
748.843	0.0156721
748.921	0.0157640
748.999	0.0156368
749.078	0.0156807
749.156	0.0157564
749.234	0.0156289
749.312	0.0156054
749.390	0.0156318
749.468	0.0157192
749.546	0.0156735
749.624	0.0157623
749.703	0.0158694
749.781	0.0157486
749.859	0.0157431
749.937	0.0157819
750.015	0.0160105
750.093	0.0157702
750.171	0.0155736
750.249	0.0157908
750.328	0.0157594
750.406	0.0157581
750.484	0.0158044
750.562	0.0157336
750.640	0.0156857
750.718	0.0157014
750.796	0.0156051
750.874	0.0156644
750.953	0.0158774
751.031	0.0157713
751.109	0.0157634
751.187	0.0159819
751.265	0.0159444
751.343	0.0158315
751.421	0.0158504
751.499	0.0158369
751.578	0.0157661
751.656	0.0158578
751.734	0.0159787
751.812	0.0158906
751.890	0.0158620
751.968	0.0158344
752.046	0.0157532
752.124	0.0158675
752.203	0.0157787
752.281	0.0158117
752.359	0.0157687
752.437	0.0158642
752.515	0.0157607
752.593	0.0157517
752.671	0.0159692
752.749	0.0157439
752.828	0.0157768
752.906	0.0158576
752.984	0.0156696
753.062	0.0156644
753.140	0.0157268
753.218	0.0157427
753.296	0.0158205
753.374	0.0156983
753.453	0.0155743
753.531	0.0157040
753.609	0.0157564
753.687	0.0156367
753.765	0.0157067
753.843	0.0156057
753.921	0.0157098
753.999	0.0156382
754.078	0.0156402
754.156	0.0156150
754.234	0.0156095
754.312	0.0156279
754.390	0.0157228
754.468	0.0158137
754.546	0.0156654
754.624	0.0157215
754.703	0.0157348
754.781	0.0157320
754.859	0.0157736
754.937	0.0158167
755.015	0.0158347
755.093	0.0157780
755.171	0.0157178
755.249	0.0158159
755.328	0.0158363
755.406	0.0156927
755.484	0.0157534
755.562	0.0158520
755.640	0.0158515
755.718	0.0158360
755.796	0.0159390
755.874	0.0157941
755.953	0.0157153
756.031	0.0158369
756.109	0.0157313
756.187	0.0158110
756.265	0.0159055
756.343	0.0157214
756.421	0.0156870
756.499	0.0156535
756.578	0.0157610
756.656	0.0158129
756.734	0.0156699
756.812	0.0156763
756.890	0.0156970
756.968	0.0156564
757.046	0.0157274
757.124	0.0157717
757.203	0.0157243
757.281	0.0157319
757.359	0.0156447
757.437	0.0158166
757.515	0.0157674
757.593	0.0156079
757.671	0.0157555
757.749	0.0156113
757.828	0.0156744
757.906	0.0158280
757.984	0.0158807
758.062	0.0158067
758.140	0.0157887
758.218	0.0158613
758.296	0.0158132
758.374	0.0158075
758.453	0.0159848
758.531	0.0159672
758.609	0.0158718
758.687	0.0159087
758.765	0.0158657
758.843	0.0158994
758.921	0.0159904
758.999	0.0158302
759.078	0.0158957
759.156	0.0159097
759.234	0.0157604
759.312	0.0157389
759.390	0.0157699
759.468	0.0157694
759.546	0.0158305
759.624	0.0159052
759.703	0.0158887
759.781	0.0158675
759.859	0.0158089
759.937	0.0158707
760.015	0.0158328
760.093	0.0158911
760.171	0.0158306
760.249	0.0157608
760.328	0.0158028
760.406	0.0157874
760.484	0.0157221
760.562	0.0157805
760.640	0.0159017
760.718	0.0158129
760.796	0.0155222
760.874	0.0156815
760.953	0.0157233
761.031	0.0157549
761.109	0.0158669
761.187	0.0158771
761.265	0.0157198
761.343	0.0157901
761.421	0.0158273
761.499	0.0156864
761.578	0.0157698
761.656	0.0157752
761.734	0.0158919
761.812	0.0158102
761.890	0.0159904
761.968	0.0159042
762.046	0.0160619
762.124	0.0158382
762.203	0.0158755
762.281	0.0161024
762.359	0.0160173
762.437	0.0161785
762.515	0.0160972
762.593	0.0159611
762.671	0.0160817
762.749	0.0160438
762.828	0.0158871
762.906	0.0159961
762.984	0.0158454
763.062	0.0159145
763.140	0.0159360
763.218	0.0159325
763.296	0.0158502
763.374	0.0159149
763.453	0.0160157
763.531	0.0160005
763.609	0.0158210
763.687	0.0159456
763.765	0.0159566
763.843	0.0159987
763.921	0.0158820
763.999	0.0157172
764.078	0.0158437
764.156	0.0158528
764.234	0.0158360
764.312	0.0158041
764.390	0.0155884
764.468	0.0158049
764.546	0.0158160
764.624	0.0155938
764.703	0.0157307
764.781	0.0156931
764.859	0.0156673
764.937	0.0155569
765.015	0.0157240
765.093	0.0156442
765.171	0.0157354
765.249	0.0156870
765.328	0.0157216
765.406	0.0157165
765.484	0.0156839
765.562	0.0157562
765.640	0.0158244
765.718	0.0157862
765.796	0.0156713
765.874	0.0155336
765.953	0.0159384
766.031	0.0156839
766.109	0.0158276
766.187	0.0158730
766.265	0.0158887
766.343	0.0159348
766.421	0.0156878
766.499	0.0159319
766.578	0.0159849
766.656	0.0158075
766.734	0.0160979
766.812	0.0161906
766.890	0.0160509
766.968	0.0162002
767.046	0.0160974
767.124	0.0161121
767.203	0.0161769
767.281	0.0160816
767.359	0.0161086
767.437	0.0161148
767.515	0.0161534
767.593	0.0162454
767.671	0.0163327
767.749	0.0162387
767.828	0.0162226
767.906	0.0161655
767.984	0.0161776
768.062	0.0161338
768.140	0.0161208
768.218	0.0162556
768.296	0.0160577
768.374	0.0159052
768.453	0.0159724
768.531	0.0158744
768.609	0.0157748
768.687	0.0158669
768.765	0.0156860
768.843	0.0155844
768.921	0.0157248
768.999	0.0155457
769.078	0.0154818
769.156	0.0155274
769.234	0.0155428
769.312	0.0155860
769.390	0.0155534
769.468	0.0155366
769.546	0.0154352
769.624	0.0156161
769.703	0.0155814
769.781	0.0155539
769.859	0.0156006
769.937	0.0156982
770.015	0.0157499
770.093	0.0156734
770.171	0.0157445
770.249	0.0158858
770.328	0.0159252
770.406	0.0158826
770.484	0.0158317
770.562	0.0160258
770.640	0.0158870
770.718	0.0160191
770.796	0.0160188
770.874	0.0159699
770.953	0.0159768
771.031	0.0159723
771.109	0.0160142
771.187	0.0159917
771.265	0.0159557
771.343	0.0159006
771.421	0.0159212
771.499	0.0159431
771.578	0.0159045
771.656	0.0159700
771.734	0.0159077
771.812	0.0158764
771.890	0.0159848
771.968	0.0159186
772.046	0.0157520
772.124	0.0157738
772.203	0.0157818
772.281	0.0159830
772.359	0.0158526
772.437	0.0156715
772.515	0.0155718
772.593	0.0156156
772.671	0.0155822
772.749	0.0155450
772.828	0.0156229
772.906	0.0156234
772.984	0.0155673
773.062	0.0156978
773.140	0.0158268
773.218	0.0157524
773.296	0.0158118
773.374	0.0157750
773.453	0.0158389
773.531	0.0157722
773.609	0.0156890
773.687	0.0156824
773.765	0.0157224
773.843	0.0157880
773.921	0.0158288
773.999	0.0157800
774.078	0.0158465
774.156	0.0157929
774.234	0.0158944
774.312	0.0157696
774.390	0.0158112
774.468	0.0158133
774.546	0.0156956
774.624	0.0156741
774.703	0.0157045
774.781	0.0156877
774.859	0.0154492
774.937	0.0155165
775.015	0.0156264
775.093	0.0156209
775.171	0.0156319
775.249	0.0157917
775.328	0.0158788
775.406	0.0158377
775.484	0.0158576
775.562	0.0157658
775.640	0.0158598
775.718	0.0159686
775.796	0.0160091
775.874	0.0160422
775.953	0.0160995
776.031	0.0161321
776.109	0.0161124
776.187	0.0160209
776.265	0.0161193
776.343	0.0160288
776.421	0.0160048
776.499	0.0159656
776.578	0.0158630
776.656	0.0158531
776.734	0.0157829
776.812	0.0159312
776.890	0.0156317
776.968	0.0155899
777.046	0.0155479
777.124	0.0156512
777.203	0.0156116
777.281	0.0156190
777.359	0.0153872
777.437	0.0153790
777.515	0.0154362
777.593	0.0152730
777.671	0.0153773
777.749	0.0153499
777.828	0.0154200
777.906	0.0153721
777.984	0.0153461
778.062	0.0153583
778.140	0.0154756
778.218	0.0155355
778.296	0.0155298
778.374	0.0155658
778.453	0.0157922
778.531	0.0157706
778.609	0.0158465
778.687	0.0158359
778.765	0.0159252
778.843	0.0159755
778.921	0.0162354
778.999	0.0159966
779.078	0.0159650
779.156	0.0159811
779.234	0.0161038
779.312	0.0161967
779.390	0.0158652
779.468	0.0159577
779.546	0.0159583
779.624	0.0158867
779.703	0.0157754
779.781	0.0157982
779.859	0.0157412
779.937	0.0157467
780.015	0.0156849
780.093	0.0157403
780.171	0.0158913
780.249	0.0157759
780.328	0.0158243
780.406	0.0158921
780.484	0.0159128
780.562	0.0157828
780.640	0.0157848
780.718	0.0159221
780.796	0.0158224
780.874	0.0158139
780.953	0.0158414
781.031	0.0158778
781.109	0.0158262
781.187	0.0158922
781.265	0.0158863
781.343	0.0160262
781.421	0.0159330
781.499	0.0158459
781.578	0.0158209
781.656	0.0157781
781.734	0.0159007
781.812	0.0158297
781.890	0.0155531
781.968	0.0155383
782.046	0.0157415
782.124	0.0157073
782.203	0.0155950
782.281	0.0156128
782.359	0.0155185
782.437	0.0155302
782.515	0.0154311
782.593	0.0154347
782.671	0.0153531
782.749	0.0153652
782.828	0.0153078
782.906	0.0151627
782.984	0.0153231
783.062	0.0152717
783.140	0.0151423
783.218	0.0151926
783.296	0.0154158
783.374	0.0153972
783.453	0.0154372
783.531	0.0156705
783.609	0.0157813
783.687	0.0158843
783.765	0.0157025
783.843	0.0158944
783.921	0.0159398
783.999	0.0159657
784.078	0.0162279
784.156	0.0161487
784.234	0.0161834
784.312	0.0161183
784.390	0.0162560
784.468	0.0163000
784.546	0.0162232
784.624	0.0161213
784.703	0.0161343
784.781	0.0163316
784.859	0.0159700
784.937	0.0160797
785.015	0.0160762
785.093	0.0160219
785.171	0.0158908
785.249	0.0159106
785.328	0.0159251
785.406	0.0158935
785.484	0.0159703
785.562	0.0159686
785.640	0.0157396
785.718	0.0156999
785.796	0.0157108
785.874	0.0156307
785.953	0.0155577
786.031	0.0156364
786.109	0.0155093
786.187	0.0155070
786.265	0.0154080
786.343	0.0154454
786.421	0.0154143
786.499	0.0155243
786.578	0.0153570
786.656	0.0155684
786.734	0.0156476
786.812	0.0155903
786.890	0.0156693
786.968	0.0156950
787.046	0.0157932
787.124	0.0157124
787.203	0.0157734
787.281	0.0156326
787.359	0.0157497
787.437	0.0156496
787.515	0.0157904
787.593	0.0158869
787.671	0.0156483
787.749	0.0159023
787.828	0.0159538
787.906	0.0159420
787.984	0.0161674
788.062	0.0161517
788.140	0.0162433
788.218	0.0161095
788.296	0.0163390
788.374	0.0163371
788.453	0.0162226
788.531	0.0163683
788.609	0.0162495
788.687	0.0160452
788.765	0.0163244
788.843	0.0162195
788.921	0.0159497
788.999	0.0163080
789.078	0.0161236
789.156	0.0160996
789.234	0.0159948
789.312	0.0160638
789.390	0.0159512
789.468	0.0160246
789.546	0.0159581
789.624	0.0159449
789.703	0.0158269
789.781	0.0158568
789.859	0.0157197
789.937	0.0158387
790.015	0.0159014
790.093	0.0158455
790.171	0.0158762
790.249	0.0157101
790.328	0.0157332
790.406	0.0156796
790.484	0.0157035
790.562	0.0157333
790.640	0.0156885
790.718	0.0156006
790.796	0.0155035
790.874	0.0156042
790.953	0.0155152
791.031	0.0156853
791.109	0.0156286
791.187	0.0155561
791.265	0.0156370
791.343	0.0157563
791.421	0.0156494
791.499	0.0158176
791.578	0.0159122
791.656	0.0159180
791.734	0.0159439
791.812	0.0160880
791.890	0.0161224
791.968	0.0160862
792.046	0.0161694
792.124	0.0162328
792.203	0.0163163
792.281	0.0164100
792.359	0.0164362
792.437	0.0164133
792.515	0.0163715
792.593	0.0163467
792.671	0.0163131
792.749	0.0163229
792.828	0.0162393
792.906	0.0164211
792.984	0.0164138
793.062	0.0163232
793.140	0.0161931
793.218	0.0161728
793.296	0.0160261
793.374	0.0160075
793.453	0.0159609
793.531	0.0159432
793.609	0.0159296
793.687	0.0157265
793.765	0.0158428
793.843	0.0156819
793.921	0.0156441
793.999	0.0155533
794.078	0.0154474
794.156	0.0155177
794.234	0.0155335
794.312	0.0153680
794.390	0.0154076
794.468	0.0153139
794.546	0.0154015
794.624	0.0154205
794.703	0.0155556
794.781	0.0153433
794.859	0.0154326
794.937	0.0155051
795.015	0.0155196
795.093	0.0156535
795.171	0.0157036
795.249	0.0157263
795.328	0.0156135
795.406	0.0157996
795.484	0.0157646
795.562	0.0157495
795.640	0.0158397
795.718	0.0158817
795.796	0.0158577
795.874	0.0157169
795.953	0.0160120
796.031	0.0159395
796.109	0.0160020
796.187	0.0159547
796.265	0.0161547
796.343	0.0161872
796.421	0.0160736
796.499	0.0161899
796.578	0.0163263
796.656	0.0162936
796.734	0.0162082
796.812	0.0162296
796.890	0.0163614
796.968	0.0164513
797.046	0.0162545
797.124	0.0161978
797.203	0.0161527
797.281	0.0163139
797.359	0.0162160
797.437	0.0161501
797.515	0.0161119
797.593	0.0162086
797.671	0.0160693
797.749	0.0159411
797.828	0.0157568
797.906	0.0156654
797.984	0.0156025
798.062	0.0156291
798.140	0.0154769
798.218	0.0152699
798.296	0.0152151
798.374	0.0153883
798.453	0.0153428
798.531	0.0153043
798.609	0.0151321
798.687	0.0152364
798.765	0.0152650
798.843	0.0152763
798.921	0.0154628
798.999	0.0153870
799.078	0.0155352
799.156	0.0157259
799.234	0.0155185
799.312	0.0155639
799.390	0.0157374
799.468	0.0159035
799.546	0.0158447
799.624	0.0158310
799.703	0.0159163
799.781	0.0159721
799.859	0.0161174
799.937	0.0159901
800.015	0.0160161
800.093	0.0161673
800.171	0.0161834
800.249	0.0159853
800.328	0.0161819
800.406	0.0161353
800.484	0.0160480
800.562	0.0162194
800.640	0.0161605
800.718	0.0162001
800.796	0.0161906
800.874	0.0160720
800.953	0.0160290
801.031	0.0159834
801.109	0.0158683
801.187	0.0159504
801.265	0.0159669
801.343	0.0157285
801.421	0.0157635
801.499	0.0157828
801.578	0.0157563
801.656	0.0157389
801.734	0.0157203
801.812	0.0157677
801.890	0.0156524
801.968	0.0157388
802.046	0.0157500
802.124	0.0156819
802.203	0.0156239
802.281	0.0156329
802.359	0.0157372
802.437	0.0157272
802.515	0.0156386
802.593	0.0157766
802.671	0.0156324
802.749	0.0156609
802.828	0.0157497
802.906	0.0157286
802.984	0.0156944
803.062	0.0157772
803.140	0.0157108
803.218	0.0157347
803.296	0.0157386
803.374	0.0157759
803.453	0.0157516
803.531	0.0157066
803.609	0.0157336
803.687	0.0157032
803.765	0.0158398
803.843	0.0158447
803.921	0.0158033
803.999	0.0159797
804.078	0.0159611
804.156	0.0161754
804.234	0.0161206
804.312	0.0160072
804.390	0.0159298
804.468	0.0161184
804.546	0.0161305
804.624	0.0159005
804.703	0.0161324
804.781	0.0163513
804.859	0.0161686
804.937	0.0162000
805.015	0.0160567
805.093	0.0159898
805.171	0.0159186
805.249	0.0159548
805.328	0.0158722
805.406	0.0158398
805.484	0.0156745
805.562	0.0156595
805.640	0.0156973
805.718	0.0156307
805.796	0.0153820
805.874	0.0153883
805.953	0.0154639
806.031	0.0154964
806.109	0.0153172
806.187	0.0152657
806.265	0.0153288
806.343	0.0153309
806.421	0.0153711
806.499	0.0153915
806.578	0.0154727
806.656	0.0153635
806.734	0.0152518
806.812	0.0155520
806.890	0.0154951
806.968	0.0154656
807.046	0.0158047
807.124	0.0159363
807.203	0.0157296
807.281	0.0158528
807.359	0.0158933
807.437	0.0159753
807.515	0.0160751
807.593	0.0159822
807.671	0.0160749
807.749	0.0160105
807.828	0.0159547
807.906	0.0161201
807.984	0.0160665
808.062	0.0161353
808.140	0.0162199
808.218	0.0162634
808.296	0.0162547
808.374	0.0162835
808.453	0.0161816
808.531	0.0161558
808.609	0.0160934
808.687	0.0160731
808.765	0.0159676
808.843	0.0160452
808.921	0.0158746
808.999	0.0159521
809.078	0.0159460
809.156	0.0158909
809.234	0.0157929
809.312	0.0157172
809.390	0.0158044
809.468	0.0157673
809.546	0.0156165
809.624	0.0156631
809.703	0.0156364
809.781	0.0156780
809.859	0.0155804
809.937	0.0155758
810.015	0.0154754
810.093	0.0155813
810.171	0.0156335
810.249	0.0155615
810.328	0.0156240
810.406	0.0156781
810.484	0.0155690
810.562	0.0154687
810.640	0.0155894
810.718	0.0155439
810.796	0.0156245
810.874	0.0156477
810.953	0.0156596
811.031	0.0158068
811.109	0.0158257
811.187	0.0159230
811.265	0.0159776
811.343	0.0159632
811.421	0.0160179
811.499	0.0161446
811.578	0.0161562
811.656	0.0160130
811.734	0.0161079
811.812	0.0161068
811.890	0.0159055
811.968	0.0158954
812.046	0.0159325
812.124	0.0160361
812.203	0.0160898
812.281	0.0158301
812.359	0.0158627
812.437	0.0158945
812.515	0.0158082
812.593	0.0158649
812.671	0.0159042
812.749	0.0157130
812.828	0.0159071
812.906	0.0159504
812.984	0.0157029
813.062	0.0156724
813.140	0.0157103
813.218	0.0156522
813.296	0.0155433
813.374	0.0155436
813.453	0.0156946
813.531	0.0157104
813.609	0.0156306
813.687	0.0157163
813.765	0.0156888
813.843	0.0158820
813.921	0.0158189
813.999	0.0156667
814.078	0.0157214
814.156	0.0157814
814.234	0.0156800
814.312	0.0154279
814.390	0.0154291
814.468	0.0154723
814.546	0.0155457
814.624	0.0154682
814.703	0.0155728
814.781	0.0157594
814.859	0.0155469
814.937	0.0156042
815.015	0.0156702
815.093	0.0157858
815.171	0.0157387
815.249	0.0159231
815.328	0.0159153
815.406	0.0158369
815.484	0.0160193
815.562	0.0159090
815.640	0.0161944
815.718	0.0162625
815.796	0.0161568
815.874	0.0161188
815.953	0.0161707
816.031	0.0162906
816.109	0.0161509
816.187	0.0161644
816.265	0.0160574
816.343	0.0160219
816.421	0.0159508
816.499	0.0158167
816.578	0.0159068
816.656	0.0158562
816.734	0.0158016
816.812	0.0157289
816.890	0.0157227
816.968	0.0158668
817.046	0.0156123
817.124	0.0156057
817.203	0.0156454
817.281	0.0156933
817.359	0.0155434
817.437	0.0155783
817.515	0.0155009
817.593	0.0153483
817.671	0.0152284
817.749	0.0153437
817.828	0.0155756
817.906	0.0154027
817.984	0.0154819
818.062	0.0154780
818.140	0.0154320
818.218	0.0155486
818.296	0.0155834
818.374	0.0155540
818.453	0.0155865
818.531	0.0156660
818.609	0.0155457
818.687	0.0156147
818.765	0.0156324
818.843	0.0158776
818.921	0.0157887
818.999	0.0160563
819.078	0.0158814
819.156	0.0158939
819.234	0.0160222
819.312	0.0160072
819.390	0.0161739
819.468	0.0160616
819.546	0.0162290
819.624	0.0161324
819.703	0.0161105
819.781	0.0159959
819.859	0.0162412
819.937	0.0163402
820.015	0.0161545
820.093	0.0159312
820.171	0.0160178
820.249	0.0159873
820.328	0.0159605
820.406	0.0159020
820.484	0.0158087
820.562	0.0159012
820.640	0.0158646
820.718	0.0157619
820.796	0.0157413
820.874	0.0155675
820.953	0.0154916
821.031	0.0154459
821.109	0.0155337
821.187	0.0155161
821.265	0.0154897
821.343	0.0153794
821.421	0.0154768
821.499	0.0154605
821.578	0.0154320
821.656	0.0154458
821.734	0.0154594
821.812	0.0156510
821.890	0.0156754
821.968	0.0158003
822.046	0.0157483
822.124	0.0157640
822.203	0.0158547
822.281	0.0159705
822.359	0.0159553
822.437	0.0159918
822.515	0.0160144
822.593	0.0158953
822.671	0.0160597
822.749	0.0161884
822.828	0.0161484
822.906	0.0161375
822.984	0.0160821
823.062	0.0158828
823.140	0.0160485
823.218	0.0159748
823.296	0.0159917
823.374	0.0159087
823.453	0.0159315
823.531	0.0159407
823.609	0.0159127
823.687	0.0158093
823.765	0.0157991
823.843	0.0157603
823.921	0.0157616
823.999	0.0157359
824.078	0.0155305
824.156	0.0155514
824.234	0.0156583
824.312	0.0156842
824.390	0.0155962
824.468	0.0155959
824.546	0.0154227
824.624	0.0155783
824.703	0.0156943
824.781	0.0157671
824.859	0.0155711
824.937	0.0156631
825.015	0.0157581
825.093	0.0157746
825.171	0.0157531
825.249	0.0158934
825.328	0.0158888
825.406	0.0158905
825.484	0.0158228
825.562	0.0159268
825.640	0.0160246
825.718	0.0161095
825.796	0.0160197
825.874	0.0159789
825.953	0.0160426
826.031	0.0161397
826.109	0.0161385
826.187	0.0159538
826.265	0.0159914
826.343	0.0159666
826.421	0.0160170
826.499	0.0159062
826.578	0.0159318
826.656	0.0160190
826.734	0.0157511
826.812	0.0158716
826.890	0.0158795
826.968	0.0159253
827.046	0.0159744
827.124	0.0158710
827.203	0.0157652
827.281	0.0156704
827.359	0.0157903
827.437	0.0157382
827.515	0.0156347
827.593	0.0157227
827.671	0.0156067
827.749	0.0156113
827.828	0.0156403
827.906	0.0156264
827.984	0.0155932
828.062	0.0154898
828.140	0.0157222
828.218	0.0156929
828.296	0.0154752
828.374	0.0155644
828.453	0.0155478
828.531	0.0154839
828.609	0.0154734
828.687	0.0156030
828.765	0.0156712
828.843	0.0156567
828.921	0.0156577
828.999	0.0157109
829.078	0.0158694
829.156	0.0156421
829.234	0.0159566
829.312	0.0160244
829.390	0.0159961
829.468	0.0159117
829.546	0.0159782
829.624	0.0160574
829.703	0.0160169
829.781	0.0159650
829.859	0.0161817
829.937	0.0161370
830.015	0.0160010
830.093	0.0160571
830.171	0.0161646
830.249	0.0160396
830.328	0.0159409
830.406	0.0160065
830.484	0.0159879
830.562	0.0158278
830.640	0.0160357
830.718	0.0157870
830.796	0.0159106
830.874	0.0159259
830.953	0.0157739
831.031	0.0158099
831.109	0.0157961
831.187	0.0157664
831.265	0.0156879
831.343	0.0155875
831.421	0.0157201
831.499	0.0157336
831.578	0.0156538
831.656	0.0157087
831.734	0.0157787
831.812	0.0158272
831.890	0.0158007
831.968	0.0158932
832.046	0.0160036
832.124	0.0158746
832.203	0.0158813
832.281	0.0159522
832.359	0.0160056
832.437	0.0160479
832.515	0.0160654
832.593	0.0159792
832.671	0.0158924
832.749	0.0159304
832.828	0.0159325
832.906	0.0158418
832.984	0.0159270
833.062	0.0158187
833.140	0.0159203
833.218	0.0158079
833.296	0.0157179
833.374	0.0156542
833.453	0.0157620
833.531	0.0155750
833.609	0.0156850
833.687	0.0155926
833.765	0.0155506
833.843	0.0154900
833.921	0.0154292
833.999	0.0154164
834.078	0.0154645
834.156	0.0154386
834.234	0.0153171
834.312	0.0152144
834.390	0.0155672
834.468	0.0154614
834.546	0.0154810
834.624	0.0155904
834.703	0.0155913
834.781	0.0156696
834.859	0.0158396
834.937	0.0159118
835.015	0.0159059
835.093	0.0159560
835.171	0.0160518
835.249	0.0161522
835.328	0.0160857
835.406	0.0162144
835.484	0.0163314
835.562	0.0163413
835.640	0.0163013
835.718	0.0163269
835.796	0.0163627
835.874	0.0161541
835.953	0.0162226
836.031	0.0162278
836.109	0.0163152
836.187	0.0162603
836.265	0.0161495
836.343	0.0161689
836.421	0.0160768
836.499	0.0159595
836.578	0.0157890
836.656	0.0157587
836.734	0.0155888
836.812	0.0155650
836.890	0.0155722
836.968	0.0155225
837.046	0.0153841
837.124	0.0153094
837.203	0.0152715
837.281	0.0151642
837.359	0.0150888
837.437	0.0151376
837.515	0.0153014
837.593	0.0152513
837.671	0.0152243
837.749	0.0153139
837.828	0.0154107
837.906	0.0153524
837.984	0.0153761
838.062	0.0156351
838.140	0.0154788
838.218	0.0156656
838.296	0.0157418
838.374	0.0158464
838.453	0.0158432
838.531	0.0159330
838.609	0.0158013
838.687	0.0160053
838.765	0.0161062
838.843	0.0161597
838.921	0.0161638
838.999	0.0162402
839.078	0.0162595
839.156	0.0161943
839.234	0.0162845
839.312	0.0163476
839.390	0.0162926
839.468	0.0162119
839.546	0.0161240
839.624	0.0160828
839.703	0.0160098
839.781	0.0160812
839.859	0.0157895
839.937	0.0158237
840.015	0.0158741
840.093	0.0156699
840.171	0.0156390
840.249	0.0154836
840.328	0.0154991
840.406	0.0155124
840.484	0.0154556
840.562	0.0153842
840.640	0.0153979
840.718	0.0152944
840.796	0.0153288
840.874	0.0153378
840.953	0.0153667
841.031	0.0153563
841.109	0.0152981
841.187	0.0154219
841.265	0.0154585
841.343	0.0156051
841.421	0.0156401
841.499	0.0156143
841.578	0.0157445
841.656	0.0158333
841.734	0.0157297
841.812	0.0157627
841.890	0.0160554
841.968	0.0159359
842.046	0.0160275
842.124	0.0161098
842.203	0.0160130
842.281	0.0160717
842.359	0.0160059
842.437	0.0161581
842.515	0.0160977
842.593	0.0160464
842.671	0.0161502
842.749	0.0160654
842.828	0.0161545
842.906	0.0161554
842.984	0.0161964
843.062	0.0160834
843.140	0.0163712
843.218	0.0160875
843.296	0.0162464
843.374	0.0161409
843.453	0.0160342
843.531	0.0159672
843.609	0.0158891
843.687	0.0158930
843.765	0.0157899
843.843	0.0158461
843.921	0.0156441
843.999	0.0156917
844.078	0.0156709
844.156	0.0155507
844.234	0.0155383
844.312	0.0155939
844.390	0.0154385
844.468	0.0155389
844.546	0.0154028
844.624	0.0154339
844.703	0.0153706
844.781	0.0155669
844.859	0.0153529
844.937	0.0154608
845.015	0.0154544
845.093	0.0155016
845.171	0.0155988
845.249	0.0156033
845.328	0.0155426
845.406	0.0155796
845.484	0.0157385
845.562	0.0157033
845.640	0.0157520
845.718	0.0157660
845.796	0.0158315
845.874	0.0159354
845.953	0.0159729
846.031	0.0158125
846.109	0.0159897
846.187	0.0158971
846.265	0.0159062
846.343	0.0160577
846.421	0.0159966
846.499	0.0160480
846.578	0.0160445
846.656	0.0160892
846.734	0.0163360
846.812	0.0161862
846.890	0.0160471
846.968	0.0161195
847.046	0.0161003
847.124	0.0161171
847.203	0.0161564
847.281	0.0163083
847.359	0.0161926
847.437	0.0161459
847.515	0.0159996
847.593	0.0161685
847.671	0.0160370
847.749	0.0160310
847.828	0.0159544
847.906	0.0159435
847.984	0.0159002
848.062	0.0159100
848.140	0.0157120
848.218	0.0158661
848.296	0.0157831
848.374	0.0157246
848.453	0.0155817
848.531	0.0156867
848.609	0.0156494
848.687	0.0156431
848.765	0.0155415
848.843	0.0154092
848.921	0.0155837
848.999	0.0155605
849.078	0.0155468
849.156	0.0154678
849.234	0.0155739
849.312	0.0155793
849.390	0.0155344
849.468	0.0155657
849.546	0.0155750
849.624	0.0156176
849.703	0.0154665
849.781	0.0155943
849.859	0.0155525
849.937	0.0155666
850.015	0.0156807
850.093	0.0155939
850.171	0.0156706
850.249	0.0157665
850.328	0.0158115
850.406	0.0157816
850.484	0.0156997
850.562	0.0159485
850.640	0.0158749
850.718	0.0157116
850.796	0.0159397
850.874	0.0158565
850.953	0.0159491
851.031	0.0159593
851.109	0.0159180
851.187	0.0160329
851.265	0.0161532
851.343	0.0159679
851.421	0.0161031
851.499	0.0160258
851.578	0.0160156
851.656	0.0160028
851.734	0.0160995
851.812	0.0160220
851.890	0.0161543
851.968	0.0161651
852.046	0.0160255
852.124	0.0160411
852.203	0.0159941
852.281	0.0160969
852.359	0.0161583
852.437	0.0160651
852.515	0.0160761
852.593	0.0160416
852.671	0.0159254
852.749	0.0157951
852.828	0.0158730
852.906	0.0158290
852.984	0.0158195
853.062	0.0158472
853.140	0.0157788
853.218	0.0157944
853.296	0.0157919
853.374	0.0157206
853.453	0.0157278
853.531	0.0156812
853.609	0.0156109
853.687	0.0156801
853.765	0.0156380
853.843	0.0155157
853.921	0.0154919
853.999	0.0156340
854.078	0.0155128
854.156	0.0155595
854.234	0.0155413
854.312	0.0156046
854.390	0.0155533
854.468	0.0156483
854.546	0.0157967
854.624	0.0157489
854.703	0.0157286
854.781	0.0158809
854.859	0.0157154
854.937	0.0158735
855.015	0.0160420
855.093	0.0160370
855.171	0.0160863
855.249	0.0161034
855.328	0.0162337
855.406	0.0162213
855.484	0.0162164
855.562	0.0161346
855.640	0.0162328
855.718	0.0161637
855.796	0.0161845
855.874	0.0163097
855.953	0.0160482
856.031	0.0160004
856.109	0.0162351
856.187	0.0160249
856.265	0.0158837
856.343	0.0159376
856.421	0.0160809
856.499	0.0159138
856.578	0.0158833
856.656	0.0156524
856.734	0.0157918
856.812	0.0157751
856.890	0.0156713
856.968	0.0155839
857.046	0.0156310
857.124	0.0156401
857.203	0.0156052
857.281	0.0156115
857.359	0.0155003
857.437	0.0156887
857.515	0.0157020
857.593	0.0156698
857.671	0.0155831
857.749	0.0156090
857.828	0.0156074
857.906	0.0156870
857.984	0.0156824
858.062	0.0158601
858.140	0.0156918
858.218	0.0156907
858.296	0.0157523
858.374	0.0158681
858.453	0.0159191
858.531	0.0158838
858.609	0.0159242
858.687	0.0159094
858.765	0.0158182
858.843	0.0158063
858.921	0.0158259
858.999	0.0158269
859.078	0.0157681
859.156	0.0157315
859.234	0.0158157
859.312	0.0158986
859.390	0.0158958
859.468	0.0158643
859.546	0.0157735
859.624	0.0157720
859.703	0.0157870
859.781	0.0156876
859.859	0.0156262
859.937	0.0158375
860.015	0.0157686
860.093	0.0156993
860.171	0.0157540
860.249	0.0157303
860.328	0.0156505
860.406	0.0157359
860.484	0.0157242
860.562	0.0157767
860.640	0.0157718
860.718	0.0157934
860.796	0.0156823
860.874	0.0156566
860.953	0.0155386
861.031	0.0156546
861.109	0.0156963
861.187	0.0157278
861.265	0.0156967
861.343	0.0157458
861.421	0.0157730
861.499	0.0157497
861.578	0.0155774
861.656	0.0156930
861.734	0.0157314
861.812	0.0159176
861.890	0.0158395
861.968	0.0157664
862.046	0.0157867
862.124	0.0157382
862.203	0.0157459
862.281	0.0157109
862.359	0.0157872
862.437	0.0157488
862.515	0.0158455
862.593	0.0157803
862.671	0.0158841
862.749	0.0157471
862.828	0.0158727
862.906	0.0156861
862.984	0.0158833
863.062	0.0157304
863.140	0.0157432
863.218	0.0158060
863.296	0.0158772
863.374	0.0157969
863.453	0.0158398
863.531	0.0158332
863.609	0.0158717
863.687	0.0157903
863.765	0.0158292
863.843	0.0159331
863.921	0.0158304
863.999	0.0158933
864.078	0.0157830
864.156	0.0158667
864.234	0.0160062
864.312	0.0158053
864.390	0.0158981
864.468	0.0158207
864.546	0.0159367
864.624	0.0158517
864.703	0.0158505
864.781	0.0159070
864.859	0.0158680
864.937	0.0158513
865.015	0.0158096
865.093	0.0159019
865.171	0.0159100
865.249	0.0158310
865.328	0.0159660
865.406	0.0159180
865.484	0.0158312
865.562	0.0158982
865.640	0.0160255
865.718	0.0159766
865.796	0.0157093
865.874	0.0159117
865.953	0.0159927
866.031	0.0158765
866.109	0.0158741
866.187	0.0159782
866.265	0.0159536
866.343	0.0160047
866.421	0.0159818
866.499	0.0159359
866.578	0.0159000
866.656	0.0160630
866.734	0.0159843
866.812	0.0160060
866.890	0.0158935
866.968	0.0159477
867.046	0.0159779
867.124	0.0159358
867.203	0.0159067
867.281	0.0158773
867.359	0.0159193
867.437	0.0161303
867.515	0.0157497
867.593	0.0158435
867.671	0.0160795
867.749	0.0159991
867.828	0.0157928
867.906	0.0161288
867.984	0.0159541
868.062	0.0158877
868.140	0.0160182
868.218	0.0160077
868.296	0.0159225
868.374	0.0158504
868.453	0.0158525
868.531	0.0158669
868.609	0.0157336
868.687	0.0158329
868.765	0.0157639
868.843	0.0157583
868.921	0.0157719
868.999	0.0158002
869.078	0.0158118
869.156	0.0157453
869.234	0.0156284
869.312	0.0158926
869.390	0.0158228
869.468	0.0158759
869.546	0.0158282
869.624	0.0158059
869.703	0.0158798
869.781	0.0158694
869.859	0.0158133
869.937	0.0159387
870.015	0.0161790
870.093	0.0159321
870.171	0.0158748
870.249	0.0159129
870.328	0.0159580
870.406	0.0158778
870.484	0.0159524
870.562	0.0157944
870.640	0.0157833
870.718	0.0157637
870.796	0.0158567
870.874	0.0157554
870.953	0.0157608
871.031	0.0157990
871.109	0.0157321
871.187	0.0158347
871.265	0.0157700
871.343	0.0157178
871.421	0.0158063
871.499	0.0157809
871.578	0.0158781
871.656	0.0158530
871.734	0.0158347
871.812	0.0158049
871.890	0.0158969
871.968	0.0158768
872.046	0.0159938
872.124	0.0159504
872.203	0.0158096
872.281	0.0159217
872.359	0.0158648
872.437	0.0159068
872.515	0.0158847
872.593	0.0158920
872.671	0.0160625
872.749	0.0159363
872.828	0.0159042
872.906	0.0158786
872.984	0.0159530
873.062	0.0157943
873.140	0.0159452
873.218	0.0160346
873.296	0.0159345
873.374	0.0159597
873.453	0.0158829
873.531	0.0158395
873.609	0.0159101
873.687	0.0158407
873.765	0.0156921
873.843	0.0157557
873.921	0.0159111
873.999	0.0158138
874.078	0.0158765
874.156	0.0158873
874.234	0.0157272
874.312	0.0157006
874.390	0.0157928
874.468	0.0159410
874.546	0.0158233
874.624	0.0156400
874.703	0.0159437
874.781	0.0156796
874.859	0.0158026
874.937	0.0159212
875.015	0.0157806
875.093	0.0158111
875.171	0.0159009
875.249	0.0158163
875.328	0.0158498
875.406	0.0158544
875.484	0.0158685
875.562	0.0159109
875.640	0.0160173
875.718	0.0158015
875.796	0.0158404
875.874	0.0159660
875.953	0.0158962
876.031	0.0160004
876.109	0.0157854
876.187	0.0159502
876.265	0.0158843
876.343	0.0157533
876.421	0.0159609
876.499	0.0158015
876.578	0.0158937
876.656	0.0158260
876.734	0.0158839
876.812	0.0159199
876.890	0.0158742
876.968	0.0158939
877.046	0.0158399
877.124	0.0158195
877.203	0.0158505
877.281	0.0158390
877.359	0.0158037
877.437	0.0158609
877.515	0.0158605
877.593	0.0157875
877.671	0.0159496
877.749	0.0157501
877.828	0.0158933
877.906	0.0157892
877.984	0.0158464
878.062	0.0156760
878.140	0.0157713
878.218	0.0158447
878.296	0.0157738
878.374	0.0157622
878.453	0.0158096
878.531	0.0158315
878.609	0.0157845
878.687	0.0157687
878.765	0.0158340
878.843	0.0157854
878.921	0.0156646
878.999	0.0157036
879.078	0.0156655
879.156	0.0156596
879.234	0.0157663
879.312	0.0158965
879.390	0.0157255
879.468	0.0157547
879.546	0.0157130
879.624	0.0157359
879.703	0.0158013
879.781	0.0157501
879.859	0.0158168
879.937	0.0157822
880.015	0.0157568
880.093	0.0157909
880.171	0.0158508
880.249	0.0157360
880.328	0.0159223
880.406	0.0157411
880.484	0.0157513
880.562	0.0156361
880.640	0.0156532
880.718	0.0157352
880.796	0.0157832
880.874	0.0157613
880.953	0.0157334
881.031	0.0157571
881.109	0.0156113
881.187	0.0155827
881.265	0.0157081
881.343	0.0155795
881.421	0.0157426
881.499	0.0158523
881.578	0.0158121
881.656	0.0156751
881.734	0.0158647
881.812	0.0157843
881.890	0.0159019
881.968	0.0157449
882.046	0.0157999
882.124	0.0159201
882.203	0.0158497
882.281	0.0157531
882.359	0.0157758
882.437	0.0157551
882.515	0.0158149
882.593	0.0158038
882.671	0.0157577
882.749	0.0156696
882.828	0.0157840
882.906	0.0156611
882.984	0.0157479
883.062	0.0155954
883.140	0.0156715
883.218	0.0156470
883.296	0.0155590
883.374	0.0156855
883.453	0.0156590
883.531	0.0155817
883.609	0.0157334
883.687	0.0156323
883.765	0.0155968
883.843	0.0156423
883.921	0.0157648
883.999	0.0157638
884.078	0.0157399
884.156	0.0156917
884.234	0.0158012
884.312	0.0158997
884.390	0.0158514
884.468	0.0157519
884.546	0.0159271
884.624	0.0158981
884.703	0.0158467
884.781	0.0158492
884.859	0.0158369
884.937	0.0159670
885.015	0.0160744
885.093	0.0158897
885.171	0.0158551
885.249	0.0158916
885.328	0.0158329
885.406	0.0157915
885.484	0.0158133
885.562	0.0159253
885.640	0.0159003
885.718	0.0158775
885.796	0.0159684
885.874	0.0158986
885.953	0.0159306
886.031	0.0158308
886.109	0.0158659
886.187	0.0159409
886.265	0.0156594
886.343	0.0156715
886.421	0.0156231
886.499	0.0156637
886.578	0.0156282
886.656	0.0157169
886.734	0.0156663
886.812	0.0156875
886.890	0.0155991
886.968	0.0157401
887.046	0.0156502
887.124	0.0158690
887.203	0.0157447
887.281	0.0157904
887.359	0.0158518
887.437	0.0158517
887.515	0.0158322
887.593	0.0158600
887.671	0.0158921
887.749	0.0159028
887.828	0.0157741
887.906	0.0156252
887.984	0.0158118
888.062	0.0158833
888.140	0.0156815
888.218	0.0156596
888.296	0.0157977
888.374	0.0159030
888.453	0.0159153
888.531	0.0159047
888.609	0.0158849
888.687	0.0158701
888.765	0.0157652
888.843	0.0159823
888.921	0.0160014
888.999	0.0160841
889.078	0.0159119
889.156	0.0159199
889.234	0.0160121
889.312	0.0160497
889.390	0.0159678
889.468	0.0160237
889.546	0.0159283
889.624	0.0160493
889.703	0.0159415
889.781	0.0158962
889.859	0.0158964
889.937	0.0158311
890.015	0.0159258
890.093	0.0157889
890.171	0.0158300
890.249	0.0157912
890.328	0.0159448
890.406	0.0159751
890.484	0.0158727
890.562	0.0157414
890.640	0.0157622
890.718	0.0158595
890.796	0.0159357
890.874	0.0160099
890.953	0.0158080
891.031	0.0157816
891.109	0.0157920
891.187	0.0158920
891.265	0.0159533
891.343	0.0159343
891.421	0.0157919
891.499	0.0159043
891.578	0.0159039
891.656	0.0157788
891.734	0.0158971
891.812	0.0158792
891.890	0.0159270
891.968	0.0159979
892.046	0.0159696
892.124	0.0159134
892.203	0.0158979
892.281	0.0159364
892.359	0.0159245
892.437	0.0159187
892.515	0.0159146
892.593	0.0159335
892.671	0.0159664
892.749	0.0159721
892.828	0.0159528
892.906	0.0160616
892.984	0.0159101
893.062	0.0159047
893.140	0.0158965
893.218	0.0161237
893.296	0.0160086
893.374	0.0158434
893.453	0.0159481
893.531	0.0159536
893.609	0.0158892
893.687	0.0158886
893.765	0.0159247
893.843	0.0158204
893.921	0.0159296
893.999	0.0158392
894.078	0.0159279
894.156	0.0158961
894.234	0.0158605
894.312	0.0158811
894.390	0.0159671
894.468	0.0159666
894.546	0.0160181
894.624	0.0159974
894.703	0.0159827
894.781	0.0158633
894.859	0.0158287
894.937	0.0158617
895.015	0.0159464
895.093	0.0159486
895.171	0.0158887
895.249	0.0158192
895.328	0.0157980
895.406	0.0158485
895.484	0.0156770
895.562	0.0158126
895.640	0.0157939
895.718	0.0157243
895.796	0.0156567
895.874	0.0157639
895.953	0.0157653
896.031	0.0156607
896.109	0.0156648
896.187	0.0158913
896.265	0.0158092
896.343	0.0159291
896.421	0.0158203
896.499	0.0159609
896.578	0.0159562
896.656	0.0157835
896.734	0.0158553
896.812	0.0159431
896.890	0.0159494
896.968	0.0159682
897.046	0.0159689
897.124	0.0158453
897.203	0.0159635
897.281	0.0159554
897.359	0.0159857
897.437	0.0159399
897.515	0.0158952
897.593	0.0158590
897.671	0.0160414
897.749	0.0160094
897.828	0.0158542
897.906	0.0159541
897.984	0.0158855
898.062	0.0158424
898.140	0.0158911
898.218	0.0157397
898.296	0.0157753
898.374	0.0157619
898.453	0.0158078
898.531	0.0157261
898.609	0.0158134
898.687	0.0157471
898.765	0.0158440
898.843	0.0158942
898.921	0.0159554
898.999	0.0158756
899.078	0.0157941
899.156	0.0159049
899.234	0.0159267
899.312	0.0158649
899.390	0.0158979
899.468	0.0159409
899.546	0.0160427
899.624	0.0159665
899.703	0.0159198
899.781	0.0159314
899.859	0.0160522
899.937	0.0158784
900.015	0.0159544
900.093	0.0160719
900.171	0.0159434
900.249	0.0159055
900.328	0.0158905
900.406	0.0158544
900.484	0.0160030
900.562	0.0158817
900.640	0.0159128
900.718	0.0158437
900.796	0.0159129
900.874	0.0158360
900.953	0.0159685
901.031	0.0157710
901.109	0.0159667
901.187	0.0158131
901.265	0.0157883
901.343	0.0158435
901.421	0.0157919
901.499	0.0157653
901.578	0.0158347
901.656	0.0158319
901.734	0.0159251
901.812	0.0158597
901.890	0.0158053
901.968	0.0158963
902.046	0.0158529
902.124	0.0159612
902.203	0.0159890
902.281	0.0159509
902.359	0.0160989
902.437	0.0158664
902.515	0.0159672
902.593	0.0159995
902.671	0.0157938
902.749	0.0158004
902.828	0.0159027
902.906	0.0160288
902.984	0.0157796
903.062	0.0159051
903.140	0.0158791
903.218	0.0157986
903.296	0.0157837
903.374	0.0157353
903.453	0.0157429
903.531	0.0158664
903.609	0.0157134
903.687	0.0158964
903.765	0.0159274
903.843	0.0157398
903.921	0.0157490
903.999	0.0156210
904.078	0.0157849
904.156	0.0158607
904.234	0.0157077
904.312	0.0158883
904.390	0.0157750
904.468	0.0157510
904.546	0.0159635
904.624	0.0159040
904.703	0.0158822
904.781	0.0158145
904.859	0.0158353
904.937	0.0159371
905.015	0.0158093
905.093	0.0159274
905.171	0.0158743
905.249	0.0158148
905.328	0.0158910
905.406	0.0158241
905.484	0.0158241
905.562	0.0159182
905.640	0.0159444
905.718	0.0159187
905.796	0.0158460
905.874	0.0156998
905.953	0.0156895
906.031	0.0157690
906.109	0.0158335
906.187	0.0155853
906.265	0.0156039
906.343	0.0156354
906.421	0.0156166
906.499	0.0156169
906.578	0.0155261
906.656	0.0155692
906.734	0.0156789
906.812	0.0156075
906.890	0.0154730
906.968	0.0156281
907.046	0.0154865
907.124	0.0154353
907.203	0.0155322
907.281	0.0156228
907.359	0.0155157
907.437	0.0156519
907.515	0.0155248
907.593	0.0157616
907.671	0.0157021
907.749	0.0156398
907.828	0.0156747
907.906	0.0158140
907.984	0.0159153
908.062	0.0157592
908.140	0.0157848
908.218	0.0158311
908.296	0.0157961
908.374	0.0156219
908.453	0.0158583
908.531	0.0158779
908.609	0.0157839
908.687	0.0158422
908.765	0.0157098
908.843	0.0157183
908.921	0.0156902
908.999	0.0157154
909.078	0.0157040
909.156	0.0157310
909.234	0.0156503
909.312	0.0156500
909.390	0.0156124
909.468	0.0154706
909.546	0.0156790
909.624	0.0156572
909.703	0.0155836
909.781	0.0157160
909.859	0.0156291
909.937	0.0156356
910.015	0.0157745
910.093	0.0155590
910.171	0.0156371
910.249	0.0157140
910.328	0.0156592
910.406	0.0157384
910.484	0.0158256
910.562	0.0158031
910.640	0.0157082
910.718	0.0157088
910.796	0.0157574
910.874	0.0158287
910.953	0.0158751
911.031	0.0158064
911.109	0.0158144
911.187	0.0157618
911.265	0.0157304
911.343	0.0158432
911.421	0.0158092
911.499	0.0158156
911.578	0.0157470
911.656	0.0158414
911.734	0.0158881
911.812	0.0156850
911.890	0.0157172
911.968	0.0157785
912.046	0.0155756
912.124	0.0156569
912.203	0.0157092
912.281	0.0158075
912.359	0.0157011
912.437	0.0156099
912.515	0.0156903
912.593	0.0157432
912.671	0.0156126
912.749	0.0157157
912.828	0.0156355
912.906	0.0157453
912.984	0.0157744
913.062	0.0157800
913.140	0.0158938
913.218	0.0157831
913.296	0.0157963
913.374	0.0158552
913.453	0.0158557
913.531	0.0159045
913.609	0.0161420
913.687	0.0159155
913.765	0.0159344
913.843	0.0158731
913.921	0.0159825
913.999	0.0160798
914.078	0.0159258
914.156	0.0158820
914.234	0.0158419
914.312	0.0159083
914.390	0.0159190
914.468	0.0158672
914.546	0.0158724
914.624	0.0157979
914.703	0.0158829
914.781	0.0158395
914.859	0.0158972
914.937	0.0158880
915.015	0.0158236
915.093	0.0157836
915.171	0.0157155
915.249	0.0158536
915.328	0.0158031
915.406	0.0156683
915.484	0.0157008
915.562	0.0157984
915.640	0.0159038
915.718	0.0157117
915.796	0.0157438
915.874	0.0158602
915.953	0.0157652
916.031	0.0157470
916.109	0.0159425
916.187	0.0158649
916.265	0.0159422
916.343	0.0160576
916.421	0.0158822
916.499	0.0160487
916.578	0.0160289
916.656	0.0160574
916.734	0.0159798
916.812	0.0160077
916.890	0.0159525
916.968	0.0160643
917.046	0.0159586
917.124	0.0160006
917.203	0.0161029
917.281	0.0160828
917.359	0.0159159
917.437	0.0158948
917.515	0.0158837
917.593	0.0159056
917.671	0.0159486
917.749	0.0158360
917.828	0.0158059
917.906	0.0157387
917.984	0.0158058
918.062	0.0157679
918.140	0.0157740
918.218	0.0158670
918.296	0.0158700
918.374	0.0158558
918.453	0.0157065
918.531	0.0157533
918.609	0.0158877
918.687	0.0157730
918.765	0.0158648
918.843	0.0158165
918.921	0.0158742
918.999	0.0159817
919.078	0.0161200
919.156	0.0160182
919.234	0.0158980
919.312	0.0159913
919.390	0.0160240
919.468	0.0159818
919.546	0.0158588
919.624	0.0160207
919.703	0.0159978
919.781	0.0158852
919.859	0.0158011
919.937	0.0158802
