06/10/2022	19:01:00	Ver.	4.1	UNKNOWN
Optical Delay	600.015094	Delta X		0.078125	Sweeps	1	Scan Rate	0/0
Coordinates	Axis 1	NaN	Axis 2	NaN	Axis 3	NaN	Axis 4	NaN	Axis 5	NaN	Axis 6	0.000000
TX Power	0.000000	RX Power	0.000000

600.015	0.0157498
600.093	0.0157203
600.171	0.0157893
600.249	0.0156769
600.328	0.0156060
600.406	0.0157111
600.484	0.0156673
600.562	0.0155761
600.640	0.0156515
600.718	0.0156496
600.796	0.0157429
600.874	0.0156712
600.953	0.0157829
601.031	0.0157751
601.109	0.0155885
601.187	0.0157462
601.265	0.0157309
601.343	0.0156786
601.421	0.0156701
601.499	0.0155417
601.578	0.0157017
601.656	0.0156472
601.734	0.0155364
601.812	0.0156113
601.890	0.0155334
601.968	0.0157092
602.046	0.0157162
602.124	0.0156377
602.203	0.0157622
602.281	0.0156802
602.359	0.0156632
602.437	0.0155859
602.515	0.0155069
602.593	0.0155904
602.671	0.0156533
602.749	0.0156567
602.828	0.0157466
602.906	0.0157466
602.984	0.0156111
603.062	0.0155606
603.140	0.0157363
603.218	0.0156828
603.296	0.0156291
603.374	0.0156387
603.453	0.0157092
603.531	0.0155794
603.609	0.0155589
603.687	0.0155801
603.765	0.0156707
603.843	0.0155202
603.921	0.0155387
603.999	0.0155996
604.078	0.0157041
604.156	0.0157374
604.234	0.0156652
604.312	0.0155836
604.390	0.0156236
604.468	0.0156953
604.546	0.0156327
604.624	0.0156706
604.703	0.0156702
604.781	0.0157184
604.859	0.0156062
604.937	0.0156772
605.015	0.0156384
605.093	0.0157178
605.171	0.0156596
605.249	0.0155355
605.328	0.0155518
605.406	0.0158588
605.484	0.0157299
605.562	0.0155371
605.640	0.0157295
605.718	0.0155972
605.796	0.0156935
605.874	0.0155665
605.953	0.0156419
606.031	0.0157271
606.109	0.0156686
606.187	0.0156666
606.265	0.0158189
606.343	0.0156831
606.421	0.0156837
606.499	0.0157505
606.578	0.0157114
606.656	0.0157122
606.734	0.0156577
606.812	0.0156746
606.890	0.0157716
606.968	0.0157122
607.046	0.0156087
607.124	0.0157598
607.203	0.0157465
607.281	0.0156496
607.359	0.0156693
607.437	0.0156213
607.515	0.0157342
607.593	0.0158169
607.671	0.0157049
607.749	0.0158410
607.828	0.0156409
607.906	0.0157869
607.984	0.0157482
608.062	0.0158258
608.140	0.0157115
608.218	0.0156978
608.296	0.0157578
608.374	0.0157587
608.453	0.0156486
608.531	0.0156791
608.609	0.0156120
608.687	0.0156536
608.765	0.0157148
608.843	0.0156773
608.921	0.0156915
608.999	0.0156825
609.078	0.0157699
609.156	0.0155618
609.234	0.0156360
609.312	0.0157111
609.390	0.0157832
609.468	0.0157890
609.546	0.0156471
609.624	0.0156732
609.703	0.0157481
609.781	0.0158543
609.859	0.0157187
609.937	0.0157330
610.015	0.0157816
610.093	0.0157793
610.171	0.0156995
610.249	0.0157240
610.328	0.0157215
610.406	0.0156965
610.484	0.0156758
610.562	0.0157275
610.640	0.0157382
610.718	0.0157204
610.796	0.0156338
610.874	0.0156551
610.953	0.0156715
611.031	0.0156721
611.109	0.0157610
611.187	0.0158106
611.265	0.0157317
611.343	0.0156981
611.421	0.0155147
611.499	0.0156034
611.578	0.0157255
611.656	0.0156384
611.734	0.0157323
611.812	0.0157487
611.890	0.0157140
611.968	0.0157550
612.046	0.0156744
612.124	0.0157191
612.203	0.0155202
612.281	0.0156640
612.359	0.0157635
612.437	0.0157233
612.515	0.0156991
612.593	0.0155996
612.671	0.0156580
612.749	0.0158118
612.828	0.0157242
612.906	0.0156091
612.984	0.0156387
613.062	0.0156201
613.140	0.0156886
613.218	0.0154713
613.296	0.0156444
613.374	0.0156536
613.453	0.0156875
613.531	0.0155906
613.609	0.0155840
613.687	0.0155859
613.765	0.0156597
613.843	0.0156356
613.921	0.0156874
613.999	0.0156593
614.078	0.0157705
614.156	0.0155720
614.234	0.0155103
614.312	0.0155962
614.390	0.0158061
614.468	0.0156920
614.546	0.0156483
614.624	0.0156884
614.703	0.0156725
614.781	0.0155914
614.859	0.0156509
614.937	0.0155849
615.015	0.0155978
615.093	0.0156528
615.171	0.0157050
615.249	0.0156108
615.328	0.0156448
615.406	0.0155492
615.484	0.0155240
615.562	0.0155984
615.640	0.0157240
615.718	0.0157927
615.796	0.0156932
615.874	0.0154460
615.953	0.0156634
616.031	0.0157051
616.109	0.0155121
616.187	0.0155533
616.265	0.0157047
616.343	0.0156397
616.421	0.0156338
616.499	0.0157114
616.578	0.0155584
616.656	0.0156366
616.734	0.0155932
616.812	0.0154146
616.890	0.0156450
616.968	0.0156416
617.046	0.0157358
617.124	0.0156655
617.203	0.0155106
617.281	0.0155686
617.359	0.0156087
617.437	0.0155395
617.515	0.0155876
617.593	0.0157492
617.671	0.0156260
617.749	0.0156531
617.828	0.0156303
617.906	0.0156003
617.984	0.0155489
618.062	0.0156045
618.140	0.0155727
618.218	0.0155630
618.296	0.0154794
618.374	0.0156379
618.453	0.0156661
618.531	0.0155620
618.609	0.0155644
618.687	0.0156628
618.765	0.0156378
618.843	0.0157679
618.921	0.0156115
618.999	0.0155733
619.078	0.0155558
619.156	0.0157307
619.234	0.0157269
619.312	0.0157187
619.390	0.0157921
619.468	0.0155909
619.546	0.0155400
619.624	0.0157397
619.703	0.0156398
619.781	0.0156403
619.859	0.0156103
619.937	0.0158031
620.015	0.0157774
620.093	0.0156320
620.171	0.0157072
620.249	0.0156998
620.328	0.0156725
620.406	0.0156961
620.484	0.0157114
620.562	0.0157372
620.640	0.0156546
620.718	0.0155892
620.796	0.0157234
620.874	0.0156722
620.953	0.0157154
621.031	0.0155865
621.109	0.0157442
621.187	0.0156030
621.265	0.0156006
621.343	0.0157592
621.421	0.0157356
621.499	0.0157475
621.578	0.0156797
621.656	0.0157580
621.734	0.0158430
621.812	0.0156261
621.890	0.0158184
621.968	0.0157461
622.046	0.0157027
622.124	0.0157990
622.203	0.0158614
622.281	0.0157418
622.359	0.0157121
622.437	0.0157250
622.515	0.0158224
622.593	0.0157571
622.671	0.0157953
622.749	0.0158014
622.828	0.0156682
622.906	0.0158355
622.984	0.0157302
623.062	0.0157069
623.140	0.0158253
623.218	0.0156821
623.296	0.0157185
623.374	0.0158599
623.453	0.0157592
623.531	0.0158250
623.609	0.0157951
623.687	0.0159093
623.765	0.0158212
623.843	0.0158045
623.921	0.0157689
623.999	0.0158834
624.078	0.0156932
624.156	0.0156902
624.234	0.0158064
624.312	0.0157726
624.390	0.0159027
624.468	0.0159111
624.546	0.0156301
624.624	0.0158246
624.703	0.0157609
624.781	0.0156358
624.859	0.0157126
624.937	0.0156848
625.015	0.0156654
625.093	0.0157073
625.171	0.0158174
625.249	0.0156976
625.328	0.0157329
625.406	0.0156810
625.484	0.0157362
625.562	0.0156318
625.640	0.0158083
625.718	0.0156712
625.796	0.0157047
625.874	0.0156689
625.953	0.0157181
626.031	0.0157199
626.109	0.0156912
626.187	0.0156303
626.265	0.0157417
626.343	0.0156796
626.421	0.0157133
626.499	0.0157643
626.578	0.0156394
626.656	0.0156061
626.734	0.0155441
626.812	0.0156570
626.890	0.0157076
626.968	0.0157256
627.046	0.0156781
627.124	0.0157214
627.203	0.0156266
627.281	0.0155827
627.359	0.0154971
627.437	0.0156611
627.515	0.0156945
627.593	0.0155926
627.671	0.0155788
627.749	0.0154758
627.828	0.0156815
627.906	0.0156345
627.984	0.0157313
628.062	0.0156873
628.140	0.0155795
628.218	0.0154572
628.296	0.0157104
628.374	0.0155582
628.453	0.0155768
628.531	0.0155820
628.609	0.0155659
628.687	0.0156516
628.765	0.0155508
628.843	0.0155917
628.921	0.0156821
628.999	0.0156204
629.078	0.0155624
629.156	0.0157923
629.234	0.0157893
629.312	0.0156313
629.390	0.0157074
629.468	0.0157438
629.546	0.0156852
629.624	0.0155357
629.703	0.0156808
629.781	0.0157285
629.859	0.0157194
629.937	0.0156250
630.015	0.0156927
630.093	0.0157941
630.171	0.0156064
630.249	0.0156032
630.328	0.0158401
630.406	0.0157984
630.484	0.0156253
630.562	0.0157566
630.640	0.0157390
630.718	0.0157658
630.796	0.0158205
630.874	0.0156892
630.953	0.0156169
631.031	0.0156185
631.109	0.0157438
631.187	0.0157911
631.265	0.0157505
631.343	0.0157084
631.421	0.0158214
631.499	0.0155854
631.578	0.0156024
631.656	0.0157838
631.734	0.0159019
631.812	0.0156976
631.890	0.0156539
631.968	0.0157526
632.046	0.0157703
632.124	0.0156624
632.203	0.0157963
632.281	0.0158221
632.359	0.0158451
632.437	0.0156927
632.515	0.0158582
632.593	0.0157571
632.671	0.0156438
632.749	0.0158765
632.828	0.0157825
632.906	0.0158342
632.984	0.0158126
633.062	0.0157675
633.140	0.0158133
633.218	0.0158132
633.296	0.0157667
633.374	0.0156797
633.453	0.0158624
633.531	0.0157900
633.609	0.0158123
633.687	0.0157833
633.765	0.0157803
633.843	0.0158698
633.921	0.0157790
633.999	0.0159156
634.078	0.0157926
634.156	0.0156961
634.234	0.0158654
634.312	0.0158401
634.390	0.0157801
634.468	0.0158278
634.546	0.0157537
634.624	0.0157952
634.703	0.0159491
634.781	0.0156956
634.859	0.0156973
634.937	0.0156950
635.015	0.0157283
635.093	0.0157018
635.171	0.0157765
635.249	0.0158620
635.328	0.0156928
635.406	0.0157594
635.484	0.0158144
635.562	0.0158596
635.640	0.0156588
635.718	0.0157414
635.796	0.0158141
635.874	0.0158491
635.953	0.0157614
636.031	0.0157510
636.109	0.0158080
636.187	0.0157642
636.265	0.0157686
636.343	0.0158440
636.421	0.0158224
636.499	0.0157410
636.578	0.0158511
636.656	0.0156828
636.734	0.0157426
636.812	0.0157215
636.890	0.0156979
636.968	0.0156660
637.046	0.0156157
637.124	0.0158171
637.203	0.0157782
637.281	0.0156721
637.359	0.0157977
637.437	0.0157548
637.515	0.0157395
637.593	0.0159050
637.671	0.0157523
637.749	0.0158233
637.828	0.0156937
637.906	0.0158331
637.984	0.0157351
638.062	0.0158257
638.140	0.0158450
638.218	0.0156075
638.296	0.0157506
638.374	0.0158290
638.453	0.0157816
638.531	0.0158015
638.609	0.0157195
638.687	0.0156630
638.765	0.0157152
638.843	0.0156372
638.921	0.0157475
638.999	0.0157415
639.078	0.0156535
639.156	0.0157838
639.234	0.0158016
639.312	0.0157315
639.390	0.0156222
639.468	0.0157579
639.546	0.0158089
639.624	0.0157821
639.703	0.0156968
639.781	0.0156178
639.859	0.0156755
639.937	0.0156773
640.015	0.0155985
640.093	0.0155788
640.171	0.0154897
640.249	0.0154589
640.328	0.0155045
640.406	0.0155631
640.484	0.0154966
640.562	0.0153475
640.640	0.0155275
640.718	0.0156223
640.796	0.0153664
640.874	0.0154692
640.953	0.0155280
641.031	0.0155222
641.109	0.0155840
641.187	0.0156410
641.265	0.0155596
641.343	0.0156248
641.421	0.0156924
641.499	0.0156339
641.578	0.0156360
641.656	0.0157375
641.734	0.0156918
641.812	0.0157494
641.890	0.0156766
641.968	0.0156322
642.046	0.0157230
642.124	0.0156604
642.203	0.0157086
642.281	0.0155308
642.359	0.0157594
642.437	0.0157015
642.515	0.0155655
642.593	0.0155592
642.671	0.0155537
642.749	0.0155597
642.828	0.0154724
642.906	0.0154440
642.984	0.0155346
643.062	0.0155412
643.140	0.0153938
643.218	0.0154478
643.296	0.0155361
643.374	0.0156610
643.453	0.0155112
643.531	0.0154661
643.609	0.0157019
643.687	0.0156307
643.765	0.0154760
643.843	0.0155122
643.921	0.0156219
643.999	0.0156313
644.078	0.0157283
644.156	0.0156277
644.234	0.0156417
644.312	0.0156755
644.390	0.0157168
644.468	0.0154670
644.546	0.0155886
644.624	0.0156841
644.703	0.0158244
644.781	0.0155741
644.859	0.0155074
644.937	0.0156008
645.015	0.0157869
645.093	0.0156554
645.171	0.0154926
645.249	0.0156137
645.328	0.0155975
645.406	0.0154626
645.484	0.0155867
645.562	0.0157195
645.640	0.0155750
645.718	0.0156725
645.796	0.0157156
645.874	0.0156214
645.953	0.0155494
646.031	0.0154991
646.109	0.0156729
646.187	0.0157368
646.265	0.0156262
646.343	0.0156912
646.421	0.0156709
646.499	0.0155856
646.578	0.0155652
646.656	0.0157491
646.734	0.0157652
646.812	0.0157310
646.890	0.0156107
646.968	0.0155905
647.046	0.0158180
647.124	0.0156767
647.203	0.0157782
647.281	0.0157065
647.359	0.0157541
647.437	0.0157328
647.515	0.0156242
647.593	0.0155797
647.671	0.0158511
647.749	0.0157535
647.828	0.0157812
647.906	0.0155814
647.984	0.0157613
648.062	0.0157522
648.140	0.0157841
648.218	0.0157364
648.296	0.0157209
648.374	0.0156300
648.453	0.0156350
648.531	0.0157482
648.609	0.0158347
648.687	0.0157113
648.765	0.0156302
648.843	0.0155663
648.921	0.0155495
648.999	0.0156349
649.078	0.0157209
649.156	0.0158388
649.234	0.0156825
649.312	0.0157329
649.390	0.0157034
649.468	0.0157320
649.546	0.0157413
649.624	0.0158445
649.703	0.0157392
649.781	0.0156329
649.859	0.0156924
649.937	0.0157854
650.015	0.0158044
650.093	0.0156881
650.171	0.0158232
650.249	0.0158113
650.328	0.0158067
650.406	0.0156931
650.484	0.0157532
650.562	0.0157008
650.640	0.0156908
650.718	0.0157397
650.796	0.0157713
650.874	0.0158340
650.953	0.0158714
651.031	0.0157324
651.109	0.0155788
651.187	0.0156472
651.265	0.0156027
651.343	0.0157179
651.421	0.0157917
651.499	0.0158614
651.578	0.0156458
651.656	0.0157039
651.734	0.0158333
651.812	0.0157451
651.890	0.0157037
651.968	0.0157946
652.046	0.0157242
652.124	0.0157475
652.203	0.0155448
652.281	0.0158443
652.359	0.0157877
652.437	0.0158103
652.515	0.0157587
652.593	0.0156777
652.671	0.0156831
652.749	0.0158515
652.828	0.0157301
652.906	0.0156113
652.984	0.0156931
653.062	0.0157761
653.140	0.0156937
653.218	0.0159882
653.296	0.0158116
653.374	0.0156683
653.453	0.0158044
653.531	0.0157883
653.609	0.0158611
653.687	0.0157201
653.765	0.0156605
653.843	0.0158102
653.921	0.0156786
653.999	0.0157124
654.078	0.0157127
654.156	0.0157190
654.234	0.0157093
654.312	0.0157752
654.390	0.0157080
654.468	0.0157451
654.546	0.0158217
654.624	0.0157991
654.703	0.0159064
654.781	0.0157310
654.859	0.0158383
654.937	0.0157639
655.015	0.0157953
655.093	0.0159117
655.171	0.0158677
655.249	0.0156738
655.328	0.0157445
655.406	0.0158650
655.484	0.0157919
655.562	0.0158430
655.640	0.0158302
655.718	0.0158916
655.796	0.0156962
655.874	0.0159235
655.953	0.0158023
656.031	0.0156770
656.109	0.0158072
656.187	0.0157267
656.265	0.0158216
656.343	0.0157127
656.421	0.0157597
656.499	0.0156917
656.578	0.0158011
656.656	0.0156674
656.734	0.0157754
656.812	0.0156469
656.890	0.0156614
656.968	0.0156746
657.046	0.0158176
657.124	0.0155518
657.203	0.0157424
657.281	0.0157964
657.359	0.0158008
657.437	0.0155942
657.515	0.0156545
657.593	0.0156336
657.671	0.0157645
657.749	0.0157519
657.828	0.0157510
657.906	0.0156882
657.984	0.0156595
658.062	0.0157558
658.140	0.0157124
658.218	0.0157568
658.296	0.0157371
658.374	0.0158056
658.453	0.0155707
658.531	0.0156470
658.609	0.0156593
658.687	0.0156994
658.765	0.0156644
658.843	0.0157159
658.921	0.0157404
658.999	0.0157787
659.078	0.0157335
659.156	0.0156662
659.234	0.0156735
659.312	0.0156440
659.390	0.0155974
659.468	0.0156729
659.546	0.0156702
659.624	0.0156937
659.703	0.0156442
659.781	0.0158327
659.859	0.0157735
659.937	0.0158267
660.015	0.0156865
660.093	0.0155410
660.171	0.0156419
660.249	0.0157169
660.328	0.0157923
660.406	0.0158616
660.484	0.0157404
660.562	0.0156538
660.640	0.0156635
660.718	0.0156625
660.796	0.0156805
660.874	0.0157436
660.953	0.0157813
661.031	0.0156482
661.109	0.0157132
661.187	0.0155534
661.265	0.0156738
661.343	0.0157642
661.421	0.0157577
661.499	0.0157177
661.578	0.0155000
661.656	0.0157234
661.734	0.0156419
661.812	0.0157496
661.890	0.0157155
661.968	0.0155386
662.046	0.0156728
662.124	0.0157627
662.203	0.0156850
662.281	0.0155914
662.359	0.0157268
662.437	0.0157305
662.515	0.0157017
662.593	0.0156775
662.671	0.0156953
662.749	0.0156033
662.828	0.0157294
662.906	0.0156175
662.984	0.0157763
663.062	0.0157070
663.140	0.0154418
663.218	0.0156316
663.296	0.0157105
663.374	0.0156504
663.453	0.0156583
663.531	0.0154772
663.609	0.0157374
663.687	0.0157450
663.765	0.0155450
663.843	0.0155823
663.921	0.0157103
663.999	0.0156445
664.078	0.0156622
664.156	0.0156206
664.234	0.0155870
664.312	0.0156724
664.390	0.0156772
664.468	0.0153513
664.546	0.0156413
664.624	0.0156268
664.703	0.0156203
664.781	0.0153973
664.859	0.0154950
664.937	0.0154426
665.015	0.0154628
665.093	0.0155712
665.171	0.0156406
665.249	0.0154282
665.328	0.0154437
665.406	0.0154900
665.484	0.0157472
665.562	0.0155714
665.640	0.0154877
665.718	0.0153800
665.796	0.0156078
665.874	0.0155995
665.953	0.0155219
666.031	0.0155083
666.109	0.0155054
666.187	0.0155629
666.265	0.0154010
666.343	0.0154552
666.421	0.0156690
666.499	0.0156373
666.578	0.0153862
666.656	0.0154481
666.734	0.0155630
666.812	0.0154662
666.890	0.0155293
666.968	0.0155089
667.046	0.0155776
667.124	0.0155479
667.203	0.0154858
667.281	0.0155531
667.359	0.0155123
667.437	0.0155049
667.515	0.0155694
667.593	0.0155725
667.671	0.0155385
667.749	0.0155210
667.828	0.0155237
667.906	0.0156371
667.984	0.0155428
668.062	0.0155578
668.140	0.0155869
668.218	0.0154477
668.296	0.0154877
668.374	0.0155266
668.453	0.0155428
668.531	0.0154622
668.609	0.0154311
668.687	0.0153996
668.765	0.0156506
668.843	0.0156225
668.921	0.0155327
668.999	0.0155623
669.078	0.0155540
669.156	0.0154993
669.234	0.0156127
669.312	0.0156954
669.390	0.0155372
669.468	0.0155423
669.546	0.0155510
669.624	0.0156400
669.703	0.0155652
669.781	0.0156528
669.859	0.0155531
669.937	0.0156385
670.015	0.0156650
670.093	0.0154961
670.171	0.0156207
670.249	0.0155446
670.328	0.0156615
670.406	0.0155292
670.484	0.0155124
670.562	0.0155444
670.640	0.0155346
670.718	0.0155533
670.796	0.0157629
670.874	0.0156473
670.953	0.0155618
671.031	0.0155433
671.109	0.0155598
671.187	0.0156192
671.265	0.0157117
671.343	0.0156313
671.421	0.0156219
671.499	0.0154906
671.578	0.0155818
671.656	0.0156131
671.734	0.0156483
671.812	0.0154839
671.890	0.0156062
671.968	0.0155814
672.046	0.0156865
672.124	0.0156209
672.203	0.0157145
672.281	0.0157031
672.359	0.0155619
672.437	0.0155644
672.515	0.0156009
672.593	0.0157049
672.671	0.0157664
672.749	0.0156812
672.828	0.0156310
672.906	0.0157117
672.984	0.0157140
673.062	0.0155982
673.140	0.0155845
673.218	0.0156601
673.296	0.0155885
673.374	0.0155726
673.453	0.0158493
673.531	0.0156367
673.609	0.0156368
673.687	0.0157447
673.765	0.0157635
673.843	0.0156262
673.921	0.0158796
673.999	0.0157449
674.078	0.0157734
674.156	0.0156958
674.234	0.0157488
674.312	0.0156631
674.390	0.0158003
674.468	0.0156239
674.546	0.0156264
674.624	0.0156588
674.703	0.0157287
674.781	0.0157327
674.859	0.0156974
674.937	0.0158691
675.015	0.0156003
675.093	0.0157209
675.171	0.0156960
675.249	0.0157439
675.328	0.0158599
675.406	0.0156120
675.484	0.0156848
675.562	0.0157708
675.640	0.0157652
675.718	0.0157471
675.796	0.0158099
675.874	0.0157202
675.953	0.0156553
676.031	0.0156840
676.109	0.0158021
676.187	0.0157574
676.265	0.0157092
676.343	0.0157996
676.421	0.0157505
676.499	0.0157851
676.578	0.0158592
676.656	0.0157235
676.734	0.0158221
676.812	0.0158759
676.890	0.0158245
676.968	0.0157487
677.046	0.0157250
677.124	0.0156707
677.203	0.0156427
677.281	0.0157400
677.359	0.0155758
677.437	0.0157611
677.515	0.0157681
677.593	0.0158408
677.671	0.0157046
677.749	0.0158469
677.828	0.0157526
677.906	0.0157253
677.984	0.0158561
678.062	0.0157870
678.140	0.0157527
678.218	0.0156927
678.296	0.0157269
678.374	0.0158180
678.453	0.0157592
678.531	0.0157246
678.609	0.0157236
678.687	0.0157359
678.765	0.0158619
678.843	0.0156997
678.921	0.0159899
678.999	0.0158419
679.078	0.0155477
679.156	0.0157494
679.234	0.0157921
679.312	0.0158221
679.390	0.0157196
679.468	0.0157386
679.546	0.0157091
679.624	0.0157371
679.703	0.0158881
679.781	0.0155856
679.859	0.0157212
679.937	0.0156484
680.015	0.0156303
680.093	0.0157414
680.171	0.0157373
680.249	0.0156532
680.328	0.0156013
680.406	0.0156197
680.484	0.0156139
680.562	0.0157473
680.640	0.0156829
680.718	0.0156142
680.796	0.0155336
680.874	0.0157276
680.953	0.0156960
681.031	0.0154897
681.109	0.0155862
681.187	0.0154572
681.265	0.0156909
681.343	0.0158134
681.421	0.0157563
681.499	0.0156842
681.578	0.0156251
681.656	0.0157220
681.734	0.0156852
681.812	0.0157069
681.890	0.0156544
681.968	0.0156223
682.046	0.0157710
682.124	0.0158224
682.203	0.0157079
682.281	0.0157395
682.359	0.0157480
682.437	0.0155907
682.515	0.0155679
682.593	0.0156737
682.671	0.0155595
682.749	0.0157665
682.828	0.0157265
682.906	0.0156681
682.984	0.0157161
683.062	0.0156078
683.140	0.0156512
683.218	0.0156342
683.296	0.0157861
683.374	0.0155011
683.453	0.0156512
683.531	0.0155992
683.609	0.0157007
683.687	0.0157059
683.765	0.0156115
683.843	0.0156868
683.921	0.0158174
683.999	0.0156683
684.078	0.0156546
684.156	0.0156760
684.234	0.0156456
684.312	0.0157771
684.390	0.0155643
684.468	0.0156952
684.546	0.0157098
684.624	0.0156278
684.703	0.0156796
684.781	0.0157700
684.859	0.0157238
684.937	0.0155419
685.015	0.0157311
685.093	0.0157211
685.171	0.0157172
685.249	0.0156292
685.328	0.0155145
685.406	0.0156207
685.484	0.0156447
685.562	0.0156194
685.640	0.0156387
685.718	0.0156184
685.796	0.0156172
685.874	0.0155789
685.953	0.0156796
686.031	0.0155544
686.109	0.0156304
686.187	0.0155547
686.265	0.0156321
686.343	0.0157505
686.421	0.0156305
686.499	0.0155589
686.578	0.0155371
686.656	0.0155898
686.734	0.0156220
686.812	0.0155325
686.890	0.0155475
686.968	0.0155662
687.046	0.0155616
687.124	0.0155586
687.203	0.0156179
687.281	0.0156396
687.359	0.0156756
687.437	0.0155730
687.515	0.0155679
687.593	0.0156551
687.671	0.0155585
687.749	0.0156495
687.828	0.0156672
687.906	0.0155447
687.984	0.0154805
688.062	0.0156017
688.140	0.0156351
688.218	0.0155283
688.296	0.0155452
688.374	0.0154601
688.453	0.0155942
688.531	0.0156298
688.609	0.0155798
688.687	0.0155980
688.765	0.0155906
688.843	0.0155379
688.921	0.0155634
688.999	0.0155627
689.078	0.0155181
689.156	0.0155583
689.234	0.0155836
689.312	0.0156150
689.390	0.0156251
689.468	0.0155470
689.546	0.0155656
689.624	0.0155109
689.703	0.0154474
689.781	0.0157240
689.859	0.0158548
689.937	0.0157354
690.015	0.0155783
690.093	0.0154933
690.171	0.0155923
690.249	0.0156016
690.328	0.0155479
690.406	0.0157302
690.484	0.0157833
690.562	0.0157231
690.640	0.0155956
690.718	0.0157736
690.796	0.0157124
690.874	0.0156595
690.953	0.0156651
691.031	0.0157297
691.109	0.0155717
691.187	0.0156289
691.265	0.0156403
691.343	0.0156351
691.421	0.0155858
691.499	0.0155680
691.578	0.0155456
691.656	0.0156126
691.734	0.0155638
691.812	0.0155377
691.890	0.0154804
691.968	0.0156165
692.046	0.0156294
692.124	0.0155849
692.203	0.0156285
692.281	0.0155041
692.359	0.0156825
692.437	0.0157438
692.515	0.0156541
692.593	0.0156493
692.671	0.0154437
692.749	0.0155540
692.828	0.0156646
692.906	0.0156955
692.984	0.0156911
693.062	0.0158199
693.140	0.0156585
693.218	0.0155951
693.296	0.0157908
693.374	0.0155622
693.453	0.0154965
693.531	0.0155361
693.609	0.0156990
693.687	0.0156986
693.765	0.0155211
693.843	0.0157153
693.921	0.0156615
693.999	0.0157615
694.078	0.0157291
694.156	0.0156568
694.234	0.0155769
694.312	0.0156632
694.390	0.0156018
694.468	0.0155613
694.546	0.0156626
694.624	0.0154401
694.703	0.0157455
694.781	0.0157684
694.859	0.0156837
694.937	0.0154813
695.015	0.0157661
695.093	0.0156673
695.171	0.0156281
695.249	0.0156976
695.328	0.0155244
695.406	0.0155779
695.484	0.0157126
695.562	0.0155562
695.640	0.0156883
695.718	0.0156480
695.796	0.0157594
695.874	0.0156138
695.953	0.0156369
696.031	0.0155990
696.109	0.0154974
696.187	0.0155771
696.265	0.0158360
696.343	0.0157804
696.421	0.0156362
696.499	0.0156479
696.578	0.0156335
696.656	0.0155437
696.734	0.0156911
696.812	0.0156672
696.890	0.0157078
696.968	0.0157413
697.046	0.0155574
697.124	0.0156197
697.203	0.0157209
697.281	0.0156676
697.359	0.0156652
697.437	0.0155830
697.515	0.0156805
697.593	0.0156863
697.671	0.0157109
697.749	0.0157233
697.828	0.0156098
697.906	0.0156338
697.984	0.0156582
698.062	0.0156901
698.140	0.0155822
698.218	0.0157040
698.296	0.0156754
698.374	0.0157607
698.453	0.0158588
698.531	0.0156464
698.609	0.0156024
698.687	0.0156696
698.765	0.0155826
698.843	0.0156556
698.921	0.0156625
698.999	0.0157755
699.078	0.0157849
699.156	0.0156886
699.234	0.0155795
699.312	0.0156863
699.390	0.0156739
699.468	0.0155962
699.546	0.0155556
699.624	0.0156583
699.703	0.0157011
699.781	0.0157388
699.859	0.0156528
699.937	0.0157234
700.015	0.0156633
700.093	0.0156852
700.171	0.0156683
700.249	0.0155560
700.328	0.0156488
700.406	0.0156129
700.484	0.0157931
700.562	0.0156937
700.640	0.0156046
700.718	0.0156340
700.796	0.0156811
700.874	0.0155903
700.953	0.0157007
701.031	0.0157005
701.109	0.0156451
701.187	0.0157043
701.265	0.0157410
701.343	0.0157177
701.421	0.0156613
701.499	0.0156940
701.578	0.0155927
701.656	0.0156995
701.734	0.0158121
701.812	0.0157652
701.890	0.0157182
701.968	0.0155098
702.046	0.0157016
702.124	0.0156611
702.203	0.0157854
702.281	0.0156792
702.359	0.0158208
702.437	0.0158261
702.515	0.0156360
702.593	0.0155844
702.671	0.0156680
702.749	0.0158704
702.828	0.0157336
702.906	0.0157043
702.984	0.0157388
703.062	0.0158031
703.140	0.0157333
703.218	0.0156113
703.296	0.0156982
703.374	0.0157117
703.453	0.0157751
703.531	0.0156911
703.609	0.0156393
703.687	0.0156207
703.765	0.0159013
703.843	0.0158537
703.921	0.0159401
703.999	0.0158146
704.078	0.0156412
704.156	0.0158581
704.234	0.0156287
704.312	0.0156601
704.390	0.0157636
704.468	0.0157732
704.546	0.0157659
704.624	0.0156953
704.703	0.0158774
704.781	0.0158576
704.859	0.0157030
704.937	0.0157686
705.015	0.0156493
705.093	0.0157933
705.171	0.0157339
705.249	0.0157044
705.328	0.0158174
705.406	0.0157312
705.484	0.0155914
705.562	0.0157047
705.640	0.0156305
705.718	0.0156993
705.796	0.0156281
705.874	0.0157399
705.953	0.0157098
706.031	0.0157866
706.109	0.0156415
706.187	0.0158516
706.265	0.0157028
706.343	0.0156152
706.421	0.0157901
706.499	0.0157156
706.578	0.0157207
706.656	0.0157982
706.734	0.0158731
706.812	0.0155412
706.890	0.0156493
706.968	0.0157390
707.046	0.0157049
707.124	0.0157566
707.203	0.0156771
707.281	0.0156004
707.359	0.0156983
707.437	0.0157282
707.515	0.0157545
707.593	0.0156059
707.671	0.0156976
707.749	0.0157597
707.828	0.0157606
707.906	0.0157446
707.984	0.0156663
708.062	0.0159103
708.140	0.0158021
708.218	0.0156550
708.296	0.0157485
708.374	0.0156866
708.453	0.0158042
708.531	0.0157206
708.609	0.0157728
708.687	0.0159831
708.765	0.0157027
708.843	0.0156669
708.921	0.0159293
708.999	0.0157008
709.078	0.0157143
709.156	0.0159472
709.234	0.0156924
709.312	0.0156667
709.390	0.0157501
709.468	0.0158678
709.546	0.0157740
709.624	0.0158803
709.703	0.0157778
709.781	0.0156995
709.859	0.0157417
709.937	0.0157328
710.015	0.0158382
710.093	0.0156395
710.171	0.0157222
710.249	0.0157183
710.328	0.0158038
710.406	0.0157230
710.484	0.0158027
710.562	0.0157269
710.640	0.0157500
710.718	0.0157668
710.796	0.0157129
710.874	0.0157967
710.953	0.0156704
711.031	0.0157993
711.109	0.0157271
711.187	0.0157825
711.265	0.0156578
711.343	0.0156590
711.421	0.0156387
711.499	0.0157292
711.578	0.0156332
711.656	0.0156280
711.734	0.0156049
711.812	0.0155746
711.890	0.0157272
711.968	0.0157590
712.046	0.0157297
712.124	0.0155966
712.203	0.0155309
712.281	0.0155962
712.359	0.0157987
712.437	0.0157053
712.515	0.0155976
712.593	0.0158014
712.671	0.0156635
712.749	0.0155850
712.828	0.0156960
712.906	0.0156889
712.984	0.0156063
713.062	0.0156805
713.140	0.0156552
713.218	0.0157371
713.296	0.0155588
713.374	0.0157069
713.453	0.0155361
713.531	0.0156410
713.609	0.0156078
713.687	0.0157899
713.765	0.0156152
713.843	0.0156231
713.921	0.0157954
713.999	0.0157873
714.078	0.0155697
714.156	0.0156808
714.234	0.0156557
714.312	0.0156994
714.390	0.0156508
714.468	0.0155865
714.546	0.0154542
714.624	0.0156469
714.703	0.0156931
714.781	0.0155866
714.859	0.0156670
714.937	0.0156927
715.015	0.0155473
715.093	0.0156908
715.171	0.0156796
715.249	0.0156593
715.328	0.0156985
715.406	0.0155288
715.484	0.0156686
715.562	0.0155544
715.640	0.0157279
715.718	0.0155950
715.796	0.0156635
715.874	0.0157152
715.953	0.0156586
716.031	0.0157740
716.109	0.0156893
716.187	0.0156926
716.265	0.0155809
716.343	0.0156036
716.421	0.0157042
716.499	0.0157718
716.578	0.0156570
716.656	0.0156336
716.734	0.0155745
716.812	0.0156227
716.890	0.0156882
716.968	0.0156544
717.046	0.0155964
717.124	0.0155224
717.203	0.0155572
717.281	0.0156267
717.359	0.0156667
717.437	0.0157229
717.515	0.0157829
717.593	0.0156805
717.671	0.0156528
717.749	0.0156980
717.828	0.0157636
717.906	0.0156216
717.984	0.0156078
718.062	0.0156865
718.140	0.0156926
718.218	0.0156989
718.296	0.0156683
718.374	0.0158362
718.453	0.0158792
718.531	0.0156095
718.609	0.0156193
718.687	0.0156940
718.765	0.0157046
718.843	0.0157771
718.921	0.0157958
718.999	0.0158435
719.078	0.0155890
719.156	0.0156725
719.234	0.0156071
719.312	0.0156544
719.390	0.0155820
719.468	0.0156792
719.546	0.0156688
719.624	0.0156257
719.703	0.0156087
719.781	0.0157095
719.859	0.0156893
719.937	0.0157666
720.015	0.0157630
720.093	0.0156728
720.171	0.0156001
720.249	0.0156802
720.328	0.0157557
720.406	0.0157174
720.484	0.0157078
720.562	0.0157538
720.640	0.0155928
720.718	0.0156283
720.796	0.0157404
720.874	0.0157896
720.953	0.0156971
721.031	0.0158010
721.109	0.0157577
721.187	0.0156023
721.265	0.0157204
721.343	0.0155766
721.421	0.0157019
721.499	0.0156867
721.578	0.0157555
721.656	0.0158537
721.734	0.0158023
721.812	0.0155912
721.890	0.0156823
721.968	0.0157385
722.046	0.0157289
722.124	0.0157307
722.203	0.0157352
722.281	0.0157883
722.359	0.0158859
722.437	0.0157676
722.515	0.0156436
722.593	0.0157401
722.671	0.0158062
722.749	0.0157744
722.828	0.0156503
722.906	0.0156329
722.984	0.0156782
723.062	0.0157278
723.140	0.0156294
723.218	0.0158089
723.296	0.0157768
723.374	0.0159044
723.453	0.0157291
723.531	0.0157513
723.609	0.0158130
723.687	0.0158030
723.765	0.0157452
723.843	0.0156397
723.921	0.0157822
723.999	0.0157669
724.078	0.0157133
724.156	0.0157994
724.234	0.0158300
724.312	0.0157136
724.390	0.0156651
724.468	0.0158118
724.546	0.0157764
724.624	0.0158957
724.703	0.0157902
724.781	0.0156448
724.859	0.0157802
724.937	0.0158557
725.015	0.0158479
725.093	0.0158293
725.171	0.0157896
725.249	0.0158758
725.328	0.0158038
725.406	0.0157965
725.484	0.0157610
725.562	0.0157788
725.640	0.0158574
725.718	0.0158692
725.796	0.0157833
725.874	0.0158902
725.953	0.0156489
726.031	0.0157076
726.109	0.0157795
726.187	0.0158249
726.265	0.0158394
726.343	0.0157566
726.421	0.0158669
726.499	0.0158327
726.578	0.0158253
726.656	0.0157170
726.734	0.0157138
726.812	0.0157677
726.890	0.0156629
726.968	0.0156366
727.046	0.0157458
727.124	0.0157678
727.203	0.0157475
727.281	0.0157767
727.359	0.0158331
727.437	0.0156670
727.515	0.0156907
727.593	0.0157851
727.671	0.0157343
727.749	0.0157465
727.828	0.0157183
727.906	0.0157980
727.984	0.0156786
728.062	0.0157384
728.140	0.0157913
728.218	0.0157009
728.296	0.0157018
728.374	0.0158189
728.453	0.0158790
728.531	0.0156845
728.609	0.0157015
728.687	0.0157371
728.765	0.0157536
728.843	0.0157958
728.921	0.0157229
728.999	0.0156010
729.078	0.0157026
729.156	0.0157990
729.234	0.0156874
729.312	0.0158236
729.390	0.0157539
729.468	0.0157319
729.546	0.0157189
729.624	0.0156916
729.703	0.0158459
729.781	0.0158099
729.859	0.0157156
729.937	0.0158339
730.015	0.0158104
730.093	0.0156651
730.171	0.0157762
730.249	0.0159451
730.328	0.0157183
730.406	0.0158613
730.484	0.0158212
730.562	0.0157915
730.640	0.0158448
730.718	0.0158806
730.796	0.0157922
730.874	0.0158887
730.953	0.0158656
731.031	0.0157018
731.109	0.0156756
731.187	0.0157964
731.265	0.0158147
731.343	0.0158700
731.421	0.0156316
731.499	0.0158009
731.578	0.0159450
731.656	0.0158762
731.734	0.0158013
731.812	0.0157824
731.890	0.0157252
731.968	0.0157737
732.046	0.0157996
732.124	0.0158646
732.203	0.0156706
732.281	0.0158296
732.359	0.0158186
732.437	0.0157700
732.515	0.0156610
732.593	0.0158410
732.671	0.0157538
732.749	0.0158424
732.828	0.0158322
732.906	0.0157613
732.984	0.0158972
733.062	0.0158303
733.140	0.0157700
733.218	0.0157208
733.296	0.0158597
733.374	0.0157883
733.453	0.0157772
733.531	0.0157919
733.609	0.0158364
733.687	0.0156500
733.765	0.0158454
733.843	0.0157959
733.921	0.0157948
733.999	0.0156420
734.078	0.0157175
734.156	0.0157527
734.234	0.0157846
734.312	0.0157361
734.390	0.0157767
734.468	0.0157001
734.546	0.0157178
734.624	0.0157346
734.703	0.0156982
734.781	0.0155362
734.859	0.0157104
734.937	0.0156294
735.015	0.0155626
735.093	0.0157162
735.171	0.0157117
735.249	0.0157411
735.328	0.0156787
735.406	0.0156210
735.484	0.0156544
735.562	0.0156334
735.640	0.0156168
735.718	0.0157418
735.796	0.0156485
735.874	0.0155251
735.953	0.0156078
736.031	0.0158466
736.109	0.0158230
736.187	0.0156554
736.265	0.0157117
736.343	0.0157693
736.421	0.0156914
736.499	0.0157644
736.578	0.0158614
736.656	0.0157266
736.734	0.0157281
736.812	0.0156567
736.890	0.0156870
736.968	0.0157944
737.046	0.0156387
737.124	0.0156004
737.203	0.0157109
737.281	0.0157565
737.359	0.0156318
737.437	0.0156386
737.515	0.0157029
737.593	0.0155470
737.671	0.0156005
737.749	0.0155721
737.828	0.0156249
737.906	0.0155425
737.984	0.0155755
738.062	0.0156620
738.140	0.0156416
738.218	0.0156280
738.296	0.0157379
738.374	0.0155640
738.453	0.0156077
738.531	0.0156986
738.609	0.0155964
738.687	0.0157980
738.765	0.0157503
738.843	0.0155620
738.921	0.0155113
738.999	0.0156827
739.078	0.0156266
739.156	0.0156584
739.234	0.0156179
739.312	0.0157270
739.390	0.0156677
739.468	0.0157160
739.546	0.0155844
739.624	0.0156064
739.703	0.0156854
739.781	0.0155880
739.859	0.0156962
739.937	0.0156116
740.015	0.0155116
740.093	0.0157153
740.171	0.0155116
740.249	0.0155994
740.328	0.0157670
740.406	0.0157532
740.484	0.0157774
740.562	0.0157853
740.640	0.0156466
740.718	0.0156155
740.796	0.0156834
740.874	0.0156528
740.953	0.0156210
741.031	0.0155687
741.109	0.0156438
741.187	0.0158089
741.265	0.0156297
741.343	0.0156358
741.421	0.0156608
741.499	0.0155964
741.578	0.0156423
741.656	0.0155120
741.734	0.0157174
741.812	0.0156660
741.890	0.0156457
741.968	0.0156039
742.046	0.0156590
742.124	0.0156888
742.203	0.0157235
742.281	0.0157095
742.359	0.0156550
742.437	0.0156595
742.515	0.0156474
742.593	0.0156198
742.671	0.0156358
742.749	0.0158148
742.828	0.0157395
742.906	0.0155438
742.984	0.0156996
743.062	0.0157698
743.140	0.0155135
743.218	0.0156391
743.296	0.0157890
743.374	0.0156291
743.453	0.0156003
743.531	0.0156435
743.609	0.0155938
743.687	0.0156078
743.765	0.0156246
743.843	0.0156209
743.921	0.0155370
743.999	0.0155390
744.078	0.0157549
744.156	0.0157529
744.234	0.0156740
744.312	0.0156486
744.390	0.0155943
744.468	0.0155865
744.546	0.0157258
744.624	0.0156406
744.703	0.0155556
744.781	0.0158131
744.859	0.0156894
744.937	0.0156108
745.015	0.0155616
745.093	0.0156348
745.171	0.0155792
745.249	0.0155525
745.328	0.0157555
745.406	0.0156252
745.484	0.0157426
745.562	0.0157113
745.640	0.0155785
745.718	0.0155525
745.796	0.0156098
745.874	0.0155351
745.953	0.0156207
746.031	0.0155697
746.109	0.0155947
746.187	0.0154154
746.265	0.0156247
746.343	0.0155846
746.421	0.0156445
746.499	0.0155839
746.578	0.0155623
746.656	0.0156351
746.734	0.0155745
746.812	0.0156701
746.890	0.0156384
746.968	0.0156454
747.046	0.0155990
747.124	0.0156586
747.203	0.0156541
747.281	0.0155003
747.359	0.0156511
747.437	0.0156639
747.515	0.0154572
747.593	0.0156768
747.671	0.0156375
747.749	0.0156838
747.828	0.0157401
747.906	0.0158063
747.984	0.0156966
748.062	0.0155697
748.140	0.0158946
748.218	0.0157361
748.296	0.0157263
748.374	0.0157839
748.453	0.0157556
748.531	0.0156339
748.609	0.0158738
748.687	0.0157744
748.765	0.0157355
748.843	0.0157608
748.921	0.0156766
748.999	0.0157562
749.078	0.0156601
749.156	0.0156551
749.234	0.0156860
749.312	0.0157510
749.390	0.0157529
749.468	0.0157211
749.546	0.0159768
749.624	0.0155798
749.703	0.0158109
749.781	0.0157739
749.859	0.0158168
749.937	0.0158360
750.015	0.0157072
750.093	0.0157679
750.171	0.0160153
750.249	0.0159134
750.328	0.0157903
750.406	0.0157652
750.484	0.0156090
750.562	0.0158592
750.640	0.0159052
750.718	0.0158060
750.796	0.0156877
750.874	0.0158501
750.953	0.0158225
751.031	0.0157236
751.109	0.0157862
751.187	0.0158118
751.265	0.0158029
751.343	0.0157597
751.421	0.0156612
751.499	0.0157284
751.578	0.0157092
751.656	0.0156969
751.734	0.0156405
751.812	0.0156573
751.890	0.0155932
751.968	0.0156687
752.046	0.0154339
752.124	0.0156024
752.203	0.0156632
752.281	0.0155693
752.359	0.0157784
752.437	0.0157574
752.515	0.0158040
752.593	0.0158768
752.671	0.0156807
752.749	0.0155549
752.828	0.0157412
752.906	0.0156783
752.984	0.0157785
753.062	0.0159011
753.140	0.0157568
753.218	0.0157777
753.296	0.0159428
753.374	0.0157573
753.453	0.0158049
753.531	0.0158081
753.609	0.0158025
753.687	0.0158043
753.765	0.0157996
753.843	0.0157513
753.921	0.0158862
753.999	0.0159587
754.078	0.0156689
754.156	0.0157592
754.234	0.0157225
754.312	0.0156911
754.390	0.0156648
754.468	0.0156419
754.546	0.0157593
754.624	0.0155895
754.703	0.0157367
754.781	0.0156311
754.859	0.0157315
754.937	0.0157590
755.015	0.0157503
755.093	0.0157406
755.171	0.0156367
755.249	0.0157298
755.328	0.0158633
755.406	0.0157621
755.484	0.0156059
755.562	0.0157094
755.640	0.0157278
755.718	0.0156538
755.796	0.0156395
755.874	0.0158588
755.953	0.0156860
756.031	0.0156541
756.109	0.0157914
756.187	0.0157217
756.265	0.0157839
756.343	0.0158250
756.421	0.0156406
756.499	0.0156798
756.578	0.0156171
756.656	0.0156918
756.734	0.0156722
756.812	0.0156052
756.890	0.0157688
756.968	0.0155308
757.046	0.0156467
757.124	0.0156468
757.203	0.0157068
757.281	0.0156326
757.359	0.0156972
757.437	0.0157823
757.515	0.0156850
757.593	0.0157244
757.671	0.0156705
757.749	0.0157839
757.828	0.0157124
757.906	0.0156601
757.984	0.0156831
758.062	0.0157708
758.140	0.0157170
758.218	0.0158152
758.296	0.0156606
758.374	0.0157400
758.453	0.0156187
758.531	0.0156286
758.609	0.0157256
758.687	0.0158808
758.765	0.0157374
758.843	0.0157616
758.921	0.0156512
758.999	0.0155913
759.078	0.0156280
759.156	0.0156765
759.234	0.0156289
759.312	0.0156152
759.390	0.0155285
759.468	0.0155502
759.546	0.0156808
759.624	0.0155890
759.703	0.0156102
759.781	0.0156197
759.859	0.0156776
759.937	0.0154834
760.015	0.0155407
760.093	0.0155542
760.171	0.0157228
760.249	0.0157255
760.328	0.0156625
760.406	0.0157931
760.484	0.0157052
760.562	0.0157321
760.640	0.0157436
760.718	0.0157569
760.796	0.0157170
760.874	0.0158514
760.953	0.0158728
761.031	0.0158784
761.109	0.0158915
761.187	0.0157658
761.265	0.0158772
761.343	0.0158759
761.421	0.0158546
761.499	0.0156990
761.578	0.0156342
761.656	0.0155986
761.734	0.0157114
761.812	0.0155670
761.890	0.0156269
761.968	0.0155754
762.046	0.0155664
762.124	0.0155758
762.203	0.0154964
762.281	0.0156229
762.359	0.0157359
762.437	0.0156905
762.515	0.0155315
762.593	0.0156218
762.671	0.0156756
762.749	0.0155110
762.828	0.0155889
762.906	0.0155141
762.984	0.0156211
763.062	0.0155251
763.140	0.0155607
763.218	0.0155321
763.296	0.0155097
763.374	0.0155585
763.453	0.0155930
763.531	0.0154800
763.609	0.0156090
763.687	0.0156702
763.765	0.0157095
763.843	0.0155406
763.921	0.0156513
763.999	0.0155386
764.078	0.0155217
764.156	0.0156031
764.234	0.0155820
764.312	0.0155305
764.390	0.0155798
764.468	0.0156283
764.546	0.0157003
764.624	0.0154858
764.703	0.0156942
764.781	0.0156985
764.859	0.0155700
764.937	0.0156674
765.015	0.0155159
765.093	0.0158478
765.171	0.0156889
765.249	0.0157099
765.328	0.0158492
765.406	0.0157391
765.484	0.0157114
765.562	0.0157207
765.640	0.0157534
765.718	0.0157680
765.796	0.0157384
765.874	0.0158370
765.953	0.0157278
766.031	0.0156998
766.109	0.0156313
766.187	0.0157181
766.265	0.0157285
766.343	0.0155313
766.421	0.0155045
766.499	0.0156826
766.578	0.0155095
766.656	0.0155651
766.734	0.0156924
766.812	0.0156757
766.890	0.0155933
766.968	0.0158180
767.046	0.0157072
767.124	0.0157067
767.203	0.0156869
767.281	0.0155042
767.359	0.0156189
767.437	0.0156134
767.515	0.0155191
767.593	0.0154330
767.671	0.0153497
767.749	0.0153839
767.828	0.0154242
767.906	0.0154023
767.984	0.0153568
768.062	0.0153386
768.140	0.0153986
768.218	0.0152385
768.296	0.0152940
768.374	0.0153952
768.453	0.0153318
768.531	0.0153542
768.609	0.0153752
768.687	0.0153436
768.765	0.0153704
768.843	0.0154625
768.921	0.0155048
768.999	0.0154876
769.078	0.0157422
769.156	0.0157043
769.234	0.0159124
769.312	0.0158010
769.390	0.0158718
769.468	0.0159029
769.546	0.0157184
769.624	0.0159068
769.703	0.0157731
769.781	0.0157397
769.859	0.0159456
769.937	0.0158156
770.015	0.0159647
770.093	0.0158794
770.171	0.0158678
770.249	0.0159163
770.328	0.0159574
770.406	0.0159306
770.484	0.0158453
770.562	0.0159528
770.640	0.0157986
770.718	0.0160728
770.796	0.0157747
770.874	0.0156323
770.953	0.0156874
771.031	0.0156581
771.109	0.0157154
771.187	0.0156602
771.265	0.0156090
771.343	0.0155763
771.421	0.0156341
771.499	0.0154477
771.578	0.0154630
771.656	0.0153269
771.734	0.0154071
771.812	0.0155428
771.890	0.0155988
771.968	0.0154914
772.046	0.0156192
772.124	0.0154816
772.203	0.0154449
772.281	0.0155699
772.359	0.0156956
772.437	0.0156146
772.515	0.0157452
772.593	0.0156911
772.671	0.0156765
772.749	0.0157307
772.828	0.0156590
772.906	0.0157327
772.984	0.0157423
773.062	0.0156995
773.140	0.0157923
773.218	0.0156512
773.296	0.0157314
773.374	0.0156306
773.453	0.0155011
773.531	0.0156377
773.609	0.0157200
773.687	0.0155994
773.765	0.0155855
773.843	0.0155933
773.921	0.0155616
773.999	0.0155363
774.078	0.0156166
774.156	0.0156372
774.234	0.0157618
774.312	0.0157336
774.390	0.0156687
774.468	0.0157088
774.546	0.0157796
774.624	0.0156932
774.703	0.0158720
774.781	0.0159068
774.859	0.0157335
774.937	0.0158248
775.015	0.0159016
775.093	0.0158315
775.171	0.0158385
775.249	0.0157736
775.328	0.0157368
775.406	0.0157051
775.484	0.0157430
775.562	0.0157287
775.640	0.0156522
775.718	0.0157536
775.796	0.0157385
775.874	0.0157418
775.953	0.0157815
776.031	0.0158015
776.109	0.0157880
776.187	0.0157555
776.265	0.0158670
776.343	0.0156583
776.421	0.0157529
776.499	0.0156641
776.578	0.0156525
776.656	0.0156482
776.734	0.0155721
776.812	0.0155108
776.890	0.0156348
776.968	0.0156274
777.046	0.0154969
777.124	0.0154498
777.203	0.0154794
777.281	0.0154560
777.359	0.0154561
777.437	0.0154448
777.515	0.0154001
777.593	0.0155229
777.671	0.0156526
777.749	0.0156994
777.828	0.0157785
777.906	0.0157234
777.984	0.0157854
778.062	0.0158708
778.140	0.0158479
778.218	0.0157976
778.296	0.0157481
778.374	0.0159538
778.453	0.0158884
778.531	0.0158215
778.609	0.0158196
778.687	0.0157337
778.765	0.0157556
778.843	0.0157265
778.921	0.0158647
778.999	0.0159039
779.078	0.0159855
779.156	0.0158578
779.234	0.0159359
779.312	0.0158773
779.390	0.0160641
779.468	0.0158361
779.546	0.0158421
779.624	0.0158948
779.703	0.0158859
779.781	0.0158829
779.859	0.0158101
779.937	0.0157520
780.015	0.0158492
780.093	0.0156562
780.171	0.0155721
780.249	0.0156416
780.328	0.0156496
780.406	0.0155753
780.484	0.0156338
780.562	0.0156691
780.640	0.0156474
780.718	0.0156282
780.796	0.0156328
780.874	0.0155176
780.953	0.0155063
781.031	0.0155380
781.109	0.0156804
781.187	0.0155872
781.265	0.0156739
781.343	0.0156069
781.421	0.0154933
781.499	0.0156306
781.578	0.0156576
781.656	0.0157081
781.734	0.0158603
781.812	0.0157631
781.890	0.0157569
781.968	0.0158233
782.046	0.0158130
782.124	0.0158094
782.203	0.0157603
782.281	0.0158244
782.359	0.0158228
782.437	0.0157701
782.515	0.0158025
782.593	0.0157569
782.671	0.0158154
782.749	0.0155593
782.828	0.0154975
782.906	0.0157271
782.984	0.0158025
783.062	0.0157864
783.140	0.0157055
783.218	0.0156446
783.296	0.0157800
783.374	0.0157041
783.453	0.0158571
783.531	0.0157864
783.609	0.0158261
783.687	0.0158583
783.765	0.0159253
783.843	0.0158769
783.921	0.0160130
783.999	0.0159201
784.078	0.0159589
784.156	0.0160879
784.234	0.0160615
784.312	0.0159958
784.390	0.0159929
784.468	0.0159644
784.546	0.0159497
784.624	0.0158639
784.703	0.0158443
784.781	0.0159379
784.859	0.0157775
784.937	0.0158099
785.015	0.0158252
785.093	0.0156724
785.171	0.0157684
785.249	0.0156798
785.328	0.0154578
785.406	0.0155560
785.484	0.0153633
785.562	0.0154217
785.640	0.0154274
785.718	0.0153989
785.796	0.0153994
785.874	0.0153176
785.953	0.0153056
786.031	0.0152666
786.109	0.0153473
786.187	0.0153208
786.265	0.0153023
786.343	0.0153751
786.421	0.0153290
786.499	0.0152739
786.578	0.0154744
786.656	0.0154973
786.734	0.0155185
786.812	0.0154292
786.890	0.0156264
786.968	0.0157430
787.046	0.0157789
787.124	0.0157446
787.203	0.0158675
787.281	0.0159450
787.359	0.0158957
787.437	0.0159226
787.515	0.0161333
787.593	0.0161816
787.671	0.0160714
787.749	0.0162695
787.828	0.0162492
787.906	0.0163393
787.984	0.0162997
788.062	0.0162148
788.140	0.0164525
788.218	0.0162646
788.296	0.0162849
788.374	0.0162814
788.453	0.0161379
788.531	0.0161663
788.609	0.0160870
788.687	0.0158683
788.765	0.0158419
788.843	0.0158682
788.921	0.0157348
788.999	0.0156140
789.078	0.0156369
789.156	0.0154014
789.234	0.0153831
789.312	0.0153897
789.390	0.0152998
789.468	0.0152775
789.546	0.0153795
789.624	0.0151868
789.703	0.0152348
789.781	0.0154011
789.859	0.0153564
789.937	0.0153703
790.015	0.0153695
790.093	0.0153936
790.171	0.0154900
790.249	0.0154815
790.328	0.0155483
790.406	0.0154691
790.484	0.0154823
790.562	0.0156241
790.640	0.0155573
790.718	0.0154227
790.796	0.0154771
790.874	0.0155458
790.953	0.0154208
791.031	0.0156406
791.109	0.0156165
791.187	0.0156042
791.265	0.0157344
791.343	0.0157856
791.421	0.0156466
791.499	0.0157798
791.578	0.0159418
791.656	0.0158437
791.734	0.0158927
791.812	0.0157250
791.890	0.0159582
791.968	0.0160742
792.046	0.0161481
792.124	0.0160340
792.203	0.0159258
792.281	0.0159556
792.359	0.0160404
792.437	0.0159877
792.515	0.0161093
792.593	0.0159626
792.671	0.0159448
792.749	0.0158392
792.828	0.0159345
792.906	0.0159480
792.984	0.0158939
793.062	0.0157410
793.140	0.0158308
793.218	0.0156653
793.296	0.0157137
793.374	0.0155450
793.453	0.0154868
793.531	0.0154726
793.609	0.0155000
793.687	0.0153258
793.765	0.0153323
793.843	0.0152881
793.921	0.0153066
793.999	0.0152315
794.078	0.0151737
794.156	0.0152148
794.234	0.0152177
794.312	0.0152003
794.390	0.0153085
794.468	0.0153265
794.546	0.0152309
794.624	0.0153680
794.703	0.0153257
794.781	0.0153746
794.859	0.0154988
794.937	0.0154828
795.015	0.0154361
795.093	0.0156270
795.171	0.0156084
795.249	0.0157213
795.328	0.0158144
795.406	0.0157980
795.484	0.0159044
795.562	0.0159180
795.640	0.0159205
795.718	0.0158927
795.796	0.0158128
795.874	0.0159914
795.953	0.0158634
796.031	0.0159167
796.109	0.0158971
796.187	0.0158238
796.265	0.0159163
796.343	0.0159850
796.421	0.0158263
796.499	0.0158565
796.578	0.0158660
796.656	0.0158596
796.734	0.0158358
796.812	0.0159688
796.890	0.0159458
796.968	0.0159184
797.046	0.0157598
797.124	0.0157602
797.203	0.0155675
797.281	0.0156837
797.359	0.0155807
797.437	0.0156203
797.515	0.0155695
797.593	0.0156336
797.671	0.0155449
797.749	0.0155417
797.828	0.0154238
797.906	0.0153479
797.984	0.0152792
798.062	0.0152663
798.140	0.0152857
798.218	0.0151597
798.296	0.0152993
798.374	0.0153110
798.453	0.0154241
798.531	0.0153902
798.609	0.0152864
798.687	0.0153766
798.765	0.0154230
798.843	0.0155256
798.921	0.0154100
798.999	0.0155332
799.078	0.0154593
799.156	0.0154502
799.234	0.0154023
799.312	0.0154486
799.390	0.0154914
799.468	0.0156753
799.546	0.0156320
799.624	0.0155839
799.703	0.0156830
799.781	0.0156409
799.859	0.0157267
799.937	0.0157828
800.015	0.0158670
800.093	0.0158968
800.171	0.0159277
800.249	0.0159527
800.328	0.0159589
800.406	0.0160395
800.484	0.0159450
800.562	0.0161006
800.640	0.0160311
800.718	0.0160375
800.796	0.0159460
800.874	0.0160075
800.953	0.0159016
801.031	0.0158187
801.109	0.0159247
801.187	0.0158761
801.265	0.0156815
801.343	0.0157000
801.421	0.0156451
801.499	0.0156133
801.578	0.0157017
801.656	0.0155198
801.734	0.0154868
801.812	0.0153557
801.890	0.0153891
801.968	0.0153405
802.046	0.0152460
802.124	0.0152671
802.203	0.0152952
802.281	0.0152463
802.359	0.0151927
802.437	0.0154529
802.515	0.0154430
802.593	0.0154309
802.671	0.0154659
802.749	0.0154993
802.828	0.0153810
802.906	0.0154904
802.984	0.0156748
803.062	0.0155971
803.140	0.0156171
803.218	0.0157520
803.296	0.0156693
803.374	0.0156573
803.453	0.0157717
803.531	0.0159173
803.609	0.0158846
803.687	0.0158209
803.765	0.0159320
803.843	0.0158353
803.921	0.0159122
803.999	0.0159152
804.078	0.0157459
804.156	0.0159727
804.234	0.0157704
804.312	0.0158329
804.390	0.0159135
804.468	0.0158815
804.546	0.0159262
804.624	0.0158545
804.703	0.0158923
804.781	0.0158895
804.859	0.0157511
804.937	0.0158822
805.015	0.0159077
805.093	0.0158821
805.171	0.0159471
805.249	0.0157996
805.328	0.0158552
805.406	0.0159008
805.484	0.0159497
805.562	0.0158997
805.640	0.0158692
805.718	0.0157496
805.796	0.0157935
805.874	0.0157861
805.953	0.0157488
806.031	0.0157246
806.109	0.0156502
806.187	0.0158051
806.265	0.0156501
806.343	0.0155720
806.421	0.0155565
806.499	0.0155077
806.578	0.0155748
806.656	0.0154655
806.734	0.0154366
806.812	0.0155441
806.890	0.0153936
806.968	0.0154315
807.046	0.0153854
807.124	0.0155070
807.203	0.0154622
807.281	0.0155221
807.359	0.0155077
807.437	0.0154925
807.515	0.0154732
807.593	0.0156073
807.671	0.0158257
807.749	0.0156470
807.828	0.0156915
807.906	0.0155424
807.984	0.0158179
808.062	0.0159001
808.140	0.0158641
808.218	0.0159653
808.296	0.0160825
808.374	0.0160361
808.453	0.0162449
808.531	0.0161655
808.609	0.0161948
808.687	0.0161066
808.765	0.0161784
808.843	0.0161280
808.921	0.0162576
808.999	0.0161537
809.078	0.0159264
809.156	0.0160327
809.234	0.0159977
809.312	0.0158809
809.390	0.0159311
809.468	0.0158128
809.546	0.0159142
809.624	0.0157339
809.703	0.0155759
809.781	0.0157905
809.859	0.0156207
809.937	0.0153506
810.015	0.0154814
810.093	0.0153651
810.171	0.0152544
810.249	0.0151828
810.328	0.0151871
810.406	0.0154014
810.484	0.0153661
810.562	0.0152834
810.640	0.0151968
810.718	0.0152850
810.796	0.0154140
810.874	0.0155251
810.953	0.0155641
811.031	0.0154993
811.109	0.0155938
811.187	0.0157403
811.265	0.0157830
811.343	0.0157994
811.421	0.0158052
811.499	0.0159047
811.578	0.0160511
811.656	0.0160172
811.734	0.0159224
811.812	0.0159871
811.890	0.0160352
811.968	0.0159332
812.046	0.0160774
812.124	0.0159193
812.203	0.0159078
812.281	0.0159184
812.359	0.0159478
812.437	0.0159527
812.515	0.0157327
812.593	0.0156724
812.671	0.0156877
812.749	0.0158394
812.828	0.0156001
812.906	0.0156075
812.984	0.0157354
813.062	0.0157089
813.140	0.0155489
813.218	0.0157059
813.296	0.0158776
813.374	0.0157490
813.453	0.0157662
813.531	0.0158775
813.609	0.0157520
813.687	0.0158002
813.765	0.0158076
813.843	0.0157607
813.921	0.0158563
813.999	0.0156739
814.078	0.0156715
814.156	0.0157273
814.234	0.0156305
814.312	0.0157140
814.390	0.0157072
814.468	0.0156616
814.546	0.0155679
814.624	0.0156780
814.703	0.0155962
814.781	0.0155769
814.859	0.0155128
814.937	0.0156409
815.015	0.0154468
815.093	0.0155913
815.171	0.0157574
815.249	0.0157153
815.328	0.0157123
815.406	0.0155974
815.484	0.0158092
815.562	0.0157088
815.640	0.0156975
815.718	0.0157715
815.796	0.0158110
815.874	0.0156881
815.953	0.0156408
816.031	0.0157077
816.109	0.0158704
816.187	0.0157905
816.265	0.0157785
816.343	0.0156593
816.421	0.0157114
816.499	0.0158430
816.578	0.0158675
816.656	0.0158341
816.734	0.0158242
816.812	0.0158270
816.890	0.0157186
816.968	0.0157785
817.046	0.0157388
817.124	0.0157994
817.203	0.0158418
817.281	0.0157397
817.359	0.0155853
817.437	0.0156107
817.515	0.0158041
817.593	0.0156859
817.671	0.0156623
817.749	0.0156831
817.828	0.0156602
817.906	0.0156786
817.984	0.0156982
818.062	0.0157709
818.140	0.0157798
818.218	0.0156408
818.296	0.0156616
818.374	0.0156484
818.453	0.0156478
818.531	0.0157511
818.609	0.0157259
818.687	0.0155890
818.765	0.0155114
818.843	0.0155695
818.921	0.0156123
818.999	0.0154712
819.078	0.0155148
819.156	0.0155453
819.234	0.0153555
819.312	0.0154791
819.390	0.0153870
819.468	0.0153825
819.546	0.0155274
819.624	0.0155260
819.703	0.0155916
819.781	0.0156316
819.859	0.0155659
819.937	0.0159212
820.015	0.0159280
820.093	0.0158782
820.171	0.0157442
820.249	0.0158080
820.328	0.0156725
820.406	0.0158741
820.484	0.0155717
820.562	0.0157410
820.640	0.0158241
820.718	0.0157036
820.796	0.0155946
820.874	0.0158646
820.953	0.0158026
821.031	0.0157063
821.109	0.0155897
821.187	0.0157537
821.265	0.0158209
821.343	0.0157976
821.421	0.0157354
821.499	0.0158156
821.578	0.0157035
821.656	0.0157053
821.734	0.0156438
821.812	0.0155247
821.890	0.0155497
821.968	0.0154373
822.046	0.0154890
822.124	0.0154016
822.203	0.0153141
822.281	0.0152475
822.359	0.0152388
822.437	0.0152225
822.515	0.0153026
822.593	0.0153064
822.671	0.0154414
822.749	0.0153955
822.828	0.0153995
822.906	0.0154211
822.984	0.0155190
823.062	0.0155428
823.140	0.0156723
823.218	0.0156425
823.296	0.0155991
823.374	0.0157745
823.453	0.0157889
823.531	0.0157328
823.609	0.0158924
823.687	0.0157693
823.765	0.0159976
823.843	0.0159438
823.921	0.0159138
823.999	0.0161042
824.078	0.0158353
824.156	0.0160468
824.234	0.0162441
824.312	0.0161173
824.390	0.0161345
824.468	0.0160804
824.546	0.0162642
824.624	0.0160466
824.703	0.0160083
824.781	0.0159341
824.859	0.0158029
824.937	0.0157588
825.015	0.0157056
825.093	0.0154737
825.171	0.0153470
825.249	0.0152368
825.328	0.0154288
825.406	0.0150677
825.484	0.0150853
825.562	0.0150184
825.640	0.0150485
825.718	0.0151619
825.796	0.0150610
825.874	0.0150694
825.953	0.0152297
826.031	0.0152652
826.109	0.0153172
826.187	0.0154323
826.265	0.0154936
826.343	0.0154943
826.421	0.0156270
826.499	0.0157146
826.578	0.0158213
826.656	0.0159842
826.734	0.0160294
826.812	0.0160650
826.890	0.0160696
826.968	0.0161051
827.046	0.0161487
827.124	0.0161936
827.203	0.0162955
827.281	0.0163023
827.359	0.0163716
827.437	0.0163678
827.515	0.0162269
827.593	0.0162433
827.671	0.0161494
827.749	0.0161073
827.828	0.0158997
827.906	0.0159137
827.984	0.0157702
828.062	0.0157518
828.140	0.0155760
828.218	0.0155808
828.296	0.0154544
828.374	0.0153719
828.453	0.0152000
828.531	0.0153757
828.609	0.0153828
828.687	0.0151878
828.765	0.0151276
828.843	0.0152835
828.921	0.0152296
828.999	0.0152274
829.078	0.0153258
829.156	0.0154780
829.234	0.0154539
829.312	0.0154678
829.390	0.0156511
829.468	0.0155956
829.546	0.0155137
829.624	0.0157168
829.703	0.0158596
829.781	0.0158132
829.859	0.0159083
829.937	0.0159544
830.015	0.0158095
830.093	0.0156999
830.171	0.0158008
830.249	0.0159334
830.328	0.0157106
830.406	0.0158255
830.484	0.0158212
830.562	0.0156127
830.640	0.0158101
830.718	0.0157156
830.796	0.0156251
830.874	0.0157465
830.953	0.0157473
831.031	0.0157615
831.109	0.0158132
831.187	0.0159462
831.265	0.0157786
831.343	0.0159056
831.421	0.0159637
831.499	0.0159266
831.578	0.0158772
831.656	0.0158441
831.734	0.0158907
831.812	0.0159223
831.890	0.0158298
831.968	0.0158802
832.046	0.0157568
832.124	0.0159113
832.203	0.0159454
832.281	0.0158553
832.359	0.0158588
832.437	0.0156596
832.515	0.0157354
832.593	0.0155483
832.671	0.0155872
832.749	0.0154700
832.828	0.0154794
832.906	0.0154503
832.984	0.0154214
833.062	0.0154008
833.140	0.0154232
833.218	0.0153179
833.296	0.0153902
833.374	0.0154562
833.453	0.0154645
833.531	0.0155590
833.609	0.0156145
833.687	0.0156391
833.765	0.0156400
833.843	0.0157458
833.921	0.0158488
833.999	0.0156642
834.078	0.0157399
834.156	0.0157771
834.234	0.0159673
834.312	0.0157948
834.390	0.0160532
834.468	0.0160633
834.546	0.0159789
834.624	0.0160857
834.703	0.0158462
834.781	0.0158064
834.859	0.0157088
834.937	0.0157510
835.015	0.0159164
835.093	0.0156744
835.171	0.0157052
835.249	0.0157723
835.328	0.0157153
835.406	0.0155775
835.484	0.0155046
835.562	0.0155910
835.640	0.0156827
835.718	0.0156474
835.796	0.0154231
835.874	0.0154037
835.953	0.0157195
836.031	0.0156266
836.109	0.0156698
836.187	0.0155436
836.265	0.0156439
836.343	0.0157133
836.421	0.0156509
836.499	0.0157507
836.578	0.0158363
836.656	0.0157560
836.734	0.0158820
836.812	0.0158554
836.890	0.0158498
836.968	0.0159241
837.046	0.0158474
837.124	0.0157938
837.203	0.0158164
837.281	0.0159616
837.359	0.0159111
837.437	0.0159843
837.515	0.0157659
837.593	0.0157952
837.671	0.0159108
837.749	0.0157503
837.828	0.0157713
837.906	0.0158301
837.984	0.0156647
838.062	0.0156899
838.140	0.0156361
838.218	0.0156884
838.296	0.0155398
838.374	0.0156018
838.453	0.0156065
838.531	0.0154594
838.609	0.0154538
838.687	0.0155533
838.765	0.0154885
838.843	0.0154379
838.921	0.0154806
838.999	0.0154268
839.078	0.0154139
839.156	0.0154266
839.234	0.0155033
839.312	0.0154279
839.390	0.0156612
839.468	0.0154164
839.546	0.0155232
839.624	0.0156619
839.703	0.0156435
839.781	0.0157546
839.859	0.0156484
839.937	0.0158515
840.015	0.0158546
840.093	0.0159148
840.171	0.0158908
840.249	0.0160576
840.328	0.0161691
840.406	0.0162041
840.484	0.0158968
840.562	0.0160646
840.640	0.0160652
840.718	0.0161500
840.796	0.0159736
840.874	0.0160324
840.953	0.0160028
841.031	0.0158734
841.109	0.0159758
841.187	0.0159860
841.265	0.0156917
841.343	0.0157660
841.421	0.0157464
841.499	0.0157054
841.578	0.0157061
841.656	0.0157236
841.734	0.0157214
841.812	0.0158283
841.890	0.0158221
841.968	0.0155662
842.046	0.0155708
842.124	0.0156380
842.203	0.0155772
842.281	0.0155267
842.359	0.0155622
842.437	0.0153622
842.515	0.0152504
842.593	0.0155455
842.671	0.0154762
842.749	0.0153463
842.828	0.0153976
842.906	0.0153368
842.984	0.0154766
843.062	0.0154691
843.140	0.0153512
843.218	0.0154659
843.296	0.0155208
843.374	0.0156810
843.453	0.0155313
843.531	0.0154977
843.609	0.0157830
843.687	0.0155895
843.765	0.0156380
843.843	0.0158555
843.921	0.0158530
843.999	0.0159252
844.078	0.0158447
844.156	0.0159757
844.234	0.0160007
844.312	0.0160490
844.390	0.0160295
844.468	0.0159605
844.546	0.0160457
844.624	0.0160011
844.703	0.0159573
844.781	0.0160492
844.859	0.0159404
844.937	0.0160339
845.015	0.0159973
845.093	0.0158214
845.171	0.0158820
845.249	0.0156905
845.328	0.0157830
845.406	0.0158492
845.484	0.0156663
845.562	0.0156480
845.640	0.0156123
845.718	0.0156812
845.796	0.0155797
845.874	0.0155021
845.953	0.0154910
846.031	0.0154207
846.109	0.0154574
846.187	0.0152241
846.265	0.0153716
846.343	0.0152934
846.421	0.0152503
846.499	0.0153280
846.578	0.0154553
846.656	0.0153528
846.734	0.0153887
846.812	0.0153911
846.890	0.0152800
846.968	0.0153739
847.046	0.0154358
847.124	0.0155012
847.203	0.0154748
847.281	0.0157315
847.359	0.0156908
847.437	0.0156973
847.515	0.0157870
847.593	0.0157856
847.671	0.0158752
847.749	0.0159120
847.828	0.0159270
847.906	0.0158491
847.984	0.0158759
848.062	0.0157910
848.140	0.0157969
848.218	0.0158733
848.296	0.0157716
848.374	0.0157158
848.453	0.0158398
848.531	0.0159461
848.609	0.0158014
848.687	0.0158006
848.765	0.0157353
848.843	0.0157743
848.921	0.0157117
848.999	0.0158332
849.078	0.0159422
849.156	0.0157436
849.234	0.0157597
849.312	0.0156265
849.390	0.0154976
849.468	0.0155775
849.546	0.0155355
849.624	0.0156935
849.703	0.0154310
849.781	0.0152929
849.859	0.0156444
849.937	0.0156345
850.015	0.0153767
850.093	0.0156388
850.171	0.0154281
850.249	0.0154414
850.328	0.0154087
850.406	0.0154076
850.484	0.0154086
850.562	0.0155650
850.640	0.0154642
850.718	0.0154762
850.796	0.0155855
850.874	0.0156181
850.953	0.0155683
851.031	0.0156148
851.109	0.0153947
851.187	0.0155066
851.265	0.0157066
851.343	0.0155161
851.421	0.0156127
851.499	0.0156474
851.578	0.0156719
851.656	0.0157313
851.734	0.0157550
851.812	0.0156214
851.890	0.0158272
851.968	0.0157478
852.046	0.0156243
852.124	0.0157233
852.203	0.0158304
852.281	0.0157948
852.359	0.0158163
852.437	0.0157504
852.515	0.0158428
852.593	0.0157625
852.671	0.0158829
852.749	0.0157093
852.828	0.0158749
852.906	0.0159240
852.984	0.0157964
853.062	0.0158673
853.140	0.0158234
853.218	0.0158241
853.296	0.0157202
853.374	0.0158467
853.453	0.0158279
853.531	0.0157549
853.609	0.0158443
853.687	0.0156187
853.765	0.0158909
853.843	0.0159002
853.921	0.0157570
853.999	0.0157406
854.078	0.0158919
854.156	0.0158538
854.234	0.0158355
854.312	0.0157914
854.390	0.0159001
854.468	0.0157387
854.546	0.0158008
854.624	0.0157497
854.703	0.0157688
854.781	0.0158104
854.859	0.0157437
854.937	0.0156835
855.015	0.0156790
855.093	0.0156203
855.171	0.0156432
855.249	0.0156480
855.328	0.0155240
855.406	0.0156799
855.484	0.0156372
855.562	0.0156485
855.640	0.0155131
855.718	0.0157146
855.796	0.0156762
855.874	0.0155444
855.953	0.0154942
856.031	0.0156870
856.109	0.0156513
856.187	0.0155357
856.265	0.0156964
856.343	0.0156945
856.421	0.0156898
856.499	0.0155895
856.578	0.0156396
856.656	0.0157137
856.734	0.0157401
856.812	0.0157941
856.890	0.0158091
856.968	0.0158791
857.046	0.0159865
857.124	0.0160102
857.203	0.0159939
857.281	0.0160429
857.359	0.0160506
857.437	0.0161319
857.515	0.0161117
857.593	0.0160178
857.671	0.0160675
857.749	0.0160055
857.828	0.0161059
857.906	0.0159560
857.984	0.0160783
858.062	0.0160085
858.140	0.0160249
858.218	0.0160153
858.296	0.0159739
858.374	0.0159869
858.453	0.0158548
858.531	0.0157457
858.609	0.0159688
858.687	0.0158395
858.765	0.0156770
858.843	0.0157135
858.921	0.0157603
858.999	0.0155558
859.078	0.0154938
859.156	0.0154666
859.234	0.0156484
859.312	0.0155313
859.390	0.0155529
859.468	0.0155290
859.546	0.0155996
859.624	0.0154214
859.703	0.0155060
859.781	0.0155470
859.859	0.0153671
859.937	0.0154724
860.015	0.0155630
860.093	0.0154580
860.171	0.0154510
860.249	0.0155047
860.328	0.0155428
860.406	0.0154753
860.484	0.0154478
860.562	0.0154506
860.640	0.0155784
860.718	0.0154782
860.796	0.0155845
860.874	0.0157164
860.953	0.0155884
861.031	0.0157810
861.109	0.0157929
861.187	0.0155865
861.265	0.0156712
861.343	0.0158146
861.421	0.0157061
861.499	0.0157978
861.578	0.0158068
861.656	0.0158084
861.734	0.0159343
861.812	0.0157841
861.890	0.0159246
861.968	0.0157588
862.046	0.0158349
862.124	0.0157507
862.203	0.0159710
862.281	0.0158440
862.359	0.0156670
862.437	0.0157907
862.515	0.0157858
862.593	0.0159285
862.671	0.0160136
862.749	0.0159001
862.828	0.0159559
862.906	0.0157616
862.984	0.0158807
863.062	0.0157413
863.140	0.0158147
863.218	0.0157727
863.296	0.0156885
863.374	0.0158028
863.453	0.0157705
863.531	0.0157021
863.609	0.0157104
863.687	0.0156827
863.765	0.0156796
863.843	0.0156214
863.921	0.0157471
863.999	0.0157299
864.078	0.0157047
864.156	0.0158099
864.234	0.0156167
864.312	0.0156046
864.390	0.0157571
864.468	0.0157072
864.546	0.0157357
864.624	0.0156716
864.703	0.0155785
864.781	0.0156857
864.859	0.0158253
864.937	0.0156799
865.015	0.0156007
865.093	0.0157636
865.171	0.0156888
865.249	0.0159172
865.328	0.0160510
865.406	0.0155311
865.484	0.0157043
865.562	0.0156702
865.640	0.0156811
865.718	0.0159096
865.796	0.0158314
865.874	0.0157981
865.953	0.0158298
866.031	0.0156815
866.109	0.0159050
866.187	0.0157856
866.265	0.0157880
866.343	0.0158292
866.421	0.0158601
866.499	0.0158001
866.578	0.0156066
866.656	0.0156866
866.734	0.0155681
866.812	0.0155782
866.890	0.0155897
866.968	0.0157854
867.046	0.0156553
867.124	0.0156582
867.203	0.0157455
867.281	0.0155288
867.359	0.0155952
867.437	0.0156592
867.515	0.0157399
867.593	0.0155526
867.671	0.0155184
867.749	0.0155666
867.828	0.0156715
867.906	0.0156635
867.984	0.0156144
868.062	0.0155840
868.140	0.0155817
868.218	0.0155325
868.296	0.0156079
868.374	0.0155296
868.453	0.0155182
868.531	0.0156123
868.609	0.0157449
868.687	0.0156175
868.765	0.0155244
868.843	0.0156895
868.921	0.0155404
868.999	0.0156162
869.078	0.0155856
869.156	0.0156853
869.234	0.0156070
869.312	0.0156089
869.390	0.0154795
869.468	0.0156092
869.546	0.0156642
869.624	0.0155013
869.703	0.0156334
869.781	0.0156024
869.859	0.0155354
869.937	0.0156324
870.015	0.0157726
870.093	0.0155857
870.171	0.0155335
870.249	0.0155663
870.328	0.0155885
870.406	0.0156020
870.484	0.0157037
870.562	0.0156123
870.640	0.0156771
870.718	0.0155486
870.796	0.0156014
870.874	0.0156362
870.953	0.0156544
871.031	0.0155610
871.109	0.0155497
871.187	0.0155869
871.265	0.0156937
871.343	0.0157163
871.421	0.0157018
871.499	0.0156117
871.578	0.0156487
871.656	0.0156977
871.734	0.0155439
871.812	0.0155549
871.890	0.0156598
871.968	0.0156393
872.046	0.0157112
872.124	0.0155534
872.203	0.0156386
872.281	0.0156049
872.359	0.0155950
872.437	0.0157338
872.515	0.0156969
872.593	0.0155938
872.671	0.0156711
872.749	0.0157153
872.828	0.0155997
872.906	0.0157790
872.984	0.0157894
873.062	0.0158685
873.140	0.0157290
873.218	0.0158212
873.296	0.0157910
873.374	0.0158054
873.453	0.0157879
873.531	0.0158769
873.609	0.0157358
873.687	0.0157027
873.765	0.0158429
873.843	0.0157423
873.921	0.0158536
873.999	0.0157691
874.078	0.0157622
874.156	0.0156881
874.234	0.0157640
874.312	0.0154835
874.390	0.0156525
874.468	0.0158443
874.546	0.0157081
874.624	0.0156526
874.703	0.0155655
874.781	0.0156895
874.859	0.0156185
874.937	0.0157475
875.015	0.0157154
875.093	0.0155022
875.171	0.0157104
875.249	0.0157566
875.328	0.0156326
875.406	0.0155932
875.484	0.0157703
875.562	0.0155643
875.640	0.0155703
875.718	0.0156367
875.796	0.0156588
875.874	0.0156357
875.953	0.0156464
876.031	0.0156366
876.109	0.0156965
876.187	0.0156008
876.265	0.0156514
876.343	0.0156219
876.421	0.0156522
876.499	0.0156721
876.578	0.0157249
876.656	0.0157729
876.734	0.0156077
876.812	0.0157259
876.890	0.0157681
876.968	0.0157698
877.046	0.0157580
877.124	0.0156405
877.203	0.0157553
877.281	0.0156553
877.359	0.0156982
877.437	0.0156220
877.515	0.0157201
877.593	0.0155430
877.671	0.0155144
877.749	0.0155065
877.828	0.0155616
877.906	0.0155731
877.984	0.0155915
878.062	0.0155643
878.140	0.0155117
878.218	0.0155307
878.296	0.0155421
878.374	0.0154823
878.453	0.0156919
878.531	0.0155065
878.609	0.0155112
878.687	0.0155158
878.765	0.0157031
878.843	0.0158062
878.921	0.0155830
878.999	0.0156232
879.078	0.0157880
879.156	0.0157404
879.234	0.0157126
879.312	0.0158017
879.390	0.0158342
879.468	0.0158594
879.546	0.0157732
879.624	0.0159232
879.703	0.0159048
879.781	0.0157691
879.859	0.0157077
879.937	0.0157953
880.015	0.0157603
880.093	0.0158963
880.171	0.0157629
880.249	0.0158398
880.328	0.0158740
880.406	0.0157073
880.484	0.0158736
880.562	0.0158588
880.640	0.0159145
880.718	0.0157290
880.796	0.0157223
880.874	0.0156754
880.953	0.0157342
881.031	0.0157021
881.109	0.0157471
881.187	0.0157340
881.265	0.0157639
881.343	0.0157882
881.421	0.0157181
881.499	0.0157350
881.578	0.0158982
881.656	0.0157804
881.734	0.0158255
881.812	0.0156992
881.890	0.0157787
881.968	0.0157259
882.046	0.0158218
882.124	0.0159234
882.203	0.0157837
882.281	0.0157254
882.359	0.0157030
882.437	0.0157153
882.515	0.0156858
882.593	0.0156247
882.671	0.0156566
882.749	0.0155093
882.828	0.0155260
882.906	0.0156014
882.984	0.0155684
883.062	0.0154896
883.140	0.0155489
883.218	0.0155531
883.296	0.0156361
883.374	0.0155596
883.453	0.0155355
883.531	0.0156243
883.609	0.0154930
883.687	0.0157000
883.765	0.0158118
883.843	0.0156062
883.921	0.0156538
883.999	0.0157620
884.078	0.0156094
884.156	0.0157764
884.234	0.0158121
884.312	0.0158675
884.390	0.0157797
884.468	0.0157669
884.546	0.0158659
884.624	0.0156693
884.703	0.0157541
884.781	0.0156908
884.859	0.0156586
884.937	0.0157723
885.015	0.0157664
885.093	0.0156304
885.171	0.0157371
885.249	0.0156895
885.328	0.0157378
885.406	0.0157742
885.484	0.0157791
885.562	0.0155956
885.640	0.0157236
885.718	0.0158506
885.796	0.0157430
885.874	0.0157349
885.953	0.0156875
886.031	0.0155058
886.109	0.0156105
886.187	0.0156013
886.265	0.0157692
886.343	0.0156676
886.421	0.0155810
886.499	0.0157828
886.578	0.0157153
886.656	0.0157449
886.734	0.0157264
886.812	0.0156783
886.890	0.0157523
886.968	0.0157523
887.046	0.0156898
887.124	0.0156860
887.203	0.0159130
887.281	0.0158487
887.359	0.0157978
887.437	0.0157253
887.515	0.0158736
887.593	0.0159827
887.671	0.0157930
887.749	0.0159727
887.828	0.0159084
887.906	0.0157457
887.984	0.0159146
888.062	0.0159151
888.140	0.0156905
888.218	0.0159093
888.296	0.0158730
888.374	0.0157827
888.453	0.0158428
888.531	0.0158138
888.609	0.0156725
888.687	0.0156778
888.765	0.0160062
888.843	0.0158691
888.921	0.0158706
888.999	0.0158295
889.078	0.0158586
889.156	0.0156800
889.234	0.0158565
889.312	0.0159242
889.390	0.0158630
889.468	0.0158241
889.546	0.0157468
889.624	0.0158342
889.703	0.0159081
889.781	0.0159962
889.859	0.0157827
889.937	0.0159893
890.015	0.0158809
890.093	0.0159048
890.171	0.0157073
890.249	0.0156756
890.328	0.0158811
890.406	0.0158602
890.484	0.0157275
890.562	0.0158486
890.640	0.0158015
890.718	0.0155325
890.796	0.0156866
890.874	0.0156756
890.953	0.0157414
891.031	0.0157243
891.109	0.0157923
891.187	0.0156766
891.265	0.0156084
891.343	0.0157516
891.421	0.0156161
891.499	0.0155191
891.578	0.0155789
891.656	0.0155565
891.734	0.0155138
891.812	0.0155875
891.890	0.0156585
891.968	0.0157236
892.046	0.0156834
892.124	0.0156689
892.203	0.0156416
892.281	0.0156240
892.359	0.0157417
892.437	0.0156814
892.515	0.0156348
892.593	0.0156547
892.671	0.0156576
892.749	0.0156397
892.828	0.0156783
892.906	0.0157143
892.984	0.0155094
893.062	0.0155191
893.140	0.0156406
893.218	0.0155997
893.296	0.0155631
893.374	0.0156815
893.453	0.0156383
893.531	0.0156021
893.609	0.0155393
893.687	0.0154909
893.765	0.0155701
893.843	0.0155882
893.921	0.0156337
893.999	0.0155534
894.078	0.0156161
894.156	0.0156098
894.234	0.0157246
894.312	0.0155556
894.390	0.0155445
894.468	0.0155914
894.546	0.0156103
894.624	0.0156883
894.703	0.0155415
894.781	0.0153665
894.859	0.0154680
894.937	0.0155706
895.015	0.0155200
895.093	0.0155275
895.171	0.0154571
895.249	0.0155827
895.328	0.0154789
895.406	0.0154525
895.484	0.0154560
895.562	0.0155624
895.640	0.0155183
895.718	0.0155212
895.796	0.0154873
895.874	0.0154153
895.953	0.0156049
896.031	0.0155519
896.109	0.0155563
896.187	0.0156104
896.265	0.0154855
896.343	0.0156622
896.421	0.0156850
896.499	0.0155095
896.578	0.0155611
896.656	0.0155696
896.734	0.0156095
896.812	0.0156727
896.890	0.0155825
896.968	0.0157585
897.046	0.0157176
897.124	0.0156312
897.203	0.0156602
897.281	0.0157268
897.359	0.0157560
897.437	0.0156930
897.515	0.0156623
897.593	0.0156851
897.671	0.0157188
897.749	0.0157173
897.828	0.0157272
897.906	0.0155518
897.984	0.0156065
898.062	0.0155595
898.140	0.0156900
898.218	0.0155952
898.296	0.0155809
898.374	0.0155333
898.453	0.0155695
898.531	0.0156722
898.609	0.0156093
898.687	0.0155670
898.765	0.0155513
898.843	0.0156185
898.921	0.0155699
898.999	0.0155764
899.078	0.0155965
899.156	0.0156947
899.234	0.0156367
899.312	0.0156251
899.390	0.0156525
899.468	0.0155932
899.546	0.0156899
899.624	0.0154963
899.703	0.0154446
899.781	0.0155818
899.859	0.0156264
899.937	0.0156359
900.015	0.0157246
900.093	0.0156136
900.171	0.0155688
900.249	0.0155923
900.328	0.0156504
900.406	0.0157346
900.484	0.0157835
900.562	0.0156544
900.640	0.0156882
900.718	0.0157544
900.796	0.0157077
900.874	0.0158313
900.953	0.0159184
901.031	0.0157185
901.109	0.0158447
901.187	0.0157816
901.265	0.0157036
901.343	0.0156455
901.421	0.0156807
901.499	0.0157788
901.578	0.0159014
901.656	0.0157934
901.734	0.0156387
901.812	0.0156268
901.890	0.0157362
901.968	0.0158082
902.046	0.0157214
902.124	0.0156404
902.203	0.0157478
902.281	0.0157836
902.359	0.0158701
902.437	0.0157043
902.515	0.0156773
902.593	0.0157669
902.671	0.0158022
902.749	0.0156561
902.828	0.0156890
902.906	0.0157468
902.984	0.0157146
903.062	0.0156551
903.140	0.0157015
903.218	0.0156681
903.296	0.0155583
903.374	0.0157113
903.453	0.0156566
903.531	0.0156952
903.609	0.0156934
903.687	0.0157214
903.765	0.0157000
903.843	0.0157394
903.921	0.0155676
903.999	0.0157183
904.078	0.0157360
904.156	0.0157846
904.234	0.0158163
904.312	0.0158311
904.390	0.0158257
904.468	0.0158352
904.546	0.0156789
904.624	0.0157281
904.703	0.0157910
904.781	0.0158638
904.859	0.0157772
904.937	0.0156273
905.015	0.0157903
905.093	0.0157735
905.171	0.0157383
905.249	0.0157338
905.328	0.0155480
905.406	0.0156441
905.484	0.0157669
905.562	0.0157027
905.640	0.0157511
905.718	0.0156010
905.796	0.0156364
905.874	0.0156534
905.953	0.0157098
906.031	0.0156921
906.109	0.0157291
906.187	0.0155833
906.265	0.0155963
906.343	0.0156908
906.421	0.0156379
906.499	0.0156479
906.578	0.0156495
906.656	0.0158167
906.734	0.0157619
906.812	0.0157435
906.890	0.0156139
906.968	0.0156539
907.046	0.0157027
907.124	0.0157839
907.203	0.0156321
907.281	0.0157997
907.359	0.0156801
907.437	0.0157843
907.515	0.0157540
907.593	0.0156901
907.671	0.0157318
907.749	0.0157231
907.828	0.0157191
907.906	0.0156878
907.984	0.0155743
908.062	0.0156464
908.140	0.0156587
908.218	0.0156825
908.296	0.0157018
908.374	0.0155257
908.453	0.0155807
908.531	0.0157401
908.609	0.0157805
908.687	0.0155629
908.765	0.0156622
908.843	0.0157085
908.921	0.0156850
908.999	0.0157332
909.078	0.0158602
909.156	0.0157898
909.234	0.0157502
909.312	0.0157706
909.390	0.0158353
909.468	0.0156852
909.546	0.0157568
909.624	0.0157513
909.703	0.0157160
909.781	0.0158469
909.859	0.0157298
909.937	0.0155824
910.015	0.0156728
910.093	0.0156760
910.171	0.0155717
910.249	0.0157724
910.328	0.0157639
910.406	0.0156583
910.484	0.0156434
910.562	0.0156479
910.640	0.0155233
910.718	0.0156042
910.796	0.0157747
910.874	0.0156754
910.953	0.0155286
911.031	0.0156840
911.109	0.0156911
911.187	0.0155627
911.265	0.0155993
911.343	0.0156384
911.421	0.0154617
911.499	0.0156325
911.578	0.0156664
911.656	0.0156770
911.734	0.0156808
911.812	0.0157107
911.890	0.0156521
911.968	0.0156495
912.046	0.0157103
912.124	0.0158289
912.203	0.0157148
912.281	0.0157864
912.359	0.0157339
912.437	0.0158202
912.515	0.0158784
912.593	0.0156898
912.671	0.0158498
912.749	0.0157131
912.828	0.0157210
912.906	0.0157372
912.984	0.0157784
913.062	0.0157064
913.140	0.0157467
913.218	0.0157986
913.296	0.0157822
913.374	0.0157215
913.453	0.0156683
913.531	0.0157325
913.609	0.0155803
913.687	0.0155730
913.765	0.0155937
913.843	0.0155618
913.921	0.0155559
913.999	0.0154874
914.078	0.0155179
914.156	0.0154865
914.234	0.0156320
914.312	0.0155172
914.390	0.0155760
914.468	0.0155502
914.546	0.0155650
914.624	0.0155181
914.703	0.0155762
914.781	0.0155927
914.859	0.0156959
914.937	0.0155897
915.015	0.0157574
915.093	0.0158678
915.171	0.0157371
915.249	0.0157902
915.328	0.0159293
915.406	0.0157552
915.484	0.0157613
915.562	0.0158716
915.640	0.0158408
915.718	0.0157384
915.796	0.0158414
915.874	0.0158944
915.953	0.0157391
916.031	0.0156313
916.109	0.0157380
916.187	0.0157864
916.265	0.0157542
916.343	0.0155729
916.421	0.0155867
916.499	0.0157355
916.578	0.0156778
916.656	0.0156038
916.734	0.0156925
916.812	0.0156064
916.890	0.0156259
916.968	0.0155551
917.046	0.0156110
917.124	0.0157343
917.203	0.0156834
917.281	0.0156579
917.359	0.0156298
917.437	0.0156361
917.515	0.0155513
917.593	0.0157858
917.671	0.0156775
917.749	0.0155603
917.828	0.0156673
917.906	0.0156886
917.984	0.0156665
918.062	0.0156490
918.140	0.0156425
918.218	0.0157461
918.296	0.0156777
918.374	0.0156261
918.453	0.0157981
918.531	0.0156535
918.609	0.0156097
918.687	0.0156729
918.765	0.0156755
918.843	0.0156011
918.921	0.0156171
918.999	0.0155574
919.078	0.0156870
919.156	0.0155696
919.234	0.0156669
919.312	0.0156929
919.390	0.0156492
919.468	0.0155772
919.546	0.0155143
919.624	0.0155569
919.703	0.0156540
919.781	0.0155929
919.859	0.0155846
919.937	0.0155167
