06/10/2022	19:01:30	Ver.	4.1	UNKNOWN
Optical Delay	600.015094	Delta X		0.078125	Sweeps	1	Scan Rate	0/0
Coordinates	Axis 1	NaN	Axis 2	NaN	Axis 3	NaN	Axis 4	NaN	Axis 5	NaN	Axis 6	0.000000
TX Power	0.000000	RX Power	0.000000

600.015	0.0161372
600.093	0.0160928
600.171	0.0162694
600.249	0.0159760
600.328	0.0161252
600.406	0.0161896
600.484	0.0161768
600.562	0.0161387
600.640	0.0159796
600.718	0.0160532
600.796	0.0161785
600.874	0.0161169
600.953	0.0160053
601.031	0.0162272
601.109	0.0162280
601.187	0.0160823
601.265	0.0162191
601.343	0.0161880
601.421	0.0162215
601.499	0.0162414
601.578	0.0161505
601.656	0.0162119
601.734	0.0162406
601.812	0.0160432
601.890	0.0161353
601.968	0.0162128
602.046	0.0162799
602.124	0.0161022
602.203	0.0161971
602.281	0.0162016
602.359	0.0161681
602.437	0.0161919
602.515	0.0161993
602.593	0.0162667
602.671	0.0162376
602.749	0.0160892
602.828	0.0162411
602.906	0.0161636
602.984	0.0162156
603.062	0.0162879
603.140	0.0161968
603.218	0.0162333
603.296	0.0162235
603.374	0.0163836
603.453	0.0162520
603.531	0.0160125
603.609	0.0163025
603.687	0.0162301
603.765	0.0161714
603.843	0.0162624
603.921	0.0162387
603.999	0.0163293
604.078	0.0161457
604.156	0.0160994
604.234	0.0161716
604.312	0.0162429
604.390	0.0162720
604.468	0.0160696
604.546	0.0161404
604.624	0.0162917
604.703	0.0161467
604.781	0.0163586
604.859	0.0161852
604.937	0.0161884
605.015	0.0162556
605.093	0.0161823
605.171	0.0162460
605.249	0.0161270
605.328	0.0161312
605.406	0.0163351
605.484	0.0162138
605.562	0.0162308
605.640	0.0161790
605.718	0.0161678
605.796	0.0162127
605.874	0.0161958
605.953	0.0161316
606.031	0.0161570
606.109	0.0160894
606.187	0.0162019
606.265	0.0160663
606.343	0.0161315
606.421	0.0161928
606.499	0.0160569
606.578	0.0161635
606.656	0.0160877
606.734	0.0160698
606.812	0.0163159
606.890	0.0162054
606.968	0.0160264
607.046	0.0160732
607.124	0.0161283
607.203	0.0161824
607.281	0.0161902
607.359	0.0160103
607.437	0.0161662
607.515	0.0161342
607.593	0.0161414
607.671	0.0161418
607.749	0.0162933
607.828	0.0162885
607.906	0.0159981
607.984	0.0160509
608.062	0.0161596
608.140	0.0161016
608.218	0.0161393
608.296	0.0160933
608.374	0.0160858
608.453	0.0161356
608.531	0.0161467
608.609	0.0161790
608.687	0.0161925
608.765	0.0162022
608.843	0.0161090
608.921	0.0160602
608.999	0.0160480
609.078	0.0162072
609.156	0.0162376
609.234	0.0161320
609.312	0.0160278
609.390	0.0161873
609.468	0.0161723
609.546	0.0159908
609.624	0.0161023
609.703	0.0162070
609.781	0.0161309
609.859	0.0160143
609.937	0.0160108
610.015	0.0160767
610.093	0.0161610
610.171	0.0161480
610.249	0.0161964
610.328	0.0161964
610.406	0.0160126
610.484	0.0161246
610.562	0.0159936
610.640	0.0161615
610.718	0.0162213
610.796	0.0162333
610.874	0.0162634
610.953	0.0160154
611.031	0.0160842
611.109	0.0162677
611.187	0.0161443
611.265	0.0161975
611.343	0.0161210
611.421	0.0162106
611.499	0.0161288
611.578	0.0160979
611.656	0.0161286
611.734	0.0161041
611.812	0.0161318
611.890	0.0162290
611.968	0.0162141
612.046	0.0161650
612.124	0.0160722
612.203	0.0160125
612.281	0.0160000
612.359	0.0161021
612.437	0.0160355
612.515	0.0160466
612.593	0.0160513
612.671	0.0160663
612.749	0.0160035
612.828	0.0160995
612.906	0.0159841
612.984	0.0160427
613.062	0.0160234
613.140	0.0160614
613.218	0.0160838
613.296	0.0160969
613.374	0.0159988
613.453	0.0159695
613.531	0.0161845
613.609	0.0159557
613.687	0.0158935
613.765	0.0160774
613.843	0.0161222
613.921	0.0161033
613.999	0.0159731
614.078	0.0159172
614.156	0.0159984
614.234	0.0160818
614.312	0.0160266
614.390	0.0160115
614.468	0.0160481
614.546	0.0159120
614.624	0.0160648
614.703	0.0161766
614.781	0.0160622
614.859	0.0160210
614.937	0.0161231
615.015	0.0160111
615.093	0.0160048
615.171	0.0160207
615.249	0.0161382
615.328	0.0162804
615.406	0.0160998
615.484	0.0160349
615.562	0.0160845
615.640	0.0161347
615.718	0.0161380
615.796	0.0160383
615.874	0.0159643
615.953	0.0160733
616.031	0.0161243
616.109	0.0161189
616.187	0.0159722
616.265	0.0161202
616.343	0.0161334
616.421	0.0161150
616.499	0.0160931
616.578	0.0159280
616.656	0.0160917
616.734	0.0160342
616.812	0.0160842
616.890	0.0162170
616.968	0.0160732
617.046	0.0161075
617.124	0.0161268
617.203	0.0161365
617.281	0.0161158
617.359	0.0160899
617.437	0.0160510
617.515	0.0160815
617.593	0.0162293
617.671	0.0161335
617.749	0.0160875
617.828	0.0160900
617.906	0.0160445
617.984	0.0161565
618.062	0.0161018
618.140	0.0162106
618.218	0.0162148
618.296	0.0161108
618.374	0.0161665
618.453	0.0161385
618.531	0.0161044
618.609	0.0160983
618.687	0.0161380
618.765	0.0162748
618.843	0.0162669
618.921	0.0162729
618.999	0.0160788
619.078	0.0163174
619.156	0.0162230
619.234	0.0161991
619.312	0.0162240
619.390	0.0162995
619.468	0.0162447
619.546	0.0162592
619.624	0.0161277
619.703	0.0162255
619.781	0.0162882
619.859	0.0162484
619.937	0.0161713
620.015	0.0162083
620.093	0.0162126
620.171	0.0162595
620.249	0.0162508
620.328	0.0163898
620.406	0.0161691
620.484	0.0162531
620.562	0.0162376
620.640	0.0162933
620.718	0.0161900
620.796	0.0162138
620.874	0.0162261
620.953	0.0161898
621.031	0.0161250
621.109	0.0162263
621.187	0.0162471
621.265	0.0161205
621.343	0.0161920
621.421	0.0160318
621.499	0.0162688
621.578	0.0162815
621.656	0.0161731
621.734	0.0162479
621.812	0.0161746
621.890	0.0161987
621.968	0.0161589
622.046	0.0163286
622.124	0.0162064
622.203	0.0161291
622.281	0.0161349
622.359	0.0160633
622.437	0.0161352
622.515	0.0161259
622.593	0.0161756
622.671	0.0160866
622.749	0.0159502
622.828	0.0162173
622.906	0.0161382
622.984	0.0161114
623.062	0.0160552
623.140	0.0161309
623.218	0.0160430
623.296	0.0161407
623.374	0.0161186
623.453	0.0160929
623.531	0.0161633
623.609	0.0161080
623.687	0.0162922
623.765	0.0161158
623.843	0.0160652
623.921	0.0161227
623.999	0.0161660
624.078	0.0161251
624.156	0.0159509
624.234	0.0161618
624.312	0.0162274
624.390	0.0161658
624.468	0.0159966
624.546	0.0159290
624.624	0.0161258
624.703	0.0161048
624.781	0.0160786
624.859	0.0162527
624.937	0.0160910
625.015	0.0161134
625.093	0.0161262
625.171	0.0161963
625.249	0.0160899
625.328	0.0161457
625.406	0.0162634
625.484	0.0160606
625.562	0.0161277
625.640	0.0161974
625.718	0.0162664
625.796	0.0162213
625.874	0.0161403
625.953	0.0160838
626.031	0.0161476
626.109	0.0162267
626.187	0.0161953
626.265	0.0160583
626.343	0.0162206
626.421	0.0162431
626.499	0.0161784
626.578	0.0160926
626.656	0.0161016
626.734	0.0163409
626.812	0.0162366
626.890	0.0161110
626.968	0.0161438
627.046	0.0161694
627.124	0.0161250
627.203	0.0161327
627.281	0.0162404
627.359	0.0161038
627.437	0.0161674
627.515	0.0162737
627.593	0.0161702
627.671	0.0162248
627.749	0.0160418
627.828	0.0160680
627.906	0.0161913
627.984	0.0160969
628.062	0.0162791
628.140	0.0162627
628.218	0.0163189
628.296	0.0161974
628.374	0.0162221
628.453	0.0161158
628.531	0.0162076
628.609	0.0162041
628.687	0.0161218
628.765	0.0161668
628.843	0.0162495
628.921	0.0163662
628.999	0.0162589
629.078	0.0161375
629.156	0.0162207
629.234	0.0162685
629.312	0.0161884
629.390	0.0162411
629.468	0.0162506
629.546	0.0163022
629.624	0.0162415
629.703	0.0162542
629.781	0.0162875
629.859	0.0162235
629.937	0.0162418
630.015	0.0163713
630.093	0.0162810
630.171	0.0162872
630.249	0.0163033
630.328	0.0161801
630.406	0.0163364
630.484	0.0163169
630.562	0.0163390
630.640	0.0162753
630.718	0.0162845
630.796	0.0161655
630.874	0.0162769
630.953	0.0163691
631.031	0.0163406
631.109	0.0162295
631.187	0.0161678
631.265	0.0162695
631.343	0.0162741
631.421	0.0162399
631.499	0.0161658
631.578	0.0162882
631.656	0.0163536
631.734	0.0162576
631.812	0.0161246
631.890	0.0161990
631.968	0.0162000
632.046	0.0161019
632.124	0.0162081
632.203	0.0161559
632.281	0.0161111
632.359	0.0162366
632.437	0.0161794
632.515	0.0161841
632.593	0.0162125
632.671	0.0161525
632.749	0.0163004
632.828	0.0162949
632.906	0.0162814
632.984	0.0161769
633.062	0.0161330
633.140	0.0162067
633.218	0.0162305
633.296	0.0162112
633.374	0.0161636
633.453	0.0161409
633.531	0.0161036
633.609	0.0161816
633.687	0.0162048
633.765	0.0162759
633.843	0.0163481
633.921	0.0162420
633.999	0.0161954
634.078	0.0163502
634.156	0.0162743
634.234	0.0162199
634.312	0.0161465
634.390	0.0161939
634.468	0.0161771
634.546	0.0162838
634.624	0.0161307
634.703	0.0161499
634.781	0.0162242
634.859	0.0162413
634.937	0.0162860
635.015	0.0161617
635.093	0.0161458
635.171	0.0162324
635.249	0.0162766
635.328	0.0161156
635.406	0.0162361
635.484	0.0161585
635.562	0.0161479
635.640	0.0160201
635.718	0.0160573
635.796	0.0161310
635.874	0.0161978
635.953	0.0160182
636.031	0.0161322
636.109	0.0160013
636.187	0.0161254
636.265	0.0160608
636.343	0.0160688
636.421	0.0161486
636.499	0.0160413
636.578	0.0160776
636.656	0.0158513
636.734	0.0159442
636.812	0.0159486
636.890	0.0158845
636.968	0.0159219
637.046	0.0158718
637.124	0.0160836
637.203	0.0159114
637.281	0.0160014
637.359	0.0159293
637.437	0.0160453
637.515	0.0160619
637.593	0.0161817
637.671	0.0160362
637.749	0.0161877
637.828	0.0161976
637.906	0.0161305
637.984	0.0161509
638.062	0.0161546
638.140	0.0162114
638.218	0.0162577
638.296	0.0161585
638.374	0.0161975
638.453	0.0160981
638.531	0.0159808
638.609	0.0159829
638.687	0.0160156
638.765	0.0159541
638.843	0.0159522
638.921	0.0159572
638.999	0.0159692
639.078	0.0159602
639.156	0.0159589
639.234	0.0160255
639.312	0.0160448
639.390	0.0158765
639.468	0.0159090
639.546	0.0160946
639.624	0.0161181
639.703	0.0161617
639.781	0.0160315
639.859	0.0160806
639.937	0.0161952
640.015	0.0161828
640.093	0.0161340
640.171	0.0160635
640.249	0.0160892
640.328	0.0161169
640.406	0.0160070
640.484	0.0161023
640.562	0.0162399
640.640	0.0162502
640.718	0.0161531
640.796	0.0160492
640.874	0.0161184
640.953	0.0161833
641.031	0.0161782
641.109	0.0160940
641.187	0.0160583
641.265	0.0161230
641.343	0.0160760
641.421	0.0161618
641.499	0.0161871
641.578	0.0160913
641.656	0.0161076
641.734	0.0161227
641.812	0.0160950
641.890	0.0161088
641.968	0.0162197
642.046	0.0160154
642.124	0.0161421
642.203	0.0160269
642.281	0.0160591
642.359	0.0161497
642.437	0.0161723
642.515	0.0161958
642.593	0.0161115
642.671	0.0161789
642.749	0.0161505
642.828	0.0162348
642.906	0.0161579
642.984	0.0160167
643.062	0.0162473
643.140	0.0161905
643.218	0.0162369
643.296	0.0163115
643.374	0.0162497
643.453	0.0162352
643.531	0.0162837
643.609	0.0161185
643.687	0.0162383
643.765	0.0162417
643.843	0.0161426
643.921	0.0163308
643.999	0.0163154
644.078	0.0162090
644.156	0.0163053
644.234	0.0162883
644.312	0.0162316
644.390	0.0162069
644.468	0.0162719
644.546	0.0163570
644.624	0.0163274
644.703	0.0162540
644.781	0.0161504
644.859	0.0162462
644.937	0.0161031
645.015	0.0161308
645.093	0.0162499
645.171	0.0164063
645.249	0.0162492
645.328	0.0163014
645.406	0.0162911
645.484	0.0161316
645.562	0.0162086
645.640	0.0162327
645.718	0.0163129
645.796	0.0163268
645.874	0.0163322
645.953	0.0162414
646.031	0.0163152
646.109	0.0162836
646.187	0.0163408
646.265	0.0163376
646.343	0.0163167
646.421	0.0163128
646.499	0.0161703
646.578	0.0162672
646.656	0.0161795
646.734	0.0163523
646.812	0.0162589
646.890	0.0162550
646.968	0.0162505
647.046	0.0162744
647.124	0.0163322
647.203	0.0162542
647.281	0.0162065
647.359	0.0162132
647.437	0.0161209
647.515	0.0163060
647.593	0.0162695
647.671	0.0161886
647.749	0.0163013
647.828	0.0163858
647.906	0.0162340
647.984	0.0163283
648.062	0.0162043
648.140	0.0160563
648.218	0.0162502
648.296	0.0162021
648.374	0.0161018
648.453	0.0164110
648.531	0.0162617
648.609	0.0161710
648.687	0.0162554
648.765	0.0163306
648.843	0.0161491
648.921	0.0160864
648.999	0.0162522
649.078	0.0162585
649.156	0.0161109
649.234	0.0160959
649.312	0.0161232
649.390	0.0163089
649.468	0.0160703
649.546	0.0162382
649.624	0.0161107
649.703	0.0161524
649.781	0.0162645
649.859	0.0162120
649.937	0.0160883
650.015	0.0161873
650.093	0.0161531
650.171	0.0160767
650.249	0.0162531
650.328	0.0161891
650.406	0.0162058
650.484	0.0162035
650.562	0.0162129
650.640	0.0160297
650.718	0.0161971
650.796	0.0163660
650.874	0.0161896
650.953	0.0160921
651.031	0.0162398
651.109	0.0162205
651.187	0.0162773
651.265	0.0162526
651.343	0.0161875
651.421	0.0163120
651.499	0.0162244
651.578	0.0161314
651.656	0.0162959
651.734	0.0161582
651.812	0.0160986
651.890	0.0162086
651.968	0.0163904
652.046	0.0161547
652.124	0.0160968
652.203	0.0161710
652.281	0.0161561
652.359	0.0161246
652.437	0.0162298
652.515	0.0162408
652.593	0.0161862
652.671	0.0161347
652.749	0.0163017
652.828	0.0160242
652.906	0.0160805
652.984	0.0160214
653.062	0.0161443
653.140	0.0161391
653.218	0.0160147
653.296	0.0160843
653.374	0.0162329
653.453	0.0161694
653.531	0.0161462
653.609	0.0160809
653.687	0.0160255
653.765	0.0160801
653.843	0.0161671
653.921	0.0160803
653.999	0.0160584
654.078	0.0162106
654.156	0.0160591
654.234	0.0161209
654.312	0.0162145
654.390	0.0161075
654.468	0.0161909
654.546	0.0161314
654.624	0.0160940
654.703	0.0161480
654.781	0.0160738
654.859	0.0163596
654.937	0.0161428
655.015	0.0162492
655.093	0.0162263
655.171	0.0162264
655.249	0.0162314
655.328	0.0162826
655.406	0.0161982
655.484	0.0162297
655.562	0.0162062
655.640	0.0162904
655.718	0.0163731
655.796	0.0162674
655.874	0.0162238
655.953	0.0162557
656.031	0.0162675
656.109	0.0162920
656.187	0.0162261
656.265	0.0163645
656.343	0.0163370
656.421	0.0162125
656.499	0.0161667
656.578	0.0162391
656.656	0.0160857
656.734	0.0162840
656.812	0.0163007
656.890	0.0161099
656.968	0.0159832
657.046	0.0162712
657.124	0.0161584
657.203	0.0163175
657.281	0.0162173
657.359	0.0161835
657.437	0.0161862
657.515	0.0163288
657.593	0.0161900
657.671	0.0161578
657.749	0.0160947
657.828	0.0161459
657.906	0.0162354
657.984	0.0162052
658.062	0.0161324
658.140	0.0161230
658.218	0.0160894
658.296	0.0162371
658.374	0.0162409
658.453	0.0162683
658.531	0.0161140
658.609	0.0161803
658.687	0.0161978
658.765	0.0162173
658.843	0.0162501
658.921	0.0162190
658.999	0.0162179
659.078	0.0163120
659.156	0.0162212
659.234	0.0161451
659.312	0.0159457
659.390	0.0160861
659.468	0.0162777
659.546	0.0160601
659.624	0.0162257
659.703	0.0162271
659.781	0.0160096
659.859	0.0161546
659.937	0.0162133
660.015	0.0162673
660.093	0.0162734
660.171	0.0161467
660.249	0.0161127
660.328	0.0161392
660.406	0.0160997
660.484	0.0160100
660.562	0.0159930
660.640	0.0160448
660.718	0.0161112
660.796	0.0161179
660.874	0.0162233
660.953	0.0162257
661.031	0.0161449
661.109	0.0161057
661.187	0.0160601
661.265	0.0161028
661.343	0.0159863
661.421	0.0162466
661.499	0.0159773
661.578	0.0160571
661.656	0.0160226
661.734	0.0160654
661.812	0.0158888
661.890	0.0161111
661.968	0.0159650
662.046	0.0160162
662.124	0.0160536
662.203	0.0159610
662.281	0.0160058
662.359	0.0158691
662.437	0.0158694
662.515	0.0159941
662.593	0.0159921
662.671	0.0159985
662.749	0.0160213
662.828	0.0160124
662.906	0.0160488
662.984	0.0161218
663.062	0.0159010
663.140	0.0159709
663.218	0.0159441
663.296	0.0158944
663.374	0.0160777
663.453	0.0160503
663.531	0.0159641
663.609	0.0159879
663.687	0.0160192
663.765	0.0158567
663.843	0.0160568
663.921	0.0159164
663.999	0.0160992
664.078	0.0160867
664.156	0.0159348
664.234	0.0160397
664.312	0.0160998
664.390	0.0159700
664.468	0.0160098
664.546	0.0159736
664.624	0.0160164
664.703	0.0160477
664.781	0.0160839
664.859	0.0160316
664.937	0.0160303
665.015	0.0161490
665.093	0.0160287
665.171	0.0160245
665.249	0.0160995
665.328	0.0160564
665.406	0.0160062
665.484	0.0158817
665.562	0.0160160
665.640	0.0161098
665.718	0.0160905
665.796	0.0160065
665.874	0.0160281
665.953	0.0160270
666.031	0.0159673
666.109	0.0159982
666.187	0.0161607
666.265	0.0161684
666.343	0.0159895
666.421	0.0160200
666.499	0.0161110
666.578	0.0160902
666.656	0.0160975
666.734	0.0160958
666.812	0.0161018
666.890	0.0160713
666.968	0.0159891
667.046	0.0160484
667.124	0.0161345
667.203	0.0161649
667.281	0.0161684
667.359	0.0160442
667.437	0.0160210
667.515	0.0160529
667.593	0.0160838
667.671	0.0161473
667.749	0.0161951
667.828	0.0161923
667.906	0.0159825
667.984	0.0161230
668.062	0.0161092
668.140	0.0160015
668.218	0.0161269
668.296	0.0160159
668.374	0.0161459
668.453	0.0161303
668.531	0.0159831
668.609	0.0161649
668.687	0.0160456
668.765	0.0161481
668.843	0.0160553
668.921	0.0161447
668.999	0.0161652
669.078	0.0161584
669.156	0.0160972
669.234	0.0161504
669.312	0.0160757
669.390	0.0160937
669.468	0.0162090
669.546	0.0161794
669.624	0.0161699
669.703	0.0162498
669.781	0.0162716
669.859	0.0160869
669.937	0.0161698
670.015	0.0162100
670.093	0.0160188
670.171	0.0162000
670.249	0.0161018
670.328	0.0161605
670.406	0.0162566
670.484	0.0161184
670.562	0.0161629
670.640	0.0162521
670.718	0.0163454
670.796	0.0162123
670.874	0.0162302
670.953	0.0162944
671.031	0.0161760
671.109	0.0162357
671.187	0.0162585
671.265	0.0162082
671.343	0.0162303
671.421	0.0162585
671.499	0.0162107
671.578	0.0164105
671.656	0.0163446
671.734	0.0161288
671.812	0.0161165
671.890	0.0162117
671.968	0.0161690
672.046	0.0162904
672.124	0.0162572
672.203	0.0161879
672.281	0.0162994
672.359	0.0163351
672.437	0.0163253
672.515	0.0161208
672.593	0.0162738
672.671	0.0162258
672.749	0.0161617
672.828	0.0162238
672.906	0.0161082
672.984	0.0163343
673.062	0.0162587
673.140	0.0162310
673.218	0.0162288
673.296	0.0162406
673.374	0.0162032
673.453	0.0163371
673.531	0.0162086
673.609	0.0164095
673.687	0.0163325
673.765	0.0161241
673.843	0.0162817
673.921	0.0162213
673.999	0.0161548
674.078	0.0160635
674.156	0.0161623
674.234	0.0162479
674.312	0.0163210
674.390	0.0160423
674.468	0.0162157
674.546	0.0162771
674.624	0.0162035
674.703	0.0161065
674.781	0.0162305
674.859	0.0161661
674.937	0.0161356
675.015	0.0162435
675.093	0.0161634
675.171	0.0162039
675.249	0.0161898
675.328	0.0162053
675.406	0.0162556
675.484	0.0161792
675.562	0.0162024
675.640	0.0161691
675.718	0.0162283
675.796	0.0160864
675.874	0.0162321
675.953	0.0161837
676.031	0.0161803
676.109	0.0162177
676.187	0.0161556
676.265	0.0161778
676.343	0.0159562
676.421	0.0161304
676.499	0.0162146
676.578	0.0162128
676.656	0.0161548
676.734	0.0161542
676.812	0.0161046
676.890	0.0160650
676.968	0.0161194
677.046	0.0161544
677.124	0.0161271
677.203	0.0162199
677.281	0.0161440
677.359	0.0162021
677.437	0.0160609
677.515	0.0162003
677.593	0.0161977
677.671	0.0161958
677.749	0.0161889
677.828	0.0161718
677.906	0.0160735
677.984	0.0162396
678.062	0.0162147
678.140	0.0161896
678.218	0.0161578
678.296	0.0162163
678.374	0.0160555
678.453	0.0162126
678.531	0.0161767
678.609	0.0160944
678.687	0.0161190
678.765	0.0161921
678.843	0.0162120
678.921	0.0160940
678.999	0.0161574
679.078	0.0160917
679.156	0.0161838
679.234	0.0161980
679.312	0.0162199
679.390	0.0161057
679.468	0.0161594
679.546	0.0162376
679.624	0.0160286
679.703	0.0160195
679.781	0.0161042
679.859	0.0162341
679.937	0.0161797
680.015	0.0160641
680.093	0.0161612
680.171	0.0160603
680.249	0.0160812
680.328	0.0161683
680.406	0.0162373
680.484	0.0161049
680.562	0.0162226
680.640	0.0161695
680.718	0.0162100
680.796	0.0160957
680.874	0.0161598
680.953	0.0161190
681.031	0.0161316
681.109	0.0161208
681.187	0.0161638
681.265	0.0160255
681.343	0.0161497
681.421	0.0160041
681.499	0.0160416
681.578	0.0161952
681.656	0.0161445
681.734	0.0160124
681.812	0.0159781
681.890	0.0161317
681.968	0.0161413
682.046	0.0160165
682.124	0.0161519
682.203	0.0161189
682.281	0.0160037
682.359	0.0161557
682.437	0.0160579
682.515	0.0160439
682.593	0.0160190
682.671	0.0161125
682.749	0.0161630
682.828	0.0161142
682.906	0.0160175
682.984	0.0159435
683.062	0.0160484
683.140	0.0160586
683.218	0.0160305
683.296	0.0161076
683.374	0.0159886
683.453	0.0159116
683.531	0.0160610
683.609	0.0160811
683.687	0.0159871
683.765	0.0160854
683.843	0.0160358
683.921	0.0161088
683.999	0.0160729
684.078	0.0159967
684.156	0.0161550
684.234	0.0159959
684.312	0.0159827
684.390	0.0159634
684.468	0.0159834
684.546	0.0160897
684.624	0.0160597
684.703	0.0160866
684.781	0.0159688
684.859	0.0159818
684.937	0.0159445
685.015	0.0159225
685.093	0.0160602
685.171	0.0160090
685.249	0.0160043
685.328	0.0161186
685.406	0.0159952
685.484	0.0159526
685.562	0.0160508
685.640	0.0160255
685.718	0.0160748
685.796	0.0159868
685.874	0.0160812
685.953	0.0160118
686.031	0.0158845
686.109	0.0160091
686.187	0.0161604
686.265	0.0160773
686.343	0.0160176
686.421	0.0161743
686.499	0.0160358
686.578	0.0161118
686.656	0.0162114
686.734	0.0161192
686.812	0.0161444
686.890	0.0160556
686.968	0.0161605
687.046	0.0160009
687.124	0.0161346
687.203	0.0161600
687.281	0.0161057
687.359	0.0160537
687.437	0.0161382
687.515	0.0160804
687.593	0.0160594
687.671	0.0160282
687.749	0.0161063
687.828	0.0160426
687.906	0.0161420
687.984	0.0161309
688.062	0.0160019
688.140	0.0160381
688.218	0.0161543
688.296	0.0160217
688.374	0.0162000
688.453	0.0161853
688.531	0.0160875
688.609	0.0160686
688.687	0.0160649
688.765	0.0161333
688.843	0.0159604
688.921	0.0160710
688.999	0.0160591
689.078	0.0159771
689.156	0.0161267
689.234	0.0161266
689.312	0.0161470
689.390	0.0160681
689.468	0.0161296
689.546	0.0160381
689.624	0.0160781
689.703	0.0161409
689.781	0.0160686
689.859	0.0161939
689.937	0.0161494
690.015	0.0160406
690.093	0.0162046
690.171	0.0161709
690.249	0.0160375
690.328	0.0161523
690.406	0.0162486
690.484	0.0160394
690.562	0.0160712
690.640	0.0161087
690.718	0.0159505
690.796	0.0161833
690.874	0.0160487
690.953	0.0161545
691.031	0.0161684
691.109	0.0162469
691.187	0.0161871
691.265	0.0162047
691.343	0.0160397
691.421	0.0161189
691.499	0.0162561
691.578	0.0162611
691.656	0.0161140
691.734	0.0160047
691.812	0.0161784
691.890	0.0162067
691.968	0.0160305
692.046	0.0160843
692.124	0.0160285
692.203	0.0160788
692.281	0.0161507
692.359	0.0160161
692.437	0.0161921
692.515	0.0161001
692.593	0.0161243
692.671	0.0161218
692.749	0.0161992
692.828	0.0160736
692.906	0.0160662
692.984	0.0161396
693.062	0.0161044
693.140	0.0161607
693.218	0.0161160
693.296	0.0162556
693.374	0.0161285
693.453	0.0162477
693.531	0.0162109
693.609	0.0161938
693.687	0.0162148
693.765	0.0163224
693.843	0.0160867
693.921	0.0161539
693.999	0.0161713
694.078	0.0160760
694.156	0.0162008
694.234	0.0162315
694.312	0.0162025
694.390	0.0161053
694.468	0.0161239
694.546	0.0160857
694.624	0.0161433
694.703	0.0160834
694.781	0.0160648
694.859	0.0161623
694.937	0.0162467
695.015	0.0161311
695.093	0.0161393
695.171	0.0161989
695.249	0.0161430
695.328	0.0160992
695.406	0.0161852
695.484	0.0161578
695.562	0.0161359
695.640	0.0162192
695.718	0.0161414
695.796	0.0161160
695.874	0.0160553
695.953	0.0162517
696.031	0.0162417
696.109	0.0161677
696.187	0.0161748
696.265	0.0161105
696.343	0.0161192
696.421	0.0161832
696.499	0.0161169
696.578	0.0161364
696.656	0.0160683
696.734	0.0161935
696.812	0.0161140
696.890	0.0162315
696.968	0.0162257
697.046	0.0162192
697.124	0.0161298
697.203	0.0163792
697.281	0.0161702
697.359	0.0161085
697.437	0.0161974
697.515	0.0161026
697.593	0.0161194
697.671	0.0162242
697.749	0.0162472
697.828	0.0162817
697.906	0.0161448
697.984	0.0161441
698.062	0.0162864
698.140	0.0161275
698.218	0.0163613
698.296	0.0162936
698.374	0.0162027
698.453	0.0162545
698.531	0.0162400
698.609	0.0162291
698.687	0.0161095
698.765	0.0162859
698.843	0.0161314
698.921	0.0162646
698.999	0.0161937
699.078	0.0163097
699.156	0.0163663
699.234	0.0161480
699.312	0.0162199
699.390	0.0163833
699.468	0.0162199
699.546	0.0162696
699.624	0.0162785
699.703	0.0164397
699.781	0.0163456
699.859	0.0162964
699.937	0.0161917
700.015	0.0161876
700.093	0.0161749
700.171	0.0163371
700.249	0.0161764
700.328	0.0162099
700.406	0.0162635
700.484	0.0162318
700.562	0.0161745
700.640	0.0162463
700.718	0.0163402
700.796	0.0162022
700.874	0.0161171
700.953	0.0162834
701.031	0.0162508
701.109	0.0162935
701.187	0.0161448
701.265	0.0160502
701.343	0.0162067
701.421	0.0160706
701.499	0.0163075
701.578	0.0161863
701.656	0.0162830
701.734	0.0161971
701.812	0.0161759
701.890	0.0162326
701.968	0.0162009
702.046	0.0162201
702.124	0.0162254
702.203	0.0161600
702.281	0.0161089
702.359	0.0162577
702.437	0.0162022
702.515	0.0161134
702.593	0.0161513
702.671	0.0161065
702.749	0.0162480
702.828	0.0161582
702.906	0.0160957
702.984	0.0161926
703.062	0.0161028
703.140	0.0161179
703.218	0.0161539
703.296	0.0162407
703.374	0.0161155
703.453	0.0161722
703.531	0.0161333
703.609	0.0162544
703.687	0.0162744
703.765	0.0161980
703.843	0.0161819
703.921	0.0163037
703.999	0.0162086
704.078	0.0162050
704.156	0.0161136
704.234	0.0162053
704.312	0.0162494
704.390	0.0162378
704.468	0.0162885
704.546	0.0162507
704.624	0.0161047
704.703	0.0162110
704.781	0.0162222
704.859	0.0162974
704.937	0.0161850
705.015	0.0163183
705.093	0.0161150
705.171	0.0162080
705.249	0.0162629
705.328	0.0162234
705.406	0.0162247
705.484	0.0162362
705.562	0.0161709
705.640	0.0161832
705.718	0.0162553
705.796	0.0161092
705.874	0.0163146
705.953	0.0163289
706.031	0.0161594
706.109	0.0162501
706.187	0.0161985
706.265	0.0161935
706.343	0.0161935
706.421	0.0160848
706.499	0.0160947
706.578	0.0162633
706.656	0.0161515
706.734	0.0161617
706.812	0.0162229
706.890	0.0161986
706.968	0.0162343
707.046	0.0160753
707.124	0.0161195
707.203	0.0162052
707.281	0.0162471
707.359	0.0160242
707.437	0.0160555
707.515	0.0161080
707.593	0.0160853
707.671	0.0160591
707.749	0.0161697
707.828	0.0161793
707.906	0.0160960
707.984	0.0160933
708.062	0.0161531
708.140	0.0161027
708.218	0.0160584
708.296	0.0161422
708.374	0.0162562
708.453	0.0160958
708.531	0.0160550
708.609	0.0161752
708.687	0.0161813
708.765	0.0161998
708.843	0.0160546
708.921	0.0160922
708.999	0.0161652
709.078	0.0160480
709.156	0.0160830
709.234	0.0160558
709.312	0.0160508
709.390	0.0160971
709.468	0.0160189
709.546	0.0161060
709.624	0.0161106
709.703	0.0161480
709.781	0.0161204
709.859	0.0161057
709.937	0.0159899
710.015	0.0160780
710.093	0.0159859
710.171	0.0161916
710.249	0.0161106
710.328	0.0160574
710.406	0.0160812
710.484	0.0160376
710.562	0.0160278
710.640	0.0161646
710.718	0.0161356
710.796	0.0160640
710.874	0.0161059
710.953	0.0161176
711.031	0.0161398
711.109	0.0161342
711.187	0.0161001
711.265	0.0160632
711.343	0.0160654
711.421	0.0161996
711.499	0.0160737
711.578	0.0160384
711.656	0.0161508
711.734	0.0162719
711.812	0.0160107
711.890	0.0160483
711.968	0.0160969
712.046	0.0160782
712.124	0.0161799
712.203	0.0161633
712.281	0.0160786
712.359	0.0160947
712.437	0.0162483
712.515	0.0161303
712.593	0.0160426
712.671	0.0162224
712.749	0.0160549
712.828	0.0161134
712.906	0.0160169
712.984	0.0161497
713.062	0.0160242
713.140	0.0160012
713.218	0.0160527
713.296	0.0160447
713.374	0.0161649
713.453	0.0159870
713.531	0.0161437
713.609	0.0161718
713.687	0.0161768
713.765	0.0160957
713.843	0.0163416
713.921	0.0162040
713.999	0.0161742
714.078	0.0160577
714.156	0.0160760
714.234	0.0161711
714.312	0.0160871
714.390	0.0162816
714.468	0.0161644
714.546	0.0161435
714.624	0.0162012
714.703	0.0161192
714.781	0.0161003
714.859	0.0160905
714.937	0.0161572
715.015	0.0161462
715.093	0.0162199
715.171	0.0162665
715.249	0.0161700
715.328	0.0161938
715.406	0.0161889
715.484	0.0161311
715.562	0.0162543
715.640	0.0162471
715.718	0.0161056
715.796	0.0162125
715.874	0.0162511
715.953	0.0162486
716.031	0.0161898
716.109	0.0161563
716.187	0.0163071
716.265	0.0162642
716.343	0.0161354
716.421	0.0162915
716.499	0.0162830
716.578	0.0162177
716.656	0.0163559
716.734	0.0162893
716.812	0.0161570
716.890	0.0161629
716.968	0.0162712
717.046	0.0162418
717.124	0.0162281
717.203	0.0162537
717.281	0.0160972
717.359	0.0161363
717.437	0.0161934
717.515	0.0162762
717.593	0.0161346
717.671	0.0161298
717.749	0.0161044
717.828	0.0161690
717.906	0.0162192
717.984	0.0161176
718.062	0.0163091
718.140	0.0162454
718.218	0.0161517
718.296	0.0162363
718.374	0.0161629
718.453	0.0161765
718.531	0.0160667
718.609	0.0161526
718.687	0.0162961
718.765	0.0161258
718.843	0.0160770
718.921	0.0161208
718.999	0.0162980
719.078	0.0162338
719.156	0.0161720
719.234	0.0162043
719.312	0.0161972
719.390	0.0162263
719.468	0.0161008
719.546	0.0162319
719.624	0.0162973
719.703	0.0164107
719.781	0.0162623
719.859	0.0161561
719.937	0.0163149
720.015	0.0162616
720.093	0.0163005
720.171	0.0161725
720.249	0.0163158
720.328	0.0162114
720.406	0.0162634
720.484	0.0161756
720.562	0.0161776
720.640	0.0161553
720.718	0.0163350
720.796	0.0162985
720.874	0.0161601
720.953	0.0163058
721.031	0.0163069
721.109	0.0161256
721.187	0.0162936
721.265	0.0162067
721.343	0.0162785
721.421	0.0162579
721.499	0.0163918
721.578	0.0163651
721.656	0.0162231
721.734	0.0161347
721.812	0.0163435
721.890	0.0163283
721.968	0.0160779
722.046	0.0162558
722.124	0.0162800
722.203	0.0161989
722.281	0.0162004
722.359	0.0162518
722.437	0.0161604
722.515	0.0161034
722.593	0.0163025
722.671	0.0162693
722.749	0.0162875
722.828	0.0162515
722.906	0.0162176
722.984	0.0161353
723.062	0.0161577
723.140	0.0162431
723.218	0.0161078
723.296	0.0161433
723.374	0.0161729
723.453	0.0161841
723.531	0.0161707
723.609	0.0162823
723.687	0.0161996
723.765	0.0162038
723.843	0.0161961
723.921	0.0161669
723.999	0.0161160
724.078	0.0161636
724.156	0.0162296
724.234	0.0161165
724.312	0.0161095
724.390	0.0162052
724.468	0.0161493
724.546	0.0162132
724.624	0.0162469
724.703	0.0161487
724.781	0.0161785
724.859	0.0161633
724.937	0.0162903
725.015	0.0162832
725.093	0.0161890
725.171	0.0161550
725.249	0.0160320
725.328	0.0161243
725.406	0.0160661
725.484	0.0161157
725.562	0.0162656
725.640	0.0161909
725.718	0.0162070
725.796	0.0160004
725.874	0.0161748
725.953	0.0161417
726.031	0.0161067
726.109	0.0161723
726.187	0.0162901
726.265	0.0162321
726.343	0.0162690
726.421	0.0161338
726.499	0.0161119
726.578	0.0161984
726.656	0.0162608
726.734	0.0160965
726.812	0.0161450
726.890	0.0161404
726.968	0.0162070
727.046	0.0162464
727.124	0.0162581
727.203	0.0162423
727.281	0.0162256
727.359	0.0161761
727.437	0.0161878
727.515	0.0162427
727.593	0.0161782
727.671	0.0163449
727.749	0.0162088
727.828	0.0161958
727.906	0.0161568
727.984	0.0161900
728.062	0.0163114
728.140	0.0162946
728.218	0.0163025
728.296	0.0160756
728.374	0.0162650
728.453	0.0162251
728.531	0.0162338
728.609	0.0161127
728.687	0.0162852
728.765	0.0162125
728.843	0.0161983
728.921	0.0163078
728.999	0.0162114
729.078	0.0162202
729.156	0.0161465
729.234	0.0162244
729.312	0.0161897
729.390	0.0162939
729.468	0.0162041
729.546	0.0161893
729.624	0.0162023
729.703	0.0162823
729.781	0.0162874
729.859	0.0161615
729.937	0.0164012
730.015	0.0162515
730.093	0.0162234
730.171	0.0160613
730.249	0.0162844
730.328	0.0161482
730.406	0.0162057
730.484	0.0161889
730.562	0.0162049
730.640	0.0161328
730.718	0.0162750
730.796	0.0161837
730.874	0.0160232
730.953	0.0161657
731.031	0.0161183
731.109	0.0161813
731.187	0.0160732
731.265	0.0160557
731.343	0.0162125
731.421	0.0163308
731.499	0.0161423
731.578	0.0160971
731.656	0.0161967
731.734	0.0162009
731.812	0.0162117
731.890	0.0162687
731.968	0.0163128
732.046	0.0163283
732.124	0.0162021
732.203	0.0161652
732.281	0.0162019
732.359	0.0160922
732.437	0.0161486
732.515	0.0162360
732.593	0.0162306
732.671	0.0161720
732.749	0.0163186
732.828	0.0162397
732.906	0.0162271
732.984	0.0162817
733.062	0.0161909
733.140	0.0161950
733.218	0.0160678
733.296	0.0161092
733.374	0.0160944
733.453	0.0162273
733.531	0.0162175
733.609	0.0160331
733.687	0.0160652
733.765	0.0161212
733.843	0.0160484
733.921	0.0159625
733.999	0.0161421
734.078	0.0160670
734.156	0.0159798
734.234	0.0161328
734.312	0.0161276
734.390	0.0160602
734.468	0.0161356
734.546	0.0160249
734.624	0.0158876
734.703	0.0161234
734.781	0.0160789
734.859	0.0161159
734.937	0.0162523
735.015	0.0161503
735.093	0.0160232
735.171	0.0161031
735.249	0.0162003
735.328	0.0162178
735.406	0.0159652
735.484	0.0160447
735.562	0.0160661
735.640	0.0161364
735.718	0.0163028
735.796	0.0162026
735.874	0.0162641
735.953	0.0160153
736.031	0.0161173
736.109	0.0161954
736.187	0.0162570
736.265	0.0161507
736.343	0.0160558
736.421	0.0161967
736.499	0.0160323
736.578	0.0161095
736.656	0.0161020
736.734	0.0160746
736.812	0.0160605
736.890	0.0161147
736.968	0.0161084
737.046	0.0160650
737.124	0.0161562
737.203	0.0162517
737.281	0.0160399
737.359	0.0161625
737.437	0.0160548
737.515	0.0161330
737.593	0.0160102
737.671	0.0160362
737.749	0.0161583
737.828	0.0162189
737.906	0.0160783
737.984	0.0161005
738.062	0.0161913
738.140	0.0159979
738.218	0.0160709
738.296	0.0160760
738.374	0.0159543
738.453	0.0161211
738.531	0.0161727
738.609	0.0159252
738.687	0.0160941
738.765	0.0160712
738.843	0.0159273
738.921	0.0159351
738.999	0.0161894
739.078	0.0161932
739.156	0.0161955
739.234	0.0160460
739.312	0.0160661
739.390	0.0162012
739.468	0.0161207
739.546	0.0161106
739.624	0.0163011
739.703	0.0161568
739.781	0.0160852
739.859	0.0159341
739.937	0.0161572
740.015	0.0162075
740.093	0.0160931
740.171	0.0160358
740.249	0.0161769
740.328	0.0161212
740.406	0.0162947
740.484	0.0160860
740.562	0.0161771
740.640	0.0162032
740.718	0.0160535
740.796	0.0161220
740.874	0.0160115
740.953	0.0160590
741.031	0.0160960
741.109	0.0160861
741.187	0.0160374
741.265	0.0160199
741.343	0.0160822
741.421	0.0160974
741.499	0.0160998
741.578	0.0160355
741.656	0.0160600
741.734	0.0160141
741.812	0.0160674
741.890	0.0159657
741.968	0.0159771
742.046	0.0160471
742.124	0.0162469
742.203	0.0159975
742.281	0.0160886
742.359	0.0160597
742.437	0.0160576
742.515	0.0160397
742.593	0.0161656
742.671	0.0161663
742.749	0.0160160
742.828	0.0161298
742.906	0.0161678
742.984	0.0160606
743.062	0.0160986
743.140	0.0161166
743.218	0.0160892
743.296	0.0161702
743.374	0.0161182
743.453	0.0160470
743.531	0.0159995
743.609	0.0161835
743.687	0.0161903
743.765	0.0161632
743.843	0.0162469
743.921	0.0162003
743.999	0.0161108
744.078	0.0162138
744.156	0.0161536
744.234	0.0161783
744.312	0.0160171
744.390	0.0162176
744.468	0.0161746
744.546	0.0163348
744.624	0.0161757
744.703	0.0161913
744.781	0.0163284
744.859	0.0161496
744.937	0.0162634
745.015	0.0162995
745.093	0.0161729
745.171	0.0162972
745.249	0.0162582
745.328	0.0162174
745.406	0.0161354
745.484	0.0161801
745.562	0.0160257
745.640	0.0161655
745.718	0.0161300
745.796	0.0160642
745.874	0.0161798
745.953	0.0161828
746.031	0.0162099
746.109	0.0161823
746.187	0.0161500
746.265	0.0160555
746.343	0.0160939
746.421	0.0162290
746.499	0.0162505
746.578	0.0161418
746.656	0.0160421
746.734	0.0162120
746.812	0.0161326
746.890	0.0160999
746.968	0.0161716
747.046	0.0160699
747.124	0.0160395
747.203	0.0163123
747.281	0.0162705
747.359	0.0162848
747.437	0.0163513
747.515	0.0162832
747.593	0.0159893
747.671	0.0162404
747.749	0.0162456
747.828	0.0163866
747.906	0.0162976
747.984	0.0162012
748.062	0.0161773
748.140	0.0162039
748.218	0.0162733
748.296	0.0161861
748.374	0.0161550
748.453	0.0162090
748.531	0.0161187
748.609	0.0160623
748.687	0.0160485
748.765	0.0160680
748.843	0.0161108
748.921	0.0162237
748.999	0.0161380
749.078	0.0160815
749.156	0.0162454
749.234	0.0162018
749.312	0.0161759
749.390	0.0161830
749.468	0.0161483
749.546	0.0161205
749.624	0.0161825
749.703	0.0161709
749.781	0.0160942
749.859	0.0161501
749.937	0.0161379
750.015	0.0161196
750.093	0.0161414
750.171	0.0162200
750.249	0.0163177
750.328	0.0161237
750.406	0.0161485
750.484	0.0161930
750.562	0.0162138
750.640	0.0160938
750.718	0.0162463
750.796	0.0161662
750.874	0.0160763
750.953	0.0162019
751.031	0.0160434
751.109	0.0161481
751.187	0.0159739
751.265	0.0160315
751.343	0.0161420
751.421	0.0160316
751.499	0.0161662
751.578	0.0160580
751.656	0.0160696
751.734	0.0159615
751.812	0.0160920
751.890	0.0160990
751.968	0.0161647
752.046	0.0161172
752.124	0.0160876
752.203	0.0161028
752.281	0.0162077
752.359	0.0160198
752.437	0.0162408
752.515	0.0162477
752.593	0.0162272
752.671	0.0161594
752.749	0.0161993
752.828	0.0163928
752.906	0.0163984
752.984	0.0162381
753.062	0.0162051
753.140	0.0163944
753.218	0.0163070
753.296	0.0161755
753.374	0.0162844
753.453	0.0164790
753.531	0.0162550
753.609	0.0162132
753.687	0.0162393
753.765	0.0161718
753.843	0.0161868
753.921	0.0160848
753.999	0.0162087
754.078	0.0162048
754.156	0.0161151
754.234	0.0160078
754.312	0.0161095
754.390	0.0160672
754.468	0.0161398
754.546	0.0161363
754.624	0.0161829
754.703	0.0160196
754.781	0.0159518
754.859	0.0160580
754.937	0.0159693
755.015	0.0160602
755.093	0.0159818
755.171	0.0159875
755.249	0.0160114
755.328	0.0159645
755.406	0.0161458
755.484	0.0161073
755.562	0.0161743
755.640	0.0161433
755.718	0.0160192
755.796	0.0160921
755.874	0.0160525
755.953	0.0161048
756.031	0.0160968
756.109	0.0160425
756.187	0.0160853
756.265	0.0160759
756.343	0.0160963
756.421	0.0159385
756.499	0.0160033
756.578	0.0159586
756.656	0.0161159
756.734	0.0161631
756.812	0.0161320
756.890	0.0160262
756.968	0.0161736
757.046	0.0161208
757.124	0.0162241
757.203	0.0161749
757.281	0.0161692
757.359	0.0162846
757.437	0.0162061
757.515	0.0162715
757.593	0.0162429
757.671	0.0162151
757.749	0.0162161
757.828	0.0161924
757.906	0.0161929
757.984	0.0162464
758.062	0.0161217
758.140	0.0163049
758.218	0.0162384
758.296	0.0161751
758.374	0.0160908
758.453	0.0161535
758.531	0.0160613
758.609	0.0160841
758.687	0.0161636
758.765	0.0161688
758.843	0.0160976
758.921	0.0158774
758.999	0.0159831
759.078	0.0159679
759.156	0.0159370
759.234	0.0159987
759.312	0.0159716
759.390	0.0160339
759.468	0.0160256
759.546	0.0161285
759.624	0.0159650
759.703	0.0160895
759.781	0.0161091
759.859	0.0160778
759.937	0.0161041
760.015	0.0161732
760.093	0.0162657
760.171	0.0161183
760.249	0.0161749
760.328	0.0161333
760.406	0.0161745
760.484	0.0161607
760.562	0.0160986
760.640	0.0163280
760.718	0.0162910
760.796	0.0161994
760.874	0.0162407
760.953	0.0161479
761.031	0.0161480
761.109	0.0161731
761.187	0.0161414
761.265	0.0160587
761.343	0.0160440
761.421	0.0159918
761.499	0.0160030
761.578	0.0160324
761.656	0.0160104
761.734	0.0159940
761.812	0.0160004
761.890	0.0161395
761.968	0.0161106
762.046	0.0159475
762.124	0.0159906
762.203	0.0159985
762.281	0.0159929
762.359	0.0159770
762.437	0.0161328
762.515	0.0159834
762.593	0.0160122
762.671	0.0159165
762.749	0.0158659
762.828	0.0159781
762.906	0.0160144
762.984	0.0161131
763.062	0.0160947
763.140	0.0161145
763.218	0.0161774
763.296	0.0161260
763.374	0.0162032
763.453	0.0161975
763.531	0.0161552
763.609	0.0161050
763.687	0.0162303
763.765	0.0162003
763.843	0.0160979
763.921	0.0160068
763.999	0.0161563
764.078	0.0161474
764.156	0.0161048
764.234	0.0159624
764.312	0.0161102
764.390	0.0161143
764.468	0.0160811
764.546	0.0159753
764.624	0.0158759
764.703	0.0158420
764.781	0.0162741
764.859	0.0162119
764.937	0.0162177
765.015	0.0162126
765.093	0.0160135
765.171	0.0162908
765.249	0.0164608
765.328	0.0162450
765.406	0.0162171
765.484	0.0162304
765.562	0.0162380
765.640	0.0161295
765.718	0.0161848
765.796	0.0162995
765.874	0.0160613
765.953	0.0161137
766.031	0.0161290
766.109	0.0161110
766.187	0.0159818
766.265	0.0160337
766.343	0.0160122
766.421	0.0158877
766.499	0.0161232
766.578	0.0162012
766.656	0.0160868
766.734	0.0160467
766.812	0.0162016
766.890	0.0162555
766.968	0.0161348
767.046	0.0161463
767.124	0.0161610
767.203	0.0159871
767.281	0.0161391
767.359	0.0159032
767.437	0.0159236
767.515	0.0158362
767.593	0.0158683
767.671	0.0157834
767.749	0.0157932
767.828	0.0158009
767.906	0.0157304
767.984	0.0157417
768.062	0.0156474
768.140	0.0158291
768.218	0.0158881
768.296	0.0159515
768.374	0.0158362
768.453	0.0158341
768.531	0.0159999
768.609	0.0159147
768.687	0.0159812
768.765	0.0159601
768.843	0.0160408
768.921	0.0160690
768.999	0.0159931
769.078	0.0162012
769.156	0.0160629
769.234	0.0161234
769.312	0.0161669
769.390	0.0162555
769.468	0.0162109
769.546	0.0163555
769.624	0.0162878
769.703	0.0162100
769.781	0.0162774
769.859	0.0162480
769.937	0.0163052
770.015	0.0163332
770.093	0.0162452
770.171	0.0162480
770.249	0.0162372
770.328	0.0162002
770.406	0.0162978
770.484	0.0162657
770.562	0.0161625
770.640	0.0161450
770.718	0.0161815
770.796	0.0159548
770.874	0.0160871
770.953	0.0161169
771.031	0.0159311
771.109	0.0159504
771.187	0.0159378
771.265	0.0159019
771.343	0.0159830
771.421	0.0158728
771.499	0.0159469
771.578	0.0159352
771.656	0.0158188
771.734	0.0161156
771.812	0.0161652
771.890	0.0161442
771.968	0.0159779
772.046	0.0161390
772.124	0.0159664
772.203	0.0162626
772.281	0.0162437
772.359	0.0160704
772.437	0.0160944
772.515	0.0161712
772.593	0.0162822
772.671	0.0164083
772.749	0.0162251
772.828	0.0163050
772.906	0.0162614
772.984	0.0161835
773.062	0.0163010
773.140	0.0164588
773.218	0.0162908
773.296	0.0162379
773.374	0.0161287
773.453	0.0162379
773.531	0.0162794
773.609	0.0162360
773.687	0.0161747
773.765	0.0162924
773.843	0.0161614
773.921	0.0162359
773.999	0.0163002
774.078	0.0163020
774.156	0.0162624
774.234	0.0164082
774.312	0.0164413
774.390	0.0163723
774.468	0.0163181
774.546	0.0164730
774.624	0.0163634
774.703	0.0163660
774.781	0.0164671
774.859	0.0163906
774.937	0.0162937
775.015	0.0162340
775.093	0.0162274
775.171	0.0161771
775.249	0.0161226
775.328	0.0161545
775.406	0.0161465
775.484	0.0161993
775.562	0.0163214
775.640	0.0162019
775.718	0.0161560
775.796	0.0161710
775.874	0.0162766
775.953	0.0162887
776.031	0.0163203
776.109	0.0162702
776.187	0.0163677
776.265	0.0163457
776.343	0.0163444
776.421	0.0161843
776.499	0.0162147
776.578	0.0161656
776.656	0.0162514
776.734	0.0160214
776.812	0.0160062
776.890	0.0160646
776.968	0.0160217
777.046	0.0159798
777.124	0.0158989
777.203	0.0159384
777.281	0.0159357
777.359	0.0159711
777.437	0.0159744
777.515	0.0159587
777.593	0.0160482
777.671	0.0160727
777.749	0.0161790
777.828	0.0162412
777.906	0.0162696
777.984	0.0162496
778.062	0.0162413
778.140	0.0162276
778.218	0.0162806
778.296	0.0163105
778.374	0.0163012
778.453	0.0163649
778.531	0.0164722
778.609	0.0163543
778.687	0.0164196
778.765	0.0163864
778.843	0.0163653
778.921	0.0163261
778.999	0.0163575
779.078	0.0163997
779.156	0.0164263
779.234	0.0164079
779.312	0.0162727
779.390	0.0163297
779.468	0.0162169
779.546	0.0162314
779.624	0.0162170
779.703	0.0160966
779.781	0.0161301
779.859	0.0161144
779.937	0.0160110
780.015	0.0160149
780.093	0.0159064
780.171	0.0158710
780.249	0.0159805
780.328	0.0158901
780.406	0.0159768
780.484	0.0158974
780.562	0.0157812
780.640	0.0158711
780.718	0.0158189
780.796	0.0157661
780.874	0.0159304
780.953	0.0158784
781.031	0.0159256
781.109	0.0159738
781.187	0.0159130
781.265	0.0160744
781.343	0.0159978
781.421	0.0160903
781.499	0.0161108
781.578	0.0161832
781.656	0.0162257
781.734	0.0162451
781.812	0.0162272
781.890	0.0162708
781.968	0.0163049
782.046	0.0162425
782.124	0.0162377
782.203	0.0163239
782.281	0.0162543
782.359	0.0162698
782.437	0.0162647
782.515	0.0159918
782.593	0.0160404
782.671	0.0161456
782.749	0.0161906
782.828	0.0160609
782.906	0.0160626
782.984	0.0162725
783.062	0.0161743
783.140	0.0160885
783.218	0.0161801
783.296	0.0163352
783.374	0.0163015
783.453	0.0162389
783.531	0.0162737
783.609	0.0163515
783.687	0.0163862
783.765	0.0164221
783.843	0.0163964
783.921	0.0163847
783.999	0.0165208
784.078	0.0165839
784.156	0.0163366
784.234	0.0164683
784.312	0.0165459
784.390	0.0164426
784.468	0.0164550
784.546	0.0163218
784.624	0.0164371
784.703	0.0163868
784.781	0.0163777
784.859	0.0161396
784.937	0.0161565
785.015	0.0161067
785.093	0.0161066
785.171	0.0160612
785.249	0.0160915
785.328	0.0157958
785.406	0.0157581
785.484	0.0159106
785.562	0.0158155
785.640	0.0157424
785.718	0.0156789
785.796	0.0157081
785.874	0.0157173
785.953	0.0157632
786.031	0.0157651
786.109	0.0158015
786.187	0.0159065
786.265	0.0158250
786.343	0.0157229
786.421	0.0158957
786.499	0.0157759
786.578	0.0159664
786.656	0.0160688
786.734	0.0160816
786.812	0.0161011
786.890	0.0161771
786.968	0.0161064
787.046	0.0160976
787.124	0.0162836
787.203	0.0163161
787.281	0.0162828
787.359	0.0164108
787.437	0.0163023
787.515	0.0165205
787.593	0.0164490
787.671	0.0164999
787.749	0.0165765
787.828	0.0165324
787.906	0.0164725
787.984	0.0166267
788.062	0.0166970
788.140	0.0166117
788.218	0.0164034
788.296	0.0164094
788.374	0.0164759
788.453	0.0163541
788.531	0.0165156
788.609	0.0163985
788.687	0.0163091
788.765	0.0161834
788.843	0.0160314
788.921	0.0160275
788.999	0.0157951
789.078	0.0159109
789.156	0.0157512
789.234	0.0157445
789.312	0.0157032
789.390	0.0157671
789.468	0.0155280
789.546	0.0156641
789.624	0.0156572
789.703	0.0157219
789.781	0.0156875
789.859	0.0156863
789.937	0.0155865
790.015	0.0157822
790.093	0.0157661
790.171	0.0158496
790.249	0.0157611
790.328	0.0158753
790.406	0.0158101
790.484	0.0159225
790.562	0.0159010
790.640	0.0158626
790.718	0.0158986
790.796	0.0159371
790.874	0.0159532
790.953	0.0160613
791.031	0.0161861
791.109	0.0160905
791.187	0.0161640
791.265	0.0162598
791.343	0.0161797
791.421	0.0162743
791.499	0.0161733
791.578	0.0162191
791.656	0.0163692
791.734	0.0162897
791.812	0.0162341
791.890	0.0164536
791.968	0.0163175
792.046	0.0164366
792.124	0.0163771
792.203	0.0163475
792.281	0.0164119
792.359	0.0164128
792.437	0.0163863
792.515	0.0162582
792.593	0.0162514
792.671	0.0163793
792.749	0.0163403
792.828	0.0163879
792.906	0.0162013
792.984	0.0162624
793.062	0.0160613
793.140	0.0161326
793.218	0.0161496
793.296	0.0160432
793.374	0.0158552
793.453	0.0159222
793.531	0.0159012
793.609	0.0158356
793.687	0.0158539
793.765	0.0159513
793.843	0.0158002
793.921	0.0157401
793.999	0.0156743
794.078	0.0158028
794.156	0.0158717
794.234	0.0157472
794.312	0.0157755
794.390	0.0156065
794.468	0.0157364
794.546	0.0158150
794.624	0.0160209
794.703	0.0159122
794.781	0.0159768
794.859	0.0160719
794.937	0.0161248
795.015	0.0160376
795.093	0.0162026
795.171	0.0162181
795.249	0.0162888
795.328	0.0161901
795.406	0.0164468
795.484	0.0163358
795.562	0.0164526
795.640	0.0164797
795.718	0.0163765
795.796	0.0162899
795.874	0.0162601
795.953	0.0163029
796.031	0.0162773
796.109	0.0163081
796.187	0.0163744
796.265	0.0163317
796.343	0.0163778
796.421	0.0163732
796.499	0.0164660
796.578	0.0164594
796.656	0.0164643
796.734	0.0163653
796.812	0.0162653
796.890	0.0162561
796.968	0.0164204
797.046	0.0162260
797.124	0.0161417
797.203	0.0161511
797.281	0.0160585
797.359	0.0161272
797.437	0.0160554
797.515	0.0161143
797.593	0.0159454
797.671	0.0158962
797.749	0.0160228
797.828	0.0158102
797.906	0.0159368
797.984	0.0160921
798.062	0.0159370
798.140	0.0157425
798.218	0.0159270
798.296	0.0159711
798.374	0.0158020
798.453	0.0158693
798.531	0.0159696
798.609	0.0157626
798.687	0.0159274
798.765	0.0159469
798.843	0.0158572
798.921	0.0159705
798.999	0.0160924
799.078	0.0160036
799.156	0.0158677
799.234	0.0159752
799.312	0.0160020
799.390	0.0160101
799.468	0.0160725
799.546	0.0160653
799.624	0.0161368
799.703	0.0163415
799.781	0.0162981
799.859	0.0162316
799.937	0.0162563
800.015	0.0164380
800.093	0.0165277
800.171	0.0165079
800.249	0.0164915
800.328	0.0164584
800.406	0.0165332
800.484	0.0164961
800.562	0.0164648
800.640	0.0164753
800.718	0.0165150
800.796	0.0163618
800.874	0.0166199
800.953	0.0164902
801.031	0.0165344
801.109	0.0165318
801.187	0.0165419
801.265	0.0164820
801.343	0.0164460
801.421	0.0163783
801.499	0.0162743
801.578	0.0162026
801.656	0.0160711
801.734	0.0161827
801.812	0.0161215
801.890	0.0158920
801.968	0.0158334
802.046	0.0158687
802.124	0.0159082
802.203	0.0157613
802.281	0.0158177
802.359	0.0159020
802.437	0.0158442
802.515	0.0156837
802.593	0.0156171
802.671	0.0158384
802.749	0.0158136
802.828	0.0160139
802.906	0.0159810
802.984	0.0159174
803.062	0.0161137
803.140	0.0160303
803.218	0.0161683
803.296	0.0160693
803.374	0.0161594
803.453	0.0162044
803.531	0.0163309
803.609	0.0163654
803.687	0.0163468
803.765	0.0163355
803.843	0.0163817
803.921	0.0164564
803.999	0.0163966
804.078	0.0163805
804.156	0.0164824
804.234	0.0163334
804.312	0.0161875
804.390	0.0162690
804.468	0.0161602
804.546	0.0161308
804.624	0.0160973
804.703	0.0160905
804.781	0.0161247
804.859	0.0160527
804.937	0.0163046
805.015	0.0163152
805.093	0.0162630
805.171	0.0161007
805.249	0.0162901
805.328	0.0162936
805.406	0.0162550
805.484	0.0162231
805.562	0.0163327
805.640	0.0161770
805.718	0.0163302
805.796	0.0162029
805.874	0.0162489
805.953	0.0161291
806.031	0.0161327
806.109	0.0161684
806.187	0.0161842
806.265	0.0161034
806.343	0.0160933
806.421	0.0160500
806.499	0.0161008
806.578	0.0160543
806.656	0.0160355
806.734	0.0159589
806.812	0.0158882
806.890	0.0159373
806.968	0.0157504
807.046	0.0158063
807.124	0.0157886
807.203	0.0158794
807.281	0.0158076
807.359	0.0159241
807.437	0.0157172
807.515	0.0158057
807.593	0.0156558
807.671	0.0158160
807.749	0.0159721
807.828	0.0158881
807.906	0.0159215
807.984	0.0159990
808.062	0.0161349
808.140	0.0160874
808.218	0.0161375
808.296	0.0163407
808.374	0.0164262
808.453	0.0162528
808.531	0.0165200
808.609	0.0163984
808.687	0.0163979
808.765	0.0165880
808.843	0.0165775
808.921	0.0164719
808.999	0.0165124
809.078	0.0164462
809.156	0.0164381
809.234	0.0163375
809.312	0.0163572
809.390	0.0164314
809.468	0.0162824
809.546	0.0161167
809.624	0.0162732
809.703	0.0161742
809.781	0.0159258
809.859	0.0159367
809.937	0.0159492
810.015	0.0158521
810.093	0.0157658
810.171	0.0158229
810.249	0.0159343
810.328	0.0158018
810.406	0.0156087
810.484	0.0156689
810.562	0.0156616
810.640	0.0156812
810.718	0.0156208
810.796	0.0157655
810.874	0.0157366
810.953	0.0157750
811.031	0.0159089
811.109	0.0158764
811.187	0.0158864
811.265	0.0160163
811.343	0.0159951
811.421	0.0160342
811.499	0.0162376
811.578	0.0161005
811.656	0.0161872
811.734	0.0162398
811.812	0.0163214
811.890	0.0163237
811.968	0.0163538
812.046	0.0163198
812.124	0.0166367
812.203	0.0164519
812.281	0.0164046
812.359	0.0163319
812.437	0.0162307
812.515	0.0164475
812.593	0.0164809
812.671	0.0163120
812.749	0.0162599
812.828	0.0164640
812.906	0.0162823
812.984	0.0160574
813.062	0.0162777
813.140	0.0161845
813.218	0.0161102
813.296	0.0161024
813.374	0.0160552
813.453	0.0160915
813.531	0.0160889
813.609	0.0160812
813.687	0.0161277
813.765	0.0160373
813.843	0.0160194
813.921	0.0160934
813.999	0.0161017
814.078	0.0160714
814.156	0.0160291
814.234	0.0160567
814.312	0.0159589
814.390	0.0161080
814.468	0.0161137
814.546	0.0161838
814.624	0.0161233
814.703	0.0160496
814.781	0.0160131
814.859	0.0159863
814.937	0.0159583
815.015	0.0159304
815.093	0.0159867
815.171	0.0158504
815.249	0.0159520
815.328	0.0159503
815.406	0.0160867
815.484	0.0161536
815.562	0.0159890
815.640	0.0161134
815.718	0.0161803
815.796	0.0160387
815.874	0.0162076
815.953	0.0162208
816.031	0.0163786
816.109	0.0162251
816.187	0.0161497
816.265	0.0161951
816.343	0.0162253
816.421	0.0162143
816.499	0.0159948
816.578	0.0161592
816.656	0.0161721
816.734	0.0161367
816.812	0.0161002
816.890	0.0161787
816.968	0.0161649
817.046	0.0163143
817.124	0.0161806
817.203	0.0162070
817.281	0.0163239
817.359	0.0161576
817.437	0.0161597
817.515	0.0162684
817.593	0.0161092
817.671	0.0160825
817.749	0.0161398
817.828	0.0161265
817.906	0.0161391
817.984	0.0161288
818.062	0.0161576
818.140	0.0161493
818.218	0.0161031
818.296	0.0162232
818.374	0.0161626
818.453	0.0162581
818.531	0.0162717
818.609	0.0161501
818.687	0.0162146
818.765	0.0161889
818.843	0.0161367
818.921	0.0162717
818.999	0.0161147
819.078	0.0160012
819.156	0.0160386
819.234	0.0160545
819.312	0.0159875
819.390	0.0159978
819.468	0.0158983
819.546	0.0159054
819.624	0.0158061
819.703	0.0159706
819.781	0.0158698
819.859	0.0160035
819.937	0.0158987
820.015	0.0160018
820.093	0.0161018
820.171	0.0160938
820.249	0.0160558
820.328	0.0162727
820.406	0.0162338
820.484	0.0163278
820.562	0.0164896
820.640	0.0163755
820.718	0.0163416
820.796	0.0164713
820.874	0.0165748
820.953	0.0164474
821.031	0.0163611
821.109	0.0162176
821.187	0.0162942
821.265	0.0163823
821.343	0.0161929
821.421	0.0162978
821.499	0.0163092
821.578	0.0162507
821.656	0.0163015
821.734	0.0162914
821.812	0.0163334
821.890	0.0163548
821.968	0.0162075
822.046	0.0161570
822.124	0.0160651
822.203	0.0160309
822.281	0.0160618
822.359	0.0160420
822.437	0.0159892
822.515	0.0159959
822.593	0.0159589
822.671	0.0157165
822.749	0.0157724
822.828	0.0158158
822.906	0.0158965
822.984	0.0158319
823.062	0.0159731
823.140	0.0158194
823.218	0.0159566
823.296	0.0158584
823.374	0.0160009
823.453	0.0159400
823.531	0.0160096
823.609	0.0162410
823.687	0.0162681
823.765	0.0162296
823.843	0.0162613
823.921	0.0163402
823.999	0.0162769
824.078	0.0163458
824.156	0.0164522
824.234	0.0163043
824.312	0.0163267
824.390	0.0163539
824.468	0.0163992
824.546	0.0164466
824.624	0.0163864
824.703	0.0163913
824.781	0.0163823
824.859	0.0164572
824.937	0.0163287
825.015	0.0164969
825.093	0.0164303
825.171	0.0165363
825.249	0.0162660
825.328	0.0163177
825.406	0.0161880
825.484	0.0161140
825.562	0.0160313
825.640	0.0159074
825.718	0.0158419
825.796	0.0157955
825.874	0.0156538
825.953	0.0156393
826.031	0.0156049
826.109	0.0156389
826.187	0.0154932
826.265	0.0155533
826.343	0.0155585
826.421	0.0155662
826.499	0.0156101
826.578	0.0158073
826.656	0.0157356
826.734	0.0158640
826.812	0.0159437
826.890	0.0160254
826.968	0.0159612
827.046	0.0160739
827.124	0.0163513
827.203	0.0163760
827.281	0.0165899
827.359	0.0165468
827.437	0.0167138
827.515	0.0167131
827.593	0.0167722
827.671	0.0167750
827.749	0.0168542
827.828	0.0168723
827.906	0.0168003
827.984	0.0166913
828.062	0.0168031
828.140	0.0166533
828.218	0.0165535
828.296	0.0165528
828.374	0.0163944
828.453	0.0163361
828.531	0.0160551
828.609	0.0160976
828.687	0.0160045
828.765	0.0159001
828.843	0.0158350
828.921	0.0156899
828.999	0.0157070
829.078	0.0155437
829.156	0.0155433
829.234	0.0155076
829.312	0.0156197
829.390	0.0157230
829.468	0.0156657
829.546	0.0156785
829.624	0.0155690
829.703	0.0155741
829.781	0.0157544
829.859	0.0159138
829.937	0.0158823
830.015	0.0158671
830.093	0.0161533
830.171	0.0160407
830.249	0.0161830
830.328	0.0162916
830.406	0.0163090
830.484	0.0163853
830.562	0.0163650
830.640	0.0163390
830.718	0.0164686
830.796	0.0163829
830.874	0.0164365
830.953	0.0164504
831.031	0.0164619
831.109	0.0163609
831.187	0.0163815
831.265	0.0162713
831.343	0.0162289
831.421	0.0162252
831.499	0.0162040
831.578	0.0161063
831.656	0.0161388
831.734	0.0161397
831.812	0.0160494
831.890	0.0160480
831.968	0.0161961
832.046	0.0161105
832.124	0.0161755
832.203	0.0162418
832.281	0.0161545
832.359	0.0160227
832.437	0.0161311
832.515	0.0160109
832.593	0.0159001
832.671	0.0160459
832.749	0.0160690
832.828	0.0159921
832.906	0.0158976
832.984	0.0159386
833.062	0.0158876
833.140	0.0157664
833.218	0.0158092
833.296	0.0159643
833.374	0.0156584
833.453	0.0158598
833.531	0.0158789
833.609	0.0157599
833.687	0.0157716
833.765	0.0158237
833.843	0.0158304
833.921	0.0159094
833.999	0.0161245
834.078	0.0159502
834.156	0.0159470
834.234	0.0161262
834.312	0.0162525
834.390	0.0160571
834.468	0.0160884
834.546	0.0162710
834.624	0.0163391
834.703	0.0163096
834.781	0.0164610
834.859	0.0165266
834.937	0.0165082
835.015	0.0163438
835.093	0.0163602
835.171	0.0163994
835.249	0.0162151
835.328	0.0163194
835.406	0.0163857
835.484	0.0163276
835.562	0.0162647
835.640	0.0162482
835.718	0.0162942
835.796	0.0160174
835.874	0.0161857
835.953	0.0160437
836.031	0.0160443
836.109	0.0159997
836.187	0.0160345
836.265	0.0160103
836.343	0.0159669
836.421	0.0161771
836.499	0.0162028
836.578	0.0160918
836.656	0.0162064
836.734	0.0162279
836.812	0.0161898
836.890	0.0160924
836.968	0.0162160
837.046	0.0162266
837.124	0.0163046
837.203	0.0163708
837.281	0.0163677
837.359	0.0163416
837.437	0.0162556
837.515	0.0162926
837.593	0.0164829
837.671	0.0164371
837.749	0.0163195
837.828	0.0163420
837.906	0.0164358
837.984	0.0163914
838.062	0.0162653
838.140	0.0161842
838.218	0.0162338
838.296	0.0161889
838.374	0.0162579
838.453	0.0161862
838.531	0.0161115
838.609	0.0161018
838.687	0.0162377
838.765	0.0161494
838.843	0.0160795
838.921	0.0162206
838.999	0.0162393
839.078	0.0160725
839.156	0.0159661
839.234	0.0160936
839.312	0.0162254
839.390	0.0160739
839.468	0.0159584
839.546	0.0159145
839.624	0.0159696
839.703	0.0159975
839.781	0.0159623
839.859	0.0160458
839.937	0.0162089
840.015	0.0160445
840.093	0.0159283
840.171	0.0160184
840.249	0.0163299
840.328	0.0162181
840.406	0.0163053
840.484	0.0162344
840.562	0.0162907
840.640	0.0163055
840.718	0.0162943
840.796	0.0164957
840.874	0.0164932
840.953	0.0163880
841.031	0.0165157
841.109	0.0162810
841.187	0.0164584
841.265	0.0164259
841.343	0.0164950
841.421	0.0162914
841.499	0.0163793
841.578	0.0163503
841.656	0.0163142
841.734	0.0163155
841.812	0.0163812
841.890	0.0162711
841.968	0.0163314
842.046	0.0161599
842.124	0.0160612
842.203	0.0162979
842.281	0.0162663
842.359	0.0161741
842.437	0.0162364
842.515	0.0160676
842.593	0.0160565
842.671	0.0160548
842.749	0.0161258
842.828	0.0161157
842.906	0.0159495
842.984	0.0158704
843.062	0.0159180
843.140	0.0159760
843.218	0.0159297
843.296	0.0158182
843.374	0.0159538
843.453	0.0158085
843.531	0.0157414
843.609	0.0157862
843.687	0.0158645
843.765	0.0158517
843.843	0.0158091
843.921	0.0158182
843.999	0.0159846
844.078	0.0160166
844.156	0.0158031
844.234	0.0160287
844.312	0.0160348
844.390	0.0160533
844.468	0.0162399
844.546	0.0161480
844.624	0.0161847
844.703	0.0160377
844.781	0.0163236
844.859	0.0162391
844.937	0.0163299
845.015	0.0163512
845.093	0.0162305
845.171	0.0163905
845.249	0.0164006
845.328	0.0164343
845.406	0.0164721
845.484	0.0163731
845.562	0.0162881
845.640	0.0164268
845.718	0.0164206
845.796	0.0163235
845.874	0.0162602
845.953	0.0161197
846.031	0.0161273
846.109	0.0162297
846.187	0.0161092
846.265	0.0162062
846.343	0.0160929
846.421	0.0160599
846.499	0.0160348
846.578	0.0160193
846.656	0.0158853
846.734	0.0158258
846.812	0.0159233
846.890	0.0158202
846.968	0.0158247
847.046	0.0156344
847.124	0.0157542
847.203	0.0157570
847.281	0.0157159
847.359	0.0157829
847.437	0.0158540
847.515	0.0157621
847.593	0.0157688
847.671	0.0159048
847.749	0.0159972
847.828	0.0159421
847.906	0.0160680
847.984	0.0162746
848.062	0.0162400
848.140	0.0163059
848.218	0.0162466
848.296	0.0162847
848.374	0.0164761
848.453	0.0164097
848.531	0.0164470
848.609	0.0164833
848.687	0.0165497
848.765	0.0164093
848.843	0.0165398
848.921	0.0162307
848.999	0.0163161
849.078	0.0163232
849.156	0.0162549
849.234	0.0164427
849.312	0.0162276
849.390	0.0162439
849.468	0.0161851
849.546	0.0161745
849.624	0.0162113
849.703	0.0161466
849.781	0.0161636
849.859	0.0162792
849.937	0.0161852
850.015	0.0161131
850.093	0.0162486
850.171	0.0162466
850.249	0.0162212
850.328	0.0160465
850.406	0.0161517
850.484	0.0161491
850.562	0.0161476
850.640	0.0161218
850.718	0.0160551
850.796	0.0160328
850.874	0.0159923
850.953	0.0161509
851.031	0.0159557
851.109	0.0161345
851.187	0.0161588
851.265	0.0161239
851.343	0.0160546
851.421	0.0161960
851.499	0.0162742
851.578	0.0162447
851.656	0.0162484
851.734	0.0160831
851.812	0.0162314
851.890	0.0163049
851.968	0.0162955
852.046	0.0162176
852.124	0.0163438
852.203	0.0162468
852.281	0.0163950
852.359	0.0162545
852.437	0.0162315
852.515	0.0162910
852.593	0.0163073
852.671	0.0162807
852.749	0.0162883
852.828	0.0162009
852.906	0.0163456
852.984	0.0163194
853.062	0.0164002
853.140	0.0163715
853.218	0.0163977
853.296	0.0162888
853.374	0.0165281
853.453	0.0163868
853.531	0.0164661
853.609	0.0163379
853.687	0.0163987
853.765	0.0164632
853.843	0.0164196
853.921	0.0163320
853.999	0.0163484
854.078	0.0163507
854.156	0.0162822
854.234	0.0163601
854.312	0.0162215
854.390	0.0163308
854.468	0.0163632
854.546	0.0160561
854.624	0.0162450
854.703	0.0162427
854.781	0.0160973
854.859	0.0162238
854.937	0.0162419
855.015	0.0163013
855.093	0.0161579
855.171	0.0162140
855.249	0.0161737
855.328	0.0161687
855.406	0.0162460
855.484	0.0162383
855.562	0.0160955
855.640	0.0160969
855.718	0.0162516
855.796	0.0161102
855.874	0.0163174
855.953	0.0162176
856.031	0.0161107
856.109	0.0161027
856.187	0.0160578
856.265	0.0160144
856.343	0.0161217
856.421	0.0161003
856.499	0.0159814
856.578	0.0160072
856.656	0.0159500
856.734	0.0159776
856.812	0.0159193
856.890	0.0158408
856.968	0.0158392
857.046	0.0159651
857.124	0.0159497
857.203	0.0159320
857.281	0.0160085
857.359	0.0160375
857.437	0.0161781
857.515	0.0161084
857.593	0.0159952
857.671	0.0160546
857.749	0.0162045
857.828	0.0161739
857.906	0.0161410
857.984	0.0162995
858.062	0.0163417
858.140	0.0162461
858.218	0.0161993
858.296	0.0163754
858.374	0.0163986
858.453	0.0165442
858.531	0.0164699
858.609	0.0163451
858.687	0.0163236
858.765	0.0164071
858.843	0.0164252
858.921	0.0164346
858.999	0.0164529
859.078	0.0162580
859.156	0.0164351
859.234	0.0162109
859.312	0.0162302
859.390	0.0161127
859.468	0.0161732
859.546	0.0161749
859.624	0.0163619
859.703	0.0161643
859.781	0.0160936
859.859	0.0161468
859.937	0.0160907
860.015	0.0160667
860.093	0.0160841
860.171	0.0159949
860.249	0.0159687
860.328	0.0160263
860.406	0.0158463
860.484	0.0161235
860.562	0.0158330
860.640	0.0159055
860.718	0.0159847
860.796	0.0157940
860.874	0.0158665
860.953	0.0159102
861.031	0.0159292
861.109	0.0159978
861.187	0.0160362
861.265	0.0160683
861.343	0.0160558
861.421	0.0160997
861.499	0.0162267
861.578	0.0161250
861.656	0.0161842
861.734	0.0162009
861.812	0.0162768
861.890	0.0162469
861.968	0.0162431
862.046	0.0162085
862.124	0.0162972
862.203	0.0162734
862.281	0.0162275
862.359	0.0163027
862.437	0.0161392
862.515	0.0161637
862.593	0.0162225
862.671	0.0162643
862.749	0.0160904
862.828	0.0161006
862.906	0.0162920
862.984	0.0161362
863.062	0.0161079
863.140	0.0162755
863.218	0.0162142
863.296	0.0161872
863.374	0.0161828
863.453	0.0160715
863.531	0.0161031
863.609	0.0160817
863.687	0.0161186
863.765	0.0160291
863.843	0.0159949
863.921	0.0160222
863.999	0.0160942
864.078	0.0159521
864.156	0.0160111
864.234	0.0159503
864.312	0.0160320
864.390	0.0160481
864.468	0.0159178
864.546	0.0159579
864.624	0.0160636
864.703	0.0159593
864.781	0.0159523
864.859	0.0161073
864.937	0.0159660
865.015	0.0158585
865.093	0.0160503
865.171	0.0159100
865.249	0.0158076
865.328	0.0159433
865.406	0.0159290
865.484	0.0158710
865.562	0.0160090
865.640	0.0159232
865.718	0.0159550
865.796	0.0159118
865.874	0.0159700
865.953	0.0160672
866.031	0.0159486
866.109	0.0159272
866.187	0.0160059
866.265	0.0160948
866.343	0.0161354
866.421	0.0160787
866.499	0.0162151
866.578	0.0162626
866.656	0.0162400
866.734	0.0162226
866.812	0.0162489
866.890	0.0162366
866.968	0.0162181
867.046	0.0161993
867.124	0.0162367
867.203	0.0163010
867.281	0.0162453
867.359	0.0161485
867.437	0.0162595
867.515	0.0162331
867.593	0.0162778
867.671	0.0161859
867.749	0.0161838
867.828	0.0160873
867.906	0.0161037
867.984	0.0162172
868.062	0.0160764
868.140	0.0160658
868.218	0.0160339
868.296	0.0158669
868.374	0.0158781
868.453	0.0159690
868.531	0.0160114
868.609	0.0159526
868.687	0.0158760
868.765	0.0159830
868.843	0.0158491
868.921	0.0160365
868.999	0.0160417
869.078	0.0159519
869.156	0.0161676
869.234	0.0161569
869.312	0.0160247
869.390	0.0160271
869.468	0.0161598
869.546	0.0161942
869.624	0.0160951
869.703	0.0162707
869.781	0.0161742
869.859	0.0161749
869.937	0.0162398
870.015	0.0161218
870.093	0.0163408
870.171	0.0162709
870.249	0.0162827
870.328	0.0161726
870.406	0.0161974
870.484	0.0161615
870.562	0.0162703
870.640	0.0161484
870.718	0.0162033
870.796	0.0162228
870.874	0.0161053
870.953	0.0161864
871.031	0.0163088
871.109	0.0161710
871.187	0.0160474
871.265	0.0160915
871.343	0.0161570
871.421	0.0160923
871.499	0.0161878
871.578	0.0160684
871.656	0.0160495
871.734	0.0159879
871.812	0.0161676
871.890	0.0162508
871.968	0.0160107
872.046	0.0161441
872.124	0.0161918
872.203	0.0160556
872.281	0.0159859
872.359	0.0161457
872.437	0.0160157
872.515	0.0161094
872.593	0.0161250
872.671	0.0161183
872.749	0.0160869
872.828	0.0161673
872.906	0.0160938
872.984	0.0161098
873.062	0.0159903
873.140	0.0161996
873.218	0.0160676
873.296	0.0160223
873.374	0.0161531
873.453	0.0161214
873.531	0.0160541
873.609	0.0160779
873.687	0.0162083
873.765	0.0161233
873.843	0.0161743
873.921	0.0163316
873.999	0.0161811
874.078	0.0163709
874.156	0.0162790
874.234	0.0163882
874.312	0.0162909
874.390	0.0162434
874.468	0.0163284
874.546	0.0164178
874.624	0.0162823
874.703	0.0162263
874.781	0.0162371
874.859	0.0161968
874.937	0.0162862
875.015	0.0162183
875.093	0.0162372
875.171	0.0161868
875.249	0.0163850
875.328	0.0163522
875.406	0.0163510
875.484	0.0163601
875.562	0.0164427
875.640	0.0163513
875.718	0.0162883
875.796	0.0162464
875.874	0.0162944
875.953	0.0163959
876.031	0.0163358
876.109	0.0163388
876.187	0.0164336
876.265	0.0163120
876.343	0.0162899
876.421	0.0161455
876.499	0.0161739
876.578	0.0160712
876.656	0.0162148
876.734	0.0161996
876.812	0.0159018
876.890	0.0160642
876.968	0.0161061
877.046	0.0161314
877.124	0.0161094
877.203	0.0162590
877.281	0.0161363
877.359	0.0162254
877.437	0.0162753
877.515	0.0163506
877.593	0.0163240
877.671	0.0164024
877.749	0.0163275
877.828	0.0164513
877.906	0.0163478
877.984	0.0163941
878.062	0.0163432
878.140	0.0164873
878.218	0.0163405
878.296	0.0163699
878.374	0.0163234
878.453	0.0161641
878.531	0.0161806
878.609	0.0162369
878.687	0.0161313
878.765	0.0161133
878.843	0.0162665
878.921	0.0161676
878.999	0.0163031
879.078	0.0160677
879.156	0.0161456
879.234	0.0161904
879.312	0.0161360
879.390	0.0159844
879.468	0.0161727
879.546	0.0161980
879.624	0.0161917
879.703	0.0161417
879.781	0.0161140
879.859	0.0160291
879.937	0.0162267
880.015	0.0161359
880.093	0.0161684
880.171	0.0161640
880.249	0.0161256
880.328	0.0162635
880.406	0.0161600
880.484	0.0160996
880.562	0.0162008
880.640	0.0162065
880.718	0.0162867
880.796	0.0161806
880.874	0.0162207
880.953	0.0161710
881.031	0.0161276
881.109	0.0160630
881.187	0.0161285
881.265	0.0162110
881.343	0.0161781
881.421	0.0161616
881.499	0.0160741
881.578	0.0161360
881.656	0.0161098
881.734	0.0162279
881.812	0.0161687
881.890	0.0160732
881.968	0.0161071
882.046	0.0161145
882.124	0.0161324
882.203	0.0160696
882.281	0.0162011
882.359	0.0160538
882.437	0.0160289
882.515	0.0160380
882.593	0.0160381
882.671	0.0160490
882.749	0.0159394
882.828	0.0161435
882.906	0.0160430
882.984	0.0159227
883.062	0.0161678
883.140	0.0160800
883.218	0.0160468
883.296	0.0160201
883.374	0.0162068
883.453	0.0160847
883.531	0.0160912
883.609	0.0161111
883.687	0.0160077
883.765	0.0162207
883.843	0.0162155
883.921	0.0161298
883.999	0.0161646
884.078	0.0160834
884.156	0.0161608
884.234	0.0162549
884.312	0.0162692
884.390	0.0161825
884.468	0.0161823
884.546	0.0162756
884.624	0.0162886
884.703	0.0162513
884.781	0.0163311
884.859	0.0162411
884.937	0.0161363
885.015	0.0162528
885.093	0.0160042
885.171	0.0163431
885.249	0.0163408
885.328	0.0161532
885.406	0.0161745
885.484	0.0164146
885.562	0.0162605
885.640	0.0161745
885.718	0.0162193
885.796	0.0162962
885.874	0.0162664
885.953	0.0162126
886.031	0.0162423
886.109	0.0162382
886.187	0.0161045
886.265	0.0161965
886.343	0.0162594
886.421	0.0161064
886.499	0.0160458
886.578	0.0161874
886.656	0.0160936
886.734	0.0161384
886.812	0.0162724
886.890	0.0160754
886.968	0.0161991
887.046	0.0159222
887.124	0.0159184
887.203	0.0160808
887.281	0.0160744
887.359	0.0159830
887.437	0.0160361
887.515	0.0160700
887.593	0.0160815
887.671	0.0161400
887.749	0.0160819
887.828	0.0162116
887.906	0.0160130
887.984	0.0162376
888.062	0.0161433
888.140	0.0161292
888.218	0.0160830
888.296	0.0162310
888.374	0.0162559
888.453	0.0160832
888.531	0.0161156
888.609	0.0160418
888.687	0.0161256
888.765	0.0160580
888.843	0.0161723
888.921	0.0160815
888.999	0.0160582
889.078	0.0161388
889.156	0.0160494
889.234	0.0161626
889.312	0.0161179
889.390	0.0161977
889.468	0.0162374
889.546	0.0160879
889.624	0.0161662
889.703	0.0160236
889.781	0.0161161
889.859	0.0161615
889.937	0.0160294
890.015	0.0159512
890.093	0.0160493
890.171	0.0159332
890.249	0.0159807
890.328	0.0160101
890.406	0.0159856
890.484	0.0161264
890.562	0.0161094
890.640	0.0160618
890.718	0.0160191
890.796	0.0160946
890.874	0.0159536
890.953	0.0159329
891.031	0.0161032
891.109	0.0161342
891.187	0.0160861
891.265	0.0160450
891.343	0.0161629
891.421	0.0161416
891.499	0.0159792
891.578	0.0160406
891.656	0.0160757
891.734	0.0160201
891.812	0.0160137
891.890	0.0159766
891.968	0.0160609
892.046	0.0160709
892.124	0.0160748
892.203	0.0160228
892.281	0.0160128
892.359	0.0159979
892.437	0.0159032
892.515	0.0159686
892.593	0.0160138
892.671	0.0160056
892.749	0.0159092
892.828	0.0160233
892.906	0.0160566
892.984	0.0160159
893.062	0.0161112
893.140	0.0160345
893.218	0.0161259
893.296	0.0161155
893.374	0.0161874
893.453	0.0161361
893.531	0.0159933
893.609	0.0159486
893.687	0.0161283
893.765	0.0161800
893.843	0.0159768
893.921	0.0160886
893.999	0.0160992
894.078	0.0162074
894.156	0.0160387
894.234	0.0161971
894.312	0.0160933
894.390	0.0160994
894.468	0.0161099
894.546	0.0160838
894.624	0.0161915
894.703	0.0161494
894.781	0.0162205
894.859	0.0162684
894.937	0.0162792
895.015	0.0161514
895.093	0.0161275
895.171	0.0160956
895.249	0.0161237
895.328	0.0161634
895.406	0.0161572
895.484	0.0160299
895.562	0.0159589
895.640	0.0161882
895.718	0.0160622
895.796	0.0161846
895.874	0.0161224
895.953	0.0161627
896.031	0.0161071
896.109	0.0161853
896.187	0.0160922
896.265	0.0159785
896.343	0.0161157
896.421	0.0162163
896.499	0.0161725
896.578	0.0160706
896.656	0.0160410
896.734	0.0161269
896.812	0.0161759
896.890	0.0161535
896.968	0.0161494
897.046	0.0160032
897.124	0.0160191
897.203	0.0161440
897.281	0.0161996
897.359	0.0162101
897.437	0.0161510
897.515	0.0162114
897.593	0.0160719
897.671	0.0160926
897.749	0.0161893
897.828	0.0160165
897.906	0.0161185
897.984	0.0161951
898.062	0.0160842
898.140	0.0161367
898.218	0.0161626
898.296	0.0160523
898.374	0.0161021
898.453	0.0161030
898.531	0.0162220
898.609	0.0161397
898.687	0.0160751
898.765	0.0161325
898.843	0.0159475
898.921	0.0160396
898.999	0.0161123
899.078	0.0160276
899.156	0.0159503
899.234	0.0160885
899.312	0.0161143
899.390	0.0160695
899.468	0.0161652
899.546	0.0161052
899.624	0.0161436
899.703	0.0161112
899.781	0.0162193
899.859	0.0161203
899.937	0.0162630
900.015	0.0159995
900.093	0.0160720
900.171	0.0162149
900.249	0.0162975
900.328	0.0161402
900.406	0.0161626
900.484	0.0161718
900.562	0.0162477
900.640	0.0162315
900.718	0.0162997
900.796	0.0161975
900.874	0.0162373
900.953	0.0161944
901.031	0.0161636
901.109	0.0161687
901.187	0.0162070
901.265	0.0162851
901.343	0.0161794
901.421	0.0160938
901.499	0.0161432
901.578	0.0161564
901.656	0.0160587
901.734	0.0161011
901.812	0.0161941
901.890	0.0162584
901.968	0.0160613
902.046	0.0161890
902.124	0.0161768
902.203	0.0160804
902.281	0.0161846
902.359	0.0161008
902.437	0.0161408
902.515	0.0161187
902.593	0.0160436
902.671	0.0162027
902.749	0.0162744
902.828	0.0162470
902.906	0.0161542
902.984	0.0162174
903.062	0.0161880
903.140	0.0163016
903.218	0.0160561
903.296	0.0161565
903.374	0.0162177
903.453	0.0162145
903.531	0.0160976
903.609	0.0160354
903.687	0.0160699
903.765	0.0160960
903.843	0.0160703
903.921	0.0159625
903.999	0.0159565
904.078	0.0161116
904.156	0.0160439
904.234	0.0161139
904.312	0.0162487
904.390	0.0163014
904.468	0.0161754
904.546	0.0161835
904.624	0.0161680
904.703	0.0162428
904.781	0.0162296
904.859	0.0162833
904.937	0.0163956
905.015	0.0162596
905.093	0.0162273
905.171	0.0162025
905.249	0.0162629
905.328	0.0162291
905.406	0.0162358
905.484	0.0163216
905.562	0.0162597
905.640	0.0162432
905.718	0.0163289
905.796	0.0161840
905.874	0.0162590
905.953	0.0161324
906.031	0.0161794
906.109	0.0160732
906.187	0.0160897
906.265	0.0160233
906.343	0.0161565
906.421	0.0161113
906.499	0.0161935
906.578	0.0162220
906.656	0.0162212
906.734	0.0160602
906.812	0.0160606
906.890	0.0161385
906.968	0.0160562
907.046	0.0161375
907.124	0.0160744
907.203	0.0161377
907.281	0.0161260
907.359	0.0161783
907.437	0.0162097
907.515	0.0161581
907.593	0.0161230
907.671	0.0161576
907.749	0.0161800
907.828	0.0161826
907.906	0.0162174
907.984	0.0161634
908.062	0.0161758
908.140	0.0161796
908.218	0.0161315
908.296	0.0162037
908.374	0.0161536
908.453	0.0161426
908.531	0.0162170
908.609	0.0162131
908.687	0.0161012
908.765	0.0161472
908.843	0.0161345
908.921	0.0161229
908.999	0.0159962
909.078	0.0160585
909.156	0.0160243
909.234	0.0161543
909.312	0.0160629
909.390	0.0159929
909.468	0.0162580
909.546	0.0161456
909.624	0.0160413
909.703	0.0161030
909.781	0.0159174
909.859	0.0161956
909.937	0.0162952
910.015	0.0161852
910.093	0.0160930
910.171	0.0161478
910.249	0.0160464
910.328	0.0161198
910.406	0.0161932
910.484	0.0162417
910.562	0.0161900
910.640	0.0159206
910.718	0.0162236
910.796	0.0161981
910.874	0.0161442
910.953	0.0160194
911.031	0.0161396
911.109	0.0160890
911.187	0.0161417
911.265	0.0160752
911.343	0.0161977
911.421	0.0160498
911.499	0.0160748
911.578	0.0158560
911.656	0.0161007
911.734	0.0158849
911.812	0.0159486
911.890	0.0160246
911.968	0.0160029
912.046	0.0159736
912.124	0.0160080
912.203	0.0160519
912.281	0.0162019
912.359	0.0160851
912.437	0.0160535
912.515	0.0161481
912.593	0.0162082
912.671	0.0161897
912.749	0.0161800
912.828	0.0162823
912.906	0.0162033
912.984	0.0163040
913.062	0.0161700
913.140	0.0163451
913.218	0.0161952
913.296	0.0162306
913.374	0.0162935
913.453	0.0160839
913.531	0.0159904
913.609	0.0160618
913.687	0.0160760
913.765	0.0161927
913.843	0.0160726
913.921	0.0160627
913.999	0.0160701
914.078	0.0160564
914.156	0.0161507
914.234	0.0159817
914.312	0.0160188
914.390	0.0160324
914.468	0.0160133
914.546	0.0159007
914.624	0.0161300
914.703	0.0160741
914.781	0.0159703
914.859	0.0160190
914.937	0.0160580
915.015	0.0160101
915.093	0.0160192
915.171	0.0160860
915.249	0.0161175
915.328	0.0160268
915.406	0.0160443
915.484	0.0159825
915.562	0.0160410
915.640	0.0160833
915.718	0.0160667
915.796	0.0160880
915.874	0.0161837
915.953	0.0161649
916.031	0.0161008
916.109	0.0159044
916.187	0.0160683
916.265	0.0159684
916.343	0.0160522
916.421	0.0160295
916.499	0.0160345
916.578	0.0161395
916.656	0.0161011
916.734	0.0159669
916.812	0.0161035
916.890	0.0161771
916.968	0.0160480
917.046	0.0159686
917.124	0.0159907
917.203	0.0159184
917.281	0.0160857
917.359	0.0161250
917.437	0.0159266
917.515	0.0159544
917.593	0.0160311
917.671	0.0159982
917.749	0.0159377
917.828	0.0160212
917.906	0.0160769
917.984	0.0158959
918.062	0.0159840
918.140	0.0160011
918.218	0.0160055
918.296	0.0160898
918.374	0.0160105
918.453	0.0159940
918.531	0.0159808
918.609	0.0160198
918.687	0.0160931
918.765	0.0160683
918.843	0.0161253
918.921	0.0161666
918.999	0.0160618
919.078	0.0161024
919.156	0.0161797
919.234	0.0161124
919.312	0.0160071
919.390	0.0160931
919.468	0.0162029
919.546	0.0161064
919.624	0.0161191
919.703	0.0160278
919.781	0.0160045
919.859	0.0160914
919.937	0.0161453
