06/10/2022	19:02:16	Ver.	4.1	UNKNOWN
Optical Delay	600.015094	Delta X		0.078125	Sweeps	1	Scan Rate	0/0
Coordinates	Axis 1	NaN	Axis 2	NaN	Axis 3	NaN	Axis 4	NaN	Axis 5	NaN	Axis 6	0.000000
TX Power	0.000000	RX Power	0.000000

600.015	0.0156244
600.093	0.0154633
600.171	0.0155888
600.249	0.0156263
600.328	0.0156214
600.406	0.0154819
600.484	0.0156339
600.562	0.0155290
600.640	0.0156294
600.718	0.0155640
600.796	0.0154470
600.874	0.0155775
600.953	0.0155804
601.031	0.0155254
601.109	0.0157111
601.187	0.0156484
601.265	0.0155251
601.343	0.0154856
601.421	0.0155428
601.499	0.0155289
601.578	0.0154549
601.656	0.0155608
601.734	0.0154582
601.812	0.0155704
601.890	0.0155467
601.968	0.0154254
602.046	0.0153811
602.124	0.0155223
602.203	0.0156964
602.281	0.0156000
602.359	0.0154886
602.437	0.0156915
602.515	0.0155814
602.593	0.0155062
602.671	0.0155122
602.749	0.0155453
602.828	0.0155941
602.906	0.0154629
602.984	0.0154425
603.062	0.0154327
603.140	0.0155414
603.218	0.0155473
603.296	0.0157072
603.374	0.0156637
603.453	0.0155597
603.531	0.0155150
603.609	0.0156346
603.687	0.0156340
603.765	0.0154166
603.843	0.0156583
603.921	0.0156332
603.999	0.0155636
604.078	0.0156699
604.156	0.0155338
604.234	0.0153992
604.312	0.0154442
604.390	0.0156152
604.468	0.0156876
604.546	0.0155650
604.624	0.0155054
604.703	0.0155971
604.781	0.0156473
604.859	0.0155442
604.937	0.0154375
605.015	0.0155571
605.093	0.0155127
605.171	0.0156873
605.249	0.0155447
605.328	0.0154788
605.406	0.0154766
605.484	0.0156282
605.562	0.0155665
605.640	0.0156242
605.718	0.0155756
605.796	0.0154841
605.874	0.0155849
605.953	0.0155076
606.031	0.0154631
606.109	0.0155507
606.187	0.0155009
606.265	0.0155069
606.343	0.0155388
606.421	0.0156130
606.499	0.0156007
606.578	0.0155201
606.656	0.0156095
606.734	0.0157336
606.812	0.0154678
606.890	0.0155993
606.968	0.0156014
607.046	0.0154705
607.124	0.0155659
607.203	0.0155601
607.281	0.0156495
607.359	0.0156232
607.437	0.0155262
607.515	0.0156518
607.593	0.0156085
607.671	0.0156784
607.749	0.0155518
607.828	0.0156222
607.906	0.0156561
607.984	0.0156975
608.062	0.0156111
608.140	0.0155809
608.218	0.0156766
608.296	0.0156033
608.374	0.0157221
608.453	0.0156947
608.531	0.0156575
608.609	0.0156080
608.687	0.0157150
608.765	0.0157037
608.843	0.0157609
608.921	0.0157024
608.999	0.0155913
609.078	0.0155568
609.156	0.0156903
609.234	0.0156627
609.312	0.0155972
609.390	0.0156009
609.468	0.0157389
609.546	0.0156025
609.624	0.0156915
609.703	0.0157492
609.781	0.0158035
609.859	0.0156409
609.937	0.0156570
610.015	0.0156927
610.093	0.0157211
610.171	0.0156657
610.249	0.0157279
610.328	0.0157778
610.406	0.0158002
610.484	0.0157632
610.562	0.0157447
610.640	0.0158009
610.718	0.0156808
610.796	0.0157197
610.874	0.0157613
610.953	0.0157556
611.031	0.0156728
611.109	0.0157009
611.187	0.0157234
611.265	0.0157376
611.343	0.0158006
611.421	0.0155939
611.499	0.0156717
611.578	0.0157733
611.656	0.0157939
611.734	0.0158274
611.812	0.0156976
611.890	0.0157552
611.968	0.0158083
612.046	0.0157275
612.124	0.0156880
612.203	0.0157517
612.281	0.0158254
612.359	0.0157749
612.437	0.0157861
612.515	0.0157387
612.593	0.0157706
612.671	0.0157671
612.749	0.0157257
612.828	0.0157111
612.906	0.0156742
612.984	0.0159232
613.062	0.0157930
613.140	0.0155067
613.218	0.0155903
613.296	0.0157047
613.374	0.0156324
613.453	0.0155999
613.531	0.0156437
613.609	0.0155839
613.687	0.0157133
613.765	0.0157023
613.843	0.0155680
613.921	0.0156637
613.999	0.0156834
614.078	0.0156663
614.156	0.0154922
614.234	0.0155493
614.312	0.0157737
614.390	0.0155519
614.468	0.0156499
614.546	0.0156441
614.624	0.0155093
614.703	0.0155894
614.781	0.0156829
614.859	0.0156329
614.937	0.0156214
615.015	0.0157179
615.093	0.0155735
615.171	0.0155920
615.249	0.0157152
615.328	0.0155783
615.406	0.0155432
615.484	0.0156271
615.562	0.0157027
615.640	0.0155712
615.718	0.0157065
615.796	0.0156514
615.874	0.0155900
615.953	0.0155167
616.031	0.0156602
616.109	0.0155500
616.187	0.0155589
616.265	0.0155509
616.343	0.0157153
616.421	0.0154495
616.499	0.0155706
616.578	0.0156120
616.656	0.0154819
616.734	0.0155442
616.812	0.0156678
616.890	0.0156677
616.968	0.0155756
617.046	0.0155863
617.124	0.0157428
617.203	0.0156341
617.281	0.0156385
617.359	0.0155775
617.437	0.0155754
617.515	0.0156870
617.593	0.0156711
617.671	0.0156252
617.749	0.0156149
617.828	0.0155189
617.906	0.0156389
617.984	0.0157462
618.062	0.0157235
618.140	0.0153921
618.218	0.0156121
618.296	0.0156449
618.374	0.0156664
618.453	0.0155575
618.531	0.0156583
618.609	0.0157263
618.687	0.0156436
618.765	0.0156412
618.843	0.0157101
618.921	0.0155909
618.999	0.0156583
619.078	0.0156934
619.156	0.0157121
619.234	0.0156175
619.312	0.0156463
619.390	0.0156573
619.468	0.0158039
619.546	0.0157425
619.624	0.0155243
619.703	0.0157211
619.781	0.0156953
619.859	0.0156462
619.937	0.0157505
620.015	0.0157923
620.093	0.0156489
620.171	0.0156420
620.249	0.0157805
620.328	0.0157127
620.406	0.0157174
620.484	0.0157184
620.562	0.0157623
620.640	0.0157351
620.718	0.0156580
620.796	0.0157520
620.874	0.0157801
620.953	0.0157286
621.031	0.0157473
621.109	0.0157175
621.187	0.0157021
621.265	0.0156900
621.343	0.0157503
621.421	0.0157526
621.499	0.0156963
621.578	0.0156024
621.656	0.0157481
621.734	0.0156933
621.812	0.0157291
621.890	0.0157823
621.968	0.0157469
622.046	0.0158322
622.124	0.0158280
622.203	0.0158214
622.281	0.0157887
622.359	0.0158275
622.437	0.0157748
622.515	0.0156496
622.593	0.0157929
622.671	0.0158709
622.749	0.0156342
622.828	0.0156804
622.906	0.0158061
622.984	0.0156545
623.062	0.0156573
623.140	0.0157887
623.218	0.0158243
623.296	0.0157803
623.374	0.0156879
623.453	0.0158070
623.531	0.0158226
623.609	0.0158071
623.687	0.0157104
623.765	0.0156464
623.843	0.0157363
623.921	0.0157494
623.999	0.0156860
624.078	0.0156587
624.156	0.0157250
624.234	0.0157949
624.312	0.0157274
624.390	0.0158021
624.468	0.0158684
624.546	0.0157200
624.624	0.0155854
624.703	0.0158211
624.781	0.0157504
624.859	0.0157891
624.937	0.0156776
625.015	0.0157760
625.093	0.0157471
625.171	0.0157123
625.249	0.0157224
625.328	0.0157413
625.406	0.0157156
625.484	0.0156166
625.562	0.0156879
625.640	0.0157234
625.718	0.0157980
625.796	0.0157588
625.874	0.0156878
625.953	0.0158424
626.031	0.0157365
626.109	0.0156886
626.187	0.0158231
626.265	0.0157658
626.343	0.0156342
626.421	0.0158189
626.499	0.0158795
626.578	0.0157525
626.656	0.0156983
626.734	0.0158577
626.812	0.0158609
626.890	0.0157785
626.968	0.0157307
627.046	0.0157808
627.124	0.0157961
627.203	0.0158191
627.281	0.0158270
627.359	0.0157631
627.437	0.0156367
627.515	0.0157118
627.593	0.0156374
627.671	0.0156170
627.749	0.0157455
627.828	0.0157423
627.906	0.0157288
627.984	0.0155028
628.062	0.0155476
628.140	0.0155569
628.218	0.0155994
628.296	0.0155789
628.374	0.0156758
628.453	0.0153471
628.531	0.0152621
628.609	0.0154259
628.687	0.0153824
628.765	0.0153799
628.843	0.0153605
628.921	0.0153126
628.999	0.0153454
629.078	0.0153252
629.156	0.0153432
629.234	0.0154955
629.312	0.0155646
629.390	0.0153725
629.468	0.0154621
629.546	0.0157276
629.624	0.0156482
629.703	0.0157236
629.781	0.0156868
629.859	0.0156989
629.937	0.0156609
630.015	0.0156750
630.093	0.0157333
630.171	0.0157744
630.249	0.0157896
630.328	0.0155991
630.406	0.0156557
630.484	0.0156267
630.562	0.0157050
630.640	0.0155534
630.718	0.0153924
630.796	0.0154672
630.874	0.0154707
630.953	0.0153720
631.031	0.0152987
631.109	0.0154166
631.187	0.0153954
631.265	0.0154450
631.343	0.0155059
631.421	0.0155897
631.499	0.0155710
631.578	0.0154778
631.656	0.0155954
631.734	0.0156023
631.812	0.0156675
631.890	0.0156565
631.968	0.0155314
632.046	0.0156194
632.124	0.0156123
632.203	0.0157222
632.281	0.0155800
632.359	0.0155514
632.437	0.0156288
632.515	0.0154939
632.593	0.0155460
632.671	0.0157881
632.749	0.0156111
632.828	0.0155844
632.906	0.0155493
632.984	0.0155804
633.062	0.0155896
633.140	0.0155122
633.218	0.0157008
633.296	0.0155378
633.374	0.0155180
633.453	0.0156355
633.531	0.0155384
633.609	0.0156223
633.687	0.0156187
633.765	0.0156090
633.843	0.0155119
633.921	0.0155912
633.999	0.0155624
634.078	0.0155615
634.156	0.0155304
634.234	0.0155679
634.312	0.0155733
634.390	0.0155618
634.468	0.0156306
634.546	0.0156466
634.624	0.0155991
634.703	0.0156163
634.781	0.0156395
634.859	0.0156451
634.937	0.0155692
635.015	0.0154694
635.093	0.0157065
635.171	0.0156017
635.249	0.0155991
635.328	0.0156152
635.406	0.0156667
635.484	0.0157686
635.562	0.0157188
635.640	0.0156026
635.718	0.0156647
635.796	0.0157250
635.874	0.0157374
635.953	0.0158701
636.031	0.0155907
636.109	0.0157315
636.187	0.0157104
636.265	0.0157661
636.343	0.0158018
636.421	0.0158823
636.499	0.0158333
636.578	0.0156285
636.656	0.0156849
636.734	0.0157922
636.812	0.0157727
636.890	0.0156389
636.968	0.0158083
637.046	0.0156533
637.124	0.0156083
637.203	0.0156042
637.281	0.0157025
637.359	0.0156402
637.437	0.0157210
637.515	0.0157701
637.593	0.0157083
637.671	0.0157324
637.749	0.0157249
637.828	0.0157011
637.906	0.0157635
637.984	0.0157468
638.062	0.0156748
638.140	0.0156143
638.218	0.0155659
638.296	0.0156390
638.374	0.0157498
638.453	0.0157347
638.531	0.0158408
638.609	0.0157211
638.687	0.0155589
638.765	0.0156738
638.843	0.0157153
638.921	0.0158087
638.999	0.0156728
639.078	0.0156303
639.156	0.0156248
639.234	0.0157275
639.312	0.0157022
639.390	0.0156998
639.468	0.0157377
639.546	0.0157336
639.624	0.0157029
639.703	0.0156230
639.781	0.0156271
639.859	0.0156650
639.937	0.0157935
640.015	0.0155827
640.093	0.0157686
640.171	0.0156881
640.249	0.0157126
640.328	0.0155820
640.406	0.0156230
640.484	0.0156290
640.562	0.0156409
640.640	0.0157526
640.718	0.0157077
640.796	0.0155840
640.874	0.0157670
640.953	0.0156931
641.031	0.0156596
641.109	0.0156271
641.187	0.0157155
641.265	0.0157599
641.343	0.0156229
641.421	0.0156238
641.499	0.0156589
641.578	0.0155885
641.656	0.0156446
641.734	0.0155531
641.812	0.0156545
641.890	0.0157658
641.968	0.0156400
642.046	0.0156815
642.124	0.0156329
642.203	0.0158464
642.281	0.0156549
642.359	0.0157431
642.437	0.0157870
642.515	0.0156829
642.593	0.0156923
642.671	0.0157692
642.749	0.0158172
642.828	0.0156864
642.906	0.0157388
642.984	0.0157654
643.062	0.0155753
643.140	0.0157423
643.218	0.0157162
643.296	0.0157143
643.374	0.0156523
643.453	0.0157552
643.531	0.0157499
643.609	0.0157151
643.687	0.0156734
643.765	0.0155728
643.843	0.0156271
643.921	0.0157337
643.999	0.0156884
644.078	0.0156252
644.156	0.0157436
644.234	0.0156433
644.312	0.0157141
644.390	0.0158029
644.468	0.0156315
644.546	0.0157127
644.624	0.0156786
644.703	0.0156895
644.781	0.0157747
644.859	0.0157025
644.937	0.0155457
645.015	0.0156678
645.093	0.0156717
645.171	0.0157883
645.249	0.0156649
645.328	0.0156268
645.406	0.0156341
645.484	0.0156780
645.562	0.0157197
645.640	0.0157786
645.718	0.0157027
645.796	0.0156339
645.874	0.0158122
645.953	0.0157316
646.031	0.0157486
646.109	0.0157624
646.187	0.0157174
646.265	0.0156409
646.343	0.0156223
646.421	0.0158636
646.499	0.0157915
646.578	0.0157910
646.656	0.0157285
646.734	0.0156290
646.812	0.0156436
646.890	0.0157780
646.968	0.0157664
647.046	0.0157245
647.124	0.0156680
647.203	0.0156567
647.281	0.0156565
647.359	0.0157842
647.437	0.0158124
647.515	0.0157655
647.593	0.0156454
647.671	0.0156186
647.749	0.0157260
647.828	0.0156286
647.906	0.0157778
647.984	0.0157056
648.062	0.0156491
648.140	0.0157192
648.218	0.0158127
648.296	0.0157436
648.374	0.0157320
648.453	0.0158351
648.531	0.0157529
648.609	0.0156957
648.687	0.0156159
648.765	0.0156828
648.843	0.0155592
648.921	0.0157676
648.999	0.0156134
649.078	0.0156406
649.156	0.0157210
649.234	0.0157304
649.312	0.0157985
649.390	0.0157882
649.468	0.0156197
649.546	0.0157887
649.624	0.0158710
649.703	0.0157124
649.781	0.0156579
649.859	0.0157561
649.937	0.0155989
650.015	0.0156964
650.093	0.0157690
650.171	0.0155976
650.249	0.0157780
650.328	0.0156969
650.406	0.0157530
650.484	0.0157423
650.562	0.0156264
650.640	0.0157705
650.718	0.0157751
650.796	0.0157674
650.874	0.0156070
650.953	0.0157446
651.031	0.0157293
651.109	0.0155489
651.187	0.0155956
651.265	0.0156142
651.343	0.0156044
651.421	0.0157272
651.499	0.0155805
651.578	0.0155895
651.656	0.0155717
651.734	0.0156150
651.812	0.0156628
651.890	0.0155997
651.968	0.0155430
652.046	0.0155595
652.124	0.0157161
652.203	0.0155871
652.281	0.0156148
652.359	0.0154895
652.437	0.0155951
652.515	0.0156073
652.593	0.0156705
652.671	0.0157032
652.749	0.0155879
652.828	0.0155746
652.906	0.0155572
652.984	0.0154245
653.062	0.0155930
653.140	0.0156615
653.218	0.0154974
653.296	0.0154726
653.374	0.0154312
653.453	0.0155417
653.531	0.0155146
653.609	0.0154845
653.687	0.0154552
653.765	0.0154723
653.843	0.0155003
653.921	0.0154183
653.999	0.0155650
654.078	0.0154019
654.156	0.0155096
654.234	0.0154363
654.312	0.0156431
654.390	0.0156036
654.468	0.0153928
654.546	0.0155211
654.624	0.0153645
654.703	0.0154041
654.781	0.0155347
654.859	0.0154247
654.937	0.0154749
655.015	0.0155143
655.093	0.0154129
655.171	0.0154201
655.249	0.0153953
655.328	0.0153810
655.406	0.0155128
655.484	0.0154267
655.562	0.0153755
655.640	0.0154910
655.718	0.0155047
655.796	0.0155257
655.874	0.0154211
655.953	0.0154510
656.031	0.0155005
656.109	0.0153348
656.187	0.0154058
656.265	0.0154705
656.343	0.0154899
656.421	0.0154450
656.499	0.0154913
656.578	0.0153869
656.656	0.0153869
656.734	0.0156168
656.812	0.0154250
656.890	0.0154847
656.968	0.0154033
657.046	0.0154442
657.124	0.0156385
657.203	0.0155097
657.281	0.0155612
657.359	0.0155033
657.437	0.0154816
657.515	0.0155312
657.593	0.0154240
657.671	0.0155102
657.749	0.0155772
657.828	0.0155670
657.906	0.0155157
657.984	0.0153922
658.062	0.0154867
658.140	0.0155961
658.218	0.0154568
658.296	0.0156574
658.374	0.0155340
658.453	0.0155597
658.531	0.0155116
658.609	0.0155163
658.687	0.0156354
658.765	0.0155535
658.843	0.0156159
658.921	0.0154406
658.999	0.0156039
659.078	0.0156276
659.156	0.0155769
659.234	0.0155145
659.312	0.0154746
659.390	0.0154742
659.468	0.0156402
659.546	0.0154621
659.624	0.0156820
659.703	0.0154852
659.781	0.0155688
659.859	0.0155269
659.937	0.0154070
660.015	0.0155618
660.093	0.0155916
660.171	0.0154970
660.249	0.0155060
660.328	0.0156217
660.406	0.0156445
660.484	0.0155735
660.562	0.0154662
660.640	0.0155766
660.718	0.0154996
660.796	0.0155602
660.874	0.0156885
660.953	0.0157043
661.031	0.0156048
661.109	0.0155727
661.187	0.0156419
661.265	0.0156628
661.343	0.0156756
661.421	0.0157251
661.499	0.0157034
661.578	0.0156009
661.656	0.0157001
661.734	0.0155417
661.812	0.0156573
661.890	0.0157010
661.968	0.0156726
662.046	0.0157154
662.124	0.0156926
662.203	0.0156453
662.281	0.0156822
662.359	0.0155687
662.437	0.0156351
662.515	0.0156422
662.593	0.0157558
662.671	0.0157314
662.749	0.0157453
662.828	0.0156298
662.906	0.0156527
662.984	0.0156495
663.062	0.0156586
663.140	0.0157327
663.218	0.0157950
663.296	0.0157992
663.374	0.0157289
663.453	0.0157299
663.531	0.0157570
663.609	0.0157090
663.687	0.0157111
663.765	0.0156174
663.843	0.0157144
663.921	0.0157761
663.999	0.0157611
664.078	0.0157696
664.156	0.0156824
664.234	0.0155914
664.312	0.0157323
664.390	0.0156697
664.468	0.0156435
664.546	0.0156371
664.624	0.0156588
664.703	0.0156729
664.781	0.0156275
664.859	0.0157188
664.937	0.0156297
665.015	0.0157177
665.093	0.0156882
665.171	0.0157771
665.249	0.0157265
665.328	0.0156989
665.406	0.0155813
665.484	0.0155702
665.562	0.0157672
665.640	0.0157498
665.718	0.0156384
665.796	0.0156768
665.874	0.0158080
665.953	0.0157072
666.031	0.0157363
666.109	0.0155899
666.187	0.0157503
666.265	0.0156372
666.343	0.0156956
666.421	0.0156502
666.499	0.0156441
666.578	0.0158133
666.656	0.0157677
666.734	0.0157138
666.812	0.0156831
666.890	0.0157478
666.968	0.0157511
667.046	0.0156593
667.124	0.0157890
667.203	0.0157142
667.281	0.0156886
667.359	0.0157022
667.437	0.0156110
667.515	0.0158813
667.593	0.0156437
667.671	0.0155130
667.749	0.0156096
667.828	0.0156543
667.906	0.0155675
667.984	0.0156377
668.062	0.0157052
668.140	0.0157815
668.218	0.0156508
668.296	0.0156388
668.374	0.0156156
668.453	0.0155408
668.531	0.0156604
668.609	0.0155335
668.687	0.0155428
668.765	0.0156420
668.843	0.0156485
668.921	0.0154898
668.999	0.0157111
669.078	0.0155730
669.156	0.0156288
669.234	0.0155471
669.312	0.0156149
669.390	0.0156634
669.468	0.0156257
669.546	0.0155086
669.624	0.0156415
669.703	0.0157267
669.781	0.0156845
669.859	0.0156735
669.937	0.0156669
670.015	0.0155696
670.093	0.0156895
670.171	0.0157718
670.249	0.0156982
670.328	0.0155951
670.406	0.0157462
670.484	0.0156007
670.562	0.0155312
670.640	0.0157777
670.718	0.0156312
670.796	0.0156124
670.874	0.0156140
670.953	0.0155846
671.031	0.0156031
671.109	0.0156173
671.187	0.0155730
671.265	0.0156920
671.343	0.0156055
671.421	0.0157000
671.499	0.0157446
671.578	0.0157048
671.656	0.0155431
671.734	0.0154936
671.812	0.0156307
671.890	0.0156142
671.968	0.0154604
672.046	0.0156113
672.124	0.0156470
672.203	0.0155519
672.281	0.0156436
672.359	0.0156779
672.437	0.0156300
672.515	0.0156770
672.593	0.0155637
672.671	0.0155281
672.749	0.0155558
672.828	0.0155993
672.906	0.0156444
672.984	0.0157608
673.062	0.0156057
673.140	0.0156061
673.218	0.0156903
673.296	0.0156854
673.374	0.0155946
673.453	0.0156011
673.531	0.0157250
673.609	0.0155392
673.687	0.0156499
673.765	0.0155604
673.843	0.0155976
673.921	0.0156934
673.999	0.0156214
674.078	0.0157170
674.156	0.0156632
674.234	0.0156117
674.312	0.0155840
674.390	0.0155841
674.468	0.0154771
674.546	0.0155788
674.624	0.0157092
674.703	0.0156858
674.781	0.0155496
674.859	0.0155274
674.937	0.0155621
675.015	0.0155505
675.093	0.0155616
675.171	0.0155842
675.249	0.0156732
675.328	0.0155818
675.406	0.0155572
675.484	0.0155716
675.562	0.0156306
675.640	0.0155434
675.718	0.0156520
675.796	0.0155257
675.874	0.0154667
675.953	0.0154535
676.031	0.0155118
676.109	0.0156377
676.187	0.0155666
676.265	0.0155085
676.343	0.0153144
676.421	0.0155310
676.499	0.0155936
676.578	0.0154469
676.656	0.0154639
676.734	0.0155733
676.812	0.0155826
676.890	0.0155833
676.968	0.0155092
677.046	0.0156145
677.124	0.0156202
677.203	0.0156345
677.281	0.0153650
677.359	0.0154861
677.437	0.0155331
677.515	0.0156052
677.593	0.0155853
677.671	0.0153738
677.749	0.0155460
677.828	0.0155518
677.906	0.0156133
677.984	0.0156213
678.062	0.0156423
678.140	0.0156363
678.218	0.0156524
678.296	0.0157030
678.374	0.0155235
678.453	0.0155685
678.531	0.0156276
678.609	0.0156883
678.687	0.0156964
678.765	0.0156757
678.843	0.0155105
678.921	0.0155869
678.999	0.0157391
679.078	0.0156140
679.156	0.0156047
679.234	0.0156336
679.312	0.0156880
679.390	0.0156046
679.468	0.0155642
679.546	0.0155045
679.624	0.0156156
679.703	0.0156811
679.781	0.0154537
679.859	0.0156985
679.937	0.0156830
680.015	0.0156826
680.093	0.0155478
680.171	0.0155619
680.249	0.0156064
680.328	0.0156602
680.406	0.0155393
680.484	0.0154775
680.562	0.0156546
680.640	0.0156062
680.718	0.0156033
680.796	0.0156792
680.874	0.0157243
680.953	0.0156192
681.031	0.0156844
681.109	0.0155828
681.187	0.0156892
681.265	0.0155196
681.343	0.0154800
681.421	0.0156864
681.499	0.0156418
681.578	0.0155590
681.656	0.0155708
681.734	0.0156013
681.812	0.0155914
681.890	0.0156922
681.968	0.0155803
682.046	0.0156925
682.124	0.0156957
682.203	0.0156516
682.281	0.0156795
682.359	0.0155984
682.437	0.0155834
682.515	0.0156589
682.593	0.0157628
682.671	0.0156850
682.749	0.0154567
682.828	0.0157195
682.906	0.0156602
682.984	0.0155927
683.062	0.0157784
683.140	0.0156393
683.218	0.0156957
683.296	0.0156774
683.374	0.0156056
683.453	0.0155711
683.531	0.0156290
683.609	0.0155386
683.687	0.0157607
683.765	0.0157236
683.843	0.0157709
683.921	0.0157118
683.999	0.0156575
684.078	0.0156953
684.156	0.0156887
684.234	0.0156372
684.312	0.0155853
684.390	0.0156919
684.468	0.0157891
684.546	0.0156602
684.624	0.0158244
684.703	0.0157137
684.781	0.0156715
684.859	0.0156641
684.937	0.0156273
685.015	0.0155527
685.093	0.0155881
685.171	0.0157768
685.249	0.0156521
685.328	0.0155534
685.406	0.0158064
685.484	0.0157718
685.562	0.0157161
685.640	0.0157290
685.718	0.0156478
685.796	0.0156316
685.874	0.0156863
685.953	0.0156213
686.031	0.0155554
686.109	0.0157394
686.187	0.0157085
686.265	0.0155758
686.343	0.0156771
686.421	0.0156093
686.499	0.0156447
686.578	0.0156406
686.656	0.0157545
686.734	0.0155288
686.812	0.0155692
686.890	0.0156292
686.968	0.0156047
687.046	0.0156750
687.124	0.0156508
687.203	0.0154417
687.281	0.0155739
687.359	0.0157340
687.437	0.0156119
687.515	0.0156338
687.593	0.0157659
687.671	0.0156388
687.749	0.0156716
687.828	0.0154945
687.906	0.0157256
687.984	0.0156740
688.062	0.0155572
688.140	0.0156942
688.218	0.0156733
688.296	0.0155266
688.374	0.0155548
688.453	0.0157067
688.531	0.0156598
688.609	0.0155962
688.687	0.0155876
688.765	0.0157365
688.843	0.0155437
688.921	0.0154514
688.999	0.0155743
689.078	0.0155406
689.156	0.0157147
689.234	0.0156954
689.312	0.0156182
689.390	0.0155970
689.468	0.0156641
689.546	0.0156813
689.624	0.0156344
689.703	0.0155878
689.781	0.0156549
689.859	0.0157507
689.937	0.0156866
690.015	0.0155302
690.093	0.0155536
690.171	0.0156678
690.249	0.0156114
690.328	0.0156526
690.406	0.0155964
690.484	0.0155676
690.562	0.0156359
690.640	0.0156586
690.718	0.0155763
690.796	0.0156724
690.874	0.0156280
690.953	0.0155898
691.031	0.0156837
691.109	0.0155914
691.187	0.0156121
691.265	0.0156413
691.343	0.0157446
691.421	0.0157364
691.499	0.0157140
691.578	0.0156514
691.656	0.0156133
691.734	0.0156238
691.812	0.0156298
691.890	0.0156040
691.968	0.0157899
692.046	0.0157453
692.124	0.0156407
692.203	0.0157113
692.281	0.0157487
692.359	0.0156015
692.437	0.0157249
692.515	0.0156993
692.593	0.0155280
692.671	0.0156822
692.749	0.0157866
692.828	0.0156895
692.906	0.0157579
692.984	0.0157494
693.062	0.0157214
693.140	0.0157370
693.218	0.0155630
693.296	0.0157810
693.374	0.0156558
693.453	0.0156660
693.531	0.0155908
693.609	0.0155511
693.687	0.0156209
693.765	0.0156741
693.843	0.0156902
693.921	0.0157250
693.999	0.0156499
694.078	0.0156967
694.156	0.0157224
694.234	0.0156852
694.312	0.0156625
694.390	0.0155839
694.468	0.0157224
694.546	0.0156873
694.624	0.0156053
694.703	0.0156071
694.781	0.0154855
694.859	0.0157104
694.937	0.0157452
695.015	0.0156751
695.093	0.0156974
695.171	0.0157500
695.249	0.0155366
695.328	0.0155828
695.406	0.0155544
695.484	0.0155166
695.562	0.0156008
695.640	0.0155669
695.718	0.0156474
695.796	0.0156168
695.874	0.0156039
695.953	0.0155190
696.031	0.0158086
696.109	0.0156272
696.187	0.0155046
696.265	0.0156260
696.343	0.0155369
696.421	0.0156299
696.499	0.0155927
696.578	0.0157928
696.656	0.0156036
696.734	0.0155569
696.812	0.0154765
696.890	0.0156459
696.968	0.0156343
697.046	0.0155777
697.124	0.0154465
697.203	0.0155631
697.281	0.0155585
697.359	0.0155561
697.437	0.0155155
697.515	0.0155899
697.593	0.0156242
697.671	0.0154961
697.749	0.0155622
697.828	0.0156583
697.906	0.0155810
697.984	0.0156357
698.062	0.0156966
698.140	0.0156197
698.218	0.0156156
698.296	0.0157014
698.374	0.0156248
698.453	0.0156416
698.531	0.0155684
698.609	0.0155491
698.687	0.0156883
698.765	0.0156866
698.843	0.0155640
698.921	0.0156223
698.999	0.0156200
699.078	0.0154935
699.156	0.0155812
699.234	0.0156213
699.312	0.0156487
699.390	0.0157587
699.468	0.0156233
699.546	0.0156261
699.624	0.0156156
699.703	0.0156199
699.781	0.0155760
699.859	0.0156641
699.937	0.0155527
700.015	0.0156031
700.093	0.0156297
700.171	0.0155997
700.249	0.0155325
700.328	0.0156258
700.406	0.0156417
700.484	0.0156145
700.562	0.0156389
700.640	0.0155900
700.718	0.0156423
700.796	0.0156767
700.874	0.0155948
700.953	0.0156742
701.031	0.0156542
701.109	0.0156005
701.187	0.0156927
701.265	0.0156702
701.343	0.0156597
701.421	0.0156281
701.499	0.0155795
701.578	0.0154640
701.656	0.0157121
701.734	0.0156394
701.812	0.0155516
701.890	0.0156342
701.968	0.0156716
702.046	0.0157378
702.124	0.0155464
702.203	0.0154968
702.281	0.0157189
702.359	0.0157107
702.437	0.0155872
702.515	0.0155487
702.593	0.0155379
702.671	0.0155774
702.749	0.0155057
702.828	0.0156343
702.906	0.0155563
702.984	0.0157034
703.062	0.0155310
703.140	0.0155535
703.218	0.0155211
703.296	0.0157072
703.374	0.0155676
703.453	0.0155222
703.531	0.0155495
703.609	0.0155563
703.687	0.0155593
703.765	0.0155346
703.843	0.0156700
703.921	0.0155506
703.999	0.0157129
704.078	0.0155741
704.156	0.0156031
704.234	0.0155327
704.312	0.0155572
704.390	0.0154971
704.468	0.0156410
704.546	0.0156846
704.624	0.0156134
704.703	0.0157320
704.781	0.0156707
704.859	0.0155539
704.937	0.0154600
705.015	0.0154837
705.093	0.0156623
705.171	0.0156049
705.249	0.0155635
705.328	0.0157146
705.406	0.0155915
705.484	0.0155245
705.562	0.0156876
705.640	0.0156034
705.718	0.0155637
705.796	0.0156348
705.874	0.0155934
705.953	0.0156076
706.031	0.0157516
706.109	0.0156715
706.187	0.0155325
706.265	0.0156503
706.343	0.0157525
706.421	0.0156367
706.499	0.0157478
706.578	0.0156664
706.656	0.0156374
706.734	0.0157257
706.812	0.0157375
706.890	0.0156995
706.968	0.0157323
707.046	0.0157682
707.124	0.0158540
707.203	0.0157301
707.281	0.0157232
707.359	0.0156835
707.437	0.0156464
707.515	0.0156656
707.593	0.0157874
707.671	0.0156987
707.749	0.0157442
707.828	0.0157125
707.906	0.0156432
707.984	0.0156767
708.062	0.0156947
708.140	0.0158187
708.218	0.0156579
708.296	0.0157230
708.374	0.0157107
708.453	0.0156590
708.531	0.0157690
708.609	0.0158067
708.687	0.0157423
708.765	0.0157043
708.843	0.0157299
708.921	0.0156380
708.999	0.0156622
709.078	0.0158088
709.156	0.0156956
709.234	0.0157505
709.312	0.0157015
709.390	0.0157024
709.468	0.0156488
709.546	0.0158132
709.624	0.0157090
709.703	0.0157951
709.781	0.0156829
709.859	0.0157029
709.937	0.0156550
710.015	0.0158177
710.093	0.0156752
710.171	0.0158109
710.249	0.0157740
710.328	0.0157230
710.406	0.0157683
710.484	0.0156902
710.562	0.0155044
710.640	0.0156683
710.718	0.0157232
710.796	0.0156510
710.874	0.0156310
710.953	0.0156558
711.031	0.0157272
711.109	0.0157605
711.187	0.0157499
711.265	0.0157173
711.343	0.0157475
711.421	0.0156268
711.499	0.0156537
711.578	0.0157616
711.656	0.0156423
711.734	0.0157036
711.812	0.0157055
711.890	0.0156924
711.968	0.0157412
712.046	0.0157816
712.124	0.0156651
712.203	0.0157304
712.281	0.0157033
712.359	0.0157554
712.437	0.0157253
712.515	0.0157178
712.593	0.0156626
712.671	0.0157979
712.749	0.0157833
712.828	0.0157322
712.906	0.0157691
712.984	0.0156755
713.062	0.0158004
713.140	0.0156462
713.218	0.0156914
713.296	0.0157070
713.374	0.0157180
713.453	0.0157090
713.531	0.0156674
713.609	0.0157752
713.687	0.0158248
713.765	0.0156799
713.843	0.0157639
713.921	0.0157314
713.999	0.0156997
714.078	0.0156270
714.156	0.0155975
714.234	0.0157430
714.312	0.0157228
714.390	0.0157066
714.468	0.0156799
714.546	0.0157075
714.624	0.0157105
714.703	0.0157236
714.781	0.0157829
714.859	0.0156696
714.937	0.0157049
715.015	0.0157926
715.093	0.0156984
715.171	0.0155836
715.249	0.0157255
715.328	0.0157848
715.406	0.0156783
715.484	0.0157491
715.562	0.0157904
715.640	0.0155975
715.718	0.0156709
715.796	0.0157109
715.874	0.0158405
715.953	0.0156566
716.031	0.0155595
716.109	0.0155614
716.187	0.0154572
716.265	0.0157054
716.343	0.0157615
716.421	0.0156474
716.499	0.0156602
716.578	0.0156165
716.656	0.0155833
716.734	0.0156712
716.812	0.0155532
716.890	0.0156711
716.968	0.0156679
717.046	0.0157333
717.124	0.0157095
717.203	0.0157057
717.281	0.0155415
717.359	0.0155675
717.437	0.0157187
717.515	0.0155547
717.593	0.0156245
717.671	0.0156638
717.749	0.0155900
717.828	0.0157101
717.906	0.0156003
717.984	0.0155641
718.062	0.0155268
718.140	0.0156119
718.218	0.0156066
718.296	0.0155016
718.374	0.0155383
718.453	0.0156476
718.531	0.0157106
718.609	0.0156278
718.687	0.0157960
718.765	0.0156528
718.843	0.0156793
718.921	0.0157072
718.999	0.0155144
719.078	0.0156680
719.156	0.0156332
719.234	0.0156596
719.312	0.0156145
719.390	0.0157351
719.468	0.0158000
719.546	0.0157317
719.624	0.0155839
719.703	0.0157152
719.781	0.0157394
719.859	0.0157530
719.937	0.0157800
720.015	0.0156465
720.093	0.0156328
720.171	0.0156708
720.249	0.0158144
720.328	0.0157657
720.406	0.0156913
720.484	0.0157904
720.562	0.0156502
720.640	0.0155762
720.718	0.0156017
720.796	0.0155729
720.874	0.0157161
720.953	0.0157775
721.031	0.0157066
721.109	0.0157661
721.187	0.0158609
721.265	0.0157908
721.343	0.0156683
721.421	0.0157542
721.499	0.0157592
721.578	0.0157013
721.656	0.0158289
721.734	0.0156367
721.812	0.0157570
721.890	0.0157007
721.968	0.0157982
722.046	0.0157059
722.124	0.0156541
722.203	0.0157674
722.281	0.0155865
722.359	0.0156689
722.437	0.0158183
722.515	0.0156178
722.593	0.0156716
722.671	0.0156821
722.749	0.0154997
722.828	0.0155801
722.906	0.0155677
722.984	0.0157636
723.062	0.0156123
723.140	0.0156277
723.218	0.0157228
723.296	0.0156645
723.374	0.0156711
723.453	0.0157614
723.531	0.0155990
723.609	0.0156812
723.687	0.0157381
723.765	0.0156115
723.843	0.0154707
723.921	0.0156996
723.999	0.0157366
724.078	0.0156845
724.156	0.0157095
724.234	0.0156238
724.312	0.0158153
724.390	0.0157565
724.468	0.0156703
724.546	0.0156895
724.624	0.0157048
724.703	0.0156653
724.781	0.0158507
724.859	0.0156979
724.937	0.0157681
725.015	0.0157816
725.093	0.0156139
725.171	0.0156854
725.249	0.0156071
725.328	0.0156227
725.406	0.0155924
725.484	0.0156467
725.562	0.0155783
725.640	0.0154434
725.718	0.0157187
725.796	0.0155529
725.874	0.0155637
725.953	0.0155228
726.031	0.0153391
726.109	0.0155471
726.187	0.0156048
726.265	0.0154046
726.343	0.0155075
726.421	0.0156004
726.499	0.0155629
726.578	0.0155983
726.656	0.0155805
726.734	0.0156511
726.812	0.0155865
726.890	0.0155734
726.968	0.0155653
727.046	0.0155836
727.124	0.0156231
727.203	0.0155188
727.281	0.0155872
727.359	0.0156798
727.437	0.0156446
727.515	0.0156812
727.593	0.0155742
727.671	0.0154770
727.749	0.0156396
727.828	0.0156406
727.906	0.0155873
727.984	0.0157154
728.062	0.0155409
728.140	0.0155734
728.218	0.0156214
728.296	0.0155461
728.374	0.0155820
728.453	0.0154243
728.531	0.0156644
728.609	0.0157340
728.687	0.0157243
728.765	0.0155566
728.843	0.0155583
728.921	0.0156281
728.999	0.0155704
729.078	0.0154621
729.156	0.0155215
729.234	0.0155436
729.312	0.0155355
729.390	0.0154958
729.468	0.0156209
729.546	0.0155553
729.624	0.0154929
729.703	0.0155461
729.781	0.0156031
729.859	0.0155316
729.937	0.0156913
730.015	0.0155573
730.093	0.0154926
730.171	0.0155876
730.249	0.0155537
730.328	0.0155544
730.406	0.0155482
730.484	0.0156146
730.562	0.0155248
730.640	0.0155545
730.718	0.0156175
730.796	0.0155441
730.874	0.0155045
730.953	0.0156338
731.031	0.0155384
731.109	0.0156013
731.187	0.0155346
731.265	0.0155205
731.343	0.0154300
731.421	0.0154629
731.499	0.0156505
731.578	0.0154863
731.656	0.0155415
731.734	0.0155823
731.812	0.0154825
731.890	0.0156509
731.968	0.0155412
732.046	0.0155843
732.124	0.0155580
732.203	0.0155883
732.281	0.0155798
732.359	0.0155380
732.437	0.0154712
732.515	0.0155837
732.593	0.0156564
732.671	0.0155299
732.749	0.0155692
732.828	0.0155315
732.906	0.0155295
732.984	0.0154855
733.062	0.0155973
733.140	0.0155303
733.218	0.0155419
733.296	0.0152891
733.374	0.0155025
733.453	0.0155128
733.531	0.0154694
733.609	0.0155228
733.687	0.0154218
733.765	0.0155497
733.843	0.0154816
733.921	0.0154173
733.999	0.0155703
734.078	0.0155267
734.156	0.0155244
734.234	0.0155857
734.312	0.0155066
734.390	0.0153616
734.468	0.0154527
734.546	0.0154868
734.624	0.0154993
734.703	0.0157091
734.781	0.0156683
734.859	0.0157146
734.937	0.0154790
735.015	0.0155891
735.093	0.0156578
735.171	0.0156326
735.249	0.0156203
735.328	0.0155729
735.406	0.0155431
735.484	0.0155554
735.562	0.0156839
735.640	0.0156274
735.718	0.0156602
735.796	0.0156133
735.874	0.0156328
735.953	0.0156757
736.031	0.0157161
736.109	0.0157214
736.187	0.0156400
736.265	0.0155979
736.343	0.0156419
736.421	0.0156150
736.499	0.0157082
736.578	0.0157217
736.656	0.0156163
736.734	0.0156337
736.812	0.0156737
736.890	0.0158044
736.968	0.0156590
737.046	0.0157265
737.124	0.0156765
737.203	0.0156070
737.281	0.0157472
737.359	0.0157693
737.437	0.0156743
737.515	0.0156462
737.593	0.0158648
737.671	0.0157280
737.749	0.0157396
737.828	0.0157800
737.906	0.0158479
737.984	0.0156736
738.062	0.0156976
738.140	0.0157467
738.218	0.0157581
738.296	0.0156883
738.374	0.0158062
738.453	0.0158026
738.531	0.0158176
738.609	0.0157908
738.687	0.0157056
738.765	0.0158126
738.843	0.0155860
738.921	0.0157204
738.999	0.0157974
739.078	0.0157204
739.156	0.0156664
739.234	0.0156664
739.312	0.0156889
739.390	0.0156405
739.468	0.0155698
739.546	0.0156403
739.624	0.0157516
739.703	0.0157742
739.781	0.0157316
739.859	0.0156747
739.937	0.0157095
740.015	0.0157793
740.093	0.0156022
740.171	0.0156904
740.249	0.0157574
740.328	0.0156969
740.406	0.0156948
740.484	0.0157222
740.562	0.0155819
740.640	0.0157375
740.718	0.0157117
740.796	0.0155982
740.874	0.0156932
740.953	0.0157509
741.031	0.0157108
741.109	0.0156369
741.187	0.0157673
741.265	0.0156959
741.343	0.0159657
741.421	0.0156160
741.499	0.0155509
741.578	0.0156535
741.656	0.0157611
741.734	0.0155695
741.812	0.0156891
741.890	0.0157087
741.968	0.0157561
742.046	0.0156876
742.124	0.0157279
742.203	0.0157004
742.281	0.0155511
742.359	0.0155966
742.437	0.0157680
742.515	0.0157545
742.593	0.0158466
742.671	0.0156281
742.749	0.0156696
742.828	0.0158131
742.906	0.0156528
742.984	0.0157122
743.062	0.0157432
743.140	0.0157098
743.218	0.0157027
743.296	0.0156989
743.374	0.0157208
743.453	0.0157330
743.531	0.0158156
743.609	0.0157664
743.687	0.0156910
743.765	0.0157987
743.843	0.0157733
743.921	0.0156095
743.999	0.0156496
744.078	0.0154865
744.156	0.0156652
744.234	0.0158237
744.312	0.0156187
744.390	0.0156078
744.468	0.0156085
744.546	0.0155315
744.624	0.0156017
744.703	0.0156065
744.781	0.0156417
744.859	0.0156069
744.937	0.0155923
745.015	0.0156979
745.093	0.0157359
745.171	0.0157874
745.249	0.0157671
745.328	0.0156824
745.406	0.0156837
745.484	0.0156818
745.562	0.0158475
745.640	0.0156298
745.718	0.0157051
745.796	0.0156472
745.874	0.0155839
745.953	0.0156760
746.031	0.0156596
746.109	0.0155746
746.187	0.0157533
746.265	0.0157207
746.343	0.0155975
746.421	0.0155887
746.499	0.0156077
746.578	0.0155789
746.656	0.0155807
746.734	0.0155064
746.812	0.0155847
746.890	0.0156882
746.968	0.0155357
747.046	0.0153910
747.124	0.0155009
747.203	0.0153563
747.281	0.0153539
747.359	0.0154804
747.437	0.0154955
747.515	0.0155767
747.593	0.0154047
747.671	0.0154609
747.749	0.0156841
747.828	0.0153567
747.906	0.0155116
747.984	0.0155353
748.062	0.0155589
748.140	0.0156314
748.218	0.0156634
748.296	0.0157007
748.374	0.0157243
748.453	0.0155651
748.531	0.0154737
748.609	0.0155757
748.687	0.0156361
748.765	0.0154933
748.843	0.0155196
748.921	0.0154749
748.999	0.0156564
749.078	0.0156134
749.156	0.0155846
749.234	0.0155894
749.312	0.0155040
749.390	0.0155123
749.468	0.0154838
749.546	0.0153935
749.624	0.0155480
749.703	0.0154432
749.781	0.0156134
749.859	0.0154082
749.937	0.0154689
750.015	0.0154813
750.093	0.0154858
750.171	0.0153838
750.249	0.0154130
750.328	0.0155073
750.406	0.0155217
750.484	0.0154402
750.562	0.0154906
750.640	0.0155547
750.718	0.0155711
750.796	0.0156345
750.874	0.0155570
750.953	0.0155575
751.031	0.0154592
751.109	0.0155446
751.187	0.0156647
751.265	0.0156653
751.343	0.0155656
751.421	0.0156553
751.499	0.0156570
751.578	0.0155206
751.656	0.0155503
751.734	0.0156253
751.812	0.0156570
751.890	0.0155672
751.968	0.0155048
752.046	0.0154504
752.124	0.0155844
752.203	0.0155167
752.281	0.0155672
752.359	0.0155353
752.437	0.0154385
752.515	0.0153357
752.593	0.0153692
752.671	0.0152348
752.749	0.0152968
752.828	0.0154764
752.906	0.0155554
752.984	0.0154272
753.062	0.0155066
753.140	0.0153649
753.218	0.0155334
753.296	0.0155666
753.374	0.0154770
753.453	0.0155739
753.531	0.0154842
753.609	0.0154443
753.687	0.0155325
753.765	0.0153887
753.843	0.0155984
753.921	0.0154906
753.999	0.0155407
754.078	0.0153983
754.156	0.0154239
754.234	0.0153578
754.312	0.0154269
754.390	0.0153724
754.468	0.0153976
754.546	0.0154697
754.624	0.0154295
754.703	0.0152649
754.781	0.0153464
754.859	0.0154169
754.937	0.0154215
755.015	0.0154922
755.093	0.0154747
755.171	0.0152936
755.249	0.0154919
755.328	0.0154436
755.406	0.0155005
755.484	0.0154424
755.562	0.0155338
755.640	0.0155275
755.718	0.0155463
755.796	0.0155559
755.874	0.0155225
755.953	0.0156345
756.031	0.0155293
756.109	0.0156702
756.187	0.0156719
756.265	0.0157703
756.343	0.0155764
756.421	0.0156519
756.499	0.0155427
756.578	0.0155744
756.656	0.0155653
756.734	0.0155092
756.812	0.0157605
756.890	0.0154946
756.968	0.0156075
757.046	0.0156069
757.124	0.0156208
757.203	0.0155472
757.281	0.0155977
757.359	0.0155422
757.437	0.0155040
757.515	0.0156375
757.593	0.0156199
757.671	0.0154706
757.749	0.0153765
757.828	0.0153724
757.906	0.0153706
757.984	0.0153999
758.062	0.0155836
758.140	0.0155279
758.218	0.0155233
758.296	0.0154263
758.374	0.0156011
758.453	0.0155999
758.531	0.0156644
758.609	0.0156017
758.687	0.0155540
758.765	0.0156686
758.843	0.0156807
758.921	0.0156782
758.999	0.0155904
759.078	0.0156298
759.156	0.0155676
759.234	0.0155779
759.312	0.0156627
759.390	0.0157456
759.468	0.0156953
759.546	0.0157214
759.624	0.0157372
759.703	0.0157501
759.781	0.0155878
759.859	0.0156042
759.937	0.0156401
760.015	0.0155915
760.093	0.0154127
760.171	0.0154189
760.249	0.0153996
760.328	0.0154804
760.406	0.0154288
760.484	0.0155368
760.562	0.0156660
760.640	0.0155309
760.718	0.0155333
760.796	0.0155713
760.874	0.0153813
760.953	0.0155405
761.031	0.0154659
761.109	0.0155436
761.187	0.0156377
761.265	0.0155466
761.343	0.0155163
761.421	0.0155408
761.499	0.0153642
761.578	0.0154269
761.656	0.0155574
761.734	0.0154811
761.812	0.0155825
761.890	0.0155267
761.968	0.0155196
762.046	0.0154894
762.124	0.0155527
762.203	0.0154535
762.281	0.0154912
762.359	0.0155589
762.437	0.0154700
762.515	0.0156054
762.593	0.0155296
762.671	0.0154983
762.749	0.0155506
762.828	0.0155843
762.906	0.0155138
762.984	0.0155963
763.062	0.0154334
763.140	0.0155595
763.218	0.0156403
763.296	0.0154874
763.374	0.0155846
763.453	0.0155394
763.531	0.0156597
763.609	0.0155663
763.687	0.0156966
763.765	0.0157217
763.843	0.0156693
763.921	0.0155719
763.999	0.0158882
764.078	0.0157775
764.156	0.0159350
764.234	0.0159049
764.312	0.0156809
764.390	0.0158986
764.468	0.0159214
764.546	0.0157962
764.624	0.0157326
764.703	0.0158875
764.781	0.0157849
764.859	0.0156665
764.937	0.0155858
765.015	0.0156784
765.093	0.0157851
765.171	0.0156479
765.249	0.0155730
765.328	0.0156923
765.406	0.0156980
765.484	0.0155787
765.562	0.0155182
765.640	0.0156062
765.718	0.0155864
765.796	0.0156515
765.874	0.0157880
765.953	0.0156521
766.031	0.0156698
766.109	0.0156968
766.187	0.0157444
766.265	0.0157219
766.343	0.0156838
766.421	0.0156152
766.499	0.0156288
766.578	0.0156401
766.656	0.0155010
766.734	0.0155064
766.812	0.0154114
766.890	0.0152459
766.968	0.0154446
767.046	0.0154667
767.124	0.0153879
767.203	0.0155262
767.281	0.0154091
767.359	0.0154469
767.437	0.0155325
767.515	0.0156554
767.593	0.0157112
767.671	0.0157098
767.749	0.0156134
767.828	0.0158155
767.906	0.0157983
767.984	0.0157873
768.062	0.0158208
768.140	0.0159045
768.218	0.0159142
768.296	0.0159256
768.374	0.0159312
768.453	0.0159799
768.531	0.0158981
768.609	0.0159444
768.687	0.0159106
768.765	0.0159568
768.843	0.0159150
768.921	0.0159169
768.999	0.0159034
769.078	0.0159262
769.156	0.0158183
769.234	0.0159142
769.312	0.0155889
769.390	0.0158269
769.468	0.0159027
769.546	0.0156448
769.624	0.0158110
769.703	0.0157847
769.781	0.0157478
769.859	0.0156071
769.937	0.0155222
770.015	0.0155148
770.093	0.0156178
770.171	0.0155366
770.249	0.0154146
770.328	0.0154079
770.406	0.0153778
770.484	0.0154290
770.562	0.0153676
770.640	0.0154279
770.718	0.0154661
770.796	0.0154775
770.874	0.0153816
770.953	0.0155624
771.031	0.0154494
771.109	0.0154003
771.187	0.0153310
771.265	0.0153874
771.343	0.0153693
771.421	0.0154018
771.499	0.0154423
771.578	0.0154530
771.656	0.0155377
771.734	0.0155586
771.812	0.0155421
771.890	0.0156073
771.968	0.0155554
772.046	0.0157319
772.124	0.0157555
772.203	0.0156989
772.281	0.0156419
772.359	0.0157658
772.437	0.0157024
772.515	0.0157333
772.593	0.0157915
772.671	0.0156174
772.749	0.0156632
772.828	0.0154680
772.906	0.0155532
772.984	0.0156567
773.062	0.0156232
773.140	0.0154726
773.218	0.0153721
773.296	0.0156432
773.374	0.0157372
773.453	0.0155799
773.531	0.0156649
773.609	0.0156887
773.687	0.0156501
773.765	0.0157481
773.843	0.0156351
773.921	0.0156109
773.999	0.0154855
774.078	0.0155886
774.156	0.0155142
774.234	0.0153786
774.312	0.0155827
774.390	0.0154596
774.468	0.0154128
774.546	0.0155759
774.624	0.0155510
774.703	0.0154217
774.781	0.0153844
774.859	0.0154051
774.937	0.0155912
775.015	0.0154594
775.093	0.0155491
775.171	0.0157131
775.249	0.0156207
775.328	0.0156575
775.406	0.0157303
775.484	0.0155842
775.562	0.0156657
775.640	0.0157311
775.718	0.0157257
775.796	0.0155888
775.874	0.0157014
775.953	0.0155916
776.031	0.0154576
776.109	0.0153477
776.187	0.0155149
776.265	0.0155662
776.343	0.0153724
776.421	0.0154095
776.499	0.0154026
776.578	0.0153337
776.656	0.0154874
776.734	0.0154986
776.812	0.0154319
776.890	0.0154625
776.968	0.0155543
777.046	0.0155869
777.124	0.0156837
777.203	0.0155563
777.281	0.0155329
777.359	0.0157612
777.437	0.0156825
777.515	0.0157504
777.593	0.0157903
777.671	0.0157790
777.749	0.0159656
777.828	0.0157841
777.906	0.0159084
777.984	0.0159281
778.062	0.0159648
778.140	0.0159146
778.218	0.0158290
778.296	0.0159456
778.374	0.0158384
778.453	0.0158533
778.531	0.0157765
778.609	0.0157532
778.687	0.0157782
778.765	0.0158273
778.843	0.0157871
778.921	0.0157274
778.999	0.0156181
779.078	0.0157632
779.156	0.0156493
779.234	0.0156113
779.312	0.0155552
779.390	0.0155264
779.468	0.0153964
779.546	0.0154328
779.624	0.0153561
779.703	0.0151511
779.781	0.0153678
779.859	0.0151633
779.937	0.0154355
780.015	0.0153130
780.093	0.0152106
780.171	0.0154542
780.249	0.0153723
780.328	0.0153011
780.406	0.0154156
780.484	0.0157030
780.562	0.0155930
780.640	0.0155009
780.718	0.0156211
780.796	0.0157349
780.874	0.0157670
780.953	0.0157963
781.031	0.0156939
781.109	0.0157826
781.187	0.0158305
781.265	0.0156638
781.343	0.0157237
781.421	0.0157665
781.499	0.0156966
781.578	0.0156397
781.656	0.0155935
781.734	0.0157352
781.812	0.0155605
781.890	0.0155652
781.968	0.0155930
782.046	0.0155234
782.124	0.0155621
782.203	0.0155047
782.281	0.0156454
782.359	0.0156255
782.437	0.0155682
782.515	0.0156526
782.593	0.0156200
782.671	0.0155618
782.749	0.0155907
782.828	0.0156567
782.906	0.0156233
782.984	0.0156871
783.062	0.0157928
783.140	0.0158020
783.218	0.0157095
783.296	0.0157310
783.374	0.0156975
783.453	0.0157245
783.531	0.0157072
783.609	0.0156699
783.687	0.0156494
783.765	0.0158195
783.843	0.0157027
783.921	0.0157200
783.999	0.0154290
784.078	0.0155574
784.156	0.0156758
784.234	0.0155246
784.312	0.0155925
784.390	0.0154879
784.468	0.0154639
784.546	0.0152609
784.624	0.0153010
784.703	0.0152953
784.781	0.0154486
784.859	0.0154070
784.937	0.0154971
785.015	0.0153741
785.093	0.0155088
785.171	0.0155161
785.249	0.0154929
785.328	0.0155543
785.406	0.0155713
785.484	0.0155455
785.562	0.0155017
785.640	0.0155067
785.718	0.0156322
785.796	0.0158318
785.874	0.0156252
785.953	0.0156818
786.031	0.0157586
786.109	0.0158159
786.187	0.0157414
786.265	0.0156152
786.343	0.0157398
786.421	0.0156623
786.499	0.0157497
786.578	0.0157235
786.656	0.0157133
786.734	0.0158305
786.812	0.0159176
786.890	0.0158723
786.968	0.0159159
787.046	0.0160383
787.124	0.0159507
787.203	0.0159394
787.281	0.0160384
787.359	0.0159770
787.437	0.0159678
787.515	0.0160845
787.593	0.0159514
787.671	0.0157924
787.749	0.0158709
787.828	0.0158711
787.906	0.0157990
787.984	0.0157735
788.062	0.0156515
788.140	0.0156566
788.218	0.0156770
788.296	0.0155891
788.374	0.0154870
788.453	0.0155954
788.531	0.0155539
788.609	0.0155157
788.687	0.0153890
788.765	0.0152782
788.843	0.0154048
788.921	0.0152917
788.999	0.0152338
789.078	0.0153028
789.156	0.0152441
789.234	0.0150880
789.312	0.0150755
789.390	0.0149847
789.468	0.0151106
789.546	0.0151341
789.624	0.0150792
789.703	0.0151717
789.781	0.0152327
789.859	0.0153361
789.937	0.0152968
790.015	0.0152399
790.093	0.0154844
790.171	0.0154536
790.249	0.0155852
790.328	0.0156151
790.406	0.0156067
790.484	0.0156009
790.562	0.0158216
790.640	0.0158282
790.718	0.0159187
790.796	0.0157674
790.874	0.0158761
790.953	0.0157755
791.031	0.0159221
791.109	0.0161089
791.187	0.0160412
791.265	0.0160194
791.343	0.0160993
791.421	0.0160508
791.499	0.0160983
791.578	0.0159486
791.656	0.0160869
791.734	0.0157767
791.812	0.0158114
791.890	0.0158317
791.968	0.0157819
792.046	0.0156822
792.124	0.0156290
792.203	0.0155959
792.281	0.0155096
792.359	0.0154182
792.437	0.0153989
792.515	0.0156463
792.593	0.0154942
792.671	0.0154367
792.749	0.0153300
792.828	0.0153136
792.906	0.0155389
792.984	0.0154594
793.062	0.0153519
793.140	0.0154587
793.218	0.0153766
793.296	0.0153802
793.374	0.0152859
793.453	0.0153667
793.531	0.0154429
793.609	0.0154436
793.687	0.0153064
793.765	0.0153959
793.843	0.0154165
793.921	0.0153659
793.999	0.0154472
794.078	0.0154148
794.156	0.0152061
794.234	0.0153928
794.312	0.0154651
794.390	0.0154430
794.468	0.0154790
794.546	0.0154930
794.624	0.0154871
794.703	0.0155716
794.781	0.0155543
794.859	0.0156541
794.937	0.0156387
795.015	0.0156573
795.093	0.0157812
795.171	0.0156847
795.249	0.0157198
795.328	0.0158681
795.406	0.0158406
795.484	0.0158319
795.562	0.0159306
795.640	0.0159216
795.718	0.0158550
795.796	0.0159099
795.874	0.0158654
795.953	0.0159386
796.031	0.0159354
796.109	0.0158465
796.187	0.0158456
796.265	0.0158157
796.343	0.0157950
796.421	0.0155938
796.499	0.0157909
796.578	0.0157860
796.656	0.0156752
796.734	0.0156602
796.812	0.0155370
796.890	0.0155230
796.968	0.0154156
797.046	0.0154877
797.124	0.0154233
797.203	0.0154080
797.281	0.0152757
797.359	0.0154105
797.437	0.0153864
797.515	0.0154350
797.593	0.0154091
797.671	0.0153915
797.749	0.0154258
797.828	0.0154353
797.906	0.0154098
797.984	0.0154645
798.062	0.0155272
798.140	0.0154528
798.218	0.0155756
798.296	0.0155492
798.374	0.0156092
798.453	0.0155344
798.531	0.0155394
798.609	0.0157095
798.687	0.0156208
798.765	0.0156857
798.843	0.0155972
798.921	0.0156318
798.999	0.0156525
799.078	0.0156898
799.156	0.0156750
799.234	0.0157877
799.312	0.0158183
799.390	0.0156331
799.468	0.0156154
799.546	0.0157046
799.624	0.0158039
799.703	0.0156861
799.781	0.0157117
799.859	0.0157445
799.937	0.0157578
800.015	0.0158051
800.093	0.0157835
800.171	0.0157247
800.249	0.0158135
800.328	0.0159531
800.406	0.0157482
800.484	0.0157072
800.562	0.0158609
800.640	0.0158412
800.718	0.0158412
800.796	0.0158452
800.874	0.0158457
800.953	0.0158686
801.031	0.0156744
801.109	0.0158292
801.187	0.0155503
801.265	0.0155485
801.343	0.0155296
801.421	0.0155298
801.499	0.0155771
801.578	0.0154830
801.656	0.0153802
801.734	0.0152622
801.812	0.0153102
801.890	0.0153555
801.968	0.0153277
802.046	0.0152686
802.124	0.0151779
802.203	0.0153392
802.281	0.0153005
802.359	0.0153522
802.437	0.0154588
802.515	0.0154921
802.593	0.0153134
802.671	0.0153844
802.749	0.0157516
802.828	0.0154922
802.906	0.0154728
802.984	0.0155272
803.062	0.0156915
803.140	0.0156753
803.218	0.0156879
803.296	0.0156219
803.374	0.0156079
803.453	0.0157526
803.531	0.0157681
803.609	0.0157606
803.687	0.0157656
803.765	0.0157098
803.843	0.0157543
803.921	0.0158104
803.999	0.0158781
804.078	0.0159986
804.156	0.0158066
804.234	0.0156887
804.312	0.0158262
804.390	0.0158022
804.468	0.0158762
804.546	0.0157829
804.624	0.0158384
804.703	0.0158295
804.781	0.0158655
804.859	0.0157832
804.937	0.0158652
805.015	0.0159703
805.093	0.0158402
805.171	0.0158856
805.249	0.0156879
805.328	0.0156704
805.406	0.0157828
805.484	0.0157917
805.562	0.0155927
805.640	0.0157989
805.718	0.0156956
805.796	0.0157828
805.874	0.0156393
805.953	0.0157112
806.031	0.0155609
806.109	0.0155091
806.187	0.0155981
806.265	0.0154543
806.343	0.0155099
806.421	0.0155006
806.499	0.0154221
806.578	0.0154659
806.656	0.0153782
806.734	0.0153474
806.812	0.0154620
806.890	0.0154562
806.968	0.0155240
807.046	0.0154723
807.124	0.0156210
807.203	0.0155447
807.281	0.0155394
807.359	0.0155342
807.437	0.0156366
807.515	0.0155942
807.593	0.0155289
807.671	0.0155048
807.749	0.0158165
807.828	0.0158144
807.906	0.0158671
807.984	0.0157673
808.062	0.0159283
808.140	0.0158141
808.218	0.0157285
808.296	0.0159062
808.374	0.0158844
808.453	0.0158611
808.531	0.0158952
808.609	0.0159425
808.687	0.0159741
808.765	0.0158147
808.843	0.0158893
808.921	0.0161263
808.999	0.0160258
809.078	0.0158023
809.156	0.0158152
809.234	0.0158537
809.312	0.0158094
809.390	0.0157429
809.468	0.0157992
809.546	0.0157643
809.624	0.0156762
809.703	0.0156303
809.781	0.0157304
809.859	0.0155234
809.937	0.0153304
810.015	0.0154399
810.093	0.0152924
810.171	0.0153889
810.249	0.0153112
810.328	0.0154035
810.406	0.0153883
810.484	0.0154393
810.562	0.0153202
810.640	0.0154044
810.718	0.0153330
810.796	0.0152247
810.874	0.0152924
810.953	0.0154498
811.031	0.0154272
811.109	0.0154647
811.187	0.0152760
811.265	0.0154581
811.343	0.0153778
811.421	0.0155647
811.499	0.0155590
811.578	0.0155309
811.656	0.0156808
811.734	0.0156744
811.812	0.0155736
811.890	0.0156078
811.968	0.0157142
812.046	0.0156826
812.124	0.0158247
812.203	0.0156757
812.281	0.0157465
812.359	0.0157513
812.437	0.0158105
812.515	0.0158173
812.593	0.0158259
812.671	0.0157499
812.749	0.0158546
812.828	0.0158533
812.906	0.0157560
812.984	0.0158100
813.062	0.0158165
813.140	0.0157571
813.218	0.0156796
813.296	0.0156943
813.374	0.0156583
813.453	0.0155862
813.531	0.0155000
813.609	0.0153658
813.687	0.0153654
813.765	0.0153847
813.843	0.0152993
813.921	0.0154218
813.999	0.0152721
814.078	0.0155526
814.156	0.0154227
814.234	0.0153467
814.312	0.0153554
814.390	0.0153410
814.468	0.0154301
814.546	0.0154707
814.624	0.0153323
814.703	0.0154501
814.781	0.0154600
814.859	0.0155163
814.937	0.0153941
815.015	0.0155350
815.093	0.0155221
815.171	0.0154819
815.249	0.0154688
815.328	0.0153658
815.406	0.0155087
815.484	0.0157193
815.562	0.0156235
815.640	0.0156996
815.718	0.0157221
815.796	0.0156627
815.874	0.0156227
815.953	0.0156073
816.031	0.0157923
816.109	0.0157774
816.187	0.0157323
816.265	0.0155655
816.343	0.0156806
816.421	0.0157338
816.499	0.0156653
816.578	0.0156593
816.656	0.0156537
816.734	0.0157710
816.812	0.0155935
816.890	0.0155713
816.968	0.0156277
817.046	0.0154884
817.124	0.0154867
817.203	0.0156356
817.281	0.0155621
817.359	0.0156777
817.437	0.0156964
817.515	0.0156434
817.593	0.0155746
817.671	0.0155723
817.749	0.0156300
817.828	0.0156381
817.906	0.0155276
817.984	0.0155946
818.062	0.0155508
818.140	0.0156177
818.218	0.0155932
818.296	0.0155408
818.374	0.0154739
818.453	0.0155141
818.531	0.0154485
818.609	0.0153587
818.687	0.0153268
818.765	0.0155612
818.843	0.0154864
818.921	0.0154811
818.999	0.0154137
819.078	0.0153941
819.156	0.0154279
819.234	0.0155338
819.312	0.0154231
819.390	0.0155079
819.468	0.0157328
819.546	0.0155964
819.624	0.0155119
819.703	0.0153791
819.781	0.0155656
819.859	0.0154213
819.937	0.0154756
820.015	0.0156142
820.093	0.0155473
820.171	0.0155274
820.249	0.0154861
820.328	0.0155785
820.406	0.0155926
820.484	0.0155859
820.562	0.0157045
820.640	0.0157210
820.718	0.0156661
820.796	0.0156209
820.874	0.0157584
820.953	0.0158038
821.031	0.0157310
821.109	0.0157325
821.187	0.0158168
821.265	0.0158382
821.343	0.0158417
821.421	0.0157858
821.499	0.0158324
821.578	0.0156832
821.656	0.0158457
821.734	0.0159779
821.812	0.0156973
821.890	0.0156612
821.968	0.0157722
822.046	0.0156734
822.124	0.0157451
822.203	0.0157808
822.281	0.0157100
822.359	0.0156756
822.437	0.0155972
822.515	0.0155331
822.593	0.0155743
822.671	0.0155479
822.749	0.0154581
822.828	0.0155117
822.906	0.0155698
822.984	0.0154427
823.062	0.0154524
823.140	0.0155508
823.218	0.0154308
823.296	0.0155044
823.374	0.0153720
823.453	0.0153042
823.531	0.0152858
823.609	0.0151172
823.687	0.0154641
823.765	0.0155105
823.843	0.0153836
823.921	0.0153394
823.999	0.0153751
824.078	0.0156354
824.156	0.0155673
824.234	0.0155757
824.312	0.0156764
824.390	0.0157536
824.468	0.0157838
824.546	0.0158345
824.624	0.0158588
824.703	0.0159032
824.781	0.0158841
824.859	0.0158748
824.937	0.0157638
825.015	0.0158481
825.093	0.0158727
825.171	0.0158224
825.249	0.0158595
825.328	0.0158537
825.406	0.0156908
825.484	0.0154893
825.562	0.0157190
825.640	0.0157169
825.718	0.0156832
825.796	0.0155885
825.874	0.0156973
825.953	0.0156394
826.031	0.0157275
826.109	0.0157637
826.187	0.0155707
826.265	0.0156724
826.343	0.0155508
826.421	0.0154963
826.499	0.0154862
826.578	0.0154872
826.656	0.0153542
826.734	0.0154742
826.812	0.0154339
826.890	0.0153898
826.968	0.0153979
827.046	0.0152166
827.124	0.0152724
827.203	0.0153747
827.281	0.0153878
827.359	0.0154424
827.437	0.0155443
827.515	0.0155643
827.593	0.0156662
827.671	0.0156461
827.749	0.0159942
827.828	0.0158841
827.906	0.0160614
827.984	0.0160073
828.062	0.0162001
828.140	0.0161605
828.218	0.0161906
828.296	0.0159966
828.374	0.0160982
828.453	0.0161169
828.531	0.0160483
828.609	0.0160014
828.687	0.0160684
828.765	0.0160061
828.843	0.0157766
828.921	0.0157825
828.999	0.0157839
829.078	0.0156590
829.156	0.0155469
829.234	0.0156057
829.312	0.0155208
829.390	0.0154150
829.468	0.0153141
829.546	0.0152812
829.624	0.0153268
829.703	0.0152763
829.781	0.0152280
829.859	0.0150973
829.937	0.0151844
830.015	0.0151517
830.093	0.0152989
830.171	0.0150951
830.249	0.0152820
830.328	0.0155703
830.406	0.0154278
830.484	0.0156236
830.562	0.0156741
830.640	0.0156818
830.718	0.0158649
830.796	0.0158895
830.874	0.0160555
830.953	0.0160301
831.031	0.0161537
831.109	0.0159599
831.187	0.0159692
831.265	0.0161231
831.343	0.0161354
831.421	0.0160464
831.499	0.0161668
831.578	0.0160947
831.656	0.0159949
831.734	0.0159093
831.812	0.0160712
831.890	0.0159046
831.968	0.0158895
832.046	0.0157854
832.124	0.0158437
832.203	0.0156526
832.281	0.0155717
832.359	0.0155325
832.437	0.0155622
832.515	0.0154361
832.593	0.0154299
832.671	0.0155588
832.749	0.0155012
832.828	0.0155713
832.906	0.0153310
832.984	0.0153947
833.062	0.0153623
833.140	0.0153722
833.218	0.0153472
833.296	0.0154951
833.374	0.0155280
833.453	0.0154308
833.531	0.0154427
833.609	0.0154346
833.687	0.0153791
833.765	0.0155259
833.843	0.0155634
833.921	0.0155414
833.999	0.0155593
834.078	0.0155971
834.156	0.0156481
834.234	0.0157690
834.312	0.0157763
834.390	0.0156408
834.468	0.0157422
834.546	0.0156680
834.624	0.0157263
834.703	0.0158141
834.781	0.0156169
834.859	0.0157606
834.937	0.0156185
835.015	0.0156431
835.093	0.0156002
835.171	0.0155352
835.249	0.0156767
835.328	0.0157171
835.406	0.0156995
835.484	0.0158314
835.562	0.0158324
835.640	0.0159209
835.718	0.0156976
835.796	0.0157690
835.874	0.0158566
835.953	0.0158293
836.031	0.0157302
836.109	0.0157092
836.187	0.0158350
836.265	0.0158083
836.343	0.0157216
836.421	0.0156245
836.499	0.0155521
836.578	0.0155531
836.656	0.0155602
836.734	0.0153957
836.812	0.0153487
836.890	0.0153960
836.968	0.0154649
837.046	0.0155470
837.124	0.0155800
837.203	0.0155987
837.281	0.0155514
837.359	0.0155604
837.437	0.0157145
837.515	0.0155497
837.593	0.0155398
837.671	0.0154957
837.749	0.0154955
837.828	0.0155624
837.906	0.0155659
837.984	0.0154851
838.062	0.0154962
838.140	0.0155982
838.218	0.0155199
838.296	0.0155334
838.374	0.0154738
838.453	0.0155512
838.531	0.0155306
838.609	0.0154937
838.687	0.0154910
838.765	0.0156718
838.843	0.0155760
838.921	0.0155804
838.999	0.0156466
839.078	0.0155267
839.156	0.0156253
839.234	0.0157073
839.312	0.0156144
839.390	0.0157139
839.468	0.0155762
839.546	0.0155702
839.624	0.0155834
839.703	0.0156857
839.781	0.0156554
839.859	0.0156739
839.937	0.0156321
840.015	0.0156326
840.093	0.0155565
840.171	0.0155531
840.249	0.0156688
840.328	0.0155932
840.406	0.0155696
840.484	0.0155663
840.562	0.0156100
840.640	0.0154644
840.718	0.0155726
840.796	0.0157000
840.874	0.0157185
840.953	0.0155524
841.031	0.0156591
841.109	0.0156494
841.187	0.0154931
841.265	0.0156003
841.343	0.0156971
841.421	0.0155805
841.499	0.0155643
841.578	0.0156807
841.656	0.0156715
841.734	0.0158237
841.812	0.0156161
841.890	0.0156940
841.968	0.0157590
842.046	0.0156549
842.124	0.0156679
842.203	0.0157359
842.281	0.0158564
842.359	0.0157819
842.437	0.0158228
842.515	0.0158857
842.593	0.0157230
842.671	0.0157845
842.749	0.0158978
842.828	0.0158031
842.906	0.0155982
842.984	0.0157664
843.062	0.0157374
843.140	0.0157433
843.218	0.0158632
843.296	0.0156652
843.374	0.0157240
843.453	0.0160188
843.531	0.0157059
843.609	0.0157999
843.687	0.0157242
843.765	0.0156506
843.843	0.0156729
843.921	0.0156351
843.999	0.0156415
844.078	0.0155556
844.156	0.0155853
844.234	0.0155453
844.312	0.0154472
844.390	0.0154913
844.468	0.0154748
844.546	0.0153947
844.624	0.0155158
844.703	0.0154199
844.781	0.0154314
844.859	0.0155054
844.937	0.0153780
845.015	0.0154903
845.093	0.0155610
845.171	0.0155749
845.249	0.0155875
845.328	0.0157630
845.406	0.0157038
845.484	0.0157619
845.562	0.0157320
845.640	0.0157887
845.718	0.0159133
845.796	0.0159267
845.874	0.0158932
845.953	0.0160416
846.031	0.0161142
846.109	0.0159110
846.187	0.0161103
846.265	0.0160039
846.343	0.0160765
846.421	0.0160034
846.499	0.0159663
846.578	0.0159969
846.656	0.0160064
846.734	0.0159521
846.812	0.0159270
846.890	0.0159283
846.968	0.0158879
847.046	0.0158447
847.124	0.0157252
847.203	0.0157970
847.281	0.0157008
847.359	0.0156255
847.437	0.0155438
847.515	0.0154740
847.593	0.0155206
847.671	0.0156208
847.749	0.0154737
847.828	0.0154045
847.906	0.0154086
847.984	0.0155860
848.062	0.0154987
848.140	0.0154397
848.218	0.0155092
848.296	0.0155249
848.374	0.0155447
848.453	0.0155572
848.531	0.0154534
848.609	0.0155058
848.687	0.0154970
848.765	0.0155776
848.843	0.0155593
848.921	0.0156725
848.999	0.0156450
849.078	0.0158073
849.156	0.0158130
849.234	0.0157201
849.312	0.0157947
849.390	0.0158430
849.468	0.0157867
849.546	0.0157855
849.624	0.0158384
849.703	0.0159401
849.781	0.0158315
849.859	0.0157858
849.937	0.0157832
850.015	0.0158662
850.093	0.0157993
850.171	0.0156219
850.249	0.0157336
850.328	0.0158205
850.406	0.0156773
850.484	0.0157524
850.562	0.0157479
850.640	0.0156497
850.718	0.0156709
850.796	0.0156882
850.874	0.0158221
850.953	0.0158035
851.031	0.0157612
851.109	0.0156734
851.187	0.0156420
851.265	0.0155473
851.343	0.0156232
851.421	0.0156320
851.499	0.0156063
851.578	0.0155978
851.656	0.0155428
851.734	0.0154151
851.812	0.0154396
851.890	0.0154659
851.968	0.0156252
852.046	0.0153030
852.124	0.0154623
852.203	0.0154797
852.281	0.0155331
852.359	0.0155092
852.437	0.0155627
852.515	0.0155979
852.593	0.0156380
852.671	0.0156027
852.749	0.0156838
852.828	0.0156491
852.906	0.0156216
852.984	0.0158595
853.062	0.0157961
853.140	0.0157819
853.218	0.0157457
853.296	0.0156715
853.374	0.0156754
853.453	0.0156767
853.531	0.0156931
853.609	0.0158109
853.687	0.0158542
853.765	0.0158841
853.843	0.0158231
853.921	0.0157468
853.999	0.0158540
854.078	0.0158259
854.156	0.0157095
854.234	0.0158044
854.312	0.0158457
854.390	0.0158144
854.468	0.0157739
854.546	0.0157481
854.624	0.0157056
854.703	0.0155880
854.781	0.0156210
854.859	0.0155385
854.937	0.0153152
855.015	0.0155062
855.093	0.0153754
855.171	0.0153247
855.249	0.0153059
855.328	0.0153326
855.406	0.0152534
855.484	0.0153044
855.562	0.0154109
855.640	0.0153540
855.718	0.0153757
855.796	0.0153897
855.874	0.0153693
855.953	0.0153510
856.031	0.0154078
856.109	0.0155196
856.187	0.0155163
856.265	0.0156216
856.343	0.0155607
856.421	0.0154359
856.499	0.0155170
856.578	0.0155604
856.656	0.0157089
856.734	0.0155114
856.812	0.0154721
856.890	0.0156888
856.968	0.0155058
857.046	0.0155800
857.124	0.0156094
857.203	0.0156031
857.281	0.0154422
857.359	0.0155051
857.437	0.0154523
857.515	0.0154438
857.593	0.0153400
857.671	0.0153401
857.749	0.0155374
857.828	0.0153506
857.906	0.0153381
857.984	0.0155692
858.062	0.0154360
858.140	0.0153491
858.218	0.0154791
858.296	0.0154762
858.374	0.0155287
858.453	0.0156840
858.531	0.0155894
858.609	0.0155390
858.687	0.0154952
858.765	0.0156804
858.843	0.0158341
858.921	0.0157201
858.999	0.0156174
859.078	0.0157455
859.156	0.0157788
859.234	0.0156704
859.312	0.0156568
859.390	0.0156547
859.468	0.0156578
859.546	0.0155906
859.624	0.0155027
859.703	0.0155307
859.781	0.0155759
859.859	0.0155995
859.937	0.0155564
860.015	0.0154930
860.093	0.0155517
860.171	0.0156253
860.249	0.0154429
860.328	0.0153925
860.406	0.0156331
860.484	0.0155725
860.562	0.0155429
860.640	0.0157424
860.718	0.0156991
860.796	0.0157825
860.874	0.0156146
860.953	0.0155720
861.031	0.0156525
861.109	0.0155505
861.187	0.0156484
861.265	0.0156725
861.343	0.0154987
861.421	0.0154488
861.499	0.0155679
861.578	0.0156316
861.656	0.0155544
861.734	0.0154720
861.812	0.0154773
861.890	0.0155843
861.968	0.0155779
862.046	0.0155667
862.124	0.0154852
862.203	0.0155661
862.281	0.0156242
862.359	0.0155187
862.437	0.0155531
862.515	0.0156781
862.593	0.0155125
862.671	0.0155779
862.749	0.0156501
862.828	0.0156802
862.906	0.0156606
862.984	0.0157884
863.062	0.0157589
863.140	0.0157175
863.218	0.0158112
863.296	0.0157750
863.374	0.0156762
863.453	0.0158225
863.531	0.0156792
863.609	0.0158244
863.687	0.0156431
863.765	0.0158344
863.843	0.0157978
863.921	0.0157311
863.999	0.0157458
864.078	0.0159035
864.156	0.0156545
864.234	0.0156466
864.312	0.0156116
864.390	0.0156625
864.468	0.0156664
864.546	0.0156334
864.624	0.0156123
864.703	0.0157235
864.781	0.0154007
864.859	0.0154720
864.937	0.0155854
865.015	0.0156061
865.093	0.0156554
865.171	0.0155370
865.249	0.0155699
865.328	0.0156518
865.406	0.0156319
865.484	0.0157192
865.562	0.0156086
865.640	0.0155849
865.718	0.0156802
865.796	0.0156133
865.874	0.0156271
865.953	0.0155253
866.031	0.0158308
866.109	0.0157751
866.187	0.0158687
866.265	0.0157046
866.343	0.0157462
866.421	0.0157333
866.499	0.0157106
866.578	0.0157366
866.656	0.0156673
866.734	0.0156580
866.812	0.0155933
866.890	0.0157533
866.968	0.0157656
867.046	0.0157015
867.124	0.0156772
867.203	0.0157047
867.281	0.0156869
867.359	0.0157062
867.437	0.0158538
867.515	0.0157255
867.593	0.0158282
867.671	0.0158095
867.749	0.0157359
867.828	0.0156877
867.906	0.0157812
867.984	0.0158967
868.062	0.0157629
868.140	0.0158100
868.218	0.0158544
868.296	0.0157557
868.374	0.0159170
868.453	0.0158158
868.531	0.0158568
868.609	0.0157809
868.687	0.0157678
868.765	0.0157763
868.843	0.0157297
868.921	0.0156752
868.999	0.0157164
869.078	0.0156878
869.156	0.0156144
869.234	0.0157168
869.312	0.0156689
869.390	0.0156310
869.468	0.0155262
869.546	0.0156279
869.624	0.0157172
869.703	0.0156284
869.781	0.0155319
869.859	0.0154405
869.937	0.0155950
870.015	0.0156311
870.093	0.0156897
870.171	0.0155187
870.249	0.0155099
870.328	0.0155983
870.406	0.0156631
870.484	0.0155752
870.562	0.0156064
870.640	0.0158657
870.718	0.0156862
870.796	0.0157131
870.874	0.0156459
870.953	0.0157244
871.031	0.0158650
871.109	0.0159048
871.187	0.0158884
871.265	0.0158186
871.343	0.0158413
871.421	0.0159035
871.499	0.0158482
871.578	0.0158915
871.656	0.0157321
871.734	0.0158757
871.812	0.0158606
871.890	0.0157413
871.968	0.0155929
872.046	0.0157557
872.124	0.0155398
872.203	0.0156930
872.281	0.0157669
872.359	0.0157703
872.437	0.0157287
872.515	0.0155334
872.593	0.0155004
872.671	0.0156331
872.749	0.0156145
872.828	0.0156420
872.906	0.0155742
872.984	0.0155828
873.062	0.0155273
873.140	0.0155816
873.218	0.0156719
873.296	0.0155906
873.374	0.0155991
873.453	0.0155056
873.531	0.0155659
873.609	0.0155748
873.687	0.0154768
873.765	0.0156000
873.843	0.0156545
873.921	0.0155903
873.999	0.0156242
874.078	0.0156077
874.156	0.0156326
874.234	0.0155428
874.312	0.0155276
874.390	0.0156351
874.468	0.0155316
874.546	0.0154525
874.624	0.0154476
874.703	0.0155764
874.781	0.0154156
874.859	0.0154797
874.937	0.0154565
875.015	0.0154451
875.093	0.0154597
875.171	0.0154950
875.249	0.0156235
875.328	0.0156321
875.406	0.0155349
875.484	0.0154996
875.562	0.0155678
875.640	0.0156193
875.718	0.0157841
875.796	0.0155451
875.874	0.0157343
875.953	0.0157919
876.031	0.0156099
876.109	0.0157030
876.187	0.0157545
876.265	0.0157136
876.343	0.0155052
876.421	0.0156928
876.499	0.0157633
876.578	0.0157481
876.656	0.0157920
876.734	0.0156253
876.812	0.0157113
876.890	0.0157059
876.968	0.0156430
877.046	0.0157878
877.124	0.0156411
877.203	0.0157921
877.281	0.0158156
877.359	0.0156209
877.437	0.0156365
877.515	0.0156672
877.593	0.0158223
877.671	0.0156206
877.749	0.0156602
877.828	0.0155455
877.906	0.0155060
877.984	0.0155633
878.062	0.0156345
878.140	0.0156042
878.218	0.0155795
878.296	0.0156582
878.374	0.0155663
878.453	0.0157648
878.531	0.0156313
878.609	0.0157484
878.687	0.0155186
878.765	0.0156234
878.843	0.0156568
878.921	0.0156475
878.999	0.0156136
879.078	0.0156483
879.156	0.0155280
879.234	0.0155726
879.312	0.0156854
879.390	0.0156233
879.468	0.0154945
879.546	0.0154330
879.624	0.0156377
879.703	0.0156151
879.781	0.0154841
879.859	0.0157097
879.937	0.0158030
880.015	0.0157462
880.093	0.0156102
880.171	0.0156838
880.249	0.0156045
880.328	0.0157298
880.406	0.0158224
880.484	0.0158195
880.562	0.0156958
880.640	0.0157209
880.718	0.0156406
880.796	0.0156677
880.874	0.0155595
880.953	0.0156388
881.031	0.0156156
881.109	0.0156720
881.187	0.0156194
881.265	0.0155527
881.343	0.0156274
881.421	0.0156273
881.499	0.0156726
881.578	0.0154837
881.656	0.0156926
881.734	0.0156221
881.812	0.0156461
881.890	0.0155451
881.968	0.0155100
882.046	0.0155560
882.124	0.0154264
882.203	0.0155091
882.281	0.0155106
882.359	0.0154949
882.437	0.0155282
882.515	0.0154986
882.593	0.0155978
882.671	0.0155160
882.749	0.0154558
882.828	0.0154769
882.906	0.0154793
882.984	0.0154351
883.062	0.0153358
883.140	0.0153957
883.218	0.0154251
883.296	0.0155459
883.374	0.0155061
883.453	0.0153827
883.531	0.0155194
883.609	0.0155807
883.687	0.0154510
883.765	0.0155669
883.843	0.0155349
883.921	0.0155925
883.999	0.0156541
884.078	0.0154261
884.156	0.0154816
884.234	0.0156827
884.312	0.0154783
884.390	0.0154762
884.468	0.0155347
884.546	0.0155214
884.624	0.0156485
884.703	0.0155019
884.781	0.0154719
884.859	0.0154784
884.937	0.0153705
885.015	0.0154725
885.093	0.0154142
885.171	0.0154885
885.249	0.0153841
885.328	0.0154942
885.406	0.0155830
885.484	0.0155350
885.562	0.0155455
885.640	0.0155711
885.718	0.0155633
885.796	0.0155332
885.874	0.0155237
885.953	0.0155397
886.031	0.0155286
886.109	0.0156143
886.187	0.0156535
886.265	0.0155645
886.343	0.0155025
886.421	0.0155299
886.499	0.0155234
886.578	0.0155662
886.656	0.0155925
886.734	0.0156907
886.812	0.0155694
886.890	0.0155951
886.968	0.0156369
887.046	0.0155798
887.124	0.0156787
887.203	0.0156878
887.281	0.0156961
887.359	0.0156738
887.437	0.0154723
887.515	0.0155522
887.593	0.0157492
887.671	0.0156702
887.749	0.0155981
887.828	0.0156227
887.906	0.0155969
887.984	0.0155413
888.062	0.0156262
888.140	0.0155884
888.218	0.0156112
888.296	0.0156374
888.374	0.0155269
888.453	0.0155869
888.531	0.0155779
888.609	0.0155975
888.687	0.0155526
888.765	0.0155766
888.843	0.0155826
888.921	0.0154710
888.999	0.0155305
889.078	0.0154884
889.156	0.0155911
889.234	0.0155675
889.312	0.0156179
889.390	0.0155286
889.468	0.0156660
889.546	0.0155936
889.624	0.0155267
889.703	0.0156106
889.781	0.0155950
889.859	0.0156695
889.937	0.0156050
890.015	0.0156702
890.093	0.0156841
890.171	0.0156281
890.249	0.0156071
890.328	0.0156107
890.406	0.0155824
890.484	0.0155233
890.562	0.0156186
890.640	0.0157042
890.718	0.0156151
890.796	0.0155450
890.874	0.0156511
890.953	0.0155640
891.031	0.0156193
891.109	0.0156124
891.187	0.0156306
891.265	0.0155180
891.343	0.0155585
891.421	0.0157206
891.499	0.0155795
891.578	0.0155737
891.656	0.0155231
891.734	0.0156282
891.812	0.0155622
891.890	0.0156149
891.968	0.0156099
892.046	0.0157420
892.124	0.0157511
892.203	0.0156352
892.281	0.0156458
892.359	0.0157421
892.437	0.0156207
892.515	0.0157014
892.593	0.0155958
892.671	0.0157410
892.749	0.0157146
892.828	0.0156468
892.906	0.0155925
892.984	0.0156983
893.062	0.0155925
893.140	0.0157429
893.218	0.0156310
893.296	0.0156124
893.374	0.0157073
893.453	0.0157182
893.531	0.0156631
893.609	0.0155788
893.687	0.0155407
893.765	0.0155221
893.843	0.0155193
893.921	0.0156496
893.999	0.0157096
894.078	0.0156734
894.156	0.0155766
894.234	0.0155730
894.312	0.0155521
894.390	0.0155264
894.468	0.0155147
894.546	0.0156141
894.624	0.0157770
894.703	0.0157265
894.781	0.0157298
894.859	0.0157048
894.937	0.0158391
895.015	0.0156093
895.093	0.0155627
895.171	0.0157227
895.249	0.0158003
895.328	0.0156647
895.406	0.0156856
895.484	0.0157790
895.562	0.0157837
895.640	0.0156960
895.718	0.0156197
895.796	0.0156682
895.874	0.0157455
895.953	0.0156213
896.031	0.0155912
896.109	0.0156752
896.187	0.0156789
896.265	0.0156540
896.343	0.0155780
896.421	0.0155574
896.499	0.0156758
896.578	0.0157097
896.656	0.0158192
896.734	0.0157266
896.812	0.0155643
896.890	0.0158203
896.968	0.0157421
897.046	0.0156476
897.124	0.0156541
897.203	0.0156920
897.281	0.0157089
897.359	0.0156963
897.437	0.0157211
897.515	0.0156366
897.593	0.0157359
897.671	0.0156558
897.749	0.0154958
897.828	0.0155814
897.906	0.0155779
897.984	0.0155853
898.062	0.0156792
898.140	0.0155444
898.218	0.0155744
898.296	0.0155893
898.374	0.0155296
898.453	0.0154303
898.531	0.0155952
898.609	0.0156120
898.687	0.0154816
898.765	0.0154917
898.843	0.0157219
898.921	0.0155842
898.999	0.0154466
899.078	0.0156320
899.156	0.0157098
899.234	0.0156237
899.312	0.0156094
899.390	0.0156271
899.468	0.0156550
899.546	0.0155901
899.624	0.0156731
899.703	0.0156940
899.781	0.0157882
899.859	0.0156759
899.937	0.0157144
900.015	0.0158601
900.093	0.0157384
900.171	0.0156166
900.249	0.0157323
900.328	0.0157736
900.406	0.0157941
900.484	0.0158457
900.562	0.0157539
900.640	0.0158833
900.718	0.0158785
900.796	0.0157054
900.874	0.0156458
900.953	0.0155521
901.031	0.0156666
901.109	0.0157126
901.187	0.0156707
901.265	0.0155848
901.343	0.0156080
901.421	0.0156876
901.499	0.0157336
901.578	0.0155099
901.656	0.0156038
901.734	0.0156197
901.812	0.0156697
901.890	0.0156528
901.968	0.0156565
902.046	0.0155501
902.124	0.0156187
902.203	0.0156206
902.281	0.0156325
902.359	0.0156780
902.437	0.0155535
902.515	0.0156393
902.593	0.0156595
902.671	0.0155589
902.749	0.0156874
902.828	0.0156356
902.906	0.0155628
902.984	0.0155530
903.062	0.0155402
903.140	0.0155771
903.218	0.0155293
903.296	0.0156011
903.374	0.0156788
903.453	0.0156444
903.531	0.0156393
903.609	0.0156662
903.687	0.0156391
903.765	0.0156343
903.843	0.0155902
903.921	0.0155965
903.999	0.0156677
904.078	0.0156967
904.156	0.0156222
904.234	0.0157077
904.312	0.0157886
904.390	0.0156583
904.468	0.0156743
904.546	0.0156432
904.624	0.0156213
904.703	0.0156174
904.781	0.0156732
904.859	0.0156644
904.937	0.0157083
905.015	0.0156448
905.093	0.0156715
905.171	0.0157327
905.249	0.0157499
905.328	0.0155467
905.406	0.0156712
905.484	0.0156024
905.562	0.0156141
905.640	0.0157923
905.718	0.0155038
905.796	0.0156534
905.874	0.0156544
905.953	0.0154882
906.031	0.0157161
906.109	0.0157529
906.187	0.0157023
906.265	0.0156426
906.343	0.0157030
906.421	0.0154901
906.499	0.0156193
906.578	0.0157268
906.656	0.0155533
906.734	0.0155743
906.812	0.0156184
906.890	0.0157080
906.968	0.0155748
907.046	0.0155577
907.124	0.0155373
907.203	0.0156146
907.281	0.0156128
907.359	0.0156152
907.437	0.0155594
907.515	0.0156305
907.593	0.0157676
907.671	0.0156422
907.749	0.0156473
907.828	0.0155247
907.906	0.0154372
907.984	0.0154736
908.062	0.0155451
908.140	0.0156870
908.218	0.0154646
908.296	0.0154590
908.374	0.0154157
908.453	0.0155006
908.531	0.0155978
908.609	0.0155732
908.687	0.0154754
908.765	0.0154803
908.843	0.0156628
908.921	0.0156775
908.999	0.0155517
909.078	0.0157270
909.156	0.0157686
909.234	0.0155288
909.312	0.0155912
909.390	0.0155411
909.468	0.0155347
909.546	0.0157919
909.624	0.0157596
909.703	0.0155798
909.781	0.0155132
909.859	0.0156474
909.937	0.0155737
910.015	0.0156195
910.093	0.0155415
910.171	0.0155685
910.249	0.0154588
910.328	0.0156389
910.406	0.0157445
910.484	0.0155496
910.562	0.0154080
910.640	0.0154671
910.718	0.0155042
910.796	0.0154820
910.874	0.0155405
910.953	0.0153673
911.031	0.0155106
911.109	0.0155892
911.187	0.0154970
911.265	0.0154949
911.343	0.0154203
911.421	0.0155571
911.499	0.0154662
911.578	0.0155670
911.656	0.0155170
911.734	0.0157146
911.812	0.0156633
911.890	0.0155849
911.968	0.0156644
912.046	0.0156445
912.124	0.0156573
912.203	0.0155463
912.281	0.0156577
912.359	0.0157128
912.437	0.0156416
912.515	0.0156266
912.593	0.0155807
912.671	0.0156809
912.749	0.0156863
912.828	0.0156605
912.906	0.0156694
912.984	0.0156465
913.062	0.0155643
913.140	0.0155473
913.218	0.0155251
913.296	0.0155882
913.374	0.0155806
913.453	0.0153992
913.531	0.0154974
913.609	0.0155564
913.687	0.0155067
913.765	0.0154956
913.843	0.0156732
913.921	0.0154975
913.999	0.0153750
914.078	0.0155478
914.156	0.0155807
914.234	0.0156254
914.312	0.0157510
914.390	0.0158008
914.468	0.0156892
914.546	0.0156708
914.624	0.0156585
914.703	0.0157021
914.781	0.0157762
914.859	0.0157494
914.937	0.0156126
915.015	0.0158236
915.093	0.0156204
915.171	0.0156446
915.249	0.0157624
915.328	0.0157461
915.406	0.0156767
915.484	0.0155660
915.562	0.0157037
915.640	0.0156346
915.718	0.0155596
915.796	0.0157609
915.874	0.0156738
915.953	0.0156145
916.031	0.0157172
916.109	0.0155989
916.187	0.0156294
916.265	0.0158494
916.343	0.0156431
916.421	0.0155813
916.499	0.0156606
916.578	0.0155090
916.656	0.0155953
916.734	0.0157902
916.812	0.0157102
916.890	0.0156284
916.968	0.0156588
917.046	0.0156239
917.124	0.0156256
917.203	0.0157585
917.281	0.0158086
917.359	0.0156549
917.437	0.0156506
917.515	0.0156322
917.593	0.0156902
917.671	0.0157845
917.749	0.0159194
917.828	0.0158026
917.906	0.0157133
917.984	0.0157022
918.062	0.0157946
918.140	0.0158070
918.218	0.0157240
918.296	0.0157507
918.374	0.0156532
918.453	0.0157756
918.531	0.0157751
918.609	0.0155703
918.687	0.0157108
918.765	0.0158929
918.843	0.0156830
918.921	0.0157798
918.999	0.0157214
919.078	0.0157033
919.156	0.0156710
919.234	0.0156963
919.312	0.0156696
919.390	0.0156982
919.468	0.0157114
919.546	0.0157784
919.624	0.0157996
919.703	0.0156874
919.781	0.0157238
919.859	0.0156515
919.937	0.0156795
