06/10/2022	19:02:41	Ver.	4.1	UNKNOWN
Optical Delay	600.015094	Delta X		0.078125	Sweeps	1	Scan Rate	0/0
Coordinates	Axis 1	NaN	Axis 2	NaN	Axis 3	NaN	Axis 4	NaN	Axis 5	NaN	Axis 6	0.000000
TX Power	0.000000	RX Power	0.000000

600.015	0.0158490
600.093	0.0157987
600.171	0.0158022
600.249	0.0157891
600.328	0.0157774
600.406	0.0157271
600.484	0.0157590
600.562	0.0157616
600.640	0.0157646
600.718	0.0157435
600.796	0.0158439
600.874	0.0158980
600.953	0.0158368
601.031	0.0158663
601.109	0.0157610
601.187	0.0157493
601.265	0.0158482
601.343	0.0157529
601.421	0.0158328
601.499	0.0159681
601.578	0.0159000
601.656	0.0157124
601.734	0.0158332
601.812	0.0158019
601.890	0.0158778
601.968	0.0158884
602.046	0.0158396
602.124	0.0159213
602.203	0.0157954
602.281	0.0159779
602.359	0.0158907
602.437	0.0157359
602.515	0.0157893
602.593	0.0157973
602.671	0.0157139
602.749	0.0158877
602.828	0.0159985
602.906	0.0158755
602.984	0.0157881
603.062	0.0159115
603.140	0.0158709
603.218	0.0159115
603.296	0.0157729
603.374	0.0159338
603.453	0.0158252
603.531	0.0158644
603.609	0.0158824
603.687	0.0158150
603.765	0.0158524
603.843	0.0157842
603.921	0.0159786
603.999	0.0160017
604.078	0.0159198
604.156	0.0158323
604.234	0.0158051
604.312	0.0159505
604.390	0.0159238
604.468	0.0158701
604.546	0.0159520
604.624	0.0159971
604.703	0.0159966
604.781	0.0160386
604.859	0.0159918
604.937	0.0159655
605.015	0.0160242
605.093	0.0159974
605.171	0.0158552
605.249	0.0158718
605.328	0.0160344
605.406	0.0159492
605.484	0.0159931
605.562	0.0159767
605.640	0.0159728
605.718	0.0160355
605.796	0.0160311
605.874	0.0159807
605.953	0.0158314
606.031	0.0159817
606.109	0.0161422
606.187	0.0160268
606.265	0.0159905
606.343	0.0160913
606.421	0.0160324
606.499	0.0158952
606.578	0.0160406
606.656	0.0159914
606.734	0.0159334
606.812	0.0160932
606.890	0.0160963
606.968	0.0159897
607.046	0.0159936
607.124	0.0160775
607.203	0.0159526
607.281	0.0160410
607.359	0.0160272
607.437	0.0160829
607.515	0.0159743
607.593	0.0159510
607.671	0.0159251
607.749	0.0161772
607.828	0.0160302
607.906	0.0160586
607.984	0.0161082
608.062	0.0159799
608.140	0.0159951
608.218	0.0161115
608.296	0.0160464
608.374	0.0160953
608.453	0.0158671
608.531	0.0159428
608.609	0.0159882
608.687	0.0158685
608.765	0.0159914
608.843	0.0159727
608.921	0.0159135
608.999	0.0159577
609.078	0.0159596
609.156	0.0158382
609.234	0.0160209
609.312	0.0159930
609.390	0.0157897
609.468	0.0158382
609.546	0.0158465
609.624	0.0159992
609.703	0.0160327
609.781	0.0158682
609.859	0.0159411
609.937	0.0158981
610.015	0.0159950
610.093	0.0158316
610.171	0.0159335
610.249	0.0159100
610.328	0.0159305
610.406	0.0159025
610.484	0.0158760
610.562	0.0158640
610.640	0.0156911
610.718	0.0158169
610.796	0.0158475
610.874	0.0159239
610.953	0.0159187
611.031	0.0158997
611.109	0.0158246
611.187	0.0159294
611.265	0.0159673
611.343	0.0158423
611.421	0.0156902
611.499	0.0158492
611.578	0.0157390
611.656	0.0158201
611.734	0.0158465
611.812	0.0160484
611.890	0.0158758
611.968	0.0160273
612.046	0.0159872
612.124	0.0157524
612.203	0.0158206
612.281	0.0159787
612.359	0.0159335
612.437	0.0159270
612.515	0.0158158
612.593	0.0158252
612.671	0.0158194
612.749	0.0157988
612.828	0.0158180
612.906	0.0159251
612.984	0.0156783
613.062	0.0157978
613.140	0.0159139
613.218	0.0157858
613.296	0.0158798
613.374	0.0158486
613.453	0.0158992
613.531	0.0158644
613.609	0.0157552
613.687	0.0158781
613.765	0.0158611
613.843	0.0158500
613.921	0.0157937
613.999	0.0159140
614.078	0.0159495
614.156	0.0160667
614.234	0.0159557
614.312	0.0158649
614.390	0.0157532
614.468	0.0158783
614.546	0.0158978
614.624	0.0158825
614.703	0.0159728
614.781	0.0160664
614.859	0.0160515
614.937	0.0157676
615.015	0.0159847
615.093	0.0159779
615.171	0.0159550
615.249	0.0158654
615.328	0.0159769
615.406	0.0160322
615.484	0.0160309
615.562	0.0159699
615.640	0.0158652
615.718	0.0158790
615.796	0.0158582
615.874	0.0160442
615.953	0.0160385
616.031	0.0160778
616.109	0.0158286
616.187	0.0160201
616.265	0.0160072
616.343	0.0159497
616.421	0.0160563
616.499	0.0160823
616.578	0.0159088
616.656	0.0160763
616.734	0.0160514
616.812	0.0160118
616.890	0.0159692
616.968	0.0160096
617.046	0.0159367
617.124	0.0160940
617.203	0.0160244
617.281	0.0160186
617.359	0.0161091
617.437	0.0159233
617.515	0.0160023
617.593	0.0159380
617.671	0.0160857
617.749	0.0161716
617.828	0.0160078
617.906	0.0159057
617.984	0.0159474
618.062	0.0160616
618.140	0.0159657
618.218	0.0159247
618.296	0.0159755
618.374	0.0160517
618.453	0.0160635
618.531	0.0160047
618.609	0.0160736
618.687	0.0161217
618.765	0.0160593
618.843	0.0159991
618.921	0.0160500
618.999	0.0158952
619.078	0.0159237
619.156	0.0159602
619.234	0.0160147
619.312	0.0159428
619.390	0.0159239
619.468	0.0161015
619.546	0.0161078
619.624	0.0159240
619.703	0.0160504
619.781	0.0159964
619.859	0.0158854
619.937	0.0158741
620.015	0.0160553
620.093	0.0160204
620.171	0.0161148
620.249	0.0158511
620.328	0.0158643
620.406	0.0159608
620.484	0.0160718
620.562	0.0159850
620.640	0.0159931
620.718	0.0160068
620.796	0.0160442
620.874	0.0160339
620.953	0.0160569
621.031	0.0160020
621.109	0.0158567
621.187	0.0158834
621.265	0.0160881
621.343	0.0160146
621.421	0.0159322
621.499	0.0160483
621.578	0.0160593
621.656	0.0161539
621.734	0.0160730
621.812	0.0160870
621.890	0.0161079
621.968	0.0161108
622.046	0.0160214
622.124	0.0159037
622.203	0.0160175
622.281	0.0159450
622.359	0.0159661
622.437	0.0159377
622.515	0.0159599
622.593	0.0159250
622.671	0.0159772
622.749	0.0158953
622.828	0.0159480
622.906	0.0159007
622.984	0.0158509
623.062	0.0157950
623.140	0.0158369
623.218	0.0159189
623.296	0.0157382
623.374	0.0157702
623.453	0.0157960
623.531	0.0158363
623.609	0.0157824
623.687	0.0155468
623.765	0.0157404
623.843	0.0155904
623.921	0.0157644
623.999	0.0157476
624.078	0.0157691
624.156	0.0156548
624.234	0.0156451
624.312	0.0156070
624.390	0.0157006
624.468	0.0157565
624.546	0.0158128
624.624	0.0159264
624.703	0.0157199
624.781	0.0157686
624.859	0.0158320
624.937	0.0159526
625.015	0.0158298
625.093	0.0157781
625.171	0.0157886
625.249	0.0157587
625.328	0.0158700
625.406	0.0156853
625.484	0.0158067
625.562	0.0157463
625.640	0.0157962
625.718	0.0157848
625.796	0.0156760
625.874	0.0156869
625.953	0.0156699
626.031	0.0156269
626.109	0.0156085
626.187	0.0157003
626.265	0.0157166
626.343	0.0157084
626.421	0.0157718
626.499	0.0157872
626.578	0.0156834
626.656	0.0157897
626.734	0.0157554
626.812	0.0157905
626.890	0.0157838
626.968	0.0156552
627.046	0.0157884
627.124	0.0158932
627.203	0.0158248
627.281	0.0156776
627.359	0.0157812
627.437	0.0158241
627.515	0.0156937
627.593	0.0157559
627.671	0.0158372
627.749	0.0159458
627.828	0.0159084
627.906	0.0158400
627.984	0.0158279
628.062	0.0158240
628.140	0.0158968
628.218	0.0157191
628.296	0.0157874
628.374	0.0157506
628.453	0.0158179
628.531	0.0158465
628.609	0.0157861
628.687	0.0158247
628.765	0.0158000
628.843	0.0159730
628.921	0.0157806
628.999	0.0156855
629.078	0.0157571
629.156	0.0157726
629.234	0.0156474
629.312	0.0158915
629.390	0.0157747
629.468	0.0158183
629.546	0.0158549
629.624	0.0157758
629.703	0.0158127
629.781	0.0158525
629.859	0.0160760
629.937	0.0158006
630.015	0.0157693
630.093	0.0157806
630.171	0.0159026
630.249	0.0159592
630.328	0.0159418
630.406	0.0159770
630.484	0.0159158
630.562	0.0158054
630.640	0.0159150
630.718	0.0160253
630.796	0.0159370
630.874	0.0159144
630.953	0.0159613
631.031	0.0159290
631.109	0.0159628
631.187	0.0158852
631.265	0.0159017
631.343	0.0159532
631.421	0.0158589
631.499	0.0159493
631.578	0.0158943
631.656	0.0159054
631.734	0.0158389
631.812	0.0160440
631.890	0.0158894
631.968	0.0158921
632.046	0.0158617
632.124	0.0159953
632.203	0.0159833
632.281	0.0159111
632.359	0.0158221
632.437	0.0160880
632.515	0.0159684
632.593	0.0159796
632.671	0.0160284
632.749	0.0159341
632.828	0.0158392
632.906	0.0158189
632.984	0.0159681
633.062	0.0160107
633.140	0.0159062
633.218	0.0158659
633.296	0.0159009
633.374	0.0159158
633.453	0.0160062
633.531	0.0160036
633.609	0.0158430
633.687	0.0159676
633.765	0.0160875
633.843	0.0159599
633.921	0.0158807
633.999	0.0161183
634.078	0.0159672
634.156	0.0159153
634.234	0.0160082
634.312	0.0159580
634.390	0.0160908
634.468	0.0159468
634.546	0.0159322
634.624	0.0159873
634.703	0.0158819
634.781	0.0159808
634.859	0.0158997
634.937	0.0159496
635.015	0.0159376
635.093	0.0158657
635.171	0.0159686
635.249	0.0159519
635.328	0.0159645
635.406	0.0160008
635.484	0.0158828
635.562	0.0160220
635.640	0.0159056
635.718	0.0159497
635.796	0.0160530
635.874	0.0159007
635.953	0.0159267
636.031	0.0160328
636.109	0.0158649
636.187	0.0158773
636.265	0.0159969
636.343	0.0159975
636.421	0.0158504
636.499	0.0158971
636.578	0.0159659
636.656	0.0160922
636.734	0.0159987
636.812	0.0160479
636.890	0.0159789
636.968	0.0159461
637.046	0.0159774
637.124	0.0159673
637.203	0.0159781
637.281	0.0159412
637.359	0.0159640
637.437	0.0160233
637.515	0.0160120
637.593	0.0160016
637.671	0.0159536
637.749	0.0161018
637.828	0.0160928
637.906	0.0158981
637.984	0.0161503
638.062	0.0160567
638.140	0.0158759
638.218	0.0160000
638.296	0.0159706
638.374	0.0160240
638.453	0.0159495
638.531	0.0159460
638.609	0.0161660
638.687	0.0160094
638.765	0.0160840
638.843	0.0159652
638.921	0.0159099
638.999	0.0160271
639.078	0.0159886
639.156	0.0159995
639.234	0.0159093
639.312	0.0160615
639.390	0.0161108
639.468	0.0159396
639.546	0.0158810
639.624	0.0159754
639.703	0.0158405
639.781	0.0159177
639.859	0.0159821
639.937	0.0159476
640.015	0.0159744
640.093	0.0159633
640.171	0.0159940
640.249	0.0158197
640.328	0.0160480
640.406	0.0159892
640.484	0.0159715
640.562	0.0160224
640.640	0.0158901
640.718	0.0159449
640.796	0.0159592
640.874	0.0159521
640.953	0.0159105
641.031	0.0161044
641.109	0.0161503
641.187	0.0159621
641.265	0.0158351
641.343	0.0159953
641.421	0.0161120
641.499	0.0159615
641.578	0.0160555
641.656	0.0160534
641.734	0.0159796
641.812	0.0160206
641.890	0.0159752
641.968	0.0159184
642.046	0.0159273
642.124	0.0160072
642.203	0.0158876
642.281	0.0159360
642.359	0.0159573
642.437	0.0158665
642.515	0.0159199
642.593	0.0160169
642.671	0.0160180
642.749	0.0159669
642.828	0.0159488
642.906	0.0158277
642.984	0.0160754
643.062	0.0161401
643.140	0.0158893
643.218	0.0159223
643.296	0.0160007
643.374	0.0158829
643.453	0.0158097
643.531	0.0159962
643.609	0.0159312
643.687	0.0159469
643.765	0.0159743
643.843	0.0158866
643.921	0.0159379
643.999	0.0159366
644.078	0.0159372
644.156	0.0159567
644.234	0.0159210
644.312	0.0160199
644.390	0.0158893
644.468	0.0158668
644.546	0.0160617
644.624	0.0159007
644.703	0.0159714
644.781	0.0158893
644.859	0.0158816
644.937	0.0161018
645.015	0.0159669
645.093	0.0159173
645.171	0.0159968
645.249	0.0158035
645.328	0.0159912
645.406	0.0159103
645.484	0.0158120
645.562	0.0159544
645.640	0.0160159
645.718	0.0158098
645.796	0.0159656
645.874	0.0158321
645.953	0.0158490
646.031	0.0158251
646.109	0.0158887
646.187	0.0159422
646.265	0.0160397
646.343	0.0159612
646.421	0.0158527
646.499	0.0158537
646.578	0.0159885
646.656	0.0158633
646.734	0.0158019
646.812	0.0157827
646.890	0.0159399
646.968	0.0158131
647.046	0.0158321
647.124	0.0158392
647.203	0.0160066
647.281	0.0158601
647.359	0.0158418
647.437	0.0157675
647.515	0.0158004
647.593	0.0158212
647.671	0.0158539
647.749	0.0158449
647.828	0.0158632
647.906	0.0158508
647.984	0.0157578
648.062	0.0157992
648.140	0.0159122
648.218	0.0156714
648.296	0.0157941
648.374	0.0158728
648.453	0.0157628
648.531	0.0158488
648.609	0.0157531
648.687	0.0158647
648.765	0.0159167
648.843	0.0156139
648.921	0.0157312
648.999	0.0157616
649.078	0.0157510
649.156	0.0157481
649.234	0.0157581
649.312	0.0157129
649.390	0.0155851
649.468	0.0157500
649.546	0.0158022
649.624	0.0157037
649.703	0.0157663
649.781	0.0155296
649.859	0.0155668
649.937	0.0156258
650.015	0.0156937
650.093	0.0156148
650.171	0.0157189
650.249	0.0156715
650.328	0.0156332
650.406	0.0156402
650.484	0.0157024
650.562	0.0156055
650.640	0.0155785
650.718	0.0155465
650.796	0.0156274
650.874	0.0155042
650.953	0.0157253
651.031	0.0156453
651.109	0.0158560
651.187	0.0156056
651.265	0.0154897
651.343	0.0155982
651.421	0.0156299
651.499	0.0156596
651.578	0.0157304
651.656	0.0156711
651.734	0.0156992
651.812	0.0157650
651.890	0.0157806
651.968	0.0157688
652.046	0.0157683
652.124	0.0156046
652.203	0.0155565
652.281	0.0158487
652.359	0.0156863
652.437	0.0157330
652.515	0.0157322
652.593	0.0156567
652.671	0.0158219
652.749	0.0158595
652.828	0.0157789
652.906	0.0158414
652.984	0.0157632
653.062	0.0158327
653.140	0.0158180
653.218	0.0157780
653.296	0.0157762
653.374	0.0157192
653.453	0.0158247
653.531	0.0159020
653.609	0.0157216
653.687	0.0157636
653.765	0.0156657
653.843	0.0156930
653.921	0.0159049
653.999	0.0158723
654.078	0.0157084
654.156	0.0159486
654.234	0.0157984
654.312	0.0157980
654.390	0.0158154
654.468	0.0158778
654.546	0.0158331
654.624	0.0157756
654.703	0.0158689
654.781	0.0159110
654.859	0.0156844
654.937	0.0158022
655.015	0.0158682
655.093	0.0158586
655.171	0.0158165
655.249	0.0157806
655.328	0.0159088
655.406	0.0159372
655.484	0.0158555
655.562	0.0158519
655.640	0.0159035
655.718	0.0159028
655.796	0.0158049
655.874	0.0159784
655.953	0.0158813
656.031	0.0157144
656.109	0.0158945
656.187	0.0159536
656.265	0.0159637
656.343	0.0158091
656.421	0.0158562
656.499	0.0159045
656.578	0.0159396
656.656	0.0160074
656.734	0.0158253
656.812	0.0159218
656.890	0.0159800
656.968	0.0159250
657.046	0.0158929
657.124	0.0158604
657.203	0.0159497
657.281	0.0158595
657.359	0.0158041
657.437	0.0160471
657.515	0.0159473
657.593	0.0158186
657.671	0.0160069
657.749	0.0160145
657.828	0.0159624
657.906	0.0159748
657.984	0.0160183
658.062	0.0160706
658.140	0.0159879
658.218	0.0158320
658.296	0.0159249
658.374	0.0157926
658.453	0.0160339
658.531	0.0161115
658.609	0.0161166
658.687	0.0159046
658.765	0.0160983
658.843	0.0159136
658.921	0.0161199
658.999	0.0160236
659.078	0.0158883
659.156	0.0160706
659.234	0.0159817
659.312	0.0159386
659.390	0.0158824
659.468	0.0158181
659.546	0.0160976
659.624	0.0160008
659.703	0.0159568
659.781	0.0159281
659.859	0.0158311
659.937	0.0159805
660.015	0.0160023
660.093	0.0159081
660.171	0.0160137
660.249	0.0159346
660.328	0.0159206
660.406	0.0160794
660.484	0.0159623
660.562	0.0158421
660.640	0.0160414
660.718	0.0159860
660.796	0.0159393
660.874	0.0160208
660.953	0.0159079
661.031	0.0159864
661.109	0.0158691
661.187	0.0160153
661.265	0.0159065
661.343	0.0159737
661.421	0.0160046
661.499	0.0159529
661.578	0.0159921
661.656	0.0160342
661.734	0.0161048
661.812	0.0159976
661.890	0.0160332
661.968	0.0160648
662.046	0.0159632
662.124	0.0159558
662.203	0.0161098
662.281	0.0159779
662.359	0.0160811
662.437	0.0160184
662.515	0.0160397
662.593	0.0159763
662.671	0.0160212
662.749	0.0159932
662.828	0.0158333
662.906	0.0159492
662.984	0.0159218
663.062	0.0160126
663.140	0.0160561
663.218	0.0159427
663.296	0.0160018
663.374	0.0159232
663.453	0.0160156
663.531	0.0159442
663.609	0.0159636
663.687	0.0159381
663.765	0.0159338
663.843	0.0159358
663.921	0.0159623
663.999	0.0159723
664.078	0.0159497
664.156	0.0158918
664.234	0.0160152
664.312	0.0157570
664.390	0.0158953
664.468	0.0158967
664.546	0.0158580
664.624	0.0158508
664.703	0.0158701
664.781	0.0161322
664.859	0.0158790
664.937	0.0158819
665.015	0.0159502
665.093	0.0159103
665.171	0.0158807
665.249	0.0158807
665.328	0.0159716
665.406	0.0160013
665.484	0.0158929
665.562	0.0159453
665.640	0.0159871
665.718	0.0160827
665.796	0.0159595
665.874	0.0159529
665.953	0.0159254
666.031	0.0159634
666.109	0.0160213
666.187	0.0158978
666.265	0.0158150
666.343	0.0157992
666.421	0.0160279
666.499	0.0159921
666.578	0.0159835
666.656	0.0159386
666.734	0.0158580
666.812	0.0159740
666.890	0.0158154
666.968	0.0160315
667.046	0.0158765
667.124	0.0159384
667.203	0.0158648
667.281	0.0160050
667.359	0.0159338
667.437	0.0159122
667.515	0.0156927
667.593	0.0157845
667.671	0.0160442
667.749	0.0157734
667.828	0.0158833
667.906	0.0158421
667.984	0.0159922
668.062	0.0160553
668.140	0.0157888
668.218	0.0158071
668.296	0.0158011
668.374	0.0158743
668.453	0.0158910
668.531	0.0158448
668.609	0.0158443
668.687	0.0158018
668.765	0.0158459
668.843	0.0159061
668.921	0.0157886
668.999	0.0158150
669.078	0.0159248
669.156	0.0158017
669.234	0.0159641
669.312	0.0159505
669.390	0.0157993
669.468	0.0158615
669.546	0.0158089
669.624	0.0159023
669.703	0.0158492
669.781	0.0157506
669.859	0.0156931
669.937	0.0157192
670.015	0.0156937
670.093	0.0158225
670.171	0.0158841
670.249	0.0159177
670.328	0.0157309
670.406	0.0158032
670.484	0.0157404
670.562	0.0157407
670.640	0.0156493
670.718	0.0157600
670.796	0.0158032
670.874	0.0157417
670.953	0.0156713
671.031	0.0157326
671.109	0.0158130
671.187	0.0157577
671.265	0.0157704
671.343	0.0157664
671.421	0.0156436
671.499	0.0157564
671.578	0.0157526
671.656	0.0157350
671.734	0.0156992
671.812	0.0158031
671.890	0.0159113
671.968	0.0156228
672.046	0.0156564
672.124	0.0157806
672.203	0.0158304
672.281	0.0157790
672.359	0.0158360
672.437	0.0158294
672.515	0.0158116
672.593	0.0157883
672.671	0.0157571
672.749	0.0157992
672.828	0.0158131
672.906	0.0158837
672.984	0.0158514
673.062	0.0157476
673.140	0.0157826
673.218	0.0158572
673.296	0.0157997
673.374	0.0158524
673.453	0.0157797
673.531	0.0158833
673.609	0.0157362
673.687	0.0158452
673.765	0.0159069
673.843	0.0157039
673.921	0.0157556
673.999	0.0158002
674.078	0.0158241
674.156	0.0157887
674.234	0.0157959
674.312	0.0158405
674.390	0.0157516
674.468	0.0157780
674.546	0.0159027
674.624	0.0158621
674.703	0.0158955
674.781	0.0158460
674.859	0.0157735
674.937	0.0158710
675.015	0.0157461
675.093	0.0159356
675.171	0.0157954
675.249	0.0157740
675.328	0.0159190
675.406	0.0158907
675.484	0.0158331
675.562	0.0157420
675.640	0.0159032
675.718	0.0159281
675.796	0.0158993
675.874	0.0156371
675.953	0.0158814
676.031	0.0157608
676.109	0.0158669
676.187	0.0157755
676.265	0.0158290
676.343	0.0157475
676.421	0.0158871
676.499	0.0158821
676.578	0.0157963
676.656	0.0161061
676.734	0.0158737
676.812	0.0157333
676.890	0.0158745
676.968	0.0158032
677.046	0.0159329
677.124	0.0158754
677.203	0.0159105
677.281	0.0158962
677.359	0.0157426
677.437	0.0159708
677.515	0.0158717
677.593	0.0158668
677.671	0.0158528
677.749	0.0158852
677.828	0.0157911
677.906	0.0159351
677.984	0.0159978
678.062	0.0159007
678.140	0.0158486
678.218	0.0157820
678.296	0.0159850
678.374	0.0159136
678.453	0.0159385
678.531	0.0157874
678.609	0.0160126
678.687	0.0161285
678.765	0.0159949
678.843	0.0158260
678.921	0.0157554
678.999	0.0159824
679.078	0.0157986
679.156	0.0158698
679.234	0.0158896
679.312	0.0158205
679.390	0.0157979
679.468	0.0159773
679.546	0.0160357
679.624	0.0158594
679.703	0.0158210
679.781	0.0159487
679.859	0.0159865
679.937	0.0159357
680.015	0.0159001
680.093	0.0160208
680.171	0.0159428
680.249	0.0159760
680.328	0.0159151
680.406	0.0158693
680.484	0.0158768
680.562	0.0158590
680.640	0.0158775
680.718	0.0159675
680.796	0.0159150
680.874	0.0158224
680.953	0.0159068
681.031	0.0158460
681.109	0.0159672
681.187	0.0159011
681.265	0.0159160
681.343	0.0159995
681.421	0.0158553
681.499	0.0157803
681.578	0.0159680
681.656	0.0159843
681.734	0.0158583
681.812	0.0159192
681.890	0.0160443
681.968	0.0158437
682.046	0.0158527
682.124	0.0158067
682.203	0.0158914
682.281	0.0160175
682.359	0.0160113
682.437	0.0157719
682.515	0.0158949
682.593	0.0159769
682.671	0.0158625
682.749	0.0158876
682.828	0.0157560
682.906	0.0157991
682.984	0.0158810
683.062	0.0159241
683.140	0.0159338
683.218	0.0160210
683.296	0.0159136
683.374	0.0158723
683.453	0.0158136
683.531	0.0159435
683.609	0.0160291
683.687	0.0158705
683.765	0.0158347
683.843	0.0159358
683.921	0.0159196
683.999	0.0159039
684.078	0.0159073
684.156	0.0160571
684.234	0.0159664
684.312	0.0160374
684.390	0.0159844
684.468	0.0160188
684.546	0.0159412
684.624	0.0158397
684.703	0.0159731
684.781	0.0159090
684.859	0.0158906
684.937	0.0158889
685.015	0.0159354
685.093	0.0159844
685.171	0.0160929
685.249	0.0160646
685.328	0.0160550
685.406	0.0159057
685.484	0.0158422
685.562	0.0159233
685.640	0.0161133
685.718	0.0162074
685.796	0.0160822
685.874	0.0159976
685.953	0.0160212
686.031	0.0159701
686.109	0.0159938
686.187	0.0158939
686.265	0.0160017
686.343	0.0159992
686.421	0.0159949
686.499	0.0159053
686.578	0.0159319
686.656	0.0159635
686.734	0.0160115
686.812	0.0159299
686.890	0.0160094
686.968	0.0160610
687.046	0.0160751
687.124	0.0160883
687.203	0.0160793
687.281	0.0159790
687.359	0.0160379
687.437	0.0159692
687.515	0.0159724
687.593	0.0160361
687.671	0.0160331
687.749	0.0160248
687.828	0.0161546
687.906	0.0160705
687.984	0.0161126
688.062	0.0161444
688.140	0.0161808
688.218	0.0159885
688.296	0.0160213
688.374	0.0160428
688.453	0.0160107
688.531	0.0160240
688.609	0.0160036
688.687	0.0160562
688.765	0.0161980
688.843	0.0160400
688.921	0.0159811
688.999	0.0158710
689.078	0.0160613
689.156	0.0161512
689.234	0.0159880
689.312	0.0159855
689.390	0.0159974
689.468	0.0160257
689.546	0.0160544
689.624	0.0158786
689.703	0.0160673
689.781	0.0159030
689.859	0.0159954
689.937	0.0159924
690.015	0.0160174
690.093	0.0159728
690.171	0.0159885
690.249	0.0159318
690.328	0.0158365
690.406	0.0159233
690.484	0.0160316
690.562	0.0158904
690.640	0.0159061
690.718	0.0160054
690.796	0.0160020
690.874	0.0159142
690.953	0.0160123
691.031	0.0158531
691.109	0.0159450
691.187	0.0159808
691.265	0.0158539
691.343	0.0159358
691.421	0.0159193
691.499	0.0160072
691.578	0.0158877
691.656	0.0160181
691.734	0.0157704
691.812	0.0158966
691.890	0.0160455
691.968	0.0160577
692.046	0.0160339
692.124	0.0159065
692.203	0.0158778
692.281	0.0158991
692.359	0.0160392
692.437	0.0158532
692.515	0.0158351
692.593	0.0158987
692.671	0.0159252
692.749	0.0158847
692.828	0.0159754
692.906	0.0159295
692.984	0.0158826
693.062	0.0158484
693.140	0.0159211
693.218	0.0158643
693.296	0.0158496
693.374	0.0159161
693.453	0.0160180
693.531	0.0159544
693.609	0.0160133
693.687	0.0160749
693.765	0.0158843
693.843	0.0159120
693.921	0.0158940
693.999	0.0159290
694.078	0.0159703
694.156	0.0159834
694.234	0.0160153
694.312	0.0160522
694.390	0.0158484
694.468	0.0160609
694.546	0.0160305
694.624	0.0159534
694.703	0.0159460
694.781	0.0159069
694.859	0.0159063
694.937	0.0159056
695.015	0.0159010
695.093	0.0160465
695.171	0.0158769
695.249	0.0158960
695.328	0.0159225
695.406	0.0159179
695.484	0.0157635
695.562	0.0159319
695.640	0.0159210
695.718	0.0159854
695.796	0.0159128
695.874	0.0159364
695.953	0.0157262
696.031	0.0158692
696.109	0.0160171
696.187	0.0158795
696.265	0.0158302
696.343	0.0159843
696.421	0.0159089
696.499	0.0158574
696.578	0.0158569
696.656	0.0157905
696.734	0.0160037
696.812	0.0158858
696.890	0.0159500
696.968	0.0158469
697.046	0.0159087
697.124	0.0159517
697.203	0.0159247
697.281	0.0159523
697.359	0.0159639
697.437	0.0157793
697.515	0.0159864
697.593	0.0159357
697.671	0.0159512
697.749	0.0157950
697.828	0.0158426
697.906	0.0160400
697.984	0.0158354
698.062	0.0156911
698.140	0.0157990
698.218	0.0158493
698.296	0.0158657
698.374	0.0158675
698.453	0.0158404
698.531	0.0158442
698.609	0.0158478
698.687	0.0158347
698.765	0.0158124
698.843	0.0158748
698.921	0.0158189
698.999	0.0159549
699.078	0.0158127
699.156	0.0156410
699.234	0.0158107
699.312	0.0158298
699.390	0.0157749
699.468	0.0158656
699.546	0.0157550
699.624	0.0157619
699.703	0.0159948
699.781	0.0158621
699.859	0.0157145
699.937	0.0159003
700.015	0.0157750
700.093	0.0158366
700.171	0.0158835
700.249	0.0158643
700.328	0.0157732
700.406	0.0156807
700.484	0.0159771
700.562	0.0157980
700.640	0.0157528
700.718	0.0157172
700.796	0.0159049
700.874	0.0159596
700.953	0.0158593
701.031	0.0159267
701.109	0.0157828
701.187	0.0159000
701.265	0.0159047
701.343	0.0158958
701.421	0.0159841
701.499	0.0159401
701.578	0.0160793
701.656	0.0158414
701.734	0.0159264
701.812	0.0158393
701.890	0.0157761
701.968	0.0158681
702.046	0.0160130
702.124	0.0161620
702.203	0.0159917
702.281	0.0160321
702.359	0.0159989
702.437	0.0159162
702.515	0.0158955
702.593	0.0159447
702.671	0.0160845
702.749	0.0158839
702.828	0.0159120
702.906	0.0159530
702.984	0.0159556
703.062	0.0160120
703.140	0.0159167
703.218	0.0158549
703.296	0.0159836
703.374	0.0159635
703.453	0.0159142
703.531	0.0159379
703.609	0.0158870
703.687	0.0159331
703.765	0.0159693
703.843	0.0159267
703.921	0.0158023
703.999	0.0160298
704.078	0.0159047
704.156	0.0157726
704.234	0.0159924
704.312	0.0158788
704.390	0.0160626
704.468	0.0159252
704.546	0.0158168
704.624	0.0159262
704.703	0.0159148
704.781	0.0158052
704.859	0.0158350
704.937	0.0159116
705.015	0.0160871
705.093	0.0159437
705.171	0.0158321
705.249	0.0158633
705.328	0.0159018
705.406	0.0160288
705.484	0.0158820
705.562	0.0158846
705.640	0.0159320
705.718	0.0158865
705.796	0.0158607
705.874	0.0158764
705.953	0.0159887
706.031	0.0158487
706.109	0.0159335
706.187	0.0159865
706.265	0.0160789
706.343	0.0159032
706.421	0.0160488
706.499	0.0159797
706.578	0.0159230
706.656	0.0159258
706.734	0.0159729
706.812	0.0160203
706.890	0.0160267
706.968	0.0159788
707.046	0.0160355
707.124	0.0161855
707.203	0.0159335
707.281	0.0159827
707.359	0.0159596
707.437	0.0159203
707.515	0.0160045
707.593	0.0160837
707.671	0.0159776
707.749	0.0159738
707.828	0.0159594
707.906	0.0159810
707.984	0.0159777
708.062	0.0159889
708.140	0.0160026
708.218	0.0161575
708.296	0.0160754
708.374	0.0160157
708.453	0.0160533
708.531	0.0158644
708.609	0.0161968
708.687	0.0161944
708.765	0.0160551
708.843	0.0160085
708.921	0.0160526
708.999	0.0161359
709.078	0.0159749
709.156	0.0159991
709.234	0.0162006
709.312	0.0162974
709.390	0.0160602
709.468	0.0160230
709.546	0.0162238
709.624	0.0160493
709.703	0.0161438
709.781	0.0161575
709.859	0.0160892
709.937	0.0160394
710.015	0.0161974
710.093	0.0160226
710.171	0.0160627
710.249	0.0160813
710.328	0.0161015
710.406	0.0159485
710.484	0.0162006
710.562	0.0159152
710.640	0.0160331
710.718	0.0161476
710.796	0.0160639
710.874	0.0160886
710.953	0.0160935
711.031	0.0161783
711.109	0.0161338
711.187	0.0161320
711.265	0.0160555
711.343	0.0160206
711.421	0.0160432
711.499	0.0160336
711.578	0.0161377
711.656	0.0160442
711.734	0.0160470
711.812	0.0160092
711.890	0.0160970
711.968	0.0159840
712.046	0.0159159
712.124	0.0161545
712.203	0.0160032
712.281	0.0159595
712.359	0.0159440
712.437	0.0160466
712.515	0.0159008
712.593	0.0160762
712.671	0.0160080
712.749	0.0161080
712.828	0.0159600
712.906	0.0157883
712.984	0.0161216
713.062	0.0160452
713.140	0.0159857
713.218	0.0159525
713.296	0.0160206
713.374	0.0157398
713.453	0.0158354
713.531	0.0159467
713.609	0.0159137
713.687	0.0160345
713.765	0.0159908
713.843	0.0160258
713.921	0.0159763
713.999	0.0158678
714.078	0.0158994
714.156	0.0158645
714.234	0.0159810
714.312	0.0159943
714.390	0.0161226
714.468	0.0159100
714.546	0.0159447
714.624	0.0160479
714.703	0.0160042
714.781	0.0159481
714.859	0.0159087
714.937	0.0158656
715.015	0.0159191
715.093	0.0160488
715.171	0.0159891
715.249	0.0159524
715.328	0.0161334
715.406	0.0160088
715.484	0.0160858
715.562	0.0159347
715.640	0.0160241
715.718	0.0159890
715.796	0.0160005
715.874	0.0160693
715.953	0.0160833
716.031	0.0160775
716.109	0.0160583
716.187	0.0160767
716.265	0.0160721
716.343	0.0160387
716.421	0.0160068
716.499	0.0159563
716.578	0.0159732
716.656	0.0159606
716.734	0.0159664
716.812	0.0160221
716.890	0.0160525
716.968	0.0159978
717.046	0.0159850
717.124	0.0158377
717.203	0.0159194
717.281	0.0157774
717.359	0.0158788
717.437	0.0159387
717.515	0.0159525
717.593	0.0157980
717.671	0.0159253
717.749	0.0159799
717.828	0.0158547
717.906	0.0158884
717.984	0.0158383
718.062	0.0158250
718.140	0.0158885
718.218	0.0158264
718.296	0.0158512
718.374	0.0158502
718.453	0.0158059
718.531	0.0159437
718.609	0.0158228
718.687	0.0159375
718.765	0.0157913
718.843	0.0158867
718.921	0.0159749
718.999	0.0158633
719.078	0.0159299
719.156	0.0158827
719.234	0.0159234
719.312	0.0159636
719.390	0.0158772
719.468	0.0158961
719.546	0.0158514
719.624	0.0158794
719.703	0.0158469
719.781	0.0159073
719.859	0.0158736
719.937	0.0159824
720.015	0.0159457
720.093	0.0159901
720.171	0.0159367
720.249	0.0158778
720.328	0.0158565
720.406	0.0157760
720.484	0.0157400
720.562	0.0159635
720.640	0.0159269
720.718	0.0158030
720.796	0.0158432
720.874	0.0158604
720.953	0.0157948
721.031	0.0158873
721.109	0.0157661
721.187	0.0156757
721.265	0.0157902
721.343	0.0158772
721.421	0.0157798
721.499	0.0158456
721.578	0.0158112
721.656	0.0158184
721.734	0.0158102
721.812	0.0157819
721.890	0.0158693
721.968	0.0158501
722.046	0.0157154
722.124	0.0158079
722.203	0.0156184
722.281	0.0158652
722.359	0.0158178
722.437	0.0158358
722.515	0.0158298
722.593	0.0158664
722.671	0.0158682
722.749	0.0158528
722.828	0.0160335
722.906	0.0159243
722.984	0.0157884
723.062	0.0159962
723.140	0.0158327
723.218	0.0157859
723.296	0.0159245
723.374	0.0158414
723.453	0.0157604
723.531	0.0158852
723.609	0.0158154
723.687	0.0157841
723.765	0.0158083
723.843	0.0158337
723.921	0.0159359
723.999	0.0156915
724.078	0.0158076
724.156	0.0158880
724.234	0.0157762
724.312	0.0157103
724.390	0.0158833
724.468	0.0159011
724.546	0.0158098
724.624	0.0158827
724.703	0.0158339
724.781	0.0158379
724.859	0.0158731
724.937	0.0158371
725.015	0.0156883
725.093	0.0159180
725.171	0.0157486
725.249	0.0157603
725.328	0.0158094
725.406	0.0157153
725.484	0.0157397
725.562	0.0157661
725.640	0.0157027
725.718	0.0159256
725.796	0.0159350
725.874	0.0158315
725.953	0.0157409
726.031	0.0158542
726.109	0.0158080
726.187	0.0156953
726.265	0.0159170
726.343	0.0158247
726.421	0.0158024
726.499	0.0158065
726.578	0.0157922
726.656	0.0159567
726.734	0.0158124
726.812	0.0158170
726.890	0.0157914
726.968	0.0158647
727.046	0.0159005
727.124	0.0159254
727.203	0.0158319
727.281	0.0160114
727.359	0.0158858
727.437	0.0157915
727.515	0.0158656
727.593	0.0157351
727.671	0.0157822
727.749	0.0157821
727.828	0.0159464
727.906	0.0158138
727.984	0.0157721
728.062	0.0156976
728.140	0.0157935
728.218	0.0158858
728.296	0.0157021
728.374	0.0158048
728.453	0.0158356
728.531	0.0157835
728.609	0.0157578
728.687	0.0158264
728.765	0.0157710
728.843	0.0157922
728.921	0.0157304
728.999	0.0157774
729.078	0.0158390
729.156	0.0159178
729.234	0.0158289
729.312	0.0159005
729.390	0.0158636
729.468	0.0156965
729.546	0.0158165
729.624	0.0158743
729.703	0.0158274
729.781	0.0158484
729.859	0.0159495
729.937	0.0159138
730.015	0.0159248
730.093	0.0158524
730.171	0.0158004
730.249	0.0157628
730.328	0.0159831
730.406	0.0158585
730.484	0.0158985
730.562	0.0159396
730.640	0.0159029
730.718	0.0158564
730.796	0.0160004
730.874	0.0159138
730.953	0.0158410
731.031	0.0159110
731.109	0.0158747
731.187	0.0160094
731.265	0.0159011
731.343	0.0157547
731.421	0.0158542
731.499	0.0157825
731.578	0.0159286
731.656	0.0159184
731.734	0.0159229
731.812	0.0157979
731.890	0.0159536
731.968	0.0158877
732.046	0.0160590
732.124	0.0158810
732.203	0.0157987
732.281	0.0158469
732.359	0.0159186
732.437	0.0158783
732.515	0.0159631
732.593	0.0159863
732.671	0.0159470
732.749	0.0159170
732.828	0.0160813
732.906	0.0159097
732.984	0.0160487
733.062	0.0160829
733.140	0.0159273
733.218	0.0161052
733.296	0.0160476
733.374	0.0160452
733.453	0.0160503
733.531	0.0158836
733.609	0.0160754
733.687	0.0159171
733.765	0.0160269
733.843	0.0161089
733.921	0.0159256
733.999	0.0159608
734.078	0.0160363
734.156	0.0160551
734.234	0.0159941
734.312	0.0160061
734.390	0.0160542
734.468	0.0160294
734.546	0.0158986
734.624	0.0159275
734.703	0.0161292
734.781	0.0159284
734.859	0.0158785
734.937	0.0160149
735.015	0.0160493
735.093	0.0160425
735.171	0.0159879
735.249	0.0159186
735.328	0.0161108
735.406	0.0160695
735.484	0.0159747
735.562	0.0159598
735.640	0.0159789
735.718	0.0159503
735.796	0.0158842
735.874	0.0158623
735.953	0.0159337
736.031	0.0160386
736.109	0.0158945
736.187	0.0159674
736.265	0.0157397
736.343	0.0158334
736.421	0.0159109
736.499	0.0159232
736.578	0.0160365
736.656	0.0159448
736.734	0.0160529
736.812	0.0160664
736.890	0.0158479
736.968	0.0158939
737.046	0.0158862
737.124	0.0160195
737.203	0.0160062
737.281	0.0159608
737.359	0.0159460
737.437	0.0160055
737.515	0.0160456
737.593	0.0160117
737.671	0.0159543
737.749	0.0160051
737.828	0.0158855
737.906	0.0159252
737.984	0.0159049
738.062	0.0160383
738.140	0.0159392
738.218	0.0159054
738.296	0.0158942
738.374	0.0161038
738.453	0.0158981
738.531	0.0159438
738.609	0.0157865
738.687	0.0159220
738.765	0.0160490
738.843	0.0159789
738.921	0.0159286
738.999	0.0158887
739.078	0.0159821
739.156	0.0159343
739.234	0.0158767
739.312	0.0159527
739.390	0.0159509
739.468	0.0159915
739.546	0.0159768
739.624	0.0160224
739.703	0.0159534
739.781	0.0160203
739.859	0.0160052
739.937	0.0159438
740.015	0.0160928
740.093	0.0160329
740.171	0.0158817
740.249	0.0158989
740.328	0.0158441
740.406	0.0158872
740.484	0.0158965
740.562	0.0160062
740.640	0.0159523
740.718	0.0159345
740.796	0.0159686
740.874	0.0157617
740.953	0.0159011
741.031	0.0160135
741.109	0.0157771
741.187	0.0157918
741.265	0.0160916
741.343	0.0159570
741.421	0.0158231
741.499	0.0160011
741.578	0.0159925
741.656	0.0159041
741.734	0.0159386
741.812	0.0158337
741.890	0.0158458
741.968	0.0158829
742.046	0.0160503
742.124	0.0159862
742.203	0.0158442
742.281	0.0158810
742.359	0.0158264
742.437	0.0158293
742.515	0.0160523
742.593	0.0158839
742.671	0.0158707
742.749	0.0159406
742.828	0.0159148
742.906	0.0158659
742.984	0.0159731
743.062	0.0158908
743.140	0.0157982
743.218	0.0158358
743.296	0.0158002
743.374	0.0158444
743.453	0.0158980
743.531	0.0157550
743.609	0.0157730
743.687	0.0157336
743.765	0.0157388
743.843	0.0158325
743.921	0.0158080
743.999	0.0156805
744.078	0.0159014
744.156	0.0157121
744.234	0.0158620
744.312	0.0158801
744.390	0.0158034
744.468	0.0158331
744.546	0.0157127
744.624	0.0158031
744.703	0.0157771
744.781	0.0158908
744.859	0.0158768
744.937	0.0159173
745.015	0.0157593
745.093	0.0158086
745.171	0.0158022
745.249	0.0158830
745.328	0.0157958
745.406	0.0157508
745.484	0.0156973
745.562	0.0158129
745.640	0.0157710
745.718	0.0158277
745.796	0.0156613
745.874	0.0157226
745.953	0.0159023
746.031	0.0158881
746.109	0.0159973
746.187	0.0157227
746.265	0.0158772
746.343	0.0156750
746.421	0.0157359
746.499	0.0157738
746.578	0.0157513
746.656	0.0156297
746.734	0.0155801
746.812	0.0156402
746.890	0.0155704
746.968	0.0158176
747.046	0.0157155
747.124	0.0157055
747.203	0.0157021
747.281	0.0157059
747.359	0.0158083
747.437	0.0157224
747.515	0.0156274
747.593	0.0156974
747.671	0.0156769
747.749	0.0157243
747.828	0.0157924
747.906	0.0157893
747.984	0.0158565
748.062	0.0156857
748.140	0.0157090
748.218	0.0158027
748.296	0.0157918
748.374	0.0159101
748.453	0.0157974
748.531	0.0156583
748.609	0.0157571
748.687	0.0157806
748.765	0.0157659
748.843	0.0157388
748.921	0.0159758
748.999	0.0158566
749.078	0.0158371
749.156	0.0158078
749.234	0.0157998
749.312	0.0158108
749.390	0.0157756
749.468	0.0158633
749.546	0.0157023
749.624	0.0156557
749.703	0.0157864
749.781	0.0157779
749.859	0.0157520
749.937	0.0157497
750.015	0.0158406
750.093	0.0158649
750.171	0.0158021
750.249	0.0157388
750.328	0.0157592
750.406	0.0158703
750.484	0.0160228
750.562	0.0158607
750.640	0.0157648
750.718	0.0157697
750.796	0.0159889
750.874	0.0159908
750.953	0.0158894
751.031	0.0159950
751.109	0.0158431
751.187	0.0159409
751.265	0.0158831
751.343	0.0158446
751.421	0.0159319
751.499	0.0158366
751.578	0.0158265
751.656	0.0159691
751.734	0.0159234
751.812	0.0158493
751.890	0.0156963
751.968	0.0159637
752.046	0.0158073
752.124	0.0158151
752.203	0.0158177
752.281	0.0157072
752.359	0.0158415
752.437	0.0158600
752.515	0.0158755
752.593	0.0158713
752.671	0.0157464
752.749	0.0160008
752.828	0.0159956
752.906	0.0157966
752.984	0.0159339
753.062	0.0159090
753.140	0.0157858
753.218	0.0158778
753.296	0.0158364
753.374	0.0159370
753.453	0.0158367
753.531	0.0158827
753.609	0.0160522
753.687	0.0159481
753.765	0.0159394
753.843	0.0158817
753.921	0.0159017
753.999	0.0158418
754.078	0.0158303
754.156	0.0158903
754.234	0.0158445
754.312	0.0159636
754.390	0.0159460
754.468	0.0159724
754.546	0.0160083
754.624	0.0158929
754.703	0.0159229
754.781	0.0159699
754.859	0.0159214
754.937	0.0160333
755.015	0.0160316
755.093	0.0160709
755.171	0.0160941
755.249	0.0159797
755.328	0.0158205
755.406	0.0159196
755.484	0.0160042
755.562	0.0157687
755.640	0.0159138
755.718	0.0160953
755.796	0.0160971
755.874	0.0159963
755.953	0.0159993
756.031	0.0161092
756.109	0.0160455
756.187	0.0158968
756.265	0.0158868
756.343	0.0159146
756.421	0.0159559
756.499	0.0158158
756.578	0.0156400
756.656	0.0159772
756.734	0.0159145
756.812	0.0158364
756.890	0.0158960
756.968	0.0157829
757.046	0.0159087
757.124	0.0158963
757.203	0.0157085
757.281	0.0158224
757.359	0.0157420
757.437	0.0158927
757.515	0.0157380
757.593	0.0158424
757.671	0.0158474
757.749	0.0159097
757.828	0.0160099
757.906	0.0159170
757.984	0.0157841
758.062	0.0159680
758.140	0.0160273
758.218	0.0159026
758.296	0.0159252
758.374	0.0160096
758.453	0.0160376
758.531	0.0160921
758.609	0.0159383
758.687	0.0160062
758.765	0.0159341
758.843	0.0159393
758.921	0.0159892
758.999	0.0159992
759.078	0.0160268
759.156	0.0158355
759.234	0.0160117
759.312	0.0161612
759.390	0.0161219
759.468	0.0161980
759.546	0.0160391
759.624	0.0160336
759.703	0.0158791
759.781	0.0161057
759.859	0.0159553
759.937	0.0158166
760.015	0.0158517
760.093	0.0160845
760.171	0.0160372
760.249	0.0158634
760.328	0.0159306
760.406	0.0160867
760.484	0.0159956
760.562	0.0159770
760.640	0.0159251
760.718	0.0159219
760.796	0.0160458
760.874	0.0159332
760.953	0.0158772
761.031	0.0160267
761.109	0.0159876
761.187	0.0159333
761.265	0.0160392
761.343	0.0159770
761.421	0.0160081
761.499	0.0159857
761.578	0.0158883
761.656	0.0159688
761.734	0.0160188
761.812	0.0160098
761.890	0.0160198
761.968	0.0159415
762.046	0.0159997
762.124	0.0160396
762.203	0.0159025
762.281	0.0160693
762.359	0.0160617
762.437	0.0159958
762.515	0.0160884
762.593	0.0160233
762.671	0.0158652
762.749	0.0160024
762.828	0.0161771
762.906	0.0161069
762.984	0.0160619
763.062	0.0158726
763.140	0.0160023
763.218	0.0161306
763.296	0.0158466
763.374	0.0160159
763.453	0.0160497
763.531	0.0160941
763.609	0.0160706
763.687	0.0160240
763.765	0.0160742
763.843	0.0160693
763.921	0.0161008
763.999	0.0161327
764.078	0.0160177
764.156	0.0161298
764.234	0.0160773
764.312	0.0159709
764.390	0.0160351
764.468	0.0160252
764.546	0.0159310
764.624	0.0159583
764.703	0.0159277
764.781	0.0158203
764.859	0.0158360
764.937	0.0159370
765.015	0.0159606
765.093	0.0158975
765.171	0.0158781
765.249	0.0158665
765.328	0.0159435
765.406	0.0160400
765.484	0.0159708
765.562	0.0159233
765.640	0.0159283
765.718	0.0159859
765.796	0.0160119
765.874	0.0159336
765.953	0.0159519
766.031	0.0158792
766.109	0.0158727
766.187	0.0159029
766.265	0.0158885
766.343	0.0157991
766.421	0.0157269
766.499	0.0158002
766.578	0.0157141
766.656	0.0156881
766.734	0.0157088
766.812	0.0156953
766.890	0.0156174
766.968	0.0156725
767.046	0.0158532
767.124	0.0158695
767.203	0.0158733
767.281	0.0158811
767.359	0.0160046
767.437	0.0161305
767.515	0.0159963
767.593	0.0160872
767.671	0.0161783
767.749	0.0163213
767.828	0.0161517
767.906	0.0159808
767.984	0.0160834
768.062	0.0163425
768.140	0.0161122
768.218	0.0159488
768.296	0.0159753
768.374	0.0160871
768.453	0.0159709
768.531	0.0160938
768.609	0.0160679
768.687	0.0159524
768.765	0.0159900
768.843	0.0160114
768.921	0.0158133
768.999	0.0158952
769.078	0.0159853
769.156	0.0159473
769.234	0.0158812
769.312	0.0158361
769.390	0.0159298
769.468	0.0160314
769.546	0.0158273
769.624	0.0156313
769.703	0.0157145
769.781	0.0156641
769.859	0.0156052
769.937	0.0155827
770.015	0.0156319
770.093	0.0155483
770.171	0.0155702
770.249	0.0155504
770.328	0.0157427
770.406	0.0157050
770.484	0.0157967
770.562	0.0156385
770.640	0.0157559
770.718	0.0157770
770.796	0.0156988
770.874	0.0157687
770.953	0.0157666
771.031	0.0157372
771.109	0.0157400
771.187	0.0157619
771.265	0.0157895
771.343	0.0159209
771.421	0.0160194
771.499	0.0160366
771.578	0.0158839
771.656	0.0160400
771.734	0.0161225
771.812	0.0162092
771.890	0.0161375
771.968	0.0162292
772.046	0.0161562
772.124	0.0163361
772.203	0.0162160
772.281	0.0160526
772.359	0.0162071
772.437	0.0161613
772.515	0.0159425
772.593	0.0160461
772.671	0.0160223
772.749	0.0158640
772.828	0.0159970
772.906	0.0159689
772.984	0.0158621
773.062	0.0159413
773.140	0.0159681
773.218	0.0160842
773.296	0.0160608
773.374	0.0160856
773.453	0.0159657
773.531	0.0159006
773.609	0.0158476
773.687	0.0158646
773.765	0.0158958
773.843	0.0159898
773.921	0.0159064
773.999	0.0157861
774.078	0.0158016
774.156	0.0158122
774.234	0.0157095
774.312	0.0157677
774.390	0.0157904
774.468	0.0158269
774.546	0.0158578
774.624	0.0157661
774.703	0.0158854
774.781	0.0158119
774.859	0.0159148
774.937	0.0160272
775.015	0.0159911
775.093	0.0160976
775.171	0.0160374
775.249	0.0161358
775.328	0.0161053
775.406	0.0160936
775.484	0.0159791
775.562	0.0161627
775.640	0.0160709
775.718	0.0160258
775.796	0.0159257
775.874	0.0158222
775.953	0.0158273
776.031	0.0157055
776.109	0.0156573
776.187	0.0157353
776.265	0.0157348
776.343	0.0159241
776.421	0.0158490
776.499	0.0158571
776.578	0.0157681
776.656	0.0157914
776.734	0.0158819
776.812	0.0159132
776.890	0.0158305
776.968	0.0157546
777.046	0.0159489
777.124	0.0160221
777.203	0.0160824
777.281	0.0159801
777.359	0.0162762
777.437	0.0160635
777.515	0.0161118
777.593	0.0162193
777.671	0.0163099
777.749	0.0162589
777.828	0.0162476
777.906	0.0162474
777.984	0.0161402
778.062	0.0161042
778.140	0.0161013
778.218	0.0160909
778.296	0.0160453
778.374	0.0160961
778.453	0.0161490
778.531	0.0159042
778.609	0.0161219
778.687	0.0159866
778.765	0.0159435
778.843	0.0160062
778.921	0.0158869
778.999	0.0158437
779.078	0.0159232
779.156	0.0158382
779.234	0.0157796
779.312	0.0158540
779.390	0.0156588
779.468	0.0158377
779.546	0.0156322
779.624	0.0155961
779.703	0.0156121
779.781	0.0157264
779.859	0.0155748
779.937	0.0156597
780.015	0.0156644
780.093	0.0158729
780.171	0.0158636
780.249	0.0157730
780.328	0.0158183
780.406	0.0159708
780.484	0.0159911
780.562	0.0160632
780.640	0.0160015
780.718	0.0160877
780.796	0.0160452
780.874	0.0161011
780.953	0.0162177
781.031	0.0162224
781.109	0.0159904
781.187	0.0161375
781.265	0.0160892
781.343	0.0160485
781.421	0.0160917
781.499	0.0159071
781.578	0.0159559
781.656	0.0159743
781.734	0.0160072
781.812	0.0160656
781.890	0.0158929
781.968	0.0159074
782.046	0.0159600
782.124	0.0159451
782.203	0.0158957
782.281	0.0160423
782.359	0.0160793
782.437	0.0161124
782.515	0.0161219
782.593	0.0158836
782.671	0.0160134
782.749	0.0159737
782.828	0.0160086
782.906	0.0159045
782.984	0.0159496
783.062	0.0160618
783.140	0.0158707
783.218	0.0159502
783.296	0.0157728
783.374	0.0159100
783.453	0.0158541
783.531	0.0158337
783.609	0.0159152
783.687	0.0159322
783.765	0.0156557
783.843	0.0156658
783.921	0.0156695
783.999	0.0158018
784.078	0.0158082
784.156	0.0155423
784.234	0.0155273
784.312	0.0157253
784.390	0.0158129
784.468	0.0157786
784.546	0.0157784
784.624	0.0157222
784.703	0.0157384
784.781	0.0159798
784.859	0.0158273
784.937	0.0159345
785.015	0.0159409
785.093	0.0157953
785.171	0.0159283
785.249	0.0158682
785.328	0.0158684
785.406	0.0158498
785.484	0.0158718
785.562	0.0158640
785.640	0.0158202
785.718	0.0158710
785.796	0.0158383
785.874	0.0159467
785.953	0.0159998
786.031	0.0159364
786.109	0.0160566
786.187	0.0160084
786.265	0.0159843
786.343	0.0159538
786.421	0.0160135
786.499	0.0160809
786.578	0.0160036
786.656	0.0160377
786.734	0.0161507
786.812	0.0159532
786.890	0.0160715
786.968	0.0161037
787.046	0.0162930
787.124	0.0160827
787.203	0.0159697
787.281	0.0161169
787.359	0.0160249
787.437	0.0160099
787.515	0.0161633
787.593	0.0160648
787.671	0.0160685
787.749	0.0161152
787.828	0.0160464
787.906	0.0159583
787.984	0.0159515
788.062	0.0159548
788.140	0.0159901
788.218	0.0158926
788.296	0.0159068
788.374	0.0158345
788.453	0.0158037
788.531	0.0156976
788.609	0.0157262
788.687	0.0155547
788.765	0.0156134
788.843	0.0155825
788.921	0.0155047
788.999	0.0156224
789.078	0.0157144
789.156	0.0153870
789.234	0.0156190
789.312	0.0153643
789.390	0.0153970
789.468	0.0155193
789.546	0.0156251
789.624	0.0155566
789.703	0.0155894
789.781	0.0157395
789.859	0.0157862
789.937	0.0158058
790.015	0.0157200
790.093	0.0159378
790.171	0.0159480
790.249	0.0160169
790.328	0.0161763
790.406	0.0163187
790.484	0.0161880
790.562	0.0161936
790.640	0.0164053
790.718	0.0164201
790.796	0.0163376
790.874	0.0163138
790.953	0.0165205
791.031	0.0165472
791.109	0.0163022
791.187	0.0164024
791.265	0.0163032
791.343	0.0161737
791.421	0.0162372
791.499	0.0163356
791.578	0.0161464
791.656	0.0161359
791.734	0.0161580
791.812	0.0160909
791.890	0.0159638
791.968	0.0158946
792.046	0.0159414
792.124	0.0159584
792.203	0.0158428
792.281	0.0156564
792.359	0.0156425
792.437	0.0157564
792.515	0.0156088
792.593	0.0156956
792.671	0.0156890
792.749	0.0156793
792.828	0.0156567
792.906	0.0156886
792.984	0.0156094
793.062	0.0156634
793.140	0.0157735
793.218	0.0156849
793.296	0.0156139
793.374	0.0157366
793.453	0.0157040
793.531	0.0157391
793.609	0.0157950
793.687	0.0158762
793.765	0.0157281
793.843	0.0157679
793.921	0.0157430
793.999	0.0158636
794.078	0.0158164
794.156	0.0157175
794.234	0.0157169
794.312	0.0157215
794.390	0.0159117
794.468	0.0157670
794.546	0.0159115
794.624	0.0159801
794.703	0.0159913
794.781	0.0159489
794.859	0.0159286
794.937	0.0161051
795.015	0.0161022
795.093	0.0161122
795.171	0.0162077
795.249	0.0161060
795.328	0.0160973
795.406	0.0162440
795.484	0.0162045
795.562	0.0161790
795.640	0.0163228
795.718	0.0162289
795.796	0.0162972
795.874	0.0161979
795.953	0.0161699
796.031	0.0161565
796.109	0.0162022
796.187	0.0160098
796.265	0.0160257
796.343	0.0159074
796.421	0.0159912
796.499	0.0159351
796.578	0.0158569
796.656	0.0158326
796.734	0.0157671
796.812	0.0158582
796.890	0.0158743
796.968	0.0158563
797.046	0.0157603
797.124	0.0157510
797.203	0.0156501
797.281	0.0156629
797.359	0.0157063
797.437	0.0157163
797.515	0.0157664
797.593	0.0155061
797.671	0.0156187
797.749	0.0157222
797.828	0.0157438
797.906	0.0157361
797.984	0.0157093
798.062	0.0157674
798.140	0.0157574
798.218	0.0157826
798.296	0.0158041
798.374	0.0158516
798.453	0.0159162
798.531	0.0158253
798.609	0.0158082
798.687	0.0160238
798.765	0.0159859
798.843	0.0158774
798.921	0.0160022
798.999	0.0159647
799.078	0.0160406
799.156	0.0159789
799.234	0.0159746
799.312	0.0159995
799.390	0.0159588
799.468	0.0159856
799.546	0.0158425
799.624	0.0160966
799.703	0.0161617
799.781	0.0159062
799.859	0.0161176
799.937	0.0159055
800.015	0.0159504
800.093	0.0161578
800.171	0.0160216
800.249	0.0161288
800.328	0.0161867
800.406	0.0160523
800.484	0.0159234
800.562	0.0160540
800.640	0.0160995
800.718	0.0162817
800.796	0.0161147
800.874	0.0161589
800.953	0.0160902
801.031	0.0160898
801.109	0.0160257
801.187	0.0160449
801.265	0.0159527
801.343	0.0160845
801.421	0.0159698
801.499	0.0158378
801.578	0.0158542
801.656	0.0159517
801.734	0.0158067
801.812	0.0157463
801.890	0.0158156
801.968	0.0158591
802.046	0.0156043
802.124	0.0156417
802.203	0.0157768
802.281	0.0156510
802.359	0.0158126
802.437	0.0156867
802.515	0.0156667
802.593	0.0157629
802.671	0.0157539
802.749	0.0157788
802.828	0.0158550
802.906	0.0157835
802.984	0.0159751
803.062	0.0159262
803.140	0.0157523
803.218	0.0160647
803.296	0.0160763
803.374	0.0158646
803.453	0.0160172
803.531	0.0161457
803.609	0.0160941
803.687	0.0160577
803.765	0.0160410
803.843	0.0161660
803.921	0.0160320
803.999	0.0160075
804.078	0.0160075
804.156	0.0160104
804.234	0.0162352
804.312	0.0161302
804.390	0.0161814
804.468	0.0161536
804.546	0.0162682
804.624	0.0160719
804.703	0.0159949
804.781	0.0160870
804.859	0.0160610
804.937	0.0160648
805.015	0.0160877
805.093	0.0162026
805.171	0.0160320
805.249	0.0160112
805.328	0.0159602
805.406	0.0159166
805.484	0.0159471
805.562	0.0158353
805.640	0.0158894
805.718	0.0157714
805.796	0.0157172
805.874	0.0158257
805.953	0.0158727
806.031	0.0157994
806.109	0.0158437
806.187	0.0157800
806.265	0.0156132
806.343	0.0157325
806.421	0.0156978
806.499	0.0157914
806.578	0.0156130
806.656	0.0155437
806.734	0.0156492
806.812	0.0155648
806.890	0.0156804
806.968	0.0156646
807.046	0.0157552
807.124	0.0157443
807.203	0.0158026
807.281	0.0157388
807.359	0.0158562
807.437	0.0158010
807.515	0.0159089
807.593	0.0159774
807.671	0.0157705
807.749	0.0158765
807.828	0.0160075
807.906	0.0158431
807.984	0.0159325
808.062	0.0158653
808.140	0.0159900
808.218	0.0160802
808.296	0.0160510
808.374	0.0159815
808.453	0.0161667
808.531	0.0159975
808.609	0.0159554
808.687	0.0159148
808.765	0.0159919
808.843	0.0160289
808.921	0.0161124
808.999	0.0158675
809.078	0.0159071
809.156	0.0160776
809.234	0.0161357
809.312	0.0159295
809.390	0.0159141
809.468	0.0160298
809.546	0.0159615
809.624	0.0159895
809.703	0.0159973
809.781	0.0159377
809.859	0.0159174
809.937	0.0157209
810.015	0.0157788
810.093	0.0157572
810.171	0.0157373
810.249	0.0156160
810.328	0.0156562
810.406	0.0156921
810.484	0.0155318
810.562	0.0156982
810.640	0.0157214
810.718	0.0156643
810.796	0.0156375
810.874	0.0156238
810.953	0.0157586
811.031	0.0156854
811.109	0.0157004
811.187	0.0155970
811.265	0.0158146
811.343	0.0158231
811.421	0.0155933
811.499	0.0157597
811.578	0.0157438
811.656	0.0159098
811.734	0.0158234
811.812	0.0159623
811.890	0.0160044
811.968	0.0160037
812.046	0.0161278
812.124	0.0159643
812.203	0.0160339
812.281	0.0162093
812.359	0.0159949
812.437	0.0159754
812.515	0.0160515
812.593	0.0160439
812.671	0.0161997
812.749	0.0159924
812.828	0.0161314
812.906	0.0160529
812.984	0.0161773
813.062	0.0160937
813.140	0.0160766
813.218	0.0159497
813.296	0.0160391
813.374	0.0160312
813.453	0.0159291
813.531	0.0159412
813.609	0.0159435
813.687	0.0157472
813.765	0.0157277
813.843	0.0157516
813.921	0.0157581
813.999	0.0157730
814.078	0.0156174
814.156	0.0155602
814.234	0.0156402
814.312	0.0155861
814.390	0.0155799
814.468	0.0156366
814.546	0.0157021
814.624	0.0157312
814.703	0.0156140
814.781	0.0156085
814.859	0.0157688
814.937	0.0157562
815.015	0.0159800
815.093	0.0159099
815.171	0.0158909
815.249	0.0158634
815.328	0.0158683
815.406	0.0160959
815.484	0.0160411
815.562	0.0160100
815.640	0.0161656
815.718	0.0160583
815.796	0.0160509
815.874	0.0160869
815.953	0.0160897
816.031	0.0160193
816.109	0.0159509
816.187	0.0159878
816.265	0.0158218
816.343	0.0160247
816.421	0.0160384
816.499	0.0158695
816.578	0.0158669
816.656	0.0157286
816.734	0.0158131
816.812	0.0159379
816.890	0.0157726
816.968	0.0159376
817.046	0.0158816
817.124	0.0160022
817.203	0.0159380
817.281	0.0159229
817.359	0.0159155
817.437	0.0159293
817.515	0.0158825
817.593	0.0158794
817.671	0.0160022
817.749	0.0157922
817.828	0.0159296
817.906	0.0158790
817.984	0.0158801
818.062	0.0159290
818.140	0.0160170
818.218	0.0160069
818.296	0.0159154
818.374	0.0160177
818.453	0.0158993
818.531	0.0159308
818.609	0.0161313
818.687	0.0159117
818.765	0.0159257
818.843	0.0158642
818.921	0.0159370
818.999	0.0157527
819.078	0.0158783
819.156	0.0158118
819.234	0.0158191
819.312	0.0157269
819.390	0.0156755
819.468	0.0158114
819.546	0.0157847
819.624	0.0156787
819.703	0.0157516
819.781	0.0156489
819.859	0.0157866
819.937	0.0156084
820.015	0.0157111
820.093	0.0157792
820.171	0.0156813
820.249	0.0157075
820.328	0.0158616
820.406	0.0157262
820.484	0.0157990
820.562	0.0157954
820.640	0.0158760
820.718	0.0159344
820.796	0.0159005
820.874	0.0159146
820.953	0.0158863
821.031	0.0160595
821.109	0.0160322
821.187	0.0160089
821.265	0.0160529
821.343	0.0160945
821.421	0.0160317
821.499	0.0159820
821.578	0.0161835
821.656	0.0160635
821.734	0.0161462
821.812	0.0160871
821.890	0.0160303
821.968	0.0161066
822.046	0.0161488
822.124	0.0161047
822.203	0.0161225
822.281	0.0160235
822.359	0.0160134
822.437	0.0159892
822.515	0.0159482
822.593	0.0159032
822.671	0.0159479
822.749	0.0159360
822.828	0.0159120
822.906	0.0160194
822.984	0.0158347
823.062	0.0159119
823.140	0.0157317
823.218	0.0158192
823.296	0.0155605
823.374	0.0158292
823.453	0.0157165
823.531	0.0156221
823.609	0.0157320
823.687	0.0157224
823.765	0.0156826
823.843	0.0157401
823.921	0.0157849
823.999	0.0156740
824.078	0.0157404
824.156	0.0157463
824.234	0.0158096
824.312	0.0159482
824.390	0.0158817
824.468	0.0159055
824.546	0.0159328
824.624	0.0159376
824.703	0.0160243
824.781	0.0160872
824.859	0.0161223
824.937	0.0162411
825.015	0.0161034
825.093	0.0159901
825.171	0.0160949
825.249	0.0160481
825.328	0.0161230
825.406	0.0162199
825.484	0.0160534
825.562	0.0161487
825.640	0.0159887
825.718	0.0161591
825.796	0.0160854
825.874	0.0160508
825.953	0.0159310
826.031	0.0159460
826.109	0.0158994
826.187	0.0160379
826.265	0.0160228
826.343	0.0158736
826.421	0.0158502
826.499	0.0158694
826.578	0.0159218
826.656	0.0158284
826.734	0.0158770
826.812	0.0158599
826.890	0.0160011
826.968	0.0159203
827.046	0.0157481
827.124	0.0158691
827.203	0.0158524
827.281	0.0155484
827.359	0.0156129
827.437	0.0155691
827.515	0.0156718
827.593	0.0155986
827.671	0.0156726
827.749	0.0156581
827.828	0.0156522
827.906	0.0156314
827.984	0.0156893
828.062	0.0158073
828.140	0.0157445
828.218	0.0159282
828.296	0.0160368
828.374	0.0161129
828.453	0.0161166
828.531	0.0161121
828.609	0.0162368
828.687	0.0163154
828.765	0.0163045
828.843	0.0162803
828.921	0.0162524
828.999	0.0161344
829.078	0.0162598
829.156	0.0163136
829.234	0.0161140
829.312	0.0161619
829.390	0.0162349
829.468	0.0160320
829.546	0.0161025
829.624	0.0157539
829.703	0.0159011
829.781	0.0159064
829.859	0.0157568
829.937	0.0156084
830.015	0.0157098
830.093	0.0156949
830.171	0.0156071
830.249	0.0154968
830.328	0.0154775
830.406	0.0154388
830.484	0.0154388
830.562	0.0155608
830.640	0.0156027
830.718	0.0155835
830.796	0.0154340
830.874	0.0155450
830.953	0.0157561
831.031	0.0158113
831.109	0.0157802
831.187	0.0157465
831.265	0.0159167
831.343	0.0159195
831.421	0.0160468
831.499	0.0161480
831.578	0.0161662
831.656	0.0162218
831.734	0.0162028
831.812	0.0162918
831.890	0.0162833
831.968	0.0163062
832.046	0.0164063
832.124	0.0163561
832.203	0.0161983
832.281	0.0162397
832.359	0.0160487
832.437	0.0159924
832.515	0.0160829
832.593	0.0161472
832.671	0.0160453
832.749	0.0158220
832.828	0.0157353
832.906	0.0157028
832.984	0.0155215
833.062	0.0156125
833.140	0.0156472
833.218	0.0156377
833.296	0.0155481
833.374	0.0155711
833.453	0.0155759
833.531	0.0155833
833.609	0.0154021
833.687	0.0154417
833.765	0.0156242
833.843	0.0155762
833.921	0.0155149
833.999	0.0156931
834.078	0.0155585
834.156	0.0156402
834.234	0.0158312
834.312	0.0157607
834.390	0.0160442
834.468	0.0158182
834.546	0.0157745
834.624	0.0159686
834.703	0.0160508
834.781	0.0160239
834.859	0.0159927
834.937	0.0160128
835.015	0.0159269
835.093	0.0158819
835.171	0.0160075
835.249	0.0160539
835.328	0.0159662
835.406	0.0158932
835.484	0.0159727
835.562	0.0159500
835.640	0.0159569
835.718	0.0158751
835.796	0.0160197
835.874	0.0160648
835.953	0.0159309
836.031	0.0160226
836.109	0.0159673
836.187	0.0160338
836.265	0.0160219
836.343	0.0158894
836.421	0.0159073
836.499	0.0159825
836.578	0.0158764
836.656	0.0159541
836.734	0.0158865
836.812	0.0160007
836.890	0.0159818
836.968	0.0158681
837.046	0.0156599
837.124	0.0159388
837.203	0.0159693
837.281	0.0159517
837.359	0.0158841
837.437	0.0158086
837.515	0.0157871
837.593	0.0158676
837.671	0.0157758
837.749	0.0159185
837.828	0.0159624
837.906	0.0158275
837.984	0.0158175
838.062	0.0157753
838.140	0.0159879
838.218	0.0159003
838.296	0.0159944
838.374	0.0160921
838.453	0.0160150
838.531	0.0159853
838.609	0.0159225
838.687	0.0160013
838.765	0.0158922
838.843	0.0160654
838.921	0.0161261
838.999	0.0160005
839.078	0.0159512
839.156	0.0159937
839.234	0.0160892
839.312	0.0160619
839.390	0.0159916
839.468	0.0159465
839.546	0.0159651
839.624	0.0161922
839.703	0.0161099
839.781	0.0161794
839.859	0.0161577
839.937	0.0160627
840.015	0.0160939
840.093	0.0161343
840.171	0.0161453
840.249	0.0161296
840.328	0.0159913
840.406	0.0159827
840.484	0.0159205
840.562	0.0160654
840.640	0.0160480
840.718	0.0159526
840.796	0.0158287
840.874	0.0159892
840.953	0.0157751
841.031	0.0159499
841.109	0.0160136
841.187	0.0160146
841.265	0.0159684
841.343	0.0161024
841.421	0.0160865
841.499	0.0160443
841.578	0.0159966
841.656	0.0159825
841.734	0.0159708
841.812	0.0160068
841.890	0.0161437
841.968	0.0158846
842.046	0.0159402
842.124	0.0161173
842.203	0.0160828
842.281	0.0161100
842.359	0.0162401
842.437	0.0161017
842.515	0.0162540
842.593	0.0161214
842.671	0.0160912
842.749	0.0162025
842.828	0.0161033
842.906	0.0160365
842.984	0.0162717
843.062	0.0161359
843.140	0.0160785
843.218	0.0161349
843.296	0.0160406
843.374	0.0160894
843.453	0.0162083
843.531	0.0159472
843.609	0.0159272
843.687	0.0160593
843.765	0.0159106
843.843	0.0160046
843.921	0.0159776
843.999	0.0160166
844.078	0.0159006
844.156	0.0159306
844.234	0.0160084
844.312	0.0159962
844.390	0.0159200
844.468	0.0157583
844.546	0.0157983
844.624	0.0159068
844.703	0.0157218
844.781	0.0158581
844.859	0.0156744
844.937	0.0156980
845.015	0.0156956
845.093	0.0155909
845.171	0.0157427
845.249	0.0157355
845.328	0.0157533
845.406	0.0156810
845.484	0.0157956
845.562	0.0158084
845.640	0.0157401
845.718	0.0159531
845.796	0.0158710
845.874	0.0159297
845.953	0.0160020
846.031	0.0161462
846.109	0.0160780
846.187	0.0160486
846.265	0.0159405
846.343	0.0160682
846.421	0.0161603
846.499	0.0162125
846.578	0.0161384
846.656	0.0162305
846.734	0.0160938
846.812	0.0162376
846.890	0.0162202
846.968	0.0162118
847.046	0.0160455
847.124	0.0161764
847.203	0.0160851
847.281	0.0160272
847.359	0.0160963
847.437	0.0160905
847.515	0.0160825
847.593	0.0160247
847.671	0.0160238
847.749	0.0159200
847.828	0.0159896
847.906	0.0159365
847.984	0.0159297
848.062	0.0159863
848.140	0.0159361
848.218	0.0158852
848.296	0.0158271
848.374	0.0158427
848.453	0.0157148
848.531	0.0157082
848.609	0.0157845
848.687	0.0156629
848.765	0.0157848
848.843	0.0156263
848.921	0.0156847
848.999	0.0156868
849.078	0.0157207
849.156	0.0157784
849.234	0.0156083
849.312	0.0157896
849.390	0.0157033
849.468	0.0158055
849.546	0.0157823
849.624	0.0157751
849.703	0.0158734
849.781	0.0158258
849.859	0.0158728
849.937	0.0159985
850.015	0.0158910
850.093	0.0157860
850.171	0.0159644
850.249	0.0160069
850.328	0.0159370
850.406	0.0160874
850.484	0.0160778
850.562	0.0160825
850.640	0.0159740
850.718	0.0159686
850.796	0.0160893
850.874	0.0160184
850.953	0.0161283
851.031	0.0161156
851.109	0.0159637
851.187	0.0158323
851.265	0.0159013
851.343	0.0159261
851.421	0.0158358
851.499	0.0159089
851.578	0.0158849
851.656	0.0158414
851.734	0.0157899
851.812	0.0157102
851.890	0.0157588
851.968	0.0158308
852.046	0.0156956
852.124	0.0156931
852.203	0.0156799
852.281	0.0155382
852.359	0.0154778
852.437	0.0156556
852.515	0.0155975
852.593	0.0155904
852.671	0.0155264
852.749	0.0155305
852.828	0.0156453
852.906	0.0155906
852.984	0.0155424
853.062	0.0156464
853.140	0.0156799
853.218	0.0158590
853.296	0.0158433
853.374	0.0158019
853.453	0.0157719
853.531	0.0158489
853.609	0.0159518
853.687	0.0158190
853.765	0.0158606
853.843	0.0160609
853.921	0.0160738
853.999	0.0160216
854.078	0.0160825
854.156	0.0161576
854.234	0.0161793
854.312	0.0162441
854.390	0.0162997
854.468	0.0160986
854.546	0.0160761
854.624	0.0162527
854.703	0.0161349
854.781	0.0159656
854.859	0.0159870
854.937	0.0159310
855.015	0.0159988
855.093	0.0160094
855.171	0.0159864
855.249	0.0158242
855.328	0.0159816
855.406	0.0160172
855.484	0.0158883
855.562	0.0156348
855.640	0.0158504
855.718	0.0157783
855.796	0.0158176
855.874	0.0158781
855.953	0.0158228
856.031	0.0158065
856.109	0.0158194
856.187	0.0158525
856.265	0.0156982
856.343	0.0158107
856.421	0.0159402
856.499	0.0158670
856.578	0.0158320
856.656	0.0159753
856.734	0.0158459
856.812	0.0160378
856.890	0.0160104
856.968	0.0157703
857.046	0.0160419
857.124	0.0160268
857.203	0.0158848
857.281	0.0159781
857.359	0.0159868
857.437	0.0160599
857.515	0.0160255
857.593	0.0160738
857.671	0.0159342
857.749	0.0158847
857.828	0.0158917
857.906	0.0159138
857.984	0.0159005
858.062	0.0158991
858.140	0.0158546
858.218	0.0158736
858.296	0.0159013
858.374	0.0158912
858.453	0.0159483
858.531	0.0159410
858.609	0.0160158
858.687	0.0159882
858.765	0.0159010
858.843	0.0157976
858.921	0.0157956
858.999	0.0158394
859.078	0.0158353
859.156	0.0160566
859.234	0.0159895
859.312	0.0160378
859.390	0.0160642
859.468	0.0160507
859.546	0.0160098
859.624	0.0158443
859.703	0.0159851
859.781	0.0159997
859.859	0.0159132
859.937	0.0157269
860.015	0.0159260
860.093	0.0159702
860.171	0.0159171
860.249	0.0159848
860.328	0.0159452
860.406	0.0159035
860.484	0.0159740
860.562	0.0157265
860.640	0.0157232
860.718	0.0158949
860.796	0.0158564
860.874	0.0159045
860.953	0.0158538
861.031	0.0158713
861.109	0.0159490
861.187	0.0159676
861.265	0.0159803
861.343	0.0159510
861.421	0.0159381
861.499	0.0159671
861.578	0.0159190
861.656	0.0160898
861.734	0.0160358
861.812	0.0158912
861.890	0.0160332
861.968	0.0159444
862.046	0.0160815
862.124	0.0158446
862.203	0.0158640
862.281	0.0158434
862.359	0.0158766
862.437	0.0159005
862.515	0.0158963
862.593	0.0158534
862.671	0.0158045
862.749	0.0158231
862.828	0.0157565
862.906	0.0158880
862.984	0.0156502
863.062	0.0157433
863.140	0.0157236
863.218	0.0158614
863.296	0.0158574
863.374	0.0159195
863.453	0.0157951
863.531	0.0159390
863.609	0.0158932
863.687	0.0159775
863.765	0.0160435
863.843	0.0160447
863.921	0.0159911
863.999	0.0160151
864.078	0.0159791
864.156	0.0160083
864.234	0.0160729
864.312	0.0159592
864.390	0.0160760
864.468	0.0161084
864.546	0.0161948
864.624	0.0161275
864.703	0.0159689
864.781	0.0159489
864.859	0.0160287
864.937	0.0161082
865.015	0.0160541
865.093	0.0160390
865.171	0.0160229
865.249	0.0160245
865.328	0.0160984
865.406	0.0159579
865.484	0.0160879
865.562	0.0160992
865.640	0.0159756
865.718	0.0160455
865.796	0.0160221
865.874	0.0159427
865.953	0.0160613
866.031	0.0158144
866.109	0.0160765
866.187	0.0161017
866.265	0.0159337
866.343	0.0159724
866.421	0.0159570
866.499	0.0159608
866.578	0.0159207
866.656	0.0160662
866.734	0.0159911
866.812	0.0161456
866.890	0.0160256
866.968	0.0160543
867.046	0.0160145
867.124	0.0160383
867.203	0.0160210
867.281	0.0159223
867.359	0.0160963
867.437	0.0158919
867.515	0.0159711
867.593	0.0157753
867.671	0.0159155
867.749	0.0160001
867.828	0.0157709
867.906	0.0158085
867.984	0.0159386
868.062	0.0158379
868.140	0.0157461
868.218	0.0158766
868.296	0.0158717
868.374	0.0159142
868.453	0.0159417
868.531	0.0160109
868.609	0.0158617
868.687	0.0159040
868.765	0.0159003
868.843	0.0159997
868.921	0.0160130
868.999	0.0160564
869.078	0.0158974
869.156	0.0159387
869.234	0.0159875
869.312	0.0159711
869.390	0.0159651
869.468	0.0159467
869.546	0.0160026
869.624	0.0160310
869.703	0.0158967
869.781	0.0160173
869.859	0.0160549
869.937	0.0160396
870.015	0.0158789
870.093	0.0160492
870.171	0.0159708
870.249	0.0158600
870.328	0.0160558
870.406	0.0159896
870.484	0.0159680
870.562	0.0160246
870.640	0.0160442
870.718	0.0158825
870.796	0.0160825
870.874	0.0158494
870.953	0.0159871
871.031	0.0161106
871.109	0.0157811
871.187	0.0159028
871.265	0.0158946
871.343	0.0158109
871.421	0.0158435
871.499	0.0159445
871.578	0.0157730
871.656	0.0160541
871.734	0.0159609
871.812	0.0159189
871.890	0.0159029
871.968	0.0159680
872.046	0.0159787
872.124	0.0159470
872.203	0.0158241
872.281	0.0159669
872.359	0.0159326
872.437	0.0160223
872.515	0.0160382
872.593	0.0160131
872.671	0.0161565
872.749	0.0159685
872.828	0.0158733
872.906	0.0159780
872.984	0.0161395
873.062	0.0162486
873.140	0.0162114
873.218	0.0161295
873.296	0.0161654
873.374	0.0160217
873.453	0.0161640
873.531	0.0161692
873.609	0.0162083
873.687	0.0161562
873.765	0.0161617
873.843	0.0161974
873.921	0.0161192
873.999	0.0159943
874.078	0.0159929
874.156	0.0158929
874.234	0.0159945
874.312	0.0158994
874.390	0.0158395
874.468	0.0159504
874.546	0.0159582
874.624	0.0158578
874.703	0.0159599
874.781	0.0159634
874.859	0.0158526
874.937	0.0159011
875.015	0.0158681
875.093	0.0158025
875.171	0.0158694
875.249	0.0157696
875.328	0.0157738
875.406	0.0158266
875.484	0.0158587
875.562	0.0158688
875.640	0.0157596
875.718	0.0158435
875.796	0.0158401
875.874	0.0159225
875.953	0.0160197
876.031	0.0159811
876.109	0.0157842
876.187	0.0158819
876.265	0.0158353
876.343	0.0157703
876.421	0.0159013
876.499	0.0160865
876.578	0.0158981
876.656	0.0158436
876.734	0.0158540
876.812	0.0160298
876.890	0.0159487
876.968	0.0158335
877.046	0.0157725
877.124	0.0159067
877.203	0.0159341
877.281	0.0159374
877.359	0.0159871
877.437	0.0158102
877.515	0.0159519
877.593	0.0159557
877.671	0.0157487
877.749	0.0159059
877.828	0.0157446
877.906	0.0158102
877.984	0.0158479
878.062	0.0158730
878.140	0.0157055
878.218	0.0159808
878.296	0.0158260
878.374	0.0157404
878.453	0.0156856
878.531	0.0158372
878.609	0.0158741
878.687	0.0156998
878.765	0.0157682
878.843	0.0158823
878.921	0.0158498
878.999	0.0158856
879.078	0.0157462
879.156	0.0159142
879.234	0.0157758
879.312	0.0157448
879.390	0.0157807
879.468	0.0156842
879.546	0.0158012
879.624	0.0157555
879.703	0.0156394
879.781	0.0157531
879.859	0.0157378
879.937	0.0158102
880.015	0.0157062
880.093	0.0157368
880.171	0.0156849
880.249	0.0156506
880.328	0.0157233
880.406	0.0158036
880.484	0.0156377
880.562	0.0156155
880.640	0.0156017
880.718	0.0158540
880.796	0.0158157
880.874	0.0156835
880.953	0.0157494
881.031	0.0158306
881.109	0.0158974
881.187	0.0157517
881.265	0.0157993
881.343	0.0157502
881.421	0.0158082
881.499	0.0159163
881.578	0.0158931
881.656	0.0159263
881.734	0.0158154
881.812	0.0158812
881.890	0.0159007
881.968	0.0158271
882.046	0.0158551
882.124	0.0158652
882.203	0.0157565
882.281	0.0157044
882.359	0.0157961
882.437	0.0157598
882.515	0.0157476
882.593	0.0158188
882.671	0.0156377
882.749	0.0156655
882.828	0.0158633
882.906	0.0158293
882.984	0.0156222
883.062	0.0157099
883.140	0.0156520
883.218	0.0157362
883.296	0.0157651
883.374	0.0157175
883.453	0.0157450
883.531	0.0157551
883.609	0.0157994
883.687	0.0157197
883.765	0.0156802
883.843	0.0158345
883.921	0.0158683
883.999	0.0159286
884.078	0.0159113
884.156	0.0158252
884.234	0.0159665
884.312	0.0159432
884.390	0.0159123
884.468	0.0159740
884.546	0.0159126
884.624	0.0159390
884.703	0.0159163
884.781	0.0160088
884.859	0.0159458
884.937	0.0159272
885.015	0.0159179
885.093	0.0159361
885.171	0.0158241
885.249	0.0158582
885.328	0.0157994
885.406	0.0158530
885.484	0.0157854
885.562	0.0159332
885.640	0.0158226
885.718	0.0157245
885.796	0.0158667
885.874	0.0156691
885.953	0.0158520
886.031	0.0157927
886.109	0.0158339
886.187	0.0158192
886.265	0.0158379
886.343	0.0158681
886.421	0.0158556
886.499	0.0158159
886.578	0.0160340
886.656	0.0160529
886.734	0.0158942
886.812	0.0159908
886.890	0.0161558
886.968	0.0160162
887.046	0.0159952
887.124	0.0160619
887.203	0.0160443
887.281	0.0160492
887.359	0.0160543
887.437	0.0162391
887.515	0.0160624
887.593	0.0161002
887.671	0.0161323
887.749	0.0161092
887.828	0.0160184
887.906	0.0160476
887.984	0.0160290
888.062	0.0160430
888.140	0.0160440
888.218	0.0159688
888.296	0.0159798
888.374	0.0158884
888.453	0.0158424
888.531	0.0159271
888.609	0.0159530
888.687	0.0159473
888.765	0.0159322
888.843	0.0158654
888.921	0.0159160
888.999	0.0157911
889.078	0.0159019
889.156	0.0158462
889.234	0.0158012
889.312	0.0159875
889.390	0.0159604
889.468	0.0158565
889.546	0.0159378
889.624	0.0158506
889.703	0.0159090
889.781	0.0159205
889.859	0.0157815
889.937	0.0157951
890.015	0.0159525
890.093	0.0158701
890.171	0.0159136
890.249	0.0160803
890.328	0.0159673
890.406	0.0159425
890.484	0.0159283
890.562	0.0158959
890.640	0.0158614
890.718	0.0159255
890.796	0.0159119
890.874	0.0160630
890.953	0.0159203
891.031	0.0160326
891.109	0.0159057
891.187	0.0159927
891.265	0.0160554
891.343	0.0159926
891.421	0.0161159
891.499	0.0160090
891.578	0.0160680
891.656	0.0159820
891.734	0.0159175
891.812	0.0160232
891.890	0.0160186
891.968	0.0159113
892.046	0.0159138
892.124	0.0161011
892.203	0.0158715
892.281	0.0158817
892.359	0.0160542
892.437	0.0158739
892.515	0.0158961
892.593	0.0158149
892.671	0.0161013
892.749	0.0158967
892.828	0.0157755
892.906	0.0157634
892.984	0.0159451
893.062	0.0159900
893.140	0.0159102
893.218	0.0159004
893.296	0.0159560
893.374	0.0159177
893.453	0.0158239
893.531	0.0158693
893.609	0.0157977
893.687	0.0157296
893.765	0.0157378
893.843	0.0157322
893.921	0.0158562
893.999	0.0158312
894.078	0.0157956
894.156	0.0159428
894.234	0.0158035
894.312	0.0158366
894.390	0.0158022
894.468	0.0157910
894.546	0.0158516
894.624	0.0158814
894.703	0.0158668
894.781	0.0159382
894.859	0.0159242
894.937	0.0159534
895.015	0.0159758
895.093	0.0159173
895.171	0.0158731
895.249	0.0158889
895.328	0.0159518
895.406	0.0159266
895.484	0.0158411
895.562	0.0159534
895.640	0.0159422
895.718	0.0159054
895.796	0.0160240
895.874	0.0158658
895.953	0.0159648
896.031	0.0159843
896.109	0.0159488
896.187	0.0159356
896.265	0.0159362
896.343	0.0159381
896.421	0.0161012
896.499	0.0160791
896.578	0.0159346
896.656	0.0160582
896.734	0.0159340
896.812	0.0160101
896.890	0.0159188
896.968	0.0158830
897.046	0.0158362
897.124	0.0158371
897.203	0.0157883
897.281	0.0160201
897.359	0.0157976
897.437	0.0157287
897.515	0.0159426
897.593	0.0158129
897.671	0.0158625
897.749	0.0157192
897.828	0.0158173
897.906	0.0158540
897.984	0.0158766
898.062	0.0157896
898.140	0.0158415
898.218	0.0159782
898.296	0.0159209
898.374	0.0158396
898.453	0.0158887
898.531	0.0158904
898.609	0.0158700
898.687	0.0159088
898.765	0.0158583
898.843	0.0159669
898.921	0.0159338
898.999	0.0159957
899.078	0.0159766
899.156	0.0161159
899.234	0.0159947
899.312	0.0159811
899.390	0.0160734
899.468	0.0161015
899.546	0.0160889
899.624	0.0160360
899.703	0.0159289
899.781	0.0159364
899.859	0.0159492
899.937	0.0160221
900.015	0.0159644
900.093	0.0158871
900.171	0.0159071
900.249	0.0160674
900.328	0.0159305
900.406	0.0158372
900.484	0.0157819
900.562	0.0160239
900.640	0.0159668
900.718	0.0159013
900.796	0.0159103
900.874	0.0158720
900.953	0.0159872
901.031	0.0157734
901.109	0.0157917
901.187	0.0158282
901.265	0.0158845
901.343	0.0159547
901.421	0.0157861
901.499	0.0158012
901.578	0.0158160
901.656	0.0158360
901.734	0.0157998
901.812	0.0158166
901.890	0.0158004
901.968	0.0155014
902.046	0.0158211
902.124	0.0158101
902.203	0.0157746
902.281	0.0158351
902.359	0.0156591
902.437	0.0157687
902.515	0.0157257
902.593	0.0157095
902.671	0.0157488
902.749	0.0157738
902.828	0.0158242
902.906	0.0158334
902.984	0.0158372
903.062	0.0158605
903.140	0.0156800
903.218	0.0157059
903.296	0.0156936
903.374	0.0157109
903.453	0.0156678
903.531	0.0157958
903.609	0.0157813
903.687	0.0156979
903.765	0.0158050
903.843	0.0157028
903.921	0.0158412
903.999	0.0157475
904.078	0.0157432
904.156	0.0158032
904.234	0.0157897
904.312	0.0157725
904.390	0.0158297
904.468	0.0158323
904.546	0.0157997
904.624	0.0157854
904.703	0.0157968
904.781	0.0158782
904.859	0.0159472
904.937	0.0158161
905.015	0.0158640
905.093	0.0157475
905.171	0.0157313
905.249	0.0159060
905.328	0.0158292
905.406	0.0157446
905.484	0.0159880
905.562	0.0158095
905.640	0.0158875
905.718	0.0158599
905.796	0.0160186
905.874	0.0158375
905.953	0.0157957
906.031	0.0158686
906.109	0.0160152
906.187	0.0159850
906.265	0.0158030
906.343	0.0157469
906.421	0.0157862
906.499	0.0158087
906.578	0.0159714
906.656	0.0159994
906.734	0.0158588
906.812	0.0159502
906.890	0.0159115
906.968	0.0158871
907.046	0.0157689
907.124	0.0157730
907.203	0.0160526
907.281	0.0158318
907.359	0.0159264
907.437	0.0158932
907.515	0.0158221
907.593	0.0158201
907.671	0.0157928
907.749	0.0157650
907.828	0.0158829
907.906	0.0157920
907.984	0.0159396
908.062	0.0157896
908.140	0.0158562
908.218	0.0158592
908.296	0.0157935
908.374	0.0158837
908.453	0.0159573
908.531	0.0159005
908.609	0.0157697
908.687	0.0157956
908.765	0.0160004
908.843	0.0159966
908.921	0.0159271
908.999	0.0158619
909.078	0.0157459
909.156	0.0158758
909.234	0.0158455
909.312	0.0159781
909.390	0.0159023
909.468	0.0158930
909.546	0.0158655
909.624	0.0159770
909.703	0.0158991
909.781	0.0160903
909.859	0.0158772
909.937	0.0160534
910.015	0.0159235
910.093	0.0160190
910.171	0.0160519
910.249	0.0161259
910.328	0.0160691
910.406	0.0160256
910.484	0.0159675
910.562	0.0157653
910.640	0.0159105
910.718	0.0160027
910.796	0.0159493
910.874	0.0158218
910.953	0.0157820
911.031	0.0160300
911.109	0.0160587
911.187	0.0160676
911.265	0.0158781
911.343	0.0158924
911.421	0.0157118
911.499	0.0159315
911.578	0.0159480
911.656	0.0158368
911.734	0.0158995
911.812	0.0158943
911.890	0.0160016
911.968	0.0159579
912.046	0.0159615
912.124	0.0160052
912.203	0.0159568
912.281	0.0161442
912.359	0.0159626
912.437	0.0160950
912.515	0.0160265
912.593	0.0161326
912.671	0.0160082
912.749	0.0160432
912.828	0.0159737
912.906	0.0161204
912.984	0.0159882
913.062	0.0159771
913.140	0.0161379
913.218	0.0161746
913.296	0.0159812
913.374	0.0160810
913.453	0.0161701
913.531	0.0160116
913.609	0.0160864
913.687	0.0160404
913.765	0.0160998
913.843	0.0159867
913.921	0.0159246
913.999	0.0160658
914.078	0.0160550
914.156	0.0158469
914.234	0.0159847
914.312	0.0159402
914.390	0.0159598
914.468	0.0160249
914.546	0.0159171
914.624	0.0159255
914.703	0.0159573
914.781	0.0160180
914.859	0.0159338
914.937	0.0159666
915.015	0.0160172
915.093	0.0160561
915.171	0.0158808
915.249	0.0160126
915.328	0.0158549
915.406	0.0159307
915.484	0.0158931
915.562	0.0158268
915.640	0.0159975
915.718	0.0160204
915.796	0.0159465
915.874	0.0158924
915.953	0.0159321
916.031	0.0159518
916.109	0.0159212
916.187	0.0159772
916.265	0.0159580
916.343	0.0159053
916.421	0.0159841
916.499	0.0158076
916.578	0.0158382
916.656	0.0159219
916.734	0.0158333
916.812	0.0158904
916.890	0.0158064
916.968	0.0158633
917.046	0.0159233
917.124	0.0157594
917.203	0.0157611
917.281	0.0157549
917.359	0.0158257
917.437	0.0159138
917.515	0.0157349
917.593	0.0157723
917.671	0.0158189
917.749	0.0159191
917.828	0.0159636
917.906	0.0158523
917.984	0.0157833
918.062	0.0158874
918.140	0.0159870
918.218	0.0160092
918.296	0.0158991
918.374	0.0157941
918.453	0.0159443
918.531	0.0159937
918.609	0.0160944
918.687	0.0158955
918.765	0.0158654
918.843	0.0159459
918.921	0.0158006
918.999	0.0157085
919.078	0.0158076
919.156	0.0156935
919.234	0.0157799
919.312	0.0158674
919.390	0.0158383
919.468	0.0157826
919.546	0.0158362
919.624	0.0158509
919.703	0.0158450
919.781	0.0157925
919.859	0.0158110
919.937	0.0157364
