06/10/2022	19:03:01	Ver.	4.1	UNKNOWN
Optical Delay	600.015094	Delta X		0.078125	Sweeps	1	Scan Rate	0/0
Coordinates	Axis 1	NaN	Axis 2	NaN	Axis 3	NaN	Axis 4	NaN	Axis 5	NaN	Axis 6	0.000000
TX Power	0.000000	RX Power	0.000000

600.015	0.0154497
600.093	0.0154463
600.171	0.0154974
600.249	0.0156153
600.328	0.0154588
600.406	0.0156291
600.484	0.0154742
600.562	0.0154457
600.640	0.0155353
600.718	0.0155490
600.796	0.0155013
600.874	0.0154617
600.953	0.0155770
601.031	0.0156937
601.109	0.0155728
601.187	0.0154553
601.265	0.0156009
601.343	0.0154903
601.421	0.0155868
601.499	0.0156073
601.578	0.0155756
601.656	0.0155762
601.734	0.0156078
601.812	0.0155724
601.890	0.0155450
601.968	0.0155844
602.046	0.0157806
602.124	0.0156048
602.203	0.0155627
602.281	0.0155896
602.359	0.0156632
602.437	0.0156801
602.515	0.0156538
602.593	0.0155802
602.671	0.0155597
602.749	0.0157246
602.828	0.0156924
602.906	0.0157652
602.984	0.0157153
603.062	0.0156936
603.140	0.0157068
603.218	0.0157241
603.296	0.0156483
603.374	0.0156648
603.453	0.0156528
603.531	0.0157578
603.609	0.0157493
603.687	0.0157439
603.765	0.0157560
603.843	0.0157726
603.921	0.0158173
603.999	0.0158504
604.078	0.0157501
604.156	0.0157253
604.234	0.0157710
604.312	0.0156302
604.390	0.0157548
604.468	0.0158497
604.546	0.0157233
604.624	0.0156413
604.703	0.0157222
604.781	0.0157661
604.859	0.0156484
604.937	0.0156609
605.015	0.0157107
605.093	0.0155746
605.171	0.0156436
605.249	0.0156502
605.328	0.0156339
605.406	0.0157134
605.484	0.0155956
605.562	0.0156816
605.640	0.0156660
605.718	0.0155859
605.796	0.0155976
605.874	0.0157206
605.953	0.0156552
606.031	0.0156934
606.109	0.0156812
606.187	0.0157727
606.265	0.0157436
606.343	0.0155911
606.421	0.0155627
606.499	0.0158414
606.578	0.0157013
606.656	0.0154601
606.734	0.0156398
606.812	0.0156737
606.890	0.0155950
606.968	0.0157628
607.046	0.0156107
607.124	0.0154976
607.203	0.0154910
607.281	0.0157687
607.359	0.0156786
607.437	0.0154929
607.515	0.0154997
607.593	0.0155357
607.671	0.0156061
607.749	0.0154402
607.828	0.0154554
607.906	0.0154890
607.984	0.0155563
608.062	0.0154874
608.140	0.0154730
608.218	0.0154705
608.296	0.0156792
608.374	0.0156396
608.453	0.0156548
608.531	0.0154543
608.609	0.0154505
608.687	0.0154311
608.765	0.0154459
608.843	0.0154777
608.921	0.0155675
608.999	0.0155046
609.078	0.0154180
609.156	0.0155614
609.234	0.0154938
609.312	0.0156055
609.390	0.0155025
609.468	0.0155074
609.546	0.0155679
609.624	0.0156545
609.703	0.0155604
609.781	0.0153516
609.859	0.0154514
609.937	0.0155631
610.015	0.0155199
610.093	0.0154089
610.171	0.0154395
610.249	0.0156465
610.328	0.0154161
610.406	0.0154490
610.484	0.0157568
610.562	0.0155507
610.640	0.0155965
610.718	0.0156013
610.796	0.0155103
610.874	0.0157142
610.953	0.0154271
611.031	0.0154967
611.109	0.0156084
611.187	0.0155749
611.265	0.0155697
611.343	0.0156461
611.421	0.0156084
611.499	0.0155561
611.578	0.0154253
611.656	0.0156039
611.734	0.0154866
611.812	0.0155798
611.890	0.0154162
611.968	0.0156454
612.046	0.0155803
612.124	0.0157123
612.203	0.0157779
612.281	0.0156857
612.359	0.0157152
612.437	0.0156084
612.515	0.0156781
612.593	0.0156325
612.671	0.0157040
612.749	0.0157278
612.828	0.0157254
612.906	0.0156363
612.984	0.0156448
613.062	0.0156844
613.140	0.0156216
613.218	0.0157535
613.296	0.0155752
613.374	0.0156349
613.453	0.0157863
613.531	0.0155704
613.609	0.0156651
613.687	0.0156591
613.765	0.0156618
613.843	0.0157360
613.921	0.0157428
613.999	0.0156881
614.078	0.0156645
614.156	0.0156951
614.234	0.0157197
614.312	0.0158253
614.390	0.0157110
614.468	0.0157769
614.546	0.0157291
614.624	0.0157544
614.703	0.0156706
614.781	0.0156634
614.859	0.0157707
614.937	0.0156278
615.015	0.0158238
615.093	0.0158437
615.171	0.0159026
615.249	0.0157435
615.328	0.0156444
615.406	0.0156889
615.484	0.0157162
615.562	0.0156049
615.640	0.0157381
615.718	0.0156182
615.796	0.0158215
615.874	0.0155877
615.953	0.0156165
616.031	0.0157108
616.109	0.0157095
616.187	0.0156572
616.265	0.0157673
616.343	0.0157777
616.421	0.0157541
616.499	0.0156823
616.578	0.0155554
616.656	0.0156050
616.734	0.0158738
616.812	0.0157022
616.890	0.0156954
616.968	0.0156606
617.046	0.0156867
617.124	0.0157309
617.203	0.0156580
617.281	0.0157113
617.359	0.0156753
617.437	0.0155938
617.515	0.0156279
617.593	0.0155389
617.671	0.0155820
617.749	0.0158514
617.828	0.0156387
617.906	0.0155807
617.984	0.0155801
618.062	0.0157980
618.140	0.0155164
618.218	0.0157645
618.296	0.0156870
618.374	0.0157176
618.453	0.0155830
618.531	0.0155702
618.609	0.0157723
618.687	0.0157272
618.765	0.0156995
618.843	0.0156771
618.921	0.0157193
618.999	0.0156724
619.078	0.0155228
619.156	0.0157173
619.234	0.0155515
619.312	0.0156787
619.390	0.0157119
619.468	0.0156663
619.546	0.0156848
619.624	0.0156329
619.703	0.0156403
619.781	0.0156656
619.859	0.0156647
619.937	0.0155360
620.015	0.0154491
620.093	0.0156056
620.171	0.0155591
620.249	0.0155756
620.328	0.0155589
620.406	0.0154111
620.484	0.0155086
620.562	0.0152945
620.640	0.0154631
620.718	0.0153967
620.796	0.0152877
620.874	0.0152238
620.953	0.0151718
621.031	0.0153639
621.109	0.0152894
621.187	0.0152264
621.265	0.0151141
621.343	0.0152553
621.421	0.0153086
621.499	0.0152307
621.578	0.0152429
621.656	0.0151051
621.734	0.0151862
621.812	0.0153873
621.890	0.0154642
621.968	0.0153128
622.046	0.0154364
622.124	0.0154950
622.203	0.0154962
622.281	0.0155122
622.359	0.0154548
622.437	0.0155519
622.515	0.0154432
622.593	0.0156298
622.671	0.0155075
622.749	0.0153575
622.828	0.0154099
622.906	0.0154884
622.984	0.0152142
623.062	0.0153766
623.140	0.0152647
623.218	0.0153423
623.296	0.0153489
623.374	0.0153848
623.453	0.0152090
623.531	0.0152271
623.609	0.0153412
623.687	0.0154903
623.765	0.0154338
623.843	0.0152914
623.921	0.0154738
623.999	0.0153987
624.078	0.0154322
624.156	0.0155348
624.234	0.0155078
624.312	0.0155756
624.390	0.0153222
624.468	0.0154965
624.546	0.0154913
624.624	0.0154514
624.703	0.0155068
624.781	0.0154723
624.859	0.0154725
624.937	0.0156006
625.015	0.0155637
625.093	0.0154856
625.171	0.0153951
625.249	0.0155308
625.328	0.0153841
625.406	0.0153433
625.484	0.0154259
625.562	0.0155535
625.640	0.0155296
625.718	0.0155396
625.796	0.0155965
625.874	0.0156235
625.953	0.0155836
626.031	0.0154778
626.109	0.0154639
626.187	0.0155929
626.265	0.0155316
626.343	0.0155728
626.421	0.0154690
626.499	0.0154967
626.578	0.0155038
626.656	0.0155251
626.734	0.0155318
626.812	0.0154670
626.890	0.0155238
626.968	0.0156876
627.046	0.0155202
627.124	0.0156773
627.203	0.0156504
627.281	0.0155544
627.359	0.0154550
627.437	0.0155864
627.515	0.0155281
627.593	0.0155125
627.671	0.0156106
627.749	0.0155747
627.828	0.0157345
627.906	0.0156749
627.984	0.0157317
628.062	0.0157041
628.140	0.0156379
628.218	0.0157102
628.296	0.0157053
628.374	0.0157329
628.453	0.0156036
628.531	0.0156068
628.609	0.0157188
628.687	0.0157193
628.765	0.0156403
628.843	0.0157735
628.921	0.0156267
628.999	0.0157188
629.078	0.0156956
629.156	0.0157039
629.234	0.0156503
629.312	0.0157461
629.390	0.0155736
629.468	0.0155392
629.546	0.0156889
629.624	0.0156088
629.703	0.0156685
629.781	0.0154652
629.859	0.0156523
629.937	0.0157395
630.015	0.0155437
630.093	0.0155816
630.171	0.0155771
630.249	0.0156497
630.328	0.0156600
630.406	0.0156171
630.484	0.0157150
630.562	0.0157899
630.640	0.0155840
630.718	0.0157528
630.796	0.0156881
630.874	0.0156155
630.953	0.0155512
631.031	0.0157076
631.109	0.0156899
631.187	0.0156831
631.265	0.0156959
631.343	0.0156087
631.421	0.0156203
631.499	0.0156424
631.578	0.0155938
631.656	0.0156577
631.734	0.0156773
631.812	0.0155911
631.890	0.0157799
631.968	0.0156859
632.046	0.0156755
632.124	0.0157694
632.203	0.0156714
632.281	0.0157018
632.359	0.0157353
632.437	0.0157612
632.515	0.0156731
632.593	0.0155095
632.671	0.0155484
632.749	0.0156575
632.828	0.0157506
632.906	0.0157128
632.984	0.0157960
633.062	0.0157164
633.140	0.0156656
633.218	0.0155851
633.296	0.0155968
633.374	0.0155665
633.453	0.0154937
633.531	0.0156916
633.609	0.0157377
633.687	0.0156719
633.765	0.0155647
633.843	0.0156399
633.921	0.0156277
633.999	0.0156503
634.078	0.0157429
634.156	0.0156492
634.234	0.0156441
634.312	0.0157060
634.390	0.0155393
634.468	0.0157424
634.546	0.0157366
634.624	0.0154903
634.703	0.0157444
634.781	0.0157177
634.859	0.0156990
634.937	0.0157074
635.015	0.0157614
635.093	0.0157909
635.171	0.0157451
635.249	0.0155454
635.328	0.0156786
635.406	0.0156862
635.484	0.0156570
635.562	0.0157883
635.640	0.0158295
635.718	0.0156060
635.796	0.0156622
635.874	0.0157011
635.953	0.0156538
636.031	0.0157366
636.109	0.0157788
636.187	0.0156627
636.265	0.0156086
636.343	0.0157099
636.421	0.0157207
636.499	0.0157457
636.578	0.0156161
636.656	0.0156475
636.734	0.0157014
636.812	0.0156879
636.890	0.0156547
636.968	0.0156873
637.046	0.0157418
637.124	0.0158022
637.203	0.0156062
637.281	0.0155192
637.359	0.0156999
637.437	0.0155263
637.515	0.0155111
637.593	0.0155502
637.671	0.0155894
637.749	0.0156938
637.828	0.0156025
637.906	0.0156234
637.984	0.0157571
638.062	0.0156527
638.140	0.0155363
638.218	0.0157644
638.296	0.0157886
638.374	0.0156989
638.453	0.0155818
638.531	0.0155688
638.609	0.0157337
638.687	0.0157726
638.765	0.0156985
638.843	0.0156654
638.921	0.0155967
638.999	0.0156503
639.078	0.0157392
639.156	0.0156300
639.234	0.0155511
639.312	0.0156465
639.390	0.0156144
639.468	0.0155418
639.546	0.0157131
639.624	0.0155563
639.703	0.0156944
639.781	0.0156385
639.859	0.0156390
639.937	0.0155284
640.015	0.0156096
640.093	0.0155830
640.171	0.0157098
640.249	0.0156859
640.328	0.0156228
640.406	0.0155220
640.484	0.0156210
640.562	0.0156063
640.640	0.0157011
640.718	0.0155627
640.796	0.0155671
640.874	0.0156434
640.953	0.0155663
641.031	0.0157266
641.109	0.0156821
641.187	0.0156838
641.265	0.0156674
641.343	0.0157060
641.421	0.0157198
641.499	0.0156097
641.578	0.0154383
641.656	0.0155227
641.734	0.0155247
641.812	0.0156492
641.890	0.0156010
641.968	0.0155370
642.046	0.0156375
642.124	0.0156285
642.203	0.0156670
642.281	0.0155537
642.359	0.0155770
642.437	0.0156174
642.515	0.0156272
642.593	0.0154375
642.671	0.0156417
642.749	0.0155836
642.828	0.0155866
642.906	0.0155723
642.984	0.0156631
643.062	0.0157016
643.140	0.0155173
643.218	0.0154282
643.296	0.0155846
643.374	0.0154839
643.453	0.0155829
643.531	0.0154249
643.609	0.0154373
643.687	0.0155997
643.765	0.0155206
643.843	0.0155566
643.921	0.0156538
643.999	0.0154580
644.078	0.0155390
644.156	0.0156219
644.234	0.0155867
644.312	0.0155344
644.390	0.0155056
644.468	0.0155781
644.546	0.0154599
644.624	0.0155247
644.703	0.0154372
644.781	0.0154700
644.859	0.0154544
644.937	0.0155424
645.015	0.0156474
645.093	0.0153545
645.171	0.0152567
645.249	0.0154586
645.328	0.0154498
645.406	0.0154049
645.484	0.0154456
645.562	0.0155161
645.640	0.0156035
645.718	0.0154166
645.796	0.0154356
645.874	0.0152830
645.953	0.0153653
646.031	0.0153510
646.109	0.0153820
646.187	0.0154396
646.265	0.0154044
646.343	0.0153169
646.421	0.0154062
646.499	0.0154757
646.578	0.0153419
646.656	0.0154453
646.734	0.0152498
646.812	0.0152930
646.890	0.0152869
646.968	0.0152829
647.046	0.0154195
647.124	0.0152202
647.203	0.0152719
647.281	0.0152837
647.359	0.0151859
647.437	0.0153244
647.515	0.0152628
647.593	0.0152235
647.671	0.0151757
647.749	0.0151578
647.828	0.0152560
647.906	0.0152314
647.984	0.0152184
648.062	0.0152335
648.140	0.0152872
648.218	0.0152664
648.296	0.0152430
648.374	0.0152636
648.453	0.0151955
648.531	0.0153389
648.609	0.0153341
648.687	0.0153548
648.765	0.0152028
648.843	0.0152375
648.921	0.0153536
648.999	0.0153452
649.078	0.0152009
649.156	0.0152611
649.234	0.0154067
649.312	0.0153155
649.390	0.0152750
649.468	0.0154440
649.546	0.0152399
649.624	0.0152598
649.703	0.0153123
649.781	0.0154668
649.859	0.0154055
649.937	0.0153844
650.015	0.0155354
650.093	0.0154758
650.171	0.0152787
650.249	0.0154013
650.328	0.0155851
650.406	0.0155066
650.484	0.0154532
650.562	0.0154733
650.640	0.0154854
650.718	0.0153958
650.796	0.0154891
650.874	0.0155097
650.953	0.0154531
651.031	0.0153601
651.109	0.0156205
651.187	0.0154287
651.265	0.0155432
651.343	0.0154082
651.421	0.0154077
651.499	0.0153768
651.578	0.0154928
651.656	0.0154621
651.734	0.0155262
651.812	0.0154634
651.890	0.0154087
651.968	0.0155777
652.046	0.0155540
652.124	0.0156788
652.203	0.0154902
652.281	0.0154492
652.359	0.0154829
652.437	0.0154560
652.515	0.0154559
652.593	0.0155704
652.671	0.0155936
652.749	0.0155078
652.828	0.0156808
652.906	0.0154847
652.984	0.0154781
653.062	0.0155648
653.140	0.0156459
653.218	0.0155733
653.296	0.0155423
653.374	0.0155547
653.453	0.0157050
653.531	0.0155799
653.609	0.0154625
653.687	0.0155839
653.765	0.0157706
653.843	0.0156417
653.921	0.0155122
653.999	0.0156606
654.078	0.0156417
654.156	0.0156466
654.234	0.0155905
654.312	0.0156755
654.390	0.0156544
654.468	0.0157602
654.546	0.0155472
654.624	0.0156973
654.703	0.0156339
654.781	0.0156812
654.859	0.0155996
654.937	0.0156860
655.015	0.0155382
655.093	0.0156095
655.171	0.0155861
655.249	0.0157451
655.328	0.0156430
655.406	0.0155582
655.484	0.0156473
655.562	0.0155541
655.640	0.0157143
655.718	0.0157014
655.796	0.0155673
655.874	0.0156411
655.953	0.0156597
656.031	0.0157357
656.109	0.0157092
656.187	0.0156564
656.265	0.0156723
656.343	0.0156715
656.421	0.0155720
656.499	0.0156738
656.578	0.0157400
656.656	0.0155637
656.734	0.0157317
656.812	0.0156847
656.890	0.0157218
656.968	0.0156514
657.046	0.0157552
657.124	0.0155260
657.203	0.0155325
657.281	0.0156248
657.359	0.0156660
657.437	0.0156882
657.515	0.0157050
657.593	0.0157103
657.671	0.0154451
657.749	0.0155895
657.828	0.0156033
657.906	0.0156816
657.984	0.0155339
658.062	0.0156995
658.140	0.0156545
658.218	0.0155093
658.296	0.0157372
658.374	0.0156967
658.453	0.0157529
658.531	0.0156211
658.609	0.0155732
658.687	0.0156424
658.765	0.0156310
658.843	0.0157907
658.921	0.0157481
658.999	0.0155270
659.078	0.0156494
659.156	0.0158054
659.234	0.0157271
659.312	0.0157445
659.390	0.0158416
659.468	0.0157358
659.546	0.0156545
659.624	0.0156522
659.703	0.0156071
659.781	0.0156741
659.859	0.0157420
659.937	0.0156757
660.015	0.0157381
660.093	0.0156041
660.171	0.0156715
660.249	0.0156453
660.328	0.0157724
660.406	0.0156325
660.484	0.0155683
660.562	0.0155843
660.640	0.0156393
660.718	0.0156873
660.796	0.0156341
660.874	0.0155092
660.953	0.0155778
661.031	0.0156885
661.109	0.0156918
661.187	0.0156395
661.265	0.0155050
661.343	0.0155324
661.421	0.0154330
661.499	0.0156036
661.578	0.0155776
661.656	0.0156512
661.734	0.0156989
661.812	0.0155405
661.890	0.0156279
661.968	0.0156023
662.046	0.0156829
662.124	0.0155697
662.203	0.0155506
662.281	0.0156276
662.359	0.0154766
662.437	0.0154345
662.515	0.0156033
662.593	0.0155688
662.671	0.0155869
662.749	0.0156877
662.828	0.0155865
662.906	0.0156635
662.984	0.0156536
663.062	0.0155776
663.140	0.0155550
663.218	0.0155771
663.296	0.0156202
663.374	0.0155880
663.453	0.0156561
663.531	0.0156519
663.609	0.0157022
663.687	0.0155875
663.765	0.0155869
663.843	0.0156619
663.921	0.0157320
663.999	0.0156915
664.078	0.0155009
664.156	0.0156715
664.234	0.0156188
664.312	0.0156785
664.390	0.0155463
664.468	0.0155862
664.546	0.0156351
664.624	0.0156378
664.703	0.0155898
664.781	0.0156541
664.859	0.0154805
664.937	0.0155920
665.015	0.0156371
665.093	0.0156026
665.171	0.0155949
665.249	0.0156792
665.328	0.0157165
665.406	0.0156113
665.484	0.0156763
665.562	0.0155991
665.640	0.0156537
665.718	0.0156855
665.796	0.0155342
665.874	0.0156087
665.953	0.0156800
666.031	0.0155409
666.109	0.0154843
666.187	0.0155160
666.265	0.0155542
666.343	0.0156670
666.421	0.0156522
666.499	0.0156065
666.578	0.0156654
666.656	0.0155688
666.734	0.0155439
666.812	0.0156287
666.890	0.0155392
666.968	0.0154659
667.046	0.0155332
667.124	0.0154820
667.203	0.0156285
667.281	0.0155618
667.359	0.0154829
667.437	0.0154734
667.515	0.0155510
667.593	0.0155376
667.671	0.0155071
667.749	0.0155110
667.828	0.0154016
667.906	0.0154707
667.984	0.0154260
668.062	0.0155486
668.140	0.0155022
668.218	0.0154322
668.296	0.0155615
668.374	0.0154874
668.453	0.0153780
668.531	0.0154333
668.609	0.0153576
668.687	0.0153979
668.765	0.0154460
668.843	0.0152990
668.921	0.0153973
668.999	0.0154398
669.078	0.0155157
669.156	0.0154657
669.234	0.0154160
669.312	0.0153761
669.390	0.0154177
669.468	0.0153843
669.546	0.0154362
669.624	0.0153793
669.703	0.0154128
669.781	0.0154204
669.859	0.0153859
669.937	0.0154028
670.015	0.0154197
670.093	0.0154147
670.171	0.0153412
670.249	0.0154074
670.328	0.0154842
670.406	0.0153351
670.484	0.0155272
670.562	0.0153858
670.640	0.0153979
670.718	0.0155254
670.796	0.0154745
670.874	0.0153967
670.953	0.0154289
671.031	0.0154256
671.109	0.0155174
671.187	0.0155630
671.265	0.0154471
671.343	0.0154699
671.421	0.0155625
671.499	0.0154988
671.578	0.0155687
671.656	0.0155058
671.734	0.0154310
671.812	0.0155468
671.890	0.0155943
671.968	0.0155943
672.046	0.0155616
672.124	0.0154477
672.203	0.0154728
672.281	0.0154862
672.359	0.0154973
672.437	0.0155810
672.515	0.0156381
672.593	0.0155415
672.671	0.0154793
672.749	0.0155202
672.828	0.0155425
672.906	0.0155221
672.984	0.0154290
673.062	0.0154795
673.140	0.0155349
673.218	0.0154584
673.296	0.0154850
673.374	0.0154485
673.453	0.0155598
673.531	0.0153786
673.609	0.0156328
673.687	0.0154601
673.765	0.0154948
673.843	0.0155866
673.921	0.0155396
673.999	0.0156071
674.078	0.0154510
674.156	0.0153991
674.234	0.0154622
674.312	0.0156108
674.390	0.0156303
674.468	0.0155972
674.546	0.0156299
674.624	0.0155094
674.703	0.0154923
674.781	0.0154258
674.859	0.0156133
674.937	0.0154939
675.015	0.0154362
675.093	0.0155156
675.171	0.0154642
675.249	0.0155838
675.328	0.0156905
675.406	0.0155054
675.484	0.0155465
675.562	0.0156750
675.640	0.0156126
675.718	0.0154983
675.796	0.0155787
675.874	0.0155962
675.953	0.0155993
676.031	0.0154838
676.109	0.0155769
676.187	0.0155643
676.265	0.0154718
676.343	0.0155912
676.421	0.0155877
676.499	0.0156034
676.578	0.0156651
676.656	0.0155058
676.734	0.0156417
676.812	0.0155260
676.890	0.0155168
676.968	0.0157137
677.046	0.0157660
677.124	0.0157122
677.203	0.0155120
677.281	0.0154546
677.359	0.0156235
677.437	0.0156327
677.515	0.0155731
677.593	0.0156068
677.671	0.0156929
677.749	0.0156926
677.828	0.0155880
677.906	0.0154842
677.984	0.0155031
678.062	0.0155009
678.140	0.0156806
678.218	0.0155173
678.296	0.0156838
678.374	0.0155878
678.453	0.0156365
678.531	0.0155524
678.609	0.0155898
678.687	0.0155379
678.765	0.0156160
678.843	0.0155959
678.921	0.0156176
678.999	0.0154475
679.078	0.0155101
679.156	0.0155893
679.234	0.0156215
679.312	0.0155446
679.390	0.0156415
679.468	0.0156899
679.546	0.0154940
679.624	0.0154343
679.703	0.0155038
679.781	0.0155343
679.859	0.0156151
679.937	0.0156693
680.015	0.0154819
680.093	0.0155578
680.171	0.0154515
680.249	0.0157224
680.328	0.0155921
680.406	0.0154434
680.484	0.0157392
680.562	0.0157471
680.640	0.0156954
680.718	0.0156189
680.796	0.0155782
680.874	0.0156114
680.953	0.0156335
681.031	0.0155936
681.109	0.0156377
681.187	0.0154760
681.265	0.0156393
681.343	0.0155858
681.421	0.0155743
681.499	0.0156635
681.578	0.0157076
681.656	0.0155923
681.734	0.0156304
681.812	0.0156420
681.890	0.0157491
681.968	0.0156883
682.046	0.0157043
682.124	0.0156085
682.203	0.0155850
682.281	0.0157084
682.359	0.0155952
682.437	0.0155688
682.515	0.0157332
682.593	0.0157687
682.671	0.0156181
682.749	0.0157537
682.828	0.0155963
682.906	0.0156041
682.984	0.0157409
683.062	0.0157111
683.140	0.0155649
683.218	0.0155050
683.296	0.0156719
683.374	0.0155821
683.453	0.0156886
683.531	0.0156313
683.609	0.0157369
683.687	0.0156292
683.765	0.0157368
683.843	0.0156480
683.921	0.0157562
683.999	0.0157851
684.078	0.0156740
684.156	0.0155450
684.234	0.0157320
684.312	0.0157851
684.390	0.0156697
684.468	0.0156898
684.546	0.0157280
684.624	0.0158218
684.703	0.0157538
684.781	0.0157962
684.859	0.0156784
684.937	0.0157153
685.015	0.0157269
685.093	0.0157184
685.171	0.0157275
685.249	0.0156138
685.328	0.0158062
685.406	0.0157243
685.484	0.0156433
685.562	0.0156860
685.640	0.0156347
685.718	0.0157591
685.796	0.0156998
685.874	0.0157531
685.953	0.0156168
686.031	0.0157706
686.109	0.0157047
686.187	0.0157069
686.265	0.0156831
686.343	0.0156964
686.421	0.0156859
686.499	0.0157127
686.578	0.0155643
686.656	0.0156223
686.734	0.0157187
686.812	0.0155836
686.890	0.0155682
686.968	0.0155777
687.046	0.0156362
687.124	0.0156635
687.203	0.0156544
687.281	0.0155722
687.359	0.0154413
687.437	0.0157267
687.515	0.0157617
687.593	0.0157059
687.671	0.0156936
687.749	0.0156123
687.828	0.0154804
687.906	0.0156766
687.984	0.0156572
688.062	0.0155705
688.140	0.0155713
688.218	0.0156723
688.296	0.0156125
688.374	0.0156790
688.453	0.0156301
688.531	0.0155737
688.609	0.0155694
688.687	0.0155824
688.765	0.0155877
688.843	0.0156651
688.921	0.0156598
688.999	0.0156687
689.078	0.0156766
689.156	0.0156813
689.234	0.0153348
689.312	0.0156280
689.390	0.0156279
689.468	0.0155268
689.546	0.0156192
689.624	0.0155888
689.703	0.0155807
689.781	0.0156628
689.859	0.0156786
689.937	0.0155297
690.015	0.0156059
690.093	0.0156356
690.171	0.0156306
690.249	0.0155276
690.328	0.0155328
690.406	0.0155998
690.484	0.0155833
690.562	0.0155608
690.640	0.0155174
690.718	0.0155982
690.796	0.0155956
690.874	0.0155908
690.953	0.0156490
691.031	0.0156229
691.109	0.0155775
691.187	0.0155563
691.265	0.0156031
691.343	0.0155689
691.421	0.0155470
691.499	0.0155384
691.578	0.0156041
691.656	0.0155291
691.734	0.0155717
691.812	0.0156680
691.890	0.0155232
691.968	0.0154501
692.046	0.0154271
692.124	0.0155597
692.203	0.0156201
692.281	0.0156838
692.359	0.0154079
692.437	0.0155786
692.515	0.0155711
692.593	0.0155491
692.671	0.0156499
692.749	0.0156572
692.828	0.0156042
692.906	0.0155357
692.984	0.0156127
693.062	0.0156805
693.140	0.0156467
693.218	0.0155888
693.296	0.0155927
693.374	0.0155614
693.453	0.0155897
693.531	0.0155350
693.609	0.0155669
693.687	0.0156087
693.765	0.0154612
693.843	0.0156284
693.921	0.0155202
693.999	0.0156622
694.078	0.0155608
694.156	0.0155658
694.234	0.0156853
694.312	0.0155165
694.390	0.0155448
694.468	0.0155965
694.546	0.0154366
694.624	0.0156248
694.703	0.0155086
694.781	0.0154781
694.859	0.0155465
694.937	0.0154750
695.015	0.0154342
695.093	0.0154917
695.171	0.0156244
695.249	0.0155880
695.328	0.0155254
695.406	0.0153857
695.484	0.0155750
695.562	0.0155035
695.640	0.0154999
695.718	0.0153791
695.796	0.0154281
695.874	0.0154421
695.953	0.0153329
696.031	0.0155450
696.109	0.0155299
696.187	0.0154505
696.265	0.0155293
696.343	0.0155487
696.421	0.0153281
696.499	0.0155151
696.578	0.0155831
696.656	0.0155054
696.734	0.0155184
696.812	0.0153706
696.890	0.0154655
696.968	0.0155445
697.046	0.0155511
697.124	0.0154470
697.203	0.0154693
697.281	0.0155069
697.359	0.0155038
697.437	0.0156099
697.515	0.0155483
697.593	0.0154540
697.671	0.0154831
697.749	0.0154484
697.828	0.0154603
697.906	0.0154461
697.984	0.0156327
698.062	0.0156931
698.140	0.0156263
698.218	0.0154923
698.296	0.0155887
698.374	0.0155968
698.453	0.0155932
698.531	0.0155218
698.609	0.0154903
698.687	0.0155334
698.765	0.0155557
698.843	0.0156191
698.921	0.0155906
698.999	0.0155502
699.078	0.0156010
699.156	0.0155605
699.234	0.0155900
699.312	0.0157516
699.390	0.0156320
699.468	0.0157136
699.546	0.0156564
699.624	0.0156419
699.703	0.0156821
699.781	0.0155810
699.859	0.0155957
699.937	0.0155734
700.015	0.0156949
700.093	0.0156137
700.171	0.0156545
700.249	0.0156263
700.328	0.0155982
700.406	0.0155745
700.484	0.0157686
700.562	0.0157447
700.640	0.0156797
700.718	0.0156048
700.796	0.0155546
700.874	0.0156590
700.953	0.0157867
701.031	0.0158788
701.109	0.0155965
701.187	0.0156126
701.265	0.0157040
701.343	0.0155581
701.421	0.0155947
701.499	0.0158619
701.578	0.0155875
701.656	0.0155747
701.734	0.0157462
701.812	0.0156223
701.890	0.0155164
701.968	0.0156992
702.046	0.0157008
702.124	0.0157093
702.203	0.0156248
702.281	0.0156361
702.359	0.0156299
702.437	0.0155972
702.515	0.0155328
702.593	0.0158437
702.671	0.0158164
702.749	0.0156228
702.828	0.0157362
702.906	0.0157372
702.984	0.0157251
703.062	0.0157881
703.140	0.0157159
703.218	0.0156837
703.296	0.0156526
703.374	0.0156087
703.453	0.0157658
703.531	0.0156813
703.609	0.0157500
703.687	0.0156502
703.765	0.0156125
703.843	0.0155918
703.921	0.0156937
703.999	0.0158048
704.078	0.0154850
704.156	0.0156104
704.234	0.0157446
704.312	0.0156133
704.390	0.0156104
704.468	0.0159253
704.546	0.0156476
704.624	0.0156300
704.703	0.0157134
704.781	0.0156030
704.859	0.0157183
704.937	0.0157327
705.015	0.0157372
705.093	0.0158255
705.171	0.0158096
705.249	0.0156068
705.328	0.0157287
705.406	0.0158117
705.484	0.0156148
705.562	0.0156721
705.640	0.0157311
705.718	0.0156929
705.796	0.0156503
705.874	0.0156579
705.953	0.0158355
706.031	0.0157783
706.109	0.0157584
706.187	0.0156963
706.265	0.0157813
706.343	0.0157056
706.421	0.0158060
706.499	0.0157998
706.578	0.0157000
706.656	0.0157153
706.734	0.0157111
706.812	0.0157716
706.890	0.0158274
706.968	0.0158068
707.046	0.0157650
707.124	0.0156612
707.203	0.0157167
707.281	0.0157755
707.359	0.0158292
707.437	0.0156989
707.515	0.0156789
707.593	0.0156295
707.671	0.0157118
707.749	0.0156920
707.828	0.0157121
707.906	0.0157313
707.984	0.0157326
708.062	0.0157677
708.140	0.0156892
708.218	0.0158078
708.296	0.0156393
708.374	0.0157242
708.453	0.0155589
708.531	0.0157128
708.609	0.0157166
708.687	0.0155878
708.765	0.0156906
708.843	0.0156822
708.921	0.0157647
708.999	0.0156151
709.078	0.0157652
709.156	0.0157258
709.234	0.0157030
709.312	0.0157015
709.390	0.0157670
709.468	0.0156252
709.546	0.0157195
709.624	0.0155751
709.703	0.0155764
709.781	0.0156272
709.859	0.0155270
709.937	0.0155900
710.015	0.0157223
710.093	0.0155911
710.171	0.0156888
710.249	0.0156036
710.328	0.0155740
710.406	0.0155286
710.484	0.0156010
710.562	0.0156973
710.640	0.0155360
710.718	0.0156266
710.796	0.0156421
710.874	0.0155815
710.953	0.0155612
711.031	0.0156322
711.109	0.0154942
711.187	0.0155745
711.265	0.0156519
711.343	0.0157111
711.421	0.0156048
711.499	0.0155235
711.578	0.0155227
711.656	0.0156351
711.734	0.0156018
711.812	0.0154748
711.890	0.0156825
711.968	0.0155746
712.046	0.0156998
712.124	0.0157249
712.203	0.0155809
712.281	0.0156142
712.359	0.0156401
712.437	0.0157439
712.515	0.0155989
712.593	0.0155783
712.671	0.0156369
712.749	0.0155383
712.828	0.0156885
712.906	0.0156593
712.984	0.0156333
713.062	0.0154955
713.140	0.0155923
713.218	0.0156906
713.296	0.0155596
713.374	0.0155608
713.453	0.0156173
713.531	0.0156563
713.609	0.0155651
713.687	0.0156336
713.765	0.0157989
713.843	0.0156431
713.921	0.0155786
713.999	0.0157036
714.078	0.0155444
714.156	0.0156381
714.234	0.0157266
714.312	0.0156163
714.390	0.0155723
714.468	0.0155411
714.546	0.0156297
714.624	0.0155836
714.703	0.0154592
714.781	0.0154791
714.859	0.0155951
714.937	0.0154675
715.015	0.0154417
715.093	0.0155224
715.171	0.0155309
715.249	0.0155331
715.328	0.0155344
715.406	0.0155627
715.484	0.0154311
715.562	0.0154594
715.640	0.0154617
715.718	0.0155476
715.796	0.0154373
715.874	0.0154198
715.953	0.0155176
716.031	0.0156586
716.109	0.0155345
716.187	0.0155072
716.265	0.0156400
716.343	0.0155367
716.421	0.0156034
716.499	0.0155630
716.578	0.0153731
716.656	0.0154870
716.734	0.0155663
716.812	0.0155430
716.890	0.0155595
716.968	0.0155334
717.046	0.0155466
717.124	0.0155942
717.203	0.0156831
717.281	0.0154523
717.359	0.0155700
717.437	0.0155547
717.515	0.0154591
717.593	0.0154929
717.671	0.0156057
717.749	0.0154211
717.828	0.0155389
717.906	0.0155328
717.984	0.0154860
718.062	0.0154280
718.140	0.0155482
718.218	0.0155074
718.296	0.0154740
718.374	0.0155263
718.453	0.0154848
718.531	0.0155372
718.609	0.0155764
718.687	0.0155698
718.765	0.0154734
718.843	0.0153476
718.921	0.0155392
718.999	0.0154888
719.078	0.0154151
719.156	0.0155444
719.234	0.0156610
719.312	0.0154835
719.390	0.0154775
719.468	0.0154173
719.546	0.0155149
719.624	0.0155523
719.703	0.0155083
719.781	0.0155369
719.859	0.0155182
719.937	0.0156040
720.015	0.0156161
720.093	0.0154256
720.171	0.0154915
720.249	0.0154607
720.328	0.0156554
720.406	0.0155042
720.484	0.0155296
720.562	0.0155841
720.640	0.0155731
720.718	0.0154292
720.796	0.0154693
720.874	0.0153848
720.953	0.0154524
721.031	0.0154463
721.109	0.0154479
721.187	0.0154488
721.265	0.0155558
721.343	0.0154904
721.421	0.0153993
721.499	0.0154918
721.578	0.0154771
721.656	0.0154362
721.734	0.0154282
721.812	0.0154563
721.890	0.0154897
721.968	0.0154372
722.046	0.0153825
722.124	0.0155476
722.203	0.0154713
722.281	0.0154623
722.359	0.0155576
722.437	0.0155389
722.515	0.0153777
722.593	0.0154912
722.671	0.0153598
722.749	0.0153967
722.828	0.0156391
722.906	0.0154001
722.984	0.0154192
723.062	0.0155170
723.140	0.0154860
723.218	0.0154771
723.296	0.0153856
723.374	0.0154180
723.453	0.0154950
723.531	0.0153855
723.609	0.0153608
723.687	0.0155327
723.765	0.0155078
723.843	0.0155048
723.921	0.0153793
723.999	0.0154412
724.078	0.0154747
724.156	0.0154231
724.234	0.0153480
724.312	0.0155066
724.390	0.0154535
724.468	0.0155404
724.546	0.0155344
724.624	0.0153750
724.703	0.0154599
724.781	0.0155193
724.859	0.0155280
724.937	0.0153903
725.015	0.0154670
725.093	0.0154682
725.171	0.0153810
725.249	0.0153767
725.328	0.0154803
725.406	0.0154483
725.484	0.0154217
725.562	0.0153831
725.640	0.0152850
725.718	0.0155365
725.796	0.0153655
725.874	0.0153469
725.953	0.0154449
726.031	0.0154587
726.109	0.0155209
726.187	0.0153993
726.265	0.0154867
726.343	0.0156165
726.421	0.0154540
726.499	0.0155791
726.578	0.0154807
726.656	0.0154912
726.734	0.0155279
726.812	0.0155193
726.890	0.0154828
726.968	0.0155743
727.046	0.0155754
727.124	0.0155155
727.203	0.0153846
727.281	0.0154961
727.359	0.0154964
727.437	0.0154764
727.515	0.0155273
727.593	0.0155713
727.671	0.0155968
727.749	0.0155112
727.828	0.0155820
727.906	0.0155901
727.984	0.0155314
728.062	0.0154569
728.140	0.0156664
728.218	0.0155745
728.296	0.0155093
728.374	0.0155481
728.453	0.0156657
728.531	0.0156803
728.609	0.0156082
728.687	0.0155381
728.765	0.0156210
728.843	0.0156548
728.921	0.0157509
728.999	0.0157420
729.078	0.0155865
729.156	0.0155663
729.234	0.0157686
729.312	0.0157638
729.390	0.0156197
729.468	0.0157698
729.546	0.0156635
729.624	0.0156690
729.703	0.0156631
729.781	0.0157803
729.859	0.0156448
729.937	0.0157735
730.015	0.0158170
730.093	0.0157946
730.171	0.0155173
730.249	0.0156815
730.328	0.0157735
730.406	0.0156008
730.484	0.0157479
730.562	0.0157822
730.640	0.0157115
730.718	0.0155659
730.796	0.0156293
730.874	0.0158277
730.953	0.0156351
731.031	0.0157289
731.109	0.0156136
731.187	0.0157913
731.265	0.0156674
731.343	0.0157712
731.421	0.0157718
731.499	0.0156306
731.578	0.0156813
731.656	0.0156763
731.734	0.0157210
731.812	0.0156633
731.890	0.0157019
731.968	0.0156969
732.046	0.0157151
732.124	0.0156921
732.203	0.0157357
732.281	0.0155924
732.359	0.0155824
732.437	0.0157703
732.515	0.0157561
732.593	0.0157216
732.671	0.0157722
732.749	0.0156377
732.828	0.0156470
732.906	0.0157328
732.984	0.0156192
733.062	0.0156572
733.140	0.0155644
733.218	0.0155792
733.296	0.0155436
733.374	0.0155785
733.453	0.0156393
733.531	0.0154939
733.609	0.0156945
733.687	0.0155154
733.765	0.0156610
733.843	0.0156285
733.921	0.0156185
733.999	0.0156499
734.078	0.0155985
734.156	0.0155963
734.234	0.0156303
734.312	0.0156970
734.390	0.0156548
734.468	0.0156064
734.546	0.0157668
734.624	0.0157019
734.703	0.0157640
734.781	0.0156696
734.859	0.0156313
734.937	0.0156164
735.015	0.0156216
735.093	0.0156597
735.171	0.0155103
735.249	0.0156731
735.328	0.0156643
735.406	0.0156567
735.484	0.0157233
735.562	0.0155814
735.640	0.0156196
735.718	0.0157759
735.796	0.0156020
735.874	0.0156273
735.953	0.0156390
736.031	0.0155344
736.109	0.0155285
736.187	0.0155965
736.265	0.0156275
736.343	0.0156408
736.421	0.0156843
736.499	0.0157644
736.578	0.0156712
736.656	0.0156399
736.734	0.0156982
736.812	0.0156654
736.890	0.0155458
736.968	0.0156055
737.046	0.0156419
737.124	0.0156336
737.203	0.0155439
737.281	0.0154490
737.359	0.0156945
737.437	0.0156487
737.515	0.0157319
737.593	0.0156985
737.671	0.0156526
737.749	0.0156518
737.828	0.0155499
737.906	0.0155090
737.984	0.0155343
738.062	0.0155428
738.140	0.0154193
738.218	0.0154426
738.296	0.0154991
738.374	0.0155108
738.453	0.0155134
738.531	0.0154413
738.609	0.0154912
738.687	0.0156043
738.765	0.0154930
738.843	0.0156207
738.921	0.0155444
738.999	0.0155553
739.078	0.0155033
739.156	0.0155701
739.234	0.0155132
739.312	0.0155202
739.390	0.0156401
739.468	0.0156117
739.546	0.0154654
739.624	0.0156364
739.703	0.0156195
739.781	0.0153777
739.859	0.0155704
739.937	0.0156316
740.015	0.0154812
740.093	0.0156243
740.171	0.0156799
740.249	0.0156467
740.328	0.0153931
740.406	0.0154964
740.484	0.0155739
740.562	0.0154925
740.640	0.0154492
740.718	0.0155658
740.796	0.0155431
740.874	0.0154879
740.953	0.0153625
741.031	0.0155212
741.109	0.0156201
741.187	0.0154971
741.265	0.0155031
741.343	0.0155728
741.421	0.0155012
741.499	0.0156649
741.578	0.0155444
741.656	0.0155614
741.734	0.0155537
741.812	0.0155916
741.890	0.0155023
741.968	0.0154692
742.046	0.0154078
742.124	0.0155364
742.203	0.0154230
742.281	0.0153786
742.359	0.0155515
742.437	0.0154606
742.515	0.0154708
742.593	0.0155547
742.671	0.0153881
742.749	0.0153860
742.828	0.0154548
742.906	0.0155275
742.984	0.0155109
743.062	0.0154275
743.140	0.0154844
743.218	0.0154061
743.296	0.0155258
743.374	0.0154887
743.453	0.0153954
743.531	0.0155031
743.609	0.0156259
743.687	0.0154062
743.765	0.0154114
743.843	0.0153893
743.921	0.0154899
743.999	0.0154678
744.078	0.0155894
744.156	0.0155608
744.234	0.0154826
744.312	0.0154066
744.390	0.0153448
744.468	0.0154189
744.546	0.0155370
744.624	0.0155247
744.703	0.0154163
744.781	0.0154899
744.859	0.0154101
744.937	0.0154810
745.015	0.0156284
745.093	0.0155701
745.171	0.0154091
745.249	0.0155450
745.328	0.0154752
745.406	0.0155028
745.484	0.0154128
745.562	0.0155846
745.640	0.0155978
745.718	0.0155389
745.796	0.0155214
745.874	0.0155334
745.953	0.0155082
746.031	0.0155171
746.109	0.0155782
746.187	0.0154289
746.265	0.0153556
746.343	0.0154839
746.421	0.0153768
746.499	0.0152604
746.578	0.0152773
746.656	0.0154128
746.734	0.0154274
746.812	0.0154288
746.890	0.0153274
746.968	0.0153629
747.046	0.0154599
747.124	0.0153666
747.203	0.0154151
747.281	0.0154945
747.359	0.0155750
747.437	0.0155679
747.515	0.0155150
747.593	0.0155667
747.671	0.0155585
747.749	0.0155342
747.828	0.0155101
747.906	0.0155744
747.984	0.0155677
748.062	0.0156123
748.140	0.0156783
748.218	0.0156868
748.296	0.0155065
748.374	0.0156502
748.453	0.0155923
748.531	0.0155294
748.609	0.0156953
748.687	0.0156344
748.765	0.0157506
748.843	0.0156318
748.921	0.0156227
748.999	0.0155291
749.078	0.0157048
749.156	0.0155888
749.234	0.0156054
749.312	0.0154714
749.390	0.0154192
749.468	0.0155679
749.546	0.0154504
749.624	0.0153663
749.703	0.0154369
749.781	0.0155287
749.859	0.0155448
749.937	0.0155728
750.015	0.0155076
750.093	0.0155808
750.171	0.0157067
750.249	0.0155906
750.328	0.0155150
750.406	0.0156924
750.484	0.0156840
750.562	0.0156647
750.640	0.0158044
750.718	0.0158044
750.796	0.0157639
750.874	0.0157006
750.953	0.0157211
751.031	0.0156222
751.109	0.0155632
751.187	0.0157603
751.265	0.0155748
751.343	0.0156287
751.421	0.0155708
751.499	0.0156441
751.578	0.0156539
751.656	0.0155089
751.734	0.0155784
751.812	0.0155824
751.890	0.0156494
751.968	0.0156210
752.046	0.0155051
752.124	0.0155836
752.203	0.0154429
752.281	0.0155804
752.359	0.0154996
752.437	0.0154361
752.515	0.0155831
752.593	0.0154053
752.671	0.0154734
752.749	0.0155743
752.828	0.0155304
752.906	0.0154250
752.984	0.0156174
753.062	0.0156446
753.140	0.0155779
753.218	0.0156716
753.296	0.0154517
753.374	0.0155226
753.453	0.0155132
753.531	0.0154265
753.609	0.0154191
753.687	0.0154888
753.765	0.0154753
753.843	0.0154822
753.921	0.0152704
753.999	0.0155703
754.078	0.0155401
754.156	0.0154883
754.234	0.0154387
754.312	0.0155830
754.390	0.0155157
754.468	0.0154530
754.546	0.0155645
754.624	0.0155565
754.703	0.0155265
754.781	0.0155169
754.859	0.0156470
754.937	0.0155556
755.015	0.0154673
755.093	0.0155568
755.171	0.0154802
755.249	0.0154745
755.328	0.0155774
755.406	0.0154874
755.484	0.0156141
755.562	0.0156062
755.640	0.0156896
755.718	0.0156267
755.796	0.0156194
755.874	0.0154866
755.953	0.0156084
756.031	0.0156329
756.109	0.0156978
756.187	0.0156093
756.265	0.0156621
756.343	0.0156276
756.421	0.0155591
756.499	0.0157185
756.578	0.0155296
756.656	0.0156335
756.734	0.0155602
756.812	0.0155878
756.890	0.0156516
756.968	0.0156008
757.046	0.0155600
757.124	0.0155995
757.203	0.0156255
757.281	0.0155299
757.359	0.0155242
757.437	0.0154038
757.515	0.0155132
757.593	0.0156075
757.671	0.0156207
757.749	0.0155300
757.828	0.0157463
757.906	0.0156608
757.984	0.0157003
758.062	0.0157333
758.140	0.0156087
758.218	0.0155514
758.296	0.0156287
758.374	0.0157098
758.453	0.0156908
758.531	0.0155643
758.609	0.0156549
758.687	0.0157938
758.765	0.0155901
758.843	0.0157105
758.921	0.0157646
758.999	0.0156961
759.078	0.0157021
759.156	0.0156463
759.234	0.0157176
759.312	0.0157166
759.390	0.0159007
759.468	0.0156544
759.546	0.0157451
759.624	0.0156894
759.703	0.0157869
759.781	0.0157335
759.859	0.0156747
759.937	0.0155204
760.015	0.0155306
760.093	0.0158074
760.171	0.0157278
760.249	0.0157954
760.328	0.0156237
760.406	0.0158218
760.484	0.0156851
760.562	0.0158044
760.640	0.0157582
760.718	0.0156831
760.796	0.0157011
760.874	0.0156843
760.953	0.0156432
761.031	0.0156530
761.109	0.0156145
761.187	0.0156249
761.265	0.0155354
761.343	0.0155600
761.421	0.0157412
761.499	0.0157011
761.578	0.0155520
761.656	0.0156516
761.734	0.0155844
761.812	0.0156329
761.890	0.0155737
761.968	0.0155829
762.046	0.0157696
762.124	0.0157507
762.203	0.0155669
762.281	0.0156387
762.359	0.0156916
762.437	0.0158453
762.515	0.0157874
762.593	0.0156697
762.671	0.0157550
762.749	0.0158170
762.828	0.0155788
762.906	0.0156374
762.984	0.0156604
763.062	0.0157365
763.140	0.0156198
763.218	0.0156037
763.296	0.0154443
763.374	0.0157187
763.453	0.0157043
763.531	0.0156020
763.609	0.0157019
763.687	0.0157307
763.765	0.0156763
763.843	0.0156482
763.921	0.0156493
763.999	0.0154218
764.078	0.0155376
764.156	0.0155598
764.234	0.0155496
764.312	0.0155515
764.390	0.0155404
764.468	0.0154267
764.546	0.0153862
764.624	0.0154142
764.703	0.0155473
764.781	0.0154742
764.859	0.0154935
764.937	0.0155135
765.015	0.0154803
765.093	0.0154614
765.171	0.0155754
765.249	0.0156295
765.328	0.0154775
765.406	0.0155239
765.484	0.0155083
765.562	0.0155835
765.640	0.0155688
765.718	0.0156230
765.796	0.0155183
765.874	0.0155204
765.953	0.0154850
766.031	0.0155615
766.109	0.0156116
766.187	0.0156515
766.265	0.0155237
766.343	0.0154034
766.421	0.0153905
766.499	0.0154511
766.578	0.0153931
766.656	0.0154299
766.734	0.0154472
766.812	0.0154229
766.890	0.0153584
766.968	0.0154303
767.046	0.0155855
767.124	0.0155555
767.203	0.0157341
767.281	0.0157451
767.359	0.0157808
767.437	0.0157313
767.515	0.0156397
767.593	0.0158614
767.671	0.0158673
767.749	0.0157838
767.828	0.0156740
767.906	0.0157522
767.984	0.0157433
768.062	0.0157542
768.140	0.0158627
768.218	0.0158396
768.296	0.0157520
768.374	0.0158158
768.453	0.0155775
768.531	0.0157324
768.609	0.0159073
768.687	0.0158933
768.765	0.0156274
768.843	0.0159094
768.921	0.0158286
768.999	0.0156670
769.078	0.0157679
769.156	0.0157463
769.234	0.0157303
769.312	0.0156860
769.390	0.0155375
769.468	0.0156529
769.546	0.0157117
769.624	0.0154310
769.703	0.0154933
769.781	0.0155167
769.859	0.0155154
769.937	0.0155135
770.015	0.0155643
770.093	0.0154581
770.171	0.0153760
770.249	0.0153043
770.328	0.0153661
770.406	0.0155708
770.484	0.0155411
770.562	0.0154647
770.640	0.0156818
770.718	0.0155871
770.796	0.0155956
770.874	0.0156184
770.953	0.0155149
771.031	0.0155664
771.109	0.0156603
771.187	0.0156758
771.265	0.0156020
771.343	0.0157146
771.421	0.0156386
771.499	0.0157872
771.578	0.0157792
771.656	0.0157508
771.734	0.0159602
771.812	0.0160269
771.890	0.0160769
771.968	0.0160500
772.046	0.0159646
772.124	0.0157353
772.203	0.0157946
772.281	0.0156764
772.359	0.0157503
772.437	0.0156212
772.515	0.0155324
772.593	0.0155528
772.671	0.0155938
772.749	0.0154720
772.828	0.0156128
772.906	0.0156716
772.984	0.0156666
773.062	0.0155936
773.140	0.0155347
773.218	0.0155429
773.296	0.0156013
773.374	0.0157136
773.453	0.0155994
773.531	0.0156156
773.609	0.0154520
773.687	0.0155006
773.765	0.0154561
773.843	0.0154943
773.921	0.0154190
773.999	0.0154166
774.078	0.0154414
774.156	0.0153429
774.234	0.0153471
774.312	0.0154815
774.390	0.0154876
774.468	0.0154588
774.546	0.0155156
774.624	0.0154606
774.703	0.0155196
774.781	0.0154179
774.859	0.0155704
774.937	0.0155556
775.015	0.0155359
775.093	0.0157163
775.171	0.0159074
775.249	0.0157780
775.328	0.0157596
775.406	0.0157140
775.484	0.0156844
775.562	0.0156174
775.640	0.0156995
775.718	0.0156998
775.796	0.0154424
775.874	0.0155324
775.953	0.0154539
776.031	0.0153075
776.109	0.0154343
776.187	0.0153714
776.265	0.0154257
776.343	0.0154425
776.421	0.0154412
776.499	0.0153664
776.578	0.0154976
776.656	0.0154958
776.734	0.0154491
776.812	0.0155871
776.890	0.0154134
776.968	0.0155692
777.046	0.0156085
777.124	0.0156638
777.203	0.0156453
777.281	0.0155702
777.359	0.0155624
777.437	0.0156949
777.515	0.0157676
777.593	0.0157322
777.671	0.0157646
777.749	0.0158061
777.828	0.0159037
777.906	0.0156919
777.984	0.0157664
778.062	0.0157591
778.140	0.0155713
778.218	0.0156792
778.296	0.0156697
778.374	0.0155362
778.453	0.0156139
778.531	0.0157575
778.609	0.0155190
778.687	0.0155695
778.765	0.0155897
778.843	0.0154815
778.921	0.0155508
778.999	0.0155695
779.078	0.0155454
779.156	0.0153377
779.234	0.0154724
779.312	0.0153695
779.390	0.0153681
779.468	0.0152605
779.546	0.0152413
779.624	0.0153071
779.703	0.0151685
779.781	0.0152368
779.859	0.0152709
779.937	0.0153043
780.015	0.0153005
780.093	0.0154152
780.171	0.0153472
780.249	0.0154559
780.328	0.0153751
780.406	0.0154997
780.484	0.0155669
780.562	0.0154946
780.640	0.0155986
780.718	0.0156366
780.796	0.0156222
780.874	0.0157863
780.953	0.0156915
781.031	0.0156592
781.109	0.0156846
781.187	0.0155596
781.265	0.0156307
781.343	0.0157564
781.421	0.0156343
781.499	0.0155097
781.578	0.0156039
781.656	0.0154924
781.734	0.0155244
781.812	0.0155335
781.890	0.0155450
781.968	0.0153575
782.046	0.0155949
782.124	0.0154289
782.203	0.0154428
782.281	0.0156924
782.359	0.0155213
782.437	0.0154411
782.515	0.0154713
782.593	0.0155777
782.671	0.0156078
782.749	0.0155432
782.828	0.0156941
782.906	0.0154515
782.984	0.0154855
783.062	0.0154742
783.140	0.0155133
783.218	0.0155148
783.296	0.0155669
783.374	0.0154969
783.453	0.0153481
783.531	0.0153082
783.609	0.0154482
783.687	0.0153496
783.765	0.0153567
783.843	0.0154350
783.921	0.0153828
783.999	0.0153674
784.078	0.0154369
784.156	0.0154882
784.234	0.0154655
784.312	0.0153351
784.390	0.0155209
784.468	0.0153764
784.546	0.0155170
784.624	0.0154930
784.703	0.0156721
784.781	0.0156193
784.859	0.0154553
784.937	0.0153990
785.015	0.0155403
785.093	0.0155623
785.171	0.0155305
785.249	0.0155856
785.328	0.0155909
785.406	0.0154604
785.484	0.0155479
785.562	0.0155007
785.640	0.0156075
785.718	0.0155627
785.796	0.0155741
785.874	0.0154797
785.953	0.0154028
786.031	0.0156274
786.109	0.0156518
786.187	0.0155279
786.265	0.0156213
786.343	0.0156919
786.421	0.0157507
786.499	0.0158520
786.578	0.0156442
786.656	0.0157047
786.734	0.0157449
786.812	0.0157388
786.890	0.0157862
786.968	0.0157422
787.046	0.0156786
787.124	0.0156169
787.203	0.0157374
787.281	0.0157861
787.359	0.0157312
787.437	0.0155463
787.515	0.0158007
787.593	0.0157297
787.671	0.0155064
787.749	0.0156925
787.828	0.0156750
787.906	0.0156223
787.984	0.0157247
788.062	0.0155554
788.140	0.0154679
788.218	0.0155058
788.296	0.0155152
788.374	0.0153922
788.453	0.0153653
788.531	0.0153655
788.609	0.0152067
788.687	0.0153011
788.765	0.0152605
788.843	0.0151953
788.921	0.0152124
788.999	0.0153175
789.078	0.0151539
789.156	0.0151107
789.234	0.0151951
789.312	0.0152271
789.390	0.0151817
789.468	0.0151839
789.546	0.0152493
789.624	0.0152828
789.703	0.0151913
789.781	0.0153333
789.859	0.0154537
789.937	0.0153957
790.015	0.0155090
790.093	0.0156063
790.171	0.0156066
790.249	0.0157479
790.328	0.0157271
790.406	0.0157903
790.484	0.0157978
790.562	0.0160378
790.640	0.0160841
790.718	0.0161880
790.796	0.0160447
790.874	0.0159721
790.953	0.0159933
791.031	0.0159766
791.109	0.0160030
791.187	0.0160064
791.265	0.0160534
791.343	0.0158020
791.421	0.0158089
791.499	0.0158862
791.578	0.0158765
791.656	0.0156527
791.734	0.0156924
791.812	0.0155883
791.890	0.0157292
791.968	0.0156822
792.046	0.0155556
792.124	0.0153891
792.203	0.0155013
792.281	0.0155040
792.359	0.0155222
792.437	0.0153830
792.515	0.0152898
792.593	0.0153542
792.671	0.0153280
792.749	0.0152347
792.828	0.0153096
792.906	0.0153370
792.984	0.0153123
793.062	0.0152438
793.140	0.0154144
793.218	0.0154024
793.296	0.0152789
793.374	0.0153159
793.453	0.0153616
793.531	0.0154786
793.609	0.0153680
793.687	0.0154465
793.765	0.0154874
793.843	0.0154329
793.921	0.0154773
793.999	0.0154548
794.078	0.0155196
794.156	0.0155148
794.234	0.0155247
794.312	0.0153323
794.390	0.0153517
794.468	0.0154589
794.546	0.0154395
794.624	0.0155957
794.703	0.0156227
794.781	0.0156197
794.859	0.0157291
794.937	0.0156203
795.015	0.0157412
795.093	0.0157313
795.171	0.0155731
795.249	0.0158571
795.328	0.0159556
795.406	0.0156875
795.484	0.0159314
795.562	0.0158331
795.640	0.0160027
795.718	0.0159185
795.796	0.0159832
795.874	0.0160289
795.953	0.0157415
796.031	0.0160139
796.109	0.0158932
796.187	0.0157072
796.265	0.0157231
796.343	0.0156084
796.421	0.0156557
796.499	0.0155370
796.578	0.0154581
796.656	0.0154639
796.734	0.0154034
796.812	0.0154062
796.890	0.0154362
796.968	0.0155247
797.046	0.0153211
797.124	0.0154475
797.203	0.0152901
797.281	0.0152721
797.359	0.0154384
797.437	0.0153433
797.515	0.0154173
797.593	0.0153030
797.671	0.0154260
797.749	0.0153501
797.828	0.0153599
797.906	0.0153321
797.984	0.0155088
798.062	0.0154408
798.140	0.0153674
798.218	0.0154501
798.296	0.0154881
798.374	0.0155443
798.453	0.0155563
798.531	0.0155360
798.609	0.0156605
798.687	0.0157336
798.765	0.0156426
798.843	0.0156873
798.921	0.0155988
798.999	0.0157446
799.078	0.0157923
799.156	0.0158096
799.234	0.0158079
799.312	0.0157757
799.390	0.0156839
799.468	0.0158048
799.546	0.0157652
799.624	0.0156763
799.703	0.0156068
799.781	0.0155544
799.859	0.0156258
799.937	0.0156529
800.015	0.0155521
800.093	0.0156427
800.171	0.0157520
800.249	0.0155947
800.328	0.0156097
800.406	0.0156564
800.484	0.0157174
800.562	0.0156734
800.640	0.0157103
800.718	0.0155408
800.796	0.0157497
800.874	0.0157761
800.953	0.0155991
801.031	0.0157463
801.109	0.0156329
801.187	0.0156002
801.265	0.0154810
801.343	0.0155594
801.421	0.0157754
801.499	0.0155976
801.578	0.0155488
801.656	0.0155328
801.734	0.0154229
801.812	0.0155424
801.890	0.0156091
801.968	0.0154145
802.046	0.0154399
802.124	0.0153174
802.203	0.0153235
802.281	0.0155040
802.359	0.0153624
802.437	0.0153117
802.515	0.0152136
802.593	0.0153824
802.671	0.0153170
802.749	0.0152962
802.828	0.0154592
802.906	0.0153219
802.984	0.0155447
803.062	0.0154631
803.140	0.0153322
803.218	0.0154455
803.296	0.0154550
803.374	0.0155171
803.453	0.0152956
803.531	0.0154595
803.609	0.0154353
803.687	0.0154822
803.765	0.0156126
803.843	0.0154816
803.921	0.0155914
803.999	0.0154060
804.078	0.0155318
804.156	0.0156400
804.234	0.0157619
804.312	0.0156133
804.390	0.0155599
804.468	0.0157146
804.546	0.0156940
804.624	0.0153992
804.703	0.0157311
804.781	0.0156692
804.859	0.0155989
804.937	0.0155981
805.015	0.0157327
805.093	0.0157135
805.171	0.0155941
805.249	0.0156580
805.328	0.0156195
805.406	0.0156459
805.484	0.0154713
805.562	0.0155244
805.640	0.0154485
805.718	0.0155552
805.796	0.0153487
805.874	0.0153498
805.953	0.0153169
806.031	0.0151975
806.109	0.0152575
806.187	0.0152512
806.265	0.0152541
806.343	0.0153841
806.421	0.0151772
806.499	0.0152226
806.578	0.0152936
806.656	0.0151620
806.734	0.0152006
806.812	0.0153638
806.890	0.0152999
806.968	0.0154259
807.046	0.0153529
807.124	0.0153619
807.203	0.0153354
807.281	0.0153460
807.359	0.0153921
807.437	0.0154539
807.515	0.0154786
807.593	0.0156136
807.671	0.0155618
807.749	0.0155966
807.828	0.0157729
807.906	0.0156736
807.984	0.0157282
808.062	0.0156437
808.140	0.0154751
808.218	0.0156473
808.296	0.0157178
808.374	0.0155626
808.453	0.0156273
808.531	0.0155426
808.609	0.0158118
808.687	0.0156110
808.765	0.0157043
808.843	0.0156898
808.921	0.0157426
808.999	0.0157529
809.078	0.0156507
809.156	0.0157313
809.234	0.0157733
809.312	0.0157079
809.390	0.0156150
809.468	0.0156925
809.546	0.0156707
809.624	0.0156287
809.703	0.0157043
809.781	0.0157490
809.859	0.0156529
809.937	0.0156174
810.015	0.0154563
810.093	0.0156927
810.171	0.0155203
810.249	0.0155505
810.328	0.0155095
810.406	0.0155543
810.484	0.0153661
810.562	0.0153123
810.640	0.0152969
810.718	0.0152600
810.796	0.0151613
810.874	0.0152634
810.953	0.0153234
811.031	0.0151779
811.109	0.0151595
811.187	0.0152553
811.265	0.0153384
811.343	0.0153388
811.421	0.0154362
811.499	0.0154763
811.578	0.0153991
811.656	0.0152953
811.734	0.0154800
811.812	0.0155370
811.890	0.0156268
811.968	0.0155689
812.046	0.0155380
812.124	0.0157345
812.203	0.0158904
812.281	0.0158465
812.359	0.0157475
812.437	0.0157162
812.515	0.0158665
812.593	0.0157516
812.671	0.0157736
812.749	0.0158150
812.828	0.0157797
812.906	0.0156842
812.984	0.0157675
813.062	0.0157771
813.140	0.0158340
813.218	0.0156060
813.296	0.0158340
813.374	0.0157673
813.453	0.0157088
813.531	0.0156429
813.609	0.0157530
813.687	0.0155838
813.765	0.0156607
813.843	0.0156824
813.921	0.0155999
813.999	0.0154459
814.078	0.0154261
814.156	0.0153671
814.234	0.0155031
814.312	0.0153882
814.390	0.0151957
814.468	0.0153342
814.546	0.0154060
814.624	0.0153852
814.703	0.0152454
814.781	0.0152038
814.859	0.0153522
814.937	0.0152773
815.015	0.0151588
815.093	0.0152986
815.171	0.0152772
815.249	0.0154699
815.328	0.0155203
815.406	0.0153806
815.484	0.0154449
815.562	0.0156599
815.640	0.0156267
815.718	0.0156893
815.796	0.0156380
815.874	0.0156298
815.953	0.0156543
816.031	0.0158400
816.109	0.0158131
816.187	0.0158517
816.265	0.0157668
816.343	0.0157570
816.421	0.0157256
816.499	0.0156367
816.578	0.0156226
816.656	0.0155930
816.734	0.0155684
816.812	0.0157159
816.890	0.0155457
816.968	0.0155735
817.046	0.0155472
817.124	0.0156771
817.203	0.0155380
817.281	0.0154443
817.359	0.0154333
817.437	0.0156369
817.515	0.0157083
817.593	0.0157427
817.671	0.0156254
817.749	0.0154862
817.828	0.0156196
817.906	0.0156603
817.984	0.0157115
818.062	0.0156129
818.140	0.0155304
818.218	0.0156080
818.296	0.0156151
818.374	0.0155908
818.453	0.0155881
818.531	0.0154493
818.609	0.0155598
818.687	0.0156468
818.765	0.0156050
818.843	0.0156890
818.921	0.0156789
818.999	0.0155379
819.078	0.0155969
819.156	0.0155550
819.234	0.0155814
819.312	0.0155412
819.390	0.0155848
819.468	0.0155569
819.546	0.0154531
819.624	0.0155383
819.703	0.0154668
819.781	0.0155705
819.859	0.0154965
819.937	0.0155312
820.015	0.0154951
820.093	0.0153822
820.171	0.0154940
820.249	0.0152407
820.328	0.0153496
820.406	0.0154927
820.484	0.0153218
820.562	0.0155005
820.640	0.0155825
820.718	0.0154980
820.796	0.0156271
820.874	0.0155810
820.953	0.0155154
821.031	0.0156374
821.109	0.0156596
821.187	0.0156904
821.265	0.0155895
821.343	0.0157034
821.421	0.0156390
821.499	0.0156080
821.578	0.0156613
821.656	0.0156795
821.734	0.0156385
821.812	0.0157622
821.890	0.0157263
821.968	0.0156856
822.046	0.0157726
822.124	0.0157837
822.203	0.0157856
822.281	0.0157281
822.359	0.0158665
822.437	0.0157957
822.515	0.0157659
822.593	0.0158015
822.671	0.0158186
822.749	0.0156844
822.828	0.0158348
822.906	0.0157182
822.984	0.0157639
823.062	0.0155116
823.140	0.0155399
823.218	0.0155188
823.296	0.0156755
823.374	0.0155293
823.453	0.0155006
823.531	0.0155043
823.609	0.0153922
823.687	0.0154108
823.765	0.0154329
823.843	0.0153584
823.921	0.0154529
823.999	0.0153354
824.078	0.0153152
824.156	0.0153539
824.234	0.0153664
824.312	0.0155367
824.390	0.0152756
824.468	0.0154571
824.546	0.0155237
824.624	0.0155000
824.703	0.0155244
824.781	0.0154535
824.859	0.0155518
824.937	0.0156603
825.015	0.0156998
825.093	0.0157676
825.171	0.0157487
825.249	0.0159386
825.328	0.0158368
825.406	0.0157806
825.484	0.0158180
825.562	0.0157400
825.640	0.0158584
825.718	0.0159014
825.796	0.0159041
825.874	0.0158804
825.953	0.0157891
826.031	0.0158125
826.109	0.0157959
826.187	0.0156885
826.265	0.0156055
826.343	0.0158346
826.421	0.0157642
826.499	0.0155915
826.578	0.0156435
826.656	0.0156198
826.734	0.0155741
826.812	0.0153943
826.890	0.0153848
826.968	0.0153975
827.046	0.0154137
827.124	0.0154278
827.203	0.0153951
827.281	0.0154959
827.359	0.0153431
827.437	0.0154813
827.515	0.0154935
827.593	0.0153524
827.671	0.0153107
827.749	0.0152100
827.828	0.0154124
827.906	0.0152888
827.984	0.0154110
828.062	0.0153387
828.140	0.0154623
828.218	0.0154629
828.296	0.0153633
828.374	0.0154540
828.453	0.0154785
828.531	0.0154062
828.609	0.0154773
828.687	0.0155849
828.765	0.0155985
828.843	0.0157014
828.921	0.0156088
828.999	0.0157570
829.078	0.0158718
829.156	0.0157505
829.234	0.0157894
829.312	0.0158543
829.390	0.0157790
829.468	0.0157450
829.546	0.0157705
829.624	0.0158687
829.703	0.0158001
829.781	0.0159248
829.859	0.0157462
829.937	0.0157656
830.015	0.0156609
830.093	0.0156232
830.171	0.0155637
830.249	0.0154579
830.328	0.0155282
830.406	0.0155611
830.484	0.0153984
830.562	0.0152874
830.640	0.0152296
830.718	0.0151836
830.796	0.0151696
830.874	0.0151028
830.953	0.0151072
831.031	0.0150553
831.109	0.0151234
831.187	0.0151388
831.265	0.0152707
831.343	0.0151183
831.421	0.0152172
831.499	0.0154108
831.578	0.0155676
831.656	0.0153716
831.734	0.0154517
831.812	0.0157069
831.890	0.0156046
831.968	0.0157626
832.046	0.0158286
832.124	0.0158771
832.203	0.0159525
832.281	0.0159325
832.359	0.0160660
832.437	0.0161471
832.515	0.0160975
832.593	0.0160732
832.671	0.0161434
832.749	0.0159582
832.828	0.0160117
832.906	0.0159033
832.984	0.0157684
833.062	0.0157523
833.140	0.0157009
833.218	0.0155604
833.296	0.0156132
833.374	0.0155561
833.453	0.0153019
833.531	0.0153334
833.609	0.0153891
833.687	0.0151595
833.765	0.0152327
833.843	0.0152692
833.921	0.0154069
833.999	0.0152927
834.078	0.0152299
834.156	0.0153104
834.234	0.0153487
834.312	0.0154364
834.390	0.0153006
834.468	0.0154744
834.546	0.0153858
834.624	0.0152612
834.703	0.0155141
834.781	0.0155187
834.859	0.0156451
834.937	0.0156792
835.015	0.0157706
835.093	0.0157484
835.171	0.0157539
835.249	0.0158833
835.328	0.0158565
835.406	0.0158215
835.484	0.0158473
835.562	0.0159423
835.640	0.0159740
835.718	0.0157304
835.796	0.0158321
835.874	0.0158454
835.953	0.0157701
836.031	0.0156973
836.109	0.0157969
836.187	0.0158741
836.265	0.0157380
836.343	0.0156887
836.421	0.0156588
836.499	0.0156232
836.578	0.0156325
836.656	0.0156786
836.734	0.0156593
836.812	0.0156960
836.890	0.0156126
836.968	0.0154340
837.046	0.0157268
837.124	0.0156689
837.203	0.0155858
837.281	0.0155926
837.359	0.0156473
837.437	0.0156683
837.515	0.0156508
837.593	0.0156442
837.671	0.0157330
837.749	0.0156765
837.828	0.0156210
837.906	0.0156515
837.984	0.0157858
838.062	0.0156081
838.140	0.0155630
838.218	0.0155708
838.296	0.0155637
838.374	0.0155806
838.453	0.0156118
838.531	0.0157249
838.609	0.0155288
838.687	0.0156212
838.765	0.0155003
838.843	0.0156174
838.921	0.0155638
838.999	0.0156403
839.078	0.0156020
839.156	0.0157082
839.234	0.0156557
839.312	0.0156167
839.390	0.0156739
839.468	0.0157333
839.546	0.0157168
839.624	0.0157508
839.703	0.0157227
839.781	0.0157469
839.859	0.0157655
839.937	0.0157149
840.015	0.0157330
840.093	0.0157600
840.171	0.0157436
840.249	0.0156626
840.328	0.0158101
840.406	0.0157801
840.484	0.0157596
840.562	0.0158250
840.640	0.0158360
840.718	0.0158585
840.796	0.0159182
840.874	0.0157546
840.953	0.0157924
841.031	0.0156366
841.109	0.0156352
841.187	0.0157705
841.265	0.0154915
841.343	0.0156121
841.421	0.0155486
841.499	0.0154884
841.578	0.0155882
841.656	0.0155877
841.734	0.0155796
841.812	0.0154681
841.890	0.0156175
841.968	0.0155408
842.046	0.0153455
842.124	0.0155334
842.203	0.0154335
842.281	0.0155632
842.359	0.0156409
842.437	0.0155313
842.515	0.0156548
842.593	0.0155618
842.671	0.0156220
842.749	0.0156549
842.828	0.0156957
842.906	0.0156277
842.984	0.0156178
843.062	0.0157970
843.140	0.0157553
843.218	0.0156614
843.296	0.0157166
843.374	0.0157861
843.453	0.0157246
843.531	0.0156441
843.609	0.0156889
843.687	0.0155506
843.765	0.0156122
843.843	0.0155818
843.921	0.0156625
843.999	0.0158398
844.078	0.0154296
844.156	0.0155898
844.234	0.0156316
844.312	0.0156916
844.390	0.0157324
844.468	0.0156449
844.546	0.0155743
844.624	0.0155902
844.703	0.0155843
844.781	0.0155620
844.859	0.0155614
844.937	0.0155379
845.015	0.0156496
845.093	0.0155511
845.171	0.0155791
845.249	0.0154186
845.328	0.0155117
845.406	0.0154881
845.484	0.0154307
845.562	0.0154700
845.640	0.0154999
845.718	0.0153747
845.796	0.0153876
845.874	0.0154734
845.953	0.0153574
846.031	0.0154655
846.109	0.0154238
846.187	0.0155555
846.265	0.0156233
846.343	0.0155800
846.421	0.0155779
846.499	0.0155241
846.578	0.0155632
846.656	0.0155777
846.734	0.0157043
846.812	0.0156422
846.890	0.0157613
846.968	0.0157379
847.046	0.0157112
847.124	0.0155157
847.203	0.0156894
847.281	0.0156725
847.359	0.0156206
847.437	0.0156887
847.515	0.0155079
847.593	0.0155421
847.671	0.0155839
847.749	0.0154959
847.828	0.0155876
847.906	0.0156242
847.984	0.0155019
848.062	0.0155387
848.140	0.0156592
848.218	0.0154668
848.296	0.0154742
848.374	0.0156293
848.453	0.0156492
848.531	0.0156195
848.609	0.0155721
848.687	0.0155441
848.765	0.0155420
848.843	0.0154517
848.921	0.0153412
848.999	0.0153651
849.078	0.0153348
849.156	0.0153574
849.234	0.0153337
849.312	0.0151543
849.390	0.0151412
849.468	0.0152293
849.546	0.0152141
849.624	0.0152334
849.703	0.0151641
849.781	0.0152095
849.859	0.0153136
849.937	0.0152125
850.015	0.0151863
850.093	0.0153039
850.171	0.0153558
850.249	0.0153403
850.328	0.0154018
850.406	0.0153875
850.484	0.0155337
850.562	0.0153973
850.640	0.0155123
850.718	0.0155563
850.796	0.0156470
850.874	0.0156071
850.953	0.0156796
851.031	0.0156246
851.109	0.0156557
851.187	0.0155952
851.265	0.0157141
851.343	0.0157883
851.421	0.0157648
851.499	0.0158599
851.578	0.0157751
851.656	0.0157338
851.734	0.0158073
851.812	0.0156216
851.890	0.0157548
851.968	0.0156332
852.046	0.0155896
852.124	0.0156126
852.203	0.0155418
852.281	0.0156066
852.359	0.0156671
852.437	0.0155223
852.515	0.0154051
852.593	0.0154566
852.671	0.0153557
852.749	0.0153018
852.828	0.0152435
852.906	0.0154179
852.984	0.0154281
853.062	0.0153188
853.140	0.0151866
853.218	0.0153528
853.296	0.0153162
853.374	0.0150961
853.453	0.0152950
853.531	0.0154764
853.609	0.0153374
853.687	0.0152393
853.765	0.0151858
853.843	0.0154747
853.921	0.0155051
853.999	0.0155268
854.078	0.0156455
854.156	0.0154562
854.234	0.0156299
854.312	0.0156747
854.390	0.0157101
854.468	0.0157526
854.546	0.0157909
854.624	0.0158707
854.703	0.0158133
854.781	0.0157663
854.859	0.0158744
854.937	0.0158141
855.015	0.0158553
855.093	0.0158080
855.171	0.0156886
855.249	0.0156725
855.328	0.0157181
855.406	0.0155451
855.484	0.0156673
855.562	0.0155321
855.640	0.0155167
855.718	0.0155360
855.796	0.0154488
855.874	0.0155297
855.953	0.0154608
856.031	0.0153289
856.109	0.0152431
856.187	0.0153777
856.265	0.0154969
856.343	0.0154820
856.421	0.0154134
856.499	0.0154928
856.578	0.0153928
856.656	0.0154753
856.734	0.0153713
856.812	0.0154700
856.890	0.0155024
856.968	0.0153300
857.046	0.0154583
857.124	0.0153565
857.203	0.0155140
857.281	0.0154294
857.359	0.0155888
857.437	0.0155817
857.515	0.0154124
857.593	0.0156612
857.671	0.0156514
857.749	0.0154948
857.828	0.0157242
857.906	0.0156713
857.984	0.0155240
858.062	0.0155181
858.140	0.0156345
858.218	0.0157496
858.296	0.0155217
858.374	0.0155661
858.453	0.0156798
858.531	0.0156167
858.609	0.0154758
858.687	0.0156110
858.765	0.0155705
858.843	0.0155820
858.921	0.0155479
858.999	0.0156140
859.078	0.0154911
859.156	0.0156544
859.234	0.0155366
859.312	0.0154410
859.390	0.0155580
859.468	0.0156247
859.546	0.0155177
859.624	0.0156757
859.703	0.0156644
859.781	0.0156065
859.859	0.0157163
859.937	0.0156534
860.015	0.0155273
860.093	0.0157352
860.171	0.0156960
860.249	0.0157318
860.328	0.0156350
860.406	0.0155943
860.484	0.0155102
860.562	0.0157001
860.640	0.0155910
860.718	0.0156496
860.796	0.0155937
860.874	0.0156965
860.953	0.0156095
861.031	0.0156158
861.109	0.0156323
861.187	0.0157746
861.265	0.0155183
861.343	0.0155786
861.421	0.0155965
861.499	0.0156544
861.578	0.0154731
861.656	0.0156625
861.734	0.0157682
861.812	0.0155840
861.890	0.0156446
861.968	0.0158170
862.046	0.0156957
862.124	0.0157394
862.203	0.0157658
862.281	0.0156268
862.359	0.0157178
862.437	0.0157225
862.515	0.0157426
862.593	0.0157676
862.671	0.0156969
862.749	0.0156276
862.828	0.0155618
862.906	0.0155839
862.984	0.0156629
863.062	0.0155837
863.140	0.0155637
863.218	0.0153757
863.296	0.0154444
863.374	0.0154807
863.453	0.0154823
863.531	0.0155512
863.609	0.0155510
863.687	0.0155186
863.765	0.0155964
863.843	0.0154950
863.921	0.0155965
863.999	0.0155752
864.078	0.0156302
864.156	0.0156322
864.234	0.0157140
864.312	0.0156971
864.390	0.0156916
864.468	0.0157406
864.546	0.0157810
864.624	0.0158284
864.703	0.0157255
864.781	0.0157488
864.859	0.0158690
864.937	0.0158787
865.015	0.0156979
865.093	0.0157069
865.171	0.0158216
865.249	0.0156796
865.328	0.0156203
865.406	0.0157598
865.484	0.0156459
865.562	0.0156635
865.640	0.0156860
865.718	0.0156125
865.796	0.0154993
865.874	0.0155036
865.953	0.0155458
866.031	0.0154886
866.109	0.0155084
866.187	0.0154399
866.265	0.0156161
866.343	0.0154906
866.421	0.0153757
866.499	0.0155655
866.578	0.0155908
866.656	0.0155981
866.734	0.0156931
866.812	0.0155834
866.890	0.0154665
866.968	0.0155592
867.046	0.0155137
867.124	0.0154379
867.203	0.0155170
867.281	0.0155191
867.359	0.0154478
867.437	0.0155991
867.515	0.0156070
867.593	0.0153657
867.671	0.0154220
867.749	0.0155479
867.828	0.0155054
867.906	0.0154904
867.984	0.0155476
868.062	0.0154784
868.140	0.0155195
868.218	0.0154702
868.296	0.0154267
868.374	0.0156105
868.453	0.0155006
868.531	0.0155021
868.609	0.0156570
868.687	0.0156536
868.765	0.0155851
868.843	0.0155224
868.921	0.0155431
868.999	0.0154906
869.078	0.0156684
869.156	0.0155670
869.234	0.0155838
869.312	0.0156416
869.390	0.0156233
869.468	0.0157809
869.546	0.0158171
869.624	0.0157203
869.703	0.0158241
869.781	0.0158991
869.859	0.0157814
869.937	0.0156406
870.015	0.0157842
870.093	0.0157865
870.171	0.0157790
870.249	0.0157900
870.328	0.0157108
870.406	0.0158513
870.484	0.0157133
870.562	0.0159084
870.640	0.0158810
870.718	0.0156268
870.796	0.0158138
870.874	0.0157478
870.953	0.0156436
871.031	0.0156947
871.109	0.0155553
871.187	0.0157118
871.265	0.0156934
871.343	0.0155782
871.421	0.0155842
871.499	0.0156483
871.578	0.0156111
871.656	0.0155946
871.734	0.0156445
871.812	0.0156215
871.890	0.0155413
871.968	0.0156062
872.046	0.0156136
872.124	0.0155889
872.203	0.0155447
872.281	0.0155316
872.359	0.0156180
872.437	0.0154684
872.515	0.0154694
872.593	0.0155785
872.671	0.0154993
872.749	0.0155246
872.828	0.0154397
872.906	0.0154846
872.984	0.0156132
873.062	0.0155612
873.140	0.0153249
873.218	0.0154890
873.296	0.0155410
873.374	0.0154581
873.453	0.0154015
873.531	0.0155084
873.609	0.0155528
873.687	0.0156213
873.765	0.0155595
873.843	0.0157372
873.921	0.0157134
873.999	0.0157492
874.078	0.0156354
874.156	0.0156290
874.234	0.0155853
874.312	0.0155048
874.390	0.0155544
874.468	0.0156652
874.546	0.0157082
874.624	0.0155469
874.703	0.0155117
874.781	0.0155043
874.859	0.0155110
874.937	0.0156093
875.015	0.0155656
875.093	0.0153760
875.171	0.0152824
875.249	0.0154100
875.328	0.0153886
875.406	0.0152137
875.484	0.0152362
875.562	0.0153720
875.640	0.0153219
875.718	0.0151974
875.796	0.0153046
875.874	0.0152649
875.953	0.0153559
876.031	0.0151266
876.109	0.0152166
876.187	0.0153168
876.265	0.0153474
876.343	0.0153171
876.421	0.0153295
876.499	0.0154302
876.578	0.0153468
876.656	0.0154076
876.734	0.0153746
876.812	0.0155057
876.890	0.0153482
876.968	0.0155309
877.046	0.0155144
877.124	0.0155405
877.203	0.0156117
877.281	0.0155477
877.359	0.0155606
877.437	0.0156638
877.515	0.0155504
877.593	0.0153910
877.671	0.0155074
877.749	0.0154948
877.828	0.0155127
877.906	0.0155914
877.984	0.0154613
878.062	0.0154427
878.140	0.0156486
878.218	0.0155325
878.296	0.0154714
878.374	0.0155663
878.453	0.0155009
878.531	0.0154351
878.609	0.0155820
878.687	0.0154504
878.765	0.0154352
878.843	0.0153831
878.921	0.0154232
878.999	0.0155109
879.078	0.0155432
879.156	0.0154841
879.234	0.0155553
879.312	0.0153880
879.390	0.0154249
879.468	0.0154559
879.546	0.0153138
879.624	0.0155424
879.703	0.0154816
879.781	0.0154652
879.859	0.0154343
879.937	0.0153795
880.015	0.0154389
880.093	0.0154637
880.171	0.0154444
880.249	0.0153719
880.328	0.0154533
880.406	0.0154169
880.484	0.0152602
880.562	0.0154382
880.640	0.0154661
880.718	0.0154221
880.796	0.0154118
880.874	0.0153944
880.953	0.0153736
881.031	0.0153664
881.109	0.0152416
881.187	0.0154760
881.265	0.0154515
881.343	0.0155745
881.421	0.0154456
881.499	0.0155335
881.578	0.0155043
881.656	0.0155898
881.734	0.0157002
881.812	0.0155082
881.890	0.0155688
881.968	0.0156128
882.046	0.0156862
882.124	0.0157069
882.203	0.0156877
882.281	0.0157199
882.359	0.0156432
882.437	0.0156461
882.515	0.0157648
882.593	0.0156519
882.671	0.0155999
882.749	0.0156584
882.828	0.0156772
882.906	0.0156742
882.984	0.0156882
883.062	0.0156227
883.140	0.0154472
883.218	0.0154247
883.296	0.0154725
883.374	0.0155878
883.453	0.0155900
883.531	0.0155972
883.609	0.0155501
883.687	0.0155109
883.765	0.0155453
883.843	0.0155679
883.921	0.0156436
883.999	0.0156136
884.078	0.0153854
884.156	0.0155566
884.234	0.0157220
884.312	0.0155302
884.390	0.0154793
884.468	0.0155885
884.546	0.0155538
884.624	0.0155627
884.703	0.0156309
884.781	0.0156887
884.859	0.0155419
884.937	0.0156312
885.015	0.0157639
885.093	0.0156602
885.171	0.0157058
885.249	0.0157381
885.328	0.0157478
885.406	0.0157690
885.484	0.0157794
885.562	0.0155135
885.640	0.0156122
885.718	0.0156441
885.796	0.0157977
885.874	0.0156409
885.953	0.0156682
886.031	0.0156122
886.109	0.0156180
886.187	0.0156789
886.265	0.0155783
886.343	0.0154472
886.421	0.0155775
886.499	0.0156322
886.578	0.0154101
886.656	0.0155536
886.734	0.0156162
886.812	0.0154027
886.890	0.0155267
886.968	0.0154969
887.046	0.0156370
887.124	0.0155499
887.203	0.0155829
887.281	0.0155713
887.359	0.0156007
887.437	0.0155109
887.515	0.0156166
887.593	0.0156316
887.671	0.0156506
887.749	0.0156808
887.828	0.0156258
887.906	0.0155553
887.984	0.0157729
888.062	0.0156573
888.140	0.0158040
888.218	0.0157069
888.296	0.0157262
888.374	0.0156561
888.453	0.0158182
888.531	0.0157851
888.609	0.0156134
888.687	0.0154781
888.765	0.0157217
888.843	0.0155965
888.921	0.0154874
888.999	0.0155546
889.078	0.0156110
889.156	0.0156236
889.234	0.0154890
889.312	0.0153582
889.390	0.0154893
889.468	0.0155724
889.546	0.0154871
889.624	0.0155415
889.703	0.0156929
889.781	0.0154961
889.859	0.0156149
889.937	0.0153697
890.015	0.0155230
890.093	0.0155511
890.171	0.0155641
890.249	0.0154760
890.328	0.0154680
890.406	0.0155921
890.484	0.0155278
890.562	0.0156535
890.640	0.0154645
890.718	0.0155115
890.796	0.0155014
890.874	0.0154616
890.953	0.0154648
891.031	0.0155892
891.109	0.0153979
891.187	0.0154813
891.265	0.0157031
891.343	0.0156572
891.421	0.0155846
891.499	0.0154827
891.578	0.0157541
891.656	0.0156222
891.734	0.0157123
891.812	0.0156210
891.890	0.0156475
891.968	0.0156754
892.046	0.0157281
892.124	0.0156742
892.203	0.0156870
892.281	0.0157160
892.359	0.0157919
892.437	0.0157117
892.515	0.0157136
892.593	0.0156975
892.671	0.0156420
892.749	0.0155050
892.828	0.0154192
892.906	0.0154848
892.984	0.0155761
893.062	0.0155661
893.140	0.0156803
893.218	0.0156648
893.296	0.0155515
893.374	0.0155737
893.453	0.0154645
893.531	0.0155796
893.609	0.0155264
893.687	0.0154682
893.765	0.0154995
893.843	0.0153908
893.921	0.0155608
893.999	0.0156066
894.078	0.0155650
894.156	0.0155538
894.234	0.0154964
894.312	0.0155444
894.390	0.0154969
894.468	0.0154582
894.546	0.0154678
894.624	0.0155291
894.703	0.0154365
894.781	0.0153732
894.859	0.0155320
894.937	0.0153604
895.015	0.0155072
895.093	0.0155574
895.171	0.0155487
895.249	0.0157384
895.328	0.0155837
895.406	0.0155938
895.484	0.0155172
895.562	0.0156586
895.640	0.0156197
895.718	0.0156719
895.796	0.0156731
895.874	0.0156289
895.953	0.0156450
896.031	0.0156479
896.109	0.0156751
896.187	0.0156439
896.265	0.0156003
896.343	0.0155495
896.421	0.0155658
896.499	0.0155720
896.578	0.0155879
896.656	0.0156045
896.734	0.0156280
896.812	0.0155993
896.890	0.0155882
896.968	0.0157326
897.046	0.0155988
897.124	0.0154881
897.203	0.0154708
897.281	0.0154015
897.359	0.0156586
897.437	0.0154923
897.515	0.0154600
897.593	0.0154954
897.671	0.0155720
897.749	0.0154885
897.828	0.0154327
897.906	0.0155476
897.984	0.0154701
898.062	0.0154082
898.140	0.0155912
898.218	0.0154958
898.296	0.0153815
898.374	0.0154153
898.453	0.0155196
898.531	0.0154391
898.609	0.0155257
898.687	0.0155801
898.765	0.0154919
898.843	0.0155986
898.921	0.0155036
898.999	0.0154053
899.078	0.0153249
899.156	0.0155428
899.234	0.0154674
899.312	0.0155182
899.390	0.0154755
899.468	0.0155750
899.546	0.0154283
899.624	0.0155160
899.703	0.0155643
899.781	0.0155139
899.859	0.0154873
899.937	0.0154211
900.015	0.0156016
900.093	0.0155321
900.171	0.0155212
900.249	0.0155074
900.328	0.0155761
900.406	0.0155766
900.484	0.0155821
900.562	0.0154741
900.640	0.0155216
900.718	0.0154386
900.796	0.0156155
900.874	0.0154681
900.953	0.0153597
901.031	0.0155821
901.109	0.0155469
901.187	0.0156314
901.265	0.0154960
901.343	0.0154790
901.421	0.0154920
901.499	0.0154902
901.578	0.0155364
901.656	0.0154597
901.734	0.0155598
901.812	0.0154732
901.890	0.0154837
901.968	0.0154333
902.046	0.0155298
902.124	0.0153749
902.203	0.0155084
902.281	0.0154449
902.359	0.0154720
902.437	0.0153830
902.515	0.0155160
902.593	0.0154115
902.671	0.0154854
902.749	0.0153292
902.828	0.0153576
902.906	0.0153712
902.984	0.0153829
903.062	0.0153226
903.140	0.0154039
903.218	0.0153957
903.296	0.0155592
903.374	0.0154008
903.453	0.0154700
903.531	0.0154287
903.609	0.0155827
903.687	0.0154110
903.765	0.0154362
903.843	0.0154958
903.921	0.0156068
903.999	0.0156322
904.078	0.0155604
904.156	0.0156590
904.234	0.0155457
904.312	0.0154971
904.390	0.0156890
904.468	0.0155489
904.546	0.0155531
904.624	0.0155672
904.703	0.0157132
904.781	0.0155751
904.859	0.0156034
904.937	0.0155289
905.015	0.0153487
905.093	0.0156482
905.171	0.0156396
905.249	0.0154354
905.328	0.0154535
905.406	0.0154308
905.484	0.0155392
905.562	0.0155420
905.640	0.0154413
905.718	0.0155532
905.796	0.0154248
905.874	0.0153571
905.953	0.0156072
906.031	0.0155746
906.109	0.0154766
906.187	0.0155975
906.265	0.0154937
906.343	0.0157970
906.421	0.0156129
906.499	0.0155349
906.578	0.0156126
906.656	0.0156311
906.734	0.0155862
906.812	0.0157877
906.890	0.0156458
906.968	0.0156433
907.046	0.0157368
907.124	0.0157833
907.203	0.0157618
907.281	0.0157564
907.359	0.0157151
907.437	0.0155733
907.515	0.0156979
907.593	0.0158778
907.671	0.0156726
907.749	0.0156140
907.828	0.0155525
907.906	0.0155453
907.984	0.0156882
908.062	0.0157124
908.140	0.0156389
908.218	0.0155749
908.296	0.0155357
908.374	0.0156358
908.453	0.0157130
908.531	0.0156718
908.609	0.0156909
908.687	0.0156934
908.765	0.0157516
908.843	0.0157431
908.921	0.0157198
908.999	0.0156937
909.078	0.0157389
909.156	0.0157597
909.234	0.0157094
909.312	0.0157668
909.390	0.0158843
909.468	0.0158491
909.546	0.0158481
909.624	0.0157144
909.703	0.0160136
909.781	0.0157855
909.859	0.0156973
909.937	0.0158936
910.015	0.0157513
910.093	0.0157177
910.171	0.0157071
910.249	0.0157483
910.328	0.0157795
910.406	0.0155704
910.484	0.0157088
910.562	0.0156362
910.640	0.0157005
910.718	0.0157102
910.796	0.0156418
910.874	0.0155335
910.953	0.0157111
911.031	0.0156182
911.109	0.0155713
911.187	0.0157641
911.265	0.0157334
911.343	0.0157905
911.421	0.0156355
911.499	0.0156741
911.578	0.0157503
911.656	0.0155422
911.734	0.0155915
911.812	0.0158082
911.890	0.0157154
911.968	0.0155424
912.046	0.0157751
912.124	0.0156104
912.203	0.0156207
912.281	0.0156098
912.359	0.0157819
912.437	0.0157207
912.515	0.0157243
912.593	0.0155827
912.671	0.0156733
912.749	0.0156959
912.828	0.0155940
912.906	0.0156674
912.984	0.0156944
913.062	0.0156934
913.140	0.0158181
913.218	0.0157256
913.296	0.0155191
913.374	0.0154797
913.453	0.0156750
913.531	0.0156088
913.609	0.0156310
913.687	0.0155956
913.765	0.0155770
913.843	0.0156824
913.921	0.0155959
913.999	0.0156844
914.078	0.0156239
914.156	0.0155533
914.234	0.0154965
914.312	0.0155424
914.390	0.0156696
914.468	0.0155606
914.546	0.0154683
914.624	0.0154464
914.703	0.0154542
914.781	0.0155121
914.859	0.0153363
914.937	0.0155462
915.015	0.0155712
915.093	0.0156112
915.171	0.0154252
915.249	0.0154743
915.328	0.0156396
915.406	0.0155975
915.484	0.0156786
915.562	0.0155927
915.640	0.0156092
915.718	0.0156234
915.796	0.0156892
915.874	0.0154976
915.953	0.0156198
916.031	0.0156402
916.109	0.0156205
916.187	0.0155956
916.265	0.0155771
916.343	0.0155026
916.421	0.0155341
916.499	0.0155799
916.578	0.0155601
916.656	0.0153998
916.734	0.0155148
916.812	0.0155389
916.890	0.0155399
916.968	0.0156727
917.046	0.0155061
917.124	0.0155472
917.203	0.0152665
917.281	0.0154874
917.359	0.0154542
917.437	0.0154565
917.515	0.0154124
917.593	0.0154847
917.671	0.0154583
917.749	0.0155379
917.828	0.0155435
917.906	0.0156122
917.984	0.0153668
918.062	0.0153918
918.140	0.0155482
918.218	0.0154804
918.296	0.0155270
918.374	0.0155475
918.453	0.0156149
918.531	0.0156348
918.609	0.0155415
918.687	0.0155402
918.765	0.0157024
918.843	0.0156615
918.921	0.0157764
918.999	0.0156519
919.078	0.0156931
919.156	0.0156071
919.234	0.0154682
919.312	0.0155771
919.390	0.0155943
919.468	0.0156587
919.546	0.0156098
919.624	0.0156740
919.703	0.0154462
919.781	0.0155486
919.859	0.0155991
919.937	0.0154725
