06/10/2022	19:03:11	Ver.	4.1	UNKNOWN
Optical Delay	600.015094	Delta X		0.078125	Sweeps	1	Scan Rate	0/0
Coordinates	Axis 1	NaN	Axis 2	NaN	Axis 3	NaN	Axis 4	NaN	Axis 5	NaN	Axis 6	0.000000
TX Power	0.000000	RX Power	0.000000

600.015	0.0156705
600.093	0.0158418
600.171	0.0157108
600.249	0.0158611
600.328	0.0157586
600.406	0.0159210
600.484	0.0157837
600.562	0.0156751
600.640	0.0158936
600.718	0.0158792
600.796	0.0157774
600.874	0.0158881
600.953	0.0157996
601.031	0.0158772
601.109	0.0157932
601.187	0.0158354
601.265	0.0158343
601.343	0.0159116
601.421	0.0158419
601.499	0.0158167
601.578	0.0158702
601.656	0.0158843
601.734	0.0159100
601.812	0.0158781
601.890	0.0157362
601.968	0.0156783
602.046	0.0158923
602.124	0.0158795
602.203	0.0158599
602.281	0.0159135
602.359	0.0159848
602.437	0.0157726
602.515	0.0157111
602.593	0.0158130
602.671	0.0156837
602.749	0.0157914
602.828	0.0159560
602.906	0.0159955
602.984	0.0158330
603.062	0.0158044
603.140	0.0157983
603.218	0.0158871
603.296	0.0158633
603.374	0.0157691
603.453	0.0156395
603.531	0.0157801
603.609	0.0158007
603.687	0.0157387
603.765	0.0156555
603.843	0.0158660
603.921	0.0158369
603.999	0.0157378
604.078	0.0157970
604.156	0.0157902
604.234	0.0156618
604.312	0.0157922
604.390	0.0157534
604.468	0.0156355
604.546	0.0158710
604.624	0.0159013
604.703	0.0157424
604.781	0.0156238
604.859	0.0157378
604.937	0.0156805
605.015	0.0157017
605.093	0.0157330
605.171	0.0156775
605.249	0.0158022
605.328	0.0158336
605.406	0.0157552
605.484	0.0156689
605.562	0.0157850
605.640	0.0156005
605.718	0.0157540
605.796	0.0156150
605.874	0.0156737
605.953	0.0158240
606.031	0.0157056
606.109	0.0156273
606.187	0.0156610
606.265	0.0156794
606.343	0.0156136
606.421	0.0156812
606.499	0.0156925
606.578	0.0156200
606.656	0.0157633
606.734	0.0157802
606.812	0.0155961
606.890	0.0156665
606.968	0.0157709
607.046	0.0156052
607.124	0.0156266
607.203	0.0157732
607.281	0.0155598
607.359	0.0156489
607.437	0.0157774
607.515	0.0155627
607.593	0.0157420
607.671	0.0156705
607.749	0.0155870
607.828	0.0156556
607.906	0.0156942
607.984	0.0156639
608.062	0.0157088
608.140	0.0156584
608.218	0.0157252
608.296	0.0156297
608.374	0.0157069
608.453	0.0157080
608.531	0.0156961
608.609	0.0155510
608.687	0.0155910
608.765	0.0156675
608.843	0.0156265
608.921	0.0157343
608.999	0.0157741
609.078	0.0157389
609.156	0.0157111
609.234	0.0156672
609.312	0.0157312
609.390	0.0156583
609.468	0.0156586
609.546	0.0157538
609.624	0.0157253
609.703	0.0156867
609.781	0.0157523
609.859	0.0158675
609.937	0.0157539
610.015	0.0158031
610.093	0.0158463
610.171	0.0158429
610.249	0.0157629
610.328	0.0156075
610.406	0.0157461
610.484	0.0157835
610.562	0.0158011
610.640	0.0156636
610.718	0.0157438
610.796	0.0158954
610.874	0.0157233
610.953	0.0157718
611.031	0.0157538
611.109	0.0158296
611.187	0.0157427
611.265	0.0158990
611.343	0.0157078
611.421	0.0158096
611.499	0.0159842
611.578	0.0157121
611.656	0.0157378
611.734	0.0159019
611.812	0.0158951
611.890	0.0157124
611.968	0.0158258
612.046	0.0158238
612.124	0.0158507
612.203	0.0157531
612.281	0.0158473
612.359	0.0157863
612.437	0.0158083
612.515	0.0159325
612.593	0.0158080
612.671	0.0159129
612.749	0.0159554
612.828	0.0158619
612.906	0.0158306
612.984	0.0158556
613.062	0.0157289
613.140	0.0157216
613.218	0.0157868
613.296	0.0157799
613.374	0.0157162
613.453	0.0158300
613.531	0.0156655
613.609	0.0158073
613.687	0.0159682
613.765	0.0158681
613.843	0.0158205
613.921	0.0157238
613.999	0.0159016
614.078	0.0158436
614.156	0.0158598
614.234	0.0158835
614.312	0.0158383
614.390	0.0158692
614.468	0.0159879
614.546	0.0158277
614.624	0.0156200
614.703	0.0158141
614.781	0.0158324
614.859	0.0158962
614.937	0.0158619
615.015	0.0160039
615.093	0.0158586
615.171	0.0158018
615.249	0.0158527
615.328	0.0157352
615.406	0.0157805
615.484	0.0159661
615.562	0.0157461
615.640	0.0157662
615.718	0.0158652
615.796	0.0158713
615.874	0.0157439
615.953	0.0157948
616.031	0.0158420
616.109	0.0157581
616.187	0.0157056
616.265	0.0157487
616.343	0.0159483
616.421	0.0157986
616.499	0.0159644
616.578	0.0158465
616.656	0.0157838
616.734	0.0158408
616.812	0.0157661
616.890	0.0157552
616.968	0.0157337
617.046	0.0157657
617.124	0.0158365
617.203	0.0157979
617.281	0.0158159
617.359	0.0157678
617.437	0.0157098
617.515	0.0157351
617.593	0.0159930
617.671	0.0155916
617.749	0.0156772
617.828	0.0157051
617.906	0.0156194
617.984	0.0157256
618.062	0.0157654
618.140	0.0155978
618.218	0.0155891
618.296	0.0155905
618.374	0.0157182
618.453	0.0155301
618.531	0.0154859
618.609	0.0155375
618.687	0.0155527
618.765	0.0154955
618.843	0.0154923
618.921	0.0154995
618.999	0.0156037
619.078	0.0153441
619.156	0.0154642
619.234	0.0154723
619.312	0.0157515
619.390	0.0155141
619.468	0.0155810
619.546	0.0156258
619.624	0.0156563
619.703	0.0156495
619.781	0.0155926
619.859	0.0155233
619.937	0.0157250
620.015	0.0156526
620.093	0.0156503
620.171	0.0155978
620.249	0.0155020
620.328	0.0154721
620.406	0.0153724
620.484	0.0154605
620.562	0.0154937
620.640	0.0154329
620.718	0.0155983
620.796	0.0155627
620.874	0.0154205
620.953	0.0153827
621.031	0.0155205
621.109	0.0154870
621.187	0.0154952
621.265	0.0155070
621.343	0.0153996
621.421	0.0154049
621.499	0.0155784
621.578	0.0155893
621.656	0.0155622
621.734	0.0155769
621.812	0.0156075
621.890	0.0157284
621.968	0.0154802
622.046	0.0156813
622.124	0.0156303
622.203	0.0156339
622.281	0.0157147
622.359	0.0156477
622.437	0.0157732
622.515	0.0155671
622.593	0.0157067
622.671	0.0156187
622.749	0.0155305
622.828	0.0156354
622.906	0.0156958
622.984	0.0155938
623.062	0.0154346
623.140	0.0155292
623.218	0.0156758
623.296	0.0156072
623.374	0.0155023
623.453	0.0156360
623.531	0.0155705
623.609	0.0156210
623.687	0.0156710
623.765	0.0157287
623.843	0.0156770
623.921	0.0155968
623.999	0.0156907
624.078	0.0156847
624.156	0.0157609
624.234	0.0156181
624.312	0.0155858
624.390	0.0157304
624.468	0.0156693
624.546	0.0156370
624.624	0.0156303
624.703	0.0157529
624.781	0.0157676
624.859	0.0157303
624.937	0.0156970
625.015	0.0156480
625.093	0.0156772
625.171	0.0157608
625.249	0.0156764
625.328	0.0157888
625.406	0.0158373
625.484	0.0157671
625.562	0.0156813
625.640	0.0157861
625.718	0.0158254
625.796	0.0158099
625.874	0.0158496
625.953	0.0157968
626.031	0.0157291
626.109	0.0157542
626.187	0.0157995
626.265	0.0158119
626.343	0.0158762
626.421	0.0157565
626.499	0.0156393
626.578	0.0156940
626.656	0.0157395
626.734	0.0156644
626.812	0.0159098
626.890	0.0157229
626.968	0.0156886
627.046	0.0156390
627.124	0.0157642
627.203	0.0158012
627.281	0.0157529
627.359	0.0157439
627.437	0.0156461
627.515	0.0158033
627.593	0.0157554
627.671	0.0158316
627.749	0.0157980
627.828	0.0157610
627.906	0.0157859
627.984	0.0157021
628.062	0.0158886
628.140	0.0158866
628.218	0.0157967
628.296	0.0157763
628.374	0.0158839
628.453	0.0158311
628.531	0.0158082
628.609	0.0157505
628.687	0.0157452
628.765	0.0157414
628.843	0.0157800
628.921	0.0157795
628.999	0.0157409
629.078	0.0157533
629.156	0.0157801
629.234	0.0157706
629.312	0.0159093
629.390	0.0157900
629.468	0.0157362
629.546	0.0158899
629.624	0.0156589
629.703	0.0157845
629.781	0.0158988
629.859	0.0156898
629.937	0.0157745
630.015	0.0156994
630.093	0.0157259
630.171	0.0158949
630.249	0.0158534
630.328	0.0157886
630.406	0.0158842
630.484	0.0158830
630.562	0.0158923
630.640	0.0159835
630.718	0.0157591
630.796	0.0156891
630.874	0.0157574
630.953	0.0157951
631.031	0.0158315
631.109	0.0156576
631.187	0.0157504
631.265	0.0158256
631.343	0.0159770
631.421	0.0157591
631.499	0.0158321
631.578	0.0157379
631.656	0.0157755
631.734	0.0157802
631.812	0.0159264
631.890	0.0158958
631.968	0.0157518
632.046	0.0156800
632.124	0.0158775
632.203	0.0159500
632.281	0.0158583
632.359	0.0156854
632.437	0.0157647
632.515	0.0158579
632.593	0.0157343
632.671	0.0157668
632.749	0.0158604
632.828	0.0157894
632.906	0.0158459
632.984	0.0158047
633.062	0.0157134
633.140	0.0158700
633.218	0.0159704
633.296	0.0158879
633.374	0.0157411
633.453	0.0157204
633.531	0.0156758
633.609	0.0159392
633.687	0.0158508
633.765	0.0159326
633.843	0.0157885
633.921	0.0157384
633.999	0.0157050
634.078	0.0158688
634.156	0.0158207
634.234	0.0157761
634.312	0.0157714
634.390	0.0157033
634.468	0.0157547
634.546	0.0157494
634.624	0.0156783
634.703	0.0158033
634.781	0.0157368
634.859	0.0157603
634.937	0.0157317
635.015	0.0157713
635.093	0.0158704
635.171	0.0157706
635.249	0.0157922
635.328	0.0157390
635.406	0.0159422
635.484	0.0158565
635.562	0.0158716
635.640	0.0159131
635.718	0.0157101
635.796	0.0159070
635.874	0.0158274
635.953	0.0156511
636.031	0.0157513
636.109	0.0158836
636.187	0.0157193
636.265	0.0157846
636.343	0.0157153
636.421	0.0157449
636.499	0.0157699
636.578	0.0157782
636.656	0.0158548
636.734	0.0158133
636.812	0.0158189
636.890	0.0157745
636.968	0.0156392
637.046	0.0156299
637.124	0.0158116
637.203	0.0157471
637.281	0.0157921
637.359	0.0157599
637.437	0.0157608
637.515	0.0157410
637.593	0.0157647
637.671	0.0157810
637.749	0.0158921
637.828	0.0156690
637.906	0.0157581
637.984	0.0158192
638.062	0.0157759
638.140	0.0157887
638.218	0.0157803
638.296	0.0158344
638.374	0.0156778
638.453	0.0158604
638.531	0.0156815
638.609	0.0156733
638.687	0.0157036
638.765	0.0156646
638.843	0.0156941
638.921	0.0157688
638.999	0.0157582
639.078	0.0157746
639.156	0.0156709
639.234	0.0157293
639.312	0.0157681
639.390	0.0157549
639.468	0.0158450
639.546	0.0157918
639.624	0.0158200
639.703	0.0156661
639.781	0.0157567
639.859	0.0155862
639.937	0.0156366
640.015	0.0158288
640.093	0.0157877
640.171	0.0157059
640.249	0.0157209
640.328	0.0156966
640.406	0.0156960
640.484	0.0157165
640.562	0.0158154
640.640	0.0157088
640.718	0.0156671
640.796	0.0156699
640.874	0.0155714
640.953	0.0156477
641.031	0.0157217
641.109	0.0156133
641.187	0.0155605
641.265	0.0157185
641.343	0.0157277
641.421	0.0155535
641.499	0.0156357
641.578	0.0157666
641.656	0.0156358
641.734	0.0156501
641.812	0.0157133
641.890	0.0157457
641.968	0.0156673
642.046	0.0156669
642.124	0.0156578
642.203	0.0155471
642.281	0.0156168
642.359	0.0156638
642.437	0.0155994
642.515	0.0156276
642.593	0.0156304
642.671	0.0156396
642.749	0.0155601
642.828	0.0154981
642.906	0.0157021
642.984	0.0155949
643.062	0.0156142
643.140	0.0155541
643.218	0.0155253
643.296	0.0155942
643.374	0.0155474
643.453	0.0154542
643.531	0.0157072
643.609	0.0155297
643.687	0.0156046
643.765	0.0155092
643.843	0.0155484
643.921	0.0156509
643.999	0.0155190
644.078	0.0154223
644.156	0.0154364
644.234	0.0156004
644.312	0.0155210
644.390	0.0155923
644.468	0.0155345
644.546	0.0155178
644.624	0.0154645
644.703	0.0157243
644.781	0.0154173
644.859	0.0154359
644.937	0.0154002
645.015	0.0153509
645.093	0.0154985
645.171	0.0153605
645.249	0.0154470
645.328	0.0155528
645.406	0.0155228
645.484	0.0153629
645.562	0.0153394
645.640	0.0153726
645.718	0.0154568
645.796	0.0154361
645.874	0.0153309
645.953	0.0152753
646.031	0.0154585
646.109	0.0153775
646.187	0.0154300
646.265	0.0154134
646.343	0.0153755
646.421	0.0153543
646.499	0.0153937
646.578	0.0153360
646.656	0.0153981
646.734	0.0154716
646.812	0.0154099
646.890	0.0155588
646.968	0.0154060
647.046	0.0152547
647.124	0.0155129
647.203	0.0155541
647.281	0.0155704
647.359	0.0154576
647.437	0.0154367
647.515	0.0153371
647.593	0.0154601
647.671	0.0156219
647.749	0.0154855
647.828	0.0153983
647.906	0.0155508
647.984	0.0154533
648.062	0.0155446
648.140	0.0155965
648.218	0.0155922
648.296	0.0153780
648.374	0.0154160
648.453	0.0155501
648.531	0.0156769
648.609	0.0154520
648.687	0.0154057
648.765	0.0156103
648.843	0.0156114
648.921	0.0155148
648.999	0.0155003
649.078	0.0155367
649.156	0.0154151
649.234	0.0155456
649.312	0.0155904
649.390	0.0156089
649.468	0.0156085
649.546	0.0155751
649.624	0.0155853
649.703	0.0156126
649.781	0.0155997
649.859	0.0154961
649.937	0.0155914
650.015	0.0155727
650.093	0.0155948
650.171	0.0157611
650.249	0.0156954
650.328	0.0156606
650.406	0.0157162
650.484	0.0157328
650.562	0.0156422
650.640	0.0156324
650.718	0.0158340
650.796	0.0158231
650.874	0.0157297
650.953	0.0156550
651.031	0.0157158
651.109	0.0155249
651.187	0.0157047
651.265	0.0157093
651.343	0.0156686
651.421	0.0157928
651.499	0.0157092
651.578	0.0157492
651.656	0.0157107
651.734	0.0158436
651.812	0.0158131
651.890	0.0157568
651.968	0.0157668
652.046	0.0157243
652.124	0.0158123
652.203	0.0157462
652.281	0.0157745
652.359	0.0157376
652.437	0.0157234
652.515	0.0156157
652.593	0.0158275
652.671	0.0156423
652.749	0.0159286
652.828	0.0158695
652.906	0.0156645
652.984	0.0157206
653.062	0.0158135
653.140	0.0158618
653.218	0.0158231
653.296	0.0157605
653.374	0.0158327
653.453	0.0157499
653.531	0.0157322
653.609	0.0158750
653.687	0.0157281
653.765	0.0157393
653.843	0.0159196
653.921	0.0158468
653.999	0.0157570
654.078	0.0156808
654.156	0.0158022
654.234	0.0156963
654.312	0.0159274
654.390	0.0159478
654.468	0.0157906
654.546	0.0158878
654.624	0.0158832
654.703	0.0158223
654.781	0.0158375
654.859	0.0158064
654.937	0.0158567
655.015	0.0156829
655.093	0.0158578
655.171	0.0157782
655.249	0.0157283
655.328	0.0157861
655.406	0.0159126
655.484	0.0157898
655.562	0.0158496
655.640	0.0157358
655.718	0.0157690
655.796	0.0158020
655.874	0.0158612
655.953	0.0157976
656.031	0.0156303
656.109	0.0158869
656.187	0.0157999
656.265	0.0158369
656.343	0.0158069
656.421	0.0157717
656.499	0.0157903
656.578	0.0157687
656.656	0.0157968
656.734	0.0158265
656.812	0.0157751
656.890	0.0157443
656.968	0.0157714
657.046	0.0158003
657.124	0.0158416
657.203	0.0156020
657.281	0.0158064
657.359	0.0157445
657.437	0.0157217
657.515	0.0157616
657.593	0.0155411
657.671	0.0157570
657.749	0.0158440
657.828	0.0158137
657.906	0.0156703
657.984	0.0157428
658.062	0.0157204
658.140	0.0157587
658.218	0.0157231
658.296	0.0156759
658.374	0.0158269
658.453	0.0158350
658.531	0.0158235
658.609	0.0157510
658.687	0.0158743
658.765	0.0157741
658.843	0.0156617
658.921	0.0158081
658.999	0.0156692
659.078	0.0158554
659.156	0.0156677
659.234	0.0157431
659.312	0.0157849
659.390	0.0159184
659.468	0.0157582
659.546	0.0156360
659.624	0.0156419
659.703	0.0157467
659.781	0.0157801
659.859	0.0155733
659.937	0.0156574
660.015	0.0157054
660.093	0.0156512
660.171	0.0158093
660.249	0.0156794
660.328	0.0157867
660.406	0.0158305
660.484	0.0157053
660.562	0.0158310
660.640	0.0159414
660.718	0.0157144
660.796	0.0156409
660.874	0.0156831
660.953	0.0158383
661.031	0.0157834
661.109	0.0158203
661.187	0.0156697
661.265	0.0157732
661.343	0.0157417
661.421	0.0157791
661.499	0.0156845
661.578	0.0156206
661.656	0.0156574
661.734	0.0156465
661.812	0.0157758
661.890	0.0156955
661.968	0.0157266
662.046	0.0158085
662.124	0.0156798
662.203	0.0157952
662.281	0.0157169
662.359	0.0157043
662.437	0.0157737
662.515	0.0156473
662.593	0.0156175
662.671	0.0154809
662.749	0.0155849
662.828	0.0156419
662.906	0.0157366
662.984	0.0158772
663.062	0.0156661
663.140	0.0156647
663.218	0.0157117
663.296	0.0157746
663.374	0.0156326
663.453	0.0156201
663.531	0.0156808
663.609	0.0157672
663.687	0.0157183
663.765	0.0156780
663.843	0.0156355
663.921	0.0156094
663.999	0.0157034
664.078	0.0158765
664.156	0.0156461
664.234	0.0156416
664.312	0.0156166
664.390	0.0156031
664.468	0.0157322
664.546	0.0156400
664.624	0.0157034
664.703	0.0156120
664.781	0.0156847
664.859	0.0155224
664.937	0.0155241
665.015	0.0155586
665.093	0.0155712
665.171	0.0156305
665.249	0.0154922
665.328	0.0156845
665.406	0.0157278
665.484	0.0156821
665.562	0.0157281
665.640	0.0155161
665.718	0.0155235
665.796	0.0156695
665.874	0.0157329
665.953	0.0155354
666.031	0.0155698
666.109	0.0154253
666.187	0.0156401
666.265	0.0155593
666.343	0.0154657
666.421	0.0155180
666.499	0.0155776
666.578	0.0155341
666.656	0.0155245
666.734	0.0154867
666.812	0.0155083
666.890	0.0155694
666.968	0.0154228
667.046	0.0155152
667.124	0.0155373
667.203	0.0154955
667.281	0.0155301
667.359	0.0155399
667.437	0.0155178
667.515	0.0154470
667.593	0.0155762
667.671	0.0154609
667.749	0.0154816
667.828	0.0156462
667.906	0.0155683
667.984	0.0155260
668.062	0.0155673
668.140	0.0156593
668.218	0.0154277
668.296	0.0155230
668.374	0.0155439
668.453	0.0154178
668.531	0.0155045
668.609	0.0155092
668.687	0.0155623
668.765	0.0155251
668.843	0.0155796
668.921	0.0154807
668.999	0.0154930
669.078	0.0156023
669.156	0.0155970
669.234	0.0156638
669.312	0.0155370
669.390	0.0156397
669.468	0.0156653
669.546	0.0156422
669.624	0.0155483
669.703	0.0155460
669.781	0.0155882
669.859	0.0156210
669.937	0.0155883
670.015	0.0156654
670.093	0.0155520
670.171	0.0155640
670.249	0.0155895
670.328	0.0155766
670.406	0.0156869
670.484	0.0156135
670.562	0.0156621
670.640	0.0156655
670.718	0.0154861
670.796	0.0155951
670.874	0.0155864
670.953	0.0156308
671.031	0.0156129
671.109	0.0156544
671.187	0.0157970
671.265	0.0157378
671.343	0.0156771
671.421	0.0156857
671.499	0.0157223
671.578	0.0156828
671.656	0.0155684
671.734	0.0156116
671.812	0.0156448
671.890	0.0155450
671.968	0.0156543
672.046	0.0157018
672.124	0.0156979
672.203	0.0156430
672.281	0.0157091
672.359	0.0158048
672.437	0.0156755
672.515	0.0156004
672.593	0.0156046
672.671	0.0156681
672.749	0.0157486
672.828	0.0157806
672.906	0.0155449
672.984	0.0156815
673.062	0.0157737
673.140	0.0157689
673.218	0.0157473
673.296	0.0156450
673.374	0.0157720
673.453	0.0157353
673.531	0.0156010
673.609	0.0157198
673.687	0.0157880
673.765	0.0156461
673.843	0.0157233
673.921	0.0157294
673.999	0.0158109
674.078	0.0157857
674.156	0.0158155
674.234	0.0157584
674.312	0.0156272
674.390	0.0157195
674.468	0.0157653
674.546	0.0156895
674.624	0.0157514
674.703	0.0159238
674.781	0.0158473
674.859	0.0157195
674.937	0.0156716
675.015	0.0156392
675.093	0.0156839
675.171	0.0157553
675.249	0.0157578
675.328	0.0156901
675.406	0.0155737
675.484	0.0156686
675.562	0.0157710
675.640	0.0158208
675.718	0.0158096
675.796	0.0156790
675.874	0.0158511
675.953	0.0157159
676.031	0.0157834
676.109	0.0156879
676.187	0.0157850
676.265	0.0157762
676.343	0.0157939
676.421	0.0157161
676.499	0.0157763
676.578	0.0155883
676.656	0.0157077
676.734	0.0157130
676.812	0.0156154
676.890	0.0157674
676.968	0.0156101
677.046	0.0156611
677.124	0.0158276
677.203	0.0157325
677.281	0.0157485
677.359	0.0158025
677.437	0.0157923
677.515	0.0157057
677.593	0.0157979
677.671	0.0157297
677.749	0.0157590
677.828	0.0159055
677.906	0.0158662
677.984	0.0157502
678.062	0.0157790
678.140	0.0158421
678.218	0.0156523
678.296	0.0157327
678.374	0.0158074
678.453	0.0157568
678.531	0.0156152
678.609	0.0157592
678.687	0.0157581
678.765	0.0157277
678.843	0.0158492
678.921	0.0156812
678.999	0.0157836
679.078	0.0157375
679.156	0.0156805
679.234	0.0157318
679.312	0.0157182
679.390	0.0157825
679.468	0.0156911
679.546	0.0157054
679.624	0.0157150
679.703	0.0156400
679.781	0.0157351
679.859	0.0158031
679.937	0.0156041
680.015	0.0157024
680.093	0.0158420
680.171	0.0156757
680.249	0.0157008
680.328	0.0156400
680.406	0.0157879
680.484	0.0157726
680.562	0.0157450
680.640	0.0157880
680.718	0.0157771
680.796	0.0159179
680.874	0.0158027
680.953	0.0157711
681.031	0.0158064
681.109	0.0157400
681.187	0.0159351
681.265	0.0157983
681.343	0.0157641
681.421	0.0158067
681.499	0.0158011
681.578	0.0158318
681.656	0.0158630
681.734	0.0158646
681.812	0.0158522
681.890	0.0158466
681.968	0.0158350
682.046	0.0158151
682.124	0.0157789
682.203	0.0158586
682.281	0.0159422
682.359	0.0157156
682.437	0.0157507
682.515	0.0157574
682.593	0.0159116
682.671	0.0158663
682.749	0.0159732
682.828	0.0159583
682.906	0.0158378
682.984	0.0159558
683.062	0.0159882
683.140	0.0158118
683.218	0.0158431
683.296	0.0159132
683.374	0.0159400
683.453	0.0159313
683.531	0.0158450
683.609	0.0158165
683.687	0.0159144
683.765	0.0158018
683.843	0.0158023
683.921	0.0157397
683.999	0.0157674
684.078	0.0156622
684.156	0.0157887
684.234	0.0158474
684.312	0.0156937
684.390	0.0157138
684.468	0.0157625
684.546	0.0157034
684.624	0.0157434
684.703	0.0156558
684.781	0.0156799
684.859	0.0159195
684.937	0.0157762
685.015	0.0156940
685.093	0.0158254
685.171	0.0157915
685.249	0.0155235
685.328	0.0157524
685.406	0.0157741
685.484	0.0157175
685.562	0.0156894
685.640	0.0157884
685.718	0.0158041
685.796	0.0156892
685.874	0.0157619
685.953	0.0156997
686.031	0.0157523
686.109	0.0158009
686.187	0.0157027
686.265	0.0157333
686.343	0.0156090
686.421	0.0156705
686.499	0.0156833
686.578	0.0156892
686.656	0.0157364
686.734	0.0157340
686.812	0.0157407
686.890	0.0157434
686.968	0.0157732
687.046	0.0157960
687.124	0.0156459
687.203	0.0157357
687.281	0.0157655
687.359	0.0156404
687.437	0.0157515
687.515	0.0157692
687.593	0.0157995
687.671	0.0156767
687.749	0.0155899
687.828	0.0157310
687.906	0.0158766
687.984	0.0157027
688.062	0.0157785
688.140	0.0155968
688.218	0.0156718
688.296	0.0157747
688.374	0.0157379
688.453	0.0155211
688.531	0.0155929
688.609	0.0157275
688.687	0.0157119
688.765	0.0156068
688.843	0.0156001
688.921	0.0156748
688.999	0.0156533
689.078	0.0155940
689.156	0.0156361
689.234	0.0156934
689.312	0.0157133
689.390	0.0156566
689.468	0.0156846
689.546	0.0156256
689.624	0.0156531
689.703	0.0157446
689.781	0.0158447
689.859	0.0155474
689.937	0.0156017
690.015	0.0156498
690.093	0.0157078
690.171	0.0156712
690.249	0.0156721
690.328	0.0158177
690.406	0.0156263
690.484	0.0156577
690.562	0.0156102
690.640	0.0156681
690.718	0.0156097
690.796	0.0155983
690.874	0.0157257
690.953	0.0156578
691.031	0.0156809
691.109	0.0154343
691.187	0.0155394
691.265	0.0155525
691.343	0.0156194
691.421	0.0155029
691.499	0.0156026
691.578	0.0156555
691.656	0.0156595
691.734	0.0156826
691.812	0.0157339
691.890	0.0156580
691.968	0.0156611
692.046	0.0156435
692.124	0.0157076
692.203	0.0155807
692.281	0.0157481
692.359	0.0155447
692.437	0.0157421
692.515	0.0156516
692.593	0.0155908
692.671	0.0157595
692.749	0.0156068
692.828	0.0158559
692.906	0.0157445
692.984	0.0157708
693.062	0.0156139
693.140	0.0156657
693.218	0.0156315
693.296	0.0156064
693.374	0.0155244
693.453	0.0156896
693.531	0.0157180
693.609	0.0156580
693.687	0.0157118
693.765	0.0155727
693.843	0.0156339
693.921	0.0156760
693.999	0.0156609
694.078	0.0157298
694.156	0.0157485
694.234	0.0156427
694.312	0.0155746
694.390	0.0155997
694.468	0.0157774
694.546	0.0156318
694.624	0.0155541
694.703	0.0156952
694.781	0.0156087
694.859	0.0155860
694.937	0.0156773
695.015	0.0156870
695.093	0.0156218
695.171	0.0157093
695.249	0.0156760
695.328	0.0155782
695.406	0.0157037
695.484	0.0157707
695.562	0.0157055
695.640	0.0156759
695.718	0.0155697
695.796	0.0157444
695.874	0.0158146
695.953	0.0155677
696.031	0.0155265
696.109	0.0156937
696.187	0.0157759
696.265	0.0156724
696.343	0.0156965
696.421	0.0156587
696.499	0.0156860
696.578	0.0156894
696.656	0.0157072
696.734	0.0156336
696.812	0.0156472
696.890	0.0158467
696.968	0.0157315
697.046	0.0156671
697.124	0.0156817
697.203	0.0157767
697.281	0.0155626
697.359	0.0157017
697.437	0.0156534
697.515	0.0156915
697.593	0.0156437
697.671	0.0157629
697.749	0.0156754
697.828	0.0156699
697.906	0.0158413
697.984	0.0158157
698.062	0.0158358
698.140	0.0156888
698.218	0.0157668
698.296	0.0157218
698.374	0.0157984
698.453	0.0157403
698.531	0.0156966
698.609	0.0158271
698.687	0.0157848
698.765	0.0158246
698.843	0.0157764
698.921	0.0156443
698.999	0.0157782
699.078	0.0157885
699.156	0.0157798
699.234	0.0157256
699.312	0.0158420
699.390	0.0157315
699.468	0.0157483
699.546	0.0158480
699.624	0.0158794
699.703	0.0156985
699.781	0.0157633
699.859	0.0159155
699.937	0.0156960
700.015	0.0156975
700.093	0.0158592
700.171	0.0159344
700.249	0.0160027
700.328	0.0158011
700.406	0.0157403
700.484	0.0158286
700.562	0.0157878
700.640	0.0157254
700.718	0.0157986
700.796	0.0158674
700.874	0.0157300
700.953	0.0158131
701.031	0.0158846
701.109	0.0159814
701.187	0.0158260
701.265	0.0157513
701.343	0.0158239
701.421	0.0157812
701.499	0.0157751
701.578	0.0159635
701.656	0.0159242
701.734	0.0158400
701.812	0.0157975
701.890	0.0157856
701.968	0.0158057
702.046	0.0157617
702.124	0.0156753
702.203	0.0157402
702.281	0.0157827
702.359	0.0158572
702.437	0.0157667
702.515	0.0159306
702.593	0.0158242
702.671	0.0158976
702.749	0.0157787
702.828	0.0158901
702.906	0.0159981
702.984	0.0156813
703.062	0.0157822
703.140	0.0158340
703.218	0.0159962
703.296	0.0157137
703.374	0.0158646
703.453	0.0158226
703.531	0.0159481
703.609	0.0156863
703.687	0.0157898
703.765	0.0158372
703.843	0.0158680
703.921	0.0157317
703.999	0.0157683
704.078	0.0158546
704.156	0.0158834
704.234	0.0157876
704.312	0.0158778
704.390	0.0157601
704.468	0.0158680
704.546	0.0158885
704.624	0.0158403
704.703	0.0158485
704.781	0.0158054
704.859	0.0158379
704.937	0.0157549
705.015	0.0157191
705.093	0.0158074
705.171	0.0158032
705.249	0.0158231
705.328	0.0157507
705.406	0.0158571
705.484	0.0157656
705.562	0.0158023
705.640	0.0158305
705.718	0.0158740
705.796	0.0158327
705.874	0.0159032
705.953	0.0158412
706.031	0.0157534
706.109	0.0157617
706.187	0.0156933
706.265	0.0158681
706.343	0.0158346
706.421	0.0158527
706.499	0.0158033
706.578	0.0158340
706.656	0.0157564
706.734	0.0157477
706.812	0.0159008
706.890	0.0158266
706.968	0.0157746
707.046	0.0158451
707.124	0.0158635
707.203	0.0157977
707.281	0.0158051
707.359	0.0157607
707.437	0.0158027
707.515	0.0157397
707.593	0.0157542
707.671	0.0157140
707.749	0.0158324
707.828	0.0157879
707.906	0.0157945
707.984	0.0157178
708.062	0.0157439
708.140	0.0157809
708.218	0.0157331
708.296	0.0157851
708.374	0.0156854
708.453	0.0157580
708.531	0.0158507
708.609	0.0157359
708.687	0.0157365
708.765	0.0156960
708.843	0.0157145
708.921	0.0158092
708.999	0.0158572
709.078	0.0158356
709.156	0.0157792
709.234	0.0157207
709.312	0.0157243
709.390	0.0156190
709.468	0.0157227
709.546	0.0157064
709.624	0.0157556
709.703	0.0158479
709.781	0.0158435
709.859	0.0156747
709.937	0.0155945
710.015	0.0157444
710.093	0.0157567
710.171	0.0157078
710.249	0.0156655
710.328	0.0157305
710.406	0.0157511
710.484	0.0157224
710.562	0.0156110
710.640	0.0157272
710.718	0.0158362
710.796	0.0157975
710.874	0.0157291
710.953	0.0157277
711.031	0.0156715
711.109	0.0156476
711.187	0.0157371
711.265	0.0157867
711.343	0.0156934
711.421	0.0155986
711.499	0.0157453
711.578	0.0157716
711.656	0.0156957
711.734	0.0156931
711.812	0.0157491
711.890	0.0156185
711.968	0.0156049
712.046	0.0157098
712.124	0.0156281
712.203	0.0157325
712.281	0.0156763
712.359	0.0155914
712.437	0.0156558
712.515	0.0156908
712.593	0.0157340
712.671	0.0157246
712.749	0.0157687
712.828	0.0156960
712.906	0.0155864
712.984	0.0156747
713.062	0.0156504
713.140	0.0157285
713.218	0.0156602
713.296	0.0156883
713.374	0.0156696
713.453	0.0157957
713.531	0.0157126
713.609	0.0157309
713.687	0.0155977
713.765	0.0157862
713.843	0.0158023
713.921	0.0156745
713.999	0.0156178
714.078	0.0155776
714.156	0.0156762
714.234	0.0158029
714.312	0.0156699
714.390	0.0155760
714.468	0.0156026
714.546	0.0156200
714.624	0.0155689
714.703	0.0156849
714.781	0.0156710
714.859	0.0155300
714.937	0.0156380
715.015	0.0157807
715.093	0.0157602
715.171	0.0155662
715.249	0.0154665
715.328	0.0156860
715.406	0.0155605
715.484	0.0157018
715.562	0.0156905
715.640	0.0156170
715.718	0.0154939
715.796	0.0156247
715.874	0.0155697
715.953	0.0157174
716.031	0.0156977
716.109	0.0156274
716.187	0.0154378
716.265	0.0155429
716.343	0.0157401
716.421	0.0155479
716.499	0.0153735
716.578	0.0156734
716.656	0.0156378
716.734	0.0155860
716.812	0.0155638
716.890	0.0156748
716.968	0.0157623
717.046	0.0155879
717.124	0.0155042
717.203	0.0156538
717.281	0.0157152
717.359	0.0157201
717.437	0.0158351
717.515	0.0156754
717.593	0.0156348
717.671	0.0156625
717.749	0.0155970
717.828	0.0157195
717.906	0.0156760
717.984	0.0156087
718.062	0.0157610
718.140	0.0155293
718.218	0.0157889
718.296	0.0157970
718.374	0.0155750
718.453	0.0155978
718.531	0.0155772
718.609	0.0157385
718.687	0.0156969
718.765	0.0155659
718.843	0.0157326
718.921	0.0155930
718.999	0.0155351
719.078	0.0156440
719.156	0.0156340
719.234	0.0156483
719.312	0.0155988
719.390	0.0155949
719.468	0.0155833
719.546	0.0155083
719.624	0.0155733
719.703	0.0155966
719.781	0.0155856
719.859	0.0157005
719.937	0.0156236
720.015	0.0155583
720.093	0.0156364
720.171	0.0156885
720.249	0.0156322
720.328	0.0155171
720.406	0.0155753
720.484	0.0155904
720.562	0.0157104
720.640	0.0155711
720.718	0.0155405
720.796	0.0157407
720.874	0.0156484
720.953	0.0156886
721.031	0.0155974
721.109	0.0156245
721.187	0.0155933
721.265	0.0157447
721.343	0.0156907
721.421	0.0155694
721.499	0.0156273
721.578	0.0157687
721.656	0.0157597
721.734	0.0156969
721.812	0.0156427
721.890	0.0156906
721.968	0.0156899
722.046	0.0155913
722.124	0.0155453
722.203	0.0154717
722.281	0.0156031
722.359	0.0156367
722.437	0.0156664
722.515	0.0156567
722.593	0.0156364
722.671	0.0156031
722.749	0.0156970
722.828	0.0156349
722.906	0.0156838
722.984	0.0155749
723.062	0.0154915
723.140	0.0155273
723.218	0.0156194
723.296	0.0155383
723.374	0.0154820
723.453	0.0155780
723.531	0.0157186
723.609	0.0156561
723.687	0.0156002
723.765	0.0155342
723.843	0.0155547
723.921	0.0155050
723.999	0.0156226
724.078	0.0155937
724.156	0.0155803
724.234	0.0156171
724.312	0.0155566
724.390	0.0156152
724.468	0.0157251
724.546	0.0155163
724.624	0.0156430
724.703	0.0156469
724.781	0.0156241
724.859	0.0156233
724.937	0.0156139
725.015	0.0156276
725.093	0.0157055
725.171	0.0157496
725.249	0.0158031
725.328	0.0155959
725.406	0.0156255
725.484	0.0155209
725.562	0.0156522
725.640	0.0156329
725.718	0.0157612
725.796	0.0157281
725.874	0.0157523
725.953	0.0158267
726.031	0.0156153
726.109	0.0157405
726.187	0.0159717
726.265	0.0157645
726.343	0.0156733
726.421	0.0159084
726.499	0.0157840
726.578	0.0155151
726.656	0.0156808
726.734	0.0157104
726.812	0.0156706
726.890	0.0156461
726.968	0.0157079
727.046	0.0156520
727.124	0.0157263
727.203	0.0156586
727.281	0.0158791
727.359	0.0157375
727.437	0.0156713
727.515	0.0157108
727.593	0.0157012
727.671	0.0157214
727.749	0.0157394
727.828	0.0157079
727.906	0.0156948
727.984	0.0156680
728.062	0.0157076
728.140	0.0158712
728.218	0.0158599
728.296	0.0158208
728.374	0.0158739
728.453	0.0157363
728.531	0.0157690
728.609	0.0157323
728.687	0.0157483
728.765	0.0159518
728.843	0.0158321
728.921	0.0158072
728.999	0.0158056
729.078	0.0159422
729.156	0.0159021
729.234	0.0157616
729.312	0.0157122
729.390	0.0157938
729.468	0.0157419
729.546	0.0157069
729.624	0.0156126
729.703	0.0157346
729.781	0.0157887
729.859	0.0157922
729.937	0.0157551
730.015	0.0157417
730.093	0.0158193
730.171	0.0157516
730.249	0.0158176
730.328	0.0157694
730.406	0.0157048
730.484	0.0157745
730.562	0.0156609
730.640	0.0156857
730.718	0.0157570
730.796	0.0157694
730.874	0.0157682
730.953	0.0157883
731.031	0.0157423
731.109	0.0157829
731.187	0.0156915
731.265	0.0156635
731.343	0.0158920
731.421	0.0157582
731.499	0.0157090
731.578	0.0157041
731.656	0.0156346
731.734	0.0157144
731.812	0.0158361
731.890	0.0157307
731.968	0.0157052
732.046	0.0157388
732.124	0.0157428
732.203	0.0156046
732.281	0.0156052
732.359	0.0157250
732.437	0.0157169
732.515	0.0157169
732.593	0.0156610
732.671	0.0157785
732.749	0.0156658
732.828	0.0156561
732.906	0.0157896
732.984	0.0157738
733.062	0.0157955
733.140	0.0157043
733.218	0.0157931
733.296	0.0158363
733.374	0.0157680
733.453	0.0157747
733.531	0.0156879
733.609	0.0157642
733.687	0.0155919
733.765	0.0157852
733.843	0.0158549
733.921	0.0158317
733.999	0.0158530
734.078	0.0159489
734.156	0.0156984
734.234	0.0157369
734.312	0.0157452
734.390	0.0157906
734.468	0.0157012
734.546	0.0155527
734.624	0.0157395
734.703	0.0157677
734.781	0.0158173
734.859	0.0156792
734.937	0.0157970
735.015	0.0158244
735.093	0.0157435
735.171	0.0156220
735.249	0.0156155
735.328	0.0156642
735.406	0.0156569
735.484	0.0157252
735.562	0.0156558
735.640	0.0157042
735.718	0.0157448
735.796	0.0156693
735.874	0.0155973
735.953	0.0156897
736.031	0.0157610
736.109	0.0156600
736.187	0.0156319
736.265	0.0156544
736.343	0.0157781
736.421	0.0158045
736.499	0.0156191
736.578	0.0157643
736.656	0.0157181
736.734	0.0157399
736.812	0.0154884
736.890	0.0157302
736.968	0.0156834
737.046	0.0158879
737.124	0.0158109
737.203	0.0157867
737.281	0.0158205
737.359	0.0156966
737.437	0.0155440
737.515	0.0157463
737.593	0.0157142
737.671	0.0156333
737.749	0.0155020
737.828	0.0156130
737.906	0.0156792
737.984	0.0157035
738.062	0.0156977
738.140	0.0155928
738.218	0.0156368
738.296	0.0155923
738.374	0.0156751
738.453	0.0156927
738.531	0.0156253
738.609	0.0157357
738.687	0.0156623
738.765	0.0156417
738.843	0.0157172
738.921	0.0157206
738.999	0.0157131
739.078	0.0157031
739.156	0.0157697
739.234	0.0157280
739.312	0.0155810
739.390	0.0155536
739.468	0.0155621
739.546	0.0157644
739.624	0.0157230
739.703	0.0156031
739.781	0.0156948
739.859	0.0157401
739.937	0.0155604
740.015	0.0156287
740.093	0.0156838
740.171	0.0156536
740.249	0.0156247
740.328	0.0156915
740.406	0.0156150
740.484	0.0156059
740.562	0.0156744
740.640	0.0157178
740.718	0.0155813
740.796	0.0156062
740.874	0.0156502
740.953	0.0157668
741.031	0.0157047
741.109	0.0157355
741.187	0.0156571
741.265	0.0156771
741.343	0.0156380
741.421	0.0156353
741.499	0.0157682
741.578	0.0155773
741.656	0.0157656
741.734	0.0155582
741.812	0.0156618
741.890	0.0155293
741.968	0.0156211
742.046	0.0155947
742.124	0.0156525
742.203	0.0156653
742.281	0.0155726
742.359	0.0154756
742.437	0.0154681
742.515	0.0156783
742.593	0.0156279
742.671	0.0155987
742.749	0.0156233
742.828	0.0155970
742.906	0.0155015
742.984	0.0155846
743.062	0.0156219
743.140	0.0155326
743.218	0.0155326
743.296	0.0155904
743.374	0.0155602
743.453	0.0156872
743.531	0.0156245
743.609	0.0155475
743.687	0.0155778
743.765	0.0156505
743.843	0.0155966
743.921	0.0157013
743.999	0.0155367
744.078	0.0155058
744.156	0.0156014
744.234	0.0156286
744.312	0.0154552
744.390	0.0155384
744.468	0.0156672
744.546	0.0155876
744.624	0.0157430
744.703	0.0154913
744.781	0.0155425
744.859	0.0155859
744.937	0.0156134
745.015	0.0156700
745.093	0.0157661
745.171	0.0156612
745.249	0.0155898
745.328	0.0156766
745.406	0.0157182
745.484	0.0156084
745.562	0.0155848
745.640	0.0156918
745.718	0.0156973
745.796	0.0156576
745.874	0.0156593
745.953	0.0156040
746.031	0.0155218
746.109	0.0155633
746.187	0.0155023
746.265	0.0155975
746.343	0.0155229
746.421	0.0155183
746.499	0.0155498
746.578	0.0156604
746.656	0.0156076
746.734	0.0155986
746.812	0.0155270
746.890	0.0156145
746.968	0.0154763
747.046	0.0156513
747.124	0.0155991
747.203	0.0155509
747.281	0.0156380
747.359	0.0156352
747.437	0.0156333
747.515	0.0156815
747.593	0.0155822
747.671	0.0155993
747.749	0.0155429
747.828	0.0157648
747.906	0.0156287
747.984	0.0157042
748.062	0.0156853
748.140	0.0157308
748.218	0.0156769
748.296	0.0156963
748.374	0.0157884
748.453	0.0156985
748.531	0.0156555
748.609	0.0158133
748.687	0.0156982
748.765	0.0156580
748.843	0.0156118
748.921	0.0156835
748.999	0.0156355
749.078	0.0156512
749.156	0.0156639
749.234	0.0156767
749.312	0.0157330
749.390	0.0155678
749.468	0.0156217
749.546	0.0156483
749.624	0.0155784
749.703	0.0156817
749.781	0.0155457
749.859	0.0157918
749.937	0.0156819
750.015	0.0158556
750.093	0.0157909
750.171	0.0157362
750.249	0.0158237
750.328	0.0157127
750.406	0.0158475
750.484	0.0157937
750.562	0.0156684
750.640	0.0157404
750.718	0.0156799
750.796	0.0156819
750.874	0.0157468
750.953	0.0156580
751.031	0.0156646
751.109	0.0155863
751.187	0.0156067
751.265	0.0155148
751.343	0.0156158
751.421	0.0156586
751.499	0.0156595
751.578	0.0156937
751.656	0.0155766
751.734	0.0156343
751.812	0.0157322
751.890	0.0157508
751.968	0.0156071
752.046	0.0156384
752.124	0.0156105
752.203	0.0155257
752.281	0.0156158
752.359	0.0156960
752.437	0.0157007
752.515	0.0157634
752.593	0.0158202
752.671	0.0156068
752.749	0.0155678
752.828	0.0156991
752.906	0.0156366
752.984	0.0156216
753.062	0.0156898
753.140	0.0155688
753.218	0.0156915
753.296	0.0156507
753.374	0.0157356
753.453	0.0156737
753.531	0.0157386
753.609	0.0158177
753.687	0.0157087
753.765	0.0156557
753.843	0.0157353
753.921	0.0157456
753.999	0.0157146
754.078	0.0155448
754.156	0.0156806
754.234	0.0158608
754.312	0.0157462
754.390	0.0157081
754.468	0.0158389
754.546	0.0157484
754.624	0.0156833
754.703	0.0157079
754.781	0.0157648
754.859	0.0157623
754.937	0.0155708
755.015	0.0156800
755.093	0.0157555
755.171	0.0157909
755.249	0.0159055
755.328	0.0158789
755.406	0.0157059
755.484	0.0157227
755.562	0.0159304
755.640	0.0159166
755.718	0.0158521
755.796	0.0156422
755.874	0.0157629
755.953	0.0157899
756.031	0.0158086
756.109	0.0157906
756.187	0.0157290
756.265	0.0157621
756.343	0.0157614
756.421	0.0157098
756.499	0.0156945
756.578	0.0156781
756.656	0.0157182
756.734	0.0155862
756.812	0.0157127
756.890	0.0157257
756.968	0.0157129
757.046	0.0156815
757.124	0.0156728
757.203	0.0157256
757.281	0.0158441
757.359	0.0157481
757.437	0.0156469
757.515	0.0157363
757.593	0.0158512
757.671	0.0158208
757.749	0.0157243
757.828	0.0157086
757.906	0.0158907
757.984	0.0157647
758.062	0.0157400
758.140	0.0157991
758.218	0.0158890
758.296	0.0157689
758.374	0.0157628
758.453	0.0157619
758.531	0.0157139
758.609	0.0157149
758.687	0.0157671
758.765	0.0157744
758.843	0.0159235
758.921	0.0157790
758.999	0.0157252
759.078	0.0157893
759.156	0.0158862
759.234	0.0159172
759.312	0.0157861
759.390	0.0158473
759.468	0.0159589
759.546	0.0156747
759.624	0.0157438
759.703	0.0157365
759.781	0.0158086
759.859	0.0157461
759.937	0.0157220
760.015	0.0157993
760.093	0.0160557
760.171	0.0158510
760.249	0.0158414
760.328	0.0158531
760.406	0.0157101
760.484	0.0157716
760.562	0.0157680
760.640	0.0158092
760.718	0.0157243
760.796	0.0157242
760.874	0.0156746
760.953	0.0156712
761.031	0.0157212
761.109	0.0156299
761.187	0.0158276
761.265	0.0156523
761.343	0.0157712
761.421	0.0156682
761.499	0.0158349
761.578	0.0156822
761.656	0.0156957
761.734	0.0156756
761.812	0.0158555
761.890	0.0157954
761.968	0.0158550
762.046	0.0158386
762.124	0.0158540
762.203	0.0158502
762.281	0.0157855
762.359	0.0158452
762.437	0.0157179
762.515	0.0157220
762.593	0.0157153
762.671	0.0158539
762.749	0.0157317
762.828	0.0156979
762.906	0.0156668
762.984	0.0157011
763.062	0.0157991
763.140	0.0156981
763.218	0.0157182
763.296	0.0157300
763.374	0.0157451
763.453	0.0155663
763.531	0.0158007
763.609	0.0159134
763.687	0.0158530
763.765	0.0157894
763.843	0.0157098
763.921	0.0156860
763.999	0.0156759
764.078	0.0156869
764.156	0.0154603
764.234	0.0156397
764.312	0.0155965
764.390	0.0155215
764.468	0.0156130
764.546	0.0158704
764.624	0.0157201
764.703	0.0156287
764.781	0.0156502
764.859	0.0156338
764.937	0.0156781
765.015	0.0156618
765.093	0.0157004
765.171	0.0158318
765.249	0.0156586
765.328	0.0156792
765.406	0.0157144
765.484	0.0158769
765.562	0.0158373
765.640	0.0157056
765.718	0.0158076
765.796	0.0157609
765.874	0.0157206
765.953	0.0157318
766.031	0.0157892
766.109	0.0157774
766.187	0.0156862
766.265	0.0157896
766.343	0.0156881
766.421	0.0156590
766.499	0.0156818
766.578	0.0157308
766.656	0.0158077
766.734	0.0156895
766.812	0.0156979
766.890	0.0158215
766.968	0.0159897
767.046	0.0158747
767.124	0.0159669
767.203	0.0160898
767.281	0.0160023
767.359	0.0160767
767.437	0.0161093
767.515	0.0159821
767.593	0.0159106
767.671	0.0158360
767.749	0.0159661
767.828	0.0159344
767.906	0.0158022
767.984	0.0159747
768.062	0.0158496
768.140	0.0158643
768.218	0.0158388
768.296	0.0158896
768.374	0.0159145
768.453	0.0157982
768.531	0.0157817
768.609	0.0158561
768.687	0.0158012
768.765	0.0156875
768.843	0.0157481
768.921	0.0158727
768.999	0.0158675
769.078	0.0157302
769.156	0.0156328
769.234	0.0156207
769.312	0.0155972
769.390	0.0156517
769.468	0.0155608
769.546	0.0155276
769.624	0.0156483
769.703	0.0154742
769.781	0.0154942
769.859	0.0155148
769.937	0.0153632
770.015	0.0154015
770.093	0.0155494
770.171	0.0154911
770.249	0.0155165
770.328	0.0155193
770.406	0.0156114
770.484	0.0156424
770.562	0.0156886
770.640	0.0155558
770.718	0.0156145
770.796	0.0155844
770.874	0.0158523
770.953	0.0157228
771.031	0.0155854
771.109	0.0157417
771.187	0.0158236
771.265	0.0158127
771.343	0.0158095
771.421	0.0158421
771.499	0.0158342
771.578	0.0158605
771.656	0.0158958
771.734	0.0160266
771.812	0.0159737
771.890	0.0159180
771.968	0.0158590
772.046	0.0158483
772.124	0.0157709
772.203	0.0158144
772.281	0.0157688
772.359	0.0155377
772.437	0.0156027
772.515	0.0156995
772.593	0.0156505
772.671	0.0156902
772.749	0.0154691
772.828	0.0156705
772.906	0.0156530
772.984	0.0156638
773.062	0.0156600
773.140	0.0156797
773.218	0.0156829
773.296	0.0156613
773.374	0.0155472
773.453	0.0157762
773.531	0.0157112
773.609	0.0156828
773.687	0.0156767
773.765	0.0155460
773.843	0.0155145
773.921	0.0155519
773.999	0.0155367
774.078	0.0156725
774.156	0.0155135
774.234	0.0155709
774.312	0.0157693
774.390	0.0155639
774.468	0.0156425
774.546	0.0157141
774.624	0.0156884
774.703	0.0156767
774.781	0.0157331
774.859	0.0157557
774.937	0.0159514
775.015	0.0158968
775.093	0.0158208
775.171	0.0158004
775.249	0.0157370
775.328	0.0158277
775.406	0.0158316
775.484	0.0157416
775.562	0.0157256
775.640	0.0156979
775.718	0.0157404
775.796	0.0156506
775.874	0.0155814
775.953	0.0155806
776.031	0.0156732
776.109	0.0156533
776.187	0.0155955
776.265	0.0155969
776.343	0.0156981
776.421	0.0157765
776.499	0.0156980
776.578	0.0156638
776.656	0.0156485
776.734	0.0157842
776.812	0.0157236
776.890	0.0157755
776.968	0.0158302
777.046	0.0156794
777.124	0.0159356
777.203	0.0157291
777.281	0.0156770
777.359	0.0158665
777.437	0.0158340
777.515	0.0159471
777.593	0.0158505
777.671	0.0159919
777.749	0.0159547
777.828	0.0158039
777.906	0.0159112
777.984	0.0158173
778.062	0.0158566
778.140	0.0157949
778.218	0.0158219
778.296	0.0158466
778.374	0.0158597
778.453	0.0157396
778.531	0.0158082
778.609	0.0157975
778.687	0.0156667
778.765	0.0156422
778.843	0.0156480
778.921	0.0156351
778.999	0.0154539
779.078	0.0156268
779.156	0.0156059
779.234	0.0154928
779.312	0.0154063
779.390	0.0155610
779.468	0.0154475
779.546	0.0154700
779.624	0.0154002
779.703	0.0154798
779.781	0.0153636
779.859	0.0154206
779.937	0.0155136
780.015	0.0154468
780.093	0.0156214
780.171	0.0155862
780.249	0.0156837
780.328	0.0156178
780.406	0.0156627
780.484	0.0156850
780.562	0.0157386
780.640	0.0158919
780.718	0.0159129
780.796	0.0158430
780.874	0.0158382
780.953	0.0157499
781.031	0.0157288
781.109	0.0158086
781.187	0.0158101
781.265	0.0158315
781.343	0.0158921
781.421	0.0157816
781.499	0.0156635
781.578	0.0157597
781.656	0.0157568
781.734	0.0157398
781.812	0.0157174
781.890	0.0158178
781.968	0.0158842
782.046	0.0157399
782.124	0.0156592
782.203	0.0157253
782.281	0.0156586
782.359	0.0156988
782.437	0.0157240
782.515	0.0155997
782.593	0.0156731
782.671	0.0157391
782.749	0.0157164
782.828	0.0156597
782.906	0.0157692
782.984	0.0157503
783.062	0.0154693
783.140	0.0156670
783.218	0.0156563
783.296	0.0157158
783.374	0.0156110
783.453	0.0155584
783.531	0.0155785
783.609	0.0155974
783.687	0.0155503
783.765	0.0156332
783.843	0.0155817
783.921	0.0154903
783.999	0.0155096
784.078	0.0155875
784.156	0.0157127
784.234	0.0156852
784.312	0.0156940
784.390	0.0157733
784.468	0.0157638
784.546	0.0157505
784.624	0.0159439
784.703	0.0156633
784.781	0.0156129
784.859	0.0156876
784.937	0.0157647
785.015	0.0158358
785.093	0.0155503
785.171	0.0156677
785.249	0.0155875
785.328	0.0157837
785.406	0.0157295
785.484	0.0156319
785.562	0.0155904
785.640	0.0158186
785.718	0.0157705
785.796	0.0156676
785.874	0.0157372
785.953	0.0157467
786.031	0.0157916
786.109	0.0158624
786.187	0.0157336
786.265	0.0157800
786.343	0.0157903
786.421	0.0157640
786.499	0.0158259
786.578	0.0158775
786.656	0.0159193
786.734	0.0159242
786.812	0.0158976
786.890	0.0158064
786.968	0.0159560
787.046	0.0158207
787.124	0.0158422
787.203	0.0159227
787.281	0.0158633
787.359	0.0158503
787.437	0.0157869
787.515	0.0159129
787.593	0.0157332
787.671	0.0155988
787.749	0.0156649
787.828	0.0157603
787.906	0.0157635
787.984	0.0157580
788.062	0.0156674
788.140	0.0155139
788.218	0.0156103
788.296	0.0155716
788.374	0.0156095
788.453	0.0154993
788.531	0.0154858
788.609	0.0155763
788.687	0.0154235
788.765	0.0153883
788.843	0.0154918
788.921	0.0154317
788.999	0.0155388
789.078	0.0152917
789.156	0.0153787
789.234	0.0155733
789.312	0.0154609
789.390	0.0153854
789.468	0.0156771
789.546	0.0155049
789.624	0.0154422
789.703	0.0155451
789.781	0.0155959
789.859	0.0158300
789.937	0.0157490
790.015	0.0158235
790.093	0.0158281
790.171	0.0159334
790.249	0.0158405
790.328	0.0159784
790.406	0.0160737
790.484	0.0159554
790.562	0.0160349
790.640	0.0160536
790.718	0.0160667
790.796	0.0161842
790.874	0.0161505
790.953	0.0162099
791.031	0.0160923
791.109	0.0161368
791.187	0.0160870
791.265	0.0160957
791.343	0.0159671
791.421	0.0159945
791.499	0.0159280
791.578	0.0158463
791.656	0.0158185
791.734	0.0158331
791.812	0.0158101
791.890	0.0158231
791.968	0.0156808
792.046	0.0156481
792.124	0.0156584
792.203	0.0155504
792.281	0.0155643
792.359	0.0154794
792.437	0.0154581
792.515	0.0153004
792.593	0.0152892
792.671	0.0152832
792.749	0.0154930
792.828	0.0155957
792.906	0.0154539
792.984	0.0154813
793.062	0.0153146
793.140	0.0154638
793.218	0.0153893
793.296	0.0154462
793.374	0.0155347
793.453	0.0155035
793.531	0.0154638
793.609	0.0156500
793.687	0.0155452
793.765	0.0155242
793.843	0.0155013
793.921	0.0155495
793.999	0.0155740
794.078	0.0156882
794.156	0.0157313
794.234	0.0156520
794.312	0.0157534
794.390	0.0157575
794.468	0.0157655
794.546	0.0157505
794.624	0.0158283
794.703	0.0158467
794.781	0.0158495
794.859	0.0157330
794.937	0.0158490
795.015	0.0159155
795.093	0.0160419
795.171	0.0159748
795.249	0.0160261
795.328	0.0159801
795.406	0.0159978
795.484	0.0160209
795.562	0.0161330
795.640	0.0161060
795.718	0.0161183
795.796	0.0160490
795.874	0.0160909
795.953	0.0159592
796.031	0.0159084
796.109	0.0159083
796.187	0.0157839
796.265	0.0158294
796.343	0.0158560
796.421	0.0157320
796.499	0.0155863
796.578	0.0157016
796.656	0.0155564
796.734	0.0156168
796.812	0.0156004
796.890	0.0155788
796.968	0.0156094
797.046	0.0156535
797.124	0.0155859
797.203	0.0155325
797.281	0.0154960
797.359	0.0157673
797.437	0.0155243
797.515	0.0155907
797.593	0.0155807
797.671	0.0154581
797.749	0.0155754
797.828	0.0154380
797.906	0.0155764
797.984	0.0156865
798.062	0.0155821
798.140	0.0155785
798.218	0.0155944
798.296	0.0156864
798.374	0.0157948
798.453	0.0156799
798.531	0.0156238
798.609	0.0157197
798.687	0.0157760
798.765	0.0157926
798.843	0.0158927
798.921	0.0158674
798.999	0.0159389
799.078	0.0158900
799.156	0.0158867
799.234	0.0158764
799.312	0.0159154
799.390	0.0157993
799.468	0.0159265
799.546	0.0158562
799.624	0.0158727
799.703	0.0158138
799.781	0.0157397
799.859	0.0156715
799.937	0.0156154
800.015	0.0157809
800.093	0.0156578
800.171	0.0158076
800.249	0.0156617
800.328	0.0156811
800.406	0.0157349
800.484	0.0156768
800.562	0.0157714
800.640	0.0157734
800.718	0.0157496
800.796	0.0158112
800.874	0.0157236
800.953	0.0156853
801.031	0.0157362
801.109	0.0157459
801.187	0.0157481
801.265	0.0156724
801.343	0.0156554
801.421	0.0158724
801.499	0.0155225
801.578	0.0154635
801.656	0.0156284
801.734	0.0156274
801.812	0.0155203
801.890	0.0155155
801.968	0.0155549
802.046	0.0155394
802.124	0.0154594
802.203	0.0153723
802.281	0.0153487
802.359	0.0155128
802.437	0.0155315
802.515	0.0153726
802.593	0.0154105
802.671	0.0155783
802.749	0.0155321
802.828	0.0154700
802.906	0.0154395
802.984	0.0154693
803.062	0.0156590
803.140	0.0155150
803.218	0.0154335
803.296	0.0154761
803.374	0.0154963
803.453	0.0155776
803.531	0.0158160
803.609	0.0155648
803.687	0.0157249
803.765	0.0156577
803.843	0.0156377
803.921	0.0157223
803.999	0.0158540
804.078	0.0157947
804.156	0.0157281
804.234	0.0157648
804.312	0.0158486
804.390	0.0157593
804.468	0.0158183
804.546	0.0158730
804.624	0.0157627
804.703	0.0157710
804.781	0.0159664
804.859	0.0158694
804.937	0.0158554
805.015	0.0158466
805.093	0.0158212
805.171	0.0158820
805.249	0.0157265
805.328	0.0158060
805.406	0.0157433
805.484	0.0157518
805.562	0.0155551
805.640	0.0156740
805.718	0.0156289
805.796	0.0155318
805.874	0.0154696
805.953	0.0155255
806.031	0.0156411
806.109	0.0154025
806.187	0.0154684
806.265	0.0155395
806.343	0.0154256
806.421	0.0154009
806.499	0.0155371
806.578	0.0153938
806.656	0.0154130
806.734	0.0156099
806.812	0.0155619
806.890	0.0155299
806.968	0.0155756
807.046	0.0155422
807.124	0.0156579
807.203	0.0155479
807.281	0.0156396
807.359	0.0156538
807.437	0.0155994
807.515	0.0156438
807.593	0.0156606
807.671	0.0156239
807.749	0.0157010
807.828	0.0158529
807.906	0.0156054
807.984	0.0157048
808.062	0.0156949
808.140	0.0156998
808.218	0.0156892
808.296	0.0157152
808.374	0.0156992
808.453	0.0156345
808.531	0.0156496
808.609	0.0157434
808.687	0.0157221
808.765	0.0157876
808.843	0.0157911
808.921	0.0158304
808.999	0.0157427
809.078	0.0157205
809.156	0.0158105
809.234	0.0157446
809.312	0.0158475
809.390	0.0157547
809.468	0.0157922
809.546	0.0158707
809.624	0.0159476
809.703	0.0158701
809.781	0.0158997
809.859	0.0157339
809.937	0.0156548
810.015	0.0157112
810.093	0.0158091
810.171	0.0158823
810.249	0.0157000
810.328	0.0157409
810.406	0.0155303
810.484	0.0156850
810.562	0.0156564
810.640	0.0154380
810.718	0.0154230
810.796	0.0153436
810.874	0.0153782
810.953	0.0153905
811.031	0.0155055
811.109	0.0153498
811.187	0.0154366
811.265	0.0153603
811.343	0.0153420
811.421	0.0154858
811.499	0.0154913
811.578	0.0155137
811.656	0.0155979
811.734	0.0155994
811.812	0.0158092
811.890	0.0157391
811.968	0.0156154
812.046	0.0157003
812.124	0.0156904
812.203	0.0157775
812.281	0.0158811
812.359	0.0157928
812.437	0.0159114
812.515	0.0158592
812.593	0.0158978
812.671	0.0159232
812.749	0.0158449
812.828	0.0158759
812.906	0.0157950
812.984	0.0158625
813.062	0.0158745
813.140	0.0158400
813.218	0.0161063
813.296	0.0159153
813.374	0.0158543
813.453	0.0158730
813.531	0.0159159
813.609	0.0159975
813.687	0.0159111
813.765	0.0157858
813.843	0.0158834
813.921	0.0158546
813.999	0.0156784
814.078	0.0156609
814.156	0.0156843
814.234	0.0156705
814.312	0.0154768
814.390	0.0153576
814.468	0.0154449
814.546	0.0154873
814.624	0.0154470
814.703	0.0154028
814.781	0.0153524
814.859	0.0153419
814.937	0.0154070
815.015	0.0154934
815.093	0.0155514
815.171	0.0153843
815.249	0.0154938
815.328	0.0153743
815.406	0.0155386
815.484	0.0156447
815.562	0.0158421
815.640	0.0158326
815.718	0.0157722
815.796	0.0158340
815.874	0.0158377
815.953	0.0158835
816.031	0.0158553
816.109	0.0158971
816.187	0.0159519
816.265	0.0159971
816.343	0.0158214
816.421	0.0158794
816.499	0.0157524
816.578	0.0158409
816.656	0.0159557
816.734	0.0156942
816.812	0.0158936
816.890	0.0159148
816.968	0.0157352
817.046	0.0157211
817.124	0.0158890
817.203	0.0157394
817.281	0.0157930
817.359	0.0157967
817.437	0.0158160
817.515	0.0158519
817.593	0.0156343
817.671	0.0158183
817.749	0.0158461
817.828	0.0157758
817.906	0.0156462
817.984	0.0156870
818.062	0.0157401
818.140	0.0157682
818.218	0.0156912
818.296	0.0156834
818.374	0.0156509
818.453	0.0156948
818.531	0.0158252
818.609	0.0157301
818.687	0.0157336
818.765	0.0157298
818.843	0.0157706
818.921	0.0156438
818.999	0.0158623
819.078	0.0156893
819.156	0.0156142
819.234	0.0157929
819.312	0.0157250
819.390	0.0156881
819.468	0.0156889
819.546	0.0157497
819.624	0.0158927
819.703	0.0156599
819.781	0.0158246
819.859	0.0156878
819.937	0.0155884
820.015	0.0155909
820.093	0.0156306
820.171	0.0156750
820.249	0.0156847
820.328	0.0156329
820.406	0.0156526
820.484	0.0155630
820.562	0.0156854
820.640	0.0156651
820.718	0.0157031
820.796	0.0156390
820.874	0.0156848
820.953	0.0156026
821.031	0.0157336
821.109	0.0157307
821.187	0.0158855
821.265	0.0159282
821.343	0.0157804
821.421	0.0159183
821.499	0.0158549
821.578	0.0158974
821.656	0.0159322
821.734	0.0159051
821.812	0.0157445
821.890	0.0158633
821.968	0.0158381
822.046	0.0159345
822.124	0.0158277
822.203	0.0158709
822.281	0.0158556
822.359	0.0159239
822.437	0.0158688
822.515	0.0159330
822.593	0.0159746
822.671	0.0157314
822.749	0.0158731
822.828	0.0159335
822.906	0.0158184
822.984	0.0157817
823.062	0.0158312
823.140	0.0157472
823.218	0.0157948
823.296	0.0158276
823.374	0.0157200
823.453	0.0156564
823.531	0.0155901
823.609	0.0155823
823.687	0.0157015
823.765	0.0156145
823.843	0.0155508
823.921	0.0154816
823.999	0.0154976
824.078	0.0154997
824.156	0.0154740
824.234	0.0155043
824.312	0.0155095
824.390	0.0156052
824.468	0.0154794
824.546	0.0154665
824.624	0.0155369
824.703	0.0154976
824.781	0.0157442
824.859	0.0156096
824.937	0.0155418
825.015	0.0158510
825.093	0.0158411
825.171	0.0156782
825.249	0.0157011
825.328	0.0159035
825.406	0.0159530
825.484	0.0159089
825.562	0.0159046
825.640	0.0159114
825.718	0.0160252
825.796	0.0157957
825.874	0.0158909
825.953	0.0158224
826.031	0.0159248
826.109	0.0160329
826.187	0.0159219
826.265	0.0158370
826.343	0.0158619
826.421	0.0156225
826.499	0.0157456
826.578	0.0157450
826.656	0.0156962
826.734	0.0156612
826.812	0.0156070
826.890	0.0156816
826.968	0.0156685
827.046	0.0155548
827.124	0.0156195
827.203	0.0155188
827.281	0.0155774
827.359	0.0154524
827.437	0.0155523
827.515	0.0155493
827.593	0.0156625
827.671	0.0154722
827.749	0.0154178
827.828	0.0154107
827.906	0.0153720
827.984	0.0154270
828.062	0.0153962
828.140	0.0154395
828.218	0.0155582
828.296	0.0154990
828.374	0.0155982
828.453	0.0155255
828.531	0.0154744
828.609	0.0156066
828.687	0.0158057
828.765	0.0156918
828.843	0.0155638
828.921	0.0159151
828.999	0.0157597
829.078	0.0156913
829.156	0.0158796
829.234	0.0160251
829.312	0.0158916
829.390	0.0159865
829.468	0.0158826
829.546	0.0160462
829.624	0.0159882
829.703	0.0159477
829.781	0.0160654
829.859	0.0158970
829.937	0.0159703
830.015	0.0159043
830.093	0.0158292
830.171	0.0158131
830.249	0.0157330
830.328	0.0156215
830.406	0.0155874
830.484	0.0155392
830.562	0.0155878
830.640	0.0154345
830.718	0.0153219
830.796	0.0154226
830.874	0.0153884
830.953	0.0152667
831.031	0.0154105
831.109	0.0151961
831.187	0.0152908
831.265	0.0154374
831.343	0.0153815
831.421	0.0152521
831.499	0.0153115
831.578	0.0154435
831.656	0.0155042
831.734	0.0156477
831.812	0.0156632
831.890	0.0157761
831.968	0.0157737
832.046	0.0158701
832.124	0.0159621
832.203	0.0160382
832.281	0.0160609
832.359	0.0160730
832.437	0.0161448
832.515	0.0161839
832.593	0.0161791
832.671	0.0162317
832.749	0.0161398
832.828	0.0161648
832.906	0.0159251
832.984	0.0162399
833.062	0.0161131
833.140	0.0160676
833.218	0.0159376
833.296	0.0157854
833.374	0.0157105
833.453	0.0156068
833.531	0.0155714
833.609	0.0155146
833.687	0.0154854
833.765	0.0153361
833.843	0.0155667
833.921	0.0154637
833.999	0.0155080
834.078	0.0154038
834.156	0.0154111
834.234	0.0154638
834.312	0.0156512
834.390	0.0155489
834.468	0.0156557
834.546	0.0153723
834.624	0.0155840
834.703	0.0155319
834.781	0.0156168
834.859	0.0156701
834.937	0.0156303
835.015	0.0158324
835.093	0.0159018
835.171	0.0158649
835.249	0.0159733
835.328	0.0160516
835.406	0.0160999
835.484	0.0159449
835.562	0.0159328
835.640	0.0160751
835.718	0.0161315
835.796	0.0160647
835.874	0.0160345
835.953	0.0158421
836.031	0.0160486
836.109	0.0160343
836.187	0.0158579
836.265	0.0159007
836.343	0.0157950
836.421	0.0157464
836.499	0.0159644
836.578	0.0158704
836.656	0.0157809
836.734	0.0158273
836.812	0.0157682
836.890	0.0158395
836.968	0.0158265
837.046	0.0158614
837.124	0.0158298
837.203	0.0158709
837.281	0.0158172
837.359	0.0158820
837.437	0.0158008
837.515	0.0158707
837.593	0.0159332
837.671	0.0159241
837.749	0.0159398
837.828	0.0158007
837.906	0.0158479
837.984	0.0158793
838.062	0.0160154
838.140	0.0158872
838.218	0.0158665
838.296	0.0159258
838.374	0.0158709
838.453	0.0159211
838.531	0.0159085
838.609	0.0158148
838.687	0.0157684
838.765	0.0158545
838.843	0.0158341
838.921	0.0157455
838.999	0.0158183
839.078	0.0157150
839.156	0.0156054
839.234	0.0157294
839.312	0.0158690
839.390	0.0157654
839.468	0.0158859
839.546	0.0157271
839.624	0.0159064
839.703	0.0157980
839.781	0.0158471
839.859	0.0158932
839.937	0.0158575
840.015	0.0159120
840.093	0.0158904
840.171	0.0158602
840.249	0.0158640
840.328	0.0158514
840.406	0.0159743
840.484	0.0160269
840.562	0.0158889
840.640	0.0157967
840.718	0.0158415
840.796	0.0159295
840.874	0.0159459
840.953	0.0158385
841.031	0.0157846
841.109	0.0157230
841.187	0.0157777
841.265	0.0158493
841.343	0.0157534
841.421	0.0158472
841.499	0.0158772
841.578	0.0158453
841.656	0.0158247
841.734	0.0156983
841.812	0.0157787
841.890	0.0157587
841.968	0.0157574
842.046	0.0155311
842.124	0.0157307
842.203	0.0156145
842.281	0.0156945
842.359	0.0155782
842.437	0.0156710
842.515	0.0157995
842.593	0.0155837
842.671	0.0156770
842.749	0.0157453
842.828	0.0158379
842.906	0.0159722
842.984	0.0157969
843.062	0.0158430
843.140	0.0159541
843.218	0.0159410
843.296	0.0158185
843.374	0.0159701
843.453	0.0159106
843.531	0.0157739
843.609	0.0158720
843.687	0.0157904
843.765	0.0157675
843.843	0.0158462
843.921	0.0158015
843.999	0.0157806
844.078	0.0157800
844.156	0.0157053
844.234	0.0157520
844.312	0.0157066
844.390	0.0157044
844.468	0.0157060
844.546	0.0156496
844.624	0.0156779
844.703	0.0156940
844.781	0.0156467
844.859	0.0156552
844.937	0.0156478
845.015	0.0155052
845.093	0.0155325
845.171	0.0155048
845.249	0.0156501
845.328	0.0156809
845.406	0.0155112
845.484	0.0155257
845.562	0.0155081
845.640	0.0154520
845.718	0.0156310
845.796	0.0154684
845.874	0.0154962
845.953	0.0155861
846.031	0.0154450
846.109	0.0154987
846.187	0.0154082
846.265	0.0155285
846.343	0.0156419
846.421	0.0156121
846.499	0.0155644
846.578	0.0156345
846.656	0.0157330
846.734	0.0156923
846.812	0.0156844
846.890	0.0157014
846.968	0.0157277
847.046	0.0158338
847.124	0.0158086
847.203	0.0157900
847.281	0.0157317
847.359	0.0158681
847.437	0.0158799
847.515	0.0157630
847.593	0.0156862
847.671	0.0158029
847.749	0.0157780
847.828	0.0157538
847.906	0.0157195
847.984	0.0157159
848.062	0.0156967
848.140	0.0157410
848.218	0.0156068
848.296	0.0156810
848.374	0.0156565
848.453	0.0156354
848.531	0.0157847
848.609	0.0157167
848.687	0.0156678
848.765	0.0156411
848.843	0.0155666
848.921	0.0157877
848.999	0.0158074
849.078	0.0155529
849.156	0.0155280
849.234	0.0156464
849.312	0.0156576
849.390	0.0156004
849.468	0.0154495
849.546	0.0154165
849.624	0.0153608
849.703	0.0154235
849.781	0.0154978
849.859	0.0154102
849.937	0.0153500
850.015	0.0154874
850.093	0.0152547
850.171	0.0153490
850.249	0.0155183
850.328	0.0154988
850.406	0.0154420
850.484	0.0156580
850.562	0.0156354
850.640	0.0155863
850.718	0.0157207
850.796	0.0157572
850.874	0.0156013
850.953	0.0157976
851.031	0.0157475
851.109	0.0159172
851.187	0.0157154
851.265	0.0158453
851.343	0.0159337
851.421	0.0159293
851.499	0.0159756
851.578	0.0160593
851.656	0.0159425
851.734	0.0158872
851.812	0.0160680
851.890	0.0160790
851.968	0.0160730
852.046	0.0159507
852.124	0.0158289
852.203	0.0158046
852.281	0.0159164
852.359	0.0159035
852.437	0.0157554
852.515	0.0156757
852.593	0.0158313
852.671	0.0156081
852.749	0.0156957
852.828	0.0156810
852.906	0.0155938
852.984	0.0155692
853.062	0.0155490
853.140	0.0154829
853.218	0.0154785
853.296	0.0155936
853.374	0.0155721
853.453	0.0155548
853.531	0.0154916
853.609	0.0154038
853.687	0.0155606
853.765	0.0155244
853.843	0.0154762
853.921	0.0155280
853.999	0.0156356
854.078	0.0157458
854.156	0.0156297
854.234	0.0157146
854.312	0.0157298
854.390	0.0157912
854.468	0.0158975
854.546	0.0159473
854.624	0.0158743
854.703	0.0159180
854.781	0.0160391
854.859	0.0160506
854.937	0.0159898
855.015	0.0161195
855.093	0.0159433
855.171	0.0161577
855.249	0.0159318
855.328	0.0159251
855.406	0.0160052
855.484	0.0159341
855.562	0.0158880
855.640	0.0158946
855.718	0.0158782
855.796	0.0155990
855.874	0.0156731
855.953	0.0157056
856.031	0.0156579
856.109	0.0157806
856.187	0.0156499
856.265	0.0156326
856.343	0.0155827
856.421	0.0154266
856.499	0.0154556
856.578	0.0155783
856.656	0.0155122
856.734	0.0155350
856.812	0.0156834
856.890	0.0154989
856.968	0.0154536
857.046	0.0155940
857.124	0.0155592
857.203	0.0157067
857.281	0.0155958
857.359	0.0157381
857.437	0.0156434
857.515	0.0155659
857.593	0.0158180
857.671	0.0157390
857.749	0.0158018
857.828	0.0158449
857.906	0.0158679
857.984	0.0157839
858.062	0.0157912
858.140	0.0158715
858.218	0.0158123
858.296	0.0159144
858.374	0.0157987
858.453	0.0158038
858.531	0.0157611
858.609	0.0159156
858.687	0.0159633
858.765	0.0158889
858.843	0.0158347
858.921	0.0157838
858.999	0.0157816
859.078	0.0157236
859.156	0.0159181
859.234	0.0158469
859.312	0.0159184
859.390	0.0156745
859.468	0.0159010
859.546	0.0158100
859.624	0.0158576
859.703	0.0158626
859.781	0.0158369
859.859	0.0156195
859.937	0.0158217
860.015	0.0157850
860.093	0.0157734
860.171	0.0158155
860.249	0.0158554
860.328	0.0156900
860.406	0.0156618
860.484	0.0157590
860.562	0.0157786
860.640	0.0157759
860.718	0.0157433
860.796	0.0157827
860.874	0.0157879
860.953	0.0157998
861.031	0.0157442
861.109	0.0157459
861.187	0.0157169
861.265	0.0157415
861.343	0.0158978
861.421	0.0158506
861.499	0.0157313
861.578	0.0158346
861.656	0.0157030
861.734	0.0155976
861.812	0.0157071
861.890	0.0158797
861.968	0.0158920
862.046	0.0158716
862.124	0.0158250
862.203	0.0158033
862.281	0.0158828
862.359	0.0159112
862.437	0.0159512
862.515	0.0159396
862.593	0.0157458
862.671	0.0158504
862.749	0.0158755
862.828	0.0158659
862.906	0.0157574
862.984	0.0157313
863.062	0.0157681
863.140	0.0156937
863.218	0.0157215
863.296	0.0155220
863.374	0.0156406
863.453	0.0156992
863.531	0.0156468
863.609	0.0154590
863.687	0.0156751
863.765	0.0155752
863.843	0.0154933
863.921	0.0155765
863.999	0.0155318
864.078	0.0157016
864.156	0.0156887
864.234	0.0157220
864.312	0.0157542
864.390	0.0159223
864.468	0.0158388
864.546	0.0158198
864.624	0.0157612
864.703	0.0156644
864.781	0.0159101
864.859	0.0158579
864.937	0.0157565
865.015	0.0159305
865.093	0.0157800
865.171	0.0157745
865.249	0.0158361
865.328	0.0157953
865.406	0.0159254
865.484	0.0157986
865.562	0.0158282
865.640	0.0157778
865.718	0.0157536
865.796	0.0158340
865.874	0.0157719
865.953	0.0157218
866.031	0.0156799
866.109	0.0156914
866.187	0.0157256
866.265	0.0157348
866.343	0.0158492
866.421	0.0157314
866.499	0.0156406
866.578	0.0157697
866.656	0.0157874
866.734	0.0158061
866.812	0.0157458
866.890	0.0157202
866.968	0.0157398
867.046	0.0158228
867.124	0.0157495
867.203	0.0157869
867.281	0.0157818
867.359	0.0155984
867.437	0.0156609
867.515	0.0156813
867.593	0.0156794
867.671	0.0157255
867.749	0.0156827
867.828	0.0156528
867.906	0.0156840
867.984	0.0156420
868.062	0.0157440
868.140	0.0156689
868.218	0.0157833
868.296	0.0156464
868.374	0.0155687
868.453	0.0157375
868.531	0.0157388
868.609	0.0156991
868.687	0.0159203
868.765	0.0158284
868.843	0.0157421
868.921	0.0158396
868.999	0.0158325
869.078	0.0158088
869.156	0.0158741
869.234	0.0157832
869.312	0.0157008
869.390	0.0157905
869.468	0.0157293
869.546	0.0157561
869.624	0.0158601
869.703	0.0158543
869.781	0.0157489
869.859	0.0158706
869.937	0.0157755
870.015	0.0159118
870.093	0.0160511
870.171	0.0158705
870.249	0.0158111
870.328	0.0159012
870.406	0.0159518
870.484	0.0158939
870.562	0.0156992
870.640	0.0157919
870.718	0.0156821
870.796	0.0157541
870.874	0.0157286
870.953	0.0157811
871.031	0.0157069
871.109	0.0156490
871.187	0.0156712
871.265	0.0157027
871.343	0.0156493
871.421	0.0156297
871.499	0.0156094
871.578	0.0155052
871.656	0.0155927
871.734	0.0155663
871.812	0.0156219
871.890	0.0155591
871.968	0.0154649
872.046	0.0155448
872.124	0.0155689
872.203	0.0155105
872.281	0.0154673
872.359	0.0153139
872.437	0.0155293
872.515	0.0155390
872.593	0.0153731
872.671	0.0155823
872.749	0.0153647
872.828	0.0153570
872.906	0.0155308
872.984	0.0155932
873.062	0.0155492
873.140	0.0155055
873.218	0.0155479
873.296	0.0154868
873.374	0.0153894
873.453	0.0155276
873.531	0.0154897
873.609	0.0154079
873.687	0.0155166
873.765	0.0155360
873.843	0.0156590
873.921	0.0155372
873.999	0.0155794
874.078	0.0156946
874.156	0.0156191
874.234	0.0155846
874.312	0.0156193
874.390	0.0157365
874.468	0.0157291
874.546	0.0155987
874.624	0.0157774
874.703	0.0158875
874.781	0.0157803
874.859	0.0158195
874.937	0.0158045
875.015	0.0157458
875.093	0.0155863
875.171	0.0155202
875.249	0.0155196
875.328	0.0156679
875.406	0.0155670
875.484	0.0155167
875.562	0.0155925
875.640	0.0154409
875.718	0.0153207
875.796	0.0155178
875.874	0.0155058
875.953	0.0154403
876.031	0.0154668
876.109	0.0153712
876.187	0.0154644
876.265	0.0155425
876.343	0.0153719
876.421	0.0153572
876.499	0.0155132
876.578	0.0155401
876.656	0.0154001
876.734	0.0155138
876.812	0.0156063
876.890	0.0156375
876.968	0.0156451
877.046	0.0155652
877.124	0.0155177
877.203	0.0156630
877.281	0.0155566
877.359	0.0155544
877.437	0.0154460
877.515	0.0156412
877.593	0.0156461
877.671	0.0157175
877.749	0.0158324
877.828	0.0157875
877.906	0.0157102
877.984	0.0155847
878.062	0.0157475
878.140	0.0157048
878.218	0.0155972
878.296	0.0156540
878.374	0.0156848
878.453	0.0156332
878.531	0.0156792
878.609	0.0155807
878.687	0.0156815
878.765	0.0156960
878.843	0.0157728
878.921	0.0156400
878.999	0.0156242
879.078	0.0156857
879.156	0.0155374
879.234	0.0155819
879.312	0.0156200
879.390	0.0157020
879.468	0.0156584
879.546	0.0156320
879.624	0.0156770
879.703	0.0157674
879.781	0.0157425
879.859	0.0156802
879.937	0.0156497
880.015	0.0156088
880.093	0.0157065
880.171	0.0156680
880.249	0.0154800
880.328	0.0157366
880.406	0.0156972
880.484	0.0155974
880.562	0.0155500
880.640	0.0155864
880.718	0.0156100
880.796	0.0155708
880.874	0.0156143
880.953	0.0156515
881.031	0.0157981
881.109	0.0155846
881.187	0.0156255
881.265	0.0156293
881.343	0.0156905
881.421	0.0156454
881.499	0.0157039
881.578	0.0158019
881.656	0.0158293
881.734	0.0157613
881.812	0.0157671
881.890	0.0158060
881.968	0.0158128
882.046	0.0158215
882.124	0.0157748
882.203	0.0158492
882.281	0.0159087
882.359	0.0157942
882.437	0.0158186
882.515	0.0158841
882.593	0.0159318
882.671	0.0158138
882.749	0.0157874
882.828	0.0157268
882.906	0.0156718
882.984	0.0159230
883.062	0.0158301
883.140	0.0157883
883.218	0.0158080
883.296	0.0157603
883.374	0.0158386
883.453	0.0157204
883.531	0.0157628
883.609	0.0157443
883.687	0.0158237
883.765	0.0156532
883.843	0.0155926
883.921	0.0156384
883.999	0.0157782
884.078	0.0157154
884.156	0.0157497
884.234	0.0157074
884.312	0.0156294
884.390	0.0155605
884.468	0.0157281
884.546	0.0156969
884.624	0.0157627
884.703	0.0156377
884.781	0.0157440
884.859	0.0156990
884.937	0.0157458
885.015	0.0158295
885.093	0.0158865
885.171	0.0157103
885.249	0.0157945
885.328	0.0156731
885.406	0.0156538
885.484	0.0157069
885.562	0.0157346
885.640	0.0157819
885.718	0.0157707
885.796	0.0156149
885.874	0.0157906
885.953	0.0157762
886.031	0.0157220
886.109	0.0158046
886.187	0.0158092
886.265	0.0156497
886.343	0.0158002
886.421	0.0157716
886.499	0.0156875
886.578	0.0156577
886.656	0.0156516
886.734	0.0157970
886.812	0.0157126
886.890	0.0155908
886.968	0.0155936
887.046	0.0157783
887.124	0.0155778
887.203	0.0154855
887.281	0.0157647
887.359	0.0157175
887.437	0.0155466
887.515	0.0156029
887.593	0.0156534
887.671	0.0155215
887.749	0.0155965
887.828	0.0157291
887.906	0.0155515
887.984	0.0156487
888.062	0.0158231
888.140	0.0156867
888.218	0.0156235
888.296	0.0156412
888.374	0.0156477
888.453	0.0157792
888.531	0.0157848
888.609	0.0156455
888.687	0.0157143
888.765	0.0158358
888.843	0.0156322
888.921	0.0157362
888.999	0.0157629
889.078	0.0157014
889.156	0.0158656
889.234	0.0155748
889.312	0.0156759
889.390	0.0156990
889.468	0.0157027
889.546	0.0156602
889.624	0.0155016
889.703	0.0155545
889.781	0.0157196
889.859	0.0156139
889.937	0.0154728
890.015	0.0157239
890.093	0.0155387
890.171	0.0156044
890.249	0.0156373
890.328	0.0156784
890.406	0.0156210
890.484	0.0155818
890.562	0.0155489
890.640	0.0155683
890.718	0.0157697
890.796	0.0156765
890.874	0.0156919
890.953	0.0155597
891.031	0.0156279
891.109	0.0156650
891.187	0.0156055
891.265	0.0155443
891.343	0.0155688
891.421	0.0156209
891.499	0.0157207
891.578	0.0157068
891.656	0.0157313
891.734	0.0157776
891.812	0.0157225
891.890	0.0156386
891.968	0.0156683
892.046	0.0159913
892.124	0.0156725
892.203	0.0157220
892.281	0.0158559
892.359	0.0157558
892.437	0.0156969
892.515	0.0157359
892.593	0.0158323
892.671	0.0158009
892.749	0.0157438
892.828	0.0157867
892.906	0.0157372
892.984	0.0156567
893.062	0.0156828
893.140	0.0156683
893.218	0.0157031
893.296	0.0156741
893.374	0.0156830
893.453	0.0156702
893.531	0.0157125
893.609	0.0157167
893.687	0.0157502
893.765	0.0157552
893.843	0.0157470
893.921	0.0157476
893.999	0.0157538
894.078	0.0156186
894.156	0.0156091
894.234	0.0156781
894.312	0.0155756
894.390	0.0156865
894.468	0.0157026
894.546	0.0157078
894.624	0.0156985
894.703	0.0156493
894.781	0.0156493
894.859	0.0156506
894.937	0.0156763
895.015	0.0155356
895.093	0.0154554
895.171	0.0156633
895.249	0.0157186
895.328	0.0156466
895.406	0.0155826
895.484	0.0155638
895.562	0.0157812
895.640	0.0155586
895.718	0.0154604
895.796	0.0156795
895.874	0.0156835
895.953	0.0155423
896.031	0.0157008
896.109	0.0157889
896.187	0.0157459
896.265	0.0157710
896.343	0.0157782
896.421	0.0157637
896.499	0.0155902
896.578	0.0157227
896.656	0.0156824
896.734	0.0156876
896.812	0.0156905
896.890	0.0156911
896.968	0.0156350
897.046	0.0156648
897.124	0.0156125
897.203	0.0155844
897.281	0.0156776
897.359	0.0157241
897.437	0.0155042
897.515	0.0155394
897.593	0.0155428
897.671	0.0155476
897.749	0.0155951
897.828	0.0155534
897.906	0.0154790
897.984	0.0155606
898.062	0.0155299
898.140	0.0155808
898.218	0.0156324
898.296	0.0155237
898.374	0.0156541
898.453	0.0156678
898.531	0.0156918
898.609	0.0156274
898.687	0.0155985
898.765	0.0157289
898.843	0.0156719
898.921	0.0157172
898.999	0.0156007
899.078	0.0156610
899.156	0.0156966
899.234	0.0155679
899.312	0.0157812
899.390	0.0156408
899.468	0.0157047
899.546	0.0156915
899.624	0.0157117
899.703	0.0157214
899.781	0.0156475
899.859	0.0157214
899.937	0.0155946
900.015	0.0156612
900.093	0.0157439
900.171	0.0156687
900.249	0.0157076
900.328	0.0156889
900.406	0.0156289
900.484	0.0157138
900.562	0.0157143
900.640	0.0156375
900.718	0.0156812
900.796	0.0158181
900.874	0.0156150
900.953	0.0156991
901.031	0.0157352
901.109	0.0157090
901.187	0.0158183
901.265	0.0155933
901.343	0.0158924
901.421	0.0158059
901.499	0.0158377
901.578	0.0157323
901.656	0.0158241
901.734	0.0157113
901.812	0.0157894
901.890	0.0157739
901.968	0.0157296
902.046	0.0156179
902.124	0.0157013
902.203	0.0156894
902.281	0.0157217
902.359	0.0157201
902.437	0.0155581
902.515	0.0155816
902.593	0.0155788
902.671	0.0155392
902.749	0.0155405
902.828	0.0155370
902.906	0.0155096
902.984	0.0155965
903.062	0.0156342
903.140	0.0154640
903.218	0.0154736
903.296	0.0156371
903.374	0.0155792
903.453	0.0154823
903.531	0.0155853
903.609	0.0155894
903.687	0.0156798
903.765	0.0157804
903.843	0.0157785
903.921	0.0157192
903.999	0.0157771
904.078	0.0157343
904.156	0.0157500
904.234	0.0157613
904.312	0.0158268
904.390	0.0158690
904.468	0.0158083
904.546	0.0156461
904.624	0.0157270
904.703	0.0158528
904.781	0.0159754
904.859	0.0158793
904.937	0.0158311
905.015	0.0157552
905.093	0.0158897
905.171	0.0157964
905.249	0.0155993
905.328	0.0157478
905.406	0.0157648
905.484	0.0158294
905.562	0.0158790
905.640	0.0156908
905.718	0.0155344
905.796	0.0156989
905.874	0.0156761
905.953	0.0158512
906.031	0.0157223
906.109	0.0158482
906.187	0.0157950
906.265	0.0157922
906.343	0.0158103
906.421	0.0157390
906.499	0.0157167
906.578	0.0158224
906.656	0.0156901
906.734	0.0157170
906.812	0.0157043
906.890	0.0158332
906.968	0.0158720
907.046	0.0160001
907.124	0.0158466
907.203	0.0156686
907.281	0.0157621
907.359	0.0158797
907.437	0.0158665
907.515	0.0158968
907.593	0.0158241
907.671	0.0158552
907.749	0.0158433
907.828	0.0158636
907.906	0.0157566
907.984	0.0158714
908.062	0.0158328
908.140	0.0157986
908.218	0.0158036
908.296	0.0158792
908.374	0.0158385
908.453	0.0159026
908.531	0.0156919
908.609	0.0157312
908.687	0.0157558
908.765	0.0157066
908.843	0.0156947
908.921	0.0160070
908.999	0.0157350
909.078	0.0159354
909.156	0.0157297
909.234	0.0157073
909.312	0.0157661
909.390	0.0158093
909.468	0.0158772
909.546	0.0158307
909.624	0.0157378
909.703	0.0157818
909.781	0.0158354
909.859	0.0158211
909.937	0.0158664
910.015	0.0158281
910.093	0.0157053
910.171	0.0157637
910.249	0.0158534
910.328	0.0158891
910.406	0.0157655
910.484	0.0157811
910.562	0.0157260
910.640	0.0156968
910.718	0.0155711
910.796	0.0156129
910.874	0.0156836
910.953	0.0155667
911.031	0.0155228
911.109	0.0156031
911.187	0.0156187
911.265	0.0156217
911.343	0.0156795
911.421	0.0156521
911.499	0.0157765
911.578	0.0156353
911.656	0.0154608
911.734	0.0154776
911.812	0.0156316
911.890	0.0156510
911.968	0.0156236
912.046	0.0155581
912.124	0.0156277
912.203	0.0157047
912.281	0.0155997
912.359	0.0156860
912.437	0.0157433
912.515	0.0156187
912.593	0.0155986
912.671	0.0157966
912.749	0.0157021
912.828	0.0156474
912.906	0.0156680
912.984	0.0157010
913.062	0.0158338
913.140	0.0156542
913.218	0.0157593
913.296	0.0158274
913.374	0.0156316
913.453	0.0156465
913.531	0.0156860
913.609	0.0157230
913.687	0.0156210
913.765	0.0157198
913.843	0.0156921
913.921	0.0156255
913.999	0.0155959
914.078	0.0155682
914.156	0.0156780
914.234	0.0156535
914.312	0.0156137
914.390	0.0156688
914.468	0.0156730
914.546	0.0157922
914.624	0.0155161
914.703	0.0155685
914.781	0.0156651
914.859	0.0156696
914.937	0.0156236
915.015	0.0155595
915.093	0.0157063
915.171	0.0155799
915.249	0.0158539
915.328	0.0158688
915.406	0.0156143
915.484	0.0156413
915.562	0.0156762
915.640	0.0155645
915.718	0.0156195
915.796	0.0158277
915.874	0.0158331
915.953	0.0157814
916.031	0.0158669
916.109	0.0156139
916.187	0.0156605
916.265	0.0157486
916.343	0.0158284
916.421	0.0157508
916.499	0.0157151
916.578	0.0158294
916.656	0.0158021
916.734	0.0155722
916.812	0.0157220
916.890	0.0155459
916.968	0.0156018
917.046	0.0157356
917.124	0.0155737
917.203	0.0155808
917.281	0.0157109
917.359	0.0156681
917.437	0.0155684
917.515	0.0157175
917.593	0.0156477
917.671	0.0154752
917.749	0.0155226
917.828	0.0155442
917.906	0.0156291
917.984	0.0155638
918.062	0.0156270
918.140	0.0157416
918.218	0.0157293
918.296	0.0155952
918.374	0.0157218
918.453	0.0155990
918.531	0.0156378
918.609	0.0157407
918.687	0.0156553
918.765	0.0156433
918.843	0.0155950
918.921	0.0156750
918.999	0.0157856
919.078	0.0156355
919.156	0.0157516
919.234	0.0158924
919.312	0.0157816
919.390	0.0157413
919.468	0.0158192
919.546	0.0158046
919.624	0.0156922
919.703	0.0158114
919.781	0.0158065
919.859	0.0158693
919.937	0.0155774
