06/10/2022	19:03:26	Ver.	4.1	UNKNOWN
Optical Delay	600.015094	Delta X		0.078125	Sweeps	1	Scan Rate	0/0
Coordinates	Axis 1	NaN	Axis 2	NaN	Axis 3	NaN	Axis 4	NaN	Axis 5	NaN	Axis 6	0.000000
TX Power	0.000000	RX Power	0.000000

600.015	0.0160412
600.093	0.0161842
600.171	0.0160123
600.249	0.0161557
600.328	0.0161356
600.406	0.0161141
600.484	0.0160311
600.562	0.0160743
600.640	0.0161703
600.718	0.0161754
600.796	0.0160902
600.874	0.0161242
600.953	0.0161050
601.031	0.0160119
601.109	0.0159950
601.187	0.0161005
601.265	0.0160584
601.343	0.0160538
601.421	0.0158846
601.499	0.0160507
601.578	0.0160809
601.656	0.0159316
601.734	0.0159804
601.812	0.0160170
601.890	0.0158199
601.968	0.0159344
602.046	0.0159707
602.124	0.0160699
602.203	0.0158597
602.281	0.0158888
602.359	0.0160167
602.437	0.0159251
602.515	0.0160328
602.593	0.0160587
602.671	0.0158147
602.749	0.0159785
602.828	0.0159711
602.906	0.0159312
602.984	0.0159713
603.062	0.0158933
603.140	0.0158944
603.218	0.0159970
603.296	0.0160249
603.374	0.0159071
603.453	0.0158199
603.531	0.0158285
603.609	0.0158249
603.687	0.0158730
603.765	0.0159223
603.843	0.0159814
603.921	0.0160066
603.999	0.0158586
604.078	0.0159241
604.156	0.0157917
604.234	0.0157819
604.312	0.0158752
604.390	0.0158067
604.468	0.0158388
604.546	0.0158118
604.624	0.0158186
604.703	0.0158226
604.781	0.0158800
604.859	0.0158132
604.937	0.0159380
605.015	0.0157218
605.093	0.0159050
605.171	0.0157263
605.249	0.0157670
605.328	0.0159116
605.406	0.0158073
605.484	0.0158331
605.562	0.0158160
605.640	0.0158300
605.718	0.0158447
605.796	0.0158675
605.874	0.0158534
605.953	0.0157514
606.031	0.0158100
606.109	0.0158372
606.187	0.0158692
606.265	0.0158237
606.343	0.0158243
606.421	0.0157908
606.499	0.0159044
606.578	0.0158882
606.656	0.0158341
606.734	0.0158849
606.812	0.0162016
606.890	0.0159175
606.968	0.0157690
607.046	0.0158295
607.124	0.0158900
607.203	0.0159442
607.281	0.0160258
607.359	0.0160069
607.437	0.0159704
607.515	0.0159560
607.593	0.0159699
607.671	0.0159269
607.749	0.0159577
607.828	0.0160052
607.906	0.0159625
607.984	0.0161305
608.062	0.0160245
608.140	0.0159557
608.218	0.0161122
608.296	0.0160674
608.374	0.0159896
608.453	0.0159631
608.531	0.0160603
608.609	0.0161265
608.687	0.0160526
608.765	0.0161249
608.843	0.0161140
608.921	0.0160468
608.999	0.0160275
609.078	0.0161295
609.156	0.0161359
609.234	0.0161327
609.312	0.0161063
609.390	0.0160254
609.468	0.0161553
609.546	0.0159503
609.624	0.0160133
609.703	0.0161047
609.781	0.0159806
609.859	0.0161925
609.937	0.0161278
610.015	0.0161845
610.093	0.0161739
610.171	0.0161042
610.249	0.0160783
610.328	0.0159858
610.406	0.0159346
610.484	0.0162113
610.562	0.0161546
610.640	0.0161462
610.718	0.0162668
610.796	0.0161580
610.874	0.0160186
610.953	0.0162007
611.031	0.0161566
611.109	0.0160136
611.187	0.0160609
611.265	0.0162379
611.343	0.0161327
611.421	0.0160597
611.499	0.0160294
611.578	0.0161548
611.656	0.0160942
611.734	0.0160271
611.812	0.0162012
611.890	0.0161626
611.968	0.0160169
612.046	0.0160856
612.124	0.0162202
612.203	0.0160095
612.281	0.0161368
612.359	0.0160761
612.437	0.0161470
612.515	0.0161141
612.593	0.0161349
612.671	0.0160797
612.749	0.0160304
612.828	0.0160464
612.906	0.0160797
612.984	0.0161673
613.062	0.0160892
613.140	0.0160801
613.218	0.0162094
613.296	0.0161117
613.374	0.0160500
613.453	0.0160547
613.531	0.0159524
613.609	0.0159824
613.687	0.0160892
613.765	0.0160680
613.843	0.0161103
613.921	0.0160913
613.999	0.0161546
614.078	0.0159953
614.156	0.0160471
614.234	0.0160509
614.312	0.0159485
614.390	0.0160379
614.468	0.0161360
614.546	0.0161398
614.624	0.0161773
614.703	0.0160667
614.781	0.0160664
614.859	0.0160338
614.937	0.0159554
615.015	0.0160011
615.093	0.0159982
615.171	0.0160489
615.249	0.0160134
615.328	0.0159248
615.406	0.0159151
615.484	0.0159325
615.562	0.0158859
615.640	0.0160591
615.718	0.0159365
615.796	0.0159407
615.874	0.0158552
615.953	0.0159383
616.031	0.0158450
616.109	0.0158074
616.187	0.0156868
616.265	0.0159928
616.343	0.0157623
616.421	0.0157466
616.499	0.0157676
616.578	0.0157777
616.656	0.0155828
616.734	0.0156379
616.812	0.0157832
616.890	0.0157580
616.968	0.0157558
617.046	0.0157522
617.124	0.0158639
617.203	0.0157505
617.281	0.0157956
617.359	0.0157835
617.437	0.0158247
617.515	0.0157944
617.593	0.0158083
617.671	0.0158527
617.749	0.0156719
617.828	0.0157689
617.906	0.0158341
617.984	0.0157066
618.062	0.0157271
618.140	0.0157282
618.218	0.0157915
618.296	0.0157460
618.374	0.0156841
618.453	0.0155798
618.531	0.0155195
618.609	0.0156476
618.687	0.0159147
618.765	0.0157872
618.843	0.0157912
618.921	0.0157230
618.999	0.0158126
619.078	0.0157195
619.156	0.0157957
619.234	0.0159346
619.312	0.0158520
619.390	0.0158764
619.468	0.0158016
619.546	0.0157744
619.624	0.0158883
619.703	0.0158842
619.781	0.0159109
619.859	0.0157371
619.937	0.0158533
620.015	0.0158947
620.093	0.0158588
620.171	0.0158475
620.249	0.0159155
620.328	0.0156996
620.406	0.0159233
620.484	0.0160661
620.562	0.0157272
620.640	0.0158247
620.718	0.0158384
620.796	0.0158329
620.874	0.0160300
620.953	0.0158260
621.031	0.0158002
621.109	0.0158000
621.187	0.0158829
621.265	0.0159579
621.343	0.0159061
621.421	0.0158910
621.499	0.0159354
621.578	0.0158944
621.656	0.0159515
621.734	0.0159924
621.812	0.0159019
621.890	0.0158673
621.968	0.0159508
622.046	0.0159548
622.124	0.0160389
622.203	0.0160061
622.281	0.0159422
622.359	0.0159945
622.437	0.0159633
622.515	0.0160001
622.593	0.0158986
622.671	0.0158385
622.749	0.0158551
622.828	0.0158123
622.906	0.0159699
622.984	0.0160038
623.062	0.0159629
623.140	0.0160228
623.218	0.0159629
623.296	0.0159144
623.374	0.0160365
623.453	0.0161422
623.531	0.0159278
623.609	0.0160227
623.687	0.0160625
623.765	0.0160892
623.843	0.0160049
623.921	0.0160150
623.999	0.0162468
624.078	0.0161605
624.156	0.0162187
624.234	0.0161210
624.312	0.0160487
624.390	0.0162325
624.468	0.0160603
624.546	0.0160639
624.624	0.0160004
624.703	0.0160885
624.781	0.0161081
624.859	0.0158860
624.937	0.0159546
625.015	0.0159592
625.093	0.0160732
625.171	0.0160727
625.249	0.0160763
625.328	0.0160503
625.406	0.0159640
625.484	0.0159835
625.562	0.0161229
625.640	0.0160227
625.718	0.0161273
625.796	0.0158260
625.874	0.0160739
625.953	0.0160535
626.031	0.0159767
626.109	0.0159638
626.187	0.0161304
626.265	0.0160916
626.343	0.0160186
626.421	0.0159034
626.499	0.0160154
626.578	0.0160361
626.656	0.0160772
626.734	0.0160098
626.812	0.0159716
626.890	0.0161050
626.968	0.0160210
627.046	0.0160675
627.124	0.0160411
627.203	0.0160423
627.281	0.0159373
627.359	0.0160053
627.437	0.0161066
627.515	0.0160836
627.593	0.0159155
627.671	0.0160064
627.749	0.0161304
627.828	0.0162091
627.906	0.0159720
627.984	0.0161001
628.062	0.0161626
628.140	0.0160867
628.218	0.0161337
628.296	0.0159844
628.374	0.0160326
628.453	0.0160108
628.531	0.0160944
628.609	0.0160115
628.687	0.0159005
628.765	0.0159999
628.843	0.0161267
628.921	0.0158148
628.999	0.0160717
629.078	0.0160077
629.156	0.0159597
629.234	0.0160551
629.312	0.0159901
629.390	0.0159500
629.468	0.0160532
629.546	0.0159161
629.624	0.0160490
629.703	0.0159937
629.781	0.0160397
629.859	0.0160285
629.937	0.0159959
630.015	0.0160464
630.093	0.0158889
630.171	0.0159858
630.249	0.0160682
630.328	0.0159907
630.406	0.0159241
630.484	0.0161226
630.562	0.0160643
630.640	0.0158858
630.718	0.0159774
630.796	0.0159242
630.874	0.0159231
630.953	0.0160316
631.031	0.0160364
631.109	0.0159850
631.187	0.0160738
631.265	0.0161269
631.343	0.0159128
631.421	0.0158723
631.499	0.0159695
631.578	0.0159883
631.656	0.0160944
631.734	0.0160918
631.812	0.0160589
631.890	0.0159956
631.968	0.0159618
632.046	0.0160934
632.124	0.0159132
632.203	0.0160862
632.281	0.0160350
632.359	0.0159789
632.437	0.0158926
632.515	0.0158466
632.593	0.0160986
632.671	0.0160421
632.749	0.0160812
632.828	0.0159489
632.906	0.0160104
632.984	0.0159641
633.062	0.0159456
633.140	0.0160760
633.218	0.0160058
633.296	0.0158656
633.374	0.0160723
633.453	0.0159965
633.531	0.0159912
633.609	0.0160392
633.687	0.0160400
633.765	0.0161056
633.843	0.0160658
633.921	0.0160188
633.999	0.0159554
634.078	0.0160145
634.156	0.0160248
634.234	0.0161008
634.312	0.0161576
634.390	0.0160818
634.468	0.0160558
634.546	0.0159779
634.624	0.0160200
634.703	0.0161417
634.781	0.0159487
634.859	0.0159699
634.937	0.0161104
635.015	0.0161642
635.093	0.0161064
635.171	0.0160040
635.249	0.0159858
635.328	0.0159381
635.406	0.0159094
635.484	0.0160631
635.562	0.0159722
635.640	0.0160262
635.718	0.0160448
635.796	0.0160680
635.874	0.0160104
635.953	0.0160792
636.031	0.0159096
636.109	0.0159848
636.187	0.0160829
636.265	0.0160275
636.343	0.0159880
636.421	0.0160444
636.499	0.0159714
636.578	0.0158466
636.656	0.0158476
636.734	0.0159923
636.812	0.0159465
636.890	0.0161210
636.968	0.0159628
637.046	0.0159386
637.124	0.0160222
637.203	0.0160486
637.281	0.0159792
637.359	0.0159857
637.437	0.0159148
637.515	0.0159614
637.593	0.0161491
637.671	0.0159245
637.749	0.0159656
637.828	0.0160712
637.906	0.0159731
637.984	0.0158833
638.062	0.0160877
638.140	0.0161427
638.218	0.0161174
638.296	0.0160604
638.374	0.0160421
638.453	0.0161107
638.531	0.0160828
638.609	0.0160096
638.687	0.0160038
638.765	0.0158892
638.843	0.0160017
638.921	0.0160370
638.999	0.0160724
639.078	0.0159979
639.156	0.0159225
639.234	0.0159800
639.312	0.0159763
639.390	0.0158848
639.468	0.0160385
639.546	0.0160306
639.624	0.0159753
639.703	0.0159390
639.781	0.0159549
639.859	0.0160577
639.937	0.0159425
640.015	0.0158173
640.093	0.0158042
640.171	0.0158819
640.249	0.0158200
640.328	0.0158399
640.406	0.0159058
640.484	0.0156905
640.562	0.0158438
640.640	0.0157130
640.718	0.0157581
640.796	0.0158869
640.874	0.0159262
640.953	0.0158338
641.031	0.0159808
641.109	0.0157606
641.187	0.0159615
641.265	0.0157278
641.343	0.0157660
641.421	0.0157732
641.499	0.0159798
641.578	0.0158036
641.656	0.0159861
641.734	0.0158112
641.812	0.0157529
641.890	0.0157698
641.968	0.0158491
642.046	0.0157285
642.124	0.0156822
642.203	0.0158205
642.281	0.0158687
642.359	0.0157555
642.437	0.0158239
642.515	0.0157092
642.593	0.0157458
642.671	0.0156290
642.749	0.0157295
642.828	0.0156458
642.906	0.0157016
642.984	0.0156273
643.062	0.0156590
643.140	0.0155626
643.218	0.0156778
643.296	0.0155740
643.374	0.0156812
643.453	0.0155811
643.531	0.0156905
643.609	0.0155894
643.687	0.0156328
643.765	0.0156382
643.843	0.0155643
643.921	0.0156404
643.999	0.0155618
644.078	0.0157303
644.156	0.0157670
644.234	0.0156884
644.312	0.0156945
644.390	0.0156025
644.468	0.0157171
644.546	0.0156386
644.624	0.0156792
644.703	0.0156445
644.781	0.0156423
644.859	0.0156480
644.937	0.0157656
645.015	0.0159143
645.093	0.0157775
645.171	0.0156466
645.249	0.0158099
645.328	0.0157681
645.406	0.0157439
645.484	0.0158904
645.562	0.0158022
645.640	0.0156602
645.718	0.0157487
645.796	0.0158668
645.874	0.0157640
645.953	0.0158878
646.031	0.0158008
646.109	0.0158320
646.187	0.0158428
646.265	0.0158513
646.343	0.0158670
646.421	0.0160280
646.499	0.0158512
646.578	0.0159245
646.656	0.0158422
646.734	0.0159069
646.812	0.0159364
646.890	0.0159811
646.968	0.0157961
647.046	0.0159235
647.124	0.0159200
647.203	0.0159138
647.281	0.0159300
647.359	0.0159027
647.437	0.0158238
647.515	0.0158082
647.593	0.0158215
647.671	0.0158826
647.749	0.0158614
647.828	0.0157775
647.906	0.0159573
647.984	0.0160234
648.062	0.0159020
648.140	0.0160330
648.218	0.0158339
648.296	0.0160128
648.374	0.0158697
648.453	0.0158871
648.531	0.0158699
648.609	0.0159270
648.687	0.0158380
648.765	0.0160388
648.843	0.0160169
648.921	0.0159836
648.999	0.0159278
649.078	0.0159870
649.156	0.0158974
649.234	0.0159544
649.312	0.0159547
649.390	0.0160366
649.468	0.0161052
649.546	0.0160239
649.624	0.0161399
649.703	0.0160603
649.781	0.0160733
649.859	0.0159943
649.937	0.0161202
650.015	0.0160728
650.093	0.0159982
650.171	0.0161184
650.249	0.0160963
650.328	0.0160452
650.406	0.0161330
650.484	0.0161301
650.562	0.0161234
650.640	0.0160892
650.718	0.0159546
650.796	0.0160911
650.874	0.0161763
650.953	0.0161045
651.031	0.0160237
651.109	0.0161388
651.187	0.0160918
651.265	0.0161092
651.343	0.0161316
651.421	0.0162029
651.499	0.0160600
651.578	0.0160369
651.656	0.0161577
651.734	0.0160273
651.812	0.0160786
651.890	0.0162090
651.968	0.0161532
652.046	0.0161097
652.124	0.0161607
652.203	0.0160767
652.281	0.0161174
652.359	0.0160530
652.437	0.0161608
652.515	0.0160446
652.593	0.0161108
652.671	0.0161348
652.749	0.0161483
652.828	0.0160441
652.906	0.0159955
652.984	0.0162403
653.062	0.0160643
653.140	0.0160371
653.218	0.0160561
653.296	0.0160337
653.374	0.0161626
653.453	0.0160374
653.531	0.0160519
653.609	0.0161401
653.687	0.0159165
653.765	0.0159953
653.843	0.0160797
653.921	0.0160170
653.999	0.0159988
654.078	0.0161298
654.156	0.0161323
654.234	0.0160062
654.312	0.0160825
654.390	0.0160603
654.468	0.0161800
654.546	0.0161356
654.624	0.0160051
654.703	0.0160980
654.781	0.0161753
654.859	0.0160641
654.937	0.0160926
655.015	0.0160067
655.093	0.0160121
655.171	0.0160016
655.249	0.0159566
655.328	0.0159480
655.406	0.0159183
655.484	0.0160387
655.562	0.0160240
655.640	0.0160528
655.718	0.0160396
655.796	0.0160393
655.874	0.0159905
655.953	0.0160921
656.031	0.0158928
656.109	0.0159764
656.187	0.0159804
656.265	0.0160107
656.343	0.0158323
656.421	0.0159252
656.499	0.0160480
656.578	0.0159841
656.656	0.0160530
656.734	0.0159719
656.812	0.0159137
656.890	0.0159425
656.968	0.0159360
657.046	0.0160284
657.124	0.0160405
657.203	0.0159566
657.281	0.0159506
657.359	0.0160777
657.437	0.0160452
657.515	0.0159687
657.593	0.0160703
657.671	0.0159824
657.749	0.0161114
657.828	0.0159277
657.906	0.0160419
657.984	0.0159040
658.062	0.0160708
658.140	0.0159418
658.218	0.0160018
658.296	0.0160277
658.374	0.0161280
658.453	0.0159994
658.531	0.0159877
658.609	0.0160769
658.687	0.0159688
658.765	0.0159355
658.843	0.0159648
658.921	0.0159602
658.999	0.0159605
659.078	0.0160023
659.156	0.0159688
659.234	0.0158841
659.312	0.0158453
659.390	0.0158719
659.468	0.0158685
659.546	0.0160411
659.624	0.0161639
659.703	0.0160569
659.781	0.0159936
659.859	0.0160578
659.937	0.0159778
660.015	0.0158894
660.093	0.0159270
660.171	0.0159927
660.249	0.0160433
660.328	0.0157803
660.406	0.0158622
660.484	0.0160138
660.562	0.0159933
660.640	0.0159191
660.718	0.0158463
660.796	0.0158261
660.874	0.0160020
660.953	0.0159871
661.031	0.0160226
661.109	0.0159213
661.187	0.0158881
661.265	0.0159622
661.343	0.0158854
661.421	0.0159563
661.499	0.0160156
661.578	0.0158998
661.656	0.0158942
661.734	0.0158429
661.812	0.0159033
661.890	0.0160103
661.968	0.0158649
662.046	0.0159412
662.124	0.0158482
662.203	0.0159338
662.281	0.0159005
662.359	0.0158826
662.437	0.0158690
662.515	0.0158360
662.593	0.0157928
662.671	0.0158809
662.749	0.0158420
662.828	0.0158409
662.906	0.0157273
662.984	0.0157608
663.062	0.0158167
663.140	0.0158493
663.218	0.0158053
663.296	0.0158530
663.374	0.0157677
663.453	0.0157872
663.531	0.0157294
663.609	0.0158043
663.687	0.0159163
663.765	0.0158582
663.843	0.0157660
663.921	0.0158692
663.999	0.0157293
664.078	0.0158560
664.156	0.0158588
664.234	0.0158219
664.312	0.0157553
664.390	0.0157169
664.468	0.0158125
664.546	0.0157802
664.624	0.0158622
664.703	0.0158302
664.781	0.0159650
664.859	0.0158690
664.937	0.0158022
665.015	0.0158128
665.093	0.0157845
665.171	0.0157872
665.249	0.0158359
665.328	0.0158308
665.406	0.0159452
665.484	0.0157985
665.562	0.0158187
665.640	0.0158302
665.718	0.0158502
665.796	0.0158528
665.874	0.0158218
665.953	0.0158981
666.031	0.0157745
666.109	0.0157199
666.187	0.0157074
666.265	0.0157840
666.343	0.0158748
666.421	0.0158286
666.499	0.0158292
666.578	0.0159020
666.656	0.0159175
666.734	0.0158208
666.812	0.0158506
666.890	0.0157738
666.968	0.0157719
667.046	0.0158504
667.124	0.0159558
667.203	0.0159940
667.281	0.0158952
667.359	0.0157764
667.437	0.0160078
667.515	0.0158661
667.593	0.0160642
667.671	0.0159113
667.749	0.0158428
667.828	0.0158654
667.906	0.0158947
667.984	0.0157717
668.062	0.0158861
668.140	0.0159812
668.218	0.0158063
668.296	0.0159637
668.374	0.0159487
668.453	0.0157761
668.531	0.0158932
668.609	0.0159596
668.687	0.0159406
668.765	0.0160311
668.843	0.0159789
668.921	0.0160015
668.999	0.0160773
669.078	0.0161032
669.156	0.0158707
669.234	0.0159937
669.312	0.0160684
669.390	0.0160098
669.468	0.0161312
669.546	0.0160822
669.624	0.0161400
669.703	0.0160455
669.781	0.0159203
669.859	0.0161592
669.937	0.0160402
670.015	0.0159174
670.093	0.0160619
670.171	0.0158770
670.249	0.0158477
670.328	0.0160078
670.406	0.0160085
670.484	0.0159975
670.562	0.0159167
670.640	0.0159621
670.718	0.0159543
670.796	0.0159931
670.874	0.0158569
670.953	0.0161739
671.031	0.0161356
671.109	0.0158952
671.187	0.0160378
671.265	0.0160277
671.343	0.0159774
671.421	0.0161102
671.499	0.0159225
671.578	0.0159456
671.656	0.0160374
671.734	0.0159516
671.812	0.0160339
671.890	0.0160046
671.968	0.0159233
672.046	0.0159854
672.124	0.0159039
672.203	0.0159530
672.281	0.0160149
672.359	0.0159595
672.437	0.0160338
672.515	0.0159987
672.593	0.0160060
672.671	0.0159199
672.749	0.0160605
672.828	0.0158767
672.906	0.0160950
672.984	0.0160316
673.062	0.0160775
673.140	0.0161219
673.218	0.0161728
673.296	0.0159876
673.374	0.0160218
673.453	0.0160210
673.531	0.0160625
673.609	0.0160289
673.687	0.0160449
673.765	0.0159905
673.843	0.0159142
673.921	0.0160001
673.999	0.0160069
674.078	0.0160465
674.156	0.0160366
674.234	0.0158843
674.312	0.0160579
674.390	0.0160818
674.468	0.0160272
674.546	0.0160297
674.624	0.0159156
674.703	0.0160282
674.781	0.0159705
674.859	0.0160392
674.937	0.0160261
675.015	0.0159120
675.093	0.0159678
675.171	0.0160587
675.249	0.0159151
675.328	0.0159023
675.406	0.0160098
675.484	0.0159901
675.562	0.0160029
675.640	0.0159026
675.718	0.0158574
675.796	0.0159702
675.874	0.0159705
675.953	0.0159142
676.031	0.0160127
676.109	0.0160094
676.187	0.0158210
676.265	0.0159772
676.343	0.0160522
676.421	0.0159571
676.499	0.0160504
676.578	0.0160625
676.656	0.0160210
676.734	0.0160050
676.812	0.0159930
676.890	0.0160674
676.968	0.0161307
677.046	0.0160105
677.124	0.0159224
677.203	0.0159966
677.281	0.0161788
677.359	0.0160072
677.437	0.0161323
677.515	0.0161011
677.593	0.0160366
677.671	0.0161083
677.749	0.0160383
677.828	0.0160904
677.906	0.0160999
677.984	0.0159882
678.062	0.0160718
678.140	0.0161674
678.218	0.0160828
678.296	0.0160436
678.374	0.0161022
678.453	0.0160793
678.531	0.0160571
678.609	0.0161131
678.687	0.0160226
678.765	0.0161034
678.843	0.0160838
678.921	0.0159801
678.999	0.0160535
679.078	0.0160868
679.156	0.0160266
679.234	0.0161156
679.312	0.0160978
679.390	0.0159924
679.468	0.0160221
679.546	0.0160255
679.624	0.0159106
679.703	0.0161126
679.781	0.0161704
679.859	0.0159353
679.937	0.0159609
680.015	0.0161427
680.093	0.0161671
680.171	0.0161277
680.249	0.0160822
680.328	0.0159517
680.406	0.0161697
680.484	0.0160902
680.562	0.0161259
680.640	0.0160659
680.718	0.0161588
680.796	0.0160914
680.874	0.0161062
680.953	0.0160341
681.031	0.0160899
681.109	0.0162083
681.187	0.0161533
681.265	0.0162359
681.343	0.0161399
681.421	0.0161346
681.499	0.0160844
681.578	0.0161010
681.656	0.0160612
681.734	0.0160899
681.812	0.0161131
681.890	0.0161806
681.968	0.0159822
682.046	0.0161695
682.124	0.0160360
682.203	0.0159280
682.281	0.0162002
682.359	0.0162480
682.437	0.0159969
682.515	0.0159313
682.593	0.0160542
682.671	0.0161182
682.749	0.0159534
682.828	0.0158977
682.906	0.0159158
682.984	0.0160258
683.062	0.0160104
683.140	0.0161145
683.218	0.0160652
683.296	0.0160833
683.374	0.0159949
683.453	0.0158857
683.531	0.0159752
683.609	0.0158343
683.687	0.0160339
683.765	0.0159981
683.843	0.0160568
683.921	0.0159377
683.999	0.0159618
684.078	0.0160523
684.156	0.0158966
684.234	0.0160510
684.312	0.0159543
684.390	0.0161653
684.468	0.0160672
684.546	0.0160149
684.624	0.0159880
684.703	0.0159575
684.781	0.0159430
684.859	0.0160050
684.937	0.0159719
685.015	0.0161278
685.093	0.0159152
685.171	0.0160220
685.249	0.0159408
685.328	0.0159686
685.406	0.0159689
685.484	0.0160033
685.562	0.0159770
685.640	0.0160058
685.718	0.0160902
685.796	0.0160696
685.874	0.0158620
685.953	0.0158179
686.031	0.0160976
686.109	0.0160284
686.187	0.0159235
686.265	0.0159880
686.343	0.0159472
686.421	0.0160466
686.499	0.0158626
686.578	0.0158845
686.656	0.0158981
686.734	0.0160496
686.812	0.0158575
686.890	0.0160030
686.968	0.0159560
687.046	0.0158862
687.124	0.0159135
687.203	0.0159804
687.281	0.0159701
687.359	0.0160303
687.437	0.0160693
687.515	0.0159515
687.593	0.0158943
687.671	0.0159854
687.749	0.0159007
687.828	0.0158073
687.906	0.0159105
687.984	0.0160333
688.062	0.0160148
688.140	0.0159976
688.218	0.0158363
688.296	0.0158366
688.374	0.0157652
688.453	0.0159940
688.531	0.0161070
688.609	0.0160297
688.687	0.0158826
688.765	0.0159147
688.843	0.0158119
688.921	0.0158030
688.999	0.0158338
689.078	0.0159377
689.156	0.0159227
689.234	0.0158967
689.312	0.0158537
689.390	0.0158395
689.468	0.0158028
689.546	0.0158252
689.624	0.0158870
689.703	0.0158915
689.781	0.0159264
689.859	0.0158141
689.937	0.0159870
690.015	0.0159109
690.093	0.0159033
690.171	0.0158227
690.249	0.0159328
690.328	0.0158516
690.406	0.0157627
690.484	0.0158443
690.562	0.0159062
690.640	0.0160056
690.718	0.0159795
690.796	0.0159782
690.874	0.0158585
690.953	0.0158606
691.031	0.0158752
691.109	0.0159113
691.187	0.0159380
691.265	0.0159326
691.343	0.0158965
691.421	0.0158978
691.499	0.0157785
691.578	0.0157713
691.656	0.0158349
691.734	0.0160007
691.812	0.0159821
691.890	0.0158807
691.968	0.0157983
692.046	0.0157868
692.124	0.0158454
692.203	0.0158455
692.281	0.0160016
692.359	0.0159114
692.437	0.0159698
692.515	0.0159671
692.593	0.0158492
692.671	0.0159813
692.749	0.0158890
692.828	0.0159053
692.906	0.0158287
692.984	0.0160004
693.062	0.0160018
693.140	0.0159174
693.218	0.0160275
693.296	0.0159913
693.374	0.0159694
693.453	0.0159033
693.531	0.0160632
693.609	0.0159632
693.687	0.0160122
693.765	0.0160662
693.843	0.0160385
693.921	0.0159898
693.999	0.0161378
694.078	0.0159361
694.156	0.0159824
694.234	0.0160348
694.312	0.0158311
694.390	0.0160267
694.468	0.0162099
694.546	0.0160493
694.624	0.0160010
694.703	0.0160658
694.781	0.0161108
694.859	0.0160379
694.937	0.0161241
695.015	0.0160107
695.093	0.0159153
695.171	0.0159345
695.249	0.0160220
695.328	0.0160980
695.406	0.0159827
695.484	0.0160433
695.562	0.0160278
695.640	0.0161481
695.718	0.0160853
695.796	0.0161134
695.874	0.0161755
695.953	0.0159469
696.031	0.0159277
696.109	0.0160711
696.187	0.0161147
696.265	0.0159231
696.343	0.0159406
696.421	0.0162188
696.499	0.0161940
696.578	0.0161111
696.656	0.0158452
696.734	0.0160539
696.812	0.0160505
696.890	0.0159814
696.968	0.0160262
697.046	0.0161761
697.124	0.0161398
697.203	0.0161478
697.281	0.0160603
697.359	0.0161034
697.437	0.0160947
697.515	0.0160717
697.593	0.0160923
697.671	0.0161271
697.749	0.0160529
697.828	0.0160231
697.906	0.0161103
697.984	0.0161020
698.062	0.0160411
698.140	0.0159847
698.218	0.0161016
698.296	0.0162428
698.374	0.0161018
698.453	0.0161639
698.531	0.0160725
698.609	0.0160540
698.687	0.0161211
698.765	0.0161539
698.843	0.0161032
698.921	0.0160534
698.999	0.0160497
699.078	0.0161436
699.156	0.0161083
699.234	0.0161314
699.312	0.0160518
699.390	0.0160002
699.468	0.0159789
699.546	0.0160902
699.624	0.0161655
699.703	0.0161430
699.781	0.0160701
699.859	0.0159934
699.937	0.0159618
700.015	0.0160344
700.093	0.0159679
700.171	0.0160503
700.249	0.0160220
700.328	0.0159666
700.406	0.0160530
700.484	0.0160852
700.562	0.0159579
700.640	0.0161198
700.718	0.0160463
700.796	0.0161105
700.874	0.0160040
700.953	0.0160142
701.031	0.0160104
701.109	0.0161111
701.187	0.0162383
701.265	0.0160148
701.343	0.0161034
701.421	0.0160631
701.499	0.0160367
701.578	0.0160454
701.656	0.0161168
701.734	0.0162159
701.812	0.0161938
701.890	0.0160666
701.968	0.0159797
702.046	0.0159874
702.124	0.0160850
702.203	0.0161195
702.281	0.0160349
702.359	0.0161576
702.437	0.0161116
702.515	0.0161197
702.593	0.0159842
702.671	0.0160502
702.749	0.0161884
702.828	0.0159235
702.906	0.0160102
702.984	0.0160347
703.062	0.0160265
703.140	0.0160509
703.218	0.0160714
703.296	0.0159637
703.374	0.0161732
703.453	0.0160409
703.531	0.0160979
703.609	0.0159318
703.687	0.0160458
703.765	0.0159460
703.843	0.0159648
703.921	0.0160823
703.999	0.0160194
704.078	0.0159785
704.156	0.0160715
704.234	0.0161646
704.312	0.0160287
704.390	0.0161408
704.468	0.0160947
704.546	0.0158585
704.624	0.0159071
704.703	0.0160394
704.781	0.0161804
704.859	0.0159877
704.937	0.0159908
705.015	0.0159669
705.093	0.0160991
705.171	0.0159959
705.249	0.0159396
705.328	0.0160429
705.406	0.0160304
705.484	0.0160790
705.562	0.0160091
705.640	0.0159821
705.718	0.0160056
705.796	0.0158971
705.874	0.0160094
705.953	0.0160751
706.031	0.0159091
706.109	0.0159216
706.187	0.0159785
706.265	0.0161082
706.343	0.0160722
706.421	0.0159956
706.499	0.0159805
706.578	0.0160146
706.656	0.0160912
706.734	0.0161004
706.812	0.0160622
706.890	0.0158892
706.968	0.0159393
707.046	0.0160098
707.124	0.0159670
707.203	0.0160590
707.281	0.0159251
707.359	0.0160406
707.437	0.0160612
707.515	0.0160185
707.593	0.0160075
707.671	0.0159587
707.749	0.0160286
707.828	0.0161047
707.906	0.0160214
707.984	0.0159780
708.062	0.0160033
708.140	0.0160959
708.218	0.0160588
708.296	0.0158929
708.374	0.0160208
708.453	0.0160458
708.531	0.0160072
708.609	0.0161101
708.687	0.0159626
708.765	0.0161082
708.843	0.0161174
708.921	0.0160061
708.999	0.0161804
709.078	0.0159238
709.156	0.0159074
709.234	0.0159897
709.312	0.0159634
709.390	0.0159001
709.468	0.0160987
709.546	0.0159852
709.624	0.0161064
709.703	0.0160952
709.781	0.0159788
709.859	0.0158857
709.937	0.0158573
710.015	0.0159663
710.093	0.0159139
710.171	0.0159966
710.249	0.0158008
710.328	0.0158618
710.406	0.0159781
710.484	0.0160279
710.562	0.0158770
710.640	0.0159239
710.718	0.0160672
710.796	0.0159326
710.874	0.0158645
710.953	0.0158128
711.031	0.0159101
711.109	0.0159171
711.187	0.0159871
711.265	0.0158453
711.343	0.0159233
711.421	0.0158883
711.499	0.0160724
711.578	0.0159203
711.656	0.0159600
711.734	0.0159830
711.812	0.0159077
711.890	0.0159147
711.968	0.0159477
712.046	0.0158886
712.124	0.0158903
712.203	0.0158423
712.281	0.0159892
712.359	0.0158276
712.437	0.0159544
712.515	0.0158967
712.593	0.0160410
712.671	0.0158417
712.749	0.0158317
712.828	0.0157794
712.906	0.0158345
712.984	0.0159250
713.062	0.0159509
713.140	0.0159376
713.218	0.0157204
713.296	0.0158937
713.374	0.0158630
713.453	0.0158598
713.531	0.0158784
713.609	0.0158791
713.687	0.0158057
713.765	0.0158374
713.843	0.0159324
713.921	0.0159537
713.999	0.0157883
714.078	0.0157745
714.156	0.0156851
714.234	0.0159328
714.312	0.0158202
714.390	0.0159207
714.468	0.0158814
714.546	0.0159288
714.624	0.0158613
714.703	0.0158385
714.781	0.0159480
714.859	0.0158750
714.937	0.0158720
715.015	0.0158479
715.093	0.0159707
715.171	0.0160006
715.249	0.0157536
715.328	0.0159354
715.406	0.0159040
715.484	0.0158207
715.562	0.0159653
715.640	0.0159292
715.718	0.0159726
715.796	0.0159202
715.874	0.0159126
715.953	0.0159940
716.031	0.0159660
716.109	0.0159907
716.187	0.0158658
716.265	0.0158121
716.343	0.0159196
716.421	0.0157693
716.499	0.0158979
716.578	0.0160172
716.656	0.0160094
716.734	0.0158761
716.812	0.0159504
716.890	0.0159986
716.968	0.0158752
717.046	0.0157391
717.124	0.0157969
717.203	0.0158194
717.281	0.0159116
717.359	0.0158220
717.437	0.0160316
717.515	0.0157847
717.593	0.0158953
717.671	0.0158508
717.749	0.0158293
717.828	0.0158286
717.906	0.0157569
717.984	0.0157417
718.062	0.0158852
718.140	0.0158671
718.218	0.0158463
718.296	0.0157389
718.374	0.0160641
718.453	0.0158878
718.531	0.0158395
718.609	0.0158533
718.687	0.0159268
718.765	0.0159028
718.843	0.0159296
718.921	0.0157280
718.999	0.0158624
719.078	0.0159885
719.156	0.0158533
719.234	0.0157849
719.312	0.0159730
719.390	0.0157893
719.468	0.0159103
719.546	0.0159457
719.624	0.0158353
719.703	0.0159063
719.781	0.0158312
719.859	0.0158979
719.937	0.0158633
720.015	0.0158479
720.093	0.0159006
720.171	0.0157665
720.249	0.0157548
720.328	0.0159626
720.406	0.0157511
720.484	0.0158723
720.562	0.0158954
720.640	0.0158139
720.718	0.0158221
720.796	0.0158997
720.874	0.0158611
720.953	0.0158945
721.031	0.0158267
721.109	0.0157199
721.187	0.0158060
721.265	0.0158232
721.343	0.0157552
721.421	0.0157359
721.499	0.0158943
721.578	0.0159334
721.656	0.0157905
721.734	0.0159192
721.812	0.0158638
721.890	0.0157569
721.968	0.0157771
722.046	0.0158117
722.124	0.0158382
722.203	0.0158953
722.281	0.0158272
722.359	0.0158533
722.437	0.0159739
722.515	0.0158974
722.593	0.0157919
722.671	0.0156293
722.749	0.0159301
722.828	0.0157445
722.906	0.0158247
722.984	0.0158551
723.062	0.0157364
723.140	0.0158665
723.218	0.0158500
723.296	0.0157807
723.374	0.0159480
723.453	0.0158835
723.531	0.0158337
723.609	0.0158557
723.687	0.0158798
723.765	0.0159393
723.843	0.0158610
723.921	0.0159135
723.999	0.0160303
724.078	0.0159640
724.156	0.0160523
724.234	0.0160918
724.312	0.0159655
724.390	0.0158823
724.468	0.0159063
724.546	0.0159241
724.624	0.0160193
724.703	0.0160995
724.781	0.0160344
724.859	0.0159559
724.937	0.0161126
725.015	0.0160154
725.093	0.0158862
725.171	0.0160671
725.249	0.0160818
725.328	0.0160097
725.406	0.0159273
725.484	0.0160155
725.562	0.0159883
725.640	0.0161235
725.718	0.0159531
725.796	0.0161581
725.874	0.0160028
725.953	0.0159043
726.031	0.0160222
726.109	0.0160059
726.187	0.0160080
726.265	0.0160149
726.343	0.0159373
726.421	0.0159805
726.499	0.0160361
726.578	0.0160988
726.656	0.0159445
726.734	0.0160357
726.812	0.0158878
726.890	0.0160579
726.968	0.0158747
727.046	0.0159673
727.124	0.0160355
727.203	0.0159315
727.281	0.0160198
727.359	0.0159821
727.437	0.0159995
727.515	0.0161079
727.593	0.0159315
727.671	0.0159174
727.749	0.0160777
727.828	0.0160432
727.906	0.0159845
727.984	0.0160178
728.062	0.0159383
728.140	0.0161051
728.218	0.0159795
728.296	0.0161037
728.374	0.0160584
728.453	0.0160381
728.531	0.0159697
728.609	0.0159602
728.687	0.0158417
728.765	0.0159458
728.843	0.0159791
728.921	0.0159263
728.999	0.0159086
729.078	0.0160503
729.156	0.0160193
729.234	0.0159988
729.312	0.0159063
729.390	0.0158972
729.468	0.0160039
729.546	0.0158366
729.624	0.0158427
729.703	0.0159357
729.781	0.0159513
729.859	0.0159284
729.937	0.0159496
730.015	0.0159267
730.093	0.0159663
730.171	0.0159189
730.249	0.0158838
730.328	0.0159470
730.406	0.0159485
730.484	0.0158704
730.562	0.0159051
730.640	0.0159296
730.718	0.0159354
730.796	0.0158986
730.874	0.0160729
730.953	0.0160243
731.031	0.0159854
731.109	0.0159113
731.187	0.0159108
731.265	0.0159648
731.343	0.0160432
731.421	0.0159891
731.499	0.0160816
731.578	0.0158657
731.656	0.0159138
731.734	0.0159467
731.812	0.0159769
731.890	0.0159387
731.968	0.0160184
732.046	0.0160045
732.124	0.0159391
732.203	0.0160072
732.281	0.0159677
732.359	0.0160227
732.437	0.0159209
732.515	0.0160526
732.593	0.0160065
732.671	0.0159132
732.749	0.0160685
732.828	0.0160057
732.906	0.0161416
732.984	0.0159763
733.062	0.0159915
733.140	0.0159988
733.218	0.0160711
733.296	0.0158772
733.374	0.0160081
733.453	0.0159187
733.531	0.0159979
733.609	0.0159720
733.687	0.0159843
733.765	0.0159180
733.843	0.0158277
733.921	0.0161097
733.999	0.0159987
734.078	0.0158946
734.156	0.0160157
734.234	0.0159627
734.312	0.0160116
734.390	0.0160318
734.468	0.0159496
734.546	0.0159512
734.624	0.0159402
734.703	0.0158525
734.781	0.0159078
734.859	0.0159743
734.937	0.0159414
735.015	0.0160866
735.093	0.0159753
735.171	0.0159680
735.249	0.0159911
735.328	0.0159863
735.406	0.0159350
735.484	0.0159922
735.562	0.0159273
735.640	0.0159403
735.718	0.0158968
735.796	0.0160101
735.874	0.0161025
735.953	0.0161602
736.031	0.0159470
736.109	0.0158919
736.187	0.0160307
736.265	0.0159982
736.343	0.0159226
736.421	0.0159506
736.499	0.0160198
736.578	0.0160226
736.656	0.0160348
736.734	0.0160123
736.812	0.0160133
736.890	0.0159741
736.968	0.0159947
737.046	0.0159120
737.124	0.0157899
737.203	0.0159126
737.281	0.0158030
737.359	0.0158916
737.437	0.0159355
737.515	0.0158459
737.593	0.0156722
737.671	0.0158321
737.749	0.0159986
737.828	0.0159482
737.906	0.0158591
737.984	0.0159405
738.062	0.0159711
738.140	0.0159548
738.218	0.0158910
738.296	0.0159460
738.374	0.0158735
738.453	0.0159350
738.531	0.0160169
738.609	0.0159891
738.687	0.0158628
738.765	0.0159721
738.843	0.0158250
738.921	0.0160394
738.999	0.0159751
739.078	0.0157751
739.156	0.0158575
739.234	0.0159642
739.312	0.0158517
739.390	0.0158118
739.468	0.0158295
739.546	0.0158392
739.624	0.0158035
739.703	0.0159440
739.781	0.0158952
739.859	0.0158157
739.937	0.0157462
740.015	0.0158749
740.093	0.0159338
740.171	0.0158466
740.249	0.0158710
740.328	0.0158552
740.406	0.0157910
740.484	0.0158353
740.562	0.0159505
740.640	0.0158753
740.718	0.0157126
740.796	0.0157866
740.874	0.0159589
740.953	0.0157625
741.031	0.0157549
741.109	0.0158980
741.187	0.0159268
741.265	0.0158858
741.343	0.0159353
741.421	0.0158939
741.499	0.0158241
741.578	0.0157909
741.656	0.0157615
741.734	0.0157133
741.812	0.0158039
741.890	0.0157147
741.968	0.0156252
742.046	0.0158089
742.124	0.0157790
742.203	0.0159535
742.281	0.0158084
742.359	0.0157776
742.437	0.0158825
742.515	0.0158582
742.593	0.0157611
742.671	0.0159978
742.749	0.0158952
742.828	0.0158888
742.906	0.0158603
742.984	0.0160157
743.062	0.0159164
743.140	0.0158825
743.218	0.0158167
743.296	0.0158607
743.374	0.0157947
743.453	0.0158540
743.531	0.0159677
743.609	0.0157101
743.687	0.0158482
743.765	0.0158419
743.843	0.0158487
743.921	0.0157967
743.999	0.0159807
744.078	0.0159621
744.156	0.0160365
744.234	0.0159024
744.312	0.0158411
744.390	0.0158024
744.468	0.0157922
744.546	0.0159486
744.624	0.0160643
744.703	0.0158961
744.781	0.0159191
744.859	0.0159699
744.937	0.0159544
745.015	0.0159823
745.093	0.0159988
745.171	0.0160039
745.249	0.0159767
745.328	0.0158362
745.406	0.0160096
745.484	0.0158775
745.562	0.0158379
745.640	0.0158194
745.718	0.0159863
745.796	0.0158492
745.874	0.0159207
745.953	0.0159624
746.031	0.0158766
746.109	0.0158815
746.187	0.0159682
746.265	0.0159929
746.343	0.0159107
746.421	0.0159733
746.499	0.0158711
746.578	0.0157513
746.656	0.0159311
746.734	0.0160871
746.812	0.0161346
746.890	0.0159633
746.968	0.0159003
747.046	0.0160032
747.124	0.0159967
747.203	0.0160497
747.281	0.0159514
747.359	0.0159875
747.437	0.0159679
747.515	0.0159244
747.593	0.0159555
747.671	0.0159583
747.749	0.0159736
747.828	0.0159975
747.906	0.0158389
747.984	0.0159572
748.062	0.0159026
748.140	0.0158050
748.218	0.0159103
748.296	0.0158738
748.374	0.0158485
748.453	0.0158208
748.531	0.0158879
748.609	0.0157589
748.687	0.0157142
748.765	0.0157268
748.843	0.0157877
748.921	0.0157053
748.999	0.0157771
749.078	0.0159009
749.156	0.0157861
749.234	0.0157279
749.312	0.0158450
749.390	0.0157224
749.468	0.0159336
749.546	0.0159049
749.624	0.0159575
749.703	0.0160301
749.781	0.0158861
749.859	0.0159529
749.937	0.0159570
750.015	0.0159048
750.093	0.0159908
750.171	0.0160869
750.249	0.0160146
750.328	0.0158252
750.406	0.0160706
750.484	0.0159042
750.562	0.0159076
750.640	0.0160037
750.718	0.0157890
750.796	0.0158391
750.874	0.0158223
750.953	0.0158006
751.031	0.0159496
751.109	0.0159931
751.187	0.0159029
751.265	0.0159505
751.343	0.0159592
751.421	0.0160296
751.499	0.0158467
751.578	0.0159372
751.656	0.0159175
751.734	0.0158053
751.812	0.0159769
751.890	0.0159598
751.968	0.0159627
752.046	0.0160857
752.124	0.0160374
752.203	0.0159630
752.281	0.0160725
752.359	0.0159899
752.437	0.0161359
752.515	0.0160226
752.593	0.0160612
752.671	0.0160212
752.749	0.0160530
752.828	0.0160375
752.906	0.0159836
752.984	0.0159400
753.062	0.0159081
753.140	0.0160561
753.218	0.0159792
753.296	0.0159733
753.374	0.0161057
753.453	0.0160215
753.531	0.0161414
753.609	0.0160181
753.687	0.0160947
753.765	0.0160797
753.843	0.0160952
753.921	0.0160309
753.999	0.0160182
754.078	0.0160959
754.156	0.0161458
754.234	0.0162083
754.312	0.0160851
754.390	0.0160325
754.468	0.0160670
754.546	0.0161284
754.624	0.0161362
754.703	0.0160575
754.781	0.0160967
754.859	0.0162157
754.937	0.0161108
755.015	0.0162503
755.093	0.0160852
755.171	0.0162360
755.249	0.0162811
755.328	0.0161796
755.406	0.0161484
755.484	0.0162469
755.562	0.0162907
755.640	0.0162165
755.718	0.0161591
755.796	0.0161485
755.874	0.0161478
755.953	0.0160377
756.031	0.0159492
756.109	0.0160873
756.187	0.0160273
756.265	0.0159025
756.343	0.0160377
756.421	0.0159518
756.499	0.0159457
756.578	0.0160473
756.656	0.0159380
756.734	0.0160843
756.812	0.0161142
756.890	0.0161313
756.968	0.0160818
757.046	0.0161978
757.124	0.0160046
757.203	0.0159273
757.281	0.0160152
757.359	0.0161049
757.437	0.0161321
757.515	0.0161874
757.593	0.0161450
757.671	0.0161358
757.749	0.0160050
757.828	0.0162422
757.906	0.0161806
757.984	0.0162888
758.062	0.0160593
758.140	0.0160909
758.218	0.0161581
758.296	0.0161290
758.374	0.0160829
758.453	0.0162267
758.531	0.0162065
758.609	0.0161648
758.687	0.0161842
758.765	0.0161697
758.843	0.0162558
758.921	0.0160477
758.999	0.0162091
759.078	0.0163029
759.156	0.0161578
759.234	0.0160085
759.312	0.0161457
759.390	0.0161010
759.468	0.0159007
759.546	0.0161292
759.624	0.0159973
759.703	0.0159583
759.781	0.0160066
759.859	0.0161311
759.937	0.0159009
760.015	0.0159454
760.093	0.0160071
760.171	0.0160146
760.249	0.0159892
760.328	0.0161302
760.406	0.0159256
760.484	0.0159565
760.562	0.0159283
760.640	0.0158229
760.718	0.0159915
760.796	0.0160180
760.874	0.0160271
760.953	0.0160532
761.031	0.0159927
761.109	0.0160101
761.187	0.0159335
761.265	0.0160590
761.343	0.0160448
761.421	0.0160397
761.499	0.0160310
761.578	0.0160802
761.656	0.0160527
761.734	0.0160754
761.812	0.0161007
761.890	0.0160229
761.968	0.0160604
762.046	0.0161315
762.124	0.0162398
762.203	0.0161417
762.281	0.0161476
762.359	0.0161210
762.437	0.0160889
762.515	0.0160694
762.593	0.0160314
762.671	0.0161282
762.749	0.0159711
762.828	0.0159766
762.906	0.0159070
762.984	0.0160101
763.062	0.0160681
763.140	0.0159538
763.218	0.0161149
763.296	0.0161589
763.374	0.0159434
763.453	0.0159348
763.531	0.0160710
763.609	0.0161340
763.687	0.0161342
763.765	0.0159464
763.843	0.0159763
763.921	0.0161729
763.999	0.0160355
764.078	0.0161009
764.156	0.0160471
764.234	0.0160201
764.312	0.0161256
764.390	0.0159867
764.468	0.0160213
764.546	0.0161359
764.624	0.0161923
764.703	0.0160739
764.781	0.0160661
764.859	0.0161301
764.937	0.0160831
765.015	0.0161366
765.093	0.0161456
765.171	0.0160815
765.249	0.0161199
765.328	0.0160313
765.406	0.0160088
765.484	0.0161809
765.562	0.0160422
765.640	0.0161590
765.718	0.0160010
765.796	0.0161339
765.874	0.0160416
765.953	0.0159661
766.031	0.0159515
766.109	0.0158664
766.187	0.0159081
766.265	0.0158953
766.343	0.0158573
766.421	0.0158698
766.499	0.0159356
766.578	0.0158639
766.656	0.0160170
766.734	0.0160011
766.812	0.0160758
766.890	0.0161134
766.968	0.0161720
767.046	0.0160744
767.124	0.0162360
767.203	0.0161852
767.281	0.0162578
767.359	0.0161008
767.437	0.0160399
767.515	0.0161474
767.593	0.0161065
767.671	0.0161146
767.749	0.0158543
767.828	0.0158733
767.906	0.0160897
767.984	0.0159948
768.062	0.0159552
768.140	0.0160465
768.218	0.0159853
768.296	0.0160064
768.374	0.0159264
768.453	0.0159255
768.531	0.0159200
768.609	0.0158829
768.687	0.0158686
768.765	0.0159249
768.843	0.0157712
768.921	0.0158327
768.999	0.0157085
769.078	0.0158662
769.156	0.0157333
769.234	0.0158933
769.312	0.0158735
769.390	0.0157787
769.468	0.0157368
769.546	0.0157409
769.624	0.0157725
769.703	0.0158150
769.781	0.0156685
769.859	0.0157735
769.937	0.0157751
770.015	0.0157529
770.093	0.0157488
770.171	0.0158984
770.249	0.0158726
770.328	0.0158614
770.406	0.0158134
770.484	0.0157633
770.562	0.0158646
770.640	0.0159748
770.718	0.0157365
770.796	0.0158667
770.874	0.0160220
770.953	0.0160918
771.031	0.0161250
771.109	0.0160416
771.187	0.0161835
771.265	0.0160185
771.343	0.0163338
771.421	0.0162601
771.499	0.0161624
771.578	0.0161032
771.656	0.0162055
771.734	0.0162103
771.812	0.0160915
771.890	0.0160055
771.968	0.0161282
772.046	0.0159547
772.124	0.0160781
772.203	0.0160410
772.281	0.0160618
772.359	0.0159847
772.437	0.0160603
772.515	0.0159617
772.593	0.0160052
772.671	0.0159139
772.749	0.0160223
772.828	0.0160255
772.906	0.0159704
772.984	0.0160431
773.062	0.0160465
773.140	0.0159752
773.218	0.0159544
773.296	0.0159102
773.374	0.0158585
773.453	0.0158617
773.531	0.0159155
773.609	0.0158320
773.687	0.0158405
773.765	0.0159008
773.843	0.0157754
773.921	0.0157957
773.999	0.0158714
774.078	0.0158821
774.156	0.0158537
774.234	0.0157519
774.312	0.0159354
774.390	0.0159738
774.468	0.0160715
774.546	0.0159233
774.624	0.0159853
774.703	0.0160792
774.781	0.0160126
774.859	0.0160457
774.937	0.0161352
775.015	0.0161045
775.093	0.0161053
775.171	0.0161137
775.249	0.0159032
775.328	0.0161430
775.406	0.0160214
775.484	0.0160214
775.562	0.0158751
775.640	0.0157188
775.718	0.0159872
775.796	0.0158458
775.874	0.0158314
775.953	0.0158774
776.031	0.0157561
776.109	0.0157053
776.187	0.0159152
776.265	0.0158031
776.343	0.0157532
776.421	0.0159428
776.499	0.0159088
776.578	0.0159171
776.656	0.0161017
776.734	0.0160102
776.812	0.0160049
776.890	0.0160821
776.968	0.0159963
777.046	0.0161515
777.124	0.0160750
777.203	0.0161956
777.281	0.0160113
777.359	0.0161706
777.437	0.0160696
777.515	0.0159628
777.593	0.0159503
777.671	0.0161005
777.749	0.0160370
777.828	0.0159942
777.906	0.0158503
777.984	0.0161059
778.062	0.0161026
778.140	0.0159155
778.218	0.0159953
778.296	0.0158846
778.374	0.0159395
778.453	0.0159912
778.531	0.0158745
778.609	0.0158333
778.687	0.0159532
778.765	0.0159197
778.843	0.0159211
778.921	0.0159686
778.999	0.0158085
779.078	0.0157874
779.156	0.0157201
779.234	0.0157343
779.312	0.0157761
779.390	0.0157008
779.468	0.0157589
779.546	0.0157288
779.624	0.0157098
779.703	0.0157585
779.781	0.0158830
779.859	0.0157400
779.937	0.0159036
780.015	0.0158514
780.093	0.0158942
780.171	0.0157993
780.249	0.0160101
780.328	0.0160764
780.406	0.0161020
780.484	0.0161745
780.562	0.0163042
780.640	0.0161501
780.718	0.0162012
780.796	0.0161494
780.874	0.0163133
780.953	0.0162446
781.031	0.0163280
781.109	0.0161263
781.187	0.0160427
781.265	0.0161476
781.343	0.0161600
781.421	0.0161041
781.499	0.0161243
781.578	0.0161044
781.656	0.0160198
781.734	0.0160754
781.812	0.0161299
781.890	0.0161543
781.968	0.0161267
782.046	0.0159541
782.124	0.0161189
782.203	0.0160488
782.281	0.0161486
782.359	0.0160928
782.437	0.0160030
782.515	0.0158627
782.593	0.0159927
782.671	0.0159322
782.749	0.0158778
782.828	0.0159644
782.906	0.0160088
782.984	0.0159526
783.062	0.0159467
783.140	0.0158412
783.218	0.0158296
783.296	0.0158771
783.374	0.0159868
783.453	0.0160234
783.531	0.0158864
783.609	0.0159163
783.687	0.0158450
783.765	0.0159232
783.843	0.0159615
783.921	0.0160275
783.999	0.0159998
784.078	0.0159967
784.156	0.0159627
784.234	0.0161523
784.312	0.0160471
784.390	0.0159849
784.468	0.0160987
784.546	0.0160143
784.624	0.0160062
784.703	0.0160377
784.781	0.0160822
784.859	0.0161623
784.937	0.0159840
785.015	0.0159851
785.093	0.0160448
785.171	0.0158725
785.249	0.0160378
785.328	0.0160393
785.406	0.0159653
785.484	0.0159174
785.562	0.0160330
785.640	0.0161656
785.718	0.0159473
785.796	0.0159615
785.874	0.0161507
785.953	0.0160223
786.031	0.0160756
786.109	0.0160744
786.187	0.0161815
786.265	0.0161578
786.343	0.0161008
786.421	0.0162061
786.499	0.0161710
786.578	0.0161403
786.656	0.0161026
786.734	0.0162074
786.812	0.0160188
786.890	0.0160577
786.968	0.0162239
787.046	0.0162489
787.124	0.0162425
787.203	0.0160842
787.281	0.0161922
787.359	0.0161810
787.437	0.0160066
787.515	0.0161662
787.593	0.0161732
787.671	0.0159041
787.749	0.0159008
787.828	0.0159534
787.906	0.0159509
787.984	0.0159133
788.062	0.0157738
788.140	0.0158189
788.218	0.0158518
788.296	0.0158587
788.374	0.0158195
788.453	0.0159557
788.531	0.0157088
788.609	0.0158249
788.687	0.0158279
788.765	0.0157354
788.843	0.0157983
788.921	0.0157641
788.999	0.0157053
789.078	0.0157495
789.156	0.0159008
789.234	0.0158792
789.312	0.0157921
789.390	0.0158105
789.468	0.0157359
789.546	0.0158427
789.624	0.0158253
789.703	0.0158982
789.781	0.0159174
789.859	0.0160566
789.937	0.0160152
790.015	0.0160952
790.093	0.0160142
790.171	0.0162469
790.249	0.0162157
790.328	0.0164226
790.406	0.0162850
790.484	0.0162878
790.562	0.0162536
790.640	0.0164639
790.718	0.0162508
790.796	0.0162824
790.874	0.0165333
790.953	0.0162765
791.031	0.0162693
791.109	0.0162856
791.187	0.0161852
791.265	0.0161653
791.343	0.0162208
791.421	0.0162476
791.499	0.0160606
791.578	0.0159494
791.656	0.0158862
791.734	0.0159951
791.812	0.0159424
791.890	0.0159302
791.968	0.0158141
792.046	0.0158196
792.124	0.0158416
792.203	0.0158745
792.281	0.0159477
792.359	0.0158566
792.437	0.0156460
792.515	0.0156186
792.593	0.0157938
792.671	0.0156145
792.749	0.0156580
792.828	0.0156239
792.906	0.0156278
792.984	0.0157195
793.062	0.0158273
793.140	0.0156713
793.218	0.0157897
793.296	0.0158384
793.374	0.0158502
793.453	0.0157555
793.531	0.0157687
793.609	0.0158637
793.687	0.0159404
793.765	0.0158683
793.843	0.0159026
793.921	0.0159252
793.999	0.0159849
794.078	0.0159580
794.156	0.0159548
794.234	0.0159586
794.312	0.0160146
794.390	0.0159747
794.468	0.0161023
794.546	0.0161363
794.624	0.0159631
794.703	0.0159845
794.781	0.0160542
794.859	0.0159853
794.937	0.0160897
795.015	0.0161387
795.093	0.0161334
795.171	0.0161128
795.249	0.0162420
795.328	0.0161952
795.406	0.0162544
795.484	0.0164249
795.562	0.0162126
795.640	0.0163212
795.718	0.0162720
795.796	0.0161080
795.874	0.0162098
795.953	0.0162449
796.031	0.0162148
796.109	0.0159442
796.187	0.0158864
796.265	0.0158827
796.343	0.0160132
796.421	0.0160197
796.499	0.0156787
796.578	0.0157595
796.656	0.0157924
796.734	0.0157265
796.812	0.0158610
796.890	0.0157780
796.968	0.0156911
797.046	0.0158550
797.124	0.0157888
797.203	0.0157089
797.281	0.0157832
797.359	0.0156503
797.437	0.0157246
797.515	0.0158141
797.593	0.0158671
797.671	0.0157867
797.749	0.0157642
797.828	0.0156634
797.906	0.0157841
797.984	0.0157357
798.062	0.0158311
798.140	0.0157946
798.218	0.0157959
798.296	0.0160055
798.374	0.0158546
798.453	0.0159769
798.531	0.0160730
798.609	0.0159752
798.687	0.0159480
798.765	0.0160260
798.843	0.0158972
798.921	0.0160183
798.999	0.0160413
799.078	0.0160453
799.156	0.0162070
799.234	0.0159939
799.312	0.0160262
799.390	0.0161181
799.468	0.0158154
799.546	0.0157719
799.624	0.0159229
799.703	0.0159882
799.781	0.0158502
799.859	0.0158072
799.937	0.0158886
800.015	0.0160005
800.093	0.0159031
800.171	0.0158765
800.249	0.0158587
800.328	0.0159560
800.406	0.0160709
800.484	0.0158914
800.562	0.0160256
800.640	0.0158785
800.718	0.0159773
800.796	0.0159248
800.874	0.0158260
800.953	0.0159142
801.031	0.0159586
801.109	0.0158978
801.187	0.0159106
801.265	0.0158838
801.343	0.0159768
801.421	0.0158829
801.499	0.0159344
801.578	0.0158264
801.656	0.0158099
801.734	0.0158190
801.812	0.0157033
801.890	0.0157873
801.968	0.0156415
802.046	0.0157014
802.124	0.0157914
802.203	0.0158682
802.281	0.0156455
802.359	0.0156725
802.437	0.0156256
802.515	0.0155495
802.593	0.0159171
802.671	0.0157272
802.749	0.0156709
802.828	0.0157648
802.906	0.0156700
802.984	0.0157356
803.062	0.0158617
803.140	0.0158761
803.218	0.0157983
803.296	0.0157365
803.374	0.0159158
803.453	0.0159801
803.531	0.0159944
803.609	0.0160123
803.687	0.0159182
803.765	0.0159843
803.843	0.0159116
803.921	0.0160369
803.999	0.0160278
804.078	0.0158736
804.156	0.0161309
804.234	0.0162189
804.312	0.0162081
804.390	0.0161088
804.468	0.0162276
804.546	0.0162553
804.624	0.0161383
804.703	0.0162688
804.781	0.0162506
804.859	0.0162851
804.937	0.0162283
805.015	0.0161627
805.093	0.0161976
805.171	0.0160336
805.249	0.0159292
805.328	0.0160582
805.406	0.0159973
805.484	0.0158844
805.562	0.0157574
805.640	0.0158453
805.718	0.0159216
805.796	0.0158655
805.874	0.0156625
805.953	0.0156392
806.031	0.0156931
806.109	0.0156139
806.187	0.0156047
806.265	0.0155714
806.343	0.0156991
806.421	0.0157284
806.499	0.0156429
806.578	0.0156062
806.656	0.0157603
806.734	0.0158134
806.812	0.0158772
806.890	0.0158742
806.968	0.0158672
807.046	0.0158739
807.124	0.0159906
807.203	0.0158822
807.281	0.0160755
807.359	0.0159971
807.437	0.0159292
807.515	0.0160752
807.593	0.0159504
807.671	0.0160434
807.749	0.0160618
807.828	0.0161092
807.906	0.0161870
807.984	0.0160634
808.062	0.0161072
808.140	0.0161451
808.218	0.0161552
808.296	0.0160081
808.374	0.0161769
808.453	0.0160928
808.531	0.0161115
808.609	0.0161458
808.687	0.0160661
808.765	0.0160210
808.843	0.0160281
808.921	0.0159764
808.999	0.0160136
809.078	0.0159113
809.156	0.0158317
809.234	0.0159011
809.312	0.0160335
809.390	0.0160679
809.468	0.0160089
809.546	0.0159460
809.624	0.0159956
809.703	0.0160809
809.781	0.0159929
809.859	0.0159589
809.937	0.0160671
810.015	0.0159805
810.093	0.0158104
810.171	0.0158821
810.249	0.0160099
810.328	0.0160688
810.406	0.0160853
810.484	0.0158677
810.562	0.0159261
810.640	0.0159528
810.718	0.0155732
810.796	0.0157757
810.874	0.0158896
810.953	0.0157292
811.031	0.0157095
811.109	0.0156557
811.187	0.0156678
811.265	0.0156696
811.343	0.0155836
811.421	0.0156935
811.499	0.0158169
811.578	0.0157543
811.656	0.0159621
811.734	0.0159326
811.812	0.0158922
811.890	0.0159234
811.968	0.0159795
812.046	0.0159148
812.124	0.0159566
812.203	0.0161589
812.281	0.0161397
812.359	0.0160294
812.437	0.0161972
812.515	0.0161439
812.593	0.0160571
812.671	0.0160259
812.749	0.0161091
812.828	0.0160438
812.906	0.0161780
812.984	0.0161595
813.062	0.0160451
813.140	0.0161261
813.218	0.0160918
813.296	0.0161540
813.374	0.0161639
813.453	0.0162019
813.531	0.0162809
813.609	0.0162114
813.687	0.0161835
813.765	0.0162379
813.843	0.0160480
813.921	0.0160615
813.999	0.0160874
814.078	0.0160546
814.156	0.0160162
814.234	0.0160088
814.312	0.0158998
814.390	0.0157835
814.468	0.0158133
814.546	0.0158052
814.624	0.0157341
814.703	0.0157430
814.781	0.0156835
814.859	0.0156114
814.937	0.0157301
815.015	0.0156442
815.093	0.0157080
815.171	0.0155000
815.249	0.0156625
815.328	0.0158445
815.406	0.0157602
815.484	0.0159216
815.562	0.0158686
815.640	0.0159447
815.718	0.0160311
815.796	0.0160962
815.874	0.0160761
815.953	0.0161826
816.031	0.0162285
816.109	0.0162094
816.187	0.0160674
816.265	0.0161913
816.343	0.0161446
816.421	0.0160203
816.499	0.0160959
816.578	0.0161002
816.656	0.0160598
816.734	0.0161182
816.812	0.0159464
816.890	0.0162636
816.968	0.0161996
817.046	0.0160867
817.124	0.0161024
817.203	0.0162331
817.281	0.0161543
817.359	0.0160233
817.437	0.0161526
817.515	0.0160163
817.593	0.0160634
817.671	0.0160046
817.749	0.0160452
817.828	0.0159840
817.906	0.0159337
817.984	0.0159003
818.062	0.0161106
818.140	0.0159625
818.218	0.0159676
818.296	0.0162072
818.374	0.0160589
818.453	0.0159992
818.531	0.0160801
818.609	0.0160517
818.687	0.0158640
818.765	0.0159515
818.843	0.0159262
818.921	0.0161148
818.999	0.0160784
819.078	0.0158467
819.156	0.0159141
819.234	0.0159185
819.312	0.0160437
819.390	0.0161015
819.468	0.0159245
819.546	0.0161231
819.624	0.0159904
819.703	0.0159164
819.781	0.0159091
819.859	0.0160686
819.937	0.0159412
820.015	0.0159808
820.093	0.0160327
820.171	0.0160584
820.249	0.0159845
820.328	0.0159515
820.406	0.0159869
820.484	0.0159179
820.562	0.0158460
820.640	0.0158830
820.718	0.0159830
820.796	0.0158929
820.874	0.0159321
820.953	0.0159892
821.031	0.0160444
821.109	0.0159879
821.187	0.0161116
821.265	0.0160854
821.343	0.0160626
821.421	0.0160693
821.499	0.0159803
821.578	0.0160406
821.656	0.0160252
821.734	0.0160176
821.812	0.0160040
821.890	0.0160571
821.968	0.0161378
822.046	0.0159180
822.124	0.0159990
822.203	0.0160879
822.281	0.0160268
822.359	0.0159236
822.437	0.0159622
822.515	0.0160197
822.593	0.0160469
822.671	0.0159621
822.749	0.0159706
822.828	0.0159023
822.906	0.0160307
822.984	0.0158614
823.062	0.0159196
823.140	0.0158447
823.218	0.0158683
823.296	0.0159364
823.374	0.0159001
823.453	0.0159143
823.531	0.0158411
823.609	0.0158858
823.687	0.0157642
823.765	0.0157613
823.843	0.0157928
823.921	0.0158440
823.999	0.0158034
824.078	0.0156866
824.156	0.0157889
824.234	0.0157649
824.312	0.0156406
824.390	0.0155357
824.468	0.0155829
824.546	0.0158455
824.624	0.0156751
824.703	0.0157397
824.781	0.0158365
824.859	0.0159129
824.937	0.0159007
825.015	0.0158932
825.093	0.0159805
825.171	0.0159787
825.249	0.0160856
825.328	0.0160590
825.406	0.0160969
825.484	0.0160655
825.562	0.0160698
825.640	0.0161284
825.718	0.0160874
825.796	0.0161151
825.874	0.0161002
825.953	0.0161337
826.031	0.0161275
826.109	0.0161448
826.187	0.0160581
826.265	0.0160141
826.343	0.0161652
826.421	0.0159425
826.499	0.0159339
826.578	0.0161248
826.656	0.0160907
826.734	0.0158878
826.812	0.0158925
826.890	0.0160200
826.968	0.0159327
827.046	0.0158514
827.124	0.0158533
827.203	0.0157511
827.281	0.0156425
827.359	0.0157376
827.437	0.0158366
827.515	0.0156252
827.593	0.0157543
827.671	0.0158022
827.749	0.0158878
827.828	0.0157582
827.906	0.0158498
827.984	0.0157727
828.062	0.0157222
828.140	0.0157964
828.218	0.0158852
828.296	0.0157945
828.374	0.0159687
828.453	0.0157898
828.531	0.0157058
828.609	0.0159164
828.687	0.0157332
828.765	0.0159415
828.843	0.0160706
828.921	0.0160107
828.999	0.0160374
829.078	0.0160743
829.156	0.0160117
829.234	0.0161426
829.312	0.0162371
829.390	0.0160394
829.468	0.0161677
829.546	0.0160558
829.624	0.0160312
829.703	0.0161501
829.781	0.0161793
829.859	0.0161665
829.937	0.0161008
830.015	0.0160861
830.093	0.0162053
830.171	0.0162086
830.249	0.0161512
830.328	0.0163334
830.406	0.0162753
830.484	0.0161564
830.562	0.0160331
830.640	0.0161265
830.718	0.0159608
830.796	0.0159296
830.874	0.0159969
830.953	0.0158299
831.031	0.0158243
831.109	0.0159188
831.187	0.0158118
831.265	0.0156910
831.343	0.0159007
831.421	0.0157169
831.499	0.0158083
831.578	0.0157531
831.656	0.0156934
831.734	0.0158102
831.812	0.0158468
831.890	0.0158369
831.968	0.0159296
832.046	0.0158395
832.124	0.0158977
832.203	0.0160279
832.281	0.0161293
832.359	0.0161862
832.437	0.0163522
832.515	0.0163914
832.593	0.0163001
832.671	0.0163561
832.749	0.0164093
832.828	0.0164668
832.906	0.0164413
832.984	0.0164398
833.062	0.0164228
833.140	0.0164492
833.218	0.0163016
833.296	0.0163912
833.374	0.0162699
833.453	0.0161560
833.531	0.0160777
833.609	0.0160751
833.687	0.0159695
833.765	0.0159473
833.843	0.0159824
833.921	0.0158989
833.999	0.0158277
834.078	0.0159560
834.156	0.0158323
834.234	0.0157391
834.312	0.0159465
834.390	0.0158292
834.468	0.0159362
834.546	0.0158627
834.624	0.0158401
834.703	0.0159309
834.781	0.0158751
834.859	0.0159401
834.937	0.0159846
835.015	0.0161424
835.093	0.0160341
835.171	0.0162456
835.249	0.0162290
835.328	0.0161852
835.406	0.0162653
835.484	0.0163114
835.562	0.0163216
835.640	0.0162994
835.718	0.0162903
835.796	0.0163992
835.874	0.0163395
835.953	0.0164176
836.031	0.0161855
836.109	0.0164212
836.187	0.0164497
836.265	0.0163033
836.343	0.0163125
836.421	0.0162080
836.499	0.0163102
836.578	0.0162269
836.656	0.0161781
836.734	0.0160361
836.812	0.0161102
836.890	0.0160550
836.968	0.0160334
837.046	0.0160353
837.124	0.0159986
837.203	0.0158570
837.281	0.0158765
837.359	0.0160579
837.437	0.0159759
837.515	0.0158604
837.593	0.0159293
837.671	0.0158022
837.749	0.0160341
837.828	0.0159241
837.906	0.0158715
837.984	0.0159591
838.062	0.0159492
838.140	0.0159679
838.218	0.0160045
838.296	0.0161667
838.374	0.0160294
838.453	0.0160526
838.531	0.0161422
838.609	0.0160378
838.687	0.0159885
838.765	0.0161323
838.843	0.0160017
838.921	0.0160367
838.999	0.0160806
839.078	0.0160271
839.156	0.0159262
839.234	0.0160111
839.312	0.0160529
839.390	0.0158837
839.468	0.0159135
839.546	0.0158818
839.624	0.0158195
839.703	0.0158347
839.781	0.0159740
839.859	0.0160014
839.937	0.0160281
840.015	0.0159629
840.093	0.0159859
840.171	0.0160097
840.249	0.0160618
840.328	0.0159757
840.406	0.0159616
840.484	0.0161199
840.562	0.0160614
840.640	0.0160812
840.718	0.0160182
840.796	0.0160237
840.874	0.0159990
840.953	0.0160777
841.031	0.0159895
841.109	0.0160270
841.187	0.0159428
841.265	0.0159361
841.343	0.0159991
841.421	0.0160371
841.499	0.0159873
841.578	0.0160434
841.656	0.0158349
841.734	0.0160547
841.812	0.0159435
841.890	0.0158196
841.968	0.0159258
842.046	0.0159380
842.124	0.0157820
842.203	0.0158060
842.281	0.0157851
842.359	0.0158021
842.437	0.0157696
842.515	0.0158145
842.593	0.0157513
842.671	0.0157723
842.749	0.0159340
842.828	0.0158913
842.906	0.0158154
842.984	0.0158369
843.062	0.0159364
843.140	0.0158719
843.218	0.0159167
843.296	0.0160352
843.374	0.0160448
843.453	0.0159538
843.531	0.0160305
843.609	0.0159598
843.687	0.0159972
843.765	0.0161520
843.843	0.0160179
843.921	0.0160364
843.999	0.0159541
844.078	0.0159453
844.156	0.0159560
844.234	0.0159245
844.312	0.0159596
844.390	0.0157983
844.468	0.0158681
844.546	0.0158910
844.624	0.0158393
844.703	0.0158374
844.781	0.0158855
844.859	0.0157505
844.937	0.0158012
845.015	0.0156640
845.093	0.0157912
845.171	0.0157466
845.249	0.0157777
845.328	0.0158926
845.406	0.0157709
845.484	0.0157979
845.562	0.0158612
845.640	0.0157367
845.718	0.0158665
845.796	0.0159207
845.874	0.0157644
845.953	0.0158427
846.031	0.0156918
846.109	0.0159103
846.187	0.0159209
846.265	0.0157884
846.343	0.0157566
846.421	0.0157777
846.499	0.0157990
846.578	0.0157526
846.656	0.0159497
846.734	0.0158833
846.812	0.0158128
846.890	0.0158977
846.968	0.0157813
847.046	0.0158775
847.124	0.0161242
847.203	0.0159801
847.281	0.0159836
847.359	0.0160199
847.437	0.0162189
847.515	0.0162427
847.593	0.0159922
847.671	0.0159608
847.749	0.0161111
847.828	0.0160109
847.906	0.0160173
847.984	0.0159533
848.062	0.0160964
848.140	0.0160751
848.218	0.0159578
848.296	0.0160275
848.374	0.0159854
848.453	0.0160464
848.531	0.0159943
848.609	0.0159641
848.687	0.0160281
848.765	0.0160564
848.843	0.0159439
848.921	0.0159951
848.999	0.0160129
849.078	0.0160352
849.156	0.0161076
849.234	0.0160483
849.312	0.0160120
849.390	0.0160725
849.468	0.0159551
849.546	0.0159644
849.624	0.0160490
849.703	0.0160063
849.781	0.0157951
849.859	0.0159003
849.937	0.0157729
850.015	0.0157175
850.093	0.0156505
850.171	0.0156721
850.249	0.0156631
850.328	0.0157536
850.406	0.0156647
850.484	0.0155830
850.562	0.0157336
850.640	0.0157528
850.718	0.0156915
850.796	0.0157979
850.874	0.0158569
850.953	0.0158727
851.031	0.0158311
851.109	0.0159089
851.187	0.0160214
851.265	0.0160325
851.343	0.0161443
851.421	0.0161143
851.499	0.0160089
851.578	0.0161102
851.656	0.0161208
851.734	0.0162240
851.812	0.0163811
851.890	0.0162162
851.968	0.0162348
852.046	0.0162889
852.124	0.0162480
852.203	0.0162663
852.281	0.0162803
852.359	0.0162211
852.437	0.0161786
852.515	0.0161239
852.593	0.0162601
852.671	0.0160741
852.749	0.0159775
852.828	0.0161285
852.906	0.0159758
852.984	0.0161021
853.062	0.0160572
853.140	0.0159634
853.218	0.0160423
853.296	0.0158286
853.374	0.0157746
853.453	0.0158447
853.531	0.0157644
853.609	0.0158468
853.687	0.0157232
853.765	0.0157088
853.843	0.0157415
853.921	0.0158064
853.999	0.0158089
854.078	0.0156937
854.156	0.0156789
854.234	0.0158115
854.312	0.0157609
854.390	0.0158328
854.468	0.0160635
854.546	0.0159182
854.624	0.0160881
854.703	0.0160086
854.781	0.0161880
854.859	0.0161991
854.937	0.0161121
855.015	0.0160577
855.093	0.0162929
855.171	0.0162155
855.249	0.0162402
855.328	0.0162184
855.406	0.0163766
855.484	0.0162985
855.562	0.0162307
855.640	0.0164542
855.718	0.0161755
855.796	0.0161303
855.874	0.0162586
855.953	0.0162094
856.031	0.0160260
856.109	0.0161738
856.187	0.0160359
856.265	0.0159866
856.343	0.0160515
856.421	0.0159346
856.499	0.0159623
856.578	0.0158895
856.656	0.0159126
856.734	0.0158447
856.812	0.0160188
856.890	0.0158559
856.968	0.0157922
857.046	0.0159166
857.124	0.0159306
857.203	0.0158446
857.281	0.0160159
857.359	0.0158264
857.437	0.0160295
857.515	0.0159465
857.593	0.0159586
857.671	0.0160794
857.749	0.0160284
857.828	0.0159179
857.906	0.0160091
857.984	0.0161999
858.062	0.0161049
858.140	0.0159886
858.218	0.0160621
858.296	0.0160216
858.374	0.0161385
858.453	0.0162154
858.531	0.0162585
858.609	0.0161732
858.687	0.0160664
858.765	0.0161281
858.843	0.0160156
858.921	0.0161956
858.999	0.0160842
859.078	0.0162116
859.156	0.0161462
859.234	0.0160532
859.312	0.0161065
859.390	0.0159371
859.468	0.0160741
859.546	0.0161955
859.624	0.0160712
859.703	0.0160485
859.781	0.0161417
859.859	0.0161248
859.937	0.0161644
860.015	0.0162019
860.093	0.0160938
860.171	0.0160201
860.249	0.0159832
860.328	0.0162719
860.406	0.0162209
860.484	0.0161328
860.562	0.0159455
860.640	0.0159887
860.718	0.0161961
860.796	0.0159975
860.874	0.0158913
860.953	0.0159222
861.031	0.0160359
861.109	0.0160181
861.187	0.0158690
861.265	0.0159253
861.343	0.0160691
861.421	0.0160722
861.499	0.0158649
861.578	0.0158651
861.656	0.0160146
861.734	0.0160072
861.812	0.0158590
861.890	0.0158913
861.968	0.0158398
862.046	0.0159608
862.124	0.0159637
862.203	0.0160196
862.281	0.0160615
862.359	0.0159798
862.437	0.0159307
862.515	0.0161102
862.593	0.0159667
862.671	0.0160606
862.749	0.0161459
862.828	0.0159901
862.906	0.0161054
862.984	0.0159715
863.062	0.0159407
863.140	0.0160056
863.218	0.0159901
863.296	0.0159490
863.374	0.0160059
863.453	0.0160781
863.531	0.0160473
863.609	0.0159013
863.687	0.0158458
863.765	0.0160261
863.843	0.0159244
863.921	0.0158631
863.999	0.0159105
864.078	0.0159288
864.156	0.0159634
864.234	0.0160015
864.312	0.0158994
864.390	0.0158577
864.468	0.0159157
864.546	0.0160165
864.624	0.0160451
864.703	0.0159881
864.781	0.0160663
864.859	0.0161034
864.937	0.0160599
865.015	0.0161014
865.093	0.0160645
865.171	0.0161974
865.249	0.0161368
865.328	0.0160766
865.406	0.0161351
865.484	0.0161088
865.562	0.0160399
865.640	0.0160513
865.718	0.0159606
865.796	0.0158668
865.874	0.0160135
865.953	0.0161651
866.031	0.0159862
866.109	0.0161285
866.187	0.0159192
866.265	0.0160777
866.343	0.0160677
866.421	0.0160223
866.499	0.0159459
866.578	0.0159042
866.656	0.0161749
866.734	0.0159693
866.812	0.0159237
866.890	0.0158831
866.968	0.0160027
867.046	0.0160652
867.124	0.0159278
867.203	0.0159142
867.281	0.0158721
867.359	0.0159507
867.437	0.0159727
867.515	0.0158277
867.593	0.0157841
867.671	0.0158694
867.749	0.0158699
867.828	0.0158041
867.906	0.0158899
867.984	0.0157299
868.062	0.0157887
868.140	0.0158458
868.218	0.0157384
868.296	0.0157584
868.374	0.0157604
868.453	0.0159009
868.531	0.0158218
868.609	0.0157966
868.687	0.0157640
868.765	0.0159136
868.843	0.0157820
868.921	0.0157835
868.999	0.0158263
869.078	0.0159005
869.156	0.0159696
869.234	0.0159954
869.312	0.0159318
869.390	0.0158563
869.468	0.0159835
869.546	0.0160184
869.624	0.0160043
869.703	0.0159375
869.781	0.0160609
869.859	0.0158813
869.937	0.0158122
870.015	0.0159924
870.093	0.0158302
870.171	0.0159528
870.249	0.0158436
870.328	0.0159634
870.406	0.0159644
870.484	0.0158255
870.562	0.0158630
870.640	0.0159352
870.718	0.0158588
870.796	0.0159325
870.874	0.0158150
870.953	0.0157520
871.031	0.0158438
871.109	0.0159888
871.187	0.0157014
871.265	0.0158374
871.343	0.0159737
871.421	0.0157889
871.499	0.0159717
871.578	0.0157516
871.656	0.0158360
871.734	0.0157988
871.812	0.0159217
871.890	0.0157907
871.968	0.0158471
872.046	0.0158508
872.124	0.0159566
872.203	0.0159471
872.281	0.0158021
872.359	0.0157918
872.437	0.0156648
872.515	0.0158341
872.593	0.0157586
872.671	0.0157810
872.749	0.0157780
872.828	0.0157757
872.906	0.0158300
872.984	0.0159299
873.062	0.0156826
873.140	0.0154890
873.218	0.0156358
873.296	0.0157787
873.374	0.0156984
873.453	0.0157774
873.531	0.0158371
873.609	0.0158463
873.687	0.0157423
873.765	0.0158366
873.843	0.0156635
873.921	0.0157994
873.999	0.0160287
874.078	0.0158328
874.156	0.0157285
874.234	0.0158871
874.312	0.0159683
874.390	0.0159502
874.468	0.0159526
874.546	0.0160268
874.624	0.0161148
874.703	0.0160529
874.781	0.0159454
874.859	0.0161156
874.937	0.0161911
875.015	0.0161906
875.093	0.0161070
875.171	0.0160812
875.249	0.0159452
875.328	0.0160764
875.406	0.0161154
875.484	0.0160119
875.562	0.0160818
875.640	0.0159921
875.718	0.0159569
875.796	0.0158527
875.874	0.0159280
875.953	0.0157796
876.031	0.0157649
876.109	0.0158860
876.187	0.0158202
876.265	0.0158168
876.343	0.0157188
876.421	0.0156451
876.499	0.0156657
876.578	0.0157367
876.656	0.0157211
876.734	0.0157700
876.812	0.0158871
876.890	0.0158261
876.968	0.0156934
877.046	0.0159056
877.124	0.0158470
877.203	0.0157624
877.281	0.0159763
877.359	0.0159843
877.437	0.0160314
877.515	0.0160020
877.593	0.0160172
877.671	0.0160497
877.749	0.0161004
877.828	0.0161330
877.906	0.0160214
877.984	0.0158878
878.062	0.0159670
878.140	0.0161168
878.218	0.0159341
878.296	0.0160711
878.374	0.0161028
878.453	0.0160419
878.531	0.0159660
878.609	0.0162221
878.687	0.0161076
878.765	0.0160426
878.843	0.0160747
878.921	0.0160056
878.999	0.0159866
879.078	0.0161111
879.156	0.0159929
879.234	0.0159916
879.312	0.0160349
879.390	0.0161548
879.468	0.0161575
879.546	0.0160230
879.624	0.0160069
879.703	0.0159323
879.781	0.0159064
879.859	0.0159959
879.937	0.0159855
880.015	0.0159380
880.093	0.0161178
880.171	0.0160143
880.249	0.0159207
880.328	0.0159791
880.406	0.0159593
880.484	0.0160233
880.562	0.0159835
880.640	0.0159162
880.718	0.0159706
880.796	0.0159805
880.874	0.0157483
880.953	0.0159056
881.031	0.0159777
881.109	0.0158235
881.187	0.0159225
881.265	0.0159557
881.343	0.0159039
881.421	0.0160110
881.499	0.0160239
881.578	0.0159730
881.656	0.0159355
881.734	0.0161302
881.812	0.0160954
881.890	0.0160232
881.968	0.0159832
882.046	0.0160435
882.124	0.0161726
882.203	0.0161178
882.281	0.0160044
882.359	0.0160840
882.437	0.0161760
882.515	0.0160839
882.593	0.0161200
882.671	0.0163103
882.749	0.0161631
882.828	0.0161500
882.906	0.0162425
882.984	0.0161356
883.062	0.0161470
883.140	0.0160675
883.218	0.0161035
883.296	0.0161047
883.374	0.0160755
883.453	0.0160184
883.531	0.0159525
883.609	0.0162166
883.687	0.0160206
883.765	0.0160915
883.843	0.0159068
883.921	0.0158819
883.999	0.0159781
884.078	0.0159139
884.156	0.0158305
884.234	0.0159729
884.312	0.0160614
884.390	0.0159515
884.468	0.0159755
884.546	0.0159269
884.624	0.0158166
884.703	0.0159507
884.781	0.0158378
884.859	0.0158704
884.937	0.0158739
885.015	0.0158939
885.093	0.0159551
885.171	0.0158376
885.249	0.0158350
885.328	0.0159898
885.406	0.0160349
885.484	0.0159726
885.562	0.0158386
885.640	0.0158092
885.718	0.0158907
885.796	0.0158698
885.874	0.0160635
885.953	0.0159561
886.031	0.0159809
886.109	0.0159904
886.187	0.0159634
886.265	0.0160280
886.343	0.0159238
886.421	0.0159763
886.499	0.0158660
886.578	0.0159219
886.656	0.0160050
886.734	0.0161388
886.812	0.0159576
886.890	0.0160172
886.968	0.0160317
887.046	0.0160384
887.124	0.0158819
887.203	0.0160066
887.281	0.0159550
887.359	0.0159850
887.437	0.0158390
887.515	0.0159402
887.593	0.0159095
887.671	0.0159505
887.749	0.0159504
887.828	0.0158089
887.906	0.0158096
887.984	0.0157761
888.062	0.0157957
888.140	0.0158865
888.218	0.0158492
888.296	0.0159370
888.374	0.0158805
888.453	0.0158962
888.531	0.0160439
888.609	0.0158033
888.687	0.0159112
888.765	0.0159431
888.843	0.0157500
888.921	0.0159597
888.999	0.0160661
889.078	0.0159827
889.156	0.0160178
889.234	0.0160241
889.312	0.0159937
889.390	0.0159568
889.468	0.0158980
889.546	0.0160218
889.624	0.0159793
889.703	0.0160370
889.781	0.0160107
889.859	0.0158909
889.937	0.0158937
890.015	0.0159121
890.093	0.0158038
890.171	0.0157047
890.249	0.0157927
890.328	0.0158944
890.406	0.0158704
890.484	0.0159808
890.562	0.0159463
890.640	0.0157646
890.718	0.0158253
890.796	0.0160529
890.874	0.0159330
890.953	0.0159343
891.031	0.0160158
891.109	0.0160365
891.187	0.0160499
891.265	0.0160024
891.343	0.0159505
891.421	0.0158768
891.499	0.0161269
891.578	0.0159294
891.656	0.0158843
891.734	0.0159071
891.812	0.0157848
891.890	0.0159862
891.968	0.0159912
892.046	0.0160770
892.124	0.0159907
892.203	0.0161673
892.281	0.0159929
892.359	0.0161433
892.437	0.0160759
892.515	0.0160650
892.593	0.0160190
892.671	0.0160911
892.749	0.0159731
892.828	0.0161854
892.906	0.0159434
892.984	0.0160686
893.062	0.0161214
893.140	0.0159243
893.218	0.0159825
893.296	0.0160696
893.374	0.0160793
893.453	0.0159934
893.531	0.0159348
893.609	0.0158809
893.687	0.0159381
893.765	0.0158691
893.843	0.0159538
893.921	0.0159029
893.999	0.0158382
894.078	0.0158713
894.156	0.0158308
894.234	0.0159346
894.312	0.0158912
894.390	0.0158974
894.468	0.0159114
894.546	0.0159274
894.624	0.0158608
894.703	0.0159985
894.781	0.0158733
894.859	0.0160491
894.937	0.0160648
895.015	0.0159547
895.093	0.0160985
895.171	0.0159272
895.249	0.0158830
895.328	0.0158224
895.406	0.0158928
895.484	0.0159782
895.562	0.0159444
895.640	0.0159262
895.718	0.0159144
895.796	0.0159670
895.874	0.0159818
895.953	0.0157270
896.031	0.0158221
896.109	0.0159332
896.187	0.0159514
896.265	0.0159689
896.343	0.0158935
896.421	0.0159330
896.499	0.0158662
896.578	0.0158872
896.656	0.0160840
896.734	0.0160237
896.812	0.0160794
896.890	0.0159544
896.968	0.0161306
897.046	0.0159725
897.124	0.0158450
897.203	0.0159164
897.281	0.0160480
897.359	0.0160587
897.437	0.0159800
897.515	0.0159658
897.593	0.0160260
897.671	0.0157845
897.749	0.0158459
897.828	0.0160070
897.906	0.0159397
897.984	0.0159251
898.062	0.0158596
898.140	0.0158647
898.218	0.0159661
898.296	0.0158843
898.374	0.0158717
898.453	0.0159719
898.531	0.0160023
898.609	0.0159656
898.687	0.0159522
898.765	0.0158868
898.843	0.0159482
898.921	0.0160043
898.999	0.0158765
899.078	0.0160091
899.156	0.0159419
899.234	0.0160468
899.312	0.0158122
899.390	0.0159049
899.468	0.0161771
899.546	0.0159739
899.624	0.0159938
899.703	0.0160293
899.781	0.0160239
899.859	0.0160175
899.937	0.0160783
900.015	0.0158897
900.093	0.0159563
900.171	0.0159467
900.249	0.0160213
900.328	0.0158678
900.406	0.0160572
900.484	0.0159751
900.562	0.0159271
900.640	0.0158678
900.718	0.0159887
900.796	0.0158080
900.874	0.0159090
900.953	0.0159360
901.031	0.0158652
901.109	0.0159467
901.187	0.0159402
901.265	0.0158739
901.343	0.0160342
901.421	0.0160231
901.499	0.0161491
901.578	0.0159557
901.656	0.0160986
901.734	0.0161773
901.812	0.0159779
901.890	0.0159192
901.968	0.0159175
902.046	0.0160410
902.124	0.0160772
902.203	0.0159695
902.281	0.0159880
902.359	0.0160879
902.437	0.0158823
902.515	0.0159040
902.593	0.0160519
902.671	0.0158810
902.749	0.0159692
902.828	0.0160120
902.906	0.0158711
902.984	0.0158343
903.062	0.0160065
903.140	0.0158535
903.218	0.0159172
903.296	0.0159090
903.374	0.0159192
903.453	0.0157648
903.531	0.0157236
903.609	0.0159684
903.687	0.0159244
903.765	0.0158401
903.843	0.0158865
903.921	0.0159192
903.999	0.0159142
904.078	0.0159611
904.156	0.0159664
904.234	0.0159789
904.312	0.0160722
904.390	0.0160765
904.468	0.0160934
904.546	0.0160960
904.624	0.0160976
904.703	0.0161031
904.781	0.0162871
904.859	0.0161120
904.937	0.0161858
905.015	0.0160711
905.093	0.0161773
905.171	0.0161842
905.249	0.0163483
905.328	0.0162305
905.406	0.0161615
905.484	0.0163248
905.562	0.0160810
905.640	0.0159651
905.718	0.0161679
905.796	0.0161313
905.874	0.0161295
905.953	0.0160963
906.031	0.0160742
906.109	0.0160637
906.187	0.0160373
906.265	0.0160577
906.343	0.0159586
906.421	0.0160487
906.499	0.0160858
906.578	0.0159571
906.656	0.0159991
906.734	0.0159538
906.812	0.0159788
906.890	0.0159008
906.968	0.0159369
907.046	0.0160228
907.124	0.0159907
907.203	0.0159216
907.281	0.0159447
907.359	0.0159574
907.437	0.0158861
907.515	0.0159405
907.593	0.0160883
907.671	0.0160784
907.749	0.0159630
907.828	0.0159090
907.906	0.0161466
907.984	0.0160369
908.062	0.0159503
908.140	0.0160159
908.218	0.0160688
908.296	0.0160596
908.374	0.0159297
908.453	0.0159541
908.531	0.0161131
908.609	0.0160542
908.687	0.0159364
908.765	0.0160251
908.843	0.0159089
908.921	0.0159412
908.999	0.0161008
909.078	0.0159369
909.156	0.0158532
909.234	0.0159225
909.312	0.0159203
909.390	0.0158461
909.468	0.0160248
909.546	0.0160585
909.624	0.0159228
909.703	0.0159746
909.781	0.0160042
909.859	0.0160447
909.937	0.0158087
910.015	0.0158875
910.093	0.0159418
910.171	0.0159348
910.249	0.0159800
910.328	0.0158970
910.406	0.0161043
910.484	0.0159505
910.562	0.0157691
910.640	0.0160011
910.718	0.0161033
910.796	0.0159415
910.874	0.0159263
910.953	0.0158959
911.031	0.0159875
911.109	0.0159859
911.187	0.0159447
911.265	0.0157755
911.343	0.0159446
911.421	0.0159171
911.499	0.0158021
911.578	0.0159370
911.656	0.0159782
911.734	0.0158659
911.812	0.0158787
911.890	0.0157940
911.968	0.0158147
912.046	0.0158271
912.124	0.0158463
912.203	0.0159453
912.281	0.0159000
912.359	0.0158657
912.437	0.0158430
912.515	0.0159375
912.593	0.0158614
912.671	0.0160057
912.749	0.0158671
912.828	0.0159197
912.906	0.0160388
912.984	0.0160298
913.062	0.0160792
913.140	0.0160406
913.218	0.0159895
913.296	0.0159198
913.374	0.0159819
913.453	0.0160052
913.531	0.0160412
913.609	0.0159909
913.687	0.0161331
913.765	0.0161452
913.843	0.0160473
913.921	0.0161090
913.999	0.0160551
914.078	0.0159844
914.156	0.0159775
914.234	0.0159148
914.312	0.0159093
914.390	0.0160693
914.468	0.0160645
914.546	0.0160632
914.624	0.0161417
914.703	0.0159290
914.781	0.0159763
914.859	0.0159466
914.937	0.0160995
915.015	0.0160950
915.093	0.0161374
915.171	0.0160789
915.249	0.0159698
915.328	0.0160307
915.406	0.0160340
915.484	0.0158972
915.562	0.0158424
915.640	0.0159914
915.718	0.0157733
915.796	0.0159949
915.874	0.0159278
915.953	0.0160835
916.031	0.0159501
916.109	0.0159180
916.187	0.0158823
916.265	0.0159258
916.343	0.0159531
916.421	0.0159779
916.499	0.0159563
916.578	0.0159754
916.656	0.0159859
916.734	0.0159163
916.812	0.0159211
916.890	0.0159534
916.968	0.0158860
917.046	0.0160119
917.124	0.0158784
917.203	0.0160625
917.281	0.0159415
917.359	0.0160175
917.437	0.0159405
917.515	0.0159344
917.593	0.0158260
917.671	0.0157659
917.749	0.0158295
917.828	0.0159030
917.906	0.0160146
917.984	0.0158813
918.062	0.0157718
918.140	0.0159647
918.218	0.0158109
918.296	0.0157950
918.374	0.0158345
918.453	0.0159679
918.531	0.0159153
918.609	0.0158521
918.687	0.0159586
918.765	0.0159263
918.843	0.0158277
918.921	0.0159040
918.999	0.0160885
919.078	0.0159913
919.156	0.0157847
919.234	0.0158327
919.312	0.0157931
919.390	0.0159883
919.468	0.0159264
919.546	0.0157674
919.624	0.0158472
919.703	0.0158001
919.781	0.0157457
919.859	0.0159816
919.937	0.0158305
