06/10/2022	18:27:19	Ver.	4.1	UNKNOWN
Optical Delay	600.015094	Delta X		0.078125	Sweeps	1	Scan Rate	0/0
Coordinates	Axis 1	NaN	Axis 2	NaN	Axis 3	NaN	Axis 4	NaN	Axis 5	NaN	Axis 6	0.000000
TX Power	0.000000	RX Power	0.000000

600.015	0.0161630
600.093	0.0160907
600.171	0.0162170
600.249	0.0161745
600.328	0.0160822
600.406	0.0160607
600.484	0.0161289
600.562	0.0161700
600.640	0.0161729
600.718	0.0162321
600.796	0.0161580
600.874	0.0161352
600.953	0.0162218
601.031	0.0160834
601.109	0.0161933
601.187	0.0162324
601.265	0.0161333
601.343	0.0161467
601.421	0.0161740
601.499	0.0162660
601.578	0.0162292
601.656	0.0162370
601.734	0.0161584
601.812	0.0162083
601.890	0.0161768
601.968	0.0162159
602.046	0.0162142
602.124	0.0161927
602.203	0.0161823
602.281	0.0161121
602.359	0.0161113
602.437	0.0162288
602.515	0.0163756
602.593	0.0163426
602.671	0.0161310
602.749	0.0162801
602.828	0.0160767
602.906	0.0161354
602.984	0.0160269
603.062	0.0161276
603.140	0.0160538
603.218	0.0160907
603.296	0.0162573
603.374	0.0162085
603.453	0.0162356
603.531	0.0161946
603.609	0.0161996
603.687	0.0161665
603.765	0.0162593
603.843	0.0162261
603.921	0.0161411
603.999	0.0161520
604.078	0.0160457
604.156	0.0161159
604.234	0.0161879
604.312	0.0161067
604.390	0.0161314
604.468	0.0162411
604.546	0.0160452
604.624	0.0161406
604.703	0.0161520
604.781	0.0162530
604.859	0.0161508
604.937	0.0161819
605.015	0.0159667
605.093	0.0160410
605.171	0.0161869
605.249	0.0161724
605.328	0.0161295
605.406	0.0161514
605.484	0.0160733
605.562	0.0159166
605.640	0.0161640
605.718	0.0161111
605.796	0.0162578
605.874	0.0161667
605.953	0.0161235
606.031	0.0160704
606.109	0.0160573
606.187	0.0161612
606.265	0.0161923
606.343	0.0162082
606.421	0.0162688
606.499	0.0160936
606.578	0.0160491
606.656	0.0161694
606.734	0.0162282
606.812	0.0161967
606.890	0.0161191
606.968	0.0161263
607.046	0.0161194
607.124	0.0161348
607.203	0.0161262
607.281	0.0161320
607.359	0.0161700
607.437	0.0160775
607.515	0.0160090
607.593	0.0162565
607.671	0.0161160
607.749	0.0161829
607.828	0.0161205
607.906	0.0161473
607.984	0.0161282
608.062	0.0159519
608.140	0.0160893
608.218	0.0162179
608.296	0.0162713
608.374	0.0159697
608.453	0.0161832
608.531	0.0162318
608.609	0.0161691
608.687	0.0162594
608.765	0.0161137
608.843	0.0161047
608.921	0.0161880
608.999	0.0163218
609.078	0.0163268
609.156	0.0160938
609.234	0.0162128
609.312	0.0162879
609.390	0.0161284
609.468	0.0160908
609.546	0.0161626
609.624	0.0162529
609.703	0.0162579
609.781	0.0161172
609.859	0.0163058
609.937	0.0162404
610.015	0.0160349
610.093	0.0162176
610.171	0.0163678
610.249	0.0162666
610.328	0.0161733
610.406	0.0161305
610.484	0.0161365
610.562	0.0162089
610.640	0.0160403
610.718	0.0161412
610.796	0.0162503
610.874	0.0161418
610.953	0.0162450
611.031	0.0162175
611.109	0.0161271
611.187	0.0161250
611.265	0.0161687
611.343	0.0161851
611.421	0.0162032
611.499	0.0162413
611.578	0.0162026
611.656	0.0162749
611.734	0.0162139
611.812	0.0161629
611.890	0.0162280
611.968	0.0162006
612.046	0.0161487
612.124	0.0162624
612.203	0.0162877
612.281	0.0162242
612.359	0.0162015
612.437	0.0161381
612.515	0.0161154
612.593	0.0162548
612.671	0.0160564
612.749	0.0161302
612.828	0.0162346
612.906	0.0162292
612.984	0.0161925
613.062	0.0162316
613.140	0.0162963
613.218	0.0162297
613.296	0.0161111
613.374	0.0162828
613.453	0.0163737
613.531	0.0161962
613.609	0.0161862
613.687	0.0163725
613.765	0.0161767
613.843	0.0161488
613.921	0.0161760
613.999	0.0161197
614.078	0.0161415
614.156	0.0162045
614.234	0.0161271
614.312	0.0161549
614.390	0.0162134
614.468	0.0161273
614.546	0.0161161
614.624	0.0162052
614.703	0.0161204
614.781	0.0161869
614.859	0.0162400
614.937	0.0162326
615.015	0.0162021
615.093	0.0160611
615.171	0.0162419
615.249	0.0161549
615.328	0.0162144
615.406	0.0162952
615.484	0.0162052
615.562	0.0162790
615.640	0.0161844
615.718	0.0161154
615.796	0.0163111
615.874	0.0161494
615.953	0.0160652
616.031	0.0162413
616.109	0.0163218
616.187	0.0161638
616.265	0.0162206
616.343	0.0163018
616.421	0.0162639
616.499	0.0163692
616.578	0.0160935
616.656	0.0161228
616.734	0.0161911
616.812	0.0161800
616.890	0.0162435
616.968	0.0162128
617.046	0.0160978
617.124	0.0162234
617.203	0.0162860
617.281	0.0162992
617.359	0.0161555
617.437	0.0163315
617.515	0.0161722
617.593	0.0161307
617.671	0.0162228
617.749	0.0163871
617.828	0.0162417
617.906	0.0162363
617.984	0.0161622
618.062	0.0161533
618.140	0.0160689
618.218	0.0162914
618.296	0.0161848
618.374	0.0163160
618.453	0.0160723
618.531	0.0161686
618.609	0.0162865
618.687	0.0161704
618.765	0.0161168
618.843	0.0162280
618.921	0.0162132
618.999	0.0162318
619.078	0.0161104
619.156	0.0162653
619.234	0.0161726
619.312	0.0161945
619.390	0.0162489
619.468	0.0161404
619.546	0.0162939
619.624	0.0161773
619.703	0.0162008
619.781	0.0162373
619.859	0.0163702
619.937	0.0161946
620.015	0.0161557
620.093	0.0161169
620.171	0.0162574
620.249	0.0163171
620.328	0.0161858
620.406	0.0162451
620.484	0.0161672
620.562	0.0160842
620.640	0.0162804
620.718	0.0162603
620.796	0.0161422
620.874	0.0159858
620.953	0.0162119
621.031	0.0161287
621.109	0.0160783
621.187	0.0161276
621.265	0.0160664
621.343	0.0162078
621.421	0.0162093
621.499	0.0161935
621.578	0.0162148
621.656	0.0161834
621.734	0.0161788
621.812	0.0161655
621.890	0.0161364
621.968	0.0163006
622.046	0.0162698
622.124	0.0160591
622.203	0.0162347
622.281	0.0163255
622.359	0.0162276
622.437	0.0162063
622.515	0.0162017
622.593	0.0162096
622.671	0.0162830
622.749	0.0161570
622.828	0.0162019
622.906	0.0161494
622.984	0.0162695
623.062	0.0163074
623.140	0.0161918
623.218	0.0162521
623.296	0.0163552
623.374	0.0162761
623.453	0.0161721
623.531	0.0162299
623.609	0.0163020
623.687	0.0162511
623.765	0.0162998
623.843	0.0161749
623.921	0.0162118
623.999	0.0161938
624.078	0.0162478
624.156	0.0161927
624.234	0.0161082
624.312	0.0162132
624.390	0.0162603
624.468	0.0161135
624.546	0.0160841
624.624	0.0162976
624.703	0.0163048
624.781	0.0162384
624.859	0.0163104
624.937	0.0162080
625.015	0.0161120
625.093	0.0162978
625.171	0.0162048
625.249	0.0162634
625.328	0.0162117
625.406	0.0163737
625.484	0.0162337
625.562	0.0163404
625.640	0.0161886
625.718	0.0162352
625.796	0.0162233
625.874	0.0161909
625.953	0.0160955
626.031	0.0162041
626.109	0.0160635
626.187	0.0161806
626.265	0.0163118
626.343	0.0161176
626.421	0.0160978
626.499	0.0161188
626.578	0.0161605
626.656	0.0162171
626.734	0.0162323
626.812	0.0163296
626.890	0.0162939
626.968	0.0161257
627.046	0.0161295
627.124	0.0161794
627.203	0.0160775
627.281	0.0162479
627.359	0.0162171
627.437	0.0161856
627.515	0.0161613
627.593	0.0162511
627.671	0.0161385
627.749	0.0162199
627.828	0.0162316
627.906	0.0161758
627.984	0.0160139
628.062	0.0161459
628.140	0.0160859
628.218	0.0161992
628.296	0.0161539
628.374	0.0162184
628.453	0.0161858
628.531	0.0162236
628.609	0.0160923
628.687	0.0161364
628.765	0.0162772
628.843	0.0161032
628.921	0.0161802
628.999	0.0160897
629.078	0.0161571
629.156	0.0162165
629.234	0.0161092
629.312	0.0162727
629.390	0.0162252
629.468	0.0161583
629.546	0.0161788
629.624	0.0161819
629.703	0.0162374
629.781	0.0160497
629.859	0.0161060
629.937	0.0160712
630.015	0.0162620
630.093	0.0162401
630.171	0.0162288
630.249	0.0161997
630.328	0.0161999
630.406	0.0161653
630.484	0.0161547
630.562	0.0161760
630.640	0.0163029
630.718	0.0161875
630.796	0.0160877
630.874	0.0162368
630.953	0.0161653
631.031	0.0162015
631.109	0.0162095
631.187	0.0162402
631.265	0.0161816
631.343	0.0161852
631.421	0.0160770
631.499	0.0161850
631.578	0.0161491
631.656	0.0161755
631.734	0.0161494
631.812	0.0162263
631.890	0.0161127
631.968	0.0161251
632.046	0.0161665
632.124	0.0161719
632.203	0.0162095
632.281	0.0161871
632.359	0.0162643
632.437	0.0161913
632.515	0.0162749
632.593	0.0161998
632.671	0.0161343
632.749	0.0162037
632.828	0.0161918
632.906	0.0162067
632.984	0.0161686
633.062	0.0162103
633.140	0.0162351
633.218	0.0162355
633.296	0.0161758
633.374	0.0161822
633.453	0.0160821
633.531	0.0163927
633.609	0.0162050
633.687	0.0161344
633.765	0.0161626
633.843	0.0161131
633.921	0.0163154
633.999	0.0162853
634.078	0.0161137
634.156	0.0160938
634.234	0.0160595
634.312	0.0162317
634.390	0.0161145
634.468	0.0161971
634.546	0.0162959
634.624	0.0161588
634.703	0.0161789
634.781	0.0161952
634.859	0.0162779
634.937	0.0161811
635.015	0.0161090
635.093	0.0162048
635.171	0.0162104
635.249	0.0161234
635.328	0.0160566
635.406	0.0161172
635.484	0.0161603
635.562	0.0161274
635.640	0.0161576
635.718	0.0162270
635.796	0.0162057
635.874	0.0161125
635.953	0.0163425
636.031	0.0161330
636.109	0.0161972
636.187	0.0162627
636.265	0.0161715
636.343	0.0162254
636.421	0.0162019
636.499	0.0161332
636.578	0.0162131
636.656	0.0162600
636.734	0.0161408
636.812	0.0162214
636.890	0.0163646
636.968	0.0161395
637.046	0.0162183
637.124	0.0162894
637.203	0.0160860
637.281	0.0160709
637.359	0.0162297
637.437	0.0162550
637.515	0.0161730
637.593	0.0161726
637.671	0.0160617
637.749	0.0161449
637.828	0.0161138
637.906	0.0161047
637.984	0.0162144
638.062	0.0162209
638.140	0.0161125
638.218	0.0161554
638.296	0.0161156
638.374	0.0161658
638.453	0.0162353
638.531	0.0161301
638.609	0.0160343
638.687	0.0162168
638.765	0.0162871
638.843	0.0161496
638.921	0.0160850
638.999	0.0163252
639.078	0.0161222
639.156	0.0161668
639.234	0.0160831
639.312	0.0161998
639.390	0.0161959
639.468	0.0162526
639.546	0.0161328
639.624	0.0162818
639.703	0.0162348
639.781	0.0162437
639.859	0.0163031
639.937	0.0161536
640.015	0.0161501
640.093	0.0162615
640.171	0.0161395
640.249	0.0161668
640.328	0.0162318
640.406	0.0161962
640.484	0.0161482
640.562	0.0161530
640.640	0.0161265
640.718	0.0161280
640.796	0.0162246
640.874	0.0161378
640.953	0.0162365
641.031	0.0161883
641.109	0.0163212
641.187	0.0161602
641.265	0.0160907
641.343	0.0162718
641.421	0.0162660
641.499	0.0160676
641.578	0.0161909
641.656	0.0161724
641.734	0.0161481
641.812	0.0162102
641.890	0.0163158
641.968	0.0162173
642.046	0.0161344
642.124	0.0162051
642.203	0.0162671
642.281	0.0161354
642.359	0.0161922
642.437	0.0160430
642.515	0.0161471
642.593	0.0161568
642.671	0.0160710
642.749	0.0163055
642.828	0.0162051
642.906	0.0160799
642.984	0.0160740
643.062	0.0163518
643.140	0.0161727
643.218	0.0161340
643.296	0.0162955
643.374	0.0161825
643.453	0.0161480
643.531	0.0161728
643.609	0.0162066
643.687	0.0161170
643.765	0.0160767
643.843	0.0161279
643.921	0.0161047
643.999	0.0161677
644.078	0.0160704
644.156	0.0160873
644.234	0.0161662
644.312	0.0162077
644.390	0.0161010
644.468	0.0160014
644.546	0.0161572
644.624	0.0162596
644.703	0.0160278
644.781	0.0160711
644.859	0.0161212
644.937	0.0161617
645.015	0.0162196
645.093	0.0162669
645.171	0.0161396
645.249	0.0162222
645.328	0.0161807
645.406	0.0161983
645.484	0.0161800
645.562	0.0162436
645.640	0.0160896
645.718	0.0160447
645.796	0.0162238
645.874	0.0162152
645.953	0.0161423
646.031	0.0161085
646.109	0.0161813
646.187	0.0162761
646.265	0.0161776
646.343	0.0161247
646.421	0.0162178
646.499	0.0162122
646.578	0.0163059
646.656	0.0162385
646.734	0.0161958
646.812	0.0162066
646.890	0.0161514
646.968	0.0162507
647.046	0.0161444
647.124	0.0162694
647.203	0.0162167
647.281	0.0161115
647.359	0.0160831
647.437	0.0161140
647.515	0.0163364
647.593	0.0162282
647.671	0.0161333
647.749	0.0160748
647.828	0.0162054
647.906	0.0162148
647.984	0.0161446
648.062	0.0161580
648.140	0.0161942
648.218	0.0162459
648.296	0.0161832
648.374	0.0160995
648.453	0.0161092
648.531	0.0161342
648.609	0.0161574
648.687	0.0162096
648.765	0.0164346
648.843	0.0162060
648.921	0.0161406
648.999	0.0163567
649.078	0.0161797
649.156	0.0161210
649.234	0.0162016
649.312	0.0161198
649.390	0.0160978
649.468	0.0162885
649.546	0.0161689
649.624	0.0161954
649.703	0.0161604
649.781	0.0161457
649.859	0.0161664
649.937	0.0161869
650.015	0.0162018
650.093	0.0161977
650.171	0.0162851
650.249	0.0163195
650.328	0.0162274
650.406	0.0162072
650.484	0.0161707
650.562	0.0162476
650.640	0.0161230
650.718	0.0162204
650.796	0.0162136
650.874	0.0163674
650.953	0.0161246
651.031	0.0160986
651.109	0.0161799
651.187	0.0160766
651.265	0.0161953
651.343	0.0162432
651.421	0.0162208
651.499	0.0161277
651.578	0.0162499
651.656	0.0162954
651.734	0.0161150
651.812	0.0162540
651.890	0.0163104
651.968	0.0161198
652.046	0.0162254
652.124	0.0161587
652.203	0.0161433
652.281	0.0162029
652.359	0.0162600
652.437	0.0163206
652.515	0.0160925
652.593	0.0161762
652.671	0.0161961
652.749	0.0162109
652.828	0.0159985
652.906	0.0161748
652.984	0.0161740
653.062	0.0162471
653.140	0.0161741
653.218	0.0161739
653.296	0.0161822
653.374	0.0162656
653.453	0.0164079
653.531	0.0161574
653.609	0.0161858
653.687	0.0162917
653.765	0.0161433
653.843	0.0161848
653.921	0.0163012
653.999	0.0162535
654.078	0.0160468
654.156	0.0161147
654.234	0.0162534
654.312	0.0162605
654.390	0.0163062
654.468	0.0162798
654.546	0.0162681
654.624	0.0161681
654.703	0.0162234
654.781	0.0160674
654.859	0.0161804
654.937	0.0163899
655.015	0.0162442
655.093	0.0161946
655.171	0.0162070
655.249	0.0162868
655.328	0.0162453
655.406	0.0161494
655.484	0.0162551
655.562	0.0162974
655.640	0.0162867
655.718	0.0161969
655.796	0.0161196
655.874	0.0161559
655.953	0.0161784
656.031	0.0161845
656.109	0.0162830
656.187	0.0162210
656.265	0.0161878
656.343	0.0163042
656.421	0.0163493
656.499	0.0161557
656.578	0.0161694
656.656	0.0161954
656.734	0.0161498
656.812	0.0162334
656.890	0.0161555
656.968	0.0161868
657.046	0.0162568
657.124	0.0162601
657.203	0.0162485
657.281	0.0161362
657.359	0.0162019
657.437	0.0161234
657.515	0.0161443
657.593	0.0161454
657.671	0.0161901
657.749	0.0161617
657.828	0.0161056
657.906	0.0160786
657.984	0.0162069
658.062	0.0161394
658.140	0.0162051
658.218	0.0161720
658.296	0.0160409
658.374	0.0161122
658.453	0.0161304
658.531	0.0161982
658.609	0.0162302
658.687	0.0161414
658.765	0.0161791
658.843	0.0160885
658.921	0.0161255
658.999	0.0162352
659.078	0.0162128
659.156	0.0163008
659.234	0.0161797
659.312	0.0160342
659.390	0.0161243
659.468	0.0163091
659.546	0.0161700
659.624	0.0161370
659.703	0.0160998
659.781	0.0162016
659.859	0.0163334
659.937	0.0162807
660.015	0.0162160
660.093	0.0161729
660.171	0.0162093
660.249	0.0162679
660.328	0.0161636
660.406	0.0162547
660.484	0.0163212
660.562	0.0161584
660.640	0.0163217
660.718	0.0161176
660.796	0.0162273
660.874	0.0161766
660.953	0.0160638
661.031	0.0161796
661.109	0.0161675
661.187	0.0161559
661.265	0.0162851
661.343	0.0161674
661.421	0.0159981
661.499	0.0162405
661.578	0.0162416
661.656	0.0161143
661.734	0.0162710
661.812	0.0162706
661.890	0.0162536
661.968	0.0161847
662.046	0.0162384
662.124	0.0162301
662.203	0.0162393
662.281	0.0161780
662.359	0.0159795
662.437	0.0160628
662.515	0.0161504
662.593	0.0160731
662.671	0.0159998
662.749	0.0160884
662.828	0.0162218
662.906	0.0161398
662.984	0.0161646
663.062	0.0161700
663.140	0.0162605
663.218	0.0161589
663.296	0.0161568
663.374	0.0162294
663.453	0.0162369
663.531	0.0162404
663.609	0.0162221
663.687	0.0161667
663.765	0.0161617
663.843	0.0161826
663.921	0.0161565
663.999	0.0162180
664.078	0.0162027
664.156	0.0162762
664.234	0.0161611
664.312	0.0161307
664.390	0.0161771
664.468	0.0161668
664.546	0.0161623
664.624	0.0161789
664.703	0.0161487
664.781	0.0161056
664.859	0.0162022
664.937	0.0162659
665.015	0.0160478
665.093	0.0161755
665.171	0.0161818
665.249	0.0161015
665.328	0.0161175
665.406	0.0162263
665.484	0.0162144
665.562	0.0160909
665.640	0.0161777
665.718	0.0161005
665.796	0.0161450
665.874	0.0161507
665.953	0.0162417
666.031	0.0162524
666.109	0.0161790
666.187	0.0162222
666.265	0.0160855
666.343	0.0161253
666.421	0.0160648
666.499	0.0161093
666.578	0.0161480
666.656	0.0160471
666.734	0.0162492
666.812	0.0161400
666.890	0.0162435
666.968	0.0163086
667.046	0.0161884
667.124	0.0160596
667.203	0.0161223
667.281	0.0161417
667.359	0.0161624
667.437	0.0162305
667.515	0.0162160
667.593	0.0160859
667.671	0.0162119
667.749	0.0162016
667.828	0.0162037
667.906	0.0162241
667.984	0.0161346
668.062	0.0161648
668.140	0.0161523
668.218	0.0161811
668.296	0.0161791
668.374	0.0161942
668.453	0.0162518
668.531	0.0162054
668.609	0.0161446
668.687	0.0161927
668.765	0.0161141
668.843	0.0160593
668.921	0.0161024
668.999	0.0161834
669.078	0.0161980
669.156	0.0160057
669.234	0.0161793
669.312	0.0161152
669.390	0.0162292
669.468	0.0160737
669.546	0.0161247
669.624	0.0161688
669.703	0.0162637
669.781	0.0161315
669.859	0.0161404
669.937	0.0162050
670.015	0.0161388
670.093	0.0162287
670.171	0.0161228
670.249	0.0162852
670.328	0.0161921
670.406	0.0162157
670.484	0.0161114
670.562	0.0159534
670.640	0.0162557
670.718	0.0161411
670.796	0.0162422
670.874	0.0161962
670.953	0.0159523
671.031	0.0162245
671.109	0.0161610
671.187	0.0161879
671.265	0.0161766
671.343	0.0161109
671.421	0.0163051
671.499	0.0161365
671.578	0.0161290
671.656	0.0162349
671.734	0.0162147
671.812	0.0161973
671.890	0.0162576
671.968	0.0161549
672.046	0.0162143
672.124	0.0162485
672.203	0.0162169
672.281	0.0162218
672.359	0.0161447
672.437	0.0160892
672.515	0.0162473
672.593	0.0161390
672.671	0.0162610
672.749	0.0161142
672.828	0.0163141
672.906	0.0162763
672.984	0.0161983
673.062	0.0161143
673.140	0.0163157
673.218	0.0163888
673.296	0.0162357
673.374	0.0161364
673.453	0.0161887
673.531	0.0161826
673.609	0.0161148
673.687	0.0161613
673.765	0.0161928
673.843	0.0161977
673.921	0.0161478
673.999	0.0162308
674.078	0.0161548
674.156	0.0161980
674.234	0.0161250
674.312	0.0161202
674.390	0.0161368
674.468	0.0162039
674.546	0.0161208
674.624	0.0161209
674.703	0.0161629
674.781	0.0161230
674.859	0.0162132
674.937	0.0161115
675.015	0.0162786
675.093	0.0161318
675.171	0.0162378
675.249	0.0161830
675.328	0.0161115
675.406	0.0160544
675.484	0.0161155
675.562	0.0161597
675.640	0.0161234
675.718	0.0162011
675.796	0.0161997
675.874	0.0160482
675.953	0.0162005
676.031	0.0162589
676.109	0.0161459
676.187	0.0163210
676.265	0.0162054
676.343	0.0162469
676.421	0.0162112
676.499	0.0161363
676.578	0.0162030
676.656	0.0162224
676.734	0.0161624
676.812	0.0161198
676.890	0.0161680
676.968	0.0162110
677.046	0.0162050
677.124	0.0162239
677.203	0.0163104
677.281	0.0162424
677.359	0.0163396
677.437	0.0162805
677.515	0.0161248
677.593	0.0160467
677.671	0.0162383
677.749	0.0162484
677.828	0.0161082
677.906	0.0161584
677.984	0.0161431
678.062	0.0162707
678.140	0.0161310
678.218	0.0161858
678.296	0.0162592
678.374	0.0161562
678.453	0.0158812
678.531	0.0161083
678.609	0.0161593
678.687	0.0161418
678.765	0.0161806
678.843	0.0162331
678.921	0.0162958
678.999	0.0162801
679.078	0.0161461
679.156	0.0161629
679.234	0.0160859
679.312	0.0161992
679.390	0.0161797
679.468	0.0161170
679.546	0.0162246
679.624	0.0161279
679.703	0.0162187
679.781	0.0162269
679.859	0.0159610
679.937	0.0161554
680.015	0.0161690
680.093	0.0161672
680.171	0.0161746
680.249	0.0162286
680.328	0.0160651
680.406	0.0161619
680.484	0.0161433
680.562	0.0162425
680.640	0.0162055
680.718	0.0162876
680.796	0.0162777
680.874	0.0161605
680.953	0.0162224
681.031	0.0161932
681.109	0.0162033
681.187	0.0160907
681.265	0.0162515
681.343	0.0162039
681.421	0.0162549
681.499	0.0162196
681.578	0.0161740
681.656	0.0162035
681.734	0.0161622
681.812	0.0162070
681.890	0.0163226
681.968	0.0161238
682.046	0.0162294
682.124	0.0163068
682.203	0.0161643
682.281	0.0161658
682.359	0.0164256
682.437	0.0161715
682.515	0.0162917
682.593	0.0161579
682.671	0.0162782
682.749	0.0163293
682.828	0.0161679
682.906	0.0162345
682.984	0.0162428
683.062	0.0161147
683.140	0.0161634
683.218	0.0162563
683.296	0.0161337
683.374	0.0162653
683.453	0.0162290
683.531	0.0162213
683.609	0.0160962
683.687	0.0160962
683.765	0.0161240
683.843	0.0161397
683.921	0.0162513
683.999	0.0161330
684.078	0.0161818
684.156	0.0161086
684.234	0.0160984
684.312	0.0162476
684.390	0.0162429
684.468	0.0161370
684.546	0.0161530
684.624	0.0162016
684.703	0.0161253
684.781	0.0162028
684.859	0.0161010
684.937	0.0162511
685.015	0.0161579
685.093	0.0162986
685.171	0.0162112
685.249	0.0161166
685.328	0.0160957
685.406	0.0163029
685.484	0.0162363
685.562	0.0160603
685.640	0.0162349
685.718	0.0162783
685.796	0.0162376
685.874	0.0160976
685.953	0.0161739
686.031	0.0161623
686.109	0.0161044
686.187	0.0160584
686.265	0.0162120
686.343	0.0161053
686.421	0.0160951
686.499	0.0161574
686.578	0.0162424
686.656	0.0162177
686.734	0.0162433
686.812	0.0160625
686.890	0.0162083
686.968	0.0162051
687.046	0.0161686
687.124	0.0162373
687.203	0.0161159
687.281	0.0162160
687.359	0.0161325
687.437	0.0162157
687.515	0.0161785
687.593	0.0161521
687.671	0.0163417
687.749	0.0162688
687.828	0.0161077
687.906	0.0161359
687.984	0.0161282
688.062	0.0161308
688.140	0.0162191
688.218	0.0161963
688.296	0.0161463
688.374	0.0161424
688.453	0.0161086
688.531	0.0163805
688.609	0.0160862
688.687	0.0161132
688.765	0.0161841
688.843	0.0161494
688.921	0.0160521
688.999	0.0162505
689.078	0.0162247
689.156	0.0161723
689.234	0.0160990
689.312	0.0161845
689.390	0.0161716
689.468	0.0161504
689.546	0.0161074
689.624	0.0162312
689.703	0.0162673
689.781	0.0162349
689.859	0.0161907
689.937	0.0162268
690.015	0.0161898
690.093	0.0161465
690.171	0.0161130
690.249	0.0160664
690.328	0.0161248
690.406	0.0161198
690.484	0.0161809
690.562	0.0161258
690.640	0.0163248
690.718	0.0162629
690.796	0.0160767
690.874	0.0161954
690.953	0.0161102
691.031	0.0161635
691.109	0.0161276
691.187	0.0162037
691.265	0.0160102
691.343	0.0160648
691.421	0.0161537
691.499	0.0162016
691.578	0.0161015
691.656	0.0161716
691.734	0.0161201
691.812	0.0161601
691.890	0.0161118
691.968	0.0161304
692.046	0.0160815
692.124	0.0161507
692.203	0.0160877
692.281	0.0162847
692.359	0.0161339
692.437	0.0160889
692.515	0.0162315
692.593	0.0161970
692.671	0.0161927
692.749	0.0162163
692.828	0.0161633
692.906	0.0162553
692.984	0.0161526
693.062	0.0162178
693.140	0.0162135
693.218	0.0161353
693.296	0.0161105
693.374	0.0161510
693.453	0.0161403
693.531	0.0161431
693.609	0.0161910
693.687	0.0160741
693.765	0.0161188
693.843	0.0161571
693.921	0.0161647
693.999	0.0161560
694.078	0.0160513
694.156	0.0160592
694.234	0.0160706
694.312	0.0161196
694.390	0.0161459
694.468	0.0160419
694.546	0.0161224
694.624	0.0161293
694.703	0.0160690
694.781	0.0161833
694.859	0.0161856
694.937	0.0160926
695.015	0.0161235
695.093	0.0161857
695.171	0.0160612
695.249	0.0161389
695.328	0.0161489
695.406	0.0160147
695.484	0.0161678
695.562	0.0162403
695.640	0.0160774
695.718	0.0161330
695.796	0.0161071
695.874	0.0162158
695.953	0.0161815
696.031	0.0161749
696.109	0.0161119
696.187	0.0160978
696.265	0.0161164
696.343	0.0161417
696.421	0.0161717
696.499	0.0160693
696.578	0.0162590
696.656	0.0161137
696.734	0.0160983
696.812	0.0161832
696.890	0.0162001
696.968	0.0161047
697.046	0.0162167
697.124	0.0161668
697.203	0.0162348
697.281	0.0161053
697.359	0.0159878
697.437	0.0161086
697.515	0.0161321
697.593	0.0161980
697.671	0.0161850
697.749	0.0161938
697.828	0.0161427
697.906	0.0160419
697.984	0.0161674
698.062	0.0161610
698.140	0.0161549
698.218	0.0161449
698.296	0.0160938
698.374	0.0161624
698.453	0.0160272
698.531	0.0160692
698.609	0.0162648
698.687	0.0161560
698.765	0.0160714
698.843	0.0161151
698.921	0.0162395
698.999	0.0161407
699.078	0.0161449
699.156	0.0160794
699.234	0.0161643
699.312	0.0163046
699.390	0.0162023
699.468	0.0162167
699.546	0.0162215
699.624	0.0161976
699.703	0.0161916
699.781	0.0161630
699.859	0.0161105
699.937	0.0161635
700.015	0.0162273
700.093	0.0161395
700.171	0.0162244
700.249	0.0161537
700.328	0.0161710
700.406	0.0162598
700.484	0.0163551
700.562	0.0162108
700.640	0.0162071
700.718	0.0162342
700.796	0.0161457
700.874	0.0162811
700.953	0.0161676
701.031	0.0162357
701.109	0.0163776
701.187	0.0162843
701.265	0.0162749
701.343	0.0161269
701.421	0.0162918
701.499	0.0163061
701.578	0.0163089
701.656	0.0161727
701.734	0.0161977
701.812	0.0161578
701.890	0.0162309
701.968	0.0162093
702.046	0.0162199
702.124	0.0162427
702.203	0.0162033
702.281	0.0161060
702.359	0.0161356
702.437	0.0161967
702.515	0.0161543
702.593	0.0161889
702.671	0.0163224
702.749	0.0161781
702.828	0.0161239
702.906	0.0161996
702.984	0.0161562
703.062	0.0160765
703.140	0.0162601
703.218	0.0161939
703.296	0.0160127
703.374	0.0161767
703.453	0.0161996
703.531	0.0162199
703.609	0.0161257
703.687	0.0161546
703.765	0.0161951
703.843	0.0162681
703.921	0.0162067
703.999	0.0161092
704.078	0.0162388
704.156	0.0160923
704.234	0.0161967
704.312	0.0162223
704.390	0.0161522
704.468	0.0161597
704.546	0.0161431
704.624	0.0161401
704.703	0.0162199
704.781	0.0161893
704.859	0.0162469
704.937	0.0161575
705.015	0.0162505
705.093	0.0161829
705.171	0.0162334
705.249	0.0161605
705.328	0.0160619
705.406	0.0162294
705.484	0.0160860
705.562	0.0161324
705.640	0.0163614
705.718	0.0160542
705.796	0.0161143
705.874	0.0161272
705.953	0.0161213
706.031	0.0160558
706.109	0.0161531
706.187	0.0162943
706.265	0.0161836
706.343	0.0161265
706.421	0.0161252
706.499	0.0161949
706.578	0.0161578
706.656	0.0161871
706.734	0.0161320
706.812	0.0160227
706.890	0.0161884
706.968	0.0159458
707.046	0.0159931
707.124	0.0162518
707.203	0.0163130
707.281	0.0162323
707.359	0.0160752
707.437	0.0160892
707.515	0.0161126
707.593	0.0160741
707.671	0.0160084
707.749	0.0161556
707.828	0.0162426
707.906	0.0161486
707.984	0.0161344
708.062	0.0162015
708.140	0.0162225
708.218	0.0161667
708.296	0.0162031
708.374	0.0162060
708.453	0.0161550
708.531	0.0162333
708.609	0.0161273
708.687	0.0161644
708.765	0.0161855
708.843	0.0161730
708.921	0.0160693
708.999	0.0162641
709.078	0.0163269
709.156	0.0162289
709.234	0.0161227
709.312	0.0161268
709.390	0.0161964
709.468	0.0161490
709.546	0.0162088
709.624	0.0162799
709.703	0.0162461
709.781	0.0161098
709.859	0.0160553
709.937	0.0162312
710.015	0.0161891
710.093	0.0160668
710.171	0.0162011
710.249	0.0161014
710.328	0.0160912
710.406	0.0162467
710.484	0.0162386
710.562	0.0162086
710.640	0.0161140
710.718	0.0160938
710.796	0.0162291
710.874	0.0162463
710.953	0.0162995
711.031	0.0161489
711.109	0.0161144
711.187	0.0161130
711.265	0.0161864
711.343	0.0160903
711.421	0.0162087
711.499	0.0162335
711.578	0.0162971
711.656	0.0162665
711.734	0.0161117
711.812	0.0160866
711.890	0.0162736
711.968	0.0163161
712.046	0.0161451
712.124	0.0161802
712.203	0.0161757
712.281	0.0161063
712.359	0.0162276
712.437	0.0162318
712.515	0.0161564
712.593	0.0162253
712.671	0.0162070
712.749	0.0162103
712.828	0.0160480
712.906	0.0161333
712.984	0.0162287
713.062	0.0162567
713.140	0.0160441
713.218	0.0161024
713.296	0.0162644
713.374	0.0161434
713.453	0.0162260
713.531	0.0161872
713.609	0.0162507
713.687	0.0159659
713.765	0.0162742
713.843	0.0162156
713.921	0.0162380
713.999	0.0160265
714.078	0.0162068
714.156	0.0162577
714.234	0.0160937
714.312	0.0163564
714.390	0.0161366
714.468	0.0161374
714.546	0.0161711
714.624	0.0160690
714.703	0.0161639
714.781	0.0161520
714.859	0.0160166
714.937	0.0162192
715.015	0.0162473
715.093	0.0161472
715.171	0.0161285
715.249	0.0161644
715.328	0.0161186
715.406	0.0161994
715.484	0.0161795
715.562	0.0160645
715.640	0.0162930
715.718	0.0161275
715.796	0.0160872
715.874	0.0160623
715.953	0.0162059
716.031	0.0161243
716.109	0.0160619
716.187	0.0161948
716.265	0.0162753
716.343	0.0162633
716.421	0.0161352
716.499	0.0162008
716.578	0.0161614
716.656	0.0161341
716.734	0.0161459
716.812	0.0160972
716.890	0.0162236
716.968	0.0161688
717.046	0.0161842
717.124	0.0161401
717.203	0.0162022
717.281	0.0160442
717.359	0.0161728
717.437	0.0162234
717.515	0.0161875
717.593	0.0162312
717.671	0.0160502
717.749	0.0160744
717.828	0.0161188
717.906	0.0162034
717.984	0.0160964
718.062	0.0160856
718.140	0.0159736
718.218	0.0161739
718.296	0.0160958
718.374	0.0160886
718.453	0.0161796
718.531	0.0162098
718.609	0.0161170
718.687	0.0160354
718.765	0.0160268
718.843	0.0162766
718.921	0.0160567
718.999	0.0161481
719.078	0.0161731
719.156	0.0161639
719.234	0.0160194
719.312	0.0162276
719.390	0.0162670
719.468	0.0161736
719.546	0.0161786
719.624	0.0161337
719.703	0.0160924
719.781	0.0161628
719.859	0.0160788
719.937	0.0160529
720.015	0.0161803
720.093	0.0161452
720.171	0.0162006
720.249	0.0162979
720.328	0.0161433
720.406	0.0160827
720.484	0.0161417
720.562	0.0160349
720.640	0.0162507
720.718	0.0161214
720.796	0.0161635
720.874	0.0162542
720.953	0.0161525
721.031	0.0160495
721.109	0.0161366
721.187	0.0161761
721.265	0.0161993
721.343	0.0161441
721.421	0.0161149
721.499	0.0161877
721.578	0.0162492
721.656	0.0161997
721.734	0.0162308
721.812	0.0161971
721.890	0.0161037
721.968	0.0161680
722.046	0.0161486
722.124	0.0162014
722.203	0.0162991
722.281	0.0161090
722.359	0.0162186
722.437	0.0162210
722.515	0.0163010
722.593	0.0161453
722.671	0.0160640
722.749	0.0160810
722.828	0.0163257
722.906	0.0162582
722.984	0.0162852
723.062	0.0162687
723.140	0.0162166
723.218	0.0162239
723.296	0.0161248
723.374	0.0161516
723.453	0.0161816
723.531	0.0164497
723.609	0.0161777
723.687	0.0161289
723.765	0.0162748
723.843	0.0162916
723.921	0.0162941
723.999	0.0163160
724.078	0.0160706
724.156	0.0161778
724.234	0.0161486
724.312	0.0162758
724.390	0.0163086
724.468	0.0162553
724.546	0.0162228
724.624	0.0162974
724.703	0.0162198
724.781	0.0161736
724.859	0.0162807
724.937	0.0161754
725.015	0.0163166
725.093	0.0163670
725.171	0.0163688
725.249	0.0162405
725.328	0.0162831
725.406	0.0162411
725.484	0.0161753
725.562	0.0162234
725.640	0.0161245
725.718	0.0162087
725.796	0.0163769
725.874	0.0162889
725.953	0.0163115
726.031	0.0164629
726.109	0.0164040
726.187	0.0162747
726.265	0.0163123
726.343	0.0162152
726.421	0.0164217
726.499	0.0163070
726.578	0.0161692
726.656	0.0161247
726.734	0.0162254
726.812	0.0162486
726.890	0.0162998
726.968	0.0163735
727.046	0.0162947
727.124	0.0162948
727.203	0.0162720
727.281	0.0160886
727.359	0.0162350
727.437	0.0163226
727.515	0.0163625
727.593	0.0162785
727.671	0.0162555
727.749	0.0161339
727.828	0.0161301
727.906	0.0162676
727.984	0.0162513
728.062	0.0162247
728.140	0.0162463
728.218	0.0161552
728.296	0.0161275
728.374	0.0163686
728.453	0.0162095
728.531	0.0162299
728.609	0.0161336
728.687	0.0161972
728.765	0.0161672
728.843	0.0162093
728.921	0.0162735
728.999	0.0161038
729.078	0.0162147
729.156	0.0162352
729.234	0.0163114
729.312	0.0160137
729.390	0.0160503
729.468	0.0162954
729.546	0.0162394
729.624	0.0160484
729.703	0.0161033
729.781	0.0161842
729.859	0.0162041
729.937	0.0161636
730.015	0.0160538
730.093	0.0161739
730.171	0.0161947
730.249	0.0162175
730.328	0.0161797
730.406	0.0160518
730.484	0.0160391
730.562	0.0163238
730.640	0.0162277
730.718	0.0160770
730.796	0.0160883
730.874	0.0161557
730.953	0.0162589
731.031	0.0161716
731.109	0.0161134
731.187	0.0161906
731.265	0.0161785
731.343	0.0161906
731.421	0.0161136
731.499	0.0163164
731.578	0.0161430
731.656	0.0161104
731.734	0.0160543
731.812	0.0161166
731.890	0.0161880
731.968	0.0160750
732.046	0.0160925
732.124	0.0160687
732.203	0.0160979
732.281	0.0160763
732.359	0.0162411
732.437	0.0162219
732.515	0.0161211
732.593	0.0161833
732.671	0.0160052
732.749	0.0162775
732.828	0.0161693
732.906	0.0161387
732.984	0.0161315
733.062	0.0161549
733.140	0.0160938
733.218	0.0161642
733.296	0.0162649
733.374	0.0162189
733.453	0.0160239
733.531	0.0160752
733.609	0.0162887
733.687	0.0162273
733.765	0.0161649
733.843	0.0162061
733.921	0.0161871
733.999	0.0161603
734.078	0.0161234
734.156	0.0161372
734.234	0.0160981
734.312	0.0162663
734.390	0.0161785
734.468	0.0161121
734.546	0.0161876
734.624	0.0161698
734.703	0.0159682
734.781	0.0162683
734.859	0.0160713
734.937	0.0161594
735.015	0.0162170
735.093	0.0161468
735.171	0.0160611
735.249	0.0161842
735.328	0.0160146
735.406	0.0161764
735.484	0.0161716
735.562	0.0162705
735.640	0.0161768
735.718	0.0162436
735.796	0.0162144
735.874	0.0160559
735.953	0.0162216
736.031	0.0163143
736.109	0.0162302
736.187	0.0161164
736.265	0.0161363
736.343	0.0161433
736.421	0.0161254
736.499	0.0161031
736.578	0.0159241
736.656	0.0161118
736.734	0.0160125
736.812	0.0161800
736.890	0.0162704
736.968	0.0161365
737.046	0.0162260
737.124	0.0162341
737.203	0.0163544
737.281	0.0162652
737.359	0.0162632
737.437	0.0162688
737.515	0.0163155
737.593	0.0163035
737.671	0.0163763
737.749	0.0163697
737.828	0.0164592
737.906	0.0163575
737.984	0.0162493
738.062	0.0159905
738.140	0.0160497
738.218	0.0159593
738.296	0.0158170
738.374	0.0155042
738.453	0.0155016
738.531	0.0156878
738.609	0.0158794
738.687	0.0157909
738.765	0.0160285
738.843	0.0160887
738.921	0.0163606
738.999	0.0167088
739.078	0.0170298
739.156	0.0172237
739.234	0.0175589
739.312	0.0176405
739.390	0.0177549
739.468	0.0178153
739.546	0.0176376
739.624	0.0173385
739.703	0.0169568
739.781	0.0165096
739.859	0.0158117
739.937	0.0153235
740.015	0.0148731
740.093	0.0144524
740.171	0.0140177
740.249	0.0140197
740.328	0.0140288
740.406	0.0140347
740.484	0.0145046
740.562	0.0149039
740.640	0.0153864
740.718	0.0158581
740.796	0.0162600
740.874	0.0169154
740.953	0.0176305
741.031	0.0179372
741.109	0.0184808
741.187	0.0188680
741.265	0.0190986
741.343	0.0188414
741.421	0.0188586
741.499	0.0184180
741.578	0.0177350
741.656	0.0169852
741.734	0.0158903
741.812	0.0150369
741.890	0.0141570
741.968	0.0133336
742.046	0.0127029
742.124	0.0124303
742.203	0.0124724
742.281	0.0126101
742.359	0.0131500
742.437	0.0134886
742.515	0.0141947
742.593	0.0150037
742.671	0.0156747
742.749	0.0164697
742.828	0.0171542
742.906	0.0179195
742.984	0.0184731
743.062	0.0190399
743.140	0.0194624
743.218	0.0198214
743.296	0.0198878
743.374	0.0196832
743.453	0.0194246
743.531	0.0188573
743.609	0.0181586
743.687	0.0174150
743.765	0.0165396
743.843	0.0158613
743.921	0.0150675
743.999	0.0144852
744.078	0.0140612
744.156	0.0136742
744.234	0.0136605
744.312	0.0136684
744.390	0.0137861
744.468	0.0141047
744.546	0.0143759
744.624	0.0148276
744.703	0.0153773
744.781	0.0159568
744.859	0.0164874
744.937	0.0171418
745.015	0.0176428
745.093	0.0182461
745.171	0.0187868
745.249	0.0190943
745.328	0.0192843
745.406	0.0193274
745.484	0.0190508
745.562	0.0186062
745.640	0.0181587
745.718	0.0171887
745.796	0.0161612
745.874	0.0151969
745.953	0.0141982
746.031	0.0132677
746.109	0.0125137
746.187	0.0118572
746.265	0.0111514
746.343	0.0109153
746.421	0.0109128
746.499	0.0111314
746.578	0.0115056
746.656	0.0121596
746.734	0.0128287
746.812	0.0136400
746.890	0.0145795
746.968	0.0155805
747.046	0.0167177
747.124	0.0179639
747.203	0.0188350
747.281	0.0197393
747.359	0.0206033
747.437	0.0210747
747.515	0.0215880
747.593	0.0220002
747.671	0.0218888
747.749	0.0218388
747.828	0.0214738
747.906	0.0209821
747.984	0.0203012
748.062	0.0196918
748.140	0.0187772
748.218	0.0181200
748.296	0.0173412
748.374	0.0165248
748.453	0.0158010
748.531	0.0151520
748.609	0.0147268
748.687	0.0141999
748.765	0.0138078
748.843	0.0135209
748.921	0.0134373
748.999	0.0135603
749.078	0.0136495
749.156	0.0137996
749.234	0.0139130
749.312	0.0140616
749.390	0.0142966
749.468	0.0145438
749.546	0.0146361
749.624	0.0147070
749.703	0.0149958
749.781	0.0150568
749.859	0.0147497
749.937	0.0147929
750.015	0.0146873
750.093	0.0145944
750.171	0.0145651
750.249	0.0146174
750.328	0.0143597
750.406	0.0144050
750.484	0.0144215
750.562	0.0147343
750.640	0.0149088
750.718	0.0153837
750.796	0.0158708
750.874	0.0162292
750.953	0.0167929
751.031	0.0171995
751.109	0.0177972
751.187	0.0184849
751.265	0.0188274
751.343	0.0192209
751.421	0.0194872
751.499	0.0196661
751.578	0.0197453
751.656	0.0196255
751.734	0.0194315
751.812	0.0191687
751.890	0.0189431
751.968	0.0185513
752.046	0.0181789
752.124	0.0176054
752.203	0.0170346
752.281	0.0164949
752.359	0.0160418
752.437	0.0158222
752.515	0.0154011
752.593	0.0151053
752.671	0.0148926
752.749	0.0147839
752.828	0.0147756
752.906	0.0148207
752.984	0.0149036
753.062	0.0150767
753.140	0.0152519
753.218	0.0155312
753.296	0.0156334
753.374	0.0157816
753.453	0.0160690
753.531	0.0162778
753.609	0.0162890
753.687	0.0166370
753.765	0.0166493
753.843	0.0166319
753.921	0.0168317
753.999	0.0166099
754.078	0.0164230
754.156	0.0161453
754.234	0.0160996
754.312	0.0156241
754.390	0.0155286
754.468	0.0154049
754.546	0.0151347
754.624	0.0149093
754.703	0.0147340
754.781	0.0145934
754.859	0.0144307
754.937	0.0145458
755.015	0.0145361
755.093	0.0144556
755.171	0.0144953
755.249	0.0145471
755.328	0.0146899
755.406	0.0149610
755.484	0.0152861
755.562	0.0154514
755.640	0.0157591
755.718	0.0162350
755.796	0.0164020
755.874	0.0168171
755.953	0.0171059
756.031	0.0174479
756.109	0.0177544
756.187	0.0181408
756.265	0.0182869
756.343	0.0185229
756.421	0.0186223
756.499	0.0186342
756.578	0.0186512
756.656	0.0185689
756.734	0.0183290
756.812	0.0181269
756.890	0.0178593
756.968	0.0175549
757.046	0.0171120
757.124	0.0167406
757.203	0.0164748
757.281	0.0162659
757.359	0.0159676
757.437	0.0158372
757.515	0.0155368
757.593	0.0153253
757.671	0.0151926
757.749	0.0152226
757.828	0.0151917
757.906	0.0151888
757.984	0.0153053
758.062	0.0153408
758.140	0.0156742
758.218	0.0157639
758.296	0.0159881
758.374	0.0160746
758.453	0.0161756
758.531	0.0162708
758.609	0.0162829
758.687	0.0161698
758.765	0.0161216
758.843	0.0160757
758.921	0.0159181
758.999	0.0156927
759.078	0.0156696
759.156	0.0154868
759.234	0.0153896
759.312	0.0151814
759.390	0.0149784
759.468	0.0148537
759.546	0.0147736
759.624	0.0148082
759.703	0.0147681
759.781	0.0147058
759.859	0.0149560
759.937	0.0151776
760.015	0.0153522
760.093	0.0155290
760.171	0.0157294
760.249	0.0158346
760.328	0.0159293
760.406	0.0159838
760.484	0.0160321
760.562	0.0161047
760.640	0.0162216
760.718	0.0161780
760.796	0.0163228
760.874	0.0163658
760.953	0.0164468
761.031	0.0165822
761.109	0.0167078
761.187	0.0169115
761.265	0.0170561
761.343	0.0171404
761.421	0.0175145
761.499	0.0177938
761.578	0.0179715
761.656	0.0181423
761.734	0.0183241
761.812	0.0183449
761.890	0.0182588
761.968	0.0181938
762.046	0.0181342
762.124	0.0179147
762.203	0.0174075
762.281	0.0171162
762.359	0.0166999
762.437	0.0164373
762.515	0.0160505
762.593	0.0156792
762.671	0.0154548
762.749	0.0152348
762.828	0.0149762
762.906	0.0148502
762.984	0.0147782
763.062	0.0147954
763.140	0.0146999
763.218	0.0147787
763.296	0.0148862
763.374	0.0149913
763.453	0.0152696
763.531	0.0154466
763.609	0.0154892
763.687	0.0156900
763.765	0.0158850
763.843	0.0159129
763.921	0.0159515
763.999	0.0160852
764.078	0.0160972
764.156	0.0159018
764.234	0.0159359
764.312	0.0162214
764.390	0.0161627
764.468	0.0159991
764.546	0.0161591
764.624	0.0161167
764.703	0.0159566
764.781	0.0162105
764.859	0.0161340
764.937	0.0161435
765.015	0.0162163
765.093	0.0160104
765.171	0.0160691
765.249	0.0160737
765.328	0.0160336
765.406	0.0162269
765.484	0.0159745
765.562	0.0161208
765.640	0.0160822
765.718	0.0160619
765.796	0.0160481
765.874	0.0161116
765.953	0.0161474
766.031	0.0162141
766.109	0.0163673
766.187	0.0164388
766.265	0.0164938
766.343	0.0166422
766.421	0.0168797
766.499	0.0170209
766.578	0.0171404
766.656	0.0171793
766.734	0.0172461
766.812	0.0172692
766.890	0.0172350
766.968	0.0172141
767.046	0.0174451
767.124	0.0171752
767.203	0.0170905
767.281	0.0169104
767.359	0.0167561
767.437	0.0166525
767.515	0.0164224
767.593	0.0164145
767.671	0.0161668
767.749	0.0161004
767.828	0.0160857
767.906	0.0159359
767.984	0.0157559
768.062	0.0154182
768.140	0.0154650
768.218	0.0154089
768.296	0.0153470
768.374	0.0151463
768.453	0.0151976
768.531	0.0153362
768.609	0.0151782
768.687	0.0152696
768.765	0.0153432
768.843	0.0153908
768.921	0.0155338
768.999	0.0155500
769.078	0.0155171
769.156	0.0156356
769.234	0.0157690
769.312	0.0157301
769.390	0.0158051
769.468	0.0159518
769.546	0.0159060
769.624	0.0159281
769.703	0.0158202
769.781	0.0157494
769.859	0.0157624
769.937	0.0157671
770.015	0.0157689
770.093	0.0157958
770.171	0.0158785
770.249	0.0158880
770.328	0.0159847
770.406	0.0160361
770.484	0.0160418
770.562	0.0163544
770.640	0.0163029
770.718	0.0164726
770.796	0.0165590
770.874	0.0167220
770.953	0.0168198
771.031	0.0169086
771.109	0.0169833
771.187	0.0171418
771.265	0.0171125
771.343	0.0172264
771.421	0.0171469
771.499	0.0172578
771.578	0.0170921
771.656	0.0171041
771.734	0.0171445
771.812	0.0169492
771.890	0.0170358
771.968	0.0168217
772.046	0.0168299
772.124	0.0167068
772.203	0.0165304
772.281	0.0163271
772.359	0.0163748
772.437	0.0160342
772.515	0.0159853
772.593	0.0160294
772.671	0.0157902
772.749	0.0159549
772.828	0.0159387
772.906	0.0159427
772.984	0.0157627
773.062	0.0158793
773.140	0.0158163
773.218	0.0158085
773.296	0.0156855
773.374	0.0155946
773.453	0.0157594
773.531	0.0156478
773.609	0.0155903
773.687	0.0155189
773.765	0.0155603
773.843	0.0154090
773.921	0.0155904
773.999	0.0154453
774.078	0.0156103
774.156	0.0156680
774.234	0.0157002
774.312	0.0157066
774.390	0.0158189
774.468	0.0160710
774.546	0.0160426
774.624	0.0160829
774.703	0.0162291
774.781	0.0162966
774.859	0.0162667
774.937	0.0164297
775.015	0.0164378
775.093	0.0165241
775.171	0.0166239
775.249	0.0166479
775.328	0.0165051
775.406	0.0166487
775.484	0.0167601
775.562	0.0168040
775.640	0.0168913
775.718	0.0168465
775.796	0.0168295
775.874	0.0167361
775.953	0.0167292
776.031	0.0166438
776.109	0.0164986
776.187	0.0164588
776.265	0.0162759
776.343	0.0161290
776.421	0.0161498
776.499	0.0161739
776.578	0.0160686
776.656	0.0159865
776.734	0.0160628
776.812	0.0160720
776.890	0.0160476
776.968	0.0160715
777.046	0.0161626
777.124	0.0160876
777.203	0.0161591
777.281	0.0162183
777.359	0.0163779
777.437	0.0161932
777.515	0.0163021
777.593	0.0163866
777.671	0.0162810
777.749	0.0163928
777.828	0.0164680
777.906	0.0165222
777.984	0.0166040
778.062	0.0163559
778.140	0.0163418
778.218	0.0164794
778.296	0.0164333
778.374	0.0164332
778.453	0.0165694
778.531	0.0162325
778.609	0.0161079
778.687	0.0161501
778.765	0.0160755
778.843	0.0159287
778.921	0.0159776
778.999	0.0159573
779.078	0.0158072
779.156	0.0157307
779.234	0.0156644
779.312	0.0157885
779.390	0.0156911
779.468	0.0157124
779.546	0.0157257
779.624	0.0158196
779.703	0.0158295
779.781	0.0157374
779.859	0.0158358
779.937	0.0159538
780.015	0.0161169
780.093	0.0159967
780.171	0.0158756
780.249	0.0161390
780.328	0.0162444
780.406	0.0162697
780.484	0.0162211
780.562	0.0163223
780.640	0.0162824
780.718	0.0164497
780.796	0.0164338
780.874	0.0165257
780.953	0.0165340
781.031	0.0166083
781.109	0.0165285
781.187	0.0166051
781.265	0.0166477
781.343	0.0167918
781.421	0.0167756
781.499	0.0165851
781.578	0.0165979
781.656	0.0166400
781.734	0.0165327
781.812	0.0164969
781.890	0.0165746
781.968	0.0165343
782.046	0.0165443
782.124	0.0164439
782.203	0.0164414
782.281	0.0162503
782.359	0.0161875
782.437	0.0160376
782.515	0.0159463
782.593	0.0158469
782.671	0.0156991
782.749	0.0157875
782.828	0.0157691
782.906	0.0155564
782.984	0.0155874
783.062	0.0158120
783.140	0.0157888
783.218	0.0157195
783.296	0.0158127
783.374	0.0159278
783.453	0.0158071
783.531	0.0158094
783.609	0.0158475
783.687	0.0159880
783.765	0.0159852
783.843	0.0160345
783.921	0.0160091
783.999	0.0160712
784.078	0.0161840
784.156	0.0161708
784.234	0.0162446
784.312	0.0162582
784.390	0.0162601
784.468	0.0165598
784.546	0.0165630
784.624	0.0165665
784.703	0.0166038
784.781	0.0168286
784.859	0.0166492
784.937	0.0168211
785.015	0.0168793
785.093	0.0170047
785.171	0.0168555
785.249	0.0167516
785.328	0.0167764
785.406	0.0167218
785.484	0.0165110
785.562	0.0164321
785.640	0.0163868
785.718	0.0163395
785.796	0.0161131
785.874	0.0162064
785.953	0.0160003
786.031	0.0159045
786.109	0.0156943
786.187	0.0156319
786.265	0.0156414
786.343	0.0156601
786.421	0.0155279
786.499	0.0156915
786.578	0.0157076
786.656	0.0156908
786.734	0.0157363
786.812	0.0157758
786.890	0.0157542
786.968	0.0157303
787.046	0.0158961
787.124	0.0158853
787.203	0.0158851
787.281	0.0160544
787.359	0.0160272
787.437	0.0161511
787.515	0.0162891
787.593	0.0161709
787.671	0.0161250
787.749	0.0161430
787.828	0.0161735
787.906	0.0161139
787.984	0.0161891
788.062	0.0161501
788.140	0.0161937
788.218	0.0161465
788.296	0.0162010
788.374	0.0160632
788.453	0.0162958
788.531	0.0161530
788.609	0.0162705
788.687	0.0163352
788.765	0.0161193
788.843	0.0162865
788.921	0.0162772
788.999	0.0162537
789.078	0.0162998
789.156	0.0162455
789.234	0.0162751
789.312	0.0165038
789.390	0.0163651
789.468	0.0164569
789.546	0.0163409
789.624	0.0163246
789.703	0.0165813
789.781	0.0164614
789.859	0.0163765
789.937	0.0164144
790.015	0.0165441
790.093	0.0165506
790.171	0.0165673
790.249	0.0163157
790.328	0.0164537
790.406	0.0162875
790.484	0.0162881
790.562	0.0163889
790.640	0.0162968
790.718	0.0164329
790.796	0.0163093
790.874	0.0160802
790.953	0.0163416
791.031	0.0162032
791.109	0.0160763
791.187	0.0160798
791.265	0.0160136
791.343	0.0160236
791.421	0.0159244
791.499	0.0159957
791.578	0.0159513
791.656	0.0157867
791.734	0.0158391
791.812	0.0158593
791.890	0.0156728
791.968	0.0156140
792.046	0.0158798
792.124	0.0158970
792.203	0.0157214
792.281	0.0158449
792.359	0.0159962
792.437	0.0159027
792.515	0.0161739
792.593	0.0161208
792.671	0.0164011
792.749	0.0162540
792.828	0.0163828
792.906	0.0163063
792.984	0.0164273
793.062	0.0164075
793.140	0.0164655
793.218	0.0163011
793.296	0.0164309
793.374	0.0163851
793.453	0.0164055
793.531	0.0164321
793.609	0.0162120
793.687	0.0163766
793.765	0.0162846
793.843	0.0162235
793.921	0.0162706
793.999	0.0161294
794.078	0.0160655
794.156	0.0161655
794.234	0.0161127
794.312	0.0161617
794.390	0.0161686
794.468	0.0161416
794.546	0.0162980
794.624	0.0162010
794.703	0.0162766
794.781	0.0163008
794.859	0.0161379
794.937	0.0162389
795.015	0.0163223
795.093	0.0161932
795.171	0.0161733
795.249	0.0162795
795.328	0.0160210
795.406	0.0162497
795.484	0.0162097
795.562	0.0163068
795.640	0.0162216
795.718	0.0162712
795.796	0.0161734
795.874	0.0160061
795.953	0.0162549
796.031	0.0162813
796.109	0.0161501
796.187	0.0161064
796.265	0.0161568
796.343	0.0161407
796.421	0.0160210
796.499	0.0160104
796.578	0.0160675
796.656	0.0160027
796.734	0.0160662
796.812	0.0158579
796.890	0.0160154
796.968	0.0159895
797.046	0.0159298
797.124	0.0159753
797.203	0.0160123
797.281	0.0158946
797.359	0.0160096
797.437	0.0161211
797.515	0.0161707
797.593	0.0161116
797.671	0.0162574
797.749	0.0163376
797.828	0.0161986
797.906	0.0161540
797.984	0.0162824
798.062	0.0163290
798.140	0.0161488
798.218	0.0162922
798.296	0.0161770
798.374	0.0162797
798.453	0.0161574
798.531	0.0161177
798.609	0.0162200
798.687	0.0163263
798.765	0.0160981
798.843	0.0161256
798.921	0.0161185
798.999	0.0160645
799.078	0.0158508
799.156	0.0158617
799.234	0.0159337
799.312	0.0159100
799.390	0.0158497
799.468	0.0159482
799.546	0.0160819
799.624	0.0160079
799.703	0.0159014
799.781	0.0159977
799.859	0.0160870
799.937	0.0161307
800.015	0.0161962
800.093	0.0163592
800.171	0.0163226
800.249	0.0164323
800.328	0.0164893
800.406	0.0164668
800.484	0.0163982
800.562	0.0165292
800.640	0.0165945
800.718	0.0165533
800.796	0.0166409
800.874	0.0165880
800.953	0.0166696
801.031	0.0166974
801.109	0.0166779
801.187	0.0165253
801.265	0.0166444
801.343	0.0166583
801.421	0.0165235
801.499	0.0163952
801.578	0.0165259
801.656	0.0164295
801.734	0.0163747
801.812	0.0164333
801.890	0.0162756
801.968	0.0161074
802.046	0.0160593
802.124	0.0161581
802.203	0.0160958
802.281	0.0160381
802.359	0.0160747
802.437	0.0159176
802.515	0.0158564
802.593	0.0159124
802.671	0.0158044
802.749	0.0158783
802.828	0.0156789
802.906	0.0157094
802.984	0.0157350
803.062	0.0158320
803.140	0.0158088
803.218	0.0156317
803.296	0.0157852
803.374	0.0158448
803.453	0.0158260
803.531	0.0157730
803.609	0.0157373
803.687	0.0159321
803.765	0.0159856
803.843	0.0159465
803.921	0.0161286
803.999	0.0161029
804.078	0.0161316
804.156	0.0160931
804.234	0.0163154
804.312	0.0164680
804.390	0.0163170
804.468	0.0164163
804.546	0.0164318
804.624	0.0164976
804.703	0.0165206
804.781	0.0165430
804.859	0.0166631
804.937	0.0165804
805.015	0.0165530
805.093	0.0165484
805.171	0.0164866
805.249	0.0164384
805.328	0.0164176
805.406	0.0165797
805.484	0.0163502
805.562	0.0162801
805.640	0.0162546
805.718	0.0162175
805.796	0.0161323
805.874	0.0161317
805.953	0.0160356
806.031	0.0160336
806.109	0.0160155
806.187	0.0161330
806.265	0.0160403
806.343	0.0160364
806.421	0.0161757
806.499	0.0159731
806.578	0.0159904
806.656	0.0160018
806.734	0.0160927
806.812	0.0160944
806.890	0.0162637
806.968	0.0161174
807.046	0.0160335
807.124	0.0161808
807.203	0.0160470
807.281	0.0159790
807.359	0.0162247
807.437	0.0161811
807.515	0.0163251
807.593	0.0162526
807.671	0.0162410
807.749	0.0163290
807.828	0.0161450
807.906	0.0161555
807.984	0.0162186
808.062	0.0161726
808.140	0.0162411
808.218	0.0162999
808.296	0.0162714
808.374	0.0163701
808.453	0.0163048
808.531	0.0162682
808.609	0.0160589
808.687	0.0161407
808.765	0.0162975
808.843	0.0161497
808.921	0.0161171
808.999	0.0161132
809.078	0.0162135
809.156	0.0160872
809.234	0.0161196
809.312	0.0159928
809.390	0.0161509
809.468	0.0161766
809.546	0.0162096
809.624	0.0162003
809.703	0.0161921
809.781	0.0162208
809.859	0.0163380
809.937	0.0162194
810.015	0.0163711
810.093	0.0162411
810.171	0.0162568
810.249	0.0162917
810.328	0.0163497
810.406	0.0162646
810.484	0.0162164
810.562	0.0164050
810.640	0.0162581
810.718	0.0162649
810.796	0.0163319
810.874	0.0163187
810.953	0.0163482
811.031	0.0162572
811.109	0.0161721
811.187	0.0163028
811.265	0.0163386
811.343	0.0161678
811.421	0.0161604
811.499	0.0162944
811.578	0.0162390
811.656	0.0159439
811.734	0.0161749
811.812	0.0160686
811.890	0.0160691
811.968	0.0161169
812.046	0.0160400
812.124	0.0161089
812.203	0.0160273
812.281	0.0159073
812.359	0.0158835
812.437	0.0161199
812.515	0.0159255
812.593	0.0160546
812.671	0.0159164
812.749	0.0161450
812.828	0.0160724
812.906	0.0159967
812.984	0.0161655
813.062	0.0162129
813.140	0.0162163
813.218	0.0160812
813.296	0.0161936
813.374	0.0162345
813.453	0.0164161
813.531	0.0162015
813.609	0.0163831
813.687	0.0162974
813.765	0.0162795
813.843	0.0162351
813.921	0.0161711
813.999	0.0162987
814.078	0.0161750
814.156	0.0160246
814.234	0.0161563
814.312	0.0161443
814.390	0.0161356
814.468	0.0162015
814.546	0.0161739
814.624	0.0161393
814.703	0.0161028
814.781	0.0162126
814.859	0.0161572
814.937	0.0162965
815.015	0.0162543
815.093	0.0162995
815.171	0.0163402
815.249	0.0163110
815.328	0.0163589
815.406	0.0165144
815.484	0.0164231
815.562	0.0162250
815.640	0.0163651
815.718	0.0163503
815.796	0.0164001
815.874	0.0165241
815.953	0.0164546
816.031	0.0163948
816.109	0.0163289
816.187	0.0163316
816.265	0.0162421
816.343	0.0163087
816.421	0.0162450
816.499	0.0162499
816.578	0.0162308
816.656	0.0162029
816.734	0.0162175
816.812	0.0161300
816.890	0.0161628
816.968	0.0161269
817.046	0.0160542
817.124	0.0161269
817.203	0.0161234
817.281	0.0161148
817.359	0.0161704
817.437	0.0160027
817.515	0.0160677
817.593	0.0159064
817.671	0.0159968
817.749	0.0160200
817.828	0.0161889
817.906	0.0161332
817.984	0.0161084
818.062	0.0161092
818.140	0.0161459
818.218	0.0162370
818.296	0.0159515
818.374	0.0160058
818.453	0.0160517
818.531	0.0159322
818.609	0.0160293
818.687	0.0158968
818.765	0.0160507
818.843	0.0161000
818.921	0.0159511
818.999	0.0160874
819.078	0.0159840
819.156	0.0159873
819.234	0.0161755
819.312	0.0161340
819.390	0.0161445
819.468	0.0161460
819.546	0.0161441
819.624	0.0163071
819.703	0.0161709
819.781	0.0161661
819.859	0.0162395
819.937	0.0163248
820.015	0.0162817
820.093	0.0162206
820.171	0.0162566
820.249	0.0162539
820.328	0.0163531
820.406	0.0164249
820.484	0.0163059
820.562	0.0162240
820.640	0.0162225
820.718	0.0162198
820.796	0.0163165
820.874	0.0163777
820.953	0.0162670
821.031	0.0161853
821.109	0.0161707
821.187	0.0162523
821.265	0.0162764
821.343	0.0162516
821.421	0.0162720
821.499	0.0161921
821.578	0.0161852
821.656	0.0162380
821.734	0.0162357
821.812	0.0162489
821.890	0.0161986
821.968	0.0161579
822.046	0.0160924
822.124	0.0160854
822.203	0.0161218
822.281	0.0159758
822.359	0.0160310
822.437	0.0159619
822.515	0.0159956
822.593	0.0160554
822.671	0.0159118
822.749	0.0160278
822.828	0.0160841
822.906	0.0160372
822.984	0.0160683
823.062	0.0159879
823.140	0.0160385
823.218	0.0159196
823.296	0.0159349
823.374	0.0160191
823.453	0.0160173
823.531	0.0160738
823.609	0.0160438
823.687	0.0162355
823.765	0.0161921
823.843	0.0162621
823.921	0.0163101
823.999	0.0163278
824.078	0.0162930
824.156	0.0163728
824.234	0.0163260
824.312	0.0163506
824.390	0.0163697
824.468	0.0162728
824.546	0.0163255
824.624	0.0162362
824.703	0.0163263
824.781	0.0162341
824.859	0.0161846
824.937	0.0162826
825.015	0.0161548
825.093	0.0160897
825.171	0.0161617
825.249	0.0160741
825.328	0.0160431
825.406	0.0162376
825.484	0.0160801
825.562	0.0162211
825.640	0.0160746
825.718	0.0160819
825.796	0.0161912
825.874	0.0161739
825.953	0.0161925
826.031	0.0162598
826.109	0.0161623
826.187	0.0163055
826.265	0.0163536
826.343	0.0161907
826.421	0.0161657
826.499	0.0162508
826.578	0.0162268
826.656	0.0162902
826.734	0.0160308
826.812	0.0161662
826.890	0.0161924
826.968	0.0160721
827.046	0.0161295
827.124	0.0162961
827.203	0.0161178
827.281	0.0161555
827.359	0.0161272
827.437	0.0161599
827.515	0.0160412
827.593	0.0160593
827.671	0.0160895
827.749	0.0160819
827.828	0.0160008
827.906	0.0160095
827.984	0.0159283
828.062	0.0160440
828.140	0.0160782
828.218	0.0159774
828.296	0.0159932
828.374	0.0160620
828.453	0.0161424
828.531	0.0160690
828.609	0.0161848
828.687	0.0160583
828.765	0.0161517
828.843	0.0161101
828.921	0.0160471
828.999	0.0163160
829.078	0.0162338
829.156	0.0161994
829.234	0.0160952
829.312	0.0161845
829.390	0.0162836
829.468	0.0162198
829.546	0.0162199
829.624	0.0163166
829.703	0.0162325
829.781	0.0162006
829.859	0.0161971
829.937	0.0161753
830.015	0.0162862
830.093	0.0164237
830.171	0.0163199
830.249	0.0163529
830.328	0.0162226
830.406	0.0162726
830.484	0.0162983
830.562	0.0164017
830.640	0.0162943
830.718	0.0163369
830.796	0.0163992
830.874	0.0163422
830.953	0.0163112
831.031	0.0163022
831.109	0.0163650
831.187	0.0164368
831.265	0.0162083
831.343	0.0161674
831.421	0.0162939
831.499	0.0161211
831.578	0.0159930
831.656	0.0161002
831.734	0.0161337
831.812	0.0162347
831.890	0.0160605
831.968	0.0161407
832.046	0.0160239
832.124	0.0162816
832.203	0.0161875
832.281	0.0159949
832.359	0.0162151
832.437	0.0161876
832.515	0.0160754
832.593	0.0162244
832.671	0.0161929
832.749	0.0161633
832.828	0.0161624
832.906	0.0161680
832.984	0.0161651
833.062	0.0161645
833.140	0.0162286
833.218	0.0161697
833.296	0.0160462
833.374	0.0161433
833.453	0.0161298
833.531	0.0160450
833.609	0.0159510
833.687	0.0161512
833.765	0.0161909
833.843	0.0160624
833.921	0.0161658
833.999	0.0160629
834.078	0.0161510
834.156	0.0162183
834.234	0.0160708
834.312	0.0160500
834.390	0.0160603
834.468	0.0162653
834.546	0.0161132
834.624	0.0162195
834.703	0.0163280
834.781	0.0161359
834.859	0.0162520
834.937	0.0164479
835.015	0.0162417
835.093	0.0161199
835.171	0.0162995
835.249	0.0162784
835.328	0.0161490
835.406	0.0162479
835.484	0.0163222
835.562	0.0162823
835.640	0.0160545
835.718	0.0162273
835.796	0.0162411
835.874	0.0162430
835.953	0.0162377
836.031	0.0163041
836.109	0.0162414
836.187	0.0163367
836.265	0.0163525
836.343	0.0163799
836.421	0.0163753
836.499	0.0162155
836.578	0.0163617
836.656	0.0163248
836.734	0.0160653
836.812	0.0161832
836.890	0.0160429
836.968	0.0161664
837.046	0.0161440
837.124	0.0160460
837.203	0.0160282
837.281	0.0160250
837.359	0.0161037
837.437	0.0159555
837.515	0.0160165
837.593	0.0160828
837.671	0.0161189
837.749	0.0160755
837.828	0.0161605
837.906	0.0162246
837.984	0.0162465
838.062	0.0162804
838.140	0.0162371
838.218	0.0162935
838.296	0.0161867
838.374	0.0162199
838.453	0.0162923
838.531	0.0161699
838.609	0.0162805
838.687	0.0162982
838.765	0.0162660
838.843	0.0161546
838.921	0.0162836
838.999	0.0160769
839.078	0.0160500
839.156	0.0161646
839.234	0.0159334
839.312	0.0160003
839.390	0.0161029
839.468	0.0160087
839.546	0.0160763
839.624	0.0159808
839.703	0.0162101
839.781	0.0161756
839.859	0.0159920
839.937	0.0162292
840.015	0.0161656
840.093	0.0161397
840.171	0.0160915
840.249	0.0161150
840.328	0.0161951
840.406	0.0161648
840.484	0.0161674
840.562	0.0161108
840.640	0.0164053
840.718	0.0162558
840.796	0.0160986
840.874	0.0162236
840.953	0.0163162
841.031	0.0163072
841.109	0.0161706
841.187	0.0160895
841.265	0.0162170
841.343	0.0162411
841.421	0.0163345
841.499	0.0161988
841.578	0.0162222
841.656	0.0163838
841.734	0.0163660
841.812	0.0163964
841.890	0.0162373
841.968	0.0162716
842.046	0.0162807
842.124	0.0161543
842.203	0.0160399
842.281	0.0162344
842.359	0.0160095
842.437	0.0160798
842.515	0.0161576
842.593	0.0161053
842.671	0.0161162
842.749	0.0159696
842.828	0.0158776
842.906	0.0161145
842.984	0.0158265
843.062	0.0159592
843.140	0.0158934
843.218	0.0159901
843.296	0.0158939
843.374	0.0159879
843.453	0.0158288
843.531	0.0160648
843.609	0.0160789
843.687	0.0161131
843.765	0.0161279
843.843	0.0161344
843.921	0.0161404
843.999	0.0161472
844.078	0.0161598
844.156	0.0162774
844.234	0.0163813
844.312	0.0163825
844.390	0.0163702
844.468	0.0162994
844.546	0.0164091
844.624	0.0164803
844.703	0.0165118
844.781	0.0164121
844.859	0.0164097
844.937	0.0164296
845.015	0.0164307
845.093	0.0166256
845.171	0.0164463
845.249	0.0164597
845.328	0.0165427
845.406	0.0164238
845.484	0.0162331
845.562	0.0161760
845.640	0.0162636
845.718	0.0162780
845.796	0.0160253
845.874	0.0159929
845.953	0.0161074
846.031	0.0160223
846.109	0.0158035
846.187	0.0159006
846.265	0.0158136
846.343	0.0157738
846.421	0.0157355
846.499	0.0157967
846.578	0.0157895
846.656	0.0156288
846.734	0.0157303
846.812	0.0158679
846.890	0.0158499
846.968	0.0158904
847.046	0.0158431
847.124	0.0160699
847.203	0.0159531
847.281	0.0160654
847.359	0.0160491
847.437	0.0162434
847.515	0.0163850
847.593	0.0161843
847.671	0.0162644
847.749	0.0163873
847.828	0.0162605
847.906	0.0163206
847.984	0.0164185
848.062	0.0165683
848.140	0.0164587
848.218	0.0164192
848.296	0.0165308
848.374	0.0164312
848.453	0.0163779
848.531	0.0165459
848.609	0.0165834
848.687	0.0162003
848.765	0.0163596
848.843	0.0163393
848.921	0.0164072
848.999	0.0164742
849.078	0.0165460
849.156	0.0165137
849.234	0.0164137
849.312	0.0164413
849.390	0.0162746
849.468	0.0164638
849.546	0.0164377
849.624	0.0163547
849.703	0.0164012
849.781	0.0161374
849.859	0.0160854
849.937	0.0161768
850.015	0.0160781
850.093	0.0159692
850.171	0.0160162
850.249	0.0159785
850.328	0.0158840
850.406	0.0160174
850.484	0.0159846
850.562	0.0157916
850.640	0.0158965
850.718	0.0157367
850.796	0.0158704
850.874	0.0158820
850.953	0.0159344
851.031	0.0158877
851.109	0.0159373
851.187	0.0158861
851.265	0.0161100
851.343	0.0159170
851.421	0.0159312
851.499	0.0161722
851.578	0.0161955
851.656	0.0161449
851.734	0.0162064
851.812	0.0161741
851.890	0.0161313
851.968	0.0162793
852.046	0.0162044
852.124	0.0162959
852.203	0.0162177
852.281	0.0161909
852.359	0.0162426
852.437	0.0162079
852.515	0.0161485
852.593	0.0162712
852.671	0.0161703
852.749	0.0162934
852.828	0.0161780
852.906	0.0162031
852.984	0.0162407
853.062	0.0162801
853.140	0.0162611
853.218	0.0164008
853.296	0.0164301
853.374	0.0163305
853.453	0.0162350
853.531	0.0161922
853.609	0.0164203
853.687	0.0163787
853.765	0.0164126
853.843	0.0162496
853.921	0.0164539
853.999	0.0163820
854.078	0.0164264
854.156	0.0161854
854.234	0.0163007
854.312	0.0162915
854.390	0.0163710
854.468	0.0163353
854.546	0.0163216
854.624	0.0162218
854.703	0.0162753
854.781	0.0162309
854.859	0.0160892
854.937	0.0161131
855.015	0.0162126
855.093	0.0160949
855.171	0.0160024
855.249	0.0160017
855.328	0.0160269
855.406	0.0157660
855.484	0.0158224
855.562	0.0158927
855.640	0.0159544
855.718	0.0159340
855.796	0.0159308
855.874	0.0158865
855.953	0.0159310
856.031	0.0159908
856.109	0.0159975
856.187	0.0160178
856.265	0.0159801
856.343	0.0161912
856.421	0.0162159
856.499	0.0162790
856.578	0.0162432
856.656	0.0161684
856.734	0.0162755
856.812	0.0163248
856.890	0.0161818
856.968	0.0162191
857.046	0.0162218
857.124	0.0162357
857.203	0.0162198
857.281	0.0163029
857.359	0.0163522
857.437	0.0162228
857.515	0.0164051
857.593	0.0161916
857.671	0.0162590
857.749	0.0164131
857.828	0.0162932
857.906	0.0162487
857.984	0.0162163
858.062	0.0163786
858.140	0.0163000
858.218	0.0162296
858.296	0.0163620
858.374	0.0163871
858.453	0.0162663
858.531	0.0162553
858.609	0.0162845
858.687	0.0162103
858.765	0.0162772
858.843	0.0162355
858.921	0.0161929
858.999	0.0161959
859.078	0.0162514
859.156	0.0161808
859.234	0.0162142
859.312	0.0161660
859.390	0.0161540
859.468	0.0161366
859.546	0.0162490
859.624	0.0162012
859.703	0.0162151
859.781	0.0162184
859.859	0.0161598
859.937	0.0161760
860.015	0.0159503
860.093	0.0162560
860.171	0.0162108
860.249	0.0161684
860.328	0.0161637
860.406	0.0162003
860.484	0.0161909
860.562	0.0160817
860.640	0.0160793
860.718	0.0162122
860.796	0.0161973
860.874	0.0160992
860.953	0.0160961
861.031	0.0160265
861.109	0.0161612
861.187	0.0160875
861.265	0.0162034
861.343	0.0161897
861.421	0.0162209
861.499	0.0163580
861.578	0.0162992
861.656	0.0162081
861.734	0.0163434
861.812	0.0163649
861.890	0.0163001
861.968	0.0162036
862.046	0.0163883
862.124	0.0162733
862.203	0.0161518
862.281	0.0162627
862.359	0.0161671
862.437	0.0162229
862.515	0.0161289
862.593	0.0161246
862.671	0.0162141
862.749	0.0162193
862.828	0.0161976
862.906	0.0161689
862.984	0.0160989
863.062	0.0162249
863.140	0.0161485
863.218	0.0162399
863.296	0.0162843
863.374	0.0163264
863.453	0.0162745
863.531	0.0161899
863.609	0.0161832
863.687	0.0162111
863.765	0.0162836
863.843	0.0162296
863.921	0.0162457
863.999	0.0163519
864.078	0.0161752
864.156	0.0161606
864.234	0.0162846
864.312	0.0162572
864.390	0.0163245
864.468	0.0161831
864.546	0.0161654
864.624	0.0162741
864.703	0.0161729
864.781	0.0161865
864.859	0.0161183
864.937	0.0161134
865.015	0.0161591
865.093	0.0160865
865.171	0.0160336
865.249	0.0160549
865.328	0.0161871
865.406	0.0161044
865.484	0.0160675
865.562	0.0159161
865.640	0.0160888
865.718	0.0161411
865.796	0.0162008
865.874	0.0161724
865.953	0.0161274
866.031	0.0161365
866.109	0.0163223
866.187	0.0160672
866.265	0.0161018
866.343	0.0163370
866.421	0.0161911
866.499	0.0161945
866.578	0.0161790
866.656	0.0162835
866.734	0.0162191
866.812	0.0160564
866.890	0.0161662
866.968	0.0162068
867.046	0.0160172
867.124	0.0160774
867.203	0.0160282
867.281	0.0161492
867.359	0.0159856
867.437	0.0160484
867.515	0.0160882
867.593	0.0159868
867.671	0.0161070
867.749	0.0161810
867.828	0.0161449
867.906	0.0163204
867.984	0.0162270
868.062	0.0163991
868.140	0.0163177
868.218	0.0163535
868.296	0.0163367
868.374	0.0161592
868.453	0.0163819
868.531	0.0164898
868.609	0.0163007
868.687	0.0162183
868.765	0.0163358
868.843	0.0163532
868.921	0.0162436
868.999	0.0162239
869.078	0.0162750
869.156	0.0163390
869.234	0.0162230
869.312	0.0161304
869.390	0.0161681
869.468	0.0162615
869.546	0.0161127
869.624	0.0161600
869.703	0.0159409
869.781	0.0160974
869.859	0.0160583
869.937	0.0160994
870.015	0.0161047
870.093	0.0158946
870.171	0.0159872
870.249	0.0159953
870.328	0.0159651
870.406	0.0159131
870.484	0.0159453
870.562	0.0160567
870.640	0.0160062
870.718	0.0158762
870.796	0.0159830
870.874	0.0160046
870.953	0.0159469
871.031	0.0158839
871.109	0.0160304
871.187	0.0161182
871.265	0.0160256
871.343	0.0160052
871.421	0.0160481
871.499	0.0161635
871.578	0.0161074
871.656	0.0161616
871.734	0.0162002
871.812	0.0160602
871.890	0.0162663
871.968	0.0162853
872.046	0.0163506
872.124	0.0163483
872.203	0.0162630
872.281	0.0163828
872.359	0.0163814
872.437	0.0163265
872.515	0.0163672
872.593	0.0162920
872.671	0.0163920
872.749	0.0163675
872.828	0.0163035
872.906	0.0163281
872.984	0.0163399
873.062	0.0162540
873.140	0.0161350
873.218	0.0162109
873.296	0.0161846
873.374	0.0161708
873.453	0.0164029
873.531	0.0162313
873.609	0.0161774
873.687	0.0161600
873.765	0.0162072
873.843	0.0161879
873.921	0.0161582
873.999	0.0161445
874.078	0.0163350
874.156	0.0161574
874.234	0.0160929
874.312	0.0159763
874.390	0.0162031
874.468	0.0163219
874.546	0.0161034
874.624	0.0161459
874.703	0.0162216
874.781	0.0160771
874.859	0.0161767
874.937	0.0161340
875.015	0.0160397
875.093	0.0158853
875.171	0.0161382
875.249	0.0161063
875.328	0.0159924
875.406	0.0160249
875.484	0.0159748
875.562	0.0160562
875.640	0.0162160
875.718	0.0161334
875.796	0.0162199
875.874	0.0160442
875.953	0.0160847
876.031	0.0162294
876.109	0.0161355
876.187	0.0161304
876.265	0.0160674
876.343	0.0162924
876.421	0.0162441
876.499	0.0162189
876.578	0.0163946
876.656	0.0162098
876.734	0.0162480
876.812	0.0163403
876.890	0.0162823
876.968	0.0162259
877.046	0.0161889
877.124	0.0162896
877.203	0.0162451
877.281	0.0161994
877.359	0.0162664
877.437	0.0162928
877.515	0.0161713
877.593	0.0161538
877.671	0.0160456
877.749	0.0162188
877.828	0.0162006
877.906	0.0161326
877.984	0.0161298
878.062	0.0162072
878.140	0.0162055
878.218	0.0161402
878.296	0.0161795
878.374	0.0161417
878.453	0.0162514
878.531	0.0162888
878.609	0.0162495
878.687	0.0161605
878.765	0.0162165
878.843	0.0160091
878.921	0.0161798
878.999	0.0162129
879.078	0.0162125
879.156	0.0161390
879.234	0.0162090
879.312	0.0161005
879.390	0.0160873
879.468	0.0161918
879.546	0.0161715
879.624	0.0162000
879.703	0.0161614
879.781	0.0161018
879.859	0.0161265
879.937	0.0162301
880.015	0.0161645
880.093	0.0161910
880.171	0.0164725
880.249	0.0163756
880.328	0.0162859
880.406	0.0162850
880.484	0.0163804
880.562	0.0164198
880.640	0.0162393
880.718	0.0163533
880.796	0.0163572
880.874	0.0162227
880.953	0.0163123
881.031	0.0163293
881.109	0.0162630
881.187	0.0161777
881.265	0.0161411
881.343	0.0162316
881.421	0.0161339
881.499	0.0161426
881.578	0.0160585
881.656	0.0161250
881.734	0.0160896
881.812	0.0161104
881.890	0.0160497
881.968	0.0159769
882.046	0.0161112
882.124	0.0161630
882.203	0.0160378
882.281	0.0159392
882.359	0.0160501
882.437	0.0159516
882.515	0.0159963
882.593	0.0160110
882.671	0.0159982
882.749	0.0160085
882.828	0.0160254
882.906	0.0159856
882.984	0.0159579
883.062	0.0159126
883.140	0.0159113
883.218	0.0159361
883.296	0.0160980
883.374	0.0161246
883.453	0.0160835
883.531	0.0161896
883.609	0.0161615
883.687	0.0162370
883.765	0.0162222
883.843	0.0161530
883.921	0.0162395
883.999	0.0165026
884.078	0.0164397
884.156	0.0163492
884.234	0.0164543
884.312	0.0164265
884.390	0.0165537
884.468	0.0165729
884.546	0.0163153
884.624	0.0163232
884.703	0.0164197
884.781	0.0164549
884.859	0.0164400
884.937	0.0163477
885.015	0.0163062
885.093	0.0163252
885.171	0.0162460
885.249	0.0164021
885.328	0.0161776
885.406	0.0163206
885.484	0.0163912
885.562	0.0160768
885.640	0.0161285
885.718	0.0161318
885.796	0.0161765
885.874	0.0162486
885.953	0.0162888
886.031	0.0162894
886.109	0.0162518
886.187	0.0161915
886.265	0.0162273
886.343	0.0161680
886.421	0.0162542
886.499	0.0160671
886.578	0.0162160
886.656	0.0161795
886.734	0.0161530
886.812	0.0161252
886.890	0.0161886
886.968	0.0162067
887.046	0.0161867
887.124	0.0161227
887.203	0.0161431
887.281	0.0162921
887.359	0.0161837
887.437	0.0161590
887.515	0.0162280
887.593	0.0161027
887.671	0.0162247
887.749	0.0159966
887.828	0.0161333
887.906	0.0160400
887.984	0.0159776
888.062	0.0159834
888.140	0.0160876
888.218	0.0160654
888.296	0.0160697
888.374	0.0160185
888.453	0.0161286
888.531	0.0160735
888.609	0.0160744
888.687	0.0162413
888.765	0.0162535
888.843	0.0161523
888.921	0.0161170
888.999	0.0161633
889.078	0.0163118
889.156	0.0161800
889.234	0.0162476
889.312	0.0164125
889.390	0.0163424
889.468	0.0164171
889.546	0.0163277
889.624	0.0162973
889.703	0.0161443
889.781	0.0161993
889.859	0.0161607
889.937	0.0162733
890.015	0.0162036
890.093	0.0161156
890.171	0.0162148
890.249	0.0162284
890.328	0.0160198
890.406	0.0160387
890.484	0.0162795
890.562	0.0162792
890.640	0.0160681
890.718	0.0161388
890.796	0.0161671
890.874	0.0162049
890.953	0.0162061
891.031	0.0162402
891.109	0.0161880
891.187	0.0162455
891.265	0.0162273
891.343	0.0161509
891.421	0.0161339
891.499	0.0161070
891.578	0.0161839
891.656	0.0161134
891.734	0.0162112
891.812	0.0161824
891.890	0.0162319
891.968	0.0162201
892.046	0.0161559
892.124	0.0162488
892.203	0.0162160
892.281	0.0162876
892.359	0.0162662
892.437	0.0161628
892.515	0.0163130
892.593	0.0160936
892.671	0.0160808
892.749	0.0160487
892.828	0.0162163
892.906	0.0160814
892.984	0.0160500
893.062	0.0161501
893.140	0.0159914
893.218	0.0160525
893.296	0.0158760
893.374	0.0158525
893.453	0.0158102
893.531	0.0159486
893.609	0.0158833
893.687	0.0158858
893.765	0.0158346
893.843	0.0158789
893.921	0.0159603
893.999	0.0158678
894.078	0.0159515
894.156	0.0160336
894.234	0.0159833
894.312	0.0159508
894.390	0.0160430
894.468	0.0160188
894.546	0.0161934
894.624	0.0163182
894.703	0.0162003
894.781	0.0162351
894.859	0.0162013
894.937	0.0161924
895.015	0.0162958
895.093	0.0163176
895.171	0.0163053
895.249	0.0161929
895.328	0.0164580
895.406	0.0163127
895.484	0.0162236
895.562	0.0163599
895.640	0.0163268
895.718	0.0162103
895.796	0.0162254
895.874	0.0162283
895.953	0.0162709
896.031	0.0162088
896.109	0.0163014
896.187	0.0163985
896.265	0.0162157
896.343	0.0162843
896.421	0.0163761
896.499	0.0162678
896.578	0.0162666
896.656	0.0163444
896.734	0.0162489
896.812	0.0163513
896.890	0.0162339
896.968	0.0163535
897.046	0.0163505
897.124	0.0161755
897.203	0.0164475
897.281	0.0161655
897.359	0.0162049
897.437	0.0162155
897.515	0.0162638
897.593	0.0161895
897.671	0.0162186
897.749	0.0161884
897.828	0.0162164
897.906	0.0161331
897.984	0.0161487
898.062	0.0160662
898.140	0.0161637
898.218	0.0161279
898.296	0.0161967
898.374	0.0161178
898.453	0.0160768
898.531	0.0160947
898.609	0.0161127
898.687	0.0161855
898.765	0.0161798
898.843	0.0161177
898.921	0.0161647
898.999	0.0163123
899.078	0.0160942
899.156	0.0159444
899.234	0.0161848
899.312	0.0160908
899.390	0.0161020
899.468	0.0161098
899.546	0.0161025
899.624	0.0160509
899.703	0.0161536
899.781	0.0161295
899.859	0.0160960
899.937	0.0161874
900.015	0.0160777
900.093	0.0161849
900.171	0.0161672
900.249	0.0162554
900.328	0.0163168
900.406	0.0162383
900.484	0.0163978
900.562	0.0161874
900.640	0.0162904
900.718	0.0162386
900.796	0.0162988
900.874	0.0162476
900.953	0.0163277
901.031	0.0161656
901.109	0.0162674
901.187	0.0161655
901.265	0.0162580
901.343	0.0162428
901.421	0.0162292
901.499	0.0160706
901.578	0.0161501
901.656	0.0161337
901.734	0.0160455
901.812	0.0161803
901.890	0.0160388
901.968	0.0160082
902.046	0.0161637
902.124	0.0162292
902.203	0.0162313
902.281	0.0161155
902.359	0.0160813
902.437	0.0162121
902.515	0.0162187
902.593	0.0161464
902.671	0.0163003
902.749	0.0161639
902.828	0.0161676
902.906	0.0163599
902.984	0.0162192
903.062	0.0163067
903.140	0.0161540
903.218	0.0161720
903.296	0.0163531
903.374	0.0161998
903.453	0.0162597
903.531	0.0162301
903.609	0.0162957
903.687	0.0161823
903.765	0.0162070
903.843	0.0162303
903.921	0.0160449
903.999	0.0160133
904.078	0.0161864
904.156	0.0159846
904.234	0.0159992
904.312	0.0160240
904.390	0.0160524
904.468	0.0160162
904.546	0.0160246
904.624	0.0161781
904.703	0.0161781
904.781	0.0161945
904.859	0.0161506
904.937	0.0163009
905.015	0.0163289
905.093	0.0162767
905.171	0.0162659
905.249	0.0161794
905.328	0.0161176
905.406	0.0160546
905.484	0.0161536
905.562	0.0161793
905.640	0.0160044
905.718	0.0162296
905.796	0.0161855
905.874	0.0160617
905.953	0.0161160
906.031	0.0161376
906.109	0.0161351
906.187	0.0160057
906.265	0.0161392
906.343	0.0162561
906.421	0.0161466
906.499	0.0161507
906.578	0.0162238
906.656	0.0161620
906.734	0.0163584
906.812	0.0163457
906.890	0.0164790
906.968	0.0162877
907.046	0.0163111
907.124	0.0162721
907.203	0.0164511
907.281	0.0164391
907.359	0.0164736
907.437	0.0164356
907.515	0.0164332
907.593	0.0163371
907.671	0.0164503
907.749	0.0162344
907.828	0.0161340
907.906	0.0162326
907.984	0.0163499
908.062	0.0161266
908.140	0.0160932
908.218	0.0160442
908.296	0.0161682
908.374	0.0161919
908.453	0.0161051
908.531	0.0160995
908.609	0.0160804
908.687	0.0162120
908.765	0.0160990
908.843	0.0162122
908.921	0.0160722
908.999	0.0161668
909.078	0.0161477
909.156	0.0162469
909.234	0.0162552
909.312	0.0162315
909.390	0.0161373
909.468	0.0161400
909.546	0.0162042
909.624	0.0161422
909.703	0.0160720
909.781	0.0162752
909.859	0.0161860
909.937	0.0160814
910.015	0.0160377
910.093	0.0160723
910.171	0.0161839
910.249	0.0161066
910.328	0.0160694
910.406	0.0160113
910.484	0.0160925
910.562	0.0160480
910.640	0.0161128
910.718	0.0161369
910.796	0.0162084
910.874	0.0163474
910.953	0.0161462
911.031	0.0162646
911.109	0.0163406
911.187	0.0164099
911.265	0.0163432
911.343	0.0163398
911.421	0.0163751
911.499	0.0163634
911.578	0.0164355
911.656	0.0164648
911.734	0.0162636
911.812	0.0162266
911.890	0.0164008
911.968	0.0163437
912.046	0.0161752
912.124	0.0163264
912.203	0.0161840
912.281	0.0161684
912.359	0.0160774
912.437	0.0160621
912.515	0.0159457
912.593	0.0159406
912.671	0.0159151
912.749	0.0159291
912.828	0.0160869
912.906	0.0158952
912.984	0.0160459
913.062	0.0160149
913.140	0.0160861
913.218	0.0159974
913.296	0.0159685
913.374	0.0161502
913.453	0.0161844
913.531	0.0161696
913.609	0.0162064
913.687	0.0161909
913.765	0.0163148
913.843	0.0162466
913.921	0.0161571
913.999	0.0162060
914.078	0.0162297
914.156	0.0162856
914.234	0.0162865
914.312	0.0161509
914.390	0.0161954
914.468	0.0161077
914.546	0.0161059
914.624	0.0161469
914.703	0.0161145
914.781	0.0161301
914.859	0.0158374
914.937	0.0159392
915.015	0.0162054
915.093	0.0160783
915.171	0.0160715
915.249	0.0160593
915.328	0.0161208
915.406	0.0161425
915.484	0.0161757
915.562	0.0162027
915.640	0.0161750
915.718	0.0160105
915.796	0.0160074
915.874	0.0160967
915.953	0.0161758
916.031	0.0162241
916.109	0.0162135
916.187	0.0160580
916.265	0.0161738
916.343	0.0162566
916.421	0.0160320
916.499	0.0161533
916.578	0.0161787
916.656	0.0161553
916.734	0.0162164
916.812	0.0161802
916.890	0.0160873
916.968	0.0161731
917.046	0.0160777
917.124	0.0161476
917.203	0.0161845
917.281	0.0162119
917.359	0.0162232
917.437	0.0161835
917.515	0.0161457
917.593	0.0160615
917.671	0.0162656
917.749	0.0161945
917.828	0.0161685
917.906	0.0161429
917.984	0.0160911
918.062	0.0162365
918.140	0.0161082
918.218	0.0161269
918.296	0.0161517
918.374	0.0160995
918.453	0.0162397
918.531	0.0160973
918.609	0.0160016
918.687	0.0162044
918.765	0.0160543
918.843	0.0160755
918.921	0.0161023
918.999	0.0162552
919.078	0.0160892
919.156	0.0160708
919.234	0.0161637
919.312	0.0161656
919.390	0.0161879
919.468	0.0161598
919.546	0.0161206
919.624	0.0161788
919.703	0.0162121
919.781	0.0161809
919.859	0.0162618
919.937	0.0160689
