06/10/2022	19:04:46	Ver.	4.1	UNKNOWN
Optical Delay	600.015094	Delta X		0.078125	Sweeps	1	Scan Rate	0/0
Coordinates	Axis 1	NaN	Axis 2	NaN	Axis 3	NaN	Axis 4	NaN	Axis 5	NaN	Axis 6	0.000000
TX Power	0.000000	RX Power	0.000000

600.015	0.0164127
600.093	0.0165411
600.171	0.0163669
600.249	0.0165321
600.328	0.0164950
600.406	0.0164396
600.484	0.0164812
600.562	0.0164200
600.640	0.0165080
600.718	0.0165990
600.796	0.0165267
600.874	0.0164534
600.953	0.0164453
601.031	0.0165185
601.109	0.0164101
601.187	0.0164213
601.265	0.0165233
601.343	0.0164674
601.421	0.0164710
601.499	0.0165229
601.578	0.0166294
601.656	0.0165319
601.734	0.0165063
601.812	0.0163916
601.890	0.0164491
601.968	0.0164433
602.046	0.0164352
602.124	0.0165344
602.203	0.0163643
602.281	0.0164122
602.359	0.0164642
602.437	0.0165207
602.515	0.0163921
602.593	0.0162691
602.671	0.0163068
602.749	0.0161904
602.828	0.0162663
602.906	0.0162367
602.984	0.0163239
603.062	0.0163805
603.140	0.0162129
603.218	0.0160957
603.296	0.0160953
603.374	0.0161983
603.453	0.0162469
603.531	0.0161208
603.609	0.0161364
603.687	0.0162062
603.765	0.0162304
603.843	0.0160970
603.921	0.0161870
603.999	0.0162706
604.078	0.0161024
604.156	0.0161179
604.234	0.0161242
604.312	0.0160979
604.390	0.0160815
604.468	0.0161833
604.546	0.0160152
604.624	0.0159417
604.703	0.0160712
604.781	0.0159812
604.859	0.0159319
604.937	0.0160213
605.015	0.0159795
605.093	0.0158865
605.171	0.0160899
605.249	0.0159831
605.328	0.0159720
605.406	0.0160201
605.484	0.0160078
605.562	0.0161118
605.640	0.0159676
605.718	0.0160401
605.796	0.0161466
605.874	0.0159675
605.953	0.0160229
606.031	0.0159121
606.109	0.0160478
606.187	0.0160146
606.265	0.0160368
606.343	0.0160307
606.421	0.0160162
606.499	0.0160861
606.578	0.0160802
606.656	0.0161880
606.734	0.0159947
606.812	0.0159861
606.890	0.0159988
606.968	0.0160787
607.046	0.0160869
607.124	0.0160894
607.203	0.0160999
607.281	0.0161049
607.359	0.0160737
607.437	0.0159756
607.515	0.0160270
607.593	0.0160411
607.671	0.0160635
607.749	0.0161192
607.828	0.0161027
607.906	0.0160954
607.984	0.0160732
608.062	0.0161301
608.140	0.0161548
608.218	0.0160919
608.296	0.0161720
608.374	0.0161253
608.453	0.0161313
608.531	0.0163293
608.609	0.0162091
608.687	0.0162615
608.765	0.0161546
608.843	0.0162256
608.921	0.0163467
608.999	0.0162530
609.078	0.0162476
609.156	0.0162387
609.234	0.0160251
609.312	0.0162479
609.390	0.0161448
609.468	0.0161080
609.546	0.0161629
609.624	0.0161632
609.703	0.0161129
609.781	0.0162420
609.859	0.0163235
609.937	0.0162309
610.015	0.0162186
610.093	0.0161815
610.171	0.0160303
610.249	0.0160004
610.328	0.0160827
610.406	0.0161612
610.484	0.0161976
610.562	0.0161290
610.640	0.0161410
610.718	0.0161908
610.796	0.0161971
610.874	0.0162330
610.953	0.0160286
611.031	0.0161903
611.109	0.0162942
611.187	0.0162346
611.265	0.0162080
611.343	0.0163716
611.421	0.0161723
611.499	0.0162406
611.578	0.0164448
611.656	0.0163530
611.734	0.0164099
611.812	0.0161594
611.890	0.0162626
611.968	0.0164176
612.046	0.0162430
612.124	0.0161993
612.203	0.0161476
612.281	0.0163051
612.359	0.0162035
612.437	0.0162566
612.515	0.0161440
612.593	0.0162041
612.671	0.0161370
612.749	0.0162003
612.828	0.0161619
612.906	0.0160551
612.984	0.0160910
613.062	0.0161396
613.140	0.0161396
613.218	0.0162460
613.296	0.0163445
613.374	0.0163192
613.453	0.0163082
613.531	0.0160909
613.609	0.0161077
613.687	0.0161515
613.765	0.0162850
613.843	0.0162993
613.921	0.0162071
613.999	0.0163141
614.078	0.0162856
614.156	0.0162076
614.234	0.0164014
614.312	0.0162503
614.390	0.0163323
614.468	0.0163406
614.546	0.0163068
614.624	0.0162756
614.703	0.0162133
614.781	0.0163956
614.859	0.0162483
614.937	0.0163328
615.015	0.0162639
615.093	0.0163300
615.171	0.0162615
615.249	0.0163061
615.328	0.0163260
615.406	0.0162379
615.484	0.0162712
615.562	0.0162897
615.640	0.0162315
615.718	0.0163570
615.796	0.0164307
615.874	0.0162146
615.953	0.0163706
616.031	0.0164221
616.109	0.0164627
616.187	0.0162339
616.265	0.0163474
616.343	0.0164133
616.421	0.0163574
616.499	0.0162100
616.578	0.0162942
616.656	0.0162391
616.734	0.0164213
616.812	0.0163319
616.890	0.0162366
616.968	0.0163612
617.046	0.0162745
617.124	0.0162942
617.203	0.0163063
617.281	0.0161831
617.359	0.0161777
617.437	0.0163747
617.515	0.0164790
617.593	0.0164060
617.671	0.0162984
617.749	0.0163077
617.828	0.0162333
617.906	0.0163115
617.984	0.0163724
618.062	0.0162744
618.140	0.0163301
618.218	0.0163203
618.296	0.0164022
618.374	0.0162167
618.453	0.0163300
618.531	0.0162521
618.609	0.0163063
618.687	0.0164072
618.765	0.0163338
618.843	0.0162241
618.921	0.0164928
618.999	0.0162980
619.078	0.0163281
619.156	0.0164085
619.234	0.0163273
619.312	0.0164402
619.390	0.0163493
619.468	0.0162907
619.546	0.0162791
619.624	0.0162483
619.703	0.0161716
619.781	0.0162296
619.859	0.0162688
619.937	0.0163347
620.015	0.0161694
620.093	0.0163115
620.171	0.0162059
620.249	0.0161764
620.328	0.0162970
620.406	0.0161694
620.484	0.0162479
620.562	0.0162238
620.640	0.0162957
620.718	0.0163608
620.796	0.0162939
620.874	0.0161456
620.953	0.0162496
621.031	0.0162296
621.109	0.0162661
621.187	0.0163065
621.265	0.0162557
621.343	0.0163249
621.421	0.0163806
621.499	0.0162482
621.578	0.0162145
621.656	0.0163479
621.734	0.0162884
621.812	0.0161662
621.890	0.0163506
621.968	0.0164194
622.046	0.0162235
622.124	0.0162513
622.203	0.0164717
622.281	0.0162590
622.359	0.0161987
622.437	0.0162737
622.515	0.0162788
622.593	0.0163736
622.671	0.0162891
622.749	0.0164201
622.828	0.0163960
622.906	0.0163664
622.984	0.0164442
623.062	0.0164240
623.140	0.0163294
623.218	0.0164806
623.296	0.0164005
623.374	0.0165385
623.453	0.0163425
623.531	0.0163113
623.609	0.0164806
623.687	0.0164494
623.765	0.0162952
623.843	0.0165453
623.921	0.0163756
623.999	0.0163767
624.078	0.0162981
624.156	0.0164399
624.234	0.0164401
624.312	0.0161870
624.390	0.0163407
624.468	0.0161769
624.546	0.0162738
624.624	0.0163184
624.703	0.0162566
624.781	0.0163268
624.859	0.0164120
624.937	0.0163126
625.015	0.0164124
625.093	0.0161697
625.171	0.0162132
625.249	0.0162817
625.328	0.0162118
625.406	0.0162721
625.484	0.0164289
625.562	0.0162750
625.640	0.0162322
625.718	0.0162521
625.796	0.0161423
625.874	0.0162012
625.953	0.0163805
626.031	0.0161747
626.109	0.0162811
626.187	0.0162050
626.265	0.0161771
626.343	0.0162631
626.421	0.0162714
626.499	0.0162284
626.578	0.0163467
626.656	0.0161495
626.734	0.0162331
626.812	0.0163670
626.890	0.0162135
626.968	0.0162086
627.046	0.0162780
627.124	0.0162653
627.203	0.0163189
627.281	0.0161587
627.359	0.0161859
627.437	0.0162960
627.515	0.0162408
627.593	0.0162707
627.671	0.0162663
627.749	0.0161617
627.828	0.0162520
627.906	0.0163889
627.984	0.0162985
628.062	0.0161504
628.140	0.0162885
628.218	0.0161208
628.296	0.0161372
628.374	0.0161561
628.453	0.0161040
628.531	0.0160864
628.609	0.0163033
628.687	0.0161102
628.765	0.0161312
628.843	0.0162385
628.921	0.0161659
628.999	0.0161234
629.078	0.0160703
629.156	0.0162280
629.234	0.0160519
629.312	0.0161851
629.390	0.0161755
629.468	0.0161060
629.546	0.0161128
629.624	0.0161330
629.703	0.0160447
629.781	0.0161880
629.859	0.0161898
629.937	0.0161788
630.015	0.0160999
630.093	0.0160052
630.171	0.0161358
630.249	0.0161421
630.328	0.0160229
630.406	0.0160070
630.484	0.0160509
630.562	0.0158472
630.640	0.0159376
630.718	0.0158749
630.796	0.0159204
630.874	0.0159676
630.953	0.0160380
631.031	0.0161128
631.109	0.0159856
631.187	0.0160099
631.265	0.0159173
631.343	0.0160341
631.421	0.0159344
631.499	0.0158447
631.578	0.0158603
631.656	0.0159433
631.734	0.0158530
631.812	0.0159928
631.890	0.0159155
631.968	0.0158163
632.046	0.0157466
632.124	0.0159650
632.203	0.0157819
632.281	0.0158864
632.359	0.0158801
632.437	0.0159850
632.515	0.0159444
632.593	0.0159435
632.671	0.0159109
632.749	0.0159940
632.828	0.0159921
632.906	0.0160280
632.984	0.0159492
633.062	0.0159677
633.140	0.0160097
633.218	0.0161707
633.296	0.0160322
633.374	0.0159605
633.453	0.0160696
633.531	0.0160110
633.609	0.0161642
633.687	0.0162431
633.765	0.0161002
633.843	0.0160830
633.921	0.0161230
633.999	0.0162695
634.078	0.0161405
634.156	0.0160923
634.234	0.0160924
634.312	0.0162081
634.390	0.0161832
634.468	0.0161465
634.546	0.0161700
634.624	0.0160585
634.703	0.0161742
634.781	0.0162727
634.859	0.0161259
634.937	0.0160517
635.015	0.0162715
635.093	0.0162917
635.171	0.0161450
635.249	0.0162153
635.328	0.0160869
635.406	0.0162261
635.484	0.0162289
635.562	0.0162178
635.640	0.0162185
635.718	0.0162056
635.796	0.0162704
635.874	0.0161480
635.953	0.0161173
636.031	0.0162196
636.109	0.0162148
636.187	0.0162283
636.265	0.0163340
636.343	0.0163420
636.421	0.0162527
636.499	0.0162959
636.578	0.0162829
636.656	0.0161783
636.734	0.0162556
636.812	0.0162692
636.890	0.0162331
636.968	0.0163707
637.046	0.0162824
637.124	0.0162259
637.203	0.0162693
637.281	0.0163065
637.359	0.0164719
637.437	0.0161772
637.515	0.0162873
637.593	0.0162275
637.671	0.0163625
637.749	0.0162428
637.828	0.0165270
637.906	0.0164197
637.984	0.0163114
638.062	0.0162778
638.140	0.0163866
638.218	0.0162749
638.296	0.0164594
638.374	0.0163715
638.453	0.0163194
638.531	0.0164998
638.609	0.0164145
638.687	0.0164073
638.765	0.0164608
638.843	0.0164642
638.921	0.0164300
638.999	0.0164220
639.078	0.0164488
639.156	0.0165472
639.234	0.0166163
639.312	0.0163087
639.390	0.0164082
639.468	0.0164648
639.546	0.0165518
639.624	0.0163846
639.703	0.0165546
639.781	0.0163898
639.859	0.0164590
639.937	0.0163870
640.015	0.0163562
640.093	0.0164314
640.171	0.0165108
640.249	0.0164270
640.328	0.0163305
640.406	0.0162728
640.484	0.0163666
640.562	0.0164870
640.640	0.0164711
640.718	0.0163831
640.796	0.0165288
640.874	0.0163283
640.953	0.0162351
641.031	0.0162109
641.109	0.0162537
641.187	0.0163680
641.265	0.0163649
641.343	0.0162914
641.421	0.0162176
641.499	0.0162967
641.578	0.0161829
641.656	0.0164072
641.734	0.0164207
641.812	0.0163559
641.890	0.0161821
641.968	0.0162576
642.046	0.0163155
642.124	0.0162943
642.203	0.0163662
642.281	0.0161616
642.359	0.0163313
642.437	0.0163291
642.515	0.0162501
642.593	0.0162517
642.671	0.0163474
642.749	0.0164126
642.828	0.0162611
642.906	0.0160883
642.984	0.0163530
643.062	0.0164429
643.140	0.0162994
643.218	0.0162431
643.296	0.0162614
643.374	0.0161655
643.453	0.0162725
643.531	0.0162982
643.609	0.0161565
643.687	0.0162332
643.765	0.0162346
643.843	0.0163775
643.921	0.0163173
643.999	0.0162757
644.078	0.0162604
644.156	0.0161544
644.234	0.0161696
644.312	0.0163248
644.390	0.0163486
644.468	0.0161636
644.546	0.0161836
644.624	0.0164040
644.703	0.0162372
644.781	0.0162311
644.859	0.0163576
644.937	0.0162150
645.015	0.0162891
645.093	0.0161285
645.171	0.0162121
645.249	0.0162994
645.328	0.0163649
645.406	0.0163538
645.484	0.0162292
645.562	0.0162757
645.640	0.0162926
645.718	0.0163123
645.796	0.0165021
645.874	0.0164333
645.953	0.0162249
646.031	0.0162280
646.109	0.0162906
646.187	0.0163475
646.265	0.0162895
646.343	0.0160722
646.421	0.0164286
646.499	0.0163072
646.578	0.0162248
646.656	0.0163648
646.734	0.0163583
646.812	0.0162435
646.890	0.0162576
646.968	0.0164703
647.046	0.0163878
647.124	0.0163068
647.203	0.0162994
647.281	0.0162902
647.359	0.0162646
647.437	0.0161808
647.515	0.0163371
647.593	0.0163009
647.671	0.0163470
647.749	0.0162390
647.828	0.0163422
647.906	0.0161991
647.984	0.0163052
648.062	0.0162176
648.140	0.0162397
648.218	0.0162814
648.296	0.0163438
648.374	0.0162327
648.453	0.0162892
648.531	0.0162428
648.609	0.0163960
648.687	0.0162625
648.765	0.0163137
648.843	0.0161550
648.921	0.0161693
648.999	0.0162736
649.078	0.0162490
649.156	0.0162933
649.234	0.0161301
649.312	0.0162010
649.390	0.0162304
649.468	0.0163632
649.546	0.0162139
649.624	0.0162647
649.703	0.0162221
649.781	0.0162567
649.859	0.0162857
649.937	0.0161842
650.015	0.0162708
650.093	0.0161596
650.171	0.0161498
650.249	0.0161729
650.328	0.0162994
650.406	0.0160981
650.484	0.0160825
650.562	0.0163458
650.640	0.0162843
650.718	0.0160274
650.796	0.0160316
650.874	0.0161339
650.953	0.0162127
651.031	0.0160781
651.109	0.0162328
651.187	0.0161095
651.265	0.0160786
651.343	0.0161108
651.421	0.0161897
651.499	0.0162931
651.578	0.0160019
651.656	0.0161823
651.734	0.0161375
651.812	0.0160011
651.890	0.0161086
651.968	0.0160940
652.046	0.0160986
652.124	0.0161446
652.203	0.0162269
652.281	0.0161855
652.359	0.0160800
652.437	0.0160895
652.515	0.0160617
652.593	0.0160913
652.671	0.0160950
652.749	0.0160343
652.828	0.0161201
652.906	0.0161392
652.984	0.0159516
653.062	0.0160406
653.140	0.0161449
653.218	0.0161024
653.296	0.0161056
653.374	0.0161052
653.453	0.0158484
653.531	0.0161031
653.609	0.0160394
653.687	0.0160541
653.765	0.0159682
653.843	0.0160694
653.921	0.0162534
653.999	0.0161043
654.078	0.0161349
654.156	0.0161880
654.234	0.0160895
654.312	0.0159003
654.390	0.0160566
654.468	0.0161286
654.546	0.0160786
654.624	0.0160387
654.703	0.0161170
654.781	0.0161274
654.859	0.0162703
654.937	0.0160785
655.015	0.0161527
655.093	0.0160970
655.171	0.0161581
655.249	0.0161180
655.328	0.0161622
655.406	0.0161552
655.484	0.0160495
655.562	0.0161098
655.640	0.0160792
655.718	0.0162415
655.796	0.0161491
655.874	0.0162477
655.953	0.0162188
656.031	0.0162504
656.109	0.0161967
656.187	0.0162949
656.265	0.0162659
656.343	0.0162711
656.421	0.0162236
656.499	0.0161687
656.578	0.0162906
656.656	0.0162059
656.734	0.0162739
656.812	0.0163000
656.890	0.0162304
656.968	0.0161784
657.046	0.0162663
657.124	0.0162489
657.203	0.0164680
657.281	0.0163296
657.359	0.0163881
657.437	0.0163285
657.515	0.0162368
657.593	0.0164114
657.671	0.0162242
657.749	0.0163187
657.828	0.0162344
657.906	0.0162810
657.984	0.0163915
658.062	0.0163723
658.140	0.0162888
658.218	0.0163184
658.296	0.0163884
658.374	0.0163337
658.453	0.0163963
658.531	0.0164030
658.609	0.0164133
658.687	0.0163786
658.765	0.0164517
658.843	0.0162919
658.921	0.0163493
658.999	0.0164182
659.078	0.0163248
659.156	0.0163969
659.234	0.0162450
659.312	0.0163261
659.390	0.0163136
659.468	0.0163631
659.546	0.0164088
659.624	0.0163478
659.703	0.0161834
659.781	0.0163289
659.859	0.0163828
659.937	0.0164057
660.015	0.0163658
660.093	0.0164027
660.171	0.0161905
660.249	0.0162032
660.328	0.0163655
660.406	0.0163272
660.484	0.0162926
660.562	0.0163915
660.640	0.0162725
660.718	0.0163614
660.796	0.0162686
660.874	0.0163612
660.953	0.0162791
661.031	0.0162347
661.109	0.0163232
661.187	0.0162385
661.265	0.0162394
661.343	0.0162702
661.421	0.0161816
661.499	0.0162808
661.578	0.0162469
661.656	0.0162847
661.734	0.0163044
661.812	0.0163347
661.890	0.0162268
661.968	0.0163503
662.046	0.0163638
662.124	0.0164147
662.203	0.0162749
662.281	0.0163166
662.359	0.0162283
662.437	0.0162055
662.515	0.0163636
662.593	0.0163336
662.671	0.0162641
662.749	0.0163918
662.828	0.0162509
662.906	0.0163240
662.984	0.0161795
663.062	0.0162722
663.140	0.0163175
663.218	0.0162872
663.296	0.0163851
663.374	0.0163879
663.453	0.0162260
663.531	0.0163149
663.609	0.0161066
663.687	0.0162194
663.765	0.0161740
663.843	0.0160439
663.921	0.0162225
663.999	0.0162086
664.078	0.0162291
664.156	0.0162982
664.234	0.0162074
664.312	0.0162443
664.390	0.0162511
664.468	0.0162955
664.546	0.0161686
664.624	0.0161102
664.703	0.0162894
664.781	0.0161506
664.859	0.0162450
664.937	0.0163147
665.015	0.0162238
665.093	0.0160597
665.171	0.0162031
665.249	0.0161642
665.328	0.0163299
665.406	0.0161684
665.484	0.0161988
665.562	0.0162959
665.640	0.0163892
665.718	0.0162339
665.796	0.0162582
665.874	0.0162247
665.953	0.0163594
666.031	0.0163463
666.109	0.0163743
666.187	0.0163750
666.265	0.0161836
666.343	0.0164577
666.421	0.0163733
666.499	0.0162497
666.578	0.0163576
666.656	0.0163429
666.734	0.0162259
666.812	0.0164483
666.890	0.0164476
666.968	0.0162417
667.046	0.0163148
667.124	0.0164031
667.203	0.0163014
667.281	0.0164275
667.359	0.0163998
667.437	0.0164373
667.515	0.0164722
667.593	0.0162576
667.671	0.0163445
667.749	0.0164310
667.828	0.0163842
667.906	0.0162534
667.984	0.0163515
668.062	0.0163287
668.140	0.0163051
668.218	0.0163138
668.296	0.0164342
668.374	0.0163506
668.453	0.0162969
668.531	0.0163280
668.609	0.0162592
668.687	0.0162779
668.765	0.0163416
668.843	0.0161925
668.921	0.0162985
668.999	0.0162871
669.078	0.0164188
669.156	0.0164572
669.234	0.0162446
669.312	0.0163792
669.390	0.0163300
669.468	0.0162843
669.546	0.0161488
669.624	0.0161269
669.703	0.0162849
669.781	0.0162726
669.859	0.0162152
669.937	0.0161798
670.015	0.0161839
670.093	0.0162643
670.171	0.0162032
670.249	0.0162465
670.328	0.0163627
670.406	0.0163028
670.484	0.0160748
670.562	0.0162943
670.640	0.0163890
670.718	0.0162022
670.796	0.0161423
670.874	0.0162321
670.953	0.0163381
671.031	0.0161557
671.109	0.0162161
671.187	0.0161754
671.265	0.0163292
671.343	0.0162829
671.421	0.0163521
671.499	0.0162629
671.578	0.0163514
671.656	0.0163398
671.734	0.0162903
671.812	0.0161789
671.890	0.0162416
671.968	0.0162952
672.046	0.0163968
672.124	0.0161442
672.203	0.0162093
672.281	0.0162720
672.359	0.0163981
672.437	0.0163837
672.515	0.0162370
672.593	0.0161528
672.671	0.0163182
672.749	0.0162695
672.828	0.0163115
672.906	0.0162814
672.984	0.0163558
673.062	0.0162556
673.140	0.0163358
673.218	0.0161720
673.296	0.0161764
673.374	0.0163289
673.453	0.0163150
673.531	0.0162491
673.609	0.0161912
673.687	0.0162850
673.765	0.0162066
673.843	0.0163049
673.921	0.0163371
673.999	0.0163618
674.078	0.0162374
674.156	0.0162534
674.234	0.0161880
674.312	0.0161892
674.390	0.0162422
674.468	0.0162955
674.546	0.0162237
674.624	0.0162227
674.703	0.0162463
674.781	0.0160831
674.859	0.0162505
674.937	0.0162090
675.015	0.0161810
675.093	0.0162670
675.171	0.0163734
675.249	0.0162231
675.328	0.0162263
675.406	0.0162621
675.484	0.0161691
675.562	0.0161540
675.640	0.0161680
675.718	0.0162727
675.796	0.0163355
675.874	0.0163149
675.953	0.0161671
676.031	0.0162778
676.109	0.0162090
676.187	0.0162582
676.265	0.0161885
676.343	0.0162236
676.421	0.0162853
676.499	0.0161623
676.578	0.0162264
676.656	0.0161832
676.734	0.0162113
676.812	0.0162447
676.890	0.0162495
676.968	0.0161819
677.046	0.0161805
677.124	0.0161503
677.203	0.0163111
677.281	0.0163120
677.359	0.0161132
677.437	0.0161485
677.515	0.0161524
677.593	0.0161868
677.671	0.0163267
677.749	0.0160794
677.828	0.0161282
677.906	0.0160373
677.984	0.0162640
678.062	0.0160139
678.140	0.0161706
678.218	0.0161990
678.296	0.0163389
678.374	0.0162394
678.453	0.0161698
678.531	0.0160988
678.609	0.0162571
678.687	0.0161435
678.765	0.0162751
678.843	0.0161852
678.921	0.0160648
678.999	0.0161852
679.078	0.0162201
679.156	0.0161840
679.234	0.0162964
679.312	0.0162820
679.390	0.0162492
679.468	0.0162463
679.546	0.0162448
679.624	0.0161916
679.703	0.0161797
679.781	0.0162871
679.859	0.0161647
679.937	0.0162003
680.015	0.0162543
680.093	0.0160529
680.171	0.0162247
680.249	0.0163644
680.328	0.0162591
680.406	0.0162299
680.484	0.0161805
680.562	0.0162270
680.640	0.0163359
680.718	0.0161805
680.796	0.0162415
680.874	0.0162042
680.953	0.0162286
681.031	0.0163261
681.109	0.0163097
681.187	0.0161983
681.265	0.0161973
681.343	0.0162971
681.421	0.0162025
681.499	0.0162082
681.578	0.0162556
681.656	0.0162323
681.734	0.0164124
681.812	0.0162707
681.890	0.0163325
681.968	0.0162299
682.046	0.0162830
682.124	0.0162041
682.203	0.0162611
682.281	0.0163136
682.359	0.0161659
682.437	0.0163842
682.515	0.0162474
682.593	0.0161854
682.671	0.0162927
682.749	0.0162536
682.828	0.0163407
682.906	0.0162614
682.984	0.0162216
683.062	0.0160976
683.140	0.0163300
683.218	0.0163699
683.296	0.0162560
683.374	0.0164255
683.453	0.0162140
683.531	0.0163895
683.609	0.0162643
683.687	0.0163435
683.765	0.0163613
683.843	0.0163988
683.921	0.0162134
683.999	0.0162343
684.078	0.0163127
684.156	0.0162096
684.234	0.0163116
684.312	0.0162195
684.390	0.0163268
684.468	0.0162344
684.546	0.0162344
684.624	0.0162300
684.703	0.0162402
684.781	0.0162095
684.859	0.0163293
684.937	0.0162718
685.015	0.0163250
685.093	0.0162391
685.171	0.0161934
685.249	0.0163222
685.328	0.0163523
685.406	0.0163210
685.484	0.0163407
685.562	0.0162444
685.640	0.0162391
685.718	0.0164617
685.796	0.0161646
685.874	0.0162181
685.953	0.0162161
686.031	0.0162071
686.109	0.0161509
686.187	0.0163523
686.265	0.0162531
686.343	0.0162212
686.421	0.0163657
686.499	0.0162865
686.578	0.0161922
686.656	0.0163108
686.734	0.0163298
686.812	0.0161769
686.890	0.0163950
686.968	0.0163833
687.046	0.0161869
687.124	0.0161263
687.203	0.0164233
687.281	0.0162654
687.359	0.0162022
687.437	0.0162870
687.515	0.0161847
687.593	0.0162318
687.671	0.0164122
687.749	0.0162820
687.828	0.0163200
687.906	0.0163312
687.984	0.0162485
688.062	0.0162907
688.140	0.0162919
688.218	0.0163039
688.296	0.0162640
688.374	0.0163289
688.453	0.0162601
688.531	0.0163650
688.609	0.0164256
688.687	0.0161201
688.765	0.0164237
688.843	0.0163127
688.921	0.0162187
688.999	0.0163127
689.078	0.0162240
689.156	0.0161739
689.234	0.0162993
689.312	0.0161871
689.390	0.0163462
689.468	0.0162649
689.546	0.0162185
689.624	0.0162292
689.703	0.0163924
689.781	0.0162222
689.859	0.0162083
689.937	0.0162801
690.015	0.0165131
690.093	0.0163213
690.171	0.0162869
690.249	0.0162422
690.328	0.0161703
690.406	0.0164027
690.484	0.0163248
690.562	0.0163894
690.640	0.0162379
690.718	0.0163696
690.796	0.0162811
690.874	0.0164073
690.953	0.0163290
691.031	0.0163993
691.109	0.0165594
691.187	0.0164142
691.265	0.0163059
691.343	0.0162714
691.421	0.0163573
691.499	0.0162959
691.578	0.0163287
691.656	0.0165361
691.734	0.0162926
691.812	0.0163692
691.890	0.0163177
691.968	0.0164044
692.046	0.0162670
692.124	0.0161640
692.203	0.0162918
692.281	0.0163788
692.359	0.0162772
692.437	0.0164171
692.515	0.0163979
692.593	0.0162775
692.671	0.0162575
692.749	0.0163663
692.828	0.0163682
692.906	0.0163534
692.984	0.0162308
693.062	0.0161750
693.140	0.0161991
693.218	0.0163003
693.296	0.0162036
693.374	0.0163574
693.453	0.0162652
693.531	0.0163329
693.609	0.0162463
693.687	0.0163337
693.765	0.0163119
693.843	0.0162939
693.921	0.0162437
693.999	0.0162441
694.078	0.0162148
694.156	0.0162421
694.234	0.0164131
694.312	0.0162654
694.390	0.0163545
694.468	0.0161877
694.546	0.0163525
694.624	0.0163711
694.703	0.0162755
694.781	0.0162876
694.859	0.0162132
694.937	0.0163256
695.015	0.0161210
695.093	0.0162154
695.171	0.0163576
695.249	0.0163337
695.328	0.0163155
695.406	0.0163802
695.484	0.0162948
695.562	0.0162458
695.640	0.0163228
695.718	0.0163194
695.796	0.0163213
695.874	0.0164449
695.953	0.0162713
696.031	0.0163068
696.109	0.0163899
696.187	0.0163951
696.265	0.0163629
696.343	0.0164848
696.421	0.0162633
696.499	0.0162708
696.578	0.0162115
696.656	0.0163106
696.734	0.0163049
696.812	0.0161945
696.890	0.0162457
696.968	0.0162514
697.046	0.0162450
697.124	0.0162594
697.203	0.0162910
697.281	0.0163572
697.359	0.0163805
697.437	0.0162749
697.515	0.0162995
697.593	0.0163984
697.671	0.0162180
697.749	0.0163194
697.828	0.0164428
697.906	0.0163902
697.984	0.0163139
698.062	0.0163448
698.140	0.0163941
698.218	0.0160399
698.296	0.0163268
698.374	0.0163856
698.453	0.0163638
698.531	0.0163226
698.609	0.0164307
698.687	0.0163213
698.765	0.0164281
698.843	0.0162619
698.921	0.0163779
698.999	0.0162580
699.078	0.0163687
699.156	0.0162651
699.234	0.0163786
699.312	0.0162595
699.390	0.0162868
699.468	0.0162998
699.546	0.0162688
699.624	0.0162408
699.703	0.0163174
699.781	0.0161706
699.859	0.0160995
699.937	0.0163748
700.015	0.0162435
700.093	0.0161745
700.171	0.0163527
700.249	0.0163058
700.328	0.0162172
700.406	0.0161488
700.484	0.0161396
700.562	0.0163605
700.640	0.0162152
700.718	0.0160622
700.796	0.0161752
700.874	0.0162697
700.953	0.0161942
701.031	0.0161227
701.109	0.0161383
701.187	0.0162164
701.265	0.0162019
701.343	0.0161349
701.421	0.0160823
701.499	0.0161456
701.578	0.0161670
701.656	0.0162250
701.734	0.0161732
701.812	0.0161356
701.890	0.0159895
701.968	0.0161534
702.046	0.0162737
702.124	0.0160565
702.203	0.0160834
702.281	0.0161652
702.359	0.0161771
702.437	0.0161687
702.515	0.0160165
702.593	0.0159361
702.671	0.0160323
702.749	0.0160710
702.828	0.0161990
702.906	0.0160231
702.984	0.0160658
703.062	0.0161559
703.140	0.0160740
703.218	0.0161530
703.296	0.0160874
703.374	0.0161156
703.453	0.0160408
703.531	0.0159379
703.609	0.0160013
703.687	0.0160884
703.765	0.0161613
703.843	0.0162099
703.921	0.0160843
703.999	0.0160958
704.078	0.0160751
704.156	0.0160616
704.234	0.0160046
704.312	0.0161015
704.390	0.0161604
704.468	0.0159925
704.546	0.0161794
704.624	0.0160358
704.703	0.0161060
704.781	0.0160281
704.859	0.0160645
704.937	0.0160359
705.015	0.0161973
705.093	0.0161191
705.171	0.0159230
705.249	0.0160461
705.328	0.0161370
705.406	0.0160328
705.484	0.0160251
705.562	0.0160863
705.640	0.0161239
705.718	0.0158040
705.796	0.0159624
705.874	0.0161169
705.953	0.0160949
706.031	0.0160101
706.109	0.0160448
706.187	0.0160382
706.265	0.0161195
706.343	0.0160843
706.421	0.0160033
706.499	0.0160867
706.578	0.0161105
706.656	0.0159234
706.734	0.0159064
706.812	0.0160459
706.890	0.0160633
706.968	0.0159914
707.046	0.0159856
707.124	0.0160390
707.203	0.0159761
707.281	0.0159816
707.359	0.0159444
707.437	0.0159669
707.515	0.0159303
707.593	0.0160318
707.671	0.0160281
707.749	0.0159666
707.828	0.0159892
707.906	0.0159738
707.984	0.0160826
708.062	0.0161126
708.140	0.0161655
708.218	0.0160452
708.296	0.0159393
708.374	0.0160693
708.453	0.0160565
708.531	0.0160466
708.609	0.0160180
708.687	0.0159894
708.765	0.0161132
708.843	0.0161206
708.921	0.0160721
708.999	0.0160036
709.078	0.0161538
709.156	0.0160094
709.234	0.0160868
709.312	0.0160979
709.390	0.0162402
709.468	0.0161655
709.546	0.0160699
709.624	0.0160660
709.703	0.0161349
709.781	0.0162090
709.859	0.0160157
709.937	0.0161560
710.015	0.0160832
710.093	0.0161144
710.171	0.0159875
710.249	0.0160564
710.328	0.0160600
710.406	0.0161806
710.484	0.0161054
710.562	0.0160352
710.640	0.0160607
710.718	0.0162632
710.796	0.0160928
710.874	0.0161515
710.953	0.0161327
711.031	0.0161537
711.109	0.0161267
711.187	0.0159750
711.265	0.0161856
711.343	0.0160910
711.421	0.0162074
711.499	0.0162937
711.578	0.0162408
711.656	0.0160217
711.734	0.0162798
711.812	0.0163239
711.890	0.0162036
711.968	0.0160934
712.046	0.0162597
712.124	0.0162843
712.203	0.0163942
712.281	0.0163875
712.359	0.0161173
712.437	0.0162044
712.515	0.0163353
712.593	0.0162222
712.671	0.0163531
712.749	0.0162406
712.828	0.0162978
712.906	0.0163113
712.984	0.0163015
713.062	0.0163111
713.140	0.0162011
713.218	0.0162879
713.296	0.0163927
713.374	0.0163531
713.453	0.0163944
713.531	0.0163709
713.609	0.0163065
713.687	0.0163031
713.765	0.0164684
713.843	0.0163605
713.921	0.0164471
713.999	0.0163055
714.078	0.0162678
714.156	0.0162862
714.234	0.0163226
714.312	0.0163017
714.390	0.0163406
714.468	0.0162925
714.546	0.0163929
714.624	0.0163497
714.703	0.0162593
714.781	0.0163142
714.859	0.0161569
714.937	0.0161928
715.015	0.0164310
715.093	0.0161378
715.171	0.0162782
715.249	0.0162740
715.328	0.0162651
715.406	0.0163836
715.484	0.0161909
715.562	0.0162472
715.640	0.0163634
715.718	0.0163453
715.796	0.0163651
715.874	0.0163530
715.953	0.0165001
716.031	0.0163374
716.109	0.0163731
716.187	0.0162895
716.265	0.0163424
716.343	0.0163013
716.421	0.0163862
716.499	0.0163392
716.578	0.0162667
716.656	0.0164443
716.734	0.0164115
716.812	0.0163248
716.890	0.0164567
716.968	0.0164753
717.046	0.0163844
717.124	0.0163499
717.203	0.0164799
717.281	0.0164156
717.359	0.0163047
717.437	0.0164442
717.515	0.0165372
717.593	0.0163835
717.671	0.0163113
717.749	0.0164289
717.828	0.0165198
717.906	0.0163981
717.984	0.0164854
718.062	0.0164385
718.140	0.0164356
718.218	0.0163956
718.296	0.0164043
718.374	0.0163788
718.453	0.0163539
718.531	0.0163663
718.609	0.0165266
718.687	0.0163470
718.765	0.0163566
718.843	0.0162634
718.921	0.0163976
718.999	0.0163925
719.078	0.0164253
719.156	0.0162953
719.234	0.0163043
719.312	0.0163707
719.390	0.0164946
719.468	0.0163184
719.546	0.0162670
719.624	0.0164763
719.703	0.0162514
719.781	0.0163144
719.859	0.0164738
719.937	0.0163431
720.015	0.0163332
720.093	0.0164328
720.171	0.0164586
720.249	0.0164071
720.328	0.0162027
720.406	0.0163279
720.484	0.0164082
720.562	0.0164020
720.640	0.0164539
720.718	0.0162504
720.796	0.0163006
720.874	0.0163947
720.953	0.0164273
721.031	0.0163916
721.109	0.0162746
721.187	0.0164057
721.265	0.0164515
721.343	0.0163166
721.421	0.0164350
721.499	0.0163603
721.578	0.0163452
721.656	0.0163544
721.734	0.0163006
721.812	0.0163431
721.890	0.0165072
721.968	0.0163503
722.046	0.0162930
722.124	0.0162611
722.203	0.0163573
722.281	0.0161938
722.359	0.0162403
722.437	0.0163631
722.515	0.0162912
722.593	0.0163187
722.671	0.0163977
722.749	0.0163739
722.828	0.0163862
722.906	0.0163926
722.984	0.0163241
723.062	0.0162986
723.140	0.0163780
723.218	0.0162664
723.296	0.0163510
723.374	0.0161365
723.453	0.0162093
723.531	0.0163599
723.609	0.0162080
723.687	0.0163528
723.765	0.0162046
723.843	0.0162468
723.921	0.0162689
723.999	0.0163545
724.078	0.0162868
724.156	0.0163340
724.234	0.0163239
724.312	0.0161225
724.390	0.0160337
724.468	0.0162249
724.546	0.0164920
724.624	0.0162773
724.703	0.0163878
724.781	0.0162982
724.859	0.0162750
724.937	0.0163262
725.015	0.0163077
725.093	0.0163171
725.171	0.0160872
725.249	0.0163082
725.328	0.0161592
725.406	0.0161954
725.484	0.0161992
725.562	0.0162469
725.640	0.0161020
725.718	0.0162521
725.796	0.0164102
725.874	0.0161685
725.953	0.0161462
726.031	0.0161367
726.109	0.0162002
726.187	0.0161802
726.265	0.0161604
726.343	0.0161835
726.421	0.0160904
726.499	0.0158884
726.578	0.0160973
726.656	0.0161845
726.734	0.0161226
726.812	0.0160907
726.890	0.0160964
726.968	0.0160662
727.046	0.0161011
727.124	0.0162199
727.203	0.0161707
727.281	0.0160342
727.359	0.0160225
727.437	0.0160523
727.515	0.0160978
727.593	0.0162016
727.671	0.0161839
727.749	0.0161246
727.828	0.0161770
727.906	0.0161913
727.984	0.0160795
728.062	0.0160477
728.140	0.0160570
728.218	0.0161810
728.296	0.0161163
728.374	0.0159859
728.453	0.0161396
728.531	0.0161947
728.609	0.0160797
728.687	0.0159328
728.765	0.0160786
728.843	0.0161461
728.921	0.0160223
728.999	0.0160815
729.078	0.0161008
729.156	0.0161253
729.234	0.0160321
729.312	0.0160363
729.390	0.0161106
729.468	0.0161109
729.546	0.0159913
729.624	0.0162371
729.703	0.0160773
729.781	0.0160653
729.859	0.0160653
729.937	0.0162222
730.015	0.0160814
730.093	0.0161732
730.171	0.0160246
730.249	0.0162485
730.328	0.0162863
730.406	0.0162887
730.484	0.0161407
730.562	0.0161308
730.640	0.0161855
730.718	0.0160567
730.796	0.0161693
730.874	0.0162386
730.953	0.0162305
731.031	0.0162656
731.109	0.0161840
731.187	0.0161605
731.265	0.0163165
731.343	0.0163467
731.421	0.0162729
731.499	0.0162464
731.578	0.0162406
731.656	0.0160744
731.734	0.0163164
731.812	0.0162714
731.890	0.0162177
731.968	0.0163133
732.046	0.0162772
732.124	0.0162692
732.203	0.0162086
732.281	0.0162898
732.359	0.0162388
732.437	0.0162315
732.515	0.0162782
732.593	0.0162763
732.671	0.0162116
732.749	0.0161753
732.828	0.0161145
732.906	0.0162291
732.984	0.0162794
733.062	0.0163370
733.140	0.0162437
733.218	0.0160863
733.296	0.0161590
733.374	0.0163481
733.453	0.0162120
733.531	0.0161900
733.609	0.0163127
733.687	0.0163219
733.765	0.0162062
733.843	0.0162369
733.921	0.0162679
733.999	0.0163360
734.078	0.0163032
734.156	0.0161510
734.234	0.0161837
734.312	0.0163077
734.390	0.0162586
734.468	0.0162592
734.546	0.0160889
734.624	0.0163975
734.703	0.0162497
734.781	0.0162315
734.859	0.0161624
734.937	0.0163177
735.015	0.0163959
735.093	0.0162623
735.171	0.0163546
735.249	0.0160503
735.328	0.0163418
735.406	0.0162495
735.484	0.0163230
735.562	0.0161961
735.640	0.0162552
735.718	0.0163869
735.796	0.0162511
735.874	0.0163393
735.953	0.0164111
736.031	0.0162579
736.109	0.0162132
736.187	0.0162836
736.265	0.0163301
736.343	0.0163291
736.421	0.0162087
736.499	0.0163283
736.578	0.0162227
736.656	0.0161838
736.734	0.0162749
736.812	0.0162225
736.890	0.0162383
736.968	0.0162566
737.046	0.0163282
737.124	0.0162053
737.203	0.0162774
737.281	0.0162327
737.359	0.0163758
737.437	0.0162282
737.515	0.0162243
737.593	0.0163618
737.671	0.0163715
737.749	0.0163104
737.828	0.0164107
737.906	0.0163560
737.984	0.0163708
738.062	0.0162900
738.140	0.0162759
738.218	0.0164400
738.296	0.0164169
738.374	0.0164265
738.453	0.0164108
738.531	0.0164143
738.609	0.0164114
738.687	0.0164697
738.765	0.0164251
738.843	0.0164508
738.921	0.0164938
738.999	0.0163908
739.078	0.0163615
739.156	0.0164242
739.234	0.0163362
739.312	0.0163668
739.390	0.0164565
739.468	0.0163108
739.546	0.0163967
739.624	0.0163735
739.703	0.0164297
739.781	0.0164055
739.859	0.0163801
739.937	0.0165587
740.015	0.0164577
740.093	0.0163668
740.171	0.0164229
740.249	0.0164976
740.328	0.0164284
740.406	0.0162955
740.484	0.0163847
740.562	0.0164734
740.640	0.0164741
740.718	0.0162860
740.796	0.0163375
740.874	0.0164051
740.953	0.0163386
741.031	0.0163806
741.109	0.0163609
741.187	0.0165443
741.265	0.0163371
741.343	0.0164362
741.421	0.0164737
741.499	0.0165434
741.578	0.0163917
741.656	0.0164215
741.734	0.0164765
741.812	0.0165108
741.890	0.0164919
741.968	0.0165542
742.046	0.0165166
742.124	0.0163575
742.203	0.0165025
742.281	0.0165192
742.359	0.0164515
742.437	0.0165722
742.515	0.0164423
742.593	0.0163110
742.671	0.0164003
742.749	0.0163938
742.828	0.0164481
742.906	0.0163398
742.984	0.0164635
743.062	0.0164094
743.140	0.0163818
743.218	0.0163956
743.296	0.0162767
743.374	0.0163155
743.453	0.0162987
743.531	0.0162782
743.609	0.0164689
743.687	0.0163495
743.765	0.0161501
743.843	0.0162356
743.921	0.0162788
743.999	0.0163097
744.078	0.0162434
744.156	0.0163419
744.234	0.0163914
744.312	0.0163157
744.390	0.0163778
744.468	0.0163443
744.546	0.0163004
744.624	0.0163257
744.703	0.0164279
744.781	0.0163178
744.859	0.0164339
744.937	0.0163934
745.015	0.0161677
745.093	0.0163818
745.171	0.0164105
745.249	0.0162691
745.328	0.0164656
745.406	0.0164326
745.484	0.0164049
745.562	0.0163689
745.640	0.0162711
745.718	0.0163757
745.796	0.0164140
745.874	0.0164690
745.953	0.0163789
746.031	0.0162360
746.109	0.0164442
746.187	0.0163043
746.265	0.0162868
746.343	0.0161787
746.421	0.0162053
746.499	0.0163213
746.578	0.0161223
746.656	0.0161818
746.734	0.0161784
746.812	0.0162067
746.890	0.0162218
746.968	0.0161391
747.046	0.0161295
747.124	0.0162542
747.203	0.0163676
747.281	0.0161458
747.359	0.0162573
747.437	0.0162928
747.515	0.0162813
747.593	0.0163497
747.671	0.0163370
747.749	0.0163240
747.828	0.0162792
747.906	0.0163364
747.984	0.0162879
748.062	0.0163863
748.140	0.0163126
748.218	0.0161860
748.296	0.0162956
748.374	0.0163429
748.453	0.0163229
748.531	0.0163360
748.609	0.0162527
748.687	0.0161850
748.765	0.0161031
748.843	0.0162599
748.921	0.0161974
748.999	0.0161607
749.078	0.0161665
749.156	0.0161398
749.234	0.0161253
749.312	0.0162304
749.390	0.0161513
749.468	0.0161481
749.546	0.0161983
749.624	0.0162185
749.703	0.0161586
749.781	0.0160584
749.859	0.0162098
749.937	0.0161447
750.015	0.0161501
750.093	0.0161275
750.171	0.0162285
750.249	0.0161679
750.328	0.0161488
750.406	0.0161811
750.484	0.0161563
750.562	0.0162747
750.640	0.0160905
750.718	0.0162919
750.796	0.0161742
750.874	0.0162246
750.953	0.0162642
751.031	0.0162901
751.109	0.0162225
751.187	0.0162446
751.265	0.0161720
751.343	0.0162467
751.421	0.0162309
751.499	0.0161823
751.578	0.0161060
751.656	0.0161407
751.734	0.0161395
751.812	0.0162711
751.890	0.0162181
751.968	0.0162910
752.046	0.0162765
752.124	0.0162045
752.203	0.0162852
752.281	0.0162666
752.359	0.0162800
752.437	0.0162166
752.515	0.0161943
752.593	0.0162331
752.671	0.0163418
752.749	0.0163242
752.828	0.0161827
752.906	0.0162698
752.984	0.0161362
753.062	0.0163889
753.140	0.0163844
753.218	0.0162805
753.296	0.0162517
753.374	0.0163673
753.453	0.0162271
753.531	0.0162519
753.609	0.0163457
753.687	0.0162485
753.765	0.0163570
753.843	0.0163898
753.921	0.0165051
753.999	0.0163641
754.078	0.0164369
754.156	0.0164086
754.234	0.0163777
754.312	0.0164471
754.390	0.0164569
754.468	0.0162456
754.546	0.0162419
754.624	0.0164950
754.703	0.0163630
754.781	0.0162701
754.859	0.0162268
754.937	0.0164538
755.015	0.0163354
755.093	0.0163519
755.171	0.0163415
755.249	0.0162327
755.328	0.0162621
755.406	0.0162248
755.484	0.0162675
755.562	0.0163602
755.640	0.0163422
755.718	0.0162297
755.796	0.0162583
755.874	0.0162373
755.953	0.0162506
756.031	0.0163602
756.109	0.0162357
756.187	0.0161497
756.265	0.0163969
756.343	0.0163285
756.421	0.0163047
756.499	0.0162653
756.578	0.0161874
756.656	0.0162894
756.734	0.0164108
756.812	0.0162017
756.890	0.0162765
756.968	0.0162804
757.046	0.0163175
757.124	0.0162006
757.203	0.0163994
757.281	0.0163966
757.359	0.0162402
757.437	0.0162270
757.515	0.0161866
757.593	0.0162695
757.671	0.0161878
757.749	0.0161948
757.828	0.0163959
757.906	0.0161890
757.984	0.0161710
758.062	0.0161916
758.140	0.0163084
758.218	0.0162145
758.296	0.0160748
758.374	0.0162606
758.453	0.0163278
758.531	0.0162824
758.609	0.0162019
758.687	0.0162036
758.765	0.0162115
758.843	0.0163271
758.921	0.0162342
758.999	0.0163402
759.078	0.0163338
759.156	0.0162604
759.234	0.0163111
759.312	0.0163171
759.390	0.0162892
759.468	0.0163256
759.546	0.0162509
759.624	0.0163090
759.703	0.0163544
759.781	0.0162798
759.859	0.0162612
759.937	0.0163352
760.015	0.0162550
760.093	0.0163856
760.171	0.0162171
760.249	0.0164426
760.328	0.0163696
760.406	0.0164622
760.484	0.0165142
760.562	0.0164114
760.640	0.0162205
760.718	0.0163419
760.796	0.0163123
760.874	0.0161662
760.953	0.0163797
761.031	0.0164218
761.109	0.0163395
761.187	0.0162714
761.265	0.0163274
761.343	0.0162705
761.421	0.0161987
761.499	0.0163876
761.578	0.0164712
761.656	0.0163261
761.734	0.0163597
761.812	0.0164611
761.890	0.0164767
761.968	0.0164189
762.046	0.0165187
762.124	0.0163685
762.203	0.0164253
762.281	0.0165923
762.359	0.0163858
762.437	0.0164295
762.515	0.0163974
762.593	0.0162941
762.671	0.0162579
762.749	0.0162378
762.828	0.0162682
762.906	0.0163254
762.984	0.0164068
763.062	0.0162158
763.140	0.0161844
763.218	0.0161569
763.296	0.0161442
763.374	0.0162474
763.453	0.0162988
763.531	0.0162543
763.609	0.0162868
763.687	0.0162714
763.765	0.0160922
763.843	0.0160777
763.921	0.0160795
763.999	0.0163578
764.078	0.0161676
764.156	0.0162297
764.234	0.0161766
764.312	0.0163140
764.390	0.0162574
764.468	0.0162188
764.546	0.0162261
764.624	0.0161629
764.703	0.0162485
764.781	0.0162215
764.859	0.0162864
764.937	0.0162336
765.015	0.0162035
765.093	0.0162856
765.171	0.0161891
765.249	0.0161936
765.328	0.0160658
765.406	0.0160989
765.484	0.0162442
765.562	0.0161237
765.640	0.0162111
765.718	0.0162885
765.796	0.0163630
765.874	0.0161283
765.953	0.0162238
766.031	0.0161090
766.109	0.0160490
766.187	0.0161893
766.265	0.0161318
766.343	0.0162727
766.421	0.0161029
766.499	0.0161658
766.578	0.0161086
766.656	0.0162659
766.734	0.0161552
766.812	0.0161820
766.890	0.0162294
766.968	0.0161345
767.046	0.0160931
767.124	0.0160876
767.203	0.0162241
767.281	0.0161239
767.359	0.0160396
767.437	0.0160905
767.515	0.0159917
767.593	0.0161155
767.671	0.0160186
767.749	0.0159669
767.828	0.0158922
767.906	0.0159724
767.984	0.0161170
768.062	0.0159791
768.140	0.0158556
768.218	0.0159153
768.296	0.0159692
768.374	0.0160149
768.453	0.0160079
768.531	0.0159454
768.609	0.0159358
768.687	0.0159546
768.765	0.0159959
768.843	0.0159326
768.921	0.0160305
768.999	0.0161816
769.078	0.0161346
769.156	0.0160865
769.234	0.0161952
769.312	0.0162592
769.390	0.0164027
769.468	0.0162619
769.546	0.0162524
769.624	0.0164046
769.703	0.0162459
769.781	0.0163226
769.859	0.0164165
769.937	0.0162235
770.015	0.0163472
770.093	0.0163685
770.171	0.0162823
770.249	0.0161477
770.328	0.0162808
770.406	0.0162844
770.484	0.0162135
770.562	0.0161428
770.640	0.0162269
770.718	0.0161516
770.796	0.0161544
770.874	0.0161953
770.953	0.0161674
771.031	0.0161849
771.109	0.0160655
771.187	0.0160078
771.265	0.0160265
771.343	0.0161826
771.421	0.0162275
771.499	0.0159872
771.578	0.0160822
771.656	0.0160805
771.734	0.0160348
771.812	0.0161089
771.890	0.0160734
771.968	0.0161850
772.046	0.0159722
772.124	0.0162015
772.203	0.0161209
772.281	0.0160867
772.359	0.0162229
772.437	0.0160743
772.515	0.0161534
772.593	0.0160963
772.671	0.0161858
772.749	0.0160181
772.828	0.0161270
772.906	0.0160929
772.984	0.0161833
773.062	0.0161573
773.140	0.0161000
773.218	0.0161993
773.296	0.0162027
773.374	0.0162503
773.453	0.0161258
773.531	0.0160620
773.609	0.0161828
773.687	0.0163858
773.765	0.0162675
773.843	0.0161385
773.921	0.0162331
773.999	0.0162752
774.078	0.0162314
774.156	0.0162841
774.234	0.0162147
774.312	0.0162109
774.390	0.0162760
774.468	0.0163637
774.546	0.0161752
774.624	0.0161525
774.703	0.0161636
774.781	0.0162231
774.859	0.0162047
774.937	0.0163029
775.015	0.0162109
775.093	0.0162845
775.171	0.0163301
775.249	0.0162706
775.328	0.0163251
775.406	0.0164014
775.484	0.0163367
775.562	0.0163340
775.640	0.0164027
775.718	0.0160954
775.796	0.0161754
775.874	0.0162055
775.953	0.0164034
776.031	0.0163365
776.109	0.0161316
776.187	0.0162815
776.265	0.0162164
776.343	0.0162998
776.421	0.0162790
776.499	0.0162846
776.578	0.0163385
776.656	0.0163985
776.734	0.0163480
776.812	0.0162338
776.890	0.0163242
776.968	0.0162379
777.046	0.0164438
777.124	0.0163387
777.203	0.0162662
777.281	0.0163324
777.359	0.0163443
777.437	0.0161915
777.515	0.0161823
777.593	0.0161531
777.671	0.0162295
777.749	0.0161914
777.828	0.0159664
777.906	0.0162911
777.984	0.0160471
778.062	0.0160816
778.140	0.0159992
778.218	0.0160925
778.296	0.0159785
778.374	0.0160911
778.453	0.0159290
778.531	0.0160286
778.609	0.0161784
778.687	0.0160297
778.765	0.0159925
778.843	0.0161538
778.921	0.0161595
778.999	0.0160851
779.078	0.0162740
779.156	0.0163683
779.234	0.0163844
779.312	0.0164647
779.390	0.0164746
779.468	0.0163816
779.546	0.0164465
779.624	0.0163759
779.703	0.0164745
779.781	0.0162758
779.859	0.0163628
779.937	0.0163936
780.015	0.0163399
780.093	0.0162232
780.171	0.0164745
780.249	0.0162247
780.328	0.0162895
780.406	0.0162324
780.484	0.0162500
780.562	0.0162962
780.640	0.0161963
780.718	0.0161948
780.796	0.0162471
780.874	0.0163153
780.953	0.0162239
781.031	0.0161539
781.109	0.0160397
781.187	0.0161470
781.265	0.0161744
781.343	0.0160899
781.421	0.0161336
781.499	0.0162434
781.578	0.0160767
781.656	0.0161259
781.734	0.0159820
781.812	0.0161395
781.890	0.0161023
781.968	0.0160279
782.046	0.0160117
782.124	0.0161052
782.203	0.0161232
782.281	0.0160299
782.359	0.0161263
782.437	0.0161989
782.515	0.0161905
782.593	0.0162997
782.671	0.0162871
782.749	0.0162784
782.828	0.0163116
782.906	0.0161796
782.984	0.0163245
783.062	0.0165339
783.140	0.0163536
783.218	0.0164386
783.296	0.0164579
783.374	0.0165235
783.453	0.0164193
783.531	0.0163174
783.609	0.0164199
783.687	0.0164213
783.765	0.0162221
783.843	0.0163231
783.921	0.0163991
783.999	0.0164612
784.078	0.0164306
784.156	0.0162309
784.234	0.0161860
784.312	0.0163287
784.390	0.0163705
784.468	0.0162381
784.546	0.0163853
784.624	0.0161562
784.703	0.0162286
784.781	0.0162830
784.859	0.0163268
784.937	0.0163366
785.015	0.0164510
785.093	0.0163525
785.171	0.0162875
785.249	0.0163810
785.328	0.0163682
785.406	0.0162889
785.484	0.0162679
785.562	0.0162560
785.640	0.0162333
785.718	0.0164187
785.796	0.0162550
785.874	0.0162044
785.953	0.0162241
786.031	0.0162585
786.109	0.0162294
786.187	0.0161700
786.265	0.0160728
786.343	0.0161551
786.421	0.0161331
786.499	0.0160106
786.578	0.0160426
786.656	0.0160741
786.734	0.0161515
786.812	0.0160596
786.890	0.0160104
786.968	0.0160868
787.046	0.0159947
787.124	0.0161494
787.203	0.0161035
787.281	0.0160587
787.359	0.0161972
787.437	0.0161390
787.515	0.0161034
787.593	0.0161465
787.671	0.0160696
787.749	0.0160400
787.828	0.0161884
787.906	0.0160900
787.984	0.0162016
788.062	0.0162011
788.140	0.0160172
788.218	0.0160753
788.296	0.0160599
788.374	0.0160442
788.453	0.0161070
788.531	0.0160754
788.609	0.0160279
788.687	0.0160520
788.765	0.0162473
788.843	0.0161278
788.921	0.0161465
788.999	0.0160429
789.078	0.0161587
789.156	0.0162669
789.234	0.0162495
789.312	0.0161980
789.390	0.0161508
789.468	0.0162628
789.546	0.0162878
789.624	0.0161418
789.703	0.0162554
789.781	0.0161241
789.859	0.0161980
789.937	0.0162624
790.015	0.0162752
790.093	0.0164024
790.171	0.0162717
790.249	0.0163973
790.328	0.0163393
790.406	0.0161579
790.484	0.0163800
790.562	0.0163498
790.640	0.0161973
790.718	0.0161324
790.796	0.0163658
790.874	0.0161505
790.953	0.0160340
791.031	0.0159850
791.109	0.0161137
791.187	0.0161318
791.265	0.0160621
791.343	0.0159583
791.421	0.0160416
791.499	0.0160962
791.578	0.0159301
791.656	0.0159914
791.734	0.0159710
791.812	0.0158006
791.890	0.0159350
791.968	0.0159377
792.046	0.0158823
792.124	0.0158541
792.203	0.0159340
792.281	0.0158663
792.359	0.0159456
792.437	0.0159621
792.515	0.0159954
792.593	0.0160101
792.671	0.0159847
792.749	0.0161444
792.828	0.0161098
792.906	0.0161858
792.984	0.0162080
793.062	0.0162714
793.140	0.0161976
793.218	0.0162589
793.296	0.0163609
793.374	0.0163437
793.453	0.0164749
793.531	0.0164158
793.609	0.0163146
793.687	0.0163742
793.765	0.0161868
793.843	0.0161918
793.921	0.0162570
793.999	0.0164095
794.078	0.0164777
794.156	0.0162442
794.234	0.0164503
794.312	0.0162882
794.390	0.0163660
794.468	0.0163749
794.546	0.0162127
794.624	0.0162648
794.703	0.0163081
794.781	0.0163601
794.859	0.0163526
794.937	0.0163548
795.015	0.0163101
795.093	0.0162551
795.171	0.0163233
795.249	0.0164597
795.328	0.0161880
795.406	0.0161799
795.484	0.0160373
795.562	0.0161208
795.640	0.0162663
795.718	0.0161342
795.796	0.0160552
795.874	0.0161188
795.953	0.0161301
796.031	0.0161238
796.109	0.0160387
796.187	0.0160679
796.265	0.0160808
796.343	0.0160162
796.421	0.0160031
796.499	0.0160812
796.578	0.0161420
796.656	0.0161718
796.734	0.0161770
796.812	0.0162168
796.890	0.0161852
796.968	0.0161340
797.046	0.0162985
797.124	0.0162799
797.203	0.0160609
797.281	0.0162428
797.359	0.0162223
797.437	0.0162482
797.515	0.0162817
797.593	0.0163032
797.671	0.0162335
797.749	0.0162762
797.828	0.0163360
797.906	0.0162566
797.984	0.0163220
798.062	0.0163577
798.140	0.0162871
798.218	0.0163603
798.296	0.0162251
798.374	0.0163386
798.453	0.0164904
798.531	0.0163847
798.609	0.0161207
798.687	0.0162076
798.765	0.0162381
798.843	0.0162593
798.921	0.0163084
798.999	0.0163064
799.078	0.0162373
799.156	0.0162871
799.234	0.0163621
799.312	0.0164429
799.390	0.0162283
799.468	0.0162583
799.546	0.0163342
799.624	0.0162884
799.703	0.0162234
799.781	0.0163474
799.859	0.0163254
799.937	0.0163535
800.015	0.0162852
800.093	0.0162289
800.171	0.0163065
800.249	0.0162139
800.328	0.0161982
800.406	0.0162212
800.484	0.0162881
800.562	0.0164130
800.640	0.0161210
800.718	0.0161620
800.796	0.0161533
800.874	0.0161979
800.953	0.0163039
801.031	0.0163766
801.109	0.0162488
801.187	0.0162724
801.265	0.0162256
801.343	0.0162773
801.421	0.0162464
801.499	0.0162152
801.578	0.0163826
801.656	0.0162572
801.734	0.0162249
801.812	0.0162807
801.890	0.0163588
801.968	0.0162874
802.046	0.0161806
802.124	0.0163046
802.203	0.0162537
802.281	0.0161729
802.359	0.0162992
802.437	0.0161303
802.515	0.0161330
802.593	0.0162366
802.671	0.0161819
802.749	0.0162306
802.828	0.0162248
802.906	0.0163139
802.984	0.0161687
803.062	0.0163969
803.140	0.0162948
803.218	0.0163454
803.296	0.0162701
803.374	0.0164341
803.453	0.0162819
803.531	0.0163516
803.609	0.0162770
803.687	0.0163387
803.765	0.0161977
803.843	0.0162542
803.921	0.0163311
803.999	0.0163221
804.078	0.0164000
804.156	0.0163914
804.234	0.0163825
804.312	0.0164373
804.390	0.0164428
804.468	0.0163909
804.546	0.0164356
804.624	0.0164415
804.703	0.0164793
804.781	0.0164618
804.859	0.0165278
804.937	0.0163937
805.015	0.0163061
805.093	0.0162231
805.171	0.0164001
805.249	0.0162781
805.328	0.0163241
805.406	0.0162611
805.484	0.0162887
805.562	0.0162047
805.640	0.0162373
805.718	0.0162629
805.796	0.0161166
805.874	0.0161928
805.953	0.0162904
806.031	0.0162492
806.109	0.0161382
806.187	0.0162706
806.265	0.0161763
806.343	0.0161076
806.421	0.0161736
806.499	0.0163273
806.578	0.0162994
806.656	0.0161519
806.734	0.0162605
806.812	0.0163102
806.890	0.0162897
806.968	0.0162482
807.046	0.0164878
807.124	0.0165251
807.203	0.0164205
807.281	0.0164554
807.359	0.0163149
807.437	0.0163358
807.515	0.0163943
807.593	0.0163885
807.671	0.0163493
807.749	0.0163461
807.828	0.0163747
807.906	0.0163125
807.984	0.0164088
808.062	0.0164164
808.140	0.0163518
808.218	0.0164330
808.296	0.0163350
808.374	0.0164066
808.453	0.0162831
808.531	0.0165338
808.609	0.0163527
808.687	0.0163007
808.765	0.0163606
808.843	0.0163512
808.921	0.0162335
808.999	0.0163496
809.078	0.0162187
809.156	0.0162122
809.234	0.0160991
809.312	0.0161531
809.390	0.0161868
809.468	0.0162689
809.546	0.0161407
809.624	0.0160585
809.703	0.0162311
809.781	0.0161865
809.859	0.0160873
809.937	0.0160619
810.015	0.0161415
810.093	0.0161489
810.171	0.0162118
810.249	0.0161739
810.328	0.0161443
810.406	0.0160926
810.484	0.0161617
810.562	0.0162474
810.640	0.0161452
810.718	0.0161029
810.796	0.0162217
810.874	0.0162674
810.953	0.0160566
811.031	0.0162310
811.109	0.0163123
811.187	0.0162505
811.265	0.0162479
811.343	0.0163161
811.421	0.0163515
811.499	0.0163582
811.578	0.0163326
811.656	0.0162032
811.734	0.0163433
811.812	0.0163744
811.890	0.0161954
811.968	0.0163274
812.046	0.0163122
812.124	0.0165327
812.203	0.0162868
812.281	0.0162531
812.359	0.0164369
812.437	0.0162347
812.515	0.0162695
812.593	0.0163618
812.671	0.0161848
812.749	0.0163436
812.828	0.0163381
812.906	0.0163179
812.984	0.0162661
813.062	0.0162077
813.140	0.0163696
813.218	0.0163127
813.296	0.0164456
813.374	0.0163367
813.453	0.0161671
813.531	0.0162078
813.609	0.0162378
813.687	0.0163138
813.765	0.0162484
813.843	0.0162967
813.921	0.0163229
813.999	0.0163697
814.078	0.0161879
814.156	0.0161887
814.234	0.0163134
814.312	0.0162238
814.390	0.0161247
814.468	0.0162663
814.546	0.0160587
814.624	0.0160883
814.703	0.0161245
814.781	0.0162557
814.859	0.0161965
814.937	0.0161618
815.015	0.0161258
815.093	0.0161521
815.171	0.0162921
815.249	0.0160868
815.328	0.0161192
815.406	0.0163552
815.484	0.0161629
815.562	0.0160229
815.640	0.0161062
815.718	0.0161968
815.796	0.0160991
815.874	0.0161953
815.953	0.0161411
816.031	0.0164339
816.109	0.0163013
816.187	0.0162875
816.265	0.0164566
816.343	0.0164993
816.421	0.0163806
816.499	0.0163696
816.578	0.0166592
816.656	0.0166119
816.734	0.0165987
816.812	0.0165468
816.890	0.0165366
816.968	0.0165082
817.046	0.0164078
817.124	0.0164717
817.203	0.0163194
817.281	0.0164559
817.359	0.0163017
817.437	0.0164308
817.515	0.0163352
817.593	0.0162599
817.671	0.0162852
817.749	0.0164496
817.828	0.0163612
817.906	0.0162946
817.984	0.0162266
818.062	0.0162031
818.140	0.0162157
818.218	0.0162690
818.296	0.0162743
818.374	0.0162192
818.453	0.0161503
818.531	0.0163763
818.609	0.0162296
818.687	0.0163226
818.765	0.0162609
818.843	0.0162032
818.921	0.0162890
818.999	0.0161482
819.078	0.0162219
819.156	0.0162516
819.234	0.0163794
819.312	0.0163930
819.390	0.0163595
819.468	0.0163545
819.546	0.0164304
819.624	0.0164312
819.703	0.0163358
819.781	0.0163329
819.859	0.0165285
819.937	0.0163747
820.015	0.0164509
820.093	0.0164449
820.171	0.0165676
820.249	0.0165163
820.328	0.0164658
820.406	0.0164573
820.484	0.0164466
820.562	0.0165147
820.640	0.0164432
820.718	0.0163828
820.796	0.0164146
820.874	0.0164400
820.953	0.0163267
821.031	0.0164127
821.109	0.0164213
821.187	0.0163313
821.265	0.0162655
821.343	0.0162778
821.421	0.0162658
821.499	0.0164490
821.578	0.0164884
821.656	0.0163174
821.734	0.0162968
821.812	0.0164380
821.890	0.0164873
821.968	0.0163817
822.046	0.0163280
822.124	0.0163226
822.203	0.0163362
822.281	0.0164651
822.359	0.0162565
822.437	0.0164097
822.515	0.0165240
822.593	0.0165058
822.671	0.0164825
822.749	0.0163465
822.828	0.0164004
822.906	0.0164857
822.984	0.0164342
823.062	0.0165399
823.140	0.0163350
823.218	0.0163321
823.296	0.0163962
823.374	0.0163937
823.453	0.0162776
823.531	0.0163645
823.609	0.0163335
823.687	0.0163361
823.765	0.0163637
823.843	0.0164101
823.921	0.0163091
823.999	0.0162401
824.078	0.0163885
824.156	0.0165462
824.234	0.0163464
824.312	0.0162306
824.390	0.0162593
824.468	0.0162103
824.546	0.0162719
824.624	0.0161983
824.703	0.0163712
824.781	0.0163568
824.859	0.0163041
824.937	0.0160490
825.015	0.0161543
825.093	0.0162343
825.171	0.0160997
825.249	0.0162376
825.328	0.0163168
825.406	0.0163484
825.484	0.0163354
825.562	0.0162688
825.640	0.0164687
825.718	0.0164319
825.796	0.0163715
825.874	0.0164584
825.953	0.0165224
826.031	0.0164113
826.109	0.0165348
826.187	0.0163291
826.265	0.0164982
826.343	0.0165450
826.421	0.0162215
826.499	0.0163805
826.578	0.0163842
826.656	0.0161959
826.734	0.0164087
826.812	0.0163564
826.890	0.0163931
826.968	0.0163216
827.046	0.0162524
827.124	0.0162404
827.203	0.0162494
827.281	0.0164089
827.359	0.0163079
827.437	0.0162150
827.515	0.0161150
827.593	0.0160613
827.671	0.0161065
827.749	0.0160947
827.828	0.0160538
827.906	0.0159136
827.984	0.0161473
828.062	0.0159594
828.140	0.0159538
828.218	0.0160716
828.296	0.0161717
828.374	0.0160564
828.453	0.0162746
828.531	0.0162836
828.609	0.0161296
828.687	0.0162668
828.765	0.0161719
828.843	0.0162203
828.921	0.0162966
828.999	0.0165018
829.078	0.0162766
829.156	0.0163455
829.234	0.0163331
829.312	0.0164109
829.390	0.0162232
829.468	0.0163030
829.546	0.0164018
829.624	0.0163391
829.703	0.0163119
829.781	0.0162680
829.859	0.0162998
829.937	0.0163348
830.015	0.0162982
830.093	0.0162662
830.171	0.0162825
830.249	0.0163381
830.328	0.0162754
830.406	0.0162091
830.484	0.0161366
830.562	0.0163242
830.640	0.0163065
830.718	0.0162585
830.796	0.0161782
830.874	0.0163506
830.953	0.0163267
831.031	0.0163081
831.109	0.0163339
831.187	0.0162729
831.265	0.0163091
831.343	0.0164076
831.421	0.0163525
831.499	0.0162213
831.578	0.0162258
831.656	0.0163721
831.734	0.0161516
831.812	0.0160394
831.890	0.0160957
831.968	0.0160767
832.046	0.0160037
832.124	0.0159029
832.203	0.0160249
832.281	0.0160670
832.359	0.0159777
832.437	0.0161066
832.515	0.0158704
832.593	0.0161262
832.671	0.0161031
832.749	0.0159943
832.828	0.0159920
832.906	0.0161652
832.984	0.0159969
833.062	0.0161539
833.140	0.0163742
833.218	0.0164840
833.296	0.0164243
833.374	0.0164907
833.453	0.0166544
833.531	0.0168216
833.609	0.0166132
833.687	0.0164935
833.765	0.0166988
833.843	0.0166708
833.921	0.0165987
833.999	0.0167476
834.078	0.0165936
834.156	0.0164477
834.234	0.0164056
834.312	0.0163714
834.390	0.0164029
834.468	0.0163173
834.546	0.0160802
834.624	0.0161716
834.703	0.0160674
834.781	0.0161181
834.859	0.0160878
834.937	0.0160015
835.015	0.0159807
835.093	0.0159772
835.171	0.0159650
835.249	0.0159090
835.328	0.0159233
835.406	0.0159469
835.484	0.0159717
835.562	0.0159643
835.640	0.0160616
835.718	0.0160618
835.796	0.0160329
835.874	0.0159755
835.953	0.0160959
836.031	0.0163094
836.109	0.0161848
836.187	0.0163393
836.265	0.0163558
836.343	0.0164358
836.421	0.0164320
836.499	0.0165139
836.578	0.0166337
836.656	0.0167365
836.734	0.0168650
836.812	0.0167445
836.890	0.0166310
836.968	0.0166766
837.046	0.0167709
837.124	0.0166209
837.203	0.0165947
837.281	0.0164404
837.359	0.0165772
837.437	0.0164410
837.515	0.0162492
837.593	0.0162096
837.671	0.0162726
837.749	0.0161798
837.828	0.0161280
837.906	0.0160289
837.984	0.0161167
838.062	0.0159986
838.140	0.0160444
838.218	0.0161026
838.296	0.0159755
838.374	0.0160622
838.453	0.0161642
838.531	0.0160776
838.609	0.0160931
838.687	0.0161314
838.765	0.0161840
838.843	0.0162633
838.921	0.0161156
838.999	0.0163138
839.078	0.0162917
839.156	0.0162855
839.234	0.0162903
839.312	0.0163426
839.390	0.0162951
839.468	0.0163055
839.546	0.0164101
839.624	0.0161784
839.703	0.0164697
839.781	0.0165028
839.859	0.0164051
839.937	0.0162690
840.015	0.0162643
840.093	0.0162598
840.171	0.0162052
840.249	0.0161565
840.328	0.0162526
840.406	0.0162044
840.484	0.0160848
840.562	0.0160853
840.640	0.0159789
840.718	0.0162328
840.796	0.0161010
840.874	0.0160915
840.953	0.0159572
841.031	0.0159000
841.109	0.0159985
841.187	0.0160480
841.265	0.0160555
841.343	0.0160742
841.421	0.0160751
841.499	0.0162225
841.578	0.0163229
841.656	0.0164172
841.734	0.0162431
841.812	0.0163527
841.890	0.0164240
841.968	0.0164441
842.046	0.0163954
842.124	0.0162177
842.203	0.0162899
842.281	0.0165353
842.359	0.0162701
842.437	0.0162703
842.515	0.0161985
842.593	0.0162237
842.671	0.0160689
842.749	0.0160870
842.828	0.0160618
842.906	0.0160925
842.984	0.0161013
843.062	0.0161428
843.140	0.0160283
843.218	0.0160281
843.296	0.0160547
843.374	0.0161217
843.453	0.0160528
843.531	0.0160772
843.609	0.0160944
843.687	0.0161345
843.765	0.0159722
843.843	0.0160246
843.921	0.0161628
843.999	0.0160683
844.078	0.0160535
844.156	0.0162832
844.234	0.0162826
844.312	0.0161486
844.390	0.0161399
844.468	0.0160797
844.546	0.0163184
844.624	0.0162256
844.703	0.0162412
844.781	0.0161446
844.859	0.0161136
844.937	0.0161791
845.015	0.0162748
845.093	0.0163746
845.171	0.0162086
845.249	0.0163197
845.328	0.0163767
845.406	0.0163464
845.484	0.0162883
845.562	0.0162794
845.640	0.0162566
845.718	0.0161184
845.796	0.0161950
845.874	0.0162328
845.953	0.0161767
846.031	0.0162276
846.109	0.0162884
846.187	0.0160748
846.265	0.0162451
846.343	0.0163243
846.421	0.0163949
846.499	0.0164023
846.578	0.0163772
846.656	0.0164472
846.734	0.0164960
846.812	0.0164646
846.890	0.0165346
846.968	0.0164852
847.046	0.0164686
847.124	0.0163134
847.203	0.0164432
847.281	0.0164613
847.359	0.0164604
847.437	0.0163132
847.515	0.0164625
847.593	0.0162650
847.671	0.0163656
847.749	0.0164245
847.828	0.0163138
847.906	0.0162986
847.984	0.0162325
848.062	0.0162521
848.140	0.0163336
848.218	0.0162385
848.296	0.0163013
848.374	0.0163417
848.453	0.0161977
848.531	0.0163597
848.609	0.0163413
848.687	0.0165028
848.765	0.0162540
848.843	0.0163902
848.921	0.0162708
848.999	0.0161929
849.078	0.0162038
849.156	0.0163543
849.234	0.0161900
849.312	0.0162907
849.390	0.0164394
849.468	0.0162952
849.546	0.0164266
849.624	0.0163338
849.703	0.0163390
849.781	0.0162244
849.859	0.0163407
849.937	0.0162540
850.015	0.0163161
850.093	0.0162093
850.171	0.0162837
850.249	0.0164346
850.328	0.0162294
850.406	0.0162734
850.484	0.0164114
850.562	0.0162881
850.640	0.0161063
850.718	0.0162157
850.796	0.0161750
850.874	0.0161143
850.953	0.0162974
851.031	0.0161279
851.109	0.0161501
851.187	0.0161098
851.265	0.0161373
851.343	0.0161134
851.421	0.0160448
851.499	0.0160742
851.578	0.0161293
851.656	0.0160591
851.734	0.0162061
851.812	0.0162376
851.890	0.0161714
851.968	0.0162199
852.046	0.0161633
852.124	0.0162248
852.203	0.0162318
852.281	0.0163175
852.359	0.0164752
852.437	0.0162775
852.515	0.0162833
852.593	0.0163727
852.671	0.0163235
852.749	0.0163591
852.828	0.0163490
852.906	0.0163998
852.984	0.0165263
853.062	0.0164306
853.140	0.0164023
853.218	0.0164117
853.296	0.0164060
853.374	0.0163062
853.453	0.0162895
853.531	0.0163621
853.609	0.0162290
853.687	0.0162597
853.765	0.0160511
853.843	0.0161967
853.921	0.0160695
853.999	0.0161707
854.078	0.0160730
854.156	0.0160877
854.234	0.0160331
854.312	0.0160052
854.390	0.0160332
854.468	0.0159365
854.546	0.0160815
854.624	0.0159646
854.703	0.0158890
854.781	0.0160092
854.859	0.0160620
854.937	0.0159179
855.015	0.0158620
855.093	0.0160210
855.171	0.0160456
855.249	0.0160451
855.328	0.0159296
855.406	0.0160207
855.484	0.0161392
855.562	0.0162003
855.640	0.0161328
855.718	0.0160419
855.796	0.0161779
855.874	0.0163045
855.953	0.0162868
856.031	0.0162688
856.109	0.0161484
856.187	0.0162732
856.265	0.0163599
856.343	0.0162998
856.421	0.0164629
856.499	0.0163157
856.578	0.0163881
856.656	0.0165979
856.734	0.0163947
856.812	0.0163637
856.890	0.0164304
856.968	0.0164648
857.046	0.0162991
857.124	0.0163315
857.203	0.0163614
857.281	0.0163741
857.359	0.0163599
857.437	0.0162440
857.515	0.0162556
857.593	0.0161118
857.671	0.0163058
857.749	0.0161943
857.828	0.0161528
857.906	0.0159378
857.984	0.0160957
858.062	0.0161143
858.140	0.0161147
858.218	0.0162132
858.296	0.0161757
858.374	0.0160726
858.453	0.0161670
858.531	0.0162019
858.609	0.0161017
858.687	0.0160319
858.765	0.0161946
858.843	0.0159782
858.921	0.0160973
858.999	0.0161248
859.078	0.0160825
859.156	0.0160855
859.234	0.0161806
859.312	0.0160535
859.390	0.0161924
859.468	0.0162460
859.546	0.0160812
859.624	0.0160094
859.703	0.0161098
859.781	0.0162429
859.859	0.0161606
859.937	0.0160456
860.015	0.0162539
860.093	0.0161458
860.171	0.0162798
860.249	0.0162777
860.328	0.0161917
860.406	0.0162965
860.484	0.0163151
860.562	0.0163593
860.640	0.0162691
860.718	0.0163054
860.796	0.0163564
860.874	0.0164221
860.953	0.0163615
861.031	0.0163810
861.109	0.0162616
861.187	0.0160477
861.265	0.0161917
861.343	0.0162429
861.421	0.0160890
861.499	0.0161906
861.578	0.0161694
861.656	0.0160266
861.734	0.0160034
861.812	0.0160080
861.890	0.0161437
861.968	0.0159357
862.046	0.0159872
862.124	0.0160357
862.203	0.0160267
862.281	0.0159437
862.359	0.0161568
862.437	0.0160229
862.515	0.0160591
862.593	0.0160263
862.671	0.0160470
862.749	0.0161050
862.828	0.0160568
862.906	0.0160793
862.984	0.0161605
863.062	0.0161417
863.140	0.0161275
863.218	0.0162081
863.296	0.0162267
863.374	0.0161979
863.453	0.0163509
863.531	0.0163073
863.609	0.0163091
863.687	0.0162636
863.765	0.0161655
863.843	0.0161131
863.921	0.0162884
863.999	0.0162558
864.078	0.0162019
864.156	0.0161887
864.234	0.0161612
864.312	0.0162350
864.390	0.0162485
864.468	0.0162322
864.546	0.0162368
864.624	0.0162075
864.703	0.0161263
864.781	0.0161750
864.859	0.0161100
864.937	0.0161541
865.015	0.0161260
865.093	0.0161976
865.171	0.0161267
865.249	0.0160173
865.328	0.0159927
865.406	0.0159250
865.484	0.0160524
865.562	0.0160017
865.640	0.0159615
865.718	0.0161057
865.796	0.0159980
865.874	0.0159855
865.953	0.0161581
866.031	0.0160126
866.109	0.0161533
866.187	0.0161772
866.265	0.0160942
866.343	0.0160452
866.421	0.0161598
866.499	0.0161562
866.578	0.0160876
866.656	0.0160947
866.734	0.0161783
866.812	0.0162837
866.890	0.0162621
866.968	0.0162320
867.046	0.0161880
867.124	0.0162496
867.203	0.0163579
867.281	0.0163183
867.359	0.0161782
867.437	0.0162002
867.515	0.0162854
867.593	0.0161472
867.671	0.0161365
867.749	0.0161375
867.828	0.0162334
867.906	0.0162147
867.984	0.0161954
868.062	0.0160731
868.140	0.0161705
868.218	0.0161444
868.296	0.0161407
868.374	0.0163271
868.453	0.0161619
868.531	0.0161179
868.609	0.0162849
868.687	0.0163144
868.765	0.0162878
868.843	0.0162253
868.921	0.0163147
868.999	0.0161731
869.078	0.0163177
869.156	0.0161734
869.234	0.0162750
869.312	0.0162988
869.390	0.0161295
869.468	0.0160868
869.546	0.0162601
869.624	0.0161398
869.703	0.0160885
869.781	0.0162014
869.859	0.0161488
869.937	0.0161362
870.015	0.0161045
870.093	0.0161377
870.171	0.0161616
870.249	0.0162530
870.328	0.0163190
870.406	0.0162270
870.484	0.0162481
870.562	0.0162197
870.640	0.0163486
870.718	0.0162666
870.796	0.0162025
870.874	0.0162154
870.953	0.0162321
871.031	0.0163787
871.109	0.0162373
871.187	0.0162321
871.265	0.0161967
871.343	0.0163552
871.421	0.0162015
871.499	0.0161467
871.578	0.0162939
871.656	0.0162160
871.734	0.0162479
871.812	0.0162645
871.890	0.0162126
871.968	0.0162816
872.046	0.0163171
872.124	0.0162703
872.203	0.0163938
872.281	0.0162970
872.359	0.0163909
872.437	0.0163600
872.515	0.0162811
872.593	0.0163338
872.671	0.0162292
872.749	0.0163575
872.828	0.0162314
872.906	0.0163211
872.984	0.0163019
873.062	0.0161887
873.140	0.0162315
873.218	0.0162573
873.296	0.0162461
873.374	0.0162335
873.453	0.0162192
873.531	0.0161272
873.609	0.0162704
873.687	0.0161064
873.765	0.0161779
873.843	0.0161113
873.921	0.0162194
873.999	0.0161589
874.078	0.0162029
874.156	0.0162182
874.234	0.0161762
874.312	0.0161452
874.390	0.0161221
874.468	0.0160521
874.546	0.0161352
874.624	0.0161594
874.703	0.0161970
874.781	0.0160320
874.859	0.0161208
874.937	0.0161616
875.015	0.0161335
875.093	0.0160363
875.171	0.0160824
875.249	0.0162835
875.328	0.0163420
875.406	0.0163205
875.484	0.0161664
875.562	0.0161359
875.640	0.0162380
875.718	0.0164456
875.796	0.0162846
875.874	0.0162566
875.953	0.0162889
876.031	0.0165364
876.109	0.0163805
876.187	0.0164597
876.265	0.0163744
876.343	0.0163511
876.421	0.0163419
876.499	0.0164084
876.578	0.0163720
876.656	0.0164374
876.734	0.0164031
876.812	0.0164272
876.890	0.0164325
876.968	0.0164153
877.046	0.0162293
877.124	0.0164009
877.203	0.0163309
877.281	0.0163044
877.359	0.0163367
877.437	0.0163676
877.515	0.0163038
877.593	0.0162920
877.671	0.0162910
877.749	0.0162406
877.828	0.0162147
877.906	0.0162885
877.984	0.0162745
878.062	0.0162885
878.140	0.0162733
878.218	0.0162325
878.296	0.0163285
878.374	0.0162637
878.453	0.0162979
878.531	0.0162556
878.609	0.0161124
878.687	0.0163840
878.765	0.0163205
878.843	0.0161735
878.921	0.0160906
878.999	0.0161172
879.078	0.0160799
879.156	0.0161441
879.234	0.0161642
879.312	0.0161425
879.390	0.0160814
879.468	0.0161057
879.546	0.0161850
879.624	0.0161977
879.703	0.0161856
879.781	0.0162276
879.859	0.0162257
879.937	0.0163379
880.015	0.0163465
880.093	0.0162654
880.171	0.0161729
880.249	0.0162502
880.328	0.0162653
880.406	0.0163640
880.484	0.0163284
880.562	0.0161903
880.640	0.0161613
880.718	0.0162685
880.796	0.0163155
880.874	0.0162300
880.953	0.0162953
881.031	0.0162364
881.109	0.0163685
881.187	0.0162380
881.265	0.0163575
881.343	0.0162807
881.421	0.0162514
881.499	0.0162628
881.578	0.0161653
881.656	0.0161743
881.734	0.0161404
881.812	0.0161035
881.890	0.0161266
881.968	0.0161389
882.046	0.0159339
882.124	0.0161562
882.203	0.0160953
882.281	0.0160095
882.359	0.0161269
882.437	0.0160353
882.515	0.0161719
882.593	0.0159541
882.671	0.0160960
882.749	0.0162215
882.828	0.0161223
882.906	0.0161369
882.984	0.0162471
883.062	0.0162624
883.140	0.0161352
883.218	0.0161567
883.296	0.0162753
883.374	0.0163665
883.453	0.0163886
883.531	0.0162415
883.609	0.0163437
883.687	0.0164851
883.765	0.0162987
883.843	0.0163384
883.921	0.0163046
883.999	0.0164003
884.078	0.0163428
884.156	0.0162259
884.234	0.0162569
884.312	0.0161671
884.390	0.0160958
884.468	0.0162746
884.546	0.0162558
884.624	0.0162471
884.703	0.0161559
884.781	0.0161887
884.859	0.0161609
884.937	0.0161606
885.015	0.0161530
885.093	0.0161703
885.171	0.0161839
885.249	0.0162673
885.328	0.0161666
885.406	0.0162411
885.484	0.0161872
885.562	0.0162264
885.640	0.0161962
885.718	0.0163063
885.796	0.0163235
885.874	0.0162898
885.953	0.0162778
886.031	0.0162431
886.109	0.0161790
886.187	0.0163108
886.265	0.0163165
886.343	0.0162618
886.421	0.0162590
886.499	0.0162862
886.578	0.0161712
886.656	0.0163633
886.734	0.0162189
886.812	0.0161357
886.890	0.0161888
886.968	0.0162688
887.046	0.0162529
887.124	0.0161812
887.203	0.0161591
887.281	0.0161977
887.359	0.0161900
887.437	0.0162142
887.515	0.0162408
887.593	0.0162396
887.671	0.0162002
887.749	0.0162733
887.828	0.0162178
887.906	0.0162009
887.984	0.0162709
888.062	0.0161596
888.140	0.0161439
888.218	0.0162550
888.296	0.0162737
888.374	0.0163554
888.453	0.0161846
888.531	0.0161665
888.609	0.0162114
888.687	0.0162463
888.765	0.0162258
888.843	0.0162420
888.921	0.0161684
888.999	0.0164575
889.078	0.0162436
889.156	0.0160942
889.234	0.0161036
889.312	0.0161276
889.390	0.0161452
889.468	0.0162611
889.546	0.0162558
889.624	0.0163422
889.703	0.0161028
889.781	0.0160991
889.859	0.0161291
889.937	0.0162098
890.015	0.0161989
890.093	0.0161435
890.171	0.0162132
890.249	0.0161586
890.328	0.0161351
890.406	0.0160706
890.484	0.0160826
890.562	0.0161773
890.640	0.0160494
890.718	0.0162337
890.796	0.0162200
890.874	0.0161577
890.953	0.0163490
891.031	0.0162228
891.109	0.0162383
891.187	0.0163185
891.265	0.0164162
891.343	0.0162156
891.421	0.0161028
891.499	0.0162526
891.578	0.0164130
891.656	0.0164316
891.734	0.0161556
891.812	0.0162072
891.890	0.0162337
891.968	0.0160958
892.046	0.0162801
892.124	0.0162017
892.203	0.0161017
892.281	0.0163171
892.359	0.0162939
892.437	0.0163493
892.515	0.0163705
892.593	0.0163525
892.671	0.0161434
892.749	0.0162894
892.828	0.0163340
892.906	0.0163505
892.984	0.0163227
893.062	0.0162657
893.140	0.0163298
893.218	0.0162144
893.296	0.0161216
893.374	0.0161172
893.453	0.0163523
893.531	0.0162548
893.609	0.0162990
893.687	0.0162739
893.765	0.0162790
893.843	0.0162183
893.921	0.0162649
893.999	0.0162072
894.078	0.0162573
894.156	0.0161891
894.234	0.0162520
894.312	0.0162805
894.390	0.0162128
894.468	0.0163356
894.546	0.0163385
894.624	0.0162630
894.703	0.0162897
894.781	0.0162681
894.859	0.0162684
894.937	0.0162658
895.015	0.0163275
895.093	0.0164108
895.171	0.0163041
895.249	0.0162081
895.328	0.0163990
895.406	0.0162857
895.484	0.0163067
895.562	0.0163387
895.640	0.0164872
895.718	0.0163932
895.796	0.0162520
895.874	0.0161755
895.953	0.0163079
896.031	0.0164771
896.109	0.0163561
896.187	0.0162461
896.265	0.0162267
896.343	0.0163018
896.421	0.0163186
896.499	0.0162730
896.578	0.0163618
896.656	0.0162511
896.734	0.0162481
896.812	0.0164560
896.890	0.0162757
896.968	0.0163615
897.046	0.0163332
897.124	0.0162569
897.203	0.0162630
897.281	0.0163712
897.359	0.0162953
897.437	0.0161223
897.515	0.0161514
897.593	0.0162670
897.671	0.0161924
897.749	0.0161836
897.828	0.0161281
897.906	0.0161546
897.984	0.0161511
898.062	0.0161754
898.140	0.0162198
898.218	0.0161390
898.296	0.0162516
898.374	0.0162160
898.453	0.0161543
898.531	0.0161189
898.609	0.0161465
898.687	0.0162053
898.765	0.0161680
898.843	0.0162674
898.921	0.0162189
898.999	0.0161507
899.078	0.0162927
899.156	0.0162208
899.234	0.0161476
899.312	0.0161578
899.390	0.0161526
899.468	0.0160518
899.546	0.0161511
899.624	0.0161635
899.703	0.0163474
899.781	0.0162731
899.859	0.0161387
899.937	0.0161804
900.015	0.0162231
900.093	0.0161398
900.171	0.0161632
900.249	0.0163540
900.328	0.0164641
900.406	0.0163107
900.484	0.0164264
900.562	0.0163329
900.640	0.0163009
900.718	0.0162460
900.796	0.0162388
900.874	0.0163045
900.953	0.0161683
901.031	0.0162702
901.109	0.0163417
901.187	0.0164158
901.265	0.0163781
901.343	0.0164340
901.421	0.0162597
901.499	0.0164333
901.578	0.0164259
901.656	0.0162735
901.734	0.0163589
901.812	0.0164523
901.890	0.0164476
901.968	0.0162958
902.046	0.0162495
902.124	0.0164302
902.203	0.0163643
902.281	0.0162901
902.359	0.0162886
902.437	0.0163915
902.515	0.0163374
902.593	0.0164390
902.671	0.0163039
902.749	0.0163145
902.828	0.0163546
902.906	0.0162505
902.984	0.0162539
903.062	0.0162401
903.140	0.0161832
903.218	0.0162193
903.296	0.0164196
903.374	0.0163955
903.453	0.0162222
903.531	0.0163496
903.609	0.0161560
903.687	0.0161769
903.765	0.0163466
903.843	0.0162264
903.921	0.0162576
903.999	0.0161963
904.078	0.0163191
904.156	0.0162030
904.234	0.0162608
904.312	0.0162057
904.390	0.0161353
904.468	0.0162031
904.546	0.0161423
904.624	0.0161526
904.703	0.0161201
904.781	0.0162925
904.859	0.0161521
904.937	0.0160902
905.015	0.0161489
905.093	0.0162079
905.171	0.0163115
905.249	0.0161681
905.328	0.0162761
905.406	0.0163146
905.484	0.0161980
905.562	0.0162392
905.640	0.0162514
905.718	0.0162625
905.796	0.0161126
905.874	0.0162752
905.953	0.0162862
906.031	0.0161608
906.109	0.0162731
906.187	0.0161939
906.265	0.0161808
906.343	0.0160184
906.421	0.0161098
906.499	0.0161198
906.578	0.0160399
906.656	0.0160128
906.734	0.0160494
906.812	0.0161252
906.890	0.0162218
906.968	0.0159919
907.046	0.0161028
907.124	0.0161871
907.203	0.0162278
907.281	0.0162321
907.359	0.0161293
907.437	0.0162521
907.515	0.0159821
907.593	0.0161202
907.671	0.0161404
907.749	0.0161463
907.828	0.0161390
907.906	0.0162086
907.984	0.0162466
908.062	0.0161291
908.140	0.0163197
908.218	0.0162299
908.296	0.0161606
908.374	0.0162678
908.453	0.0161914
908.531	0.0161521
908.609	0.0161778
908.687	0.0161919
908.765	0.0161569
908.843	0.0161587
908.921	0.0161220
908.999	0.0160857
909.078	0.0161668
909.156	0.0160576
909.234	0.0161423
909.312	0.0161690
909.390	0.0160754
909.468	0.0161257
909.546	0.0160533
909.624	0.0160260
909.703	0.0161029
909.781	0.0159975
909.859	0.0161243
909.937	0.0161640
910.015	0.0160372
910.093	0.0160602
910.171	0.0162005
910.249	0.0161667
910.328	0.0161194
910.406	0.0161003
910.484	0.0161143
910.562	0.0160370
910.640	0.0160894
910.718	0.0162280
910.796	0.0161213
910.874	0.0162543
910.953	0.0162123
911.031	0.0162491
911.109	0.0164094
911.187	0.0162357
911.265	0.0161493
911.343	0.0162453
911.421	0.0162267
911.499	0.0161703
911.578	0.0163546
911.656	0.0162946
911.734	0.0161880
911.812	0.0163303
911.890	0.0162769
911.968	0.0162309
912.046	0.0163107
912.124	0.0162294
912.203	0.0162159
912.281	0.0163878
912.359	0.0162424
912.437	0.0162328
912.515	0.0162253
912.593	0.0162851
912.671	0.0164074
912.749	0.0161685
912.828	0.0162904
912.906	0.0162957
912.984	0.0162547
913.062	0.0163187
913.140	0.0163921
913.218	0.0162412
913.296	0.0163196
913.374	0.0161864
913.453	0.0163039
913.531	0.0163782
913.609	0.0162425
913.687	0.0163140
913.765	0.0162379
913.843	0.0163427
913.921	0.0163502
913.999	0.0162997
914.078	0.0164028
914.156	0.0162750
914.234	0.0162889
914.312	0.0164029
914.390	0.0161734
914.468	0.0163522
914.546	0.0163363
914.624	0.0162263
914.703	0.0162392
914.781	0.0165154
914.859	0.0163635
914.937	0.0164001
915.015	0.0162913
915.093	0.0162217
915.171	0.0164431
915.249	0.0163084
915.328	0.0162372
915.406	0.0163213
915.484	0.0162392
915.562	0.0162352
915.640	0.0163744
915.718	0.0162569
915.796	0.0163217
915.874	0.0163426
915.953	0.0163645
916.031	0.0162263
916.109	0.0163447
916.187	0.0162892
916.265	0.0163143
916.343	0.0162703
916.421	0.0162720
916.499	0.0162337
916.578	0.0163251
916.656	0.0162785
916.734	0.0162671
916.812	0.0163239
916.890	0.0163140
916.968	0.0162911
917.046	0.0164064
917.124	0.0162143
917.203	0.0164594
917.281	0.0163564
917.359	0.0164538
917.437	0.0164909
917.515	0.0164448
917.593	0.0163002
917.671	0.0165462
917.749	0.0165496
917.828	0.0165098
917.906	0.0163526
917.984	0.0164899
918.062	0.0163837
918.140	0.0164502
918.218	0.0164594
918.296	0.0163252
918.374	0.0164159
918.453	0.0164364
918.531	0.0162988
918.609	0.0162927
918.687	0.0163754
918.765	0.0164597
918.843	0.0161571
918.921	0.0162865
918.999	0.0163512
919.078	0.0163764
919.156	0.0162350
919.234	0.0162438
919.312	0.0162291
919.390	0.0163438
919.468	0.0162939
919.546	0.0163909
919.624	0.0163101
919.703	0.0163544
919.781	0.0164625
919.859	0.0164088
919.937	0.0164613
