06/10/2022	19:05:01	Ver.	4.1	UNKNOWN
Optical Delay	600.015094	Delta X		0.078125	Sweeps	1	Scan Rate	0/0
Coordinates	Axis 1	NaN	Axis 2	NaN	Axis 3	NaN	Axis 4	NaN	Axis 5	NaN	Axis 6	0.000000
TX Power	0.000000	RX Power	0.000000

600.015	0.0162099
600.093	0.0160337
600.171	0.0160600
600.249	0.0161000
600.328	0.0160056
600.406	0.0160481
600.484	0.0161024
600.562	0.0160150
600.640	0.0160178
600.718	0.0159515
600.796	0.0159708
600.874	0.0159872
600.953	0.0159702
601.031	0.0158746
601.109	0.0159069
601.187	0.0160564
601.265	0.0158422
601.343	0.0158942
601.421	0.0159923
601.499	0.0158760
601.578	0.0158752
601.656	0.0158482
601.734	0.0158878
601.812	0.0159065
601.890	0.0158108
601.968	0.0159794
602.046	0.0160112
602.124	0.0157410
602.203	0.0158562
602.281	0.0157629
602.359	0.0157409
602.437	0.0158309
602.515	0.0156447
602.593	0.0157248
602.671	0.0156576
602.749	0.0157948
602.828	0.0156798
602.906	0.0156722
602.984	0.0157429
603.062	0.0157939
603.140	0.0156480
603.218	0.0157382
603.296	0.0157246
603.374	0.0157489
603.453	0.0157460
603.531	0.0158272
603.609	0.0156396
603.687	0.0158459
603.765	0.0157893
603.843	0.0158103
603.921	0.0157372
603.999	0.0156078
604.078	0.0158032
604.156	0.0157216
604.234	0.0159029
604.312	0.0159189
604.390	0.0157507
604.468	0.0158315
604.546	0.0158566
604.624	0.0158478
604.703	0.0158982
604.781	0.0157771
604.859	0.0158714
604.937	0.0158336
605.015	0.0158540
605.093	0.0157373
605.171	0.0158614
605.249	0.0160921
605.328	0.0156583
605.406	0.0156779
605.484	0.0157609
605.562	0.0158157
605.640	0.0156953
605.718	0.0157879
605.796	0.0157307
605.874	0.0157337
605.953	0.0158880
606.031	0.0157411
606.109	0.0158044
606.187	0.0158714
606.265	0.0158266
606.343	0.0158742
606.421	0.0157954
606.499	0.0159086
606.578	0.0158995
606.656	0.0158669
606.734	0.0158862
606.812	0.0159588
606.890	0.0160454
606.968	0.0158504
607.046	0.0159375
607.124	0.0159532
607.203	0.0159882
607.281	0.0159271
607.359	0.0158854
607.437	0.0158990
607.515	0.0158391
607.593	0.0158759
607.671	0.0159088
607.749	0.0159058
607.828	0.0158227
607.906	0.0158574
607.984	0.0158469
608.062	0.0159444
608.140	0.0156936
608.218	0.0159173
608.296	0.0157859
608.374	0.0157076
608.453	0.0157188
608.531	0.0157214
608.609	0.0157898
608.687	0.0158828
608.765	0.0156860
608.843	0.0158483
608.921	0.0157927
608.999	0.0158945
609.078	0.0158727
609.156	0.0157964
609.234	0.0158926
609.312	0.0160069
609.390	0.0159519
609.468	0.0160770
609.546	0.0160069
609.624	0.0160215
609.703	0.0160146
609.781	0.0160162
609.859	0.0159182
609.937	0.0159814
610.015	0.0160317
610.093	0.0159415
610.171	0.0159895
610.249	0.0158798
610.328	0.0160160
610.406	0.0158949
610.484	0.0161147
610.562	0.0158348
610.640	0.0160735
610.718	0.0160019
610.796	0.0159740
610.874	0.0159144
610.953	0.0158842
611.031	0.0159164
611.109	0.0159853
611.187	0.0159366
611.265	0.0159256
611.343	0.0158595
611.421	0.0157645
611.499	0.0159331
611.578	0.0158672
611.656	0.0158915
611.734	0.0159377
611.812	0.0158667
611.890	0.0158598
611.968	0.0159169
612.046	0.0159070
612.124	0.0159441
612.203	0.0159703
612.281	0.0160052
612.359	0.0160226
612.437	0.0161622
612.515	0.0159500
612.593	0.0159357
612.671	0.0158321
612.749	0.0160464
612.828	0.0161000
612.906	0.0161031
612.984	0.0160604
613.062	0.0160411
613.140	0.0160354
613.218	0.0160793
613.296	0.0159699
613.374	0.0159982
613.453	0.0161469
613.531	0.0161660
613.609	0.0160979
613.687	0.0160939
613.765	0.0160020
613.843	0.0159935
613.921	0.0160613
613.999	0.0160699
614.078	0.0161603
614.156	0.0161391
614.234	0.0160313
614.312	0.0161522
614.390	0.0160801
614.468	0.0160639
614.546	0.0161163
614.624	0.0161168
614.703	0.0161103
614.781	0.0160936
614.859	0.0160990
614.937	0.0161020
615.015	0.0159719
615.093	0.0159811
615.171	0.0161720
615.249	0.0160280
615.328	0.0160118
615.406	0.0160526
615.484	0.0161308
615.562	0.0160102
615.640	0.0160825
615.718	0.0161423
615.796	0.0160894
615.874	0.0160053
615.953	0.0161040
616.031	0.0160338
616.109	0.0159592
616.187	0.0161632
616.265	0.0161236
616.343	0.0159451
616.421	0.0160561
616.499	0.0160957
616.578	0.0159843
616.656	0.0160086
616.734	0.0160098
616.812	0.0161266
616.890	0.0161239
616.968	0.0161279
617.046	0.0160500
617.124	0.0161174
617.203	0.0160712
617.281	0.0160679
617.359	0.0160217
617.437	0.0160964
617.515	0.0161435
617.593	0.0161550
617.671	0.0162357
617.749	0.0161146
617.828	0.0160793
617.906	0.0159673
617.984	0.0160008
618.062	0.0160228
618.140	0.0160885
618.218	0.0160226
618.296	0.0160126
618.374	0.0159698
618.453	0.0160080
618.531	0.0159789
618.609	0.0160268
618.687	0.0160365
618.765	0.0160433
618.843	0.0159580
618.921	0.0158537
618.999	0.0158408
619.078	0.0159348
619.156	0.0158848
619.234	0.0159721
619.312	0.0159491
619.390	0.0159895
619.468	0.0160383
619.546	0.0159476
619.624	0.0159432
619.703	0.0158892
619.781	0.0158807
619.859	0.0159636
619.937	0.0159452
620.015	0.0159669
620.093	0.0159253
620.171	0.0160030
620.249	0.0160295
620.328	0.0160645
620.406	0.0160411
620.484	0.0160817
620.562	0.0159159
620.640	0.0160674
620.718	0.0161507
620.796	0.0161109
620.874	0.0161203
620.953	0.0161708
621.031	0.0160827
621.109	0.0161042
621.187	0.0161799
621.265	0.0162337
621.343	0.0162489
621.421	0.0160651
621.499	0.0163287
621.578	0.0161647
621.656	0.0162069
621.734	0.0162961
621.812	0.0161822
621.890	0.0161275
621.968	0.0162299
622.046	0.0161853
622.124	0.0161715
622.203	0.0161042
622.281	0.0160258
622.359	0.0159522
622.437	0.0162487
622.515	0.0161781
622.593	0.0161808
622.671	0.0161211
622.749	0.0159875
622.828	0.0161171
622.906	0.0161134
622.984	0.0159821
623.062	0.0159261
623.140	0.0161248
623.218	0.0160609
623.296	0.0160546
623.374	0.0159263
623.453	0.0160350
623.531	0.0159680
623.609	0.0160685
623.687	0.0160255
623.765	0.0161154
623.843	0.0159206
623.921	0.0158698
623.999	0.0159921
624.078	0.0159586
624.156	0.0159547
624.234	0.0161007
624.312	0.0160050
624.390	0.0158880
624.468	0.0158282
624.546	0.0159052
624.624	0.0159652
624.703	0.0159034
624.781	0.0158445
624.859	0.0159260
624.937	0.0159166
625.015	0.0158685
625.093	0.0159522
625.171	0.0159089
625.249	0.0159568
625.328	0.0159709
625.406	0.0159975
625.484	0.0159340
625.562	0.0158630
625.640	0.0158823
625.718	0.0160670
625.796	0.0159012
625.874	0.0158829
625.953	0.0159378
626.031	0.0158592
626.109	0.0159737
626.187	0.0159613
626.265	0.0160021
626.343	0.0157682
626.421	0.0159407
626.499	0.0159211
626.578	0.0158779
626.656	0.0159804
626.734	0.0159756
626.812	0.0158037
626.890	0.0157481
626.968	0.0159056
627.046	0.0159571
627.124	0.0157471
627.203	0.0158710
627.281	0.0157428
627.359	0.0157462
627.437	0.0158481
627.515	0.0158929
627.593	0.0157952
627.671	0.0158858
627.749	0.0158959
627.828	0.0157197
627.906	0.0157251
627.984	0.0156666
628.062	0.0156827
628.140	0.0158073
628.218	0.0157471
628.296	0.0156034
628.374	0.0156736
628.453	0.0157804
628.531	0.0156767
628.609	0.0155911
628.687	0.0156548
628.765	0.0157515
628.843	0.0156425
628.921	0.0157378
628.999	0.0156641
629.078	0.0156464
629.156	0.0155980
629.234	0.0157052
629.312	0.0155832
629.390	0.0156517
629.468	0.0156826
629.546	0.0155500
629.624	0.0156699
629.703	0.0156831
629.781	0.0155202
629.859	0.0154738
629.937	0.0155809
630.015	0.0155530
630.093	0.0157586
630.171	0.0154581
630.249	0.0156519
630.328	0.0155849
630.406	0.0156133
630.484	0.0155768
630.562	0.0156281
630.640	0.0155224
630.718	0.0156543
630.796	0.0156766
630.874	0.0157079
630.953	0.0156417
631.031	0.0157039
631.109	0.0158423
631.187	0.0156572
631.265	0.0157447
631.343	0.0157607
631.421	0.0156439
631.499	0.0158089
631.578	0.0157712
631.656	0.0158635
631.734	0.0158614
631.812	0.0158440
631.890	0.0157668
631.968	0.0158302
632.046	0.0159387
632.124	0.0158500
632.203	0.0158759
632.281	0.0157646
632.359	0.0160050
632.437	0.0159070
632.515	0.0158777
632.593	0.0158702
632.671	0.0159264
632.749	0.0160432
632.828	0.0159583
632.906	0.0158554
632.984	0.0159437
633.062	0.0159280
633.140	0.0159990
633.218	0.0159035
633.296	0.0159491
633.374	0.0160394
633.453	0.0159557
633.531	0.0159354
633.609	0.0158968
633.687	0.0160266
633.765	0.0158855
633.843	0.0159324
633.921	0.0159557
633.999	0.0159254
634.078	0.0159589
634.156	0.0160702
634.234	0.0159288
634.312	0.0159695
634.390	0.0160194
634.468	0.0160954
634.546	0.0159839
634.624	0.0159898
634.703	0.0160016
634.781	0.0159190
634.859	0.0159064
634.937	0.0159386
635.015	0.0160722
635.093	0.0161032
635.171	0.0160584
635.249	0.0160259
635.328	0.0161291
635.406	0.0160501
635.484	0.0160665
635.562	0.0161116
635.640	0.0162093
635.718	0.0161199
635.796	0.0159037
635.874	0.0160863
635.953	0.0162683
636.031	0.0160686
636.109	0.0159717
636.187	0.0161345
636.265	0.0160923
636.343	0.0160493
636.421	0.0160867
636.499	0.0160990
636.578	0.0163026
636.656	0.0163069
636.734	0.0160567
636.812	0.0161898
636.890	0.0162913
636.968	0.0161945
637.046	0.0161327
637.124	0.0161560
637.203	0.0161360
637.281	0.0161675
637.359	0.0161652
637.437	0.0159977
637.515	0.0162033
637.593	0.0161086
637.671	0.0159122
637.749	0.0159856
637.828	0.0160579
637.906	0.0161862
637.984	0.0159915
638.062	0.0161638
638.140	0.0160808
638.218	0.0159103
638.296	0.0160645
638.374	0.0161073
638.453	0.0160272
638.531	0.0161275
638.609	0.0160220
638.687	0.0160133
638.765	0.0159223
638.843	0.0160477
638.921	0.0160164
638.999	0.0159862
639.078	0.0160876
639.156	0.0159948
639.234	0.0160374
639.312	0.0160368
639.390	0.0160098
639.468	0.0159950
639.546	0.0159077
639.624	0.0160323
639.703	0.0159877
639.781	0.0160254
639.859	0.0160175
639.937	0.0159971
640.015	0.0160347
640.093	0.0159505
640.171	0.0159287
640.249	0.0159213
640.328	0.0159385
640.406	0.0159476
640.484	0.0159675
640.562	0.0160099
640.640	0.0159725
640.718	0.0159286
640.796	0.0158475
640.874	0.0158491
640.953	0.0160071
641.031	0.0160459
641.109	0.0160499
641.187	0.0161333
641.265	0.0159573
641.343	0.0160034
641.421	0.0159071
641.499	0.0158778
641.578	0.0160369
641.656	0.0159950
641.734	0.0159796
641.812	0.0159845
641.890	0.0159646
641.968	0.0158853
642.046	0.0159567
642.124	0.0161092
642.203	0.0159962
642.281	0.0159451
642.359	0.0159327
642.437	0.0160360
642.515	0.0160428
642.593	0.0159189
642.671	0.0160137
642.749	0.0159946
642.828	0.0160658
642.906	0.0160312
642.984	0.0159775
643.062	0.0159606
643.140	0.0160408
643.218	0.0159612
643.296	0.0160647
643.374	0.0159129
643.453	0.0161134
643.531	0.0161509
643.609	0.0161179
643.687	0.0159853
643.765	0.0159422
643.843	0.0160469
643.921	0.0159991
643.999	0.0160115
644.078	0.0160574
644.156	0.0159872
644.234	0.0159148
644.312	0.0160428
644.390	0.0161533
644.468	0.0160525
644.546	0.0158614
644.624	0.0160091
644.703	0.0162789
644.781	0.0159776
644.859	0.0159541
644.937	0.0159811
645.015	0.0158463
645.093	0.0160277
645.171	0.0160532
645.249	0.0160336
645.328	0.0160339
645.406	0.0159751
645.484	0.0160281
645.562	0.0159815
645.640	0.0161398
645.718	0.0159877
645.796	0.0160264
645.874	0.0160195
645.953	0.0159762
646.031	0.0160284
646.109	0.0161665
646.187	0.0160098
646.265	0.0159054
646.343	0.0159863
646.421	0.0159672
646.499	0.0159631
646.578	0.0160100
646.656	0.0159733
646.734	0.0160568
646.812	0.0159402
646.890	0.0158557
646.968	0.0159774
647.046	0.0159097
647.124	0.0158740
647.203	0.0159703
647.281	0.0159393
647.359	0.0157993
647.437	0.0158737
647.515	0.0160915
647.593	0.0159088
647.671	0.0157756
647.749	0.0159071
647.828	0.0157839
647.906	0.0157970
647.984	0.0160310
648.062	0.0158488
648.140	0.0159023
648.218	0.0158800
648.296	0.0159179
648.374	0.0158793
648.453	0.0158655
648.531	0.0158078
648.609	0.0158970
648.687	0.0157787
648.765	0.0158540
648.843	0.0159138
648.921	0.0158986
648.999	0.0158581
649.078	0.0158219
649.156	0.0158719
649.234	0.0158200
649.312	0.0158412
649.390	0.0159409
649.468	0.0159528
649.546	0.0158647
649.624	0.0157637
649.703	0.0159315
649.781	0.0159846
649.859	0.0158336
649.937	0.0159045
650.015	0.0158672
650.093	0.0158896
650.171	0.0158437
650.249	0.0158703
650.328	0.0158542
650.406	0.0158861
650.484	0.0157272
650.562	0.0157536
650.640	0.0159178
650.718	0.0158354
650.796	0.0157494
650.874	0.0157722
650.953	0.0157403
651.031	0.0158355
651.109	0.0158026
651.187	0.0159888
651.265	0.0158821
651.343	0.0157259
651.421	0.0157002
651.499	0.0156185
651.578	0.0158155
651.656	0.0157683
651.734	0.0158221
651.812	0.0157391
651.890	0.0156946
651.968	0.0157502
652.046	0.0157668
652.124	0.0158065
652.203	0.0157590
652.281	0.0157028
652.359	0.0157746
652.437	0.0156879
652.515	0.0158428
652.593	0.0157270
652.671	0.0158270
652.749	0.0159653
652.828	0.0158389
652.906	0.0157286
652.984	0.0157168
653.062	0.0158223
653.140	0.0157317
653.218	0.0158627
653.296	0.0158812
653.374	0.0157592
653.453	0.0158269
653.531	0.0159706
653.609	0.0158515
653.687	0.0157305
653.765	0.0158154
653.843	0.0157839
653.921	0.0159020
653.999	0.0158925
654.078	0.0158611
654.156	0.0159884
654.234	0.0160458
654.312	0.0159137
654.390	0.0159721
654.468	0.0161547
654.546	0.0159520
654.624	0.0159090
654.703	0.0159395
654.781	0.0159251
654.859	0.0160020
654.937	0.0161199
655.015	0.0159496
655.093	0.0159352
655.171	0.0159833
655.249	0.0159539
655.328	0.0159360
655.406	0.0161130
655.484	0.0159097
655.562	0.0160101
655.640	0.0160022
655.718	0.0161108
655.796	0.0160943
655.874	0.0161847
655.953	0.0160680
656.031	0.0161263
656.109	0.0161296
656.187	0.0160299
656.265	0.0160278
656.343	0.0161739
656.421	0.0159237
656.499	0.0159066
656.578	0.0160645
656.656	0.0160264
656.734	0.0162551
656.812	0.0160204
656.890	0.0161049
656.968	0.0160989
657.046	0.0161312
657.124	0.0161677
657.203	0.0161050
657.281	0.0161250
657.359	0.0160561
657.437	0.0160462
657.515	0.0161070
657.593	0.0161147
657.671	0.0160114
657.749	0.0159941
657.828	0.0161598
657.906	0.0161458
657.984	0.0160818
658.062	0.0160903
658.140	0.0160281
658.218	0.0160202
658.296	0.0159444
658.374	0.0160619
658.453	0.0160596
658.531	0.0161273
658.609	0.0161330
658.687	0.0159723
658.765	0.0160600
658.843	0.0158557
658.921	0.0159097
658.999	0.0160595
659.078	0.0160972
659.156	0.0160689
659.234	0.0161072
659.312	0.0160606
659.390	0.0159624
659.468	0.0159920
659.546	0.0159775
659.624	0.0159921
659.703	0.0160871
659.781	0.0159297
659.859	0.0158193
659.937	0.0159271
660.015	0.0159837
660.093	0.0159432
660.171	0.0160770
660.249	0.0161144
660.328	0.0161082
660.406	0.0160012
660.484	0.0160434
660.562	0.0160027
660.640	0.0159490
660.718	0.0159943
660.796	0.0160043
660.874	0.0160020
660.953	0.0159913
661.031	0.0161285
661.109	0.0159252
661.187	0.0159209
661.265	0.0158861
661.343	0.0159370
661.421	0.0160157
661.499	0.0160297
661.578	0.0159205
661.656	0.0159772
661.734	0.0158450
661.812	0.0160066
661.890	0.0157924
661.968	0.0159438
662.046	0.0160724
662.124	0.0160075
662.203	0.0159057
662.281	0.0159071
662.359	0.0159220
662.437	0.0159377
662.515	0.0160071
662.593	0.0159834
662.671	0.0158418
662.749	0.0159163
662.828	0.0160715
662.906	0.0159590
662.984	0.0159860
663.062	0.0159303
663.140	0.0159196
663.218	0.0158612
663.296	0.0159092
663.374	0.0160332
663.453	0.0160332
663.531	0.0159855
663.609	0.0160056
663.687	0.0159833
663.765	0.0160732
663.843	0.0158712
663.921	0.0159509
663.999	0.0159921
664.078	0.0160139
664.156	0.0161694
664.234	0.0161380
664.312	0.0159825
664.390	0.0159723
664.468	0.0160218
664.546	0.0159997
664.624	0.0160977
664.703	0.0160099
664.781	0.0161067
664.859	0.0160218
664.937	0.0160635
665.015	0.0160329
665.093	0.0161025
665.171	0.0161771
665.249	0.0160861
665.328	0.0160732
665.406	0.0161647
665.484	0.0160128
665.562	0.0160123
665.640	0.0161047
665.718	0.0160532
665.796	0.0162354
665.874	0.0161847
665.953	0.0159795
666.031	0.0159869
666.109	0.0160771
666.187	0.0162379
666.265	0.0160709
666.343	0.0161706
666.421	0.0161971
666.499	0.0159768
666.578	0.0160522
666.656	0.0160541
666.734	0.0160692
666.812	0.0160851
666.890	0.0160963
666.968	0.0159513
667.046	0.0158707
667.124	0.0160095
667.203	0.0160463
667.281	0.0161465
667.359	0.0159653
667.437	0.0158492
667.515	0.0159082
667.593	0.0160272
667.671	0.0160861
667.749	0.0160018
667.828	0.0159229
667.906	0.0158820
667.984	0.0159092
668.062	0.0160280
668.140	0.0160191
668.218	0.0158131
668.296	0.0159627
668.374	0.0160175
668.453	0.0160606
668.531	0.0159767
668.609	0.0160858
668.687	0.0159795
668.765	0.0160451
668.843	0.0159113
668.921	0.0159577
668.999	0.0159396
669.078	0.0160031
669.156	0.0159407
669.234	0.0159838
669.312	0.0159440
669.390	0.0159872
669.468	0.0158520
669.546	0.0159370
669.624	0.0159342
669.703	0.0159161
669.781	0.0161625
669.859	0.0159993
669.937	0.0160097
670.015	0.0159651
670.093	0.0160155
670.171	0.0159875
670.249	0.0159404
670.328	0.0161178
670.406	0.0161587
670.484	0.0161435
670.562	0.0160612
670.640	0.0160732
670.718	0.0158823
670.796	0.0159192
670.874	0.0160055
670.953	0.0160742
671.031	0.0160361
671.109	0.0160319
671.187	0.0160653
671.265	0.0161040
671.343	0.0159304
671.421	0.0160911
671.499	0.0159817
671.578	0.0160608
671.656	0.0160621
671.734	0.0159760
671.812	0.0161559
671.890	0.0160016
671.968	0.0160337
672.046	0.0161427
672.124	0.0161024
672.203	0.0160386
672.281	0.0160977
672.359	0.0159016
672.437	0.0158041
672.515	0.0160220
672.593	0.0158966
672.671	0.0159306
672.749	0.0159834
672.828	0.0159791
672.906	0.0158947
672.984	0.0160278
673.062	0.0159872
673.140	0.0160067
673.218	0.0159841
673.296	0.0160646
673.374	0.0160267
673.453	0.0158677
673.531	0.0159090
673.609	0.0159093
673.687	0.0160256
673.765	0.0159857
673.843	0.0159768
673.921	0.0159261
673.999	0.0159911
674.078	0.0160162
674.156	0.0160288
674.234	0.0160839
674.312	0.0160197
674.390	0.0159435
674.468	0.0159574
674.546	0.0160168
674.624	0.0160989
674.703	0.0159425
674.781	0.0158974
674.859	0.0158726
674.937	0.0158553
675.015	0.0159923
675.093	0.0158939
675.171	0.0158497
675.249	0.0158869
675.328	0.0158685
675.406	0.0159869
675.484	0.0160671
675.562	0.0160198
675.640	0.0160032
675.718	0.0159085
675.796	0.0159338
675.874	0.0159095
675.953	0.0158380
676.031	0.0159732
676.109	0.0159421
676.187	0.0159473
676.265	0.0159073
676.343	0.0158863
676.421	0.0160380
676.499	0.0158768
676.578	0.0158912
676.656	0.0160258
676.734	0.0160255
676.812	0.0159372
676.890	0.0159050
676.968	0.0159319
677.046	0.0158478
677.124	0.0160130
677.203	0.0158504
677.281	0.0159501
677.359	0.0159933
677.437	0.0158819
677.515	0.0159245
677.593	0.0159594
677.671	0.0159300
677.749	0.0157974
677.828	0.0158642
677.906	0.0159048
677.984	0.0160552
678.062	0.0158865
678.140	0.0158546
678.218	0.0159833
678.296	0.0160363
678.374	0.0159707
678.453	0.0159332
678.531	0.0157912
678.609	0.0159917
678.687	0.0159238
678.765	0.0158658
678.843	0.0158882
678.921	0.0158224
678.999	0.0159055
679.078	0.0161876
679.156	0.0159601
679.234	0.0159590
679.312	0.0159042
679.390	0.0160532
679.468	0.0159721
679.546	0.0159648
679.624	0.0159497
679.703	0.0159508
679.781	0.0159760
679.859	0.0160406
679.937	0.0160002
680.015	0.0160178
680.093	0.0160401
680.171	0.0159703
680.249	0.0160638
680.328	0.0159998
680.406	0.0160384
680.484	0.0159775
680.562	0.0159978
680.640	0.0159203
680.718	0.0160668
680.796	0.0159480
680.874	0.0159226
680.953	0.0160332
681.031	0.0161728
681.109	0.0159219
681.187	0.0158475
681.265	0.0159000
681.343	0.0159029
681.421	0.0159962
681.499	0.0160376
681.578	0.0160916
681.656	0.0160246
681.734	0.0159496
681.812	0.0159879
681.890	0.0161507
681.968	0.0161176
682.046	0.0161079
682.124	0.0160412
682.203	0.0159428
682.281	0.0160004
682.359	0.0159313
682.437	0.0160359
682.515	0.0158542
682.593	0.0159120
682.671	0.0159913
682.749	0.0160575
682.828	0.0159718
682.906	0.0160143
682.984	0.0160950
683.062	0.0159699
683.140	0.0158800
683.218	0.0159776
683.296	0.0159194
683.374	0.0159715
683.453	0.0160661
683.531	0.0160145
683.609	0.0160568
683.687	0.0160318
683.765	0.0160221
683.843	0.0159865
683.921	0.0160686
683.999	0.0161373
684.078	0.0159143
684.156	0.0160065
684.234	0.0159879
684.312	0.0160604
684.390	0.0160566
684.468	0.0161124
684.546	0.0160406
684.624	0.0160007
684.703	0.0159612
684.781	0.0159815
684.859	0.0160659
684.937	0.0161121
685.015	0.0159447
685.093	0.0160895
685.171	0.0160767
685.249	0.0161068
685.328	0.0160579
685.406	0.0160048
685.484	0.0161660
685.562	0.0159783
685.640	0.0160270
685.718	0.0160385
685.796	0.0159939
685.874	0.0160056
685.953	0.0159795
686.031	0.0160394
686.109	0.0159711
686.187	0.0161296
686.265	0.0160306
686.343	0.0159801
686.421	0.0161430
686.499	0.0161629
686.578	0.0161134
686.656	0.0161086
686.734	0.0160825
686.812	0.0159980
686.890	0.0161092
686.968	0.0160405
687.046	0.0160254
687.124	0.0160269
687.203	0.0160950
687.281	0.0159689
687.359	0.0160844
687.437	0.0160104
687.515	0.0161060
687.593	0.0160228
687.671	0.0160983
687.749	0.0160803
687.828	0.0161316
687.906	0.0160911
687.984	0.0161156
688.062	0.0160316
688.140	0.0160519
688.218	0.0161030
688.296	0.0159673
688.374	0.0159367
688.453	0.0160786
688.531	0.0160907
688.609	0.0160401
688.687	0.0158761
688.765	0.0160551
688.843	0.0160383
688.921	0.0160822
688.999	0.0160372
689.078	0.0159549
689.156	0.0160381
689.234	0.0161024
689.312	0.0160746
689.390	0.0161123
689.468	0.0161813
689.546	0.0161324
689.624	0.0160537
689.703	0.0159922
689.781	0.0161822
689.859	0.0160844
689.937	0.0160499
690.015	0.0160699
690.093	0.0159576
690.171	0.0161185
690.249	0.0159813
690.328	0.0160423
690.406	0.0159901
690.484	0.0160091
690.562	0.0161661
690.640	0.0161459
690.718	0.0159614
690.796	0.0159906
690.874	0.0161173
690.953	0.0160149
691.031	0.0160176
691.109	0.0159825
691.187	0.0160375
691.265	0.0158612
691.343	0.0159319
691.421	0.0159902
691.499	0.0160140
691.578	0.0159923
691.656	0.0159616
691.734	0.0160429
691.812	0.0160122
691.890	0.0160886
691.968	0.0159425
692.046	0.0159428
692.124	0.0159181
692.203	0.0160559
692.281	0.0159216
692.359	0.0160215
692.437	0.0159865
692.515	0.0159136
692.593	0.0159473
692.671	0.0159682
692.749	0.0160279
692.828	0.0159299
692.906	0.0159480
692.984	0.0159193
693.062	0.0161100
693.140	0.0160400
693.218	0.0160376
693.296	0.0160205
693.374	0.0160722
693.453	0.0159022
693.531	0.0159191
693.609	0.0161168
693.687	0.0159444
693.765	0.0159688
693.843	0.0159787
693.921	0.0159619
693.999	0.0158677
694.078	0.0159387
694.156	0.0160034
694.234	0.0159417
694.312	0.0158692
694.390	0.0159655
694.468	0.0159715
694.546	0.0158778
694.624	0.0159777
694.703	0.0159150
694.781	0.0158656
694.859	0.0158880
694.937	0.0159087
695.015	0.0160026
695.093	0.0160384
695.171	0.0160293
695.249	0.0160315
695.328	0.0159962
695.406	0.0159054
695.484	0.0161819
695.562	0.0160719
695.640	0.0160949
695.718	0.0160504
695.796	0.0160239
695.874	0.0159980
695.953	0.0159452
696.031	0.0160548
696.109	0.0159319
696.187	0.0160437
696.265	0.0161613
696.343	0.0160744
696.421	0.0160143
696.499	0.0159800
696.578	0.0159424
696.656	0.0160484
696.734	0.0160815
696.812	0.0161179
696.890	0.0159654
696.968	0.0159734
697.046	0.0160446
697.124	0.0160580
697.203	0.0160151
697.281	0.0160315
697.359	0.0160681
697.437	0.0160197
697.515	0.0160945
697.593	0.0159621
697.671	0.0159281
697.749	0.0160323
697.828	0.0159567
697.906	0.0158688
697.984	0.0159746
698.062	0.0159686
698.140	0.0158681
698.218	0.0159637
698.296	0.0159302
698.374	0.0158701
698.453	0.0159382
698.531	0.0159499
698.609	0.0159988
698.687	0.0158508
698.765	0.0158090
698.843	0.0157864
698.921	0.0159880
698.999	0.0157619
699.078	0.0159061
699.156	0.0159552
699.234	0.0159620
699.312	0.0158060
699.390	0.0159207
699.468	0.0158001
699.546	0.0159304
699.624	0.0158842
699.703	0.0158940
699.781	0.0159605
699.859	0.0159417
699.937	0.0157380
700.015	0.0159116
700.093	0.0158692
700.171	0.0157280
700.249	0.0158257
700.328	0.0158413
700.406	0.0158858
700.484	0.0158772
700.562	0.0158010
700.640	0.0157190
700.718	0.0159158
700.796	0.0159482
700.874	0.0159129
700.953	0.0159612
701.031	0.0158421
701.109	0.0157940
701.187	0.0157070
701.265	0.0158824
701.343	0.0158345
701.421	0.0158689
701.499	0.0158864
701.578	0.0158029
701.656	0.0157097
701.734	0.0158720
701.812	0.0158914
701.890	0.0157608
701.968	0.0157747
702.046	0.0158900
702.124	0.0158313
702.203	0.0157993
702.281	0.0157194
702.359	0.0157410
702.437	0.0157747
702.515	0.0157919
702.593	0.0158154
702.671	0.0158160
702.749	0.0158264
702.828	0.0156567
702.906	0.0156516
702.984	0.0156953
703.062	0.0157699
703.140	0.0157697
703.218	0.0158376
703.296	0.0157455
703.374	0.0158227
703.453	0.0157996
703.531	0.0157267
703.609	0.0159426
703.687	0.0158411
703.765	0.0156351
703.843	0.0157491
703.921	0.0157003
703.999	0.0156932
704.078	0.0158163
704.156	0.0157290
704.234	0.0156858
704.312	0.0157313
704.390	0.0157244
704.468	0.0158272
704.546	0.0157985
704.624	0.0157371
704.703	0.0156514
704.781	0.0157573
704.859	0.0156931
704.937	0.0155853
705.015	0.0158093
705.093	0.0157726
705.171	0.0157777
705.249	0.0156647
705.328	0.0157692
705.406	0.0156827
705.484	0.0157884
705.562	0.0155341
705.640	0.0156377
705.718	0.0157622
705.796	0.0157098
705.874	0.0157623
705.953	0.0157632
706.031	0.0157006
706.109	0.0157087
706.187	0.0158424
706.265	0.0158178
706.343	0.0158324
706.421	0.0157193
706.499	0.0157690
706.578	0.0158473
706.656	0.0157098
706.734	0.0156037
706.812	0.0158021
706.890	0.0157156
706.968	0.0157578
707.046	0.0158755
707.124	0.0158881
707.203	0.0159251
707.281	0.0158551
707.359	0.0158387
707.437	0.0158072
707.515	0.0158552
707.593	0.0158620
707.671	0.0158750
707.749	0.0158732
707.828	0.0157886
707.906	0.0157661
707.984	0.0158881
708.062	0.0159016
708.140	0.0160541
708.218	0.0159509
708.296	0.0159245
708.374	0.0159265
708.453	0.0157632
708.531	0.0159312
708.609	0.0159484
708.687	0.0159140
708.765	0.0159706
708.843	0.0158510
708.921	0.0159785
708.999	0.0158831
709.078	0.0159839
709.156	0.0159820
709.234	0.0160128
709.312	0.0157795
709.390	0.0157981
709.468	0.0159442
709.546	0.0159019
709.624	0.0157905
709.703	0.0160406
709.781	0.0159071
709.859	0.0159151
709.937	0.0159846
710.015	0.0160191
710.093	0.0158639
710.171	0.0158462
710.249	0.0160398
710.328	0.0160175
710.406	0.0160369
710.484	0.0159750
710.562	0.0161282
710.640	0.0161626
710.718	0.0160555
710.796	0.0160426
710.874	0.0161094
710.953	0.0159330
711.031	0.0159838
711.109	0.0160891
711.187	0.0159703
711.265	0.0160496
711.343	0.0160612
711.421	0.0158959
711.499	0.0160548
711.578	0.0161359
711.656	0.0161416
711.734	0.0160870
711.812	0.0161088
711.890	0.0161457
711.968	0.0162144
712.046	0.0160333
712.124	0.0161268
712.203	0.0160963
712.281	0.0160065
712.359	0.0159928
712.437	0.0160839
712.515	0.0160509
712.593	0.0159502
712.671	0.0161466
712.749	0.0162096
712.828	0.0161297
712.906	0.0161060
712.984	0.0158346
713.062	0.0160237
713.140	0.0160708
713.218	0.0160181
713.296	0.0161415
713.374	0.0160828
713.453	0.0160241
713.531	0.0160172
713.609	0.0160960
713.687	0.0161282
713.765	0.0158219
713.843	0.0159150
713.921	0.0161539
713.999	0.0161122
714.078	0.0160238
714.156	0.0161004
714.234	0.0159951
714.312	0.0160326
714.390	0.0160197
714.468	0.0160209
714.546	0.0160766
714.624	0.0158851
714.703	0.0159280
714.781	0.0161542
714.859	0.0160793
714.937	0.0160213
715.015	0.0160943
715.093	0.0160638
715.171	0.0161720
715.249	0.0160654
715.328	0.0160923
715.406	0.0162457
715.484	0.0160847
715.562	0.0161333
715.640	0.0161891
715.718	0.0160887
715.796	0.0160822
715.874	0.0160632
715.953	0.0160872
716.031	0.0161215
716.109	0.0160575
716.187	0.0161192
716.265	0.0160944
716.343	0.0161195
716.421	0.0161951
716.499	0.0162044
716.578	0.0161317
716.656	0.0160665
716.734	0.0160361
716.812	0.0161531
716.890	0.0161837
716.968	0.0160973
717.046	0.0159732
717.124	0.0161548
717.203	0.0159390
717.281	0.0160865
717.359	0.0159792
717.437	0.0160562
717.515	0.0160364
717.593	0.0160477
717.671	0.0160954
717.749	0.0159866
717.828	0.0160037
717.906	0.0159541
717.984	0.0160566
718.062	0.0160744
718.140	0.0159859
718.218	0.0160123
718.296	0.0161115
718.374	0.0161564
718.453	0.0161909
718.531	0.0159534
718.609	0.0160672
718.687	0.0161013
718.765	0.0159728
718.843	0.0159915
718.921	0.0160075
718.999	0.0159998
719.078	0.0160104
719.156	0.0160929
719.234	0.0159238
719.312	0.0160717
719.390	0.0159760
719.468	0.0161678
719.546	0.0159342
719.624	0.0159075
719.703	0.0159889
719.781	0.0160368
719.859	0.0159940
719.937	0.0159704
720.015	0.0159486
720.093	0.0159764
720.171	0.0158179
720.249	0.0159846
720.328	0.0158376
720.406	0.0159845
720.484	0.0159586
720.562	0.0158800
720.640	0.0158236
720.718	0.0160394
720.796	0.0158527
720.874	0.0158862
720.953	0.0158642
721.031	0.0158463
721.109	0.0158940
721.187	0.0158675
721.265	0.0158323
721.343	0.0159181
721.421	0.0158453
721.499	0.0159558
721.578	0.0158873
721.656	0.0157691
721.734	0.0158587
721.812	0.0160253
721.890	0.0157340
721.968	0.0157635
722.046	0.0159106
722.124	0.0160928
722.203	0.0157793
722.281	0.0158253
722.359	0.0158134
722.437	0.0157518
722.515	0.0159016
722.593	0.0158020
722.671	0.0159750
722.749	0.0159495
722.828	0.0157800
722.906	0.0158581
722.984	0.0158671
723.062	0.0158454
723.140	0.0159814
723.218	0.0158444
723.296	0.0158791
723.374	0.0158687
723.453	0.0158109
723.531	0.0159240
723.609	0.0158457
723.687	0.0157570
723.765	0.0158650
723.843	0.0158123
723.921	0.0157601
723.999	0.0159198
724.078	0.0159882
724.156	0.0157162
724.234	0.0156744
724.312	0.0157307
724.390	0.0156766
724.468	0.0156506
724.546	0.0158341
724.624	0.0158697
724.703	0.0159695
724.781	0.0156385
724.859	0.0157859
724.937	0.0158595
725.015	0.0157131
725.093	0.0158215
725.171	0.0157381
725.249	0.0156929
725.328	0.0156482
725.406	0.0157552
725.484	0.0157776
725.562	0.0158337
725.640	0.0157933
725.718	0.0157682
725.796	0.0159434
725.874	0.0157066
725.953	0.0157724
726.031	0.0157439
726.109	0.0158121
726.187	0.0157100
726.265	0.0158980
726.343	0.0157213
726.421	0.0156631
726.499	0.0157188
726.578	0.0157483
726.656	0.0156155
726.734	0.0157497
726.812	0.0159132
726.890	0.0158476
726.968	0.0158823
727.046	0.0159288
727.124	0.0158884
727.203	0.0156805
727.281	0.0158584
727.359	0.0158643
727.437	0.0157560
727.515	0.0158102
727.593	0.0159252
727.671	0.0159696
727.749	0.0158228
727.828	0.0158832
727.906	0.0158019
727.984	0.0159072
728.062	0.0158917
728.140	0.0158689
728.218	0.0159617
728.296	0.0158225
728.374	0.0158372
728.453	0.0157634
728.531	0.0159432
728.609	0.0157785
728.687	0.0157944
728.765	0.0159576
728.843	0.0157963
728.921	0.0158605
728.999	0.0157601
729.078	0.0158708
729.156	0.0159304
729.234	0.0158598
729.312	0.0159459
729.390	0.0158290
729.468	0.0158640
729.546	0.0160915
729.624	0.0158836
729.703	0.0158286
729.781	0.0158386
729.859	0.0158971
729.937	0.0159763
730.015	0.0160400
730.093	0.0158701
730.171	0.0160039
730.249	0.0160267
730.328	0.0159261
730.406	0.0159998
730.484	0.0160034
730.562	0.0159290
730.640	0.0159155
730.718	0.0157651
730.796	0.0158758
730.874	0.0158797
730.953	0.0158350
731.031	0.0158396
731.109	0.0159432
731.187	0.0158498
731.265	0.0159155
731.343	0.0159314
731.421	0.0159948
731.499	0.0158961
731.578	0.0159581
731.656	0.0159966
731.734	0.0159956
731.812	0.0159241
731.890	0.0158514
731.968	0.0159924
732.046	0.0160068
732.124	0.0160600
732.203	0.0160845
732.281	0.0159750
732.359	0.0159763
732.437	0.0158887
732.515	0.0160421
732.593	0.0160295
732.671	0.0159953
732.749	0.0160318
732.828	0.0160014
732.906	0.0159629
732.984	0.0158782
733.062	0.0159796
733.140	0.0159259
733.218	0.0159842
733.296	0.0159437
733.374	0.0158801
733.453	0.0160011
733.531	0.0160623
733.609	0.0160114
733.687	0.0161716
733.765	0.0160110
733.843	0.0159329
733.921	0.0160684
733.999	0.0160549
734.078	0.0157466
734.156	0.0159399
734.234	0.0160822
734.312	0.0160918
734.390	0.0159805
734.468	0.0159361
734.546	0.0160003
734.624	0.0160572
734.703	0.0160839
734.781	0.0160423
734.859	0.0159550
734.937	0.0158771
735.015	0.0159291
735.093	0.0159948
735.171	0.0159732
735.249	0.0158354
735.328	0.0160699
735.406	0.0160993
735.484	0.0160410
735.562	0.0159930
735.640	0.0160841
735.718	0.0161499
735.796	0.0159215
735.874	0.0161263
735.953	0.0159595
736.031	0.0160931
736.109	0.0160609
736.187	0.0160340
736.265	0.0161255
736.343	0.0161177
736.421	0.0161640
736.499	0.0160682
736.578	0.0160551
736.656	0.0160087
736.734	0.0160176
736.812	0.0159377
736.890	0.0160720
736.968	0.0161150
737.046	0.0159996
737.124	0.0159859
737.203	0.0159960
737.281	0.0160485
737.359	0.0161511
737.437	0.0161148
737.515	0.0162160
737.593	0.0159840
737.671	0.0161430
737.749	0.0161982
737.828	0.0160760
737.906	0.0161154
737.984	0.0160705
738.062	0.0160897
738.140	0.0161575
738.218	0.0161190
738.296	0.0160074
738.374	0.0161604
738.453	0.0161167
738.531	0.0161290
738.609	0.0160733
738.687	0.0160914
738.765	0.0160500
738.843	0.0160306
738.921	0.0161084
738.999	0.0160918
739.078	0.0159179
739.156	0.0160090
739.234	0.0160903
739.312	0.0161278
739.390	0.0160045
739.468	0.0160793
739.546	0.0159563
739.624	0.0160271
739.703	0.0160873
739.781	0.0161131
739.859	0.0161884
739.937	0.0161113
740.015	0.0160804
740.093	0.0160737
740.171	0.0161237
740.249	0.0160126
740.328	0.0161333
740.406	0.0160004
740.484	0.0159485
740.562	0.0158971
740.640	0.0159973
740.718	0.0159933
740.796	0.0159255
740.874	0.0159181
740.953	0.0159738
741.031	0.0160555
741.109	0.0160690
741.187	0.0160545
741.265	0.0160709
741.343	0.0161171
741.421	0.0161995
741.499	0.0161703
741.578	0.0161202
741.656	0.0161065
741.734	0.0161080
741.812	0.0159964
741.890	0.0160687
741.968	0.0160300
742.046	0.0159928
742.124	0.0159812
742.203	0.0160105
742.281	0.0162103
742.359	0.0160988
742.437	0.0158778
742.515	0.0159615
742.593	0.0160846
742.671	0.0159125
742.749	0.0158783
742.828	0.0159880
742.906	0.0158771
742.984	0.0158710
743.062	0.0159049
743.140	0.0159745
743.218	0.0161105
743.296	0.0159585
743.374	0.0158396
743.453	0.0159705
743.531	0.0158929
743.609	0.0160461
743.687	0.0160071
743.765	0.0159385
743.843	0.0159698
743.921	0.0159568
743.999	0.0160421
744.078	0.0161264
744.156	0.0160162
744.234	0.0159311
744.312	0.0159428
744.390	0.0160643
744.468	0.0159666
744.546	0.0160426
744.624	0.0159604
744.703	0.0160621
744.781	0.0159278
744.859	0.0160171
744.937	0.0161049
745.015	0.0161594
745.093	0.0160661
745.171	0.0160571
745.249	0.0161060
745.328	0.0161129
745.406	0.0160731
745.484	0.0159352
745.562	0.0160144
745.640	0.0159546
745.718	0.0159579
745.796	0.0159693
745.874	0.0159822
745.953	0.0159315
746.031	0.0160001
746.109	0.0158720
746.187	0.0159334
746.265	0.0158238
746.343	0.0158407
746.421	0.0158884
746.499	0.0158192
746.578	0.0158832
746.656	0.0158607
746.734	0.0159393
746.812	0.0158715
746.890	0.0159664
746.968	0.0160316
747.046	0.0159361
747.124	0.0160963
747.203	0.0159630
747.281	0.0160212
747.359	0.0159187
747.437	0.0159700
747.515	0.0160980
747.593	0.0160478
747.671	0.0159322
747.749	0.0159666
747.828	0.0159210
747.906	0.0160505
747.984	0.0161546
748.062	0.0159160
748.140	0.0159216
748.218	0.0160159
748.296	0.0160035
748.374	0.0160771
748.453	0.0160796
748.531	0.0159105
748.609	0.0160174
748.687	0.0159765
748.765	0.0160419
748.843	0.0159010
748.921	0.0158502
748.999	0.0158669
749.078	0.0160487
749.156	0.0159242
749.234	0.0160479
749.312	0.0158389
749.390	0.0158273
749.468	0.0160143
749.546	0.0157716
749.624	0.0159032
749.703	0.0158896
749.781	0.0159185
749.859	0.0158427
749.937	0.0159860
750.015	0.0158601
750.093	0.0158974
750.171	0.0159508
750.249	0.0157675
750.328	0.0159709
750.406	0.0160559
750.484	0.0159439
750.562	0.0160004
750.640	0.0159734
750.718	0.0159441
750.796	0.0160944
750.874	0.0160412
750.953	0.0159972
751.031	0.0160365
751.109	0.0159534
751.187	0.0161549
751.265	0.0160239
751.343	0.0160532
751.421	0.0160101
751.499	0.0161256
751.578	0.0161060
751.656	0.0159906
751.734	0.0160600
751.812	0.0160151
751.890	0.0160665
751.968	0.0161108
752.046	0.0162068
752.124	0.0161242
752.203	0.0161091
752.281	0.0160816
752.359	0.0159580
752.437	0.0160456
752.515	0.0160966
752.593	0.0160322
752.671	0.0160757
752.749	0.0160835
752.828	0.0161459
752.906	0.0160564
752.984	0.0161632
753.062	0.0160572
753.140	0.0159374
753.218	0.0159811
753.296	0.0161723
753.374	0.0159880
753.453	0.0160606
753.531	0.0161181
753.609	0.0160381
753.687	0.0160020
753.765	0.0160201
753.843	0.0159094
753.921	0.0159676
753.999	0.0159412
754.078	0.0158893
754.156	0.0159196
754.234	0.0160275
754.312	0.0157777
754.390	0.0158546
754.468	0.0160399
754.546	0.0158511
754.624	0.0159237
754.703	0.0157911
754.781	0.0159470
754.859	0.0159110
754.937	0.0158805
755.015	0.0161024
755.093	0.0160061
755.171	0.0159229
755.249	0.0158790
755.328	0.0159285
755.406	0.0159309
755.484	0.0158337
755.562	0.0159829
755.640	0.0159403
755.718	0.0158290
755.796	0.0160091
755.874	0.0158542
755.953	0.0159790
756.031	0.0159011
756.109	0.0159648
756.187	0.0160139
756.265	0.0159594
756.343	0.0159682
756.421	0.0159749
756.499	0.0159708
756.578	0.0161173
756.656	0.0160071
756.734	0.0160606
756.812	0.0161149
756.890	0.0160715
756.968	0.0161510
757.046	0.0161572
757.124	0.0159646
757.203	0.0160989
757.281	0.0160812
757.359	0.0161354
757.437	0.0159933
757.515	0.0159312
757.593	0.0160406
757.671	0.0159512
757.749	0.0160247
757.828	0.0158008
757.906	0.0160040
757.984	0.0160308
758.062	0.0158492
758.140	0.0159048
758.218	0.0160074
758.296	0.0159872
758.374	0.0158540
758.453	0.0160522
758.531	0.0160398
758.609	0.0161073
758.687	0.0160036
758.765	0.0161486
758.843	0.0160944
758.921	0.0158524
758.999	0.0160212
759.078	0.0159494
759.156	0.0160121
759.234	0.0160526
759.312	0.0160078
759.390	0.0159533
759.468	0.0159202
759.546	0.0159191
759.624	0.0159502
759.703	0.0159877
759.781	0.0160032
759.859	0.0161214
759.937	0.0159979
760.015	0.0159496
760.093	0.0160284
760.171	0.0160683
760.249	0.0161046
760.328	0.0162115
760.406	0.0160679
760.484	0.0160370
760.562	0.0160309
760.640	0.0159029
760.718	0.0160160
760.796	0.0159033
760.874	0.0158811
760.953	0.0160001
761.031	0.0159299
761.109	0.0159060
761.187	0.0159214
761.265	0.0159550
761.343	0.0160182
761.421	0.0158238
761.499	0.0159358
761.578	0.0159628
761.656	0.0160456
761.734	0.0161210
761.812	0.0158852
761.890	0.0159830
761.968	0.0160471
762.046	0.0160132
762.124	0.0160855
762.203	0.0159281
762.281	0.0158888
762.359	0.0159651
762.437	0.0159161
762.515	0.0158748
762.593	0.0157108
762.671	0.0158053
762.749	0.0158707
762.828	0.0157514
762.906	0.0158277
762.984	0.0158241
763.062	0.0157501
763.140	0.0157271
763.218	0.0156517
763.296	0.0157476
763.374	0.0157220
763.453	0.0158104
763.531	0.0158524
763.609	0.0157417
763.687	0.0157552
763.765	0.0158318
763.843	0.0157427
763.921	0.0157964
763.999	0.0157514
764.078	0.0157491
764.156	0.0158422
764.234	0.0157347
764.312	0.0157903
764.390	0.0158414
764.468	0.0156971
764.546	0.0157488
764.624	0.0158421
764.703	0.0157269
764.781	0.0158431
764.859	0.0157936
764.937	0.0156576
765.015	0.0156845
765.093	0.0159487
765.171	0.0157943
765.249	0.0157972
765.328	0.0159234
765.406	0.0158832
765.484	0.0157910
765.562	0.0159406
765.640	0.0158509
765.718	0.0157914
765.796	0.0160252
765.874	0.0157559
765.953	0.0158659
766.031	0.0157417
766.109	0.0158617
766.187	0.0158966
766.265	0.0158974
766.343	0.0158694
766.421	0.0160296
766.499	0.0160211
766.578	0.0158890
766.656	0.0158241
766.734	0.0159146
766.812	0.0159071
766.890	0.0159167
766.968	0.0159436
767.046	0.0159162
767.124	0.0157302
767.203	0.0157922
767.281	0.0158006
767.359	0.0156712
767.437	0.0157970
767.515	0.0156966
767.593	0.0158447
767.671	0.0155731
767.749	0.0157055
767.828	0.0156510
767.906	0.0159197
767.984	0.0156167
768.062	0.0156887
768.140	0.0157595
768.218	0.0157767
768.296	0.0156599
768.374	0.0157751
768.453	0.0158782
768.531	0.0158835
768.609	0.0159373
768.687	0.0159419
768.765	0.0159065
768.843	0.0159444
768.921	0.0160140
768.999	0.0161806
769.078	0.0160664
769.156	0.0161336
769.234	0.0162981
769.312	0.0161269
769.390	0.0161585
769.468	0.0162601
769.546	0.0161231
769.624	0.0161387
769.703	0.0160825
769.781	0.0162070
769.859	0.0160863
769.937	0.0159859
770.015	0.0160802
770.093	0.0160084
770.171	0.0159093
770.249	0.0159657
770.328	0.0161259
770.406	0.0160513
770.484	0.0160239
770.562	0.0158726
770.640	0.0160450
770.718	0.0159062
770.796	0.0158963
770.874	0.0158382
770.953	0.0160460
771.031	0.0159273
771.109	0.0158088
771.187	0.0157988
771.265	0.0158237
771.343	0.0158278
771.421	0.0159446
771.499	0.0157587
771.578	0.0158463
771.656	0.0156931
771.734	0.0157894
771.812	0.0157112
771.890	0.0157523
771.968	0.0158004
772.046	0.0158710
772.124	0.0157368
772.203	0.0159007
772.281	0.0158839
772.359	0.0158971
772.437	0.0158350
772.515	0.0160251
772.593	0.0159647
772.671	0.0158591
772.749	0.0158889
772.828	0.0160076
772.906	0.0159917
772.984	0.0158665
773.062	0.0159634
773.140	0.0160410
773.218	0.0160219
773.296	0.0159516
773.374	0.0159808
773.453	0.0160229
773.531	0.0159872
773.609	0.0160560
773.687	0.0159142
773.765	0.0160645
773.843	0.0159777
773.921	0.0159901
773.999	0.0159969
774.078	0.0160063
774.156	0.0159322
774.234	0.0160571
774.312	0.0159591
774.390	0.0159975
774.468	0.0159846
774.546	0.0159685
774.624	0.0158219
774.703	0.0158898
774.781	0.0159484
774.859	0.0160046
774.937	0.0159052
775.015	0.0160111
775.093	0.0160220
775.171	0.0159015
775.249	0.0160561
775.328	0.0159229
775.406	0.0160069
775.484	0.0159408
775.562	0.0159396
775.640	0.0160677
775.718	0.0158344
775.796	0.0159187
775.874	0.0157959
775.953	0.0158669
776.031	0.0158274
776.109	0.0160662
776.187	0.0159404
776.265	0.0159866
776.343	0.0159169
776.421	0.0161391
776.499	0.0159641
776.578	0.0160249
776.656	0.0160912
776.734	0.0161553
776.812	0.0159280
776.890	0.0159954
776.968	0.0161802
777.046	0.0160366
777.124	0.0160844
777.203	0.0159515
777.281	0.0158739
777.359	0.0158453
777.437	0.0158833
777.515	0.0158341
777.593	0.0158865
777.671	0.0157866
777.749	0.0158128
777.828	0.0158157
777.906	0.0156522
777.984	0.0158421
778.062	0.0156704
778.140	0.0156471
778.218	0.0156852
778.296	0.0157666
778.374	0.0158965
778.453	0.0156797
778.531	0.0158133
778.609	0.0158789
778.687	0.0158023
778.765	0.0160647
778.843	0.0160231
778.921	0.0160204
778.999	0.0160012
779.078	0.0160437
779.156	0.0159215
779.234	0.0160182
779.312	0.0160434
779.390	0.0161253
779.468	0.0160997
779.546	0.0162010
779.624	0.0160287
779.703	0.0160385
779.781	0.0160476
779.859	0.0161775
779.937	0.0160580
780.015	0.0159464
780.093	0.0160954
780.171	0.0160562
780.249	0.0159769
780.328	0.0160208
780.406	0.0160186
780.484	0.0160339
780.562	0.0160089
780.640	0.0159829
780.718	0.0159457
780.796	0.0158798
780.874	0.0159612
780.953	0.0159718
781.031	0.0159307
781.109	0.0159201
781.187	0.0159058
781.265	0.0159928
781.343	0.0159288
781.421	0.0160394
781.499	0.0158902
781.578	0.0159923
781.656	0.0159122
781.734	0.0159430
781.812	0.0158802
781.890	0.0158581
781.968	0.0159340
782.046	0.0160109
782.124	0.0159762
782.203	0.0159467
782.281	0.0159264
782.359	0.0158753
782.437	0.0158846
782.515	0.0159193
782.593	0.0160634
782.671	0.0160416
782.749	0.0160730
782.828	0.0160991
782.906	0.0162183
782.984	0.0161954
783.062	0.0161172
783.140	0.0161642
783.218	0.0161192
783.296	0.0162028
783.374	0.0161581
783.453	0.0161470
783.531	0.0160198
783.609	0.0159864
783.687	0.0160015
783.765	0.0160583
783.843	0.0160032
783.921	0.0159153
783.999	0.0159422
784.078	0.0159235
784.156	0.0158232
784.234	0.0158952
784.312	0.0159026
784.390	0.0158858
784.468	0.0159288
784.546	0.0160545
784.624	0.0160329
784.703	0.0159718
784.781	0.0160851
784.859	0.0159204
784.937	0.0160276
785.015	0.0160405
785.093	0.0159943
785.171	0.0160284
785.249	0.0160439
785.328	0.0159565
785.406	0.0159161
785.484	0.0157150
785.562	0.0158640
785.640	0.0158288
785.718	0.0158355
785.796	0.0158576
785.874	0.0157430
785.953	0.0157250
786.031	0.0159306
786.109	0.0157423
786.187	0.0157327
786.265	0.0158007
786.343	0.0157501
786.421	0.0158795
786.499	0.0159437
786.578	0.0157397
786.656	0.0157310
786.734	0.0157884
786.812	0.0157835
786.890	0.0157875
786.968	0.0157610
787.046	0.0157995
787.124	0.0158368
787.203	0.0159027
787.281	0.0157598
787.359	0.0156689
787.437	0.0157742
787.515	0.0157939
787.593	0.0157407
787.671	0.0157325
787.749	0.0156834
787.828	0.0156826
787.906	0.0156803
787.984	0.0158445
788.062	0.0158347
788.140	0.0157440
788.218	0.0156981
788.296	0.0158126
788.374	0.0158427
788.453	0.0157908
788.531	0.0158997
788.609	0.0156530
788.687	0.0157521
788.765	0.0157924
788.843	0.0158714
788.921	0.0157319
788.999	0.0160304
789.078	0.0159209
789.156	0.0158952
789.234	0.0159090
789.312	0.0158779
789.390	0.0160559
789.468	0.0158657
789.546	0.0158652
789.624	0.0159624
789.703	0.0161179
789.781	0.0159467
789.859	0.0159686
789.937	0.0159729
790.015	0.0159594
790.093	0.0159547
790.171	0.0160106
790.249	0.0160352
790.328	0.0158721
790.406	0.0158829
790.484	0.0159103
790.562	0.0159850
790.640	0.0159172
790.718	0.0158427
790.796	0.0159867
790.874	0.0159306
790.953	0.0159580
791.031	0.0159559
791.109	0.0159082
791.187	0.0158134
791.265	0.0158646
791.343	0.0159023
791.421	0.0158282
791.499	0.0157919
791.578	0.0156713
791.656	0.0157062
791.734	0.0157928
791.812	0.0159013
791.890	0.0158046
791.968	0.0157012
792.046	0.0158914
792.124	0.0158392
792.203	0.0158582
792.281	0.0159452
792.359	0.0157655
792.437	0.0159238
792.515	0.0159182
792.593	0.0160509
792.671	0.0159706
792.749	0.0159628
792.828	0.0160995
792.906	0.0160018
792.984	0.0161123
793.062	0.0161581
793.140	0.0162287
793.218	0.0161731
793.296	0.0160469
793.374	0.0160012
793.453	0.0161122
793.531	0.0160333
793.609	0.0159326
793.687	0.0161639
793.765	0.0160290
793.843	0.0159826
793.921	0.0161398
793.999	0.0161436
794.078	0.0161224
794.156	0.0160244
794.234	0.0159289
794.312	0.0160910
794.390	0.0161170
794.468	0.0161088
794.546	0.0160683
794.624	0.0160416
794.703	0.0161092
794.781	0.0159593
794.859	0.0160501
794.937	0.0160403
795.015	0.0159512
795.093	0.0159605
795.171	0.0159654
795.249	0.0157571
795.328	0.0159536
795.406	0.0160916
795.484	0.0158446
795.562	0.0159500
795.640	0.0158922
795.718	0.0158729
795.796	0.0158100
795.874	0.0157372
795.953	0.0156841
796.031	0.0157985
796.109	0.0158156
796.187	0.0156796
796.265	0.0157381
796.343	0.0156823
796.421	0.0159160
796.499	0.0158043
796.578	0.0158951
796.656	0.0157537
796.734	0.0159076
796.812	0.0159105
796.890	0.0159960
796.968	0.0159238
797.046	0.0159413
797.124	0.0159958
797.203	0.0160159
797.281	0.0161462
797.359	0.0160387
797.437	0.0160580
797.515	0.0159322
797.593	0.0160181
797.671	0.0161517
797.749	0.0159480
797.828	0.0160980
797.906	0.0161029
797.984	0.0161765
798.062	0.0161319
798.140	0.0160563
798.218	0.0160377
798.296	0.0159974
798.374	0.0162257
798.453	0.0160955
798.531	0.0160555
798.609	0.0161416
798.687	0.0159830
798.765	0.0161015
798.843	0.0160242
798.921	0.0159513
798.999	0.0160788
799.078	0.0160511
799.156	0.0160708
799.234	0.0160514
799.312	0.0159556
799.390	0.0159894
799.468	0.0160679
799.546	0.0158971
799.624	0.0160691
799.703	0.0160483
799.781	0.0159262
799.859	0.0160811
799.937	0.0159803
800.015	0.0159151
800.093	0.0158578
800.171	0.0158900
800.249	0.0159639
800.328	0.0158441
800.406	0.0159126
800.484	0.0159882
800.562	0.0159290
800.640	0.0159138
800.718	0.0159702
800.796	0.0158705
800.874	0.0159418
800.953	0.0158864
801.031	0.0159805
801.109	0.0160306
801.187	0.0159373
801.265	0.0158874
801.343	0.0157797
801.421	0.0159519
801.499	0.0159486
801.578	0.0159798
801.656	0.0159995
801.734	0.0160506
801.812	0.0159578
801.890	0.0158101
801.968	0.0160149
802.046	0.0159257
802.124	0.0159248
802.203	0.0158308
802.281	0.0158698
802.359	0.0158835
802.437	0.0159035
802.515	0.0160123
802.593	0.0159354
802.671	0.0158843
802.749	0.0159255
802.828	0.0159909
802.906	0.0161467
802.984	0.0160944
803.062	0.0160473
803.140	0.0161442
803.218	0.0161308
803.296	0.0159931
803.374	0.0161496
803.453	0.0160223
803.531	0.0160815
803.609	0.0161166
803.687	0.0162363
803.765	0.0160744
803.843	0.0160778
803.921	0.0160426
803.999	0.0159657
804.078	0.0160956
804.156	0.0161018
804.234	0.0159392
804.312	0.0160002
804.390	0.0160707
804.468	0.0161123
804.546	0.0160853
804.624	0.0160284
804.703	0.0160706
804.781	0.0161299
804.859	0.0160214
804.937	0.0159512
805.015	0.0160708
805.093	0.0159616
805.171	0.0159196
805.249	0.0159328
805.328	0.0158913
805.406	0.0158527
805.484	0.0158496
805.562	0.0158617
805.640	0.0158247
805.718	0.0159978
805.796	0.0158530
805.874	0.0160323
805.953	0.0159784
806.031	0.0158980
806.109	0.0158873
806.187	0.0158726
806.265	0.0158795
806.343	0.0159028
806.421	0.0158400
806.499	0.0158588
806.578	0.0158749
806.656	0.0159325
806.734	0.0160780
806.812	0.0159743
806.890	0.0159062
806.968	0.0160851
807.046	0.0161022
807.124	0.0159962
807.203	0.0159522
807.281	0.0160770
807.359	0.0161365
807.437	0.0159049
807.515	0.0161150
807.593	0.0160665
807.671	0.0159850
807.749	0.0160418
807.828	0.0159324
807.906	0.0160833
807.984	0.0160018
808.062	0.0158426
808.140	0.0160561
808.218	0.0161014
808.296	0.0160191
808.374	0.0159470
808.453	0.0160020
808.531	0.0160074
808.609	0.0159419
808.687	0.0159962
808.765	0.0159538
808.843	0.0160614
808.921	0.0160165
808.999	0.0158894
809.078	0.0160121
809.156	0.0159432
809.234	0.0159652
809.312	0.0158915
809.390	0.0158898
809.468	0.0159815
809.546	0.0158281
809.624	0.0160141
809.703	0.0158220
809.781	0.0158003
809.859	0.0158093
809.937	0.0159922
810.015	0.0157897
810.093	0.0159087
810.171	0.0158673
810.249	0.0157281
810.328	0.0156380
810.406	0.0159014
810.484	0.0158333
810.562	0.0158251
810.640	0.0159370
810.718	0.0160587
810.796	0.0160271
810.874	0.0159786
810.953	0.0160868
811.031	0.0160915
811.109	0.0160787
811.187	0.0158752
811.265	0.0159825
811.343	0.0161391
811.421	0.0161500
811.499	0.0158962
811.578	0.0160355
811.656	0.0158844
811.734	0.0161083
811.812	0.0159937
811.890	0.0159422
811.968	0.0160326
812.046	0.0160267
812.124	0.0161388
812.203	0.0162022
812.281	0.0159588
812.359	0.0161003
812.437	0.0160492
812.515	0.0158688
812.593	0.0161110
812.671	0.0159845
812.749	0.0159670
812.828	0.0160649
812.906	0.0160133
812.984	0.0161938
813.062	0.0160803
813.140	0.0160166
813.218	0.0159977
813.296	0.0160156
813.374	0.0160247
813.453	0.0159686
813.531	0.0159784
813.609	0.0159869
813.687	0.0159552
813.765	0.0160027
813.843	0.0159337
813.921	0.0159479
813.999	0.0160569
814.078	0.0159663
814.156	0.0160065
814.234	0.0160247
814.312	0.0159860
814.390	0.0158763
814.468	0.0158836
814.546	0.0159108
814.624	0.0159870
814.703	0.0158894
814.781	0.0159310
814.859	0.0158633
814.937	0.0158540
815.015	0.0159663
815.093	0.0159796
815.171	0.0158664
815.249	0.0159540
815.328	0.0159833
815.406	0.0160796
815.484	0.0158988
815.562	0.0159719
815.640	0.0159467
815.718	0.0160795
815.796	0.0160408
815.874	0.0160285
815.953	0.0161151
816.031	0.0161808
816.109	0.0161539
816.187	0.0163391
816.265	0.0162921
816.343	0.0161741
816.421	0.0162383
816.499	0.0162991
816.578	0.0163094
816.656	0.0163394
816.734	0.0163774
816.812	0.0163043
816.890	0.0162799
816.968	0.0161911
817.046	0.0161363
817.124	0.0162423
817.203	0.0162504
817.281	0.0161959
817.359	0.0161905
817.437	0.0161263
817.515	0.0160233
817.593	0.0159585
817.671	0.0161839
817.749	0.0161514
817.828	0.0160804
817.906	0.0160290
817.984	0.0159824
818.062	0.0161220
818.140	0.0159870
818.218	0.0159358
818.296	0.0158623
818.374	0.0158630
818.453	0.0159393
818.531	0.0159911
818.609	0.0160419
818.687	0.0160815
818.765	0.0160464
818.843	0.0159865
818.921	0.0159625
818.999	0.0161305
819.078	0.0161636
819.156	0.0162470
819.234	0.0161784
819.312	0.0160672
819.390	0.0160915
819.468	0.0161074
819.546	0.0160767
819.624	0.0160316
819.703	0.0161596
819.781	0.0162117
819.859	0.0162285
819.937	0.0160326
820.015	0.0161413
820.093	0.0162147
820.171	0.0162057
820.249	0.0161099
820.328	0.0160126
820.406	0.0161641
820.484	0.0161317
820.562	0.0160917
820.640	0.0160396
820.718	0.0159502
820.796	0.0159607
820.874	0.0161435
820.953	0.0160682
821.031	0.0160319
821.109	0.0159605
821.187	0.0160651
821.265	0.0160212
821.343	0.0158865
821.421	0.0158919
821.499	0.0161222
821.578	0.0160364
821.656	0.0159383
821.734	0.0160783
821.812	0.0160120
821.890	0.0158997
821.968	0.0160708
822.046	0.0160995
822.124	0.0160547
822.203	0.0162041
822.281	0.0161152
822.359	0.0159779
822.437	0.0160493
822.515	0.0161417
822.593	0.0161745
822.671	0.0161378
822.749	0.0160899
822.828	0.0161298
822.906	0.0161442
822.984	0.0160454
823.062	0.0160880
823.140	0.0161017
823.218	0.0159415
823.296	0.0160239
823.374	0.0160645
823.453	0.0160558
823.531	0.0160185
823.609	0.0159926
823.687	0.0161790
823.765	0.0158672
823.843	0.0159325
823.921	0.0159899
823.999	0.0158336
824.078	0.0160612
824.156	0.0159098
824.234	0.0160336
824.312	0.0159236
824.390	0.0160416
824.468	0.0158667
824.546	0.0158904
824.624	0.0158278
824.703	0.0159244
824.781	0.0159613
824.859	0.0158541
824.937	0.0158332
825.015	0.0158107
825.093	0.0159469
825.171	0.0159387
825.249	0.0157638
825.328	0.0158801
825.406	0.0158488
825.484	0.0158955
825.562	0.0158398
825.640	0.0159968
825.718	0.0160641
825.796	0.0160381
825.874	0.0160730
825.953	0.0160992
826.031	0.0161187
826.109	0.0159944
826.187	0.0161151
826.265	0.0160314
826.343	0.0160526
826.421	0.0159341
826.499	0.0159765
826.578	0.0159545
826.656	0.0159959
826.734	0.0160693
826.812	0.0159729
826.890	0.0160133
826.968	0.0160519
827.046	0.0161050
827.124	0.0160049
827.203	0.0161240
827.281	0.0161369
827.359	0.0160808
827.437	0.0159864
827.515	0.0158599
827.593	0.0159022
827.671	0.0158374
827.749	0.0158672
827.828	0.0158952
827.906	0.0158618
827.984	0.0159571
828.062	0.0158074
828.140	0.0156813
828.218	0.0159077
828.296	0.0157980
828.374	0.0158479
828.453	0.0158745
828.531	0.0159431
828.609	0.0157642
828.687	0.0157156
828.765	0.0159117
828.843	0.0159663
828.921	0.0158585
828.999	0.0159427
829.078	0.0161192
829.156	0.0160352
829.234	0.0159925
829.312	0.0160960
829.390	0.0160673
829.468	0.0159565
829.546	0.0159513
829.624	0.0160030
829.703	0.0160997
829.781	0.0159657
829.859	0.0160918
829.937	0.0158842
830.015	0.0160190
830.093	0.0160342
830.171	0.0160309
830.249	0.0160149
830.328	0.0160255
830.406	0.0160599
830.484	0.0158348
830.562	0.0159921
830.640	0.0159034
830.718	0.0158756
830.796	0.0160378
830.874	0.0159353
830.953	0.0159225
831.031	0.0158940
831.109	0.0159705
831.187	0.0160356
831.265	0.0160858
831.343	0.0160309
831.421	0.0161031
831.499	0.0160213
831.578	0.0160603
831.656	0.0159936
831.734	0.0158852
831.812	0.0158636
831.890	0.0159889
831.968	0.0158135
832.046	0.0157589
832.124	0.0158096
832.203	0.0157413
832.281	0.0156418
832.359	0.0157697
832.437	0.0157806
832.515	0.0156571
832.593	0.0157570
832.671	0.0157259
832.749	0.0157314
832.828	0.0156918
832.906	0.0157862
832.984	0.0157390
833.062	0.0159319
833.140	0.0160137
833.218	0.0159875
833.296	0.0160442
833.374	0.0163102
833.453	0.0161861
833.531	0.0162043
833.609	0.0162127
833.687	0.0162991
833.765	0.0163276
833.843	0.0163067
833.921	0.0162766
833.999	0.0161965
834.078	0.0163535
834.156	0.0163013
834.234	0.0162354
834.312	0.0162032
834.390	0.0161747
834.468	0.0159917
834.546	0.0159842
834.624	0.0159016
834.703	0.0160026
834.781	0.0158099
834.859	0.0156972
834.937	0.0157717
835.015	0.0157101
835.093	0.0156118
835.171	0.0156701
835.249	0.0157088
835.328	0.0155519
835.406	0.0156596
835.484	0.0158454
835.562	0.0157281
835.640	0.0157025
835.718	0.0155708
835.796	0.0157507
835.874	0.0156944
835.953	0.0157365
836.031	0.0159554
836.109	0.0160139
836.187	0.0157563
836.265	0.0159965
836.343	0.0161848
836.421	0.0161666
836.499	0.0163060
836.578	0.0162557
836.656	0.0162942
836.734	0.0162999
836.812	0.0163551
836.890	0.0162826
836.968	0.0162659
837.046	0.0160612
837.124	0.0162157
837.203	0.0161850
837.281	0.0160563
837.359	0.0159925
837.437	0.0157757
837.515	0.0158656
837.593	0.0158396
837.671	0.0157553
837.749	0.0156091
837.828	0.0157229
837.906	0.0157718
837.984	0.0155685
838.062	0.0157187
838.140	0.0157525
838.218	0.0156719
838.296	0.0156036
838.374	0.0155903
838.453	0.0156614
838.531	0.0157293
838.609	0.0156538
838.687	0.0155892
838.765	0.0157381
838.843	0.0158887
838.921	0.0158784
838.999	0.0158386
839.078	0.0160580
839.156	0.0158830
839.234	0.0159032
839.312	0.0160224
839.390	0.0161066
839.468	0.0160481
839.546	0.0160388
839.624	0.0159203
839.703	0.0160313
839.781	0.0160184
839.859	0.0160101
839.937	0.0160138
840.015	0.0160657
840.093	0.0159827
840.171	0.0158799
840.249	0.0159782
840.328	0.0158533
840.406	0.0157864
840.484	0.0159199
840.562	0.0157135
840.640	0.0156988
840.718	0.0157705
840.796	0.0157848
840.874	0.0156766
840.953	0.0156317
841.031	0.0156530
841.109	0.0157710
841.187	0.0159060
841.265	0.0159424
841.343	0.0157925
841.421	0.0158781
841.499	0.0158047
841.578	0.0159809
841.656	0.0161323
841.734	0.0159445
841.812	0.0160950
841.890	0.0159611
841.968	0.0160170
842.046	0.0160309
842.124	0.0160440
842.203	0.0161372
842.281	0.0160170
842.359	0.0160401
842.437	0.0159700
842.515	0.0160168
842.593	0.0159426
842.671	0.0160353
842.749	0.0159646
842.828	0.0159853
842.906	0.0159584
842.984	0.0160355
843.062	0.0160194
843.140	0.0159425
843.218	0.0159716
843.296	0.0160264
843.374	0.0158476
843.453	0.0159214
843.531	0.0161019
843.609	0.0160528
843.687	0.0159878
843.765	0.0159814
843.843	0.0161001
843.921	0.0161632
843.999	0.0160067
844.078	0.0161811
844.156	0.0161852
844.234	0.0160815
844.312	0.0162400
844.390	0.0161664
844.468	0.0161340
844.546	0.0163390
844.624	0.0162511
844.703	0.0161558
844.781	0.0162180
844.859	0.0163232
844.937	0.0163114
845.015	0.0161483
845.093	0.0161571
845.171	0.0162032
845.249	0.0160887
845.328	0.0161726
845.406	0.0161988
845.484	0.0161173
845.562	0.0160246
845.640	0.0160164
845.718	0.0159064
845.796	0.0159979
845.874	0.0158854
845.953	0.0160175
846.031	0.0159131
846.109	0.0157909
846.187	0.0159590
846.265	0.0159928
846.343	0.0160141
846.421	0.0159500
846.499	0.0160346
846.578	0.0160176
846.656	0.0161480
846.734	0.0159660
846.812	0.0162107
846.890	0.0161286
846.968	0.0161628
847.046	0.0161524
847.124	0.0160416
847.203	0.0160477
847.281	0.0160741
847.359	0.0161072
847.437	0.0160451
847.515	0.0159782
847.593	0.0160142
847.671	0.0160625
847.749	0.0160814
847.828	0.0159590
847.906	0.0161641
847.984	0.0158556
848.062	0.0158576
848.140	0.0160112
848.218	0.0159457
848.296	0.0158952
848.374	0.0159453
848.453	0.0158624
848.531	0.0159505
848.609	0.0159438
848.687	0.0158472
848.765	0.0159798
848.843	0.0158114
848.921	0.0159523
848.999	0.0158013
849.078	0.0159395
849.156	0.0160480
849.234	0.0159376
849.312	0.0158916
849.390	0.0160175
849.468	0.0158521
849.546	0.0160355
849.624	0.0159334
849.703	0.0159274
849.781	0.0158834
849.859	0.0159818
849.937	0.0159316
850.015	0.0159442
850.093	0.0159348
850.171	0.0159969
850.249	0.0158617
850.328	0.0158652
850.406	0.0159508
850.484	0.0159008
850.562	0.0156782
850.640	0.0157977
850.718	0.0158504
850.796	0.0158140
850.874	0.0158244
850.953	0.0158704
851.031	0.0157558
851.109	0.0157979
851.187	0.0158117
851.265	0.0156085
851.343	0.0156871
851.421	0.0157649
851.499	0.0158926
851.578	0.0159196
851.656	0.0158203
851.734	0.0158046
851.812	0.0158866
851.890	0.0158624
851.968	0.0159507
852.046	0.0158744
852.124	0.0158166
852.203	0.0159814
852.281	0.0159562
852.359	0.0158727
852.437	0.0160332
852.515	0.0161250
852.593	0.0161152
852.671	0.0159724
852.749	0.0160223
852.828	0.0160564
852.906	0.0162794
852.984	0.0161387
853.062	0.0161057
853.140	0.0161522
853.218	0.0162919
853.296	0.0160352
853.374	0.0161602
853.453	0.0160114
853.531	0.0160715
853.609	0.0161259
853.687	0.0159941
853.765	0.0158600
853.843	0.0158411
853.921	0.0159856
853.999	0.0159444
854.078	0.0159419
854.156	0.0159244
854.234	0.0158942
854.312	0.0158652
854.390	0.0160433
854.468	0.0157544
854.546	0.0158305
854.624	0.0159224
854.703	0.0157742
854.781	0.0158334
854.859	0.0159209
854.937	0.0158989
855.015	0.0158723
855.093	0.0157529
855.171	0.0157838
855.249	0.0158528
855.328	0.0159077
855.406	0.0158900
855.484	0.0158765
855.562	0.0160844
855.640	0.0158638
855.718	0.0159104
855.796	0.0158678
855.874	0.0160213
855.953	0.0158175
856.031	0.0159105
856.109	0.0158923
856.187	0.0159622
856.265	0.0159927
856.343	0.0160412
856.421	0.0160076
856.499	0.0161377
856.578	0.0160670
856.656	0.0159406
856.734	0.0161996
856.812	0.0160799
856.890	0.0160751
856.968	0.0160772
857.046	0.0160210
857.124	0.0160068
857.203	0.0161200
857.281	0.0159954
857.359	0.0158923
857.437	0.0158774
857.515	0.0158736
857.593	0.0158160
857.671	0.0158730
857.749	0.0157492
857.828	0.0158741
857.906	0.0157252
857.984	0.0157197
858.062	0.0156859
858.140	0.0159231
858.218	0.0157967
858.296	0.0156693
858.374	0.0157538
858.453	0.0158446
858.531	0.0157278
858.609	0.0158041
858.687	0.0157526
858.765	0.0158681
858.843	0.0158018
858.921	0.0156526
858.999	0.0158085
859.078	0.0158934
859.156	0.0158453
859.234	0.0157631
859.312	0.0156991
859.390	0.0157558
859.468	0.0157741
859.546	0.0157326
859.624	0.0157161
859.703	0.0157215
859.781	0.0158295
859.859	0.0157789
859.937	0.0157942
860.015	0.0158424
860.093	0.0158936
860.171	0.0158513
860.249	0.0158389
860.328	0.0159840
860.406	0.0158101
860.484	0.0158634
860.562	0.0160175
860.640	0.0160500
860.718	0.0160280
860.796	0.0159867
860.874	0.0159686
860.953	0.0160381
861.031	0.0160331
861.109	0.0158956
861.187	0.0158832
861.265	0.0158125
861.343	0.0159660
861.421	0.0158443
861.499	0.0157812
861.578	0.0156785
861.656	0.0156295
861.734	0.0157458
861.812	0.0157702
861.890	0.0156481
861.968	0.0155530
862.046	0.0156985
862.124	0.0157123
862.203	0.0156046
862.281	0.0155544
862.359	0.0156133
862.437	0.0156850
862.515	0.0155782
862.593	0.0157729
862.671	0.0157761
862.749	0.0157286
862.828	0.0157526
862.906	0.0157965
862.984	0.0158800
863.062	0.0157456
863.140	0.0158157
863.218	0.0158414
863.296	0.0157505
863.374	0.0158826
863.453	0.0158799
863.531	0.0159039
863.609	0.0157549
863.687	0.0158775
863.765	0.0158981
863.843	0.0159750
863.921	0.0159940
863.999	0.0159370
864.078	0.0159170
864.156	0.0159753
864.234	0.0159987
864.312	0.0160499
864.390	0.0159713
864.468	0.0160386
864.546	0.0159323
864.624	0.0160082
864.703	0.0161322
864.781	0.0159378
864.859	0.0158977
864.937	0.0159317
865.015	0.0159301
865.093	0.0159116
865.171	0.0158659
865.249	0.0157799
865.328	0.0157685
865.406	0.0158232
865.484	0.0158537
865.562	0.0157784
865.640	0.0157405
865.718	0.0156812
865.796	0.0157802
865.874	0.0157632
865.953	0.0158385
866.031	0.0157832
866.109	0.0159489
866.187	0.0157830
866.265	0.0157806
866.343	0.0159865
866.421	0.0159748
866.499	0.0158164
866.578	0.0160124
866.656	0.0159746
866.734	0.0160616
866.812	0.0160405
866.890	0.0158924
866.968	0.0159921
867.046	0.0159167
867.124	0.0159560
867.203	0.0160318
867.281	0.0159788
867.359	0.0159663
867.437	0.0159741
867.515	0.0160427
867.593	0.0160274
867.671	0.0160078
867.749	0.0159653
867.828	0.0158750
867.906	0.0159569
867.984	0.0160422
868.062	0.0161764
868.140	0.0159624
868.218	0.0158734
868.296	0.0160928
868.374	0.0158575
868.453	0.0158313
868.531	0.0160171
868.609	0.0161259
868.687	0.0159547
868.765	0.0160144
868.843	0.0159205
868.921	0.0158866
868.999	0.0158956
869.078	0.0161333
869.156	0.0160555
869.234	0.0159037
869.312	0.0159124
869.390	0.0160043
869.468	0.0159683
869.546	0.0159342
869.624	0.0158882
869.703	0.0159252
869.781	0.0157838
869.859	0.0158165
869.937	0.0158907
870.015	0.0157599
870.093	0.0158829
870.171	0.0159827
870.249	0.0157918
870.328	0.0158973
870.406	0.0158384
870.484	0.0158171
870.562	0.0159283
870.640	0.0159257
870.718	0.0159109
870.796	0.0159138
870.874	0.0158316
870.953	0.0159166
871.031	0.0158566
871.109	0.0158151
871.187	0.0159770
871.265	0.0160535
871.343	0.0158395
871.421	0.0159267
871.499	0.0160607
871.578	0.0158702
871.656	0.0159198
871.734	0.0158643
871.812	0.0160351
871.890	0.0160146
871.968	0.0158724
872.046	0.0159613
872.124	0.0159753
872.203	0.0159921
872.281	0.0160271
872.359	0.0161512
872.437	0.0159824
872.515	0.0159782
872.593	0.0160155
872.671	0.0160985
872.749	0.0161539
872.828	0.0159834
872.906	0.0158603
872.984	0.0159051
873.062	0.0159488
873.140	0.0159514
873.218	0.0158794
873.296	0.0159191
873.374	0.0158357
873.453	0.0160310
873.531	0.0158803
873.609	0.0158141
873.687	0.0158205
873.765	0.0159743
873.843	0.0159957
873.921	0.0160326
873.999	0.0159764
874.078	0.0159563
874.156	0.0158370
874.234	0.0159840
874.312	0.0159628
874.390	0.0160521
874.468	0.0159143
874.546	0.0158328
874.624	0.0159077
874.703	0.0158998
874.781	0.0159328
874.859	0.0159369
874.937	0.0157677
875.015	0.0159353
875.093	0.0159940
875.171	0.0160239
875.249	0.0159889
875.328	0.0159309
875.406	0.0160955
875.484	0.0159609
875.562	0.0160549
875.640	0.0160745
875.718	0.0159500
875.796	0.0160957
875.874	0.0159943
875.953	0.0160760
876.031	0.0160811
876.109	0.0160979
876.187	0.0161515
876.265	0.0160068
876.343	0.0160982
876.421	0.0160542
876.499	0.0160721
876.578	0.0162112
876.656	0.0161473
876.734	0.0160260
876.812	0.0160201
876.890	0.0161641
876.968	0.0159208
877.046	0.0160298
877.124	0.0161763
877.203	0.0160217
877.281	0.0159497
877.359	0.0160014
877.437	0.0159800
877.515	0.0159950
877.593	0.0160573
877.671	0.0158582
877.749	0.0158762
877.828	0.0159217
877.906	0.0159685
877.984	0.0159519
878.062	0.0157759
878.140	0.0159224
878.218	0.0158680
878.296	0.0159547
878.374	0.0159798
878.453	0.0159067
878.531	0.0159438
878.609	0.0158768
878.687	0.0160332
878.765	0.0159549
878.843	0.0159550
878.921	0.0158943
878.999	0.0159531
879.078	0.0159023
879.156	0.0159470
879.234	0.0158788
879.312	0.0159565
879.390	0.0158463
879.468	0.0158881
879.546	0.0158144
879.624	0.0158875
879.703	0.0158790
879.781	0.0159490
879.859	0.0159684
879.937	0.0158322
880.015	0.0159659
880.093	0.0160757
880.171	0.0160275
880.249	0.0161426
880.328	0.0158803
880.406	0.0158672
880.484	0.0161491
880.562	0.0161183
880.640	0.0162029
880.718	0.0161713
880.796	0.0160037
880.874	0.0162418
880.953	0.0162227
881.031	0.0161102
881.109	0.0161257
881.187	0.0159709
881.265	0.0160174
881.343	0.0160816
881.421	0.0160938
881.499	0.0161766
881.578	0.0160084
881.656	0.0159885
881.734	0.0159648
881.812	0.0160101
881.890	0.0159383
881.968	0.0158707
882.046	0.0159002
882.124	0.0159035
882.203	0.0159058
882.281	0.0157637
882.359	0.0157686
882.437	0.0159621
882.515	0.0158286
882.593	0.0158839
882.671	0.0156963
882.749	0.0158570
882.828	0.0158066
882.906	0.0159013
882.984	0.0159476
883.062	0.0158896
883.140	0.0159065
883.218	0.0159832
883.296	0.0159454
883.374	0.0159929
883.453	0.0161689
883.531	0.0159004
883.609	0.0160130
883.687	0.0161012
883.765	0.0161790
883.843	0.0161006
883.921	0.0159863
883.999	0.0160564
884.078	0.0160411
884.156	0.0160835
884.234	0.0159660
884.312	0.0160800
884.390	0.0160278
884.468	0.0160721
884.546	0.0158941
884.624	0.0159262
884.703	0.0159466
884.781	0.0158384
884.859	0.0158915
884.937	0.0158553
885.015	0.0159151
885.093	0.0158994
885.171	0.0158955
885.249	0.0158411
885.328	0.0158530
885.406	0.0156697
885.484	0.0158054
885.562	0.0157228
885.640	0.0159219
885.718	0.0159236
885.796	0.0159266
885.874	0.0159565
885.953	0.0158833
886.031	0.0158833
886.109	0.0158131
886.187	0.0157560
886.265	0.0158179
886.343	0.0159200
886.421	0.0158894
886.499	0.0158755
886.578	0.0159043
886.656	0.0159312
886.734	0.0158809
886.812	0.0158623
886.890	0.0159456
886.968	0.0158367
887.046	0.0159458
887.124	0.0157957
887.203	0.0158529
887.281	0.0159358
887.359	0.0156982
887.437	0.0158714
887.515	0.0159223
887.593	0.0159089
887.671	0.0158013
887.749	0.0159053
887.828	0.0159611
887.906	0.0158827
887.984	0.0158233
888.062	0.0159676
888.140	0.0159594
888.218	0.0159585
888.296	0.0158028
888.374	0.0159686
888.453	0.0158860
888.531	0.0158560
888.609	0.0158749
888.687	0.0159428
888.765	0.0158240
888.843	0.0159605
888.921	0.0159478
888.999	0.0159415
889.078	0.0158660
889.156	0.0158044
889.234	0.0157882
889.312	0.0159747
889.390	0.0159798
889.468	0.0159451
889.546	0.0159583
889.624	0.0159662
889.703	0.0159544
889.781	0.0158450
889.859	0.0159502
889.937	0.0158641
890.015	0.0159009
890.093	0.0159771
890.171	0.0160015
890.249	0.0160110
890.328	0.0159412
890.406	0.0160963
890.484	0.0159292
890.562	0.0160535
890.640	0.0159814
890.718	0.0159039
890.796	0.0160590
890.874	0.0160277
890.953	0.0160519
891.031	0.0159901
891.109	0.0160219
891.187	0.0159740
891.265	0.0158982
891.343	0.0159455
891.421	0.0160808
891.499	0.0160429
891.578	0.0159570
891.656	0.0159267
891.734	0.0159176
891.812	0.0160477
891.890	0.0160004
891.968	0.0159694
892.046	0.0159877
892.124	0.0161259
892.203	0.0159415
892.281	0.0159598
892.359	0.0161053
892.437	0.0161116
892.515	0.0160587
892.593	0.0160076
892.671	0.0160337
892.749	0.0160509
892.828	0.0160755
892.906	0.0161171
892.984	0.0160736
893.062	0.0160689
893.140	0.0161752
893.218	0.0160662
893.296	0.0160133
893.374	0.0161354
893.453	0.0161122
893.531	0.0160450
893.609	0.0160824
893.687	0.0160766
893.765	0.0159876
893.843	0.0160558
893.921	0.0160677
893.999	0.0160930
894.078	0.0160305
894.156	0.0159212
894.234	0.0159674
894.312	0.0159478
894.390	0.0160653
894.468	0.0159003
894.546	0.0159595
894.624	0.0159684
894.703	0.0159446
894.781	0.0160114
894.859	0.0159914
894.937	0.0160348
895.015	0.0159930
895.093	0.0159045
895.171	0.0158734
895.249	0.0159761
895.328	0.0159647
895.406	0.0158033
895.484	0.0160037
895.562	0.0158717
895.640	0.0159717
895.718	0.0159874
895.796	0.0159734
895.874	0.0159776
895.953	0.0159792
896.031	0.0160353
896.109	0.0160493
896.187	0.0159819
896.265	0.0160353
896.343	0.0159576
896.421	0.0159788
896.499	0.0159836
896.578	0.0160426
896.656	0.0160455
896.734	0.0159378
896.812	0.0158942
896.890	0.0160982
896.968	0.0159813
897.046	0.0158708
897.124	0.0160380
897.203	0.0158804
897.281	0.0159444
897.359	0.0158761
897.437	0.0157898
897.515	0.0159060
897.593	0.0158340
897.671	0.0157946
897.749	0.0157444
897.828	0.0158644
897.906	0.0157306
897.984	0.0158189
898.062	0.0156573
898.140	0.0157884
898.218	0.0160393
898.296	0.0157269
898.374	0.0157900
898.453	0.0160270
898.531	0.0160069
898.609	0.0160392
898.687	0.0159685
898.765	0.0159462
898.843	0.0159904
898.921	0.0158846
898.999	0.0160895
899.078	0.0160248
899.156	0.0160199
899.234	0.0160256
899.312	0.0159525
899.390	0.0161621
899.468	0.0161615
899.546	0.0160858
899.624	0.0160999
899.703	0.0160136
899.781	0.0160490
899.859	0.0160764
899.937	0.0160501
900.015	0.0159957
900.093	0.0160781
900.171	0.0160918
900.249	0.0160447
900.328	0.0159779
900.406	0.0160259
900.484	0.0162739
900.562	0.0160381
900.640	0.0160432
900.718	0.0159904
900.796	0.0159592
900.874	0.0160952
900.953	0.0161015
901.031	0.0160210
901.109	0.0159823
901.187	0.0161477
901.265	0.0160545
901.343	0.0160436
901.421	0.0160261
901.499	0.0160217
901.578	0.0160101
901.656	0.0160731
901.734	0.0160063
901.812	0.0160611
901.890	0.0159689
901.968	0.0160220
902.046	0.0160310
902.124	0.0159943
902.203	0.0158731
902.281	0.0159591
902.359	0.0159734
902.437	0.0159167
902.515	0.0159642
902.593	0.0157729
902.671	0.0159013
902.749	0.0158949
902.828	0.0158164
902.906	0.0159128
902.984	0.0159164
903.062	0.0158038
903.140	0.0159083
903.218	0.0157540
903.296	0.0158656
903.374	0.0159711
903.453	0.0159830
903.531	0.0159774
903.609	0.0159474
903.687	0.0159920
903.765	0.0159473
903.843	0.0160780
903.921	0.0161013
903.999	0.0160727
904.078	0.0159896
904.156	0.0159936
904.234	0.0158924
904.312	0.0159291
904.390	0.0160272
904.468	0.0159642
904.546	0.0160040
904.624	0.0160314
904.703	0.0162359
904.781	0.0158485
904.859	0.0159097
904.937	0.0158773
905.015	0.0159502
905.093	0.0160690
905.171	0.0159517
905.249	0.0159496
905.328	0.0160294
905.406	0.0160168
905.484	0.0157935
905.562	0.0159831
905.640	0.0160653
905.718	0.0160791
905.796	0.0158905
905.874	0.0159731
905.953	0.0159923
906.031	0.0160278
906.109	0.0159015
906.187	0.0160079
906.265	0.0159642
906.343	0.0159918
906.421	0.0159438
906.499	0.0157764
906.578	0.0158755
906.656	0.0157806
906.734	0.0157500
906.812	0.0157830
906.890	0.0158115
906.968	0.0157116
907.046	0.0159280
907.124	0.0158862
907.203	0.0158427
907.281	0.0158345
907.359	0.0157887
907.437	0.0159079
907.515	0.0158416
907.593	0.0158167
907.671	0.0158070
907.749	0.0157265
907.828	0.0158333
907.906	0.0159124
907.984	0.0158848
908.062	0.0158759
908.140	0.0157964
908.218	0.0157689
908.296	0.0158887
908.374	0.0158862
908.453	0.0159422
908.531	0.0159328
908.609	0.0158768
908.687	0.0158656
908.765	0.0159300
908.843	0.0159757
908.921	0.0158282
908.999	0.0158680
909.078	0.0159186
909.156	0.0159138
909.234	0.0158359
909.312	0.0160597
909.390	0.0160944
909.468	0.0160515
909.546	0.0159355
909.624	0.0160244
909.703	0.0160294
909.781	0.0160638
909.859	0.0159512
909.937	0.0160458
910.015	0.0159885
910.093	0.0159981
910.171	0.0160648
910.249	0.0159558
910.328	0.0159954
910.406	0.0160309
910.484	0.0159037
910.562	0.0160062
910.640	0.0159735
910.718	0.0160038
910.796	0.0159792
910.874	0.0159324
910.953	0.0159788
911.031	0.0159349
911.109	0.0161543
911.187	0.0161124
911.265	0.0160600
911.343	0.0159826
911.421	0.0162936
911.499	0.0162080
911.578	0.0161631
911.656	0.0160545
911.734	0.0160032
911.812	0.0159634
911.890	0.0161265
911.968	0.0162833
912.046	0.0162043
912.124	0.0163063
912.203	0.0162302
912.281	0.0161407
912.359	0.0162072
912.437	0.0161756
912.515	0.0161381
912.593	0.0161246
912.671	0.0162414
912.749	0.0161934
912.828	0.0161263
912.906	0.0160915
912.984	0.0159563
913.062	0.0159560
913.140	0.0160130
913.218	0.0161146
913.296	0.0161311
913.374	0.0159821
913.453	0.0160526
913.531	0.0161307
913.609	0.0160461
913.687	0.0161749
913.765	0.0160209
913.843	0.0160427
913.921	0.0161239
913.999	0.0162770
914.078	0.0159990
914.156	0.0161004
914.234	0.0160025
914.312	0.0161750
914.390	0.0162421
914.468	0.0161229
914.546	0.0159719
914.624	0.0160203
914.703	0.0161250
914.781	0.0160397
914.859	0.0160439
914.937	0.0160687
915.015	0.0161182
915.093	0.0159269
915.171	0.0160662
915.249	0.0160720
915.328	0.0160420
915.406	0.0160412
915.484	0.0161649
915.562	0.0161328
915.640	0.0160719
915.718	0.0160568
915.796	0.0161214
915.874	0.0160524
915.953	0.0159419
916.031	0.0160056
916.109	0.0162214
916.187	0.0161203
916.265	0.0160525
916.343	0.0160934
916.421	0.0161526
916.499	0.0162218
916.578	0.0160466
916.656	0.0161999
916.734	0.0161111
916.812	0.0160419
916.890	0.0160611
916.968	0.0158881
917.046	0.0161634
917.124	0.0161317
917.203	0.0160883
917.281	0.0160422
917.359	0.0160826
917.437	0.0163733
917.515	0.0162093
917.593	0.0160758
917.671	0.0161430
917.749	0.0161317
917.828	0.0162592
917.906	0.0161824
917.984	0.0160594
918.062	0.0161385
918.140	0.0160268
918.218	0.0160254
918.296	0.0160166
918.374	0.0161057
918.453	0.0159963
918.531	0.0160331
918.609	0.0159467
918.687	0.0159513
918.765	0.0159511
918.843	0.0159510
918.921	0.0159446
918.999	0.0159943
919.078	0.0159624
919.156	0.0159785
919.234	0.0159306
919.312	0.0160928
919.390	0.0160072
919.468	0.0158450
919.546	0.0157525
919.624	0.0158720
919.703	0.0159291
919.781	0.0159266
919.859	0.0159377
919.937	0.0160033
