06/10/2022	19:05:21	Ver.	4.1	UNKNOWN
Optical Delay	600.015094	Delta X		0.078125	Sweeps	1	Scan Rate	0/0
Coordinates	Axis 1	NaN	Axis 2	NaN	Axis 3	NaN	Axis 4	NaN	Axis 5	NaN	Axis 6	0.000000
TX Power	0.000000	RX Power	0.000000

600.015	0.0165372
600.093	0.0163254
600.171	0.0161205
600.249	0.0163406
600.328	0.0163167
600.406	0.0161692
600.484	0.0162811
600.562	0.0161282
600.640	0.0161058
600.718	0.0161440
600.796	0.0161119
600.874	0.0160910
600.953	0.0160825
601.031	0.0160322
601.109	0.0162730
601.187	0.0161835
601.265	0.0163569
601.343	0.0162580
601.421	0.0161542
601.499	0.0162456
601.578	0.0160738
601.656	0.0161765
601.734	0.0162412
601.812	0.0163219
601.890	0.0163212
601.968	0.0162209
602.046	0.0161011
602.124	0.0162455
602.203	0.0163548
602.281	0.0161533
602.359	0.0161955
602.437	0.0162313
602.515	0.0161774
602.593	0.0162077
602.671	0.0162558
602.749	0.0162109
602.828	0.0162283
602.906	0.0162611
602.984	0.0162576
603.062	0.0160868
603.140	0.0162762
603.218	0.0163004
603.296	0.0162749
603.374	0.0162553
603.453	0.0162108
603.531	0.0163217
603.609	0.0161713
603.687	0.0161736
603.765	0.0161861
603.843	0.0162203
603.921	0.0163145
603.999	0.0162949
604.078	0.0162773
604.156	0.0162802
604.234	0.0161491
604.312	0.0163256
604.390	0.0162879
604.468	0.0162112
604.546	0.0162455
604.624	0.0163555
604.703	0.0163096
604.781	0.0163375
604.859	0.0164696
604.937	0.0162405
605.015	0.0164369
605.093	0.0162404
605.171	0.0163246
605.249	0.0164633
605.328	0.0165735
605.406	0.0163549
605.484	0.0164019
605.562	0.0164098
605.640	0.0163616
605.718	0.0163039
605.796	0.0164265
605.874	0.0163761
605.953	0.0163309
606.031	0.0162590
606.109	0.0161980
606.187	0.0162505
606.265	0.0162201
606.343	0.0163236
606.421	0.0162513
606.499	0.0162978
606.578	0.0161874
606.656	0.0162275
606.734	0.0162228
606.812	0.0162629
606.890	0.0163377
606.968	0.0164137
607.046	0.0164051
607.124	0.0165433
607.203	0.0163979
607.281	0.0164353
607.359	0.0163736
607.437	0.0165741
607.515	0.0164545
607.593	0.0165221
607.671	0.0164002
607.749	0.0164386
607.828	0.0165149
607.906	0.0164983
607.984	0.0165113
608.062	0.0164992
608.140	0.0165201
608.218	0.0165284
608.296	0.0164776
608.374	0.0163815
608.453	0.0163909
608.531	0.0164691
608.609	0.0164668
608.687	0.0163239
608.765	0.0164165
608.843	0.0165318
608.921	0.0164069
608.999	0.0162162
609.078	0.0164239
609.156	0.0165243
609.234	0.0164879
609.312	0.0164951
609.390	0.0163839
609.468	0.0164332
609.546	0.0165192
609.624	0.0165173
609.703	0.0165467
609.781	0.0165363
609.859	0.0165411
609.937	0.0165215
610.015	0.0165279
610.093	0.0166277
610.171	0.0166439
610.249	0.0165371
610.328	0.0167083
610.406	0.0167075
610.484	0.0166534
610.562	0.0166268
610.640	0.0165382
610.718	0.0166458
610.796	0.0166398
610.874	0.0166569
610.953	0.0165986
611.031	0.0166013
611.109	0.0166192
611.187	0.0166775
611.265	0.0167536
611.343	0.0166153
611.421	0.0166682
611.499	0.0165521
611.578	0.0166676
611.656	0.0168654
611.734	0.0166086
611.812	0.0166711
611.890	0.0166859
611.968	0.0166531
612.046	0.0168784
612.124	0.0166022
612.203	0.0167217
612.281	0.0164348
612.359	0.0165347
612.437	0.0166101
612.515	0.0168192
612.593	0.0166531
612.671	0.0166036
612.749	0.0165389
612.828	0.0166799
612.906	0.0166937
612.984	0.0165144
613.062	0.0167142
613.140	0.0166251
613.218	0.0166901
613.296	0.0164896
613.374	0.0166996
613.453	0.0167479
613.531	0.0165835
613.609	0.0165824
613.687	0.0167236
613.765	0.0165257
613.843	0.0165656
613.921	0.0165009
613.999	0.0166077
614.078	0.0165759
614.156	0.0164796
614.234	0.0165501
614.312	0.0164070
614.390	0.0165621
614.468	0.0165501
614.546	0.0166127
614.624	0.0165421
614.703	0.0165815
614.781	0.0164975
614.859	0.0165501
614.937	0.0165394
615.015	0.0165540
615.093	0.0165578
615.171	0.0165417
615.249	0.0164016
615.328	0.0165359
615.406	0.0165339
615.484	0.0165586
615.562	0.0165746
615.640	0.0165944
615.718	0.0166277
615.796	0.0166968
615.874	0.0163963
615.953	0.0164225
616.031	0.0165453
616.109	0.0166965
616.187	0.0165517
616.265	0.0164498
616.343	0.0165063
616.421	0.0165601
616.499	0.0164794
616.578	0.0163920
616.656	0.0164503
616.734	0.0164802
616.812	0.0164590
616.890	0.0163390
616.968	0.0165515
617.046	0.0163342
617.124	0.0163221
617.203	0.0165337
617.281	0.0162681
617.359	0.0162980
617.437	0.0165046
617.515	0.0163481
617.593	0.0163081
617.671	0.0165632
617.749	0.0163766
617.828	0.0161868
617.906	0.0163899
617.984	0.0163793
618.062	0.0164403
618.140	0.0164031
618.218	0.0164645
618.296	0.0164340
618.374	0.0163062
618.453	0.0163831
618.531	0.0166309
618.609	0.0165911
618.687	0.0165279
618.765	0.0165188
618.843	0.0165908
618.921	0.0166602
618.999	0.0165235
619.078	0.0166434
619.156	0.0164845
619.234	0.0164730
619.312	0.0166293
619.390	0.0165779
619.468	0.0166550
619.546	0.0167652
619.624	0.0168814
619.703	0.0167760
619.781	0.0167115
619.859	0.0167806
619.937	0.0167146
620.015	0.0166724
620.093	0.0166992
620.171	0.0167809
620.249	0.0166978
620.328	0.0166259
620.406	0.0165549
620.484	0.0166058
620.562	0.0165933
620.640	0.0165485
620.718	0.0164284
620.796	0.0166183
620.874	0.0165538
620.953	0.0165533
621.031	0.0164903
621.109	0.0166228
621.187	0.0165600
621.265	0.0165591
621.343	0.0163781
621.421	0.0165221
621.499	0.0165378
621.578	0.0163838
621.656	0.0164801
621.734	0.0165887
621.812	0.0165955
621.890	0.0164140
621.968	0.0164261
622.046	0.0164985
622.124	0.0163832
622.203	0.0164689
622.281	0.0165703
622.359	0.0165751
622.437	0.0164383
622.515	0.0164429
622.593	0.0164690
622.671	0.0164034
622.749	0.0164871
622.828	0.0164074
622.906	0.0163976
622.984	0.0164326
623.062	0.0165074
623.140	0.0165169
623.218	0.0165129
623.296	0.0164326
623.374	0.0165469
623.453	0.0165384
623.531	0.0163824
623.609	0.0163464
623.687	0.0164314
623.765	0.0165153
623.843	0.0164603
623.921	0.0165535
623.999	0.0164206
624.078	0.0165614
624.156	0.0164413
624.234	0.0165076
624.312	0.0165221
624.390	0.0165005
624.468	0.0163475
624.546	0.0163962
624.624	0.0165047
624.703	0.0163264
624.781	0.0163131
624.859	0.0163804
624.937	0.0164474
625.015	0.0164363
625.093	0.0164557
625.171	0.0162177
625.249	0.0163072
625.328	0.0164191
625.406	0.0164243
625.484	0.0162955
625.562	0.0163268
625.640	0.0163064
625.718	0.0162818
625.796	0.0160569
625.874	0.0161749
625.953	0.0162921
626.031	0.0163406
626.109	0.0161882
626.187	0.0160868
626.265	0.0162922
626.343	0.0162843
626.421	0.0159759
626.499	0.0161670
626.578	0.0161972
626.656	0.0161834
626.734	0.0161929
626.812	0.0162245
626.890	0.0161034
626.968	0.0161808
627.046	0.0162231
627.124	0.0160860
627.203	0.0161643
627.281	0.0160356
627.359	0.0160998
627.437	0.0162303
627.515	0.0162532
627.593	0.0161124
627.671	0.0161769
627.749	0.0160381
627.828	0.0161106
627.906	0.0161192
627.984	0.0160564
628.062	0.0161430
628.140	0.0161059
628.218	0.0160596
628.296	0.0160650
628.374	0.0161350
628.453	0.0162127
628.531	0.0160260
628.609	0.0160114
628.687	0.0160476
628.765	0.0162217
628.843	0.0160750
628.921	0.0162041
628.999	0.0162715
629.078	0.0162592
629.156	0.0161655
629.234	0.0160558
629.312	0.0162881
629.390	0.0162354
629.468	0.0161283
629.546	0.0162141
629.624	0.0161887
629.703	0.0162561
629.781	0.0163702
629.859	0.0163563
629.937	0.0162951
630.015	0.0162640
630.093	0.0163563
630.171	0.0163477
630.249	0.0163067
630.328	0.0162901
630.406	0.0163857
630.484	0.0163226
630.562	0.0164481
630.640	0.0164666
630.718	0.0163662
630.796	0.0162268
630.874	0.0162271
630.953	0.0162862
631.031	0.0164284
631.109	0.0163598
631.187	0.0165398
631.265	0.0164342
631.343	0.0164845
631.421	0.0163720
631.499	0.0163504
631.578	0.0163634
631.656	0.0164431
631.734	0.0163104
631.812	0.0164802
631.890	0.0163671
631.968	0.0163709
632.046	0.0164668
632.124	0.0164107
632.203	0.0163553
632.281	0.0165464
632.359	0.0165005
632.437	0.0163909
632.515	0.0165302
632.593	0.0164219
632.671	0.0164929
632.749	0.0163693
632.828	0.0165224
632.906	0.0165232
632.984	0.0165520
633.062	0.0165988
633.140	0.0166589
633.218	0.0164725
633.296	0.0166454
633.374	0.0164960
633.453	0.0165165
633.531	0.0166376
633.609	0.0165137
633.687	0.0165923
633.765	0.0165305
633.843	0.0165782
633.921	0.0166143
633.999	0.0165984
634.078	0.0165630
634.156	0.0166199
634.234	0.0166461
634.312	0.0165759
634.390	0.0166096
634.468	0.0165996
634.546	0.0166602
634.624	0.0166500
634.703	0.0168114
634.781	0.0167229
634.859	0.0167974
634.937	0.0167085
635.015	0.0167332
635.093	0.0168172
635.171	0.0167312
635.249	0.0168612
635.328	0.0167720
635.406	0.0167741
635.484	0.0166262
635.562	0.0167693
635.640	0.0167474
635.718	0.0167436
635.796	0.0167397
635.874	0.0167056
635.953	0.0166915
636.031	0.0167788
636.109	0.0167107
636.187	0.0165607
636.265	0.0166587
636.343	0.0165979
636.421	0.0165427
636.499	0.0165784
636.578	0.0166202
636.656	0.0164274
636.734	0.0166214
636.812	0.0166647
636.890	0.0166339
636.968	0.0165155
637.046	0.0164230
637.124	0.0165531
637.203	0.0166672
637.281	0.0164790
637.359	0.0166319
637.437	0.0165572
637.515	0.0164673
637.593	0.0165803
637.671	0.0165796
637.749	0.0165327
637.828	0.0163757
637.906	0.0165678
637.984	0.0166415
638.062	0.0164134
638.140	0.0165598
638.218	0.0164993
638.296	0.0164919
638.374	0.0164582
638.453	0.0166053
638.531	0.0165011
638.609	0.0164777
638.687	0.0165516
638.765	0.0165059
638.843	0.0165279
638.921	0.0166048
638.999	0.0164713
639.078	0.0165392
639.156	0.0164535
639.234	0.0164021
639.312	0.0164751
639.390	0.0165189
639.468	0.0164476
639.546	0.0165034
639.624	0.0165040
639.703	0.0165822
639.781	0.0165696
639.859	0.0165285
639.937	0.0163924
640.015	0.0165000
640.093	0.0163438
640.171	0.0164221
640.249	0.0165440
640.328	0.0165355
640.406	0.0166048
640.484	0.0164725
640.562	0.0166697
640.640	0.0164868
640.718	0.0164957
640.796	0.0166165
640.874	0.0165441
640.953	0.0164798
641.031	0.0164954
641.109	0.0166157
641.187	0.0164972
641.265	0.0165047
641.343	0.0164998
641.421	0.0165146
641.499	0.0166406
641.578	0.0165522
641.656	0.0165971
641.734	0.0165197
641.812	0.0164593
641.890	0.0164409
641.968	0.0164781
642.046	0.0166027
642.124	0.0165887
642.203	0.0164787
642.281	0.0165124
642.359	0.0164514
642.437	0.0166185
642.515	0.0165976
642.593	0.0166422
642.671	0.0165691
642.749	0.0165343
642.828	0.0165312
642.906	0.0164601
642.984	0.0164465
643.062	0.0164606
643.140	0.0165872
643.218	0.0165298
643.296	0.0165439
643.374	0.0165781
643.453	0.0164419
643.531	0.0165301
643.609	0.0165102
643.687	0.0164471
643.765	0.0165223
643.843	0.0164656
643.921	0.0166071
643.999	0.0166293
644.078	0.0164783
644.156	0.0165016
644.234	0.0165350
644.312	0.0165528
644.390	0.0165235
644.468	0.0164654
644.546	0.0165225
644.624	0.0165001
644.703	0.0164427
644.781	0.0164204
644.859	0.0165131
644.937	0.0164874
645.015	0.0165929
645.093	0.0164479
645.171	0.0165019
645.249	0.0163755
645.328	0.0164323
645.406	0.0164478
645.484	0.0165295
645.562	0.0163570
645.640	0.0162331
645.718	0.0165615
645.796	0.0164866
645.874	0.0163628
645.953	0.0164059
646.031	0.0163879
646.109	0.0164371
646.187	0.0163604
646.265	0.0162793
646.343	0.0163123
646.421	0.0163183
646.499	0.0163792
646.578	0.0162987
646.656	0.0163529
646.734	0.0162526
646.812	0.0162344
646.890	0.0163538
646.968	0.0163250
647.046	0.0161225
647.124	0.0162185
647.203	0.0163496
647.281	0.0163119
647.359	0.0163645
647.437	0.0162199
647.515	0.0162703
647.593	0.0163091
647.671	0.0162823
647.749	0.0163313
647.828	0.0164685
647.906	0.0164124
647.984	0.0162960
648.062	0.0162790
648.140	0.0163659
648.218	0.0163454
648.296	0.0163467
648.374	0.0163931
648.453	0.0164253
648.531	0.0163600
648.609	0.0163616
648.687	0.0163326
648.765	0.0163644
648.843	0.0164597
648.921	0.0163863
648.999	0.0162662
649.078	0.0161730
649.156	0.0162555
649.234	0.0162669
649.312	0.0163033
649.390	0.0162479
649.468	0.0162902
649.546	0.0163151
649.624	0.0161456
649.703	0.0161692
649.781	0.0161945
649.859	0.0162466
649.937	0.0161119
650.015	0.0160809
650.093	0.0162118
650.171	0.0162178
650.249	0.0162284
650.328	0.0161601
650.406	0.0161121
650.484	0.0161376
650.562	0.0163080
650.640	0.0163170
650.718	0.0163456
650.796	0.0163681
650.874	0.0163744
650.953	0.0162815
651.031	0.0163364
651.109	0.0164101
651.187	0.0163504
651.265	0.0163927
651.343	0.0163284
651.421	0.0163696
651.499	0.0163542
651.578	0.0163888
651.656	0.0163782
651.734	0.0163539
651.812	0.0164185
651.890	0.0163678
651.968	0.0164278
652.046	0.0163516
652.124	0.0164747
652.203	0.0164762
652.281	0.0163518
652.359	0.0164855
652.437	0.0164623
652.515	0.0164162
652.593	0.0164124
652.671	0.0163925
652.749	0.0165101
652.828	0.0163954
652.906	0.0164729
652.984	0.0164547
653.062	0.0165862
653.140	0.0165926
653.218	0.0165340
653.296	0.0163914
653.374	0.0166071
653.453	0.0167063
653.531	0.0164299
653.609	0.0165296
653.687	0.0165345
653.765	0.0165603
653.843	0.0164111
653.921	0.0165871
653.999	0.0165760
654.078	0.0167052
654.156	0.0165587
654.234	0.0165399
654.312	0.0166450
654.390	0.0166080
654.468	0.0165475
654.546	0.0166601
654.624	0.0164967
654.703	0.0166086
654.781	0.0165723
654.859	0.0165625
654.937	0.0165704
655.015	0.0166477
655.093	0.0166071
655.171	0.0166582
655.249	0.0166889
655.328	0.0165542
655.406	0.0164137
655.484	0.0165012
655.562	0.0166655
655.640	0.0165811
655.718	0.0164503
655.796	0.0166506
655.874	0.0166042
655.953	0.0166229
656.031	0.0165909
656.109	0.0164467
656.187	0.0165466
656.265	0.0164819
656.343	0.0165987
656.421	0.0165643
656.499	0.0165134
656.578	0.0165130
656.656	0.0164535
656.734	0.0164710
656.812	0.0165049
656.890	0.0165842
656.968	0.0164447
657.046	0.0165031
657.124	0.0164622
657.203	0.0164441
657.281	0.0164478
657.359	0.0165368
657.437	0.0164919
657.515	0.0164008
657.593	0.0165105
657.671	0.0165359
657.749	0.0164840
657.828	0.0165728
657.906	0.0166156
657.984	0.0164854
658.062	0.0165428
658.140	0.0163986
658.218	0.0163076
658.296	0.0164605
658.374	0.0164758
658.453	0.0163997
658.531	0.0164238
658.609	0.0165523
658.687	0.0165114
658.765	0.0163525
658.843	0.0164664
658.921	0.0165130
658.999	0.0165130
659.078	0.0166364
659.156	0.0164233
659.234	0.0163869
659.312	0.0165615
659.390	0.0164394
659.468	0.0165520
659.546	0.0164830
659.624	0.0163676
659.703	0.0164560
659.781	0.0162766
659.859	0.0164939
659.937	0.0163797
660.015	0.0164079
660.093	0.0164107
660.171	0.0163345
660.249	0.0163433
660.328	0.0165052
660.406	0.0164115
660.484	0.0162805
660.562	0.0164246
660.640	0.0163729
660.718	0.0163686
660.796	0.0165150
660.874	0.0164024
660.953	0.0163605
661.031	0.0164640
661.109	0.0162399
661.187	0.0163088
661.265	0.0165762
661.343	0.0162193
661.421	0.0162578
661.499	0.0164491
661.578	0.0163783
661.656	0.0163161
661.734	0.0164955
661.812	0.0163608
661.890	0.0163607
661.968	0.0165707
662.046	0.0165792
662.124	0.0165149
662.203	0.0163979
662.281	0.0164030
662.359	0.0165299
662.437	0.0165081
662.515	0.0165649
662.593	0.0164532
662.671	0.0165339
662.749	0.0165516
662.828	0.0164673
662.906	0.0165411
662.984	0.0167046
663.062	0.0165249
663.140	0.0164983
663.218	0.0165376
663.296	0.0165636
663.374	0.0166582
663.453	0.0165092
663.531	0.0164779
663.609	0.0165614
663.687	0.0164401
663.765	0.0165174
663.843	0.0166162
663.921	0.0165788
663.999	0.0164436
664.078	0.0166068
664.156	0.0166753
664.234	0.0164578
664.312	0.0165797
664.390	0.0165453
664.468	0.0165137
664.546	0.0165842
664.624	0.0165086
664.703	0.0164906
664.781	0.0166490
664.859	0.0166023
664.937	0.0164017
665.015	0.0165604
665.093	0.0164838
665.171	0.0164484
665.249	0.0164140
665.328	0.0165527
665.406	0.0165948
665.484	0.0165431
665.562	0.0165474
665.640	0.0165159
665.718	0.0165181
665.796	0.0163205
665.874	0.0166155
665.953	0.0166485
666.031	0.0164983
666.109	0.0165126
666.187	0.0165144
666.265	0.0164642
666.343	0.0165686
666.421	0.0164096
666.499	0.0164708
666.578	0.0164911
666.656	0.0165420
666.734	0.0164339
666.812	0.0166367
666.890	0.0164919
666.968	0.0166078
667.046	0.0165929
667.124	0.0163367
667.203	0.0163900
667.281	0.0165740
667.359	0.0163974
667.437	0.0165840
667.515	0.0165253
667.593	0.0164898
667.671	0.0164324
667.749	0.0164075
667.828	0.0165801
667.906	0.0165515
667.984	0.0164286
668.062	0.0164502
668.140	0.0164317
668.218	0.0166926
668.296	0.0165366
668.374	0.0165591
668.453	0.0164857
668.531	0.0163927
668.609	0.0163817
668.687	0.0164960
668.765	0.0166211
668.843	0.0164715
668.921	0.0165864
668.999	0.0165411
669.078	0.0167364
669.156	0.0165273
669.234	0.0164265
669.312	0.0164624
669.390	0.0166169
669.468	0.0166380
669.546	0.0165474
669.624	0.0165391
669.703	0.0166018
669.781	0.0165968
669.859	0.0165639
669.937	0.0165160
670.015	0.0165491
670.093	0.0165164
670.171	0.0164547
670.249	0.0165195
670.328	0.0165001
670.406	0.0163605
670.484	0.0163588
670.562	0.0166312
670.640	0.0164122
670.718	0.0164884
670.796	0.0164665
670.874	0.0164731
670.953	0.0164997
671.031	0.0163572
671.109	0.0165163
671.187	0.0164226
671.265	0.0162910
671.343	0.0163569
671.421	0.0164153
671.499	0.0164857
671.578	0.0163224
671.656	0.0163531
671.734	0.0165244
671.812	0.0163235
671.890	0.0164545
671.968	0.0164945
672.046	0.0164385
672.124	0.0163602
672.203	0.0163763
672.281	0.0164577
672.359	0.0162920
672.437	0.0163429
672.515	0.0163548
672.593	0.0164706
672.671	0.0164618
672.749	0.0164520
672.828	0.0163580
672.906	0.0163518
672.984	0.0164214
673.062	0.0162579
673.140	0.0161858
673.218	0.0162971
673.296	0.0163819
673.374	0.0165340
673.453	0.0162148
673.531	0.0161159
673.609	0.0163965
673.687	0.0163300
673.765	0.0163498
673.843	0.0163800
673.921	0.0163353
673.999	0.0163608
674.078	0.0164323
674.156	0.0163323
674.234	0.0164410
674.312	0.0163495
674.390	0.0163651
674.468	0.0164212
674.546	0.0163847
674.624	0.0163174
674.703	0.0164592
674.781	0.0163685
674.859	0.0163319
674.937	0.0164223
675.015	0.0162782
675.093	0.0162813
675.171	0.0163826
675.249	0.0163188
675.328	0.0163926
675.406	0.0164423
675.484	0.0164024
675.562	0.0163707
675.640	0.0163796
675.718	0.0163470
675.796	0.0163979
675.874	0.0163692
675.953	0.0163363
676.031	0.0164465
676.109	0.0164214
676.187	0.0163696
676.265	0.0163888
676.343	0.0162864
676.421	0.0164263
676.499	0.0163750
676.578	0.0163844
676.656	0.0163258
676.734	0.0165422
676.812	0.0163439
676.890	0.0163631
676.968	0.0163358
677.046	0.0164960
677.124	0.0164962
677.203	0.0164262
677.281	0.0164850
677.359	0.0165035
677.437	0.0163744
677.515	0.0164346
677.593	0.0164063
677.671	0.0163927
677.749	0.0162935
677.828	0.0164307
677.906	0.0164863
677.984	0.0163934
678.062	0.0163176
678.140	0.0164883
678.218	0.0165978
678.296	0.0165158
678.374	0.0164598
678.453	0.0165664
678.531	0.0164017
678.609	0.0164502
678.687	0.0164405
678.765	0.0164246
678.843	0.0165249
678.921	0.0164803
678.999	0.0164957
679.078	0.0166698
679.156	0.0164710
679.234	0.0164399
679.312	0.0165413
679.390	0.0164346
679.468	0.0165551
679.546	0.0163673
679.624	0.0165002
679.703	0.0163019
679.781	0.0164974
679.859	0.0165811
679.937	0.0163876
680.015	0.0164014
680.093	0.0164913
680.171	0.0164548
680.249	0.0165211
680.328	0.0164503
680.406	0.0164340
680.484	0.0165211
680.562	0.0166027
680.640	0.0164577
680.718	0.0164559
680.796	0.0165514
680.874	0.0164156
680.953	0.0165298
681.031	0.0166533
681.109	0.0165357
681.187	0.0163979
681.265	0.0165189
681.343	0.0164874
681.421	0.0164606
681.499	0.0164857
681.578	0.0165373
681.656	0.0165530
681.734	0.0165409
681.812	0.0163509
681.890	0.0163520
681.968	0.0165529
682.046	0.0164732
682.124	0.0165630
682.203	0.0164957
682.281	0.0166637
682.359	0.0166010
682.437	0.0165270
682.515	0.0164870
682.593	0.0164671
682.671	0.0164514
682.749	0.0164657
682.828	0.0165422
682.906	0.0166565
682.984	0.0165669
683.062	0.0165391
683.140	0.0166136
683.218	0.0164565
683.296	0.0165689
683.374	0.0166136
683.453	0.0166183
683.531	0.0165972
683.609	0.0166238
683.687	0.0166512
683.765	0.0165930
683.843	0.0165269
683.921	0.0165556
683.999	0.0165147
684.078	0.0166140
684.156	0.0166728
684.234	0.0164780
684.312	0.0166276
684.390	0.0164706
684.468	0.0166872
684.546	0.0164696
684.624	0.0166152
684.703	0.0165258
684.781	0.0165609
684.859	0.0167131
684.937	0.0166283
685.015	0.0165102
685.093	0.0167328
685.171	0.0167388
685.249	0.0165475
685.328	0.0165921
685.406	0.0164625
685.484	0.0166132
685.562	0.0165660
685.640	0.0166245
685.718	0.0166070
685.796	0.0166106
685.874	0.0167252
685.953	0.0165235
686.031	0.0164078
686.109	0.0164437
686.187	0.0166135
686.265	0.0165321
686.343	0.0165250
686.421	0.0165173
686.499	0.0165838
686.578	0.0164513
686.656	0.0165251
686.734	0.0165456
686.812	0.0166160
686.890	0.0166309
686.968	0.0165382
687.046	0.0163898
687.124	0.0164846
687.203	0.0166022
687.281	0.0163818
687.359	0.0165499
687.437	0.0165785
687.515	0.0165480
687.593	0.0164803
687.671	0.0164806
687.749	0.0166005
687.828	0.0165294
687.906	0.0165421
687.984	0.0166511
688.062	0.0165733
688.140	0.0164182
688.218	0.0165078
688.296	0.0164031
688.374	0.0164621
688.453	0.0165620
688.531	0.0163898
688.609	0.0164184
688.687	0.0165589
688.765	0.0165249
688.843	0.0164584
688.921	0.0165008
688.999	0.0165658
689.078	0.0165288
689.156	0.0164683
689.234	0.0164039
689.312	0.0165596
689.390	0.0165318
689.468	0.0164329
689.546	0.0165305
689.624	0.0165576
689.703	0.0166087
689.781	0.0163828
689.859	0.0165071
689.937	0.0164758
690.015	0.0163824
690.093	0.0164259
690.171	0.0164140
690.249	0.0165278
690.328	0.0164656
690.406	0.0164719
690.484	0.0164147
690.562	0.0164103
690.640	0.0164219
690.718	0.0163759
690.796	0.0164146
690.874	0.0164222
690.953	0.0164941
691.031	0.0165876
691.109	0.0165137
691.187	0.0162974
691.265	0.0163736
691.343	0.0163866
691.421	0.0163364
691.499	0.0163941
691.578	0.0161803
691.656	0.0163532
691.734	0.0162962
691.812	0.0163259
691.890	0.0164827
691.968	0.0164941
692.046	0.0164404
692.124	0.0164575
692.203	0.0163719
692.281	0.0162606
692.359	0.0164048
692.437	0.0163232
692.515	0.0162866
692.593	0.0165022
692.671	0.0164413
692.749	0.0164089
692.828	0.0163168
692.906	0.0164420
692.984	0.0163603
693.062	0.0164516
693.140	0.0163832
693.218	0.0164111
693.296	0.0164440
693.374	0.0165428
693.453	0.0164468
693.531	0.0163356
693.609	0.0164362
693.687	0.0163797
693.765	0.0165631
693.843	0.0165282
693.921	0.0163378
693.999	0.0163862
694.078	0.0165871
694.156	0.0164439
694.234	0.0164034
694.312	0.0164441
694.390	0.0164722
694.468	0.0164799
694.546	0.0164516
694.624	0.0164472
694.703	0.0165250
694.781	0.0164101
694.859	0.0165086
694.937	0.0164724
695.015	0.0165084
695.093	0.0164521
695.171	0.0165079
695.249	0.0165114
695.328	0.0165065
695.406	0.0164188
695.484	0.0163254
695.562	0.0164145
695.640	0.0164542
695.718	0.0165369
695.796	0.0164991
695.874	0.0165204
695.953	0.0165759
696.031	0.0164973
696.109	0.0164629
696.187	0.0164679
696.265	0.0164830
696.343	0.0164542
696.421	0.0165258
696.499	0.0165781
696.578	0.0164468
696.656	0.0164546
696.734	0.0163924
696.812	0.0164700
696.890	0.0164619
696.968	0.0163930
697.046	0.0164631
697.124	0.0164623
697.203	0.0164241
697.281	0.0164714
697.359	0.0165069
697.437	0.0163786
697.515	0.0164645
697.593	0.0165163
697.671	0.0163026
697.749	0.0164145
697.828	0.0164317
697.906	0.0163523
697.984	0.0163350
698.062	0.0163237
698.140	0.0163497
698.218	0.0163531
698.296	0.0163911
698.374	0.0165147
698.453	0.0162152
698.531	0.0162829
698.609	0.0162871
698.687	0.0162840
698.765	0.0163131
698.843	0.0163038
698.921	0.0164085
698.999	0.0163687
699.078	0.0161465
699.156	0.0161856
699.234	0.0161723
699.312	0.0162505
699.390	0.0163699
699.468	0.0162674
699.546	0.0161897
699.624	0.0161239
699.703	0.0161311
699.781	0.0162841
699.859	0.0162822
699.937	0.0161281
700.015	0.0161897
700.093	0.0162518
700.171	0.0162867
700.249	0.0163326
700.328	0.0161935
700.406	0.0161359
700.484	0.0162964
700.562	0.0163316
700.640	0.0162513
700.718	0.0161735
700.796	0.0162202
700.874	0.0162927
700.953	0.0162886
701.031	0.0161858
701.109	0.0161702
701.187	0.0162012
701.265	0.0161452
701.343	0.0162647
701.421	0.0162608
701.499	0.0161486
701.578	0.0162124
701.656	0.0162810
701.734	0.0163127
701.812	0.0162580
701.890	0.0161783
701.968	0.0162647
702.046	0.0162769
702.124	0.0161421
702.203	0.0162395
702.281	0.0163469
702.359	0.0163099
702.437	0.0161828
702.515	0.0162315
702.593	0.0162105
702.671	0.0162356
702.749	0.0161414
702.828	0.0162701
702.906	0.0163008
702.984	0.0162712
703.062	0.0160813
703.140	0.0161534
703.218	0.0162132
703.296	0.0161849
703.374	0.0161031
703.453	0.0163068
703.531	0.0160977
703.609	0.0162160
703.687	0.0163551
703.765	0.0163756
703.843	0.0161538
703.921	0.0161713
703.999	0.0162640
704.078	0.0162637
704.156	0.0162076
704.234	0.0163692
704.312	0.0163168
704.390	0.0164089
704.468	0.0163786
704.546	0.0162148
704.624	0.0164299
704.703	0.0164019
704.781	0.0163801
704.859	0.0162964
704.937	0.0162959
705.015	0.0163664
705.093	0.0165299
705.171	0.0164141
705.249	0.0164186
705.328	0.0164121
705.406	0.0163825
705.484	0.0164087
705.562	0.0164677
705.640	0.0165533
705.718	0.0164785
705.796	0.0164512
705.874	0.0163500
705.953	0.0164529
706.031	0.0165525
706.109	0.0165237
706.187	0.0164108
706.265	0.0164702
706.343	0.0163902
706.421	0.0164338
706.499	0.0164001
706.578	0.0165541
706.656	0.0163930
706.734	0.0165449
706.812	0.0163985
706.890	0.0163996
706.968	0.0164758
707.046	0.0164555
707.124	0.0164081
707.203	0.0164656
707.281	0.0164899
707.359	0.0165047
707.437	0.0164555
707.515	0.0166070
707.593	0.0164902
707.671	0.0164646
707.749	0.0163661
707.828	0.0163464
707.906	0.0165205
707.984	0.0165887
708.062	0.0165572
708.140	0.0164140
708.218	0.0164607
708.296	0.0165229
708.374	0.0165529
708.453	0.0165702
708.531	0.0165533
708.609	0.0165787
708.687	0.0164964
708.765	0.0165417
708.843	0.0166196
708.921	0.0165811
708.999	0.0166040
709.078	0.0165835
709.156	0.0165548
709.234	0.0165577
709.312	0.0165973
709.390	0.0165672
709.468	0.0166440
709.546	0.0165884
709.624	0.0165656
709.703	0.0165652
709.781	0.0164825
709.859	0.0165234
709.937	0.0165057
710.015	0.0164741
710.093	0.0165694
710.171	0.0164940
710.249	0.0165951
710.328	0.0165772
710.406	0.0165565
710.484	0.0165878
710.562	0.0165757
710.640	0.0166033
710.718	0.0164974
710.796	0.0165772
710.874	0.0166243
710.953	0.0166191
711.031	0.0166653
711.109	0.0166311
711.187	0.0165927
711.265	0.0165444
711.343	0.0165990
711.421	0.0165405
711.499	0.0165602
711.578	0.0165633
711.656	0.0166028
711.734	0.0165951
711.812	0.0165836
711.890	0.0165553
711.968	0.0165421
712.046	0.0166445
712.124	0.0165303
712.203	0.0164530
712.281	0.0164448
712.359	0.0166070
712.437	0.0166037
712.515	0.0166635
712.593	0.0165837
712.671	0.0164118
712.749	0.0165083
712.828	0.0165707
712.906	0.0166676
712.984	0.0166139
713.062	0.0165640
713.140	0.0166913
713.218	0.0167125
713.296	0.0164938
713.374	0.0166663
713.453	0.0166399
713.531	0.0166090
713.609	0.0165945
713.687	0.0166402
713.765	0.0166645
713.843	0.0166025
713.921	0.0165459
713.999	0.0165262
714.078	0.0165839
714.156	0.0166732
714.234	0.0165153
714.312	0.0164674
714.390	0.0164101
714.468	0.0165874
714.546	0.0165291
714.624	0.0166414
714.703	0.0166322
714.781	0.0166022
714.859	0.0166220
714.937	0.0164539
715.015	0.0165499
715.093	0.0165969
715.171	0.0165778
715.249	0.0164359
715.328	0.0163898
715.406	0.0165035
715.484	0.0163988
715.562	0.0165193
715.640	0.0164867
715.718	0.0163437
715.796	0.0164539
715.874	0.0164712
715.953	0.0164384
716.031	0.0163293
716.109	0.0165382
716.187	0.0164892
716.265	0.0164904
716.343	0.0165643
716.421	0.0163715
716.499	0.0165320
716.578	0.0163995
716.656	0.0164448
716.734	0.0164960
716.812	0.0165108
716.890	0.0164246
716.968	0.0163596
717.046	0.0163535
717.124	0.0163717
717.203	0.0164010
717.281	0.0165208
717.359	0.0164629
717.437	0.0164432
717.515	0.0163829
717.593	0.0162604
717.671	0.0163409
717.749	0.0165141
717.828	0.0163454
717.906	0.0163618
717.984	0.0163739
718.062	0.0165017
718.140	0.0163898
718.218	0.0163131
718.296	0.0163736
718.374	0.0164175
718.453	0.0165102
718.531	0.0162783
718.609	0.0162975
718.687	0.0163891
718.765	0.0163693
718.843	0.0162810
718.921	0.0164449
718.999	0.0164235
719.078	0.0164439
719.156	0.0165500
719.234	0.0164398
719.312	0.0163717
719.390	0.0164767
719.468	0.0164812
719.546	0.0163898
719.624	0.0163889
719.703	0.0164784
719.781	0.0165141
719.859	0.0163519
719.937	0.0163651
720.015	0.0162782
720.093	0.0162322
720.171	0.0163052
720.249	0.0163778
720.328	0.0164341
720.406	0.0164391
720.484	0.0162876
720.562	0.0164006
720.640	0.0164526
720.718	0.0163549
720.796	0.0163813
720.874	0.0164017
720.953	0.0163831
721.031	0.0165058
721.109	0.0163908
721.187	0.0164516
721.265	0.0163513
721.343	0.0163111
721.421	0.0164813
721.499	0.0164133
721.578	0.0164466
721.656	0.0165042
721.734	0.0165016
721.812	0.0164600
721.890	0.0164794
721.968	0.0163203
722.046	0.0164413
722.124	0.0163681
722.203	0.0164103
722.281	0.0164034
722.359	0.0164055
722.437	0.0163682
722.515	0.0162214
722.593	0.0163785
722.671	0.0163008
722.749	0.0161738
722.828	0.0162647
722.906	0.0165234
722.984	0.0163773
723.062	0.0161777
723.140	0.0162254
723.218	0.0161115
723.296	0.0163503
723.374	0.0162953
723.453	0.0163147
723.531	0.0163433
723.609	0.0164345
723.687	0.0162911
723.765	0.0161799
723.843	0.0162386
723.921	0.0163039
723.999	0.0162486
724.078	0.0161940
724.156	0.0163746
724.234	0.0162934
724.312	0.0161907
724.390	0.0163215
724.468	0.0162905
724.546	0.0163351
724.624	0.0163660
724.703	0.0164866
724.781	0.0161119
724.859	0.0161800
724.937	0.0164024
725.015	0.0162725
725.093	0.0160708
725.171	0.0163221
725.249	0.0164365
725.328	0.0162326
725.406	0.0163187
725.484	0.0163625
725.562	0.0162276
725.640	0.0162434
725.718	0.0163712
725.796	0.0163897
725.874	0.0163121
725.953	0.0161862
726.031	0.0163010
726.109	0.0163161
726.187	0.0164444
726.265	0.0163955
726.343	0.0163995
726.421	0.0163708
726.499	0.0162787
726.578	0.0164058
726.656	0.0165285
726.734	0.0165115
726.812	0.0163846
726.890	0.0164985
726.968	0.0164299
727.046	0.0164754
727.124	0.0164799
727.203	0.0165540
727.281	0.0165486
727.359	0.0164317
727.437	0.0165023
727.515	0.0165375
727.593	0.0165218
727.671	0.0166215
727.749	0.0165623
727.828	0.0163695
727.906	0.0163773
727.984	0.0164738
728.062	0.0164386
728.140	0.0164538
728.218	0.0164489
728.296	0.0165129
728.374	0.0164971
728.453	0.0163693
728.531	0.0164309
728.609	0.0164046
728.687	0.0162859
728.765	0.0165754
728.843	0.0164119
728.921	0.0165240
728.999	0.0163594
729.078	0.0163796
729.156	0.0164999
729.234	0.0163876
729.312	0.0165218
729.390	0.0164613
729.468	0.0166194
729.546	0.0166022
729.624	0.0165284
729.703	0.0165342
729.781	0.0164474
729.859	0.0165338
729.937	0.0166235
730.015	0.0165838
730.093	0.0165434
730.171	0.0165708
730.249	0.0165639
730.328	0.0164915
730.406	0.0165787
730.484	0.0165201
730.562	0.0165521
730.640	0.0165481
730.718	0.0166124
730.796	0.0166393
730.874	0.0165484
730.953	0.0163940
731.031	0.0165897
731.109	0.0165023
731.187	0.0165977
731.265	0.0165642
731.343	0.0164478
731.421	0.0163762
731.499	0.0165280
731.578	0.0166397
731.656	0.0165095
731.734	0.0164481
731.812	0.0166440
731.890	0.0166133
731.968	0.0164545
732.046	0.0165755
732.124	0.0166142
732.203	0.0164539
732.281	0.0164211
732.359	0.0165602
732.437	0.0166144
732.515	0.0166520
732.593	0.0165582
732.671	0.0165234
732.749	0.0165430
732.828	0.0165554
732.906	0.0166122
732.984	0.0165904
733.062	0.0164498
733.140	0.0165067
733.218	0.0167589
733.296	0.0167329
733.374	0.0163953
733.453	0.0163877
733.531	0.0165728
733.609	0.0165982
733.687	0.0165169
733.765	0.0164511
733.843	0.0164835
733.921	0.0165020
733.999	0.0165535
734.078	0.0163915
734.156	0.0163447
734.234	0.0164609
734.312	0.0165231
734.390	0.0164319
734.468	0.0165051
734.546	0.0166267
734.624	0.0166096
734.703	0.0165936
734.781	0.0164932
734.859	0.0165464
734.937	0.0166398
735.015	0.0165442
735.093	0.0165092
735.171	0.0165955
735.249	0.0166689
735.328	0.0166327
735.406	0.0165806
735.484	0.0164769
735.562	0.0167199
735.640	0.0165280
735.718	0.0164923
735.796	0.0165959
735.874	0.0166283
735.953	0.0166656
736.031	0.0166662
736.109	0.0164819
736.187	0.0164877
736.265	0.0165566
736.343	0.0163889
736.421	0.0164427
736.499	0.0164697
736.578	0.0165077
736.656	0.0165589
736.734	0.0163857
736.812	0.0165740
736.890	0.0165546
736.968	0.0165384
737.046	0.0165014
737.124	0.0164291
737.203	0.0164772
737.281	0.0165541
737.359	0.0165776
737.437	0.0164397
737.515	0.0165440
737.593	0.0165674
737.671	0.0165516
737.749	0.0167133
737.828	0.0162897
737.906	0.0164670
737.984	0.0165047
738.062	0.0165462
738.140	0.0164854
738.218	0.0165673
738.296	0.0164008
738.374	0.0164900
738.453	0.0165014
738.531	0.0166048
738.609	0.0166470
738.687	0.0163647
738.765	0.0165075
738.843	0.0164444
738.921	0.0165629
738.999	0.0165994
739.078	0.0165990
739.156	0.0166317
739.234	0.0166122
739.312	0.0165073
739.390	0.0166212
739.468	0.0165994
739.546	0.0164644
739.624	0.0164471
739.703	0.0166216
739.781	0.0166460
739.859	0.0165315
739.937	0.0164411
740.015	0.0165488
740.093	0.0165219
740.171	0.0166278
740.249	0.0165181
740.328	0.0165384
740.406	0.0165992
740.484	0.0165002
740.562	0.0165235
740.640	0.0165957
740.718	0.0165533
740.796	0.0164918
740.874	0.0165588
740.953	0.0165504
741.031	0.0166643
741.109	0.0166785
741.187	0.0165357
741.265	0.0165623
741.343	0.0165946
741.421	0.0166761
741.499	0.0165398
741.578	0.0165525
741.656	0.0166236
741.734	0.0165874
741.812	0.0165234
741.890	0.0164893
741.968	0.0165305
742.046	0.0165456
742.124	0.0165135
742.203	0.0165620
742.281	0.0164921
742.359	0.0165188
742.437	0.0164165
742.515	0.0164774
742.593	0.0165234
742.671	0.0164886
742.749	0.0164203
742.828	0.0164679
742.906	0.0165381
742.984	0.0163883
743.062	0.0164002
743.140	0.0165852
743.218	0.0164539
743.296	0.0165375
743.374	0.0164848
743.453	0.0164365
743.531	0.0164820
743.609	0.0163165
743.687	0.0165857
743.765	0.0165025
743.843	0.0165551
743.921	0.0164568
743.999	0.0164999
744.078	0.0164561
744.156	0.0166134
744.234	0.0165675
744.312	0.0165551
744.390	0.0165815
744.468	0.0165166
744.546	0.0164441
744.624	0.0164496
744.703	0.0165707
744.781	0.0164445
744.859	0.0165844
744.937	0.0164151
745.015	0.0164745
745.093	0.0164633
745.171	0.0165665
745.249	0.0165687
745.328	0.0163621
745.406	0.0163599
745.484	0.0163831
745.562	0.0163263
745.640	0.0163572
745.718	0.0163614
745.796	0.0162782
745.874	0.0163947
745.953	0.0165357
746.031	0.0163979
746.109	0.0164622
746.187	0.0165194
746.265	0.0164236
746.343	0.0163766
746.421	0.0163509
746.499	0.0164534
746.578	0.0166254
746.656	0.0163811
746.734	0.0165347
746.812	0.0164599
746.890	0.0165445
746.968	0.0165611
747.046	0.0166270
747.124	0.0166470
747.203	0.0165934
747.281	0.0165871
747.359	0.0165670
747.437	0.0165736
747.515	0.0166489
747.593	0.0164251
747.671	0.0163425
747.749	0.0165593
747.828	0.0165321
747.906	0.0163829
747.984	0.0164727
748.062	0.0164136
748.140	0.0163082
748.218	0.0162607
748.296	0.0164348
748.374	0.0164502
748.453	0.0163737
748.531	0.0163061
748.609	0.0164034
748.687	0.0163437
748.765	0.0164459
748.843	0.0164115
748.921	0.0163373
748.999	0.0163982
749.078	0.0163173
749.156	0.0163478
749.234	0.0164150
749.312	0.0165893
749.390	0.0165211
749.468	0.0164726
749.546	0.0164632
749.624	0.0165614
749.703	0.0166151
749.781	0.0166148
749.859	0.0166406
749.937	0.0164831
750.015	0.0165094
750.093	0.0166881
750.171	0.0167374
750.249	0.0167901
750.328	0.0166221
750.406	0.0167205
750.484	0.0166869
750.562	0.0167377
750.640	0.0166255
750.718	0.0166961
750.796	0.0167692
750.874	0.0167028
750.953	0.0165120
751.031	0.0166229
751.109	0.0165101
751.187	0.0165653
751.265	0.0165055
751.343	0.0166387
751.421	0.0165417
751.499	0.0165620
751.578	0.0165774
751.656	0.0164581
751.734	0.0166079
751.812	0.0165491
751.890	0.0164506
751.968	0.0164017
752.046	0.0164991
752.124	0.0164665
752.203	0.0164226
752.281	0.0164591
752.359	0.0163733
752.437	0.0164081
752.515	0.0163266
752.593	0.0165483
752.671	0.0164337
752.749	0.0163972
752.828	0.0164951
752.906	0.0163941
752.984	0.0164513
753.062	0.0166198
753.140	0.0165352
753.218	0.0163801
753.296	0.0164204
753.374	0.0164417
753.453	0.0164396
753.531	0.0165448
753.609	0.0165124
753.687	0.0163541
753.765	0.0164523
753.843	0.0163605
753.921	0.0163541
753.999	0.0163645
754.078	0.0164343
754.156	0.0163591
754.234	0.0163193
754.312	0.0164277
754.390	0.0164185
754.468	0.0164640
754.546	0.0164514
754.624	0.0164540
754.703	0.0163578
754.781	0.0164622
754.859	0.0164850
754.937	0.0164774
755.015	0.0165306
755.093	0.0164217
755.171	0.0166731
755.249	0.0165352
755.328	0.0165409
755.406	0.0166304
755.484	0.0164733
755.562	0.0166551
755.640	0.0166499
755.718	0.0166045
755.796	0.0163290
755.874	0.0165956
755.953	0.0165353
756.031	0.0165982
756.109	0.0166607
756.187	0.0165726
756.265	0.0166356
756.343	0.0166773
756.421	0.0165681
756.499	0.0165788
756.578	0.0167116
756.656	0.0165540
756.734	0.0166238
756.812	0.0164500
756.890	0.0166349
756.968	0.0165323
757.046	0.0165312
757.124	0.0164418
757.203	0.0164004
757.281	0.0163209
757.359	0.0163026
757.437	0.0163555
757.515	0.0163606
757.593	0.0165647
757.671	0.0164382
757.749	0.0164401
757.828	0.0164854
757.906	0.0164385
757.984	0.0165295
758.062	0.0164667
758.140	0.0165121
758.218	0.0165377
758.296	0.0164914
758.374	0.0166174
758.453	0.0164722
758.531	0.0164562
758.609	0.0164094
758.687	0.0164528
758.765	0.0164870
758.843	0.0165998
758.921	0.0164039
758.999	0.0164603
759.078	0.0164452
759.156	0.0164034
759.234	0.0165399
759.312	0.0166020
759.390	0.0165274
759.468	0.0164425
759.546	0.0165407
759.624	0.0164867
759.703	0.0165199
759.781	0.0164382
759.859	0.0164264
759.937	0.0165672
760.015	0.0164417
760.093	0.0164817
760.171	0.0164696
760.249	0.0164458
760.328	0.0162089
760.406	0.0164016
760.484	0.0164874
760.562	0.0163223
760.640	0.0163004
760.718	0.0164973
760.796	0.0163683
760.874	0.0163112
760.953	0.0163890
761.031	0.0163884
761.109	0.0163358
761.187	0.0164339
761.265	0.0164459
761.343	0.0165374
761.421	0.0164751
761.499	0.0165495
761.578	0.0164064
761.656	0.0164552
761.734	0.0163994
761.812	0.0163622
761.890	0.0163570
761.968	0.0163342
762.046	0.0164442
762.124	0.0163438
762.203	0.0163450
762.281	0.0161643
762.359	0.0162647
762.437	0.0162907
762.515	0.0163204
762.593	0.0162189
762.671	0.0162677
762.749	0.0161716
762.828	0.0162498
762.906	0.0162378
762.984	0.0164111
763.062	0.0163059
763.140	0.0164458
763.218	0.0161890
763.296	0.0163578
763.374	0.0162987
763.453	0.0163858
763.531	0.0164574
763.609	0.0163428
763.687	0.0162030
763.765	0.0163785
763.843	0.0162283
763.921	0.0164794
763.999	0.0164463
764.078	0.0163844
764.156	0.0163609
764.234	0.0163888
764.312	0.0163994
764.390	0.0163987
764.468	0.0166164
764.546	0.0164413
764.624	0.0164182
764.703	0.0164323
764.781	0.0164581
764.859	0.0165115
764.937	0.0164940
765.015	0.0162545
765.093	0.0164679
765.171	0.0164686
765.249	0.0164935
765.328	0.0164390
765.406	0.0164294
765.484	0.0164365
765.562	0.0163198
765.640	0.0162823
765.718	0.0163833
765.796	0.0164885
765.874	0.0163834
765.953	0.0162649
766.031	0.0164904
766.109	0.0163580
766.187	0.0164503
766.265	0.0165750
766.343	0.0164057
766.421	0.0163415
766.499	0.0164725
766.578	0.0165356
766.656	0.0164307
766.734	0.0164056
766.812	0.0163809
766.890	0.0163394
766.968	0.0163033
767.046	0.0163686
767.124	0.0163330
767.203	0.0164046
767.281	0.0163552
767.359	0.0163820
767.437	0.0163062
767.515	0.0163577
767.593	0.0162962
767.671	0.0163338
767.749	0.0162337
767.828	0.0163937
767.906	0.0162210
767.984	0.0162022
768.062	0.0163701
768.140	0.0162115
768.218	0.0162715
768.296	0.0163911
768.374	0.0164529
768.453	0.0164172
768.531	0.0164424
768.609	0.0165739
768.687	0.0167023
768.765	0.0165443
768.843	0.0165521
768.921	0.0167319
768.999	0.0166546
769.078	0.0165792
769.156	0.0166527
769.234	0.0166879
769.312	0.0164137
769.390	0.0164628
769.468	0.0165948
769.546	0.0165331
769.624	0.0164039
769.703	0.0164112
769.781	0.0163745
769.859	0.0163181
769.937	0.0163867
770.015	0.0163583
770.093	0.0164125
770.171	0.0163916
770.249	0.0163515
770.328	0.0163845
770.406	0.0162632
770.484	0.0163100
770.562	0.0163621
770.640	0.0163261
770.718	0.0164490
770.796	0.0162801
770.874	0.0163398
770.953	0.0163677
771.031	0.0163479
771.109	0.0161639
771.187	0.0162143
771.265	0.0163492
771.343	0.0161620
771.421	0.0163229
771.499	0.0162962
771.578	0.0162746
771.656	0.0163165
771.734	0.0163441
771.812	0.0164463
771.890	0.0164564
771.968	0.0164194
772.046	0.0165160
772.124	0.0164449
772.203	0.0163654
772.281	0.0164035
772.359	0.0164601
772.437	0.0165334
772.515	0.0163542
772.593	0.0163966
772.671	0.0164986
772.749	0.0164271
772.828	0.0164607
772.906	0.0164954
772.984	0.0164259
773.062	0.0164178
773.140	0.0164879
773.218	0.0165213
773.296	0.0164484
773.374	0.0164614
773.453	0.0164530
773.531	0.0164225
773.609	0.0164810
773.687	0.0164806
773.765	0.0163598
773.843	0.0163897
773.921	0.0164906
773.999	0.0165119
774.078	0.0163475
774.156	0.0163260
774.234	0.0163428
774.312	0.0164923
774.390	0.0163265
774.468	0.0163680
774.546	0.0164291
774.624	0.0163969
774.703	0.0165684
774.781	0.0166079
774.859	0.0163031
774.937	0.0165295
775.015	0.0165933
775.093	0.0163880
775.171	0.0164691
775.249	0.0165597
775.328	0.0164808
775.406	0.0163953
775.484	0.0164204
775.562	0.0162910
775.640	0.0163872
775.718	0.0162793
775.796	0.0164023
775.874	0.0163850
775.953	0.0165733
776.031	0.0164915
776.109	0.0164812
776.187	0.0164552
776.265	0.0165202
776.343	0.0165281
776.421	0.0165721
776.499	0.0164963
776.578	0.0165757
776.656	0.0165882
776.734	0.0164748
776.812	0.0165028
776.890	0.0164888
776.968	0.0164416
777.046	0.0162061
777.124	0.0163676
777.203	0.0163528
777.281	0.0163783
777.359	0.0162689
777.437	0.0162500
777.515	0.0161739
777.593	0.0163025
777.671	0.0162441
777.749	0.0163083
777.828	0.0161938
777.906	0.0162139
777.984	0.0161737
778.062	0.0162589
778.140	0.0161926
778.218	0.0163795
778.296	0.0163479
778.374	0.0162807
778.453	0.0163148
778.531	0.0164891
778.609	0.0164619
778.687	0.0164431
778.765	0.0165218
778.843	0.0166371
778.921	0.0166068
778.999	0.0165748
779.078	0.0166193
779.156	0.0167378
779.234	0.0165708
779.312	0.0166795
779.390	0.0166911
779.468	0.0167415
779.546	0.0167263
779.624	0.0166229
779.703	0.0164247
779.781	0.0165549
779.859	0.0165690
779.937	0.0164048
780.015	0.0166460
780.093	0.0164204
780.171	0.0163933
780.249	0.0163707
780.328	0.0164364
780.406	0.0164150
780.484	0.0164082
780.562	0.0164919
780.640	0.0164829
780.718	0.0164667
780.796	0.0165401
780.874	0.0164917
780.953	0.0161863
781.031	0.0161932
781.109	0.0162317
781.187	0.0162468
781.265	0.0163428
781.343	0.0162772
781.421	0.0163544
781.499	0.0161962
781.578	0.0163136
781.656	0.0162149
781.734	0.0162603
781.812	0.0163710
781.890	0.0162505
781.968	0.0161694
782.046	0.0160966
782.124	0.0163975
782.203	0.0163638
782.281	0.0164037
782.359	0.0163967
782.437	0.0163505
782.515	0.0164720
782.593	0.0165203
782.671	0.0164941
782.749	0.0163986
782.828	0.0163737
782.906	0.0163886
782.984	0.0165684
783.062	0.0165388
783.140	0.0164608
783.218	0.0164673
783.296	0.0164476
783.374	0.0165297
783.453	0.0163970
783.531	0.0164657
783.609	0.0163676
783.687	0.0163834
783.765	0.0163455
783.843	0.0164141
783.921	0.0163040
783.999	0.0163873
784.078	0.0162041
784.156	0.0163171
784.234	0.0163451
784.312	0.0164725
784.390	0.0164388
784.468	0.0163729
784.546	0.0163863
784.624	0.0164482
784.703	0.0165241
784.781	0.0164433
784.859	0.0164598
784.937	0.0164168
785.015	0.0163350
785.093	0.0163753
785.171	0.0163930
785.249	0.0162259
785.328	0.0162361
785.406	0.0163514
785.484	0.0161990
785.562	0.0162572
785.640	0.0162564
785.718	0.0162812
785.796	0.0161613
785.874	0.0162285
785.953	0.0163230
786.031	0.0163488
786.109	0.0162254
786.187	0.0163202
786.265	0.0161738
786.343	0.0161489
786.421	0.0163461
786.499	0.0163140
786.578	0.0163780
786.656	0.0162957
786.734	0.0163180
786.812	0.0162542
786.890	0.0162419
786.968	0.0161946
787.046	0.0163114
787.124	0.0161598
787.203	0.0161900
787.281	0.0163289
787.359	0.0163034
787.437	0.0162595
787.515	0.0162164
787.593	0.0161427
787.671	0.0160928
787.749	0.0163171
787.828	0.0162868
787.906	0.0161642
787.984	0.0162283
788.062	0.0161715
788.140	0.0162225
788.218	0.0162061
788.296	0.0162492
788.374	0.0163064
788.453	0.0164361
788.531	0.0164706
788.609	0.0164272
788.687	0.0163346
788.765	0.0165276
788.843	0.0164130
788.921	0.0164779
788.999	0.0166669
789.078	0.0165949
789.156	0.0165166
789.234	0.0164100
789.312	0.0166557
789.390	0.0165385
789.468	0.0165575
789.546	0.0165644
789.624	0.0165316
789.703	0.0166277
789.781	0.0166025
789.859	0.0167397
789.937	0.0166182
790.015	0.0166069
790.093	0.0165715
790.171	0.0166396
790.249	0.0165712
790.328	0.0164676
790.406	0.0165162
790.484	0.0165469
790.562	0.0165222
790.640	0.0165183
790.718	0.0164184
790.796	0.0163767
790.874	0.0162505
790.953	0.0163472
791.031	0.0162743
791.109	0.0162126
791.187	0.0163811
791.265	0.0162586
791.343	0.0161837
791.421	0.0162407
791.499	0.0162552
791.578	0.0163489
791.656	0.0161602
791.734	0.0162523
791.812	0.0162167
791.890	0.0161665
791.968	0.0163319
792.046	0.0163355
792.124	0.0163699
792.203	0.0162811
792.281	0.0164606
792.359	0.0163463
792.437	0.0163245
792.515	0.0164355
792.593	0.0164943
792.671	0.0164893
792.749	0.0165632
792.828	0.0165323
792.906	0.0166132
792.984	0.0166276
793.062	0.0166863
793.140	0.0166729
793.218	0.0167111
793.296	0.0166750
793.374	0.0166071
793.453	0.0166062
793.531	0.0164921
793.609	0.0165899
793.687	0.0164272
793.765	0.0164942
793.843	0.0163956
793.921	0.0165095
793.999	0.0165316
794.078	0.0164683
794.156	0.0164449
794.234	0.0165287
794.312	0.0163915
794.390	0.0163364
794.468	0.0164822
794.546	0.0164778
794.624	0.0164622
794.703	0.0164529
794.781	0.0165005
794.859	0.0164697
794.937	0.0163734
795.015	0.0164536
795.093	0.0162591
795.171	0.0164385
795.249	0.0164291
795.328	0.0162484
795.406	0.0163240
795.484	0.0163210
795.562	0.0161874
795.640	0.0164152
795.718	0.0163123
795.796	0.0163288
795.874	0.0163570
795.953	0.0163094
796.031	0.0162073
796.109	0.0161819
796.187	0.0162313
796.265	0.0161919
796.343	0.0163987
796.421	0.0163052
796.499	0.0163902
796.578	0.0164033
796.656	0.0163597
796.734	0.0163926
796.812	0.0164706
796.890	0.0165412
796.968	0.0165079
797.046	0.0163821
797.124	0.0165002
797.203	0.0165178
797.281	0.0164233
797.359	0.0164182
797.437	0.0164374
797.515	0.0164356
797.593	0.0163853
797.671	0.0165192
797.749	0.0165518
797.828	0.0164407
797.906	0.0165621
797.984	0.0165279
798.062	0.0164598
798.140	0.0165884
798.218	0.0166515
798.296	0.0163551
798.374	0.0165363
798.453	0.0165237
798.531	0.0164532
798.609	0.0164549
798.687	0.0162845
798.765	0.0162842
798.843	0.0165161
798.921	0.0165600
798.999	0.0166136
799.078	0.0163712
799.156	0.0162803
799.234	0.0164027
799.312	0.0163937
799.390	0.0164956
799.468	0.0165014
799.546	0.0165219
799.624	0.0165219
799.703	0.0165692
799.781	0.0165550
799.859	0.0165924
799.937	0.0163964
800.015	0.0164435
800.093	0.0164803
800.171	0.0163874
800.249	0.0164949
800.328	0.0165456
800.406	0.0164730
800.484	0.0166071
800.562	0.0164849
800.640	0.0165535
800.718	0.0165700
800.796	0.0165469
800.874	0.0164232
800.953	0.0166042
801.031	0.0165913
801.109	0.0166225
801.187	0.0164359
801.265	0.0164346
801.343	0.0166265
801.421	0.0163875
801.499	0.0164125
801.578	0.0165612
801.656	0.0164877
801.734	0.0164933
801.812	0.0164468
801.890	0.0163374
801.968	0.0162403
802.046	0.0164251
802.124	0.0162863
802.203	0.0162657
802.281	0.0163129
802.359	0.0163473
802.437	0.0163265
802.515	0.0162019
802.593	0.0163437
802.671	0.0164262
802.749	0.0163251
802.828	0.0162968
802.906	0.0164727
802.984	0.0164048
803.062	0.0164612
803.140	0.0164827
803.218	0.0164703
803.296	0.0164416
803.374	0.0164520
803.453	0.0164739
803.531	0.0165431
803.609	0.0165595
803.687	0.0166058
803.765	0.0164684
803.843	0.0164368
803.921	0.0166314
803.999	0.0164904
804.078	0.0166444
804.156	0.0165620
804.234	0.0165010
804.312	0.0167230
804.390	0.0166003
804.468	0.0163988
804.546	0.0165335
804.624	0.0165470
804.703	0.0164819
804.781	0.0164091
804.859	0.0164747
804.937	0.0163924
805.015	0.0164548
805.093	0.0162509
805.171	0.0163715
805.249	0.0164066
805.328	0.0163482
805.406	0.0163628
805.484	0.0163774
805.562	0.0163786
805.640	0.0163499
805.718	0.0161853
805.796	0.0165040
805.874	0.0163103
805.953	0.0162328
806.031	0.0162705
806.109	0.0162437
806.187	0.0161801
806.265	0.0161492
806.343	0.0163805
806.421	0.0164230
806.499	0.0163456
806.578	0.0163891
806.656	0.0163411
806.734	0.0164222
806.812	0.0164285
806.890	0.0164241
806.968	0.0163766
807.046	0.0164537
807.124	0.0165640
807.203	0.0165757
807.281	0.0164787
807.359	0.0165781
807.437	0.0164259
807.515	0.0166251
807.593	0.0165379
807.671	0.0165678
807.749	0.0165041
807.828	0.0165147
807.906	0.0165230
807.984	0.0164207
808.062	0.0164701
808.140	0.0165832
808.218	0.0163357
808.296	0.0164786
808.374	0.0164594
808.453	0.0164518
808.531	0.0166152
808.609	0.0165288
808.687	0.0165517
808.765	0.0164112
808.843	0.0164262
808.921	0.0166285
808.999	0.0164865
809.078	0.0164255
809.156	0.0163828
809.234	0.0164619
809.312	0.0164544
809.390	0.0163282
809.468	0.0164352
809.546	0.0164838
809.624	0.0165001
809.703	0.0164632
809.781	0.0164297
809.859	0.0164722
809.937	0.0163860
810.015	0.0164307
810.093	0.0164554
810.171	0.0163913
810.249	0.0164851
810.328	0.0163223
810.406	0.0162874
810.484	0.0165015
810.562	0.0166529
810.640	0.0164471
810.718	0.0166001
810.796	0.0165308
810.874	0.0165855
810.953	0.0165444
811.031	0.0165039
811.109	0.0165700
811.187	0.0166086
811.265	0.0166068
811.343	0.0164748
811.421	0.0163966
811.499	0.0165543
811.578	0.0165048
811.656	0.0164053
811.734	0.0165456
811.812	0.0164710
811.890	0.0164799
811.968	0.0165403
812.046	0.0165187
812.124	0.0164090
812.203	0.0163881
812.281	0.0164785
812.359	0.0165100
812.437	0.0163477
812.515	0.0164799
812.593	0.0166315
812.671	0.0165271
812.749	0.0164690
812.828	0.0166135
812.906	0.0165580
812.984	0.0164626
813.062	0.0166075
813.140	0.0164819
813.218	0.0165646
813.296	0.0164629
813.374	0.0165166
813.453	0.0164445
813.531	0.0165827
813.609	0.0165244
813.687	0.0165507
813.765	0.0165353
813.843	0.0164432
813.921	0.0164812
813.999	0.0165296
814.078	0.0164292
814.156	0.0166119
814.234	0.0164329
814.312	0.0164400
814.390	0.0165462
814.468	0.0164805
814.546	0.0164786
814.624	0.0165559
814.703	0.0165363
814.781	0.0164649
814.859	0.0165713
814.937	0.0164572
815.015	0.0164095
815.093	0.0164800
815.171	0.0166048
815.249	0.0164130
815.328	0.0165394
815.406	0.0164175
815.484	0.0164751
815.562	0.0164261
815.640	0.0164869
815.718	0.0164313
815.796	0.0166949
815.874	0.0165354
815.953	0.0167111
816.031	0.0166506
816.109	0.0166513
816.187	0.0166228
816.265	0.0168113
816.343	0.0167236
816.421	0.0166349
816.499	0.0167452
816.578	0.0167667
816.656	0.0166621
816.734	0.0167789
816.812	0.0166976
816.890	0.0166000
816.968	0.0167111
817.046	0.0166302
817.124	0.0167084
817.203	0.0166165
817.281	0.0166233
817.359	0.0165813
817.437	0.0165333
817.515	0.0166543
817.593	0.0166548
817.671	0.0164883
817.749	0.0164434
817.828	0.0165323
817.906	0.0164850
817.984	0.0165779
818.062	0.0163630
818.140	0.0162798
818.218	0.0161806
818.296	0.0163606
818.374	0.0164059
818.453	0.0162133
818.531	0.0163149
818.609	0.0162341
818.687	0.0165569
818.765	0.0164373
818.843	0.0164757
818.921	0.0164530
818.999	0.0164124
819.078	0.0165453
819.156	0.0165619
819.234	0.0165262
819.312	0.0166738
819.390	0.0165161
819.468	0.0163345
819.546	0.0164329
819.624	0.0164938
819.703	0.0164165
819.781	0.0164085
819.859	0.0164680
819.937	0.0163724
820.015	0.0164429
820.093	0.0166003
820.171	0.0164780
820.249	0.0164562
820.328	0.0164482
820.406	0.0166260
820.484	0.0165124
820.562	0.0163394
820.640	0.0167329
820.718	0.0166200
820.796	0.0165548
820.874	0.0166494
820.953	0.0165945
821.031	0.0163923
821.109	0.0165369
821.187	0.0166599
821.265	0.0164979
821.343	0.0166665
821.421	0.0165805
821.499	0.0164951
821.578	0.0164254
821.656	0.0163977
821.734	0.0164373
821.812	0.0164344
821.890	0.0163295
821.968	0.0163673
822.046	0.0163808
822.124	0.0165199
822.203	0.0164317
822.281	0.0164872
822.359	0.0166515
822.437	0.0166808
822.515	0.0165328
822.593	0.0165716
822.671	0.0165013
822.749	0.0164987
822.828	0.0166141
822.906	0.0166039
822.984	0.0165570
823.062	0.0164503
823.140	0.0165537
823.218	0.0164741
823.296	0.0163166
823.374	0.0164973
823.453	0.0162460
823.531	0.0164041
823.609	0.0164206
823.687	0.0165585
823.765	0.0164889
823.843	0.0165096
823.921	0.0164890
823.999	0.0164146
824.078	0.0165014
824.156	0.0165423
824.234	0.0166409
824.312	0.0164476
824.390	0.0164719
824.468	0.0165306
824.546	0.0165278
824.624	0.0165786
824.703	0.0165950
824.781	0.0166006
824.859	0.0163609
824.937	0.0164276
825.015	0.0164894
825.093	0.0163445
825.171	0.0163644
825.249	0.0164756
825.328	0.0164085
825.406	0.0164151
825.484	0.0164285
825.562	0.0163870
825.640	0.0164632
825.718	0.0165581
825.796	0.0163950
825.874	0.0164879
825.953	0.0166055
826.031	0.0166123
826.109	0.0165647
826.187	0.0165591
826.265	0.0165257
826.343	0.0166045
826.421	0.0165179
826.499	0.0165205
826.578	0.0165237
826.656	0.0165817
826.734	0.0164790
826.812	0.0165363
826.890	0.0165408
826.968	0.0165462
827.046	0.0165536
827.124	0.0165499
827.203	0.0165444
827.281	0.0165234
827.359	0.0166338
827.437	0.0166091
827.515	0.0165374
827.593	0.0163411
827.671	0.0163745
827.749	0.0161955
827.828	0.0161983
827.906	0.0163035
827.984	0.0163036
828.062	0.0161990
828.140	0.0162444
828.218	0.0162305
828.296	0.0162451
828.374	0.0162072
828.453	0.0161661
828.531	0.0162029
828.609	0.0163536
828.687	0.0163160
828.765	0.0164639
828.843	0.0164028
828.921	0.0165024
828.999	0.0165333
829.078	0.0164825
829.156	0.0165449
829.234	0.0165726
829.312	0.0165340
829.390	0.0165479
829.468	0.0166219
829.546	0.0165993
829.624	0.0165414
829.703	0.0165514
829.781	0.0165948
829.859	0.0164927
829.937	0.0165986
830.015	0.0165614
830.093	0.0164603
830.171	0.0165230
830.249	0.0165417
830.328	0.0164818
830.406	0.0165082
830.484	0.0163803
830.562	0.0165352
830.640	0.0163959
830.718	0.0164817
830.796	0.0165282
830.874	0.0164992
830.953	0.0164394
831.031	0.0163512
831.109	0.0164388
831.187	0.0166064
831.265	0.0164819
831.343	0.0164970
831.421	0.0164941
831.499	0.0165112
831.578	0.0166328
831.656	0.0164394
831.734	0.0163465
831.812	0.0164439
831.890	0.0163502
831.968	0.0163942
832.046	0.0163253
832.124	0.0162392
832.203	0.0163734
832.281	0.0161702
832.359	0.0161900
832.437	0.0163280
832.515	0.0161792
832.593	0.0161967
832.671	0.0162651
832.749	0.0161669
832.828	0.0161566
832.906	0.0162381
832.984	0.0162831
833.062	0.0161992
833.140	0.0163333
833.218	0.0164460
833.296	0.0165279
833.374	0.0165974
833.453	0.0165652
833.531	0.0165466
833.609	0.0167381
833.687	0.0167924
833.765	0.0167306
833.843	0.0168097
833.921	0.0168002
833.999	0.0167131
834.078	0.0168243
834.156	0.0166953
834.234	0.0168192
834.312	0.0168121
834.390	0.0166272
834.468	0.0166947
834.546	0.0164899
834.624	0.0165668
834.703	0.0163106
834.781	0.0163818
834.859	0.0163643
834.937	0.0161121
835.015	0.0161936
835.093	0.0161970
835.171	0.0160767
835.249	0.0160230
835.328	0.0161236
835.406	0.0159583
835.484	0.0160618
835.562	0.0160165
835.640	0.0159135
835.718	0.0160756
835.796	0.0160546
835.874	0.0160213
835.953	0.0159111
836.031	0.0160795
836.109	0.0160160
836.187	0.0160033
836.265	0.0162228
836.343	0.0163608
836.421	0.0164332
836.499	0.0163971
836.578	0.0166002
836.656	0.0166161
836.734	0.0166335
836.812	0.0167186
836.890	0.0165820
836.968	0.0168073
837.046	0.0167681
837.124	0.0166672
837.203	0.0166447
837.281	0.0165903
837.359	0.0165138
837.437	0.0165532
837.515	0.0164152
837.593	0.0164307
837.671	0.0164063
837.749	0.0164248
837.828	0.0162379
837.906	0.0161307
837.984	0.0161758
838.062	0.0160663
838.140	0.0161647
838.218	0.0161851
838.296	0.0161047
838.374	0.0161434
838.453	0.0161537
838.531	0.0162434
838.609	0.0162270
838.687	0.0162821
838.765	0.0162126
838.843	0.0162864
838.921	0.0164812
838.999	0.0163528
839.078	0.0162098
839.156	0.0165151
839.234	0.0163649
839.312	0.0163764
839.390	0.0163478
839.468	0.0165363
839.546	0.0166272
839.624	0.0166351
839.703	0.0166368
839.781	0.0164555
839.859	0.0166461
839.937	0.0165695
840.015	0.0165562
840.093	0.0165891
840.171	0.0165775
840.249	0.0165445
840.328	0.0165717
840.406	0.0165744
840.484	0.0164464
840.562	0.0163651
840.640	0.0163620
840.718	0.0164416
840.796	0.0164687
840.874	0.0165418
840.953	0.0163441
841.031	0.0164477
841.109	0.0164817
841.187	0.0164371
841.265	0.0164388
841.343	0.0164774
841.421	0.0165137
841.499	0.0164456
841.578	0.0165308
841.656	0.0164389
841.734	0.0166296
841.812	0.0166999
841.890	0.0167117
841.968	0.0167519
842.046	0.0166440
842.124	0.0167766
842.203	0.0167859
842.281	0.0167915
842.359	0.0166396
842.437	0.0166273
842.515	0.0168027
842.593	0.0167281
842.671	0.0167350
842.749	0.0164391
842.828	0.0165469
842.906	0.0166647
842.984	0.0165704
843.062	0.0166213
843.140	0.0165672
843.218	0.0165311
843.296	0.0165243
843.374	0.0165324
843.453	0.0166478
843.531	0.0164468
843.609	0.0165752
843.687	0.0165040
843.765	0.0165968
843.843	0.0166042
843.921	0.0164282
843.999	0.0165567
844.078	0.0165064
844.156	0.0164436
844.234	0.0165137
844.312	0.0166290
844.390	0.0163609
844.468	0.0164970
844.546	0.0164639
844.624	0.0165384
844.703	0.0164751
844.781	0.0164709
844.859	0.0165309
844.937	0.0166124
845.015	0.0165777
845.093	0.0165427
845.171	0.0165735
845.249	0.0165642
845.328	0.0166135
845.406	0.0164967
845.484	0.0164725
845.562	0.0164272
845.640	0.0166000
845.718	0.0164945
845.796	0.0163751
845.874	0.0163796
845.953	0.0163516
846.031	0.0163779
846.109	0.0163517
846.187	0.0163392
846.265	0.0163135
846.343	0.0164490
846.421	0.0163261
846.499	0.0164143
846.578	0.0163705
846.656	0.0163474
846.734	0.0163302
846.812	0.0163820
846.890	0.0163678
846.968	0.0163704
847.046	0.0164951
847.124	0.0164784
847.203	0.0165300
847.281	0.0164885
847.359	0.0163360
847.437	0.0163988
847.515	0.0163431
847.593	0.0162340
847.671	0.0164388
847.749	0.0163731
847.828	0.0163876
847.906	0.0163284
847.984	0.0163745
848.062	0.0163518
848.140	0.0161537
848.218	0.0163061
848.296	0.0162775
848.374	0.0163680
848.453	0.0162263
848.531	0.0163365
848.609	0.0162102
848.687	0.0162528
848.765	0.0162863
848.843	0.0162417
848.921	0.0163290
848.999	0.0163596
849.078	0.0165033
849.156	0.0164346
849.234	0.0164022
849.312	0.0164796
849.390	0.0163987
849.468	0.0164290
849.546	0.0165563
849.624	0.0165411
849.703	0.0164467
849.781	0.0166006
849.859	0.0165476
849.937	0.0164874
850.015	0.0164494
850.093	0.0165404
850.171	0.0165723
850.249	0.0164555
850.328	0.0164748
850.406	0.0165277
850.484	0.0163689
850.562	0.0164813
850.640	0.0165453
850.718	0.0164853
850.796	0.0164188
850.874	0.0164504
850.953	0.0163868
851.031	0.0164975
851.109	0.0164400
851.187	0.0164290
851.265	0.0164696
851.343	0.0164503
851.421	0.0163794
851.499	0.0162532
851.578	0.0163885
851.656	0.0163345
851.734	0.0163596
851.812	0.0165884
851.890	0.0163370
851.968	0.0163259
852.046	0.0163406
852.124	0.0163028
852.203	0.0165348
852.281	0.0164821
852.359	0.0165849
852.437	0.0164406
852.515	0.0164177
852.593	0.0165139
852.671	0.0165356
852.749	0.0165636
852.828	0.0165694
852.906	0.0165272
852.984	0.0164848
853.062	0.0166165
853.140	0.0167812
853.218	0.0165990
853.296	0.0165742
853.374	0.0164928
853.453	0.0165855
853.531	0.0165898
853.609	0.0165422
853.687	0.0165025
853.765	0.0164310
853.843	0.0165658
853.921	0.0165805
853.999	0.0163997
854.078	0.0163546
854.156	0.0165085
854.234	0.0163596
854.312	0.0163763
854.390	0.0162623
854.468	0.0163737
854.546	0.0163784
854.624	0.0162452
854.703	0.0161842
854.781	0.0162266
854.859	0.0163201
854.937	0.0162010
855.015	0.0162338
855.093	0.0160308
855.171	0.0162385
855.249	0.0161510
855.328	0.0161829
855.406	0.0162552
855.484	0.0162922
855.562	0.0161638
855.640	0.0160438
855.718	0.0161472
855.796	0.0160825
855.874	0.0160595
855.953	0.0161954
856.031	0.0162167
856.109	0.0163117
856.187	0.0162321
856.265	0.0162881
856.343	0.0163744
856.421	0.0163380
856.499	0.0163272
856.578	0.0163474
856.656	0.0164980
856.734	0.0163937
856.812	0.0163793
856.890	0.0163317
856.968	0.0164940
857.046	0.0164503
857.124	0.0164955
857.203	0.0165704
857.281	0.0164661
857.359	0.0164479
857.437	0.0164029
857.515	0.0162704
857.593	0.0163470
857.671	0.0164656
857.749	0.0163496
857.828	0.0162882
857.906	0.0163467
857.984	0.0163358
858.062	0.0163806
858.140	0.0162561
858.218	0.0163178
858.296	0.0164304
858.374	0.0164319
858.453	0.0162477
858.531	0.0163324
858.609	0.0163043
858.687	0.0164466
858.765	0.0162748
858.843	0.0163226
858.921	0.0162833
858.999	0.0162573
859.078	0.0164066
859.156	0.0162066
859.234	0.0162438
859.312	0.0162244
859.390	0.0163251
859.468	0.0162531
859.546	0.0162042
859.624	0.0162675
859.703	0.0164998
859.781	0.0162849
859.859	0.0163105
859.937	0.0162589
860.015	0.0163312
860.093	0.0163581
860.171	0.0163670
860.249	0.0161852
860.328	0.0161690
860.406	0.0163348
860.484	0.0163398
860.562	0.0164102
860.640	0.0164554
860.718	0.0165244
860.796	0.0164742
860.874	0.0164268
860.953	0.0164859
861.031	0.0165910
861.109	0.0165463
861.187	0.0165302
861.265	0.0165147
861.343	0.0166012
861.421	0.0165828
861.499	0.0164349
861.578	0.0164815
861.656	0.0165482
861.734	0.0163204
861.812	0.0160382
861.890	0.0162927
861.968	0.0162955
862.046	0.0161250
862.124	0.0162562
862.203	0.0161388
862.281	0.0163387
862.359	0.0162760
862.437	0.0163284
862.515	0.0162025
862.593	0.0163898
862.671	0.0162772
862.749	0.0163644
862.828	0.0164251
862.906	0.0162862
862.984	0.0164704
863.062	0.0164211
863.140	0.0164761
863.218	0.0165067
863.296	0.0163384
863.374	0.0164203
863.453	0.0164003
863.531	0.0164291
863.609	0.0164793
863.687	0.0164020
863.765	0.0164390
863.843	0.0165646
863.921	0.0163387
863.999	0.0165366
864.078	0.0165639
864.156	0.0166080
864.234	0.0165924
864.312	0.0166008
864.390	0.0165484
864.468	0.0166400
864.546	0.0165409
864.624	0.0166368
864.703	0.0165623
864.781	0.0165333
864.859	0.0167063
864.937	0.0165611
865.015	0.0164737
865.093	0.0163622
865.171	0.0164061
865.249	0.0165495
865.328	0.0164123
865.406	0.0164013
865.484	0.0163362
865.562	0.0164041
865.640	0.0163762
865.718	0.0163590
865.796	0.0162151
865.874	0.0162825
865.953	0.0164577
866.031	0.0164622
866.109	0.0163924
866.187	0.0164314
866.265	0.0163476
866.343	0.0163519
866.421	0.0164590
866.499	0.0164835
866.578	0.0164704
866.656	0.0164271
866.734	0.0163740
866.812	0.0164513
866.890	0.0163177
866.968	0.0164056
867.046	0.0163789
867.124	0.0163190
867.203	0.0163432
867.281	0.0163647
867.359	0.0163866
867.437	0.0164357
867.515	0.0164103
867.593	0.0164120
867.671	0.0164748
867.749	0.0165883
867.828	0.0163831
867.906	0.0164489
867.984	0.0165642
868.062	0.0165755
868.140	0.0164283
868.218	0.0165359
868.296	0.0165174
868.374	0.0164799
868.453	0.0163593
868.531	0.0163908
868.609	0.0164356
868.687	0.0164393
868.765	0.0164095
868.843	0.0164267
868.921	0.0164371
868.999	0.0164648
869.078	0.0164834
869.156	0.0163209
869.234	0.0165015
869.312	0.0163990
869.390	0.0163791
869.468	0.0165534
869.546	0.0162880
869.624	0.0163759
869.703	0.0165041
869.781	0.0163824
869.859	0.0163470
869.937	0.0162419
870.015	0.0164194
870.093	0.0163448
870.171	0.0164728
870.249	0.0163089
870.328	0.0162238
870.406	0.0162919
870.484	0.0164716
870.562	0.0164132
870.640	0.0162466
870.718	0.0162868
870.796	0.0163760
870.874	0.0164616
870.953	0.0164250
871.031	0.0163616
871.109	0.0164074
871.187	0.0162259
871.265	0.0164446
871.343	0.0164426
871.421	0.0164447
871.499	0.0164338
871.578	0.0162692
871.656	0.0163687
871.734	0.0164554
871.812	0.0164984
871.890	0.0164429
871.968	0.0163749
872.046	0.0164537
872.124	0.0166047
872.203	0.0163907
872.281	0.0166141
872.359	0.0166361
872.437	0.0165079
872.515	0.0165519
872.593	0.0163876
872.671	0.0166528
872.749	0.0166088
872.828	0.0164709
872.906	0.0165508
872.984	0.0165495
873.062	0.0165376
873.140	0.0164813
873.218	0.0165954
873.296	0.0166281
873.374	0.0165712
873.453	0.0165709
873.531	0.0166437
873.609	0.0165348
873.687	0.0165726
873.765	0.0164708
873.843	0.0165462
873.921	0.0165237
873.999	0.0165030
874.078	0.0165421
874.156	0.0164765
874.234	0.0165736
874.312	0.0165364
874.390	0.0163121
874.468	0.0163877
874.546	0.0164307
874.624	0.0164275
874.703	0.0165289
874.781	0.0164764
874.859	0.0164363
874.937	0.0163749
875.015	0.0163193
875.093	0.0165050
875.171	0.0165663
875.249	0.0164276
875.328	0.0166053
875.406	0.0165005
875.484	0.0163486
875.562	0.0164785
875.640	0.0165726
875.718	0.0165536
875.796	0.0164747
875.874	0.0164149
875.953	0.0166061
876.031	0.0166460
876.109	0.0165331
876.187	0.0167110
876.265	0.0166193
876.343	0.0165459
876.421	0.0165975
876.499	0.0166790
876.578	0.0166093
876.656	0.0167399
876.734	0.0166164
876.812	0.0165846
876.890	0.0166699
876.968	0.0166050
877.046	0.0166759
877.124	0.0165013
877.203	0.0165141
877.281	0.0167311
877.359	0.0164972
877.437	0.0164524
877.515	0.0164655
877.593	0.0164488
877.671	0.0163966
877.749	0.0163740
877.828	0.0163223
877.906	0.0164589
877.984	0.0163813
878.062	0.0164646
878.140	0.0164601
878.218	0.0163278
878.296	0.0163230
878.374	0.0164507
878.453	0.0163240
878.531	0.0165173
878.609	0.0165173
878.687	0.0164932
878.765	0.0163421
878.843	0.0164610
878.921	0.0165090
878.999	0.0163515
879.078	0.0163563
879.156	0.0163154
879.234	0.0165928
879.312	0.0164426
879.390	0.0164125
879.468	0.0164425
879.546	0.0164002
879.624	0.0163265
879.703	0.0163063
879.781	0.0163088
879.859	0.0164183
879.937	0.0164095
880.015	0.0163216
880.093	0.0164188
880.171	0.0164008
880.249	0.0163145
880.328	0.0165003
880.406	0.0163957
880.484	0.0164713
880.562	0.0163744
880.640	0.0166140
880.718	0.0164664
880.796	0.0163893
880.874	0.0166322
880.953	0.0167874
881.031	0.0165600
881.109	0.0166274
881.187	0.0166001
881.265	0.0165627
881.343	0.0166605
881.421	0.0165361
881.499	0.0164518
881.578	0.0166280
881.656	0.0165775
881.734	0.0163425
881.812	0.0163918
881.890	0.0164362
881.968	0.0164195
882.046	0.0162810
882.124	0.0162003
882.203	0.0163142
882.281	0.0162734
882.359	0.0162122
882.437	0.0162164
882.515	0.0161490
882.593	0.0162820
882.671	0.0163471
882.749	0.0161837
882.828	0.0162071
882.906	0.0162658
882.984	0.0164520
883.062	0.0162802
883.140	0.0161557
883.218	0.0164273
883.296	0.0164230
883.374	0.0162807
883.453	0.0162833
883.531	0.0164671
883.609	0.0165118
883.687	0.0162756
883.765	0.0164342
883.843	0.0164770
883.921	0.0164148
883.999	0.0164979
884.078	0.0164805
884.156	0.0164589
884.234	0.0165199
884.312	0.0164717
884.390	0.0164648
884.468	0.0163840
884.546	0.0163977
884.624	0.0162769
884.703	0.0164462
884.781	0.0162558
884.859	0.0163869
884.937	0.0164285
885.015	0.0164256
885.093	0.0163772
885.171	0.0161993
885.249	0.0161270
885.328	0.0164231
885.406	0.0163238
885.484	0.0162742
885.562	0.0163110
885.640	0.0163201
885.718	0.0163139
885.796	0.0164225
885.874	0.0163633
885.953	0.0164971
886.031	0.0164487
886.109	0.0164924
886.187	0.0164032
886.265	0.0164317
886.343	0.0164662
886.421	0.0164481
886.499	0.0164819
886.578	0.0165080
886.656	0.0164616
886.734	0.0165616
886.812	0.0164394
886.890	0.0163690
886.968	0.0165620
887.046	0.0165173
887.124	0.0163882
887.203	0.0164409
887.281	0.0164495
887.359	0.0164078
887.437	0.0165400
887.515	0.0165533
887.593	0.0164607
887.671	0.0165209
887.749	0.0165218
887.828	0.0164664
887.906	0.0164548
887.984	0.0163665
888.062	0.0164449
888.140	0.0166189
888.218	0.0163472
888.296	0.0164890
888.374	0.0164763
888.453	0.0164121
888.531	0.0164142
888.609	0.0164260
888.687	0.0164632
888.765	0.0163714
888.843	0.0163643
888.921	0.0164545
888.999	0.0165633
889.078	0.0162823
889.156	0.0164327
889.234	0.0163817
889.312	0.0164655
889.390	0.0163702
889.468	0.0164219
889.546	0.0165605
889.624	0.0165638
889.703	0.0165013
889.781	0.0164420
889.859	0.0164989
889.937	0.0164993
890.015	0.0165187
890.093	0.0165836
890.171	0.0163963
890.249	0.0165553
890.328	0.0164873
890.406	0.0166490
890.484	0.0165983
890.562	0.0166376
890.640	0.0165582
890.718	0.0166738
890.796	0.0166560
890.874	0.0165604
890.953	0.0166120
891.031	0.0166317
891.109	0.0166783
891.187	0.0166227
891.265	0.0165748
891.343	0.0165430
891.421	0.0165431
891.499	0.0166100
891.578	0.0164927
891.656	0.0165421
891.734	0.0164664
891.812	0.0164832
891.890	0.0164268
891.968	0.0164589
892.046	0.0164539
892.124	0.0164420
892.203	0.0163224
892.281	0.0164482
892.359	0.0165228
892.437	0.0163176
892.515	0.0163558
892.593	0.0163871
892.671	0.0164336
892.749	0.0163765
892.828	0.0164113
892.906	0.0164571
892.984	0.0164230
893.062	0.0164474
893.140	0.0163417
893.218	0.0164075
893.296	0.0163594
893.374	0.0164362
893.453	0.0164016
893.531	0.0163383
893.609	0.0164552
893.687	0.0164131
893.765	0.0165035
893.843	0.0164259
893.921	0.0164306
893.999	0.0164713
894.078	0.0164764
894.156	0.0165189
894.234	0.0163658
894.312	0.0163590
894.390	0.0164080
894.468	0.0163381
894.546	0.0162927
894.624	0.0164287
894.703	0.0162222
894.781	0.0163464
894.859	0.0162097
894.937	0.0162713
895.015	0.0164088
895.093	0.0163539
895.171	0.0162647
895.249	0.0163923
895.328	0.0162564
895.406	0.0163032
895.484	0.0163238
895.562	0.0164404
895.640	0.0163400
895.718	0.0163343
895.796	0.0164793
895.874	0.0164395
895.953	0.0163383
896.031	0.0163308
896.109	0.0165445
896.187	0.0165469
896.265	0.0164554
896.343	0.0165464
896.421	0.0163982
896.499	0.0163986
896.578	0.0165272
896.656	0.0164405
896.734	0.0163340
896.812	0.0166043
896.890	0.0165068
896.968	0.0164990
897.046	0.0165065
897.124	0.0164647
897.203	0.0165852
897.281	0.0165099
897.359	0.0162557
897.437	0.0164662
897.515	0.0165479
897.593	0.0163943
897.671	0.0165411
897.749	0.0165021
897.828	0.0164432
897.906	0.0164098
897.984	0.0164514
898.062	0.0165152
898.140	0.0163616
898.218	0.0164687
898.296	0.0164782
898.374	0.0164108
898.453	0.0165205
898.531	0.0166268
898.609	0.0164960
898.687	0.0165175
898.765	0.0164854
898.843	0.0164404
898.921	0.0165226
898.999	0.0165017
899.078	0.0165389
899.156	0.0165415
899.234	0.0164280
899.312	0.0165073
899.390	0.0165535
899.468	0.0164613
899.546	0.0163740
899.624	0.0165518
899.703	0.0165915
899.781	0.0165186
899.859	0.0166174
899.937	0.0163784
900.015	0.0165656
900.093	0.0165377
900.171	0.0165314
900.249	0.0164769
900.328	0.0165485
900.406	0.0166363
900.484	0.0165356
900.562	0.0164651
900.640	0.0164441
900.718	0.0165049
900.796	0.0164891
900.874	0.0163848
900.953	0.0164975
901.031	0.0164360
901.109	0.0164151
901.187	0.0164097
901.265	0.0164546
901.343	0.0163519
901.421	0.0165223
901.499	0.0164171
901.578	0.0163200
901.656	0.0164062
901.734	0.0164344
901.812	0.0164264
901.890	0.0164384
901.968	0.0166068
902.046	0.0164733
902.124	0.0164369
902.203	0.0163651
902.281	0.0163717
902.359	0.0164851
902.437	0.0163673
902.515	0.0162897
902.593	0.0164188
902.671	0.0164413
902.749	0.0164666
902.828	0.0163682
902.906	0.0163908
902.984	0.0165080
903.062	0.0162706
903.140	0.0163503
903.218	0.0163971
903.296	0.0163998
903.374	0.0163743
903.453	0.0163557
903.531	0.0163578
903.609	0.0161951
903.687	0.0163289
903.765	0.0164085
903.843	0.0162548
903.921	0.0163649
903.999	0.0164220
904.078	0.0164573
904.156	0.0165404
904.234	0.0164957
904.312	0.0164995
904.390	0.0165426
904.468	0.0163600
904.546	0.0164133
904.624	0.0164165
904.703	0.0164569
904.781	0.0164611
904.859	0.0163701
904.937	0.0163692
905.015	0.0163992
905.093	0.0163374
905.171	0.0163046
905.249	0.0162330
905.328	0.0161765
905.406	0.0162188
905.484	0.0164209
905.562	0.0162566
905.640	0.0162092
905.718	0.0163979
905.796	0.0161861
905.874	0.0161585
905.953	0.0161359
906.031	0.0162415
906.109	0.0163475
906.187	0.0164423
906.265	0.0164440
906.343	0.0164822
906.421	0.0164801
906.499	0.0163925
906.578	0.0163509
906.656	0.0164494
906.734	0.0164781
906.812	0.0164583
906.890	0.0164411
906.968	0.0164452
907.046	0.0165058
907.124	0.0165026
907.203	0.0165216
907.281	0.0165336
907.359	0.0164695
907.437	0.0163824
907.515	0.0165800
907.593	0.0165891
907.671	0.0165584
907.749	0.0165041
907.828	0.0166372
907.906	0.0165013
907.984	0.0164787
908.062	0.0164705
908.140	0.0166063
908.218	0.0165514
908.296	0.0165000
908.374	0.0165816
908.453	0.0164780
908.531	0.0164648
908.609	0.0165340
908.687	0.0167303
908.765	0.0166038
908.843	0.0166042
908.921	0.0166438
908.999	0.0166174
909.078	0.0167064
909.156	0.0165910
909.234	0.0165442
909.312	0.0167414
909.390	0.0166888
909.468	0.0165127
909.546	0.0166231
909.624	0.0166817
909.703	0.0166193
909.781	0.0165215
909.859	0.0165536
909.937	0.0167201
910.015	0.0166690
910.093	0.0164993
910.171	0.0165276
910.249	0.0167425
910.328	0.0166177
910.406	0.0166497
910.484	0.0166078
910.562	0.0165760
910.640	0.0166915
910.718	0.0164688
910.796	0.0164688
910.874	0.0165144
910.953	0.0165822
911.031	0.0165057
911.109	0.0164998
911.187	0.0165381
911.265	0.0165050
911.343	0.0164916
911.421	0.0166399
911.499	0.0165636
911.578	0.0166508
911.656	0.0165109
911.734	0.0166376
911.812	0.0166001
911.890	0.0164944
911.968	0.0165212
912.046	0.0166552
912.124	0.0166610
912.203	0.0166930
912.281	0.0166291
912.359	0.0166432
912.437	0.0166074
912.515	0.0166743
912.593	0.0166721
912.671	0.0165089
912.749	0.0166045
912.828	0.0166390
912.906	0.0166753
912.984	0.0164835
913.062	0.0165012
913.140	0.0164828
913.218	0.0164359
913.296	0.0165402
913.374	0.0164354
913.453	0.0163925
913.531	0.0163955
913.609	0.0164085
913.687	0.0166908
913.765	0.0165038
913.843	0.0164196
913.921	0.0164979
913.999	0.0163989
914.078	0.0164975
914.156	0.0163616
914.234	0.0164761
914.312	0.0164504
914.390	0.0163826
914.468	0.0165903
914.546	0.0166425
914.624	0.0165641
914.703	0.0165688
914.781	0.0165788
914.859	0.0166176
914.937	0.0165374
915.015	0.0165200
915.093	0.0165218
915.171	0.0165549
915.249	0.0164987
915.328	0.0165633
915.406	0.0166295
915.484	0.0163864
915.562	0.0166361
915.640	0.0166386
915.718	0.0164383
915.796	0.0165955
915.874	0.0166277
915.953	0.0164850
916.031	0.0165966
916.109	0.0167155
916.187	0.0167018
916.265	0.0166708
916.343	0.0166862
916.421	0.0166116
916.499	0.0166711
916.578	0.0166405
916.656	0.0165550
916.734	0.0164211
916.812	0.0165116
916.890	0.0166133
916.968	0.0163447
917.046	0.0164317
917.124	0.0165265
917.203	0.0165193
917.281	0.0164394
917.359	0.0163528
917.437	0.0163568
917.515	0.0164108
917.593	0.0163942
917.671	0.0164508
917.749	0.0165399
917.828	0.0164314
917.906	0.0163712
917.984	0.0164061
918.062	0.0164908
918.140	0.0163131
918.218	0.0165931
918.296	0.0165311
918.374	0.0164329
918.453	0.0164107
918.531	0.0164362
918.609	0.0165321
918.687	0.0165170
918.765	0.0166052
918.843	0.0164766
918.921	0.0165337
918.999	0.0164089
919.078	0.0164779
919.156	0.0164690
919.234	0.0165576
919.312	0.0165183
919.390	0.0163170
919.468	0.0164769
919.546	0.0163023
919.624	0.0163715
919.703	0.0163866
919.781	0.0164566
919.859	0.0164551
919.937	0.0164191
