06/10/2022	19:05:56	Ver.	4.1	UNKNOWN
Optical Delay	600.015094	Delta X		0.078125	Sweeps	1	Scan Rate	0/0
Coordinates	Axis 1	NaN	Axis 2	NaN	Axis 3	NaN	Axis 4	NaN	Axis 5	NaN	Axis 6	0.000000
TX Power	0.000000	RX Power	0.000000

600.015	0.0159277
600.093	0.0162291
600.171	0.0161010
600.249	0.0160674
600.328	0.0159433
600.406	0.0158996
600.484	0.0159528
600.562	0.0159953
600.640	0.0160431
600.718	0.0159891
600.796	0.0160176
600.874	0.0159325
600.953	0.0158504
601.031	0.0160394
601.109	0.0159864
601.187	0.0160323
601.265	0.0157866
601.343	0.0158816
601.421	0.0158889
601.499	0.0159302
601.578	0.0159431
601.656	0.0159791
601.734	0.0160817
601.812	0.0159906
601.890	0.0160513
601.968	0.0161145
602.046	0.0161897
602.124	0.0160247
602.203	0.0160751
602.281	0.0159957
602.359	0.0161019
602.437	0.0160757
602.515	0.0160161
602.593	0.0162574
602.671	0.0161418
602.749	0.0162087
602.828	0.0160104
602.906	0.0159335
602.984	0.0161751
603.062	0.0160223
603.140	0.0160547
603.218	0.0160181
603.296	0.0159808
603.374	0.0159197
603.453	0.0161205
603.531	0.0158508
603.609	0.0160280
603.687	0.0160773
603.765	0.0160012
603.843	0.0159798
603.921	0.0158907
603.999	0.0160043
604.078	0.0160401
604.156	0.0160927
604.234	0.0161257
604.312	0.0160231
604.390	0.0159184
604.468	0.0160335
604.546	0.0160110
604.624	0.0161326
604.703	0.0160489
604.781	0.0160513
604.859	0.0159700
604.937	0.0160812
605.015	0.0160535
605.093	0.0161365
605.171	0.0160690
605.249	0.0160988
605.328	0.0160233
605.406	0.0160929
605.484	0.0162048
605.562	0.0160686
605.640	0.0162148
605.718	0.0162310
605.796	0.0162411
605.874	0.0161193
605.953	0.0161375
606.031	0.0161942
606.109	0.0162389
606.187	0.0161595
606.265	0.0162918
606.343	0.0163622
606.421	0.0164474
606.499	0.0163264
606.578	0.0164362
606.656	0.0163885
606.734	0.0161682
606.812	0.0164149
606.890	0.0163618
606.968	0.0163576
607.046	0.0163431
607.124	0.0162505
607.203	0.0161520
607.281	0.0162654
607.359	0.0162872
607.437	0.0161168
607.515	0.0161272
607.593	0.0162811
607.671	0.0161765
607.749	0.0161285
607.828	0.0162528
607.906	0.0162655
607.984	0.0163239
608.062	0.0163686
608.140	0.0164015
608.218	0.0161930
608.296	0.0161914
608.374	0.0161340
608.453	0.0162947
608.531	0.0161888
608.609	0.0161945
608.687	0.0163387
608.765	0.0162328
608.843	0.0162096
608.921	0.0163049
608.999	0.0162079
609.078	0.0162463
609.156	0.0163132
609.234	0.0161700
609.312	0.0161806
609.390	0.0162530
609.468	0.0161481
609.546	0.0162778
609.624	0.0162345
609.703	0.0162119
609.781	0.0162070
609.859	0.0161629
609.937	0.0161025
610.015	0.0162667
610.093	0.0162743
610.171	0.0161116
610.249	0.0162042
610.328	0.0162673
610.406	0.0163129
610.484	0.0161427
610.562	0.0162862
610.640	0.0162488
610.718	0.0161110
610.796	0.0163093
610.874	0.0161629
610.953	0.0162301
611.031	0.0162583
611.109	0.0161214
611.187	0.0160609
611.265	0.0161543
611.343	0.0162033
611.421	0.0161664
611.499	0.0162054
611.578	0.0161068
611.656	0.0160558
611.734	0.0160901
611.812	0.0160032
611.890	0.0159926
611.968	0.0161026
612.046	0.0160639
612.124	0.0159019
612.203	0.0160200
612.281	0.0161013
612.359	0.0160429
612.437	0.0161074
612.515	0.0160297
612.593	0.0160421
612.671	0.0160020
612.749	0.0160725
612.828	0.0161060
612.906	0.0159175
612.984	0.0160072
613.062	0.0160617
613.140	0.0159102
613.218	0.0158875
613.296	0.0160213
613.374	0.0160897
613.453	0.0159865
613.531	0.0159528
613.609	0.0160442
613.687	0.0160946
613.765	0.0159080
613.843	0.0158942
613.921	0.0160411
613.999	0.0161182
614.078	0.0160768
614.156	0.0158827
614.234	0.0160722
614.312	0.0161249
614.390	0.0162245
614.468	0.0161292
614.546	0.0162316
614.624	0.0161996
614.703	0.0161397
614.781	0.0162484
614.859	0.0162216
614.937	0.0163004
615.015	0.0162964
615.093	0.0162752
615.171	0.0164416
615.249	0.0163055
615.328	0.0163767
615.406	0.0162228
615.484	0.0163671
615.562	0.0164374
615.640	0.0164384
615.718	0.0164285
615.796	0.0162505
615.874	0.0164397
615.953	0.0162515
616.031	0.0163392
616.109	0.0163805
616.187	0.0162753
616.265	0.0164017
616.343	0.0163019
616.421	0.0164220
616.499	0.0161858
616.578	0.0160900
616.656	0.0162843
616.734	0.0161043
616.812	0.0160982
616.890	0.0162527
616.968	0.0160732
617.046	0.0161895
617.124	0.0162701
617.203	0.0162055
617.281	0.0161712
617.359	0.0160433
617.437	0.0162225
617.515	0.0160880
617.593	0.0161664
617.671	0.0160756
617.749	0.0161459
617.828	0.0160715
617.906	0.0160127
617.984	0.0160635
618.062	0.0161073
618.140	0.0161332
618.218	0.0161171
618.296	0.0160535
618.374	0.0161233
618.453	0.0160761
618.531	0.0162106
618.609	0.0160965
618.687	0.0161009
618.765	0.0161263
618.843	0.0159726
618.921	0.0159824
618.999	0.0160509
619.078	0.0161886
619.156	0.0160919
619.234	0.0160622
619.312	0.0161047
619.390	0.0161401
619.468	0.0161259
619.546	0.0162386
619.624	0.0159377
619.703	0.0160770
619.781	0.0163038
619.859	0.0160921
619.937	0.0160454
620.015	0.0160664
620.093	0.0161133
620.171	0.0161671
620.249	0.0160229
620.328	0.0162373
620.406	0.0159349
620.484	0.0159374
620.562	0.0160754
620.640	0.0159049
620.718	0.0160611
620.796	0.0160037
620.874	0.0159860
620.953	0.0159540
621.031	0.0159003
621.109	0.0159171
621.187	0.0158914
621.265	0.0158765
621.343	0.0158935
621.421	0.0158593
621.499	0.0158862
621.578	0.0158159
621.656	0.0159036
621.734	0.0159460
621.812	0.0157570
621.890	0.0157304
621.968	0.0158694
622.046	0.0158876
622.124	0.0159127
622.203	0.0158384
622.281	0.0158009
622.359	0.0158459
622.437	0.0158216
622.515	0.0158387
622.593	0.0157135
622.671	0.0157833
622.749	0.0158915
622.828	0.0158427
622.906	0.0158242
622.984	0.0158304
623.062	0.0157141
623.140	0.0156963
623.218	0.0156470
623.296	0.0157513
623.374	0.0157936
623.453	0.0158946
623.531	0.0156976
623.609	0.0156746
623.687	0.0157618
623.765	0.0157500
623.843	0.0158062
623.921	0.0156982
623.999	0.0156471
624.078	0.0156467
624.156	0.0157783
624.234	0.0156486
624.312	0.0157380
624.390	0.0157265
624.468	0.0156593
624.546	0.0158607
624.624	0.0158232
624.703	0.0159322
624.781	0.0157841
624.859	0.0156889
624.937	0.0158985
625.015	0.0158546
625.093	0.0160887
625.171	0.0158720
625.249	0.0157583
625.328	0.0160709
625.406	0.0158751
625.484	0.0158881
625.562	0.0160475
625.640	0.0159991
625.718	0.0158775
625.796	0.0160212
625.874	0.0160620
625.953	0.0161525
626.031	0.0161312
626.109	0.0161066
626.187	0.0159398
626.265	0.0161136
626.343	0.0160455
626.421	0.0158081
626.499	0.0160897
626.578	0.0161655
626.656	0.0161327
626.734	0.0160236
626.812	0.0158642
626.890	0.0161549
626.968	0.0159941
627.046	0.0159073
627.124	0.0159704
627.203	0.0160251
627.281	0.0159512
627.359	0.0160673
627.437	0.0160580
627.515	0.0160313
627.593	0.0159593
627.671	0.0160545
627.749	0.0160776
627.828	0.0161139
627.906	0.0162045
627.984	0.0161655
628.062	0.0160844
628.140	0.0161279
628.218	0.0162029
628.296	0.0160442
628.374	0.0161160
628.453	0.0162428
628.531	0.0161694
628.609	0.0160615
628.687	0.0161438
628.765	0.0162048
628.843	0.0161836
628.921	0.0161987
628.999	0.0163165
629.078	0.0162517
629.156	0.0163059
629.234	0.0162545
629.312	0.0162155
629.390	0.0162259
629.468	0.0162892
629.546	0.0164296
629.624	0.0164180
629.703	0.0163764
629.781	0.0163013
629.859	0.0163076
629.937	0.0164274
630.015	0.0164496
630.093	0.0164944
630.171	0.0165576
630.249	0.0165024
630.328	0.0164254
630.406	0.0163864
630.484	0.0165549
630.562	0.0162997
630.640	0.0163506
630.718	0.0163605
630.796	0.0164354
630.874	0.0165128
630.953	0.0164388
631.031	0.0163590
631.109	0.0163394
631.187	0.0163155
631.265	0.0163729
631.343	0.0162958
631.421	0.0162332
631.499	0.0163357
631.578	0.0163533
631.656	0.0161765
631.734	0.0161432
631.812	0.0163567
631.890	0.0162276
631.968	0.0161934
632.046	0.0162584
632.124	0.0161596
632.203	0.0162914
632.281	0.0162785
632.359	0.0162730
632.437	0.0160926
632.515	0.0162450
632.593	0.0163019
632.671	0.0161872
632.749	0.0162211
632.828	0.0161772
632.906	0.0162817
632.984	0.0161344
633.062	0.0162016
633.140	0.0162174
633.218	0.0162203
633.296	0.0161614
633.374	0.0161786
633.453	0.0162220
633.531	0.0161942
633.609	0.0160686
633.687	0.0159897
633.765	0.0161562
633.843	0.0163973
633.921	0.0160822
633.999	0.0161490
634.078	0.0162335
634.156	0.0161790
634.234	0.0160548
634.312	0.0161314
634.390	0.0161597
634.468	0.0162584
634.546	0.0162676
634.624	0.0160782
634.703	0.0161548
634.781	0.0160795
634.859	0.0160666
634.937	0.0160670
635.015	0.0160400
635.093	0.0162191
635.171	0.0161166
635.249	0.0160973
635.328	0.0161298
635.406	0.0160505
635.484	0.0161182
635.562	0.0160724
635.640	0.0161140
635.718	0.0160101
635.796	0.0161845
635.874	0.0161369
635.953	0.0160915
636.031	0.0160184
636.109	0.0161398
636.187	0.0161971
636.265	0.0161846
636.343	0.0160820
636.421	0.0160905
636.499	0.0160486
636.578	0.0161193
636.656	0.0162496
636.734	0.0161771
636.812	0.0160655
636.890	0.0160474
636.968	0.0162070
637.046	0.0162501
637.124	0.0161916
637.203	0.0162119
637.281	0.0160757
637.359	0.0159547
637.437	0.0160802
637.515	0.0162143
637.593	0.0160358
637.671	0.0161179
637.749	0.0160264
637.828	0.0161790
637.906	0.0160805
637.984	0.0161958
638.062	0.0159094
638.140	0.0160305
638.218	0.0163105
638.296	0.0161385
638.374	0.0161587
638.453	0.0160722
638.531	0.0160490
638.609	0.0160567
638.687	0.0160063
638.765	0.0160580
638.843	0.0162115
638.921	0.0159705
638.999	0.0160667
639.078	0.0160638
639.156	0.0160207
639.234	0.0161964
639.312	0.0160971
639.390	0.0160132
639.468	0.0161240
639.546	0.0160815
639.624	0.0160162
639.703	0.0161621
639.781	0.0160786
639.859	0.0162247
639.937	0.0160594
640.015	0.0161156
640.093	0.0159981
640.171	0.0161347
640.249	0.0161974
640.328	0.0161195
640.406	0.0160025
640.484	0.0162165
640.562	0.0160527
640.640	0.0161079
640.718	0.0161441
640.796	0.0161459
640.874	0.0159914
640.953	0.0161006
641.031	0.0160074
641.109	0.0160411
641.187	0.0161029
641.265	0.0160803
641.343	0.0160245
641.421	0.0160629
641.499	0.0160924
641.578	0.0160754
641.656	0.0160171
641.734	0.0160307
641.812	0.0159739
641.890	0.0159908
641.968	0.0159599
642.046	0.0159428
642.124	0.0159238
642.203	0.0159818
642.281	0.0160593
642.359	0.0159309
642.437	0.0159064
642.515	0.0159602
642.593	0.0160085
642.671	0.0159551
642.749	0.0160157
642.828	0.0159389
642.906	0.0159566
642.984	0.0159274
643.062	0.0158412
643.140	0.0159411
643.218	0.0158587
643.296	0.0159851
643.374	0.0160164
643.453	0.0160249
643.531	0.0159636
643.609	0.0159336
643.687	0.0158649
643.765	0.0159243
643.843	0.0159554
643.921	0.0159811
643.999	0.0159539
644.078	0.0157008
644.156	0.0159492
644.234	0.0161399
644.312	0.0160699
644.390	0.0158952
644.468	0.0160679
644.546	0.0160733
644.624	0.0159947
644.703	0.0159193
644.781	0.0159786
644.859	0.0160442
644.937	0.0159347
645.015	0.0159348
645.093	0.0159206
645.171	0.0159773
645.249	0.0158847
645.328	0.0159640
645.406	0.0158868
645.484	0.0158576
645.562	0.0158630
645.640	0.0158675
645.718	0.0159191
645.796	0.0158982
645.874	0.0158462
645.953	0.0159013
646.031	0.0158828
646.109	0.0158180
646.187	0.0158139
646.265	0.0158705
646.343	0.0158945
646.421	0.0159224
646.499	0.0159861
646.578	0.0158736
646.656	0.0159995
646.734	0.0160264
646.812	0.0160370
646.890	0.0159750
646.968	0.0159826
647.046	0.0159411
647.124	0.0160475
647.203	0.0159480
647.281	0.0160249
647.359	0.0159679
647.437	0.0160628
647.515	0.0160004
647.593	0.0160162
647.671	0.0160098
647.749	0.0159835
647.828	0.0159760
647.906	0.0160259
647.984	0.0160840
648.062	0.0161392
648.140	0.0161871
648.218	0.0160078
648.296	0.0160024
648.374	0.0160190
648.453	0.0160533
648.531	0.0159693
648.609	0.0160513
648.687	0.0160739
648.765	0.0161285
648.843	0.0160903
648.921	0.0162333
648.999	0.0160132
649.078	0.0161959
649.156	0.0160320
649.234	0.0161870
649.312	0.0162780
649.390	0.0161897
649.468	0.0161547
649.546	0.0162337
649.624	0.0162243
649.703	0.0161292
649.781	0.0162284
649.859	0.0162504
649.937	0.0161918
650.015	0.0160391
650.093	0.0162112
650.171	0.0162679
650.249	0.0161249
650.328	0.0160574
650.406	0.0161519
650.484	0.0161392
650.562	0.0164331
650.640	0.0162483
650.718	0.0161295
650.796	0.0162451
650.874	0.0162768
650.953	0.0162695
651.031	0.0161834
651.109	0.0161536
651.187	0.0162527
651.265	0.0162041
651.343	0.0161095
651.421	0.0161909
651.499	0.0162719
651.578	0.0162416
651.656	0.0161765
651.734	0.0161353
651.812	0.0162741
651.890	0.0160925
651.968	0.0162043
652.046	0.0161578
652.124	0.0161216
652.203	0.0161905
652.281	0.0163329
652.359	0.0160441
652.437	0.0161621
652.515	0.0162744
652.593	0.0162135
652.671	0.0162411
652.749	0.0162871
652.828	0.0162607
652.906	0.0162080
652.984	0.0161905
653.062	0.0163538
653.140	0.0164211
653.218	0.0160618
653.296	0.0162664
653.374	0.0162769
653.453	0.0162061
653.531	0.0162654
653.609	0.0162858
653.687	0.0161640
653.765	0.0162798
653.843	0.0161674
653.921	0.0162287
653.999	0.0162393
654.078	0.0161217
654.156	0.0162824
654.234	0.0161359
654.312	0.0161870
654.390	0.0161549
654.468	0.0162609
654.546	0.0161061
654.624	0.0163436
654.703	0.0160724
654.781	0.0161191
654.859	0.0163297
654.937	0.0161520
655.015	0.0160401
655.093	0.0162524
655.171	0.0161813
655.249	0.0162828
655.328	0.0162573
655.406	0.0161630
655.484	0.0161584
655.562	0.0161552
655.640	0.0162274
655.718	0.0162197
655.796	0.0161942
655.874	0.0160549
655.953	0.0161517
656.031	0.0161579
656.109	0.0160408
656.187	0.0160925
656.265	0.0161586
656.343	0.0161173
656.421	0.0161537
656.499	0.0161642
656.578	0.0161092
656.656	0.0160535
656.734	0.0160358
656.812	0.0161095
656.890	0.0162216
656.968	0.0161784
657.046	0.0161882
657.124	0.0161066
657.203	0.0161122
657.281	0.0160996
657.359	0.0162109
657.437	0.0161170
657.515	0.0161583
657.593	0.0162254
657.671	0.0161687
657.749	0.0162194
657.828	0.0162955
657.906	0.0162830
657.984	0.0161213
658.062	0.0161440
658.140	0.0162724
658.218	0.0162144
658.296	0.0163821
658.374	0.0161994
658.453	0.0163409
658.531	0.0162482
658.609	0.0163102
658.687	0.0162920
658.765	0.0163422
658.843	0.0162883
658.921	0.0162898
658.999	0.0162420
659.078	0.0162211
659.156	0.0161388
659.234	0.0163435
659.312	0.0163857
659.390	0.0162943
659.468	0.0162611
659.546	0.0162786
659.624	0.0162888
659.703	0.0162853
659.781	0.0162560
659.859	0.0163045
659.937	0.0163149
660.015	0.0163994
660.093	0.0163053
660.171	0.0161435
660.249	0.0163165
660.328	0.0161795
660.406	0.0161216
660.484	0.0161991
660.562	0.0162195
660.640	0.0161830
660.718	0.0161144
660.796	0.0160040
660.874	0.0161171
660.953	0.0162611
661.031	0.0161808
661.109	0.0161929
661.187	0.0161724
661.265	0.0161111
661.343	0.0161180
661.421	0.0161503
661.499	0.0160505
661.578	0.0160464
661.656	0.0160352
661.734	0.0160747
661.812	0.0160684
661.890	0.0159938
661.968	0.0159129
662.046	0.0159608
662.124	0.0160184
662.203	0.0160533
662.281	0.0159516
662.359	0.0160883
662.437	0.0159489
662.515	0.0159550
662.593	0.0161394
662.671	0.0161160
662.749	0.0158826
662.828	0.0160016
662.906	0.0160758
662.984	0.0160143
663.062	0.0160732
663.140	0.0160340
663.218	0.0160111
663.296	0.0159644
663.374	0.0160287
663.453	0.0159442
663.531	0.0161893
663.609	0.0160163
663.687	0.0159871
663.765	0.0158875
663.843	0.0160786
663.921	0.0160638
663.999	0.0159940
664.078	0.0160336
664.156	0.0159781
664.234	0.0159064
664.312	0.0158961
664.390	0.0158520
664.468	0.0159662
664.546	0.0159634
664.624	0.0161748
664.703	0.0159470
664.781	0.0159471
664.859	0.0161467
664.937	0.0160892
665.015	0.0160279
665.093	0.0159002
665.171	0.0160090
665.249	0.0158868
665.328	0.0158955
665.406	0.0159573
665.484	0.0159304
665.562	0.0160618
665.640	0.0161021
665.718	0.0161047
665.796	0.0159821
665.874	0.0160081
665.953	0.0159247
666.031	0.0161093
666.109	0.0160978
666.187	0.0160810
666.265	0.0157705
666.343	0.0159207
666.421	0.0159372
666.499	0.0158446
666.578	0.0159917
666.656	0.0159929
666.734	0.0160009
666.812	0.0160091
666.890	0.0158669
666.968	0.0159793
667.046	0.0161284
667.124	0.0159467
667.203	0.0159007
667.281	0.0158545
667.359	0.0159921
667.437	0.0160588
667.515	0.0159357
667.593	0.0159446
667.671	0.0158539
667.749	0.0159909
667.828	0.0160450
667.906	0.0160247
667.984	0.0159086
668.062	0.0158470
668.140	0.0159850
668.218	0.0160358
668.296	0.0159732
668.374	0.0159518
668.453	0.0161112
668.531	0.0160956
668.609	0.0160477
668.687	0.0160002
668.765	0.0159312
668.843	0.0160117
668.921	0.0159847
668.999	0.0160403
669.078	0.0160017
669.156	0.0159676
669.234	0.0159848
669.312	0.0159783
669.390	0.0159594
669.468	0.0159511
669.546	0.0159813
669.624	0.0158672
669.703	0.0159459
669.781	0.0161140
669.859	0.0159562
669.937	0.0160314
670.015	0.0159480
670.093	0.0160407
670.171	0.0160154
670.249	0.0160596
670.328	0.0161716
670.406	0.0159167
670.484	0.0159926
670.562	0.0160246
670.640	0.0160635
670.718	0.0159354
670.796	0.0158851
670.874	0.0159824
670.953	0.0161510
671.031	0.0160007
671.109	0.0160500
671.187	0.0161977
671.265	0.0161039
671.343	0.0159424
671.421	0.0160673
671.499	0.0161741
671.578	0.0161225
671.656	0.0160515
671.734	0.0160738
671.812	0.0161220
671.890	0.0159988
671.968	0.0161127
672.046	0.0160797
672.124	0.0159897
672.203	0.0160391
672.281	0.0161143
672.359	0.0161304
672.437	0.0161972
672.515	0.0161065
672.593	0.0160450
672.671	0.0160226
672.749	0.0160413
672.828	0.0160458
672.906	0.0160553
672.984	0.0162554
673.062	0.0161787
673.140	0.0161662
673.218	0.0161356
673.296	0.0160932
673.374	0.0160828
673.453	0.0162035
673.531	0.0162338
673.609	0.0161266
673.687	0.0161963
673.765	0.0161165
673.843	0.0162389
673.921	0.0160751
673.999	0.0162917
674.078	0.0162169
674.156	0.0161075
674.234	0.0160509
674.312	0.0162397
674.390	0.0161623
674.468	0.0161743
674.546	0.0161527
674.624	0.0161522
674.703	0.0162602
674.781	0.0161639
674.859	0.0162249
674.937	0.0162306
675.015	0.0162141
675.093	0.0162968
675.171	0.0161887
675.249	0.0162368
675.328	0.0162905
675.406	0.0164082
675.484	0.0163066
675.562	0.0162035
675.640	0.0161002
675.718	0.0161768
675.796	0.0162374
675.874	0.0161924
675.953	0.0162289
676.031	0.0162344
676.109	0.0163046
676.187	0.0162085
676.265	0.0163879
676.343	0.0162862
676.421	0.0162714
676.499	0.0162896
676.578	0.0163211
676.656	0.0163136
676.734	0.0162629
676.812	0.0162006
676.890	0.0162744
676.968	0.0162426
677.046	0.0162748
677.124	0.0163074
677.203	0.0162221
677.281	0.0161661
677.359	0.0162902
677.437	0.0162518
677.515	0.0162430
677.593	0.0161858
677.671	0.0163532
677.749	0.0163278
677.828	0.0163147
677.906	0.0162971
677.984	0.0161977
678.062	0.0162434
678.140	0.0161433
678.218	0.0163836
678.296	0.0163405
678.374	0.0162323
678.453	0.0162209
678.531	0.0161920
678.609	0.0161871
678.687	0.0162611
678.765	0.0161970
678.843	0.0162891
678.921	0.0163218
678.999	0.0160614
679.078	0.0161083
679.156	0.0162490
679.234	0.0161871
679.312	0.0162107
679.390	0.0160648
679.468	0.0161547
679.546	0.0160962
679.624	0.0162495
679.703	0.0161317
679.781	0.0161353
679.859	0.0161076
679.937	0.0161752
680.015	0.0160656
680.093	0.0161948
680.171	0.0160532
680.249	0.0160589
680.328	0.0162698
680.406	0.0160353
680.484	0.0161426
680.562	0.0162107
680.640	0.0160538
680.718	0.0161426
680.796	0.0161083
680.874	0.0160696
680.953	0.0161498
681.031	0.0162199
681.109	0.0160294
681.187	0.0160372
681.265	0.0161569
681.343	0.0160647
681.421	0.0160411
681.499	0.0160297
681.578	0.0159952
681.656	0.0160648
681.734	0.0160371
681.812	0.0160232
681.890	0.0161085
681.968	0.0160114
682.046	0.0162450
682.124	0.0161418
682.203	0.0160847
682.281	0.0159923
682.359	0.0160160
682.437	0.0161355
682.515	0.0159637
682.593	0.0160786
682.671	0.0161572
682.749	0.0160418
682.828	0.0160613
682.906	0.0160796
682.984	0.0161035
683.062	0.0160390
683.140	0.0162016
683.218	0.0160200
683.296	0.0160852
683.374	0.0160139
683.453	0.0159029
683.531	0.0161238
683.609	0.0161277
683.687	0.0161208
683.765	0.0160807
683.843	0.0160705
683.921	0.0161834
683.999	0.0159983
684.078	0.0161177
684.156	0.0159613
684.234	0.0161750
684.312	0.0160992
684.390	0.0160417
684.468	0.0160812
684.546	0.0160477
684.624	0.0161132
684.703	0.0160740
684.781	0.0160305
684.859	0.0160564
684.937	0.0161388
685.015	0.0160406
685.093	0.0160854
685.171	0.0160200
685.249	0.0159211
685.328	0.0159698
685.406	0.0161668
685.484	0.0159784
685.562	0.0159846
685.640	0.0159873
685.718	0.0159994
685.796	0.0161235
685.874	0.0160081
685.953	0.0160940
686.031	0.0159872
686.109	0.0160434
686.187	0.0160005
686.265	0.0159119
686.343	0.0159442
686.421	0.0160070
686.499	0.0157990
686.578	0.0158817
686.656	0.0159723
686.734	0.0158884
686.812	0.0159894
686.890	0.0159592
686.968	0.0160027
687.046	0.0160464
687.124	0.0160661
687.203	0.0160368
687.281	0.0160475
687.359	0.0160429
687.437	0.0158893
687.515	0.0160698
687.593	0.0159480
687.671	0.0159197
687.749	0.0160336
687.828	0.0159391
687.906	0.0160251
687.984	0.0160568
688.062	0.0160342
688.140	0.0159132
688.218	0.0159667
688.296	0.0161269
688.374	0.0161371
688.453	0.0158214
688.531	0.0161590
688.609	0.0160178
688.687	0.0158845
688.765	0.0159338
688.843	0.0160552
688.921	0.0160029
688.999	0.0160300
689.078	0.0159314
689.156	0.0161048
689.234	0.0160532
689.312	0.0159911
689.390	0.0159502
689.468	0.0159003
689.546	0.0159482
689.624	0.0161851
689.703	0.0160236
689.781	0.0159719
689.859	0.0159677
689.937	0.0160152
690.015	0.0159187
690.093	0.0160599
690.171	0.0159920
690.249	0.0159588
690.328	0.0159226
690.406	0.0159442
690.484	0.0160069
690.562	0.0159750
690.640	0.0158760
690.718	0.0159370
690.796	0.0160706
690.874	0.0159937
690.953	0.0160224
691.031	0.0160677
691.109	0.0159520
691.187	0.0160204
691.265	0.0159368
691.343	0.0160500
691.421	0.0159016
691.499	0.0160821
691.578	0.0160040
691.656	0.0160087
691.734	0.0161303
691.812	0.0160699
691.890	0.0160200
691.968	0.0160847
692.046	0.0160342
692.124	0.0161143
692.203	0.0160263
692.281	0.0159513
692.359	0.0159576
692.437	0.0159548
692.515	0.0160764
692.593	0.0161092
692.671	0.0160588
692.749	0.0158592
692.828	0.0158770
692.906	0.0160475
692.984	0.0159286
693.062	0.0159702
693.140	0.0158559
693.218	0.0160490
693.296	0.0160046
693.374	0.0158951
693.453	0.0158705
693.531	0.0159889
693.609	0.0160184
693.687	0.0157806
693.765	0.0158907
693.843	0.0159202
693.921	0.0158659
693.999	0.0160240
694.078	0.0159212
694.156	0.0158920
694.234	0.0159312
694.312	0.0161288
694.390	0.0160209
694.468	0.0159515
694.546	0.0159732
694.624	0.0160201
694.703	0.0158463
694.781	0.0160853
694.859	0.0159238
694.937	0.0159053
695.015	0.0159032
695.093	0.0158794
695.171	0.0158756
695.249	0.0160712
695.328	0.0160595
695.406	0.0158801
695.484	0.0159930
695.562	0.0159776
695.640	0.0161582
695.718	0.0159476
695.796	0.0160176
695.874	0.0158809
695.953	0.0160461
696.031	0.0159283
696.109	0.0160385
696.187	0.0160367
696.265	0.0160229
696.343	0.0160857
696.421	0.0160078
696.499	0.0160491
696.578	0.0161307
696.656	0.0160483
696.734	0.0160265
696.812	0.0159476
696.890	0.0159660
696.968	0.0160574
697.046	0.0160286
697.124	0.0160590
697.203	0.0160292
697.281	0.0161842
697.359	0.0160862
697.437	0.0158989
697.515	0.0160194
697.593	0.0159402
697.671	0.0160050
697.749	0.0160464
697.828	0.0160609
697.906	0.0161604
697.984	0.0160371
698.062	0.0160462
698.140	0.0159509
698.218	0.0160648
698.296	0.0160492
698.374	0.0158656
698.453	0.0159167
698.531	0.0160366
698.609	0.0159946
698.687	0.0159927
698.765	0.0160819
698.843	0.0159196
698.921	0.0159768
698.999	0.0159806
699.078	0.0160339
699.156	0.0160096
699.234	0.0160062
699.312	0.0160308
699.390	0.0160291
699.468	0.0159367
699.546	0.0160527
699.624	0.0159583
699.703	0.0160395
699.781	0.0160712
699.859	0.0159779
699.937	0.0160150
700.015	0.0160125
700.093	0.0160674
700.171	0.0159926
700.249	0.0160746
700.328	0.0160193
700.406	0.0160912
700.484	0.0160639
700.562	0.0160588
700.640	0.0160867
700.718	0.0160400
700.796	0.0160913
700.874	0.0160638
700.953	0.0160374
701.031	0.0160901
701.109	0.0159424
701.187	0.0159163
701.265	0.0160345
701.343	0.0162453
701.421	0.0159846
701.499	0.0159138
701.578	0.0159623
701.656	0.0160481
701.734	0.0160693
701.812	0.0161630
701.890	0.0161177
701.968	0.0160185
702.046	0.0160851
702.124	0.0162041
702.203	0.0159750
702.281	0.0159878
702.359	0.0161844
702.437	0.0160721
702.515	0.0161736
702.593	0.0160249
702.671	0.0160297
702.749	0.0160343
702.828	0.0160393
702.906	0.0160376
702.984	0.0160188
703.062	0.0161046
703.140	0.0161018
703.218	0.0161329
703.296	0.0160826
703.374	0.0161417
703.453	0.0160800
703.531	0.0161356
703.609	0.0160863
703.687	0.0161842
703.765	0.0160786
703.843	0.0162911
703.921	0.0162114
703.999	0.0160720
704.078	0.0163615
704.156	0.0161446
704.234	0.0160414
704.312	0.0161000
704.390	0.0161923
704.468	0.0161312
704.546	0.0162984
704.624	0.0160748
704.703	0.0161655
704.781	0.0161834
704.859	0.0162518
704.937	0.0161742
705.015	0.0162169
705.093	0.0162875
705.171	0.0161744
705.249	0.0162058
705.328	0.0161115
705.406	0.0162049
705.484	0.0161714
705.562	0.0163202
705.640	0.0162051
705.718	0.0162067
705.796	0.0161574
705.874	0.0162550
705.953	0.0162067
706.031	0.0160889
706.109	0.0161582
706.187	0.0162183
706.265	0.0161004
706.343	0.0162411
706.421	0.0162129
706.499	0.0162479
706.578	0.0161821
706.656	0.0162007
706.734	0.0163159
706.812	0.0161736
706.890	0.0160507
706.968	0.0161517
707.046	0.0161372
707.124	0.0161935
707.203	0.0161775
707.281	0.0161098
707.359	0.0160503
707.437	0.0162543
707.515	0.0160924
707.593	0.0162557
707.671	0.0161926
707.749	0.0162058
707.828	0.0160743
707.906	0.0160079
707.984	0.0160688
708.062	0.0161789
708.140	0.0160942
708.218	0.0160696
708.296	0.0160903
708.374	0.0160628
708.453	0.0159518
708.531	0.0161397
708.609	0.0161433
708.687	0.0161988
708.765	0.0161584
708.843	0.0161371
708.921	0.0160248
708.999	0.0161443
709.078	0.0161224
709.156	0.0161773
709.234	0.0159834
709.312	0.0159991
709.390	0.0160418
709.468	0.0161761
709.546	0.0161233
709.624	0.0161827
709.703	0.0160617
709.781	0.0161208
709.859	0.0160012
709.937	0.0160786
710.015	0.0160468
710.093	0.0160527
710.171	0.0159799
710.249	0.0160223
710.328	0.0161007
710.406	0.0159837
710.484	0.0159389
710.562	0.0159822
710.640	0.0160230
710.718	0.0160242
710.796	0.0159532
710.874	0.0158700
710.953	0.0159515
711.031	0.0159394
711.109	0.0158961
711.187	0.0158752
711.265	0.0159879
711.343	0.0159088
711.421	0.0159232
711.499	0.0158663
711.578	0.0159076
711.656	0.0158638
711.734	0.0159779
711.812	0.0159166
711.890	0.0159215
711.968	0.0159647
712.046	0.0159361
712.124	0.0159269
712.203	0.0160218
712.281	0.0159863
712.359	0.0159467
712.437	0.0159037
712.515	0.0159741
712.593	0.0160869
712.671	0.0159750
712.749	0.0159701
712.828	0.0160675
712.906	0.0161018
712.984	0.0160896
713.062	0.0158975
713.140	0.0159994
713.218	0.0159671
713.296	0.0160578
713.374	0.0162022
713.453	0.0161172
713.531	0.0162413
713.609	0.0161954
713.687	0.0160486
713.765	0.0160817
713.843	0.0161852
713.921	0.0160423
713.999	0.0159747
714.078	0.0161601
714.156	0.0162180
714.234	0.0160611
714.312	0.0160827
714.390	0.0162096
714.468	0.0161717
714.546	0.0160413
714.624	0.0161007
714.703	0.0160754
714.781	0.0159919
714.859	0.0159908
714.937	0.0160690
715.015	0.0160647
715.093	0.0161208
715.171	0.0161153
715.249	0.0159820
715.328	0.0162602
715.406	0.0160116
715.484	0.0160017
715.562	0.0160681
715.640	0.0161103
715.718	0.0160649
715.796	0.0160121
715.874	0.0160993
715.953	0.0161625
716.031	0.0161351
716.109	0.0160217
716.187	0.0160598
716.265	0.0160863
716.343	0.0161819
716.421	0.0160835
716.499	0.0160629
716.578	0.0160957
716.656	0.0160908
716.734	0.0162775
716.812	0.0160851
716.890	0.0160988
716.968	0.0162013
717.046	0.0161770
717.124	0.0161599
717.203	0.0162350
717.281	0.0162286
717.359	0.0161514
717.437	0.0162008
717.515	0.0161129
717.593	0.0160951
717.671	0.0160728
717.749	0.0162171
717.828	0.0162344
717.906	0.0160798
717.984	0.0158918
718.062	0.0160052
718.140	0.0160309
718.218	0.0160722
718.296	0.0160089
718.374	0.0160455
718.453	0.0160090
718.531	0.0159789
718.609	0.0159592
718.687	0.0158742
718.765	0.0160069
718.843	0.0159258
718.921	0.0160596
718.999	0.0158900
719.078	0.0158314
719.156	0.0159116
719.234	0.0159461
719.312	0.0159303
719.390	0.0159183
719.468	0.0159399
719.546	0.0159418
719.624	0.0160358
719.703	0.0158603
719.781	0.0158586
719.859	0.0160368
719.937	0.0159413
720.015	0.0159290
720.093	0.0159453
720.171	0.0160070
720.249	0.0159850
720.328	0.0160037
720.406	0.0160257
720.484	0.0159940
720.562	0.0159809
720.640	0.0160377
720.718	0.0160371
720.796	0.0160854
720.874	0.0160369
720.953	0.0159709
721.031	0.0160477
721.109	0.0160420
721.187	0.0161951
721.265	0.0160025
721.343	0.0159971
721.421	0.0160784
721.499	0.0160289
721.578	0.0161632
721.656	0.0161729
721.734	0.0160849
721.812	0.0161799
721.890	0.0161291
721.968	0.0162165
722.046	0.0160919
722.124	0.0161792
722.203	0.0163913
722.281	0.0162409
722.359	0.0160887
722.437	0.0162180
722.515	0.0161390
722.593	0.0161446
722.671	0.0163365
722.749	0.0161497
722.828	0.0162383
722.906	0.0162247
722.984	0.0162310
723.062	0.0161938
723.140	0.0161702
723.218	0.0162360
723.296	0.0162412
723.374	0.0161629
723.453	0.0161272
723.531	0.0161790
723.609	0.0161096
723.687	0.0161787
723.765	0.0161617
723.843	0.0161172
723.921	0.0161179
723.999	0.0160928
724.078	0.0161766
724.156	0.0160785
724.234	0.0161356
724.312	0.0160703
724.390	0.0161227
724.468	0.0160592
724.546	0.0161238
724.624	0.0162187
724.703	0.0161256
724.781	0.0161729
724.859	0.0160818
724.937	0.0160941
725.015	0.0161324
725.093	0.0161689
725.171	0.0161807
725.249	0.0161847
725.328	0.0161838
725.406	0.0161443
725.484	0.0160563
725.562	0.0160846
725.640	0.0160800
725.718	0.0160343
725.796	0.0160664
725.874	0.0160878
725.953	0.0162393
726.031	0.0160640
726.109	0.0160587
726.187	0.0160900
726.265	0.0162263
726.343	0.0161619
726.421	0.0162337
726.499	0.0161041
726.578	0.0161116
726.656	0.0160680
726.734	0.0160188
726.812	0.0160435
726.890	0.0160494
726.968	0.0160677
727.046	0.0159830
727.124	0.0159956
727.203	0.0161679
727.281	0.0161180
727.359	0.0161182
727.437	0.0162913
727.515	0.0161389
727.593	0.0160572
727.671	0.0161423
727.749	0.0160705
727.828	0.0161481
727.906	0.0162255
727.984	0.0163022
728.062	0.0161754
728.140	0.0162302
728.218	0.0163322
728.296	0.0162464
728.374	0.0160960
728.453	0.0160960
728.531	0.0161974
728.609	0.0160976
728.687	0.0162085
728.765	0.0162088
728.843	0.0160973
728.921	0.0160777
728.999	0.0161602
729.078	0.0162305
729.156	0.0160184
729.234	0.0160313
729.312	0.0160630
729.390	0.0161398
729.468	0.0160178
729.546	0.0160295
729.624	0.0160954
729.703	0.0161886
729.781	0.0160652
729.859	0.0160433
729.937	0.0161745
730.015	0.0160812
730.093	0.0160569
730.171	0.0160284
730.249	0.0162191
730.328	0.0161675
730.406	0.0160590
730.484	0.0163120
730.562	0.0161980
730.640	0.0161021
730.718	0.0160213
730.796	0.0161555
730.874	0.0163139
730.953	0.0162990
731.031	0.0161021
731.109	0.0161765
731.187	0.0161591
731.265	0.0162895
731.343	0.0162944
731.421	0.0161774
731.499	0.0161604
731.578	0.0162455
731.656	0.0161922
731.734	0.0163107
731.812	0.0163969
731.890	0.0161961
731.968	0.0162135
732.046	0.0163675
732.124	0.0162986
732.203	0.0160474
732.281	0.0160616
732.359	0.0162255
732.437	0.0161243
732.515	0.0161269
732.593	0.0161771
732.671	0.0160090
732.749	0.0162360
732.828	0.0160647
732.906	0.0160780
732.984	0.0161334
733.062	0.0160527
733.140	0.0161668
733.218	0.0160796
733.296	0.0160796
733.374	0.0160178
733.453	0.0161060
733.531	0.0160439
733.609	0.0162717
733.687	0.0162683
733.765	0.0162979
733.843	0.0160482
733.921	0.0162723
733.999	0.0161704
734.078	0.0161950
734.156	0.0163578
734.234	0.0163572
734.312	0.0163476
734.390	0.0163449
734.468	0.0161848
734.546	0.0162392
734.624	0.0162835
734.703	0.0161131
734.781	0.0161705
734.859	0.0162016
734.937	0.0162194
735.015	0.0161993
735.093	0.0162083
735.171	0.0162540
735.249	0.0161595
735.328	0.0162508
735.406	0.0160202
735.484	0.0162111
735.562	0.0161998
735.640	0.0161304
735.718	0.0162516
735.796	0.0161880
735.874	0.0162309
735.953	0.0161549
736.031	0.0161421
736.109	0.0162164
736.187	0.0161852
736.265	0.0161428
736.343	0.0161233
736.421	0.0163154
736.499	0.0162369
736.578	0.0161703
736.656	0.0162881
736.734	0.0161860
736.812	0.0161440
736.890	0.0160793
736.968	0.0162597
737.046	0.0162036
737.124	0.0161903
737.203	0.0160747
737.281	0.0160822
737.359	0.0161584
737.437	0.0161685
737.515	0.0160355
737.593	0.0160226
737.671	0.0161873
737.749	0.0161096
737.828	0.0162573
737.906	0.0160894
737.984	0.0160876
738.062	0.0161111
738.140	0.0161739
738.218	0.0161954
738.296	0.0162176
738.374	0.0161613
738.453	0.0160975
738.531	0.0162847
738.609	0.0163382
738.687	0.0161072
738.765	0.0162057
738.843	0.0161234
738.921	0.0161372
738.999	0.0161823
739.078	0.0161012
739.156	0.0161137
739.234	0.0161752
739.312	0.0159921
739.390	0.0159791
739.468	0.0159403
739.546	0.0161747
739.624	0.0161046
739.703	0.0161205
739.781	0.0160671
739.859	0.0160389
739.937	0.0161482
740.015	0.0161145
740.093	0.0162505
740.171	0.0161584
740.249	0.0160164
740.328	0.0161962
740.406	0.0160360
740.484	0.0160217
740.562	0.0160981
740.640	0.0160559
740.718	0.0161152
740.796	0.0158925
740.874	0.0160754
740.953	0.0160588
741.031	0.0160265
741.109	0.0159779
741.187	0.0160523
741.265	0.0160871
741.343	0.0160453
741.421	0.0160539
741.499	0.0160213
741.578	0.0159743
741.656	0.0161848
741.734	0.0161036
741.812	0.0159777
741.890	0.0161126
741.968	0.0160317
742.046	0.0160724
742.124	0.0161222
742.203	0.0161449
742.281	0.0161609
742.359	0.0161220
742.437	0.0160057
742.515	0.0160339
742.593	0.0160936
742.671	0.0161349
742.749	0.0159804
742.828	0.0160686
742.906	0.0159874
742.984	0.0161408
743.062	0.0160559
743.140	0.0158788
743.218	0.0160911
743.296	0.0161322
743.374	0.0160410
743.453	0.0161015
743.531	0.0159637
743.609	0.0159383
743.687	0.0159432
743.765	0.0160738
743.843	0.0159363
743.921	0.0159908
743.999	0.0160148
744.078	0.0160278
744.156	0.0159724
744.234	0.0159113
744.312	0.0159140
744.390	0.0159679
744.468	0.0159063
744.546	0.0161785
744.624	0.0160323
744.703	0.0158989
744.781	0.0159184
744.859	0.0160040
744.937	0.0160961
745.015	0.0160378
745.093	0.0159469
745.171	0.0158944
745.249	0.0160649
745.328	0.0161173
745.406	0.0160834
745.484	0.0160110
745.562	0.0160468
745.640	0.0161571
745.718	0.0163305
745.796	0.0161256
745.874	0.0163062
745.953	0.0163491
746.031	0.0161189
746.109	0.0161967
746.187	0.0162329
746.265	0.0163078
746.343	0.0162373
746.421	0.0162543
746.499	0.0163123
746.578	0.0163817
746.656	0.0162660
746.734	0.0162581
746.812	0.0160760
746.890	0.0162109
746.968	0.0162324
747.046	0.0163470
747.124	0.0161963
747.203	0.0162357
747.281	0.0162843
747.359	0.0161383
747.437	0.0161791
747.515	0.0162797
747.593	0.0161131
747.671	0.0160438
747.749	0.0160074
747.828	0.0162001
747.906	0.0161072
747.984	0.0162090
748.062	0.0161086
748.140	0.0161675
748.218	0.0160315
748.296	0.0160507
748.374	0.0160181
748.453	0.0161143
748.531	0.0159521
748.609	0.0160231
748.687	0.0161957
748.765	0.0162601
748.843	0.0161346
748.921	0.0161096
748.999	0.0162096
749.078	0.0160167
749.156	0.0160951
749.234	0.0161760
749.312	0.0161974
749.390	0.0161391
749.468	0.0161333
749.546	0.0160787
749.624	0.0161436
749.703	0.0159921
749.781	0.0160619
749.859	0.0161423
749.937	0.0160757
750.015	0.0160747
750.093	0.0160519
750.171	0.0161227
750.249	0.0162714
750.328	0.0160541
750.406	0.0161437
750.484	0.0161063
750.562	0.0160586
750.640	0.0162784
750.718	0.0161555
750.796	0.0160724
750.874	0.0162253
750.953	0.0161610
751.031	0.0161762
751.109	0.0161286
751.187	0.0161192
751.265	0.0161831
751.343	0.0161613
751.421	0.0161699
751.499	0.0160952
751.578	0.0161102
751.656	0.0159271
751.734	0.0160015
751.812	0.0162644
751.890	0.0161787
751.968	0.0161970
752.046	0.0161985
752.124	0.0161016
752.203	0.0161021
752.281	0.0161760
752.359	0.0160809
752.437	0.0163024
752.515	0.0162475
752.593	0.0162198
752.671	0.0162617
752.749	0.0160739
752.828	0.0160670
752.906	0.0161971
752.984	0.0159423
753.062	0.0160526
753.140	0.0160009
753.218	0.0161197
753.296	0.0161246
753.374	0.0160675
753.453	0.0161423
753.531	0.0160978
753.609	0.0160899
753.687	0.0160482
753.765	0.0161231
753.843	0.0161324
753.921	0.0162166
753.999	0.0161162
754.078	0.0162534
754.156	0.0160760
754.234	0.0160905
754.312	0.0161993
754.390	0.0160409
754.468	0.0161439
754.546	0.0161763
754.624	0.0160374
754.703	0.0161492
754.781	0.0160046
754.859	0.0161436
754.937	0.0161700
755.015	0.0160799
755.093	0.0161260
755.171	0.0161165
755.249	0.0159665
755.328	0.0160473
755.406	0.0162302
755.484	0.0161477
755.562	0.0161280
755.640	0.0160377
755.718	0.0161477
755.796	0.0160529
755.874	0.0160565
755.953	0.0161079
756.031	0.0161372
756.109	0.0160831
756.187	0.0161106
756.265	0.0160259
756.343	0.0159785
756.421	0.0159145
756.499	0.0160555
756.578	0.0157973
756.656	0.0158984
756.734	0.0159786
756.812	0.0159328
756.890	0.0158353
756.968	0.0158300
757.046	0.0158290
757.124	0.0159026
757.203	0.0159805
757.281	0.0160601
757.359	0.0160193
757.437	0.0159954
757.515	0.0160078
757.593	0.0159624
757.671	0.0158302
757.749	0.0159696
757.828	0.0160187
757.906	0.0160182
757.984	0.0159824
758.062	0.0159550
758.140	0.0160674
758.218	0.0158878
758.296	0.0159895
758.374	0.0159851
758.453	0.0159934
758.531	0.0159200
758.609	0.0159825
758.687	0.0160378
758.765	0.0158385
758.843	0.0159642
758.921	0.0159900
758.999	0.0160487
759.078	0.0161723
759.156	0.0161530
759.234	0.0160435
759.312	0.0159686
759.390	0.0161462
759.468	0.0160768
759.546	0.0161786
759.624	0.0159328
759.703	0.0160387
759.781	0.0158978
759.859	0.0159811
759.937	0.0159666
760.015	0.0159509
760.093	0.0160674
760.171	0.0159947
760.249	0.0159976
760.328	0.0159666
760.406	0.0159604
760.484	0.0160533
760.562	0.0160462
760.640	0.0159647
760.718	0.0159971
760.796	0.0161988
760.874	0.0159505
760.953	0.0160760
761.031	0.0160706
761.109	0.0160324
761.187	0.0159216
761.265	0.0158595
761.343	0.0159258
761.421	0.0158808
761.499	0.0159304
761.578	0.0157727
761.656	0.0158440
761.734	0.0158270
761.812	0.0158062
761.890	0.0158492
761.968	0.0158447
762.046	0.0158270
762.124	0.0159191
762.203	0.0158877
762.281	0.0158234
762.359	0.0159190
762.437	0.0160015
762.515	0.0159786
762.593	0.0159399
762.671	0.0159448
762.749	0.0159176
762.828	0.0160094
762.906	0.0159837
762.984	0.0159108
763.062	0.0159381
763.140	0.0160031
763.218	0.0160475
763.296	0.0160283
763.374	0.0160756
763.453	0.0161089
763.531	0.0160246
763.609	0.0160488
763.687	0.0161325
763.765	0.0162186
763.843	0.0160989
763.921	0.0160262
763.999	0.0160587
764.078	0.0159810
764.156	0.0159882
764.234	0.0159688
764.312	0.0159577
764.390	0.0161863
764.468	0.0158849
764.546	0.0160588
764.624	0.0158399
764.703	0.0159363
764.781	0.0160230
764.859	0.0160191
764.937	0.0160616
765.015	0.0160101
765.093	0.0159165
765.171	0.0159863
765.249	0.0160558
765.328	0.0160606
765.406	0.0159793
765.484	0.0159134
765.562	0.0158644
765.640	0.0161926
765.718	0.0161026
765.796	0.0160114
765.874	0.0159613
765.953	0.0160358
766.031	0.0160326
766.109	0.0160873
766.187	0.0158839
766.265	0.0158717
766.343	0.0158745
766.421	0.0157714
766.499	0.0159467
766.578	0.0156841
766.656	0.0157114
766.734	0.0159109
766.812	0.0159913
766.890	0.0158368
766.968	0.0158660
767.046	0.0159982
767.124	0.0159827
767.203	0.0158430
767.281	0.0159776
767.359	0.0160421
767.437	0.0161538
767.515	0.0160874
767.593	0.0159091
767.671	0.0160339
767.749	0.0161453
767.828	0.0162691
767.906	0.0162337
767.984	0.0161277
768.062	0.0162494
768.140	0.0163717
768.218	0.0164704
768.296	0.0162409
768.374	0.0162151
768.453	0.0164031
768.531	0.0162752
768.609	0.0162109
768.687	0.0161449
768.765	0.0161352
768.843	0.0161267
768.921	0.0161395
768.999	0.0161877
769.078	0.0160596
769.156	0.0161616
769.234	0.0160651
769.312	0.0160892
769.390	0.0161004
769.468	0.0160444
769.546	0.0159953
769.624	0.0162354
769.703	0.0159822
769.781	0.0159115
769.859	0.0161160
769.937	0.0160849
770.015	0.0160754
770.093	0.0159402
770.171	0.0160760
770.249	0.0160643
770.328	0.0159106
770.406	0.0159266
770.484	0.0160329
770.562	0.0160292
770.640	0.0159107
770.718	0.0159778
770.796	0.0161420
770.874	0.0159140
770.953	0.0159340
771.031	0.0160901
771.109	0.0160658
771.187	0.0159715
771.265	0.0160369
771.343	0.0161027
771.421	0.0161413
771.499	0.0161405
771.578	0.0161419
771.656	0.0162161
771.734	0.0161774
771.812	0.0163260
771.890	0.0160843
771.968	0.0161195
772.046	0.0160485
772.124	0.0161662
772.203	0.0161368
772.281	0.0161914
772.359	0.0158552
772.437	0.0161219
772.515	0.0162490
772.593	0.0161934
772.671	0.0162324
772.749	0.0161639
772.828	0.0161805
772.906	0.0162125
772.984	0.0162521
773.062	0.0161974
773.140	0.0162597
773.218	0.0161816
773.296	0.0160944
773.374	0.0160938
773.453	0.0161723
773.531	0.0160105
773.609	0.0159608
773.687	0.0161009
773.765	0.0161535
773.843	0.0160628
773.921	0.0160867
773.999	0.0160267
774.078	0.0160402
774.156	0.0162293
774.234	0.0160593
774.312	0.0161256
774.390	0.0160744
774.468	0.0161335
774.546	0.0161763
774.624	0.0161501
774.703	0.0159850
774.781	0.0160745
774.859	0.0161687
774.937	0.0160252
775.015	0.0160548
775.093	0.0160351
775.171	0.0161175
775.249	0.0161361
775.328	0.0161379
775.406	0.0160958
775.484	0.0159834
775.562	0.0160217
775.640	0.0161615
775.718	0.0162067
775.796	0.0161390
775.874	0.0162522
775.953	0.0163139
776.031	0.0163147
776.109	0.0163057
776.187	0.0162887
776.265	0.0163142
776.343	0.0161907
776.421	0.0160913
776.499	0.0162656
776.578	0.0161789
776.656	0.0160423
776.734	0.0160197
776.812	0.0158878
776.890	0.0160361
776.968	0.0159258
777.046	0.0159354
777.124	0.0159143
777.203	0.0159946
777.281	0.0159715
777.359	0.0160005
777.437	0.0160164
777.515	0.0158793
777.593	0.0158880
777.671	0.0159533
777.749	0.0159753
777.828	0.0161264
777.906	0.0161164
777.984	0.0160200
778.062	0.0161974
778.140	0.0161430
778.218	0.0162432
778.296	0.0163036
778.374	0.0162443
778.453	0.0160947
778.531	0.0163000
778.609	0.0163501
778.687	0.0163017
778.765	0.0162001
778.843	0.0161218
778.921	0.0163290
778.999	0.0161729
779.078	0.0162666
779.156	0.0161832
779.234	0.0162379
779.312	0.0161343
779.390	0.0161279
779.468	0.0161507
779.546	0.0161222
779.624	0.0160165
779.703	0.0159674
779.781	0.0161358
779.859	0.0160006
779.937	0.0159740
780.015	0.0160383
780.093	0.0159431
780.171	0.0159694
780.249	0.0159477
780.328	0.0160815
780.406	0.0160563
780.484	0.0160089
780.562	0.0159357
780.640	0.0160302
780.718	0.0160034
780.796	0.0160052
780.874	0.0160037
780.953	0.0160015
781.031	0.0160612
781.109	0.0158717
781.187	0.0158865
781.265	0.0158411
781.343	0.0158356
781.421	0.0158582
781.499	0.0157991
781.578	0.0158208
781.656	0.0158160
781.734	0.0159370
781.812	0.0159652
781.890	0.0159461
781.968	0.0160256
782.046	0.0162110
782.124	0.0160991
782.203	0.0159641
782.281	0.0159467
782.359	0.0159249
782.437	0.0160928
782.515	0.0159275
782.593	0.0158492
782.671	0.0159241
782.749	0.0159274
782.828	0.0159156
782.906	0.0158619
782.984	0.0159201
783.062	0.0159473
783.140	0.0159335
783.218	0.0159681
783.296	0.0158722
783.374	0.0159032
783.453	0.0160424
783.531	0.0159354
783.609	0.0158696
783.687	0.0159307
783.765	0.0160446
783.843	0.0159248
783.921	0.0159762
783.999	0.0161002
784.078	0.0160381
784.156	0.0160173
784.234	0.0159998
784.312	0.0158160
784.390	0.0159187
784.468	0.0158911
784.546	0.0160800
784.624	0.0159103
784.703	0.0159055
784.781	0.0158995
784.859	0.0158753
784.937	0.0158083
785.015	0.0157877
785.093	0.0159496
785.171	0.0158287
785.249	0.0159380
785.328	0.0159312
785.406	0.0158666
785.484	0.0159695
785.562	0.0159624
785.640	0.0160699
785.718	0.0160641
785.796	0.0159682
785.874	0.0160252
785.953	0.0158807
786.031	0.0158698
786.109	0.0159074
786.187	0.0160741
786.265	0.0161156
786.343	0.0159936
786.421	0.0158414
786.499	0.0160001
786.578	0.0160654
786.656	0.0161928
786.734	0.0160468
786.812	0.0160940
786.890	0.0160666
786.968	0.0159979
787.046	0.0158826
787.124	0.0159678
787.203	0.0159824
787.281	0.0159015
787.359	0.0160014
787.437	0.0159660
787.515	0.0159008
787.593	0.0160147
787.671	0.0159480
787.749	0.0159379
787.828	0.0160579
787.906	0.0159909
787.984	0.0160084
788.062	0.0161071
788.140	0.0160193
788.218	0.0160822
788.296	0.0161976
788.374	0.0161652
788.453	0.0161552
788.531	0.0160815
788.609	0.0161808
788.687	0.0162012
788.765	0.0160625
788.843	0.0162887
788.921	0.0162170
788.999	0.0162050
789.078	0.0161653
789.156	0.0161385
789.234	0.0161679
789.312	0.0162650
789.390	0.0161931
789.468	0.0163242
789.546	0.0161961
789.624	0.0161401
789.703	0.0160932
789.781	0.0161951
789.859	0.0161635
789.937	0.0160785
790.015	0.0159612
790.093	0.0161007
790.171	0.0159743
790.249	0.0160323
790.328	0.0159491
790.406	0.0159147
790.484	0.0158760
790.562	0.0158907
790.640	0.0158998
790.718	0.0159433
790.796	0.0159856
790.874	0.0157998
790.953	0.0158377
791.031	0.0158588
791.109	0.0159107
791.187	0.0159476
791.265	0.0159356
791.343	0.0160328
791.421	0.0160104
791.499	0.0160139
791.578	0.0160584
791.656	0.0158887
791.734	0.0159738
791.812	0.0161532
791.890	0.0162708
791.968	0.0161199
792.046	0.0160286
792.124	0.0162598
792.203	0.0162607
792.281	0.0162209
792.359	0.0162350
792.437	0.0162876
792.515	0.0163564
792.593	0.0162487
792.671	0.0163554
792.749	0.0161405
792.828	0.0162738
792.906	0.0163896
792.984	0.0163235
793.062	0.0162647
793.140	0.0161817
793.218	0.0161467
793.296	0.0162006
793.374	0.0161102
793.453	0.0161966
793.531	0.0162598
793.609	0.0161691
793.687	0.0160231
793.765	0.0160741
793.843	0.0161082
793.921	0.0160703
793.999	0.0160670
794.078	0.0161550
794.156	0.0161611
794.234	0.0161227
794.312	0.0160422
794.390	0.0159970
794.468	0.0161916
794.546	0.0161729
794.624	0.0160973
794.703	0.0160770
794.781	0.0160313
794.859	0.0160270
794.937	0.0159865
795.015	0.0159338
795.093	0.0159737
795.171	0.0160638
795.249	0.0160076
795.328	0.0161280
795.406	0.0161270
795.484	0.0159151
795.562	0.0159656
795.640	0.0161452
795.718	0.0160043
795.796	0.0160276
795.874	0.0160072
795.953	0.0161488
796.031	0.0160346
796.109	0.0159946
796.187	0.0159936
796.265	0.0160967
796.343	0.0161320
796.421	0.0161305
796.499	0.0160670
796.578	0.0160480
796.656	0.0160738
796.734	0.0160180
796.812	0.0160865
796.890	0.0162250
796.968	0.0162881
797.046	0.0161446
797.124	0.0162335
797.203	0.0161549
797.281	0.0162549
797.359	0.0163280
797.437	0.0162521
797.515	0.0164369
797.593	0.0162662
797.671	0.0161934
797.749	0.0163042
797.828	0.0162323
797.906	0.0161539
797.984	0.0161197
798.062	0.0161011
798.140	0.0161707
798.218	0.0162134
798.296	0.0161123
798.374	0.0159725
798.453	0.0160526
798.531	0.0161823
798.609	0.0161624
798.687	0.0160000
798.765	0.0161449
798.843	0.0160320
798.921	0.0160965
798.999	0.0160448
799.078	0.0160418
799.156	0.0160553
799.234	0.0160579
799.312	0.0161774
799.390	0.0159908
799.468	0.0161507
799.546	0.0162108
799.624	0.0161212
799.703	0.0159937
799.781	0.0161848
799.859	0.0160326
799.937	0.0159254
800.015	0.0160550
800.093	0.0162091
800.171	0.0161096
800.249	0.0159790
800.328	0.0161285
800.406	0.0162038
800.484	0.0162370
800.562	0.0161668
800.640	0.0161525
800.718	0.0161726
800.796	0.0160770
800.874	0.0160461
800.953	0.0161327
801.031	0.0162189
801.109	0.0160454
801.187	0.0160429
801.265	0.0160629
801.343	0.0160047
801.421	0.0160732
801.499	0.0159500
801.578	0.0159518
801.656	0.0159537
801.734	0.0160559
801.812	0.0158663
801.890	0.0160938
801.968	0.0160935
802.046	0.0160347
802.124	0.0160320
802.203	0.0159978
802.281	0.0161312
802.359	0.0160427
802.437	0.0159802
802.515	0.0162331
802.593	0.0161920
802.671	0.0160023
802.749	0.0161428
802.828	0.0160972
802.906	0.0162375
802.984	0.0161864
803.062	0.0161671
803.140	0.0161697
803.218	0.0161898
803.296	0.0162565
803.374	0.0162284
803.453	0.0161597
803.531	0.0161404
803.609	0.0162507
803.687	0.0162273
803.765	0.0162048
803.843	0.0162287
803.921	0.0162119
803.999	0.0161678
804.078	0.0161591
804.156	0.0162868
804.234	0.0161946
804.312	0.0161854
804.390	0.0162073
804.468	0.0161340
804.546	0.0160239
804.624	0.0161671
804.703	0.0161980
804.781	0.0160822
804.859	0.0160023
804.937	0.0159464
805.015	0.0159788
805.093	0.0160249
805.171	0.0160865
805.249	0.0160490
805.328	0.0161565
805.406	0.0159766
805.484	0.0159694
805.562	0.0160078
805.640	0.0160404
805.718	0.0160172
805.796	0.0159998
805.874	0.0160681
805.953	0.0161263
806.031	0.0160229
806.109	0.0161448
806.187	0.0160777
806.265	0.0160551
806.343	0.0161634
806.421	0.0160754
806.499	0.0161336
806.578	0.0160932
806.656	0.0160334
806.734	0.0162124
806.812	0.0159642
806.890	0.0159783
806.968	0.0160715
807.046	0.0161269
807.124	0.0161095
807.203	0.0161112
807.281	0.0161120
807.359	0.0161693
807.437	0.0160197
807.515	0.0160349
807.593	0.0160646
807.671	0.0160727
807.749	0.0160276
807.828	0.0160021
807.906	0.0161092
807.984	0.0160823
808.062	0.0161072
808.140	0.0160489
808.218	0.0160207
808.296	0.0161320
808.374	0.0161082
808.453	0.0161343
808.531	0.0160706
808.609	0.0161524
808.687	0.0162609
808.765	0.0162395
808.843	0.0160812
808.921	0.0162108
808.999	0.0161521
809.078	0.0162173
809.156	0.0161177
809.234	0.0160920
809.312	0.0160590
809.390	0.0160903
809.468	0.0161397
809.546	0.0161656
809.624	0.0160909
809.703	0.0162679
809.781	0.0163364
809.859	0.0161668
809.937	0.0161053
810.015	0.0162614
810.093	0.0163100
810.171	0.0163281
810.249	0.0162080
810.328	0.0162257
810.406	0.0161166
810.484	0.0163553
810.562	0.0162383
810.640	0.0161258
810.718	0.0162783
810.796	0.0162789
810.874	0.0162817
810.953	0.0163299
811.031	0.0163260
811.109	0.0162754
811.187	0.0162140
811.265	0.0161264
811.343	0.0161295
811.421	0.0161472
811.499	0.0162254
811.578	0.0161640
811.656	0.0162494
811.734	0.0161688
811.812	0.0162573
811.890	0.0162154
811.968	0.0161475
812.046	0.0162272
812.124	0.0162135
812.203	0.0161807
812.281	0.0161698
812.359	0.0161400
812.437	0.0163644
812.515	0.0163531
812.593	0.0161898
812.671	0.0162066
812.749	0.0162996
812.828	0.0163899
812.906	0.0162557
812.984	0.0163252
813.062	0.0162711
813.140	0.0163621
813.218	0.0161646
813.296	0.0161412
813.374	0.0163241
813.453	0.0162347
813.531	0.0162518
813.609	0.0162415
813.687	0.0161887
813.765	0.0160339
813.843	0.0159312
813.921	0.0159838
813.999	0.0161285
814.078	0.0160208
814.156	0.0160049
814.234	0.0159289
814.312	0.0160283
814.390	0.0160640
814.468	0.0160805
814.546	0.0159491
814.624	0.0159624
814.703	0.0160663
814.781	0.0159641
814.859	0.0160712
814.937	0.0161283
815.015	0.0160191
815.093	0.0160383
815.171	0.0160885
815.249	0.0159419
815.328	0.0158532
815.406	0.0160014
815.484	0.0160995
815.562	0.0160493
815.640	0.0160209
815.718	0.0162136
815.796	0.0161172
815.874	0.0162831
815.953	0.0161769
816.031	0.0162341
816.109	0.0162169
816.187	0.0161905
816.265	0.0163490
816.343	0.0162653
816.421	0.0161587
816.499	0.0162605
816.578	0.0163565
816.656	0.0163599
816.734	0.0161852
816.812	0.0163194
816.890	0.0163267
816.968	0.0163994
817.046	0.0163690
817.124	0.0162021
817.203	0.0162016
817.281	0.0161946
817.359	0.0162010
817.437	0.0161961
817.515	0.0160768
817.593	0.0162324
817.671	0.0161530
817.749	0.0162495
817.828	0.0161143
817.906	0.0159977
817.984	0.0161710
818.062	0.0161820
818.140	0.0160608
818.218	0.0159430
818.296	0.0159583
818.374	0.0160760
818.453	0.0160921
818.531	0.0159643
818.609	0.0160104
818.687	0.0160355
818.765	0.0162884
818.843	0.0161016
818.921	0.0161434
818.999	0.0162908
819.078	0.0160837
819.156	0.0162103
819.234	0.0162930
819.312	0.0161527
819.390	0.0161827
819.468	0.0162601
819.546	0.0162419
819.624	0.0161106
819.703	0.0161782
819.781	0.0161887
819.859	0.0161969
819.937	0.0161749
820.015	0.0161397
820.093	0.0161763
820.171	0.0161980
820.249	0.0160788
820.328	0.0161790
820.406	0.0161678
820.484	0.0162276
820.562	0.0161820
820.640	0.0161772
820.718	0.0161591
820.796	0.0162041
820.874	0.0163631
820.953	0.0161868
821.031	0.0161629
821.109	0.0161435
821.187	0.0161967
821.265	0.0161219
821.343	0.0160695
821.421	0.0159665
821.499	0.0160677
821.578	0.0160386
821.656	0.0158966
821.734	0.0159616
821.812	0.0158949
821.890	0.0160403
821.968	0.0161358
822.046	0.0159966
822.124	0.0161330
822.203	0.0160574
822.281	0.0161811
822.359	0.0161643
822.437	0.0161732
822.515	0.0162321
822.593	0.0162574
822.671	0.0162004
822.749	0.0161622
822.828	0.0161092
822.906	0.0161144
822.984	0.0161018
823.062	0.0161501
823.140	0.0160121
823.218	0.0160049
823.296	0.0160945
823.374	0.0160429
823.453	0.0160378
823.531	0.0161156
823.609	0.0159434
823.687	0.0160672
823.765	0.0161968
823.843	0.0161132
823.921	0.0160074
823.999	0.0161123
824.078	0.0162936
824.156	0.0161944
824.234	0.0162099
824.312	0.0161582
824.390	0.0161779
824.468	0.0161381
824.546	0.0161671
824.624	0.0161873
824.703	0.0160761
824.781	0.0161575
824.859	0.0161710
824.937	0.0161391
825.015	0.0160681
825.093	0.0160168
825.171	0.0160526
825.249	0.0161071
825.328	0.0161111
825.406	0.0160890
825.484	0.0161957
825.562	0.0162205
825.640	0.0161741
825.718	0.0161156
825.796	0.0161956
825.874	0.0161864
825.953	0.0162369
826.031	0.0162881
826.109	0.0161835
826.187	0.0161063
826.265	0.0163020
826.343	0.0163429
826.421	0.0162550
826.499	0.0162779
826.578	0.0160957
826.656	0.0162022
826.734	0.0162129
826.812	0.0161987
826.890	0.0161786
826.968	0.0162071
827.046	0.0162585
827.124	0.0162543
827.203	0.0161169
827.281	0.0161084
827.359	0.0162293
827.437	0.0160983
827.515	0.0160647
827.593	0.0159261
827.671	0.0159835
827.749	0.0159065
827.828	0.0158875
827.906	0.0157610
827.984	0.0158663
828.062	0.0158492
828.140	0.0157143
828.218	0.0158720
828.296	0.0156783
828.374	0.0157365
828.453	0.0157625
828.531	0.0158749
828.609	0.0159016
828.687	0.0159068
828.765	0.0159739
828.843	0.0160080
828.921	0.0159474
828.999	0.0160290
829.078	0.0160019
829.156	0.0161990
829.234	0.0163010
829.312	0.0161591
829.390	0.0162090
829.468	0.0163560
829.546	0.0162718
829.624	0.0162522
829.703	0.0161677
829.781	0.0162024
829.859	0.0162490
829.937	0.0162838
830.015	0.0161694
830.093	0.0161523
830.171	0.0162503
830.249	0.0161362
830.328	0.0159865
830.406	0.0159978
830.484	0.0159934
830.562	0.0160423
830.640	0.0161159
830.718	0.0161040
830.796	0.0160674
830.874	0.0158736
830.953	0.0159872
831.031	0.0159208
831.109	0.0158649
831.187	0.0158655
831.265	0.0159851
831.343	0.0159828
831.421	0.0158865
831.499	0.0159139
831.578	0.0158975
831.656	0.0158989
831.734	0.0159873
831.812	0.0160502
831.890	0.0158711
831.968	0.0158363
832.046	0.0158140
832.124	0.0158448
832.203	0.0159849
832.281	0.0158813
832.359	0.0158823
832.437	0.0158864
832.515	0.0158363
832.593	0.0158302
832.671	0.0158488
832.749	0.0157732
832.828	0.0160244
832.906	0.0159103
832.984	0.0158800
833.062	0.0159808
833.140	0.0159088
833.218	0.0159628
833.296	0.0158675
833.374	0.0158723
833.453	0.0161089
833.531	0.0159953
833.609	0.0160355
833.687	0.0160748
833.765	0.0162041
833.843	0.0161667
833.921	0.0162630
833.999	0.0163277
834.078	0.0163649
834.156	0.0163192
834.234	0.0162463
834.312	0.0164274
834.390	0.0162923
834.468	0.0162287
834.546	0.0163406
834.624	0.0161831
834.703	0.0162825
834.781	0.0161454
834.859	0.0161417
834.937	0.0161468
835.015	0.0161247
835.093	0.0160783
835.171	0.0160175
835.249	0.0160363
835.328	0.0157776
835.406	0.0158768
835.484	0.0158148
835.562	0.0157096
835.640	0.0158668
835.718	0.0159478
835.796	0.0157871
835.874	0.0156893
835.953	0.0158232
836.031	0.0159170
836.109	0.0158853
836.187	0.0159226
836.265	0.0161259
836.343	0.0159132
836.421	0.0160278
836.499	0.0161216
836.578	0.0162759
836.656	0.0162450
836.734	0.0164609
836.812	0.0163136
836.890	0.0166582
836.968	0.0165281
837.046	0.0165951
837.124	0.0165668
837.203	0.0165501
837.281	0.0165217
837.359	0.0165796
837.437	0.0167303
837.515	0.0164060
837.593	0.0163444
837.671	0.0163622
837.749	0.0164204
837.828	0.0163103
837.906	0.0162666
837.984	0.0160954
838.062	0.0160513
838.140	0.0160068
838.218	0.0160099
838.296	0.0159719
838.374	0.0159030
838.453	0.0160157
838.531	0.0159025
838.609	0.0159058
838.687	0.0158886
838.765	0.0159999
838.843	0.0159563
838.921	0.0160431
838.999	0.0159134
839.078	0.0160110
839.156	0.0161432
839.234	0.0160933
839.312	0.0160552
839.390	0.0161230
839.468	0.0162220
839.546	0.0165154
839.624	0.0161141
839.703	0.0161526
839.781	0.0161969
839.859	0.0161799
839.937	0.0163384
840.015	0.0163754
840.093	0.0162457
840.171	0.0162206
840.249	0.0163516
840.328	0.0163748
840.406	0.0161933
840.484	0.0162696
840.562	0.0162059
840.640	0.0160516
840.718	0.0161232
840.796	0.0162067
840.874	0.0161198
840.953	0.0160685
841.031	0.0160232
841.109	0.0160388
841.187	0.0160175
841.265	0.0159978
841.343	0.0159334
841.421	0.0158316
841.499	0.0160094
841.578	0.0160126
841.656	0.0158460
841.734	0.0159299
841.812	0.0160384
841.890	0.0160509
841.968	0.0161636
842.046	0.0160639
842.124	0.0160014
842.203	0.0161182
842.281	0.0162586
842.359	0.0161560
842.437	0.0161320
842.515	0.0161542
842.593	0.0160403
842.671	0.0161692
842.749	0.0163355
842.828	0.0162144
842.906	0.0162161
842.984	0.0161491
843.062	0.0161059
843.140	0.0161256
843.218	0.0160027
843.296	0.0160294
843.374	0.0161781
843.453	0.0161148
843.531	0.0160188
843.609	0.0160683
843.687	0.0158285
843.765	0.0160286
843.843	0.0160045
843.921	0.0159592
843.999	0.0160144
844.078	0.0160532
844.156	0.0159206
844.234	0.0159560
844.312	0.0159409
844.390	0.0160383
844.468	0.0160059
844.546	0.0159257
844.624	0.0160056
844.703	0.0159995
844.781	0.0159554
844.859	0.0159714
844.937	0.0161647
845.015	0.0161220
845.093	0.0161031
845.171	0.0160991
845.249	0.0161649
845.328	0.0161075
845.406	0.0161255
845.484	0.0160649
845.562	0.0159734
845.640	0.0161073
845.718	0.0161280
845.796	0.0161835
845.874	0.0159752
845.953	0.0160123
846.031	0.0161137
846.109	0.0160639
846.187	0.0160519
846.265	0.0160948
846.343	0.0160582
846.421	0.0161472
846.499	0.0161362
846.578	0.0160803
846.656	0.0162061
846.734	0.0161875
846.812	0.0161238
846.890	0.0162543
846.968	0.0161815
847.046	0.0161776
847.124	0.0161026
847.203	0.0161237
847.281	0.0162450
847.359	0.0162375
847.437	0.0160703
847.515	0.0160220
847.593	0.0161419
847.671	0.0161108
847.749	0.0160043
847.828	0.0160879
847.906	0.0159763
847.984	0.0159805
848.062	0.0160620
848.140	0.0161039
848.218	0.0161080
848.296	0.0159438
848.374	0.0159406
848.453	0.0161870
848.531	0.0160229
848.609	0.0160007
848.687	0.0160868
848.765	0.0160571
848.843	0.0160662
848.921	0.0161467
848.999	0.0159197
849.078	0.0160638
849.156	0.0161031
849.234	0.0160338
849.312	0.0160126
849.390	0.0160231
849.468	0.0161687
849.546	0.0159712
849.624	0.0160629
849.703	0.0161287
849.781	0.0162409
849.859	0.0161311
849.937	0.0161417
850.015	0.0160462
850.093	0.0160184
850.171	0.0161115
850.249	0.0161491
850.328	0.0159171
850.406	0.0161526
850.484	0.0161040
850.562	0.0160622
850.640	0.0160342
850.718	0.0159890
850.796	0.0159886
850.874	0.0160092
850.953	0.0159103
851.031	0.0159077
851.109	0.0159280
851.187	0.0159283
851.265	0.0158108
851.343	0.0158626
851.421	0.0158562
851.499	0.0157462
851.578	0.0158566
851.656	0.0159428
851.734	0.0157287
851.812	0.0159293
851.890	0.0158575
851.968	0.0158634
852.046	0.0159969
852.124	0.0158363
852.203	0.0157843
852.281	0.0159139
852.359	0.0158657
852.437	0.0159373
852.515	0.0158003
852.593	0.0158231
852.671	0.0159696
852.749	0.0158126
852.828	0.0159451
852.906	0.0160107
852.984	0.0158978
853.062	0.0159475
853.140	0.0160063
853.218	0.0159514
853.296	0.0158514
853.374	0.0158464
853.453	0.0160188
853.531	0.0159795
853.609	0.0160542
853.687	0.0159856
853.765	0.0158934
853.843	0.0159909
853.921	0.0160547
853.999	0.0159877
854.078	0.0160612
854.156	0.0160985
854.234	0.0160040
854.312	0.0157526
854.390	0.0160304
854.468	0.0158782
854.546	0.0159656
854.624	0.0160117
854.703	0.0160254
854.781	0.0159630
854.859	0.0159444
854.937	0.0159235
855.015	0.0159911
855.093	0.0159803
855.171	0.0158270
855.249	0.0159279
855.328	0.0159076
855.406	0.0160142
855.484	0.0159327
855.562	0.0158752
855.640	0.0159376
855.718	0.0159342
855.796	0.0158198
855.874	0.0158441
855.953	0.0160931
856.031	0.0159312
856.109	0.0160283
856.187	0.0160338
856.265	0.0160206
856.343	0.0159905
856.421	0.0159661
856.499	0.0158704
856.578	0.0161012
856.656	0.0159935
856.734	0.0160628
856.812	0.0159897
856.890	0.0159778
856.968	0.0160772
857.046	0.0160150
857.124	0.0163114
857.203	0.0162405
857.281	0.0160743
857.359	0.0161710
857.437	0.0161876
857.515	0.0161758
857.593	0.0160476
857.671	0.0162064
857.749	0.0160986
857.828	0.0161464
857.906	0.0163328
857.984	0.0161000
858.062	0.0159865
858.140	0.0160057
858.218	0.0160047
858.296	0.0160051
858.374	0.0160288
858.453	0.0160686
858.531	0.0161250
858.609	0.0159624
858.687	0.0160278
858.765	0.0160400
858.843	0.0159719
858.921	0.0159416
858.999	0.0159934
859.078	0.0159911
859.156	0.0158814
859.234	0.0159528
859.312	0.0158736
859.390	0.0159636
859.468	0.0159644
859.546	0.0158547
859.624	0.0160207
859.703	0.0159608
859.781	0.0160474
859.859	0.0160056
859.937	0.0159510
860.015	0.0159648
860.093	0.0159462
860.171	0.0159949
860.249	0.0159284
860.328	0.0159660
860.406	0.0160336
860.484	0.0160275
860.562	0.0161212
860.640	0.0159964
860.718	0.0161359
860.796	0.0162614
860.874	0.0161476
860.953	0.0160996
861.031	0.0162001
861.109	0.0161549
861.187	0.0161917
861.265	0.0162653
861.343	0.0162309
861.421	0.0162673
861.499	0.0162451
861.578	0.0161716
861.656	0.0161954
861.734	0.0161716
861.812	0.0160287
861.890	0.0161023
861.968	0.0160035
862.046	0.0159885
862.124	0.0159698
862.203	0.0159065
862.281	0.0158534
862.359	0.0159704
862.437	0.0159370
862.515	0.0159895
862.593	0.0159089
862.671	0.0159670
862.749	0.0157505
862.828	0.0158807
862.906	0.0159527
862.984	0.0158830
863.062	0.0159241
863.140	0.0160530
863.218	0.0160594
863.296	0.0160046
863.374	0.0159837
863.453	0.0159762
863.531	0.0159729
863.609	0.0159558
863.687	0.0161697
863.765	0.0161761
863.843	0.0161713
863.921	0.0160115
863.999	0.0161045
864.078	0.0160835
864.156	0.0161424
864.234	0.0160866
864.312	0.0161397
864.390	0.0161947
864.468	0.0162917
864.546	0.0161465
864.624	0.0160864
864.703	0.0161352
864.781	0.0161223
864.859	0.0160381
864.937	0.0161391
865.015	0.0160963
865.093	0.0161258
865.171	0.0159594
865.249	0.0160165
865.328	0.0160181
865.406	0.0159886
865.484	0.0161568
865.562	0.0158920
865.640	0.0159499
865.718	0.0158405
865.796	0.0159624
865.874	0.0160242
865.953	0.0158217
866.031	0.0159905
866.109	0.0159676
866.187	0.0159290
866.265	0.0159534
866.343	0.0157549
866.421	0.0158038
866.499	0.0159754
866.578	0.0159778
866.656	0.0159107
866.734	0.0158977
866.812	0.0159855
866.890	0.0159398
866.968	0.0158951
867.046	0.0161429
867.124	0.0159792
867.203	0.0159321
867.281	0.0160912
867.359	0.0159671
867.437	0.0160960
867.515	0.0160162
867.593	0.0161479
867.671	0.0161892
867.749	0.0161089
867.828	0.0161624
867.906	0.0161573
867.984	0.0161742
868.062	0.0163209
868.140	0.0162096
868.218	0.0161925
868.296	0.0162505
868.374	0.0162725
868.453	0.0161729
868.531	0.0162523
868.609	0.0162683
868.687	0.0161634
868.765	0.0161436
868.843	0.0160916
868.921	0.0161160
868.999	0.0161778
869.078	0.0162475
869.156	0.0161977
869.234	0.0161369
869.312	0.0162744
869.390	0.0161658
869.468	0.0161964
869.546	0.0160205
869.624	0.0160782
869.703	0.0162083
869.781	0.0160469
869.859	0.0159995
869.937	0.0160991
870.015	0.0162021
870.093	0.0160236
870.171	0.0161138
870.249	0.0161601
870.328	0.0160709
870.406	0.0161157
870.484	0.0160554
870.562	0.0162565
870.640	0.0161568
870.718	0.0161147
870.796	0.0162492
870.874	0.0161029
870.953	0.0160650
871.031	0.0161361
871.109	0.0161094
871.187	0.0162000
871.265	0.0161440
871.343	0.0160897
871.421	0.0163264
871.499	0.0162029
871.578	0.0160358
871.656	0.0161478
871.734	0.0161269
871.812	0.0160893
871.890	0.0161616
871.968	0.0162556
872.046	0.0160632
872.124	0.0160106
872.203	0.0161448
872.281	0.0161028
872.359	0.0160940
872.437	0.0159803
872.515	0.0160184
872.593	0.0160266
872.671	0.0161152
872.749	0.0160087
872.828	0.0161037
872.906	0.0161101
872.984	0.0161323
873.062	0.0160983
873.140	0.0160489
873.218	0.0161098
873.296	0.0160073
873.374	0.0160925
873.453	0.0159723
873.531	0.0162361
873.609	0.0162464
873.687	0.0161241
873.765	0.0161535
873.843	0.0161601
873.921	0.0161295
873.999	0.0162279
874.078	0.0162465
874.156	0.0160199
874.234	0.0160527
874.312	0.0161552
874.390	0.0159871
874.468	0.0160261
874.546	0.0160753
874.624	0.0159740
874.703	0.0160254
874.781	0.0160706
874.859	0.0159110
874.937	0.0158905
875.015	0.0160897
875.093	0.0160470
875.171	0.0160394
875.249	0.0161254
875.328	0.0161617
875.406	0.0161961
875.484	0.0161846
875.562	0.0162315
875.640	0.0161419
875.718	0.0161925
875.796	0.0162086
875.874	0.0163264
875.953	0.0163417
876.031	0.0161929
876.109	0.0162848
876.187	0.0162480
876.265	0.0161139
876.343	0.0162359
876.421	0.0161698
876.499	0.0161881
876.578	0.0160773
876.656	0.0161395
876.734	0.0162125
876.812	0.0162566
876.890	0.0161096
876.968	0.0161465
877.046	0.0160904
877.124	0.0161280
877.203	0.0160414
877.281	0.0161802
877.359	0.0161975
877.437	0.0161014
877.515	0.0162268
877.593	0.0161164
877.671	0.0160307
877.749	0.0159347
877.828	0.0159317
877.906	0.0161816
877.984	0.0161127
878.062	0.0160381
878.140	0.0161138
878.218	0.0161169
878.296	0.0161117
878.374	0.0160958
878.453	0.0160609
878.531	0.0160420
878.609	0.0160628
878.687	0.0160472
878.765	0.0161352
878.843	0.0160704
878.921	0.0161108
878.999	0.0160897
879.078	0.0161073
879.156	0.0163821
879.234	0.0162209
879.312	0.0161701
879.390	0.0161042
879.468	0.0161903
879.546	0.0161057
879.624	0.0161578
879.703	0.0161555
879.781	0.0160018
879.859	0.0160942
879.937	0.0161765
880.015	0.0159976
880.093	0.0160498
880.171	0.0160079
880.249	0.0161050
880.328	0.0160830
880.406	0.0160135
880.484	0.0160663
880.562	0.0160751
880.640	0.0158852
880.718	0.0159474
880.796	0.0159801
880.874	0.0161121
880.953	0.0159988
881.031	0.0159882
881.109	0.0160224
881.187	0.0160366
881.265	0.0160006
881.343	0.0160519
881.421	0.0162747
881.499	0.0162148
881.578	0.0160622
881.656	0.0161253
881.734	0.0161837
881.812	0.0161883
881.890	0.0161336
881.968	0.0162415
882.046	0.0162106
882.124	0.0159792
882.203	0.0160728
882.281	0.0160355
882.359	0.0160767
882.437	0.0161069
882.515	0.0160077
882.593	0.0159722
882.671	0.0160178
882.749	0.0159512
882.828	0.0159740
882.906	0.0160888
882.984	0.0159638
883.062	0.0158694
883.140	0.0159334
883.218	0.0159109
883.296	0.0160651
883.374	0.0160586
883.453	0.0159614
883.531	0.0159693
883.609	0.0159967
883.687	0.0158194
883.765	0.0159650
883.843	0.0159556
883.921	0.0161028
883.999	0.0160848
884.078	0.0161068
884.156	0.0160416
884.234	0.0160151
884.312	0.0160234
884.390	0.0159998
884.468	0.0160139
884.546	0.0160992
884.624	0.0160911
884.703	0.0160606
884.781	0.0161220
884.859	0.0159843
884.937	0.0160208
885.015	0.0161255
885.093	0.0160837
885.171	0.0160201
885.249	0.0159142
885.328	0.0161478
885.406	0.0161526
885.484	0.0160365
885.562	0.0160596
885.640	0.0161761
885.718	0.0161436
885.796	0.0160986
885.874	0.0161768
885.953	0.0160421
886.031	0.0161514
886.109	0.0161581
886.187	0.0161172
886.265	0.0162012
886.343	0.0162244
886.421	0.0160888
886.499	0.0160328
886.578	0.0160690
886.656	0.0162634
886.734	0.0162400
886.812	0.0161523
886.890	0.0161115
886.968	0.0162026
887.046	0.0162151
887.124	0.0161929
887.203	0.0160963
887.281	0.0162194
887.359	0.0160545
887.437	0.0160362
887.515	0.0159405
887.593	0.0161021
887.671	0.0160666
887.749	0.0159777
887.828	0.0159898
887.906	0.0160107
887.984	0.0160757
888.062	0.0159827
888.140	0.0159103
888.218	0.0158927
888.296	0.0159872
888.374	0.0159235
888.453	0.0158115
888.531	0.0158850
888.609	0.0159082
888.687	0.0160226
888.765	0.0158391
888.843	0.0158783
888.921	0.0159756
888.999	0.0160058
889.078	0.0158631
889.156	0.0158374
889.234	0.0159782
889.312	0.0159050
889.390	0.0159981
889.468	0.0160634
889.546	0.0160379
889.624	0.0159977
889.703	0.0159328
889.781	0.0158385
889.859	0.0159293
889.937	0.0161250
890.015	0.0160588
890.093	0.0161285
890.171	0.0159012
890.249	0.0160113
890.328	0.0158951
890.406	0.0159474
890.484	0.0159808
890.562	0.0160840
890.640	0.0158694
890.718	0.0159473
890.796	0.0160005
890.874	0.0159305
890.953	0.0159778
891.031	0.0158516
891.109	0.0159273
891.187	0.0159997
891.265	0.0160229
891.343	0.0161273
891.421	0.0160633
891.499	0.0160184
891.578	0.0159755
891.656	0.0161648
891.734	0.0161252
891.812	0.0159483
891.890	0.0161211
891.968	0.0161224
892.046	0.0160150
892.124	0.0161559
892.203	0.0160056
892.281	0.0160603
892.359	0.0160056
892.437	0.0160456
892.515	0.0159861
892.593	0.0161785
892.671	0.0161007
892.749	0.0159957
892.828	0.0160337
892.906	0.0159947
892.984	0.0160725
893.062	0.0161243
893.140	0.0162463
893.218	0.0161243
893.296	0.0160325
893.374	0.0161018
893.453	0.0161865
893.531	0.0160675
893.609	0.0160064
893.687	0.0160305
893.765	0.0161515
893.843	0.0163609
893.921	0.0162861
893.999	0.0163245
894.078	0.0163234
894.156	0.0163920
894.234	0.0162502
894.312	0.0162048
894.390	0.0162289
894.468	0.0161459
894.546	0.0162347
894.624	0.0162320
894.703	0.0162904
894.781	0.0163140
894.859	0.0161062
894.937	0.0161771
895.015	0.0161777
895.093	0.0161055
895.171	0.0160918
895.249	0.0161523
895.328	0.0161238
895.406	0.0160437
895.484	0.0160783
895.562	0.0161623
895.640	0.0161650
895.718	0.0160223
895.796	0.0161512
895.874	0.0160564
895.953	0.0160279
896.031	0.0161114
896.109	0.0160748
896.187	0.0161505
896.265	0.0161977
896.343	0.0160963
896.421	0.0161219
896.499	0.0160341
896.578	0.0161827
896.656	0.0161050
896.734	0.0160898
896.812	0.0162043
896.890	0.0160812
896.968	0.0161382
897.046	0.0160429
897.124	0.0161795
897.203	0.0161473
897.281	0.0160429
897.359	0.0159980
897.437	0.0160087
897.515	0.0160013
897.593	0.0161066
897.671	0.0159531
897.749	0.0159785
897.828	0.0160062
897.906	0.0160066
897.984	0.0159987
898.062	0.0158630
898.140	0.0159809
898.218	0.0160320
898.296	0.0158994
898.374	0.0160652
898.453	0.0159963
898.531	0.0159779
898.609	0.0158955
898.687	0.0158722
898.765	0.0159866
898.843	0.0159224
898.921	0.0158149
898.999	0.0160088
899.078	0.0158183
899.156	0.0160116
899.234	0.0157743
899.312	0.0159273
899.390	0.0160918
899.468	0.0158643
899.546	0.0160516
899.624	0.0160548
899.703	0.0160227
899.781	0.0160548
899.859	0.0160788
899.937	0.0159246
900.015	0.0160207
900.093	0.0160006
900.171	0.0162174
900.249	0.0160688
900.328	0.0160397
900.406	0.0159108
900.484	0.0159795
900.562	0.0160387
900.640	0.0161310
900.718	0.0161433
900.796	0.0161114
900.874	0.0160847
900.953	0.0159910
901.031	0.0159782
901.109	0.0160440
901.187	0.0159917
901.265	0.0159968
901.343	0.0160881
901.421	0.0160711
901.499	0.0160258
901.578	0.0158636
901.656	0.0158731
901.734	0.0161131
901.812	0.0160289
901.890	0.0159042
901.968	0.0161287
902.046	0.0159953
902.124	0.0161343
902.203	0.0159544
902.281	0.0160600
902.359	0.0160630
902.437	0.0160921
902.515	0.0159364
902.593	0.0160871
902.671	0.0162011
902.749	0.0160579
902.828	0.0162209
902.906	0.0162576
902.984	0.0162792
903.062	0.0162384
903.140	0.0161503
903.218	0.0161739
903.296	0.0163222
903.374	0.0163738
903.453	0.0163076
903.531	0.0161908
903.609	0.0162299
903.687	0.0161984
903.765	0.0163427
903.843	0.0162311
903.921	0.0162756
903.999	0.0163541
904.078	0.0162358
904.156	0.0162787
904.234	0.0163335
904.312	0.0162251
904.390	0.0161928
904.468	0.0163805
904.546	0.0162018
904.624	0.0160929
904.703	0.0163192
904.781	0.0164172
904.859	0.0163055
904.937	0.0163406
905.015	0.0161372
905.093	0.0161745
905.171	0.0162695
905.249	0.0161630
905.328	0.0162321
905.406	0.0163113
905.484	0.0161081
905.562	0.0162226
905.640	0.0161458
905.718	0.0161592
905.796	0.0160399
905.874	0.0159766
905.953	0.0160912
906.031	0.0159660
906.109	0.0160605
906.187	0.0160449
906.265	0.0160056
906.343	0.0160091
906.421	0.0159860
906.499	0.0161187
906.578	0.0160336
906.656	0.0158261
906.734	0.0160328
906.812	0.0161487
906.890	0.0160685
906.968	0.0161816
907.046	0.0160461
907.124	0.0159069
907.203	0.0160172
907.281	0.0160926
907.359	0.0161374
907.437	0.0161662
907.515	0.0161339
907.593	0.0162053
907.671	0.0161935
907.749	0.0162331
907.828	0.0161432
907.906	0.0161598
907.984	0.0162688
908.062	0.0161179
908.140	0.0161981
908.218	0.0162624
908.296	0.0161674
908.374	0.0161216
908.453	0.0161705
908.531	0.0162347
908.609	0.0160082
908.687	0.0162189
908.765	0.0162714
908.843	0.0159990
908.921	0.0161334
908.999	0.0160802
909.078	0.0159769
909.156	0.0160287
909.234	0.0161889
909.312	0.0159637
909.390	0.0160802
909.468	0.0160131
909.546	0.0159791
909.624	0.0160259
909.703	0.0159006
909.781	0.0159562
909.859	0.0159973
909.937	0.0159746
910.015	0.0160747
910.093	0.0161008
910.171	0.0161309
910.249	0.0161078
910.328	0.0162305
910.406	0.0161187
910.484	0.0161414
910.562	0.0162428
910.640	0.0163833
910.718	0.0161944
910.796	0.0164545
910.874	0.0162904
910.953	0.0163438
911.031	0.0162753
911.109	0.0163269
911.187	0.0161734
911.265	0.0163342
911.343	0.0162865
911.421	0.0163731
911.499	0.0161750
911.578	0.0161757
911.656	0.0160959
911.734	0.0162074
911.812	0.0161690
911.890	0.0161271
911.968	0.0161024
912.046	0.0160797
912.124	0.0160712
912.203	0.0160129
912.281	0.0160086
912.359	0.0159732
912.437	0.0160660
912.515	0.0160994
912.593	0.0160854
912.671	0.0160519
912.749	0.0161391
912.828	0.0162019
912.906	0.0162271
912.984	0.0162249
913.062	0.0161971
913.140	0.0161658
913.218	0.0163153
913.296	0.0162491
913.374	0.0162516
913.453	0.0161276
913.531	0.0162571
913.609	0.0164027
913.687	0.0162166
913.765	0.0162616
913.843	0.0162231
913.921	0.0162386
913.999	0.0162991
914.078	0.0161629
914.156	0.0161571
914.234	0.0162357
914.312	0.0160403
914.390	0.0160430
914.468	0.0161712
914.546	0.0159829
914.624	0.0160725
914.703	0.0159577
914.781	0.0160038
914.859	0.0160607
914.937	0.0159892
915.015	0.0160167
915.093	0.0160329
915.171	0.0159441
915.249	0.0161890
915.328	0.0161934
915.406	0.0159834
915.484	0.0161241
915.562	0.0161488
915.640	0.0161183
915.718	0.0160818
915.796	0.0160889
915.874	0.0160312
915.953	0.0161059
916.031	0.0160845
916.109	0.0161296
916.187	0.0161729
916.265	0.0161361
916.343	0.0161112
916.421	0.0162487
916.499	0.0161526
916.578	0.0161137
916.656	0.0162916
916.734	0.0162045
916.812	0.0161169
916.890	0.0162451
916.968	0.0161396
917.046	0.0161459
917.124	0.0162395
917.203	0.0162249
917.281	0.0160130
917.359	0.0160875
917.437	0.0161805
917.515	0.0160564
917.593	0.0160464
917.671	0.0161842
917.749	0.0160944
917.828	0.0161195
917.906	0.0159691
917.984	0.0159811
918.062	0.0159963
918.140	0.0160266
918.218	0.0158893
918.296	0.0159734
918.374	0.0159218
918.453	0.0160426
918.531	0.0159735
918.609	0.0159677
918.687	0.0159895
918.765	0.0158883
918.843	0.0159184
918.921	0.0159936
918.999	0.0159789
919.078	0.0160840
919.156	0.0160226
919.234	0.0160950
919.312	0.0161470
919.390	0.0161404
919.468	0.0162241
919.546	0.0162386
919.624	0.0161362
919.703	0.0161891
919.781	0.0162444
919.859	0.0161716
919.937	0.0162995
