06/10/2022	19:06:11	Ver.	4.1	UNKNOWN
Optical Delay	600.015094	Delta X		0.078125	Sweeps	1	Scan Rate	0/0
Coordinates	Axis 1	NaN	Axis 2	NaN	Axis 3	NaN	Axis 4	NaN	Axis 5	NaN	Axis 6	0.000000
TX Power	0.000000	RX Power	0.000000

600.015	0.0160806
600.093	0.0160624
600.171	0.0159275
600.249	0.0161031
600.328	0.0160423
600.406	0.0159553
600.484	0.0160849
600.562	0.0159789
600.640	0.0159896
600.718	0.0159933
600.796	0.0160468
600.874	0.0159336
600.953	0.0159655
601.031	0.0160013
601.109	0.0160004
601.187	0.0161699
601.265	0.0161219
601.343	0.0160606
601.421	0.0160986
601.499	0.0161657
601.578	0.0162032
601.656	0.0161482
601.734	0.0159706
601.812	0.0161008
601.890	0.0160270
601.968	0.0160955
602.046	0.0162143
602.124	0.0160854
602.203	0.0161661
602.281	0.0162394
602.359	0.0162751
602.437	0.0161644
602.515	0.0162830
602.593	0.0161435
602.671	0.0161206
602.749	0.0161991
602.828	0.0161961
602.906	0.0163451
602.984	0.0162315
603.062	0.0161899
603.140	0.0164221
603.218	0.0162290
603.296	0.0162975
603.374	0.0164566
603.453	0.0163891
603.531	0.0162182
603.609	0.0162952
603.687	0.0163807
603.765	0.0163354
603.843	0.0163593
603.921	0.0162970
603.999	0.0163378
604.078	0.0164292
604.156	0.0163255
604.234	0.0163132
604.312	0.0164120
604.390	0.0162982
604.468	0.0162097
604.546	0.0165115
604.624	0.0163497
604.703	0.0163665
604.781	0.0163612
604.859	0.0162864
604.937	0.0162193
605.015	0.0163042
605.093	0.0164314
605.171	0.0162978
605.249	0.0163009
605.328	0.0163120
605.406	0.0163523
605.484	0.0163369
605.562	0.0163776
605.640	0.0163197
605.718	0.0164172
605.796	0.0163607
605.874	0.0162589
605.953	0.0163445
606.031	0.0164157
606.109	0.0164449
606.187	0.0164429
606.265	0.0163627
606.343	0.0163189
606.421	0.0162726
606.499	0.0163651
606.578	0.0162220
606.656	0.0163470
606.734	0.0163269
606.812	0.0163210
606.890	0.0162779
606.968	0.0162800
607.046	0.0164211
607.124	0.0162564
607.203	0.0162706
607.281	0.0162845
607.359	0.0162872
607.437	0.0162329
607.515	0.0162572
607.593	0.0162747
607.671	0.0162852
607.749	0.0162973
607.828	0.0164514
607.906	0.0163732
607.984	0.0161713
608.062	0.0162017
608.140	0.0162009
608.218	0.0161460
608.296	0.0163139
608.374	0.0163467
608.453	0.0162591
608.531	0.0162689
608.609	0.0162148
608.687	0.0161755
608.765	0.0162662
608.843	0.0164645
608.921	0.0163583
608.999	0.0161499
609.078	0.0161936
609.156	0.0161481
609.234	0.0161331
609.312	0.0161086
609.390	0.0161520
609.468	0.0161290
609.546	0.0161044
609.624	0.0160579
609.703	0.0162043
609.781	0.0161514
609.859	0.0162251
609.937	0.0161604
610.015	0.0160665
610.093	0.0161254
610.171	0.0160679
610.249	0.0159809
610.328	0.0160932
610.406	0.0160845
610.484	0.0160706
610.562	0.0160324
610.640	0.0162402
610.718	0.0160985
610.796	0.0160445
610.874	0.0160801
610.953	0.0160364
611.031	0.0160367
611.109	0.0160954
611.187	0.0161077
611.265	0.0160577
611.343	0.0159888
611.421	0.0160213
611.499	0.0162190
611.578	0.0161348
611.656	0.0162039
611.734	0.0162488
611.812	0.0161540
611.890	0.0162645
611.968	0.0163202
612.046	0.0161758
612.124	0.0162395
612.203	0.0163206
612.281	0.0162632
612.359	0.0162749
612.437	0.0163279
612.515	0.0164252
612.593	0.0165242
612.671	0.0165266
612.749	0.0163853
612.828	0.0165265
612.906	0.0164884
612.984	0.0163782
613.062	0.0164510
613.140	0.0164193
613.218	0.0165596
613.296	0.0163457
613.374	0.0165508
613.453	0.0164989
613.531	0.0164346
613.609	0.0165087
613.687	0.0164691
613.765	0.0164399
613.843	0.0163741
613.921	0.0164262
613.999	0.0164590
614.078	0.0163917
614.156	0.0163607
614.234	0.0163595
614.312	0.0162337
614.390	0.0161435
614.468	0.0164619
614.546	0.0162868
614.624	0.0163041
614.703	0.0163257
614.781	0.0162702
614.859	0.0161423
614.937	0.0161990
615.015	0.0162087
615.093	0.0162487
615.171	0.0160960
615.249	0.0160976
615.328	0.0161959
615.406	0.0162229
615.484	0.0161826
615.562	0.0160897
615.640	0.0161185
615.718	0.0162395
615.796	0.0162392
615.874	0.0161856
615.953	0.0161609
616.031	0.0161431
616.109	0.0161885
616.187	0.0161519
616.265	0.0161781
616.343	0.0160899
616.421	0.0160506
616.499	0.0160959
616.578	0.0161267
616.656	0.0162590
616.734	0.0160714
616.812	0.0161686
616.890	0.0160831
616.968	0.0161710
617.046	0.0163072
617.124	0.0161808
617.203	0.0161837
617.281	0.0161332
617.359	0.0160737
617.437	0.0161629
617.515	0.0163177
617.593	0.0161352
617.671	0.0160700
617.749	0.0162244
617.828	0.0161294
617.906	0.0162167
617.984	0.0160563
618.062	0.0160352
618.140	0.0161272
618.218	0.0160311
618.296	0.0159500
618.374	0.0160194
618.453	0.0161338
618.531	0.0160667
618.609	0.0160112
618.687	0.0160327
618.765	0.0159840
618.843	0.0160345
618.921	0.0159766
618.999	0.0159398
619.078	0.0159368
619.156	0.0159058
619.234	0.0159745
619.312	0.0159258
619.390	0.0158693
619.468	0.0159233
619.546	0.0159007
619.624	0.0158621
619.703	0.0158966
619.781	0.0157730
619.859	0.0158170
619.937	0.0159940
620.015	0.0158458
620.093	0.0157524
620.171	0.0158546
620.249	0.0159598
620.328	0.0158275
620.406	0.0157185
620.484	0.0158449
620.562	0.0157301
620.640	0.0157984
620.718	0.0157098
620.796	0.0158532
620.874	0.0157756
620.953	0.0157103
621.031	0.0156203
621.109	0.0156345
621.187	0.0156536
621.265	0.0158297
621.343	0.0157151
621.421	0.0157771
621.499	0.0157674
621.578	0.0156680
621.656	0.0157726
621.734	0.0158705
621.812	0.0158237
621.890	0.0156707
621.968	0.0157178
622.046	0.0158888
622.124	0.0158988
622.203	0.0158483
622.281	0.0159447
622.359	0.0160706
622.437	0.0160088
622.515	0.0158920
622.593	0.0158787
622.671	0.0160554
622.749	0.0160691
622.828	0.0159637
622.906	0.0160702
622.984	0.0161608
623.062	0.0161393
623.140	0.0160947
623.218	0.0162144
623.296	0.0160098
623.374	0.0161639
623.453	0.0162496
623.531	0.0162537
623.609	0.0160948
623.687	0.0161508
623.765	0.0161151
623.843	0.0160870
623.921	0.0161843
623.999	0.0161234
624.078	0.0159979
624.156	0.0160601
624.234	0.0161174
624.312	0.0160016
624.390	0.0161166
624.468	0.0161227
624.546	0.0159969
624.624	0.0161100
624.703	0.0161667
624.781	0.0160691
624.859	0.0161118
624.937	0.0161252
625.015	0.0161065
625.093	0.0160563
625.171	0.0160007
625.249	0.0161940
625.328	0.0160999
625.406	0.0161478
625.484	0.0161890
625.562	0.0162656
625.640	0.0161813
625.718	0.0162672
625.796	0.0161046
625.874	0.0161756
625.953	0.0162925
626.031	0.0162186
626.109	0.0162211
626.187	0.0162309
626.265	0.0161916
626.343	0.0163112
626.421	0.0162541
626.499	0.0163853
626.578	0.0162848
626.656	0.0164394
626.734	0.0164676
626.812	0.0163708
626.890	0.0163628
626.968	0.0164140
627.046	0.0164010
627.124	0.0164944
627.203	0.0163966
627.281	0.0164944
627.359	0.0166077
627.437	0.0165053
627.515	0.0165263
627.593	0.0166173
627.671	0.0165863
627.749	0.0165623
627.828	0.0165751
627.906	0.0165292
627.984	0.0164885
628.062	0.0164605
628.140	0.0164269
628.218	0.0164345
628.296	0.0165844
628.374	0.0166075
628.453	0.0164773
628.531	0.0164874
628.609	0.0165015
628.687	0.0163625
628.765	0.0163911
628.843	0.0162972
628.921	0.0162202
628.999	0.0163800
629.078	0.0163090
629.156	0.0164078
629.234	0.0163652
629.312	0.0163560
629.390	0.0162186
629.468	0.0162893
629.546	0.0163161
629.624	0.0163323
629.703	0.0164231
629.781	0.0162585
629.859	0.0162459
629.937	0.0160755
630.015	0.0161845
630.093	0.0164362
630.171	0.0163076
630.249	0.0161523
630.328	0.0162549
630.406	0.0161593
630.484	0.0161592
630.562	0.0163162
630.640	0.0162502
630.718	0.0161804
630.796	0.0162811
630.874	0.0162975
630.953	0.0162741
631.031	0.0161565
631.109	0.0163087
631.187	0.0161412
631.265	0.0161967
631.343	0.0163265
631.421	0.0162131
631.499	0.0162257
631.578	0.0162508
631.656	0.0161728
631.734	0.0162714
631.812	0.0162119
631.890	0.0161617
631.968	0.0162930
632.046	0.0163594
632.124	0.0162589
632.203	0.0162560
632.281	0.0162525
632.359	0.0161796
632.437	0.0162278
632.515	0.0162186
632.593	0.0160861
632.671	0.0162555
632.749	0.0161934
632.828	0.0161916
632.906	0.0161765
632.984	0.0162464
633.062	0.0161673
633.140	0.0162817
633.218	0.0161994
633.296	0.0162183
633.374	0.0161911
633.453	0.0163322
633.531	0.0162571
633.609	0.0162143
633.687	0.0160647
633.765	0.0162794
633.843	0.0162388
633.921	0.0163058
633.999	0.0163574
634.078	0.0163674
634.156	0.0164119
634.234	0.0161531
634.312	0.0162048
634.390	0.0161797
634.468	0.0162901
634.546	0.0163903
634.624	0.0163195
634.703	0.0161705
634.781	0.0161808
634.859	0.0162962
634.937	0.0163126
635.015	0.0162032
635.093	0.0162859
635.171	0.0161790
635.249	0.0163210
635.328	0.0161030
635.406	0.0162107
635.484	0.0162380
635.562	0.0162122
635.640	0.0161615
635.718	0.0162377
635.796	0.0163792
635.874	0.0162457
635.953	0.0161349
636.031	0.0162711
636.109	0.0160308
636.187	0.0161027
636.265	0.0161344
636.343	0.0161064
636.421	0.0160396
636.499	0.0160810
636.578	0.0161526
636.656	0.0163317
636.734	0.0162540
636.812	0.0161263
636.890	0.0161278
636.968	0.0160937
637.046	0.0160767
637.124	0.0161411
637.203	0.0160890
637.281	0.0159431
637.359	0.0161281
637.437	0.0161954
637.515	0.0160514
637.593	0.0162786
637.671	0.0160693
637.749	0.0160660
637.828	0.0160850
637.906	0.0160299
637.984	0.0160810
638.062	0.0160953
638.140	0.0159092
638.218	0.0160680
638.296	0.0160650
638.374	0.0161150
638.453	0.0161301
638.531	0.0158896
638.609	0.0160178
638.687	0.0161733
638.765	0.0160114
638.843	0.0160077
638.921	0.0159843
638.999	0.0160442
639.078	0.0161462
639.156	0.0160413
639.234	0.0159691
639.312	0.0159709
639.390	0.0159724
639.468	0.0159826
639.546	0.0160747
639.624	0.0159054
639.703	0.0158430
639.781	0.0159493
639.859	0.0159489
639.937	0.0160236
640.015	0.0159609
640.093	0.0158458
640.171	0.0159574
640.249	0.0159490
640.328	0.0159773
640.406	0.0158879
640.484	0.0159478
640.562	0.0159152
640.640	0.0158650
640.718	0.0159573
640.796	0.0159505
640.874	0.0159005
640.953	0.0160124
641.031	0.0160558
641.109	0.0158654
641.187	0.0158746
641.265	0.0159635
641.343	0.0158923
641.421	0.0159570
641.499	0.0158908
641.578	0.0159454
641.656	0.0158711
641.734	0.0159948
641.812	0.0159409
641.890	0.0159322
641.968	0.0158090
642.046	0.0159299
642.124	0.0158460
642.203	0.0159789
642.281	0.0160172
642.359	0.0160481
642.437	0.0159589
642.515	0.0158994
642.593	0.0158639
642.671	0.0158895
642.749	0.0159334
642.828	0.0159651
642.906	0.0160729
642.984	0.0159503
643.062	0.0157059
643.140	0.0159180
643.218	0.0158826
643.296	0.0159288
643.374	0.0159610
643.453	0.0158911
643.531	0.0159991
643.609	0.0159960
643.687	0.0159667
643.765	0.0159120
643.843	0.0160584
643.921	0.0159145
643.999	0.0159959
644.078	0.0159460
644.156	0.0159548
644.234	0.0160405
644.312	0.0161363
644.390	0.0159399
644.468	0.0159442
644.546	0.0160947
644.624	0.0159656
644.703	0.0159760
644.781	0.0160321
644.859	0.0161632
644.937	0.0160121
645.015	0.0161597
645.093	0.0161197
645.171	0.0160756
645.249	0.0161366
645.328	0.0159771
645.406	0.0160554
645.484	0.0161983
645.562	0.0160056
645.640	0.0160779
645.718	0.0161073
645.796	0.0161131
645.874	0.0161040
645.953	0.0161373
646.031	0.0161832
646.109	0.0160544
646.187	0.0161349
646.265	0.0161020
646.343	0.0161827
646.421	0.0162360
646.499	0.0163605
646.578	0.0162366
646.656	0.0161810
646.734	0.0161928
646.812	0.0163890
646.890	0.0163424
646.968	0.0162948
647.046	0.0163653
647.124	0.0163413
647.203	0.0162801
647.281	0.0161775
647.359	0.0162904
647.437	0.0162714
647.515	0.0162962
647.593	0.0163884
647.671	0.0163783
647.749	0.0162355
647.828	0.0163500
647.906	0.0163584
647.984	0.0163091
648.062	0.0161953
648.140	0.0162037
648.218	0.0162479
648.296	0.0162479
648.374	0.0161730
648.453	0.0162975
648.531	0.0163622
648.609	0.0162643
648.687	0.0162892
648.765	0.0163879
648.843	0.0163225
648.921	0.0162789
648.999	0.0162234
649.078	0.0163020
649.156	0.0162737
649.234	0.0162415
649.312	0.0162950
649.390	0.0163007
649.468	0.0162568
649.546	0.0164694
649.624	0.0163610
649.703	0.0162646
649.781	0.0161616
649.859	0.0163543
649.937	0.0164127
650.015	0.0162605
650.093	0.0163641
650.171	0.0163195
650.249	0.0163481
650.328	0.0162254
650.406	0.0163896
650.484	0.0163872
650.562	0.0163111
650.640	0.0162331
650.718	0.0162479
650.796	0.0162818
650.874	0.0164119
650.953	0.0163457
651.031	0.0161597
651.109	0.0162486
651.187	0.0163133
651.265	0.0162230
651.343	0.0161913
651.421	0.0164091
651.499	0.0163939
651.578	0.0163944
651.656	0.0162426
651.734	0.0162199
651.812	0.0161617
651.890	0.0163155
651.968	0.0162560
652.046	0.0162633
652.124	0.0162988
652.203	0.0162540
652.281	0.0161767
652.359	0.0162775
652.437	0.0164488
652.515	0.0162250
652.593	0.0162028
652.671	0.0161261
652.749	0.0163084
652.828	0.0162869
652.906	0.0161397
652.984	0.0162157
653.062	0.0163079
653.140	0.0164516
653.218	0.0161425
653.296	0.0162718
653.374	0.0162960
653.453	0.0162406
653.531	0.0161420
653.609	0.0163026
653.687	0.0162178
653.765	0.0161688
653.843	0.0162773
653.921	0.0161581
653.999	0.0161481
654.078	0.0162063
654.156	0.0162103
654.234	0.0161350
654.312	0.0162234
654.390	0.0162125
654.468	0.0161438
654.546	0.0161497
654.624	0.0163142
654.703	0.0161411
654.781	0.0162228
654.859	0.0160908
654.937	0.0162698
655.015	0.0163432
655.093	0.0161662
655.171	0.0162521
655.249	0.0163397
655.328	0.0163020
655.406	0.0161455
655.484	0.0162328
655.562	0.0163088
655.640	0.0163742
655.718	0.0162125
655.796	0.0162438
655.874	0.0161894
655.953	0.0163667
656.031	0.0162583
656.109	0.0162281
656.187	0.0162296
656.265	0.0162838
656.343	0.0162035
656.421	0.0162315
656.499	0.0162671
656.578	0.0163025
656.656	0.0163773
656.734	0.0162929
656.812	0.0163528
656.890	0.0162437
656.968	0.0162760
657.046	0.0161579
657.124	0.0161827
657.203	0.0163427
657.281	0.0163057
657.359	0.0161602
657.437	0.0161727
657.515	0.0161758
657.593	0.0162568
657.671	0.0161441
657.749	0.0162720
657.828	0.0161689
657.906	0.0162722
657.984	0.0161787
658.062	0.0161191
658.140	0.0162140
658.218	0.0161411
658.296	0.0161164
658.374	0.0162075
658.453	0.0162469
658.531	0.0161275
658.609	0.0161762
658.687	0.0160852
658.765	0.0160620
658.843	0.0161335
658.921	0.0160391
658.999	0.0161165
659.078	0.0162360
659.156	0.0160192
659.234	0.0159651
659.312	0.0160191
659.390	0.0159644
659.468	0.0159810
659.546	0.0159630
659.624	0.0159850
659.703	0.0160231
659.781	0.0160597
659.859	0.0161336
659.937	0.0161208
660.015	0.0161537
660.093	0.0160458
660.171	0.0159413
660.249	0.0159583
660.328	0.0160395
660.406	0.0160549
660.484	0.0161834
660.562	0.0159618
660.640	0.0160284
660.718	0.0159573
660.796	0.0159298
660.874	0.0159832
660.953	0.0160663
661.031	0.0161110
661.109	0.0161056
661.187	0.0160371
661.265	0.0161101
661.343	0.0159995
661.421	0.0159750
661.499	0.0160046
661.578	0.0160065
661.656	0.0161333
661.734	0.0161031
661.812	0.0161226
661.890	0.0160346
661.968	0.0160174
662.046	0.0159517
662.124	0.0161322
662.203	0.0161124
662.281	0.0159795
662.359	0.0159360
662.437	0.0160105
662.515	0.0159840
662.593	0.0159676
662.671	0.0159709
662.749	0.0160487
662.828	0.0160745
662.906	0.0160752
662.984	0.0159189
663.062	0.0161482
663.140	0.0160088
663.218	0.0161017
663.296	0.0161288
663.374	0.0160686
663.453	0.0161052
663.531	0.0159031
663.609	0.0160984
663.687	0.0161056
663.765	0.0161828
663.843	0.0160909
663.921	0.0160033
663.999	0.0161326
664.078	0.0162412
664.156	0.0161441
664.234	0.0159908
664.312	0.0159796
664.390	0.0160554
664.468	0.0161181
664.546	0.0160637
664.624	0.0160852
664.703	0.0158964
664.781	0.0160325
664.859	0.0160831
664.937	0.0160765
665.015	0.0159615
665.093	0.0160452
665.171	0.0161523
665.249	0.0160580
665.328	0.0159971
665.406	0.0159270
665.484	0.0162245
665.562	0.0160788
665.640	0.0159862
665.718	0.0161205
665.796	0.0160398
665.874	0.0158874
665.953	0.0160491
666.031	0.0159712
666.109	0.0160112
666.187	0.0161665
666.265	0.0161336
666.343	0.0159757
666.421	0.0160104
666.499	0.0161821
666.578	0.0161102
666.656	0.0159397
666.734	0.0160742
666.812	0.0161832
666.890	0.0160461
666.968	0.0159569
667.046	0.0160942
667.124	0.0163017
667.203	0.0160519
667.281	0.0161340
667.359	0.0161442
667.437	0.0162184
667.515	0.0162263
667.593	0.0161713
667.671	0.0161739
667.749	0.0161423
667.828	0.0159954
667.906	0.0161435
667.984	0.0160297
668.062	0.0161359
668.140	0.0162550
668.218	0.0161723
668.296	0.0162444
668.374	0.0161619
668.453	0.0161823
668.531	0.0162328
668.609	0.0162930
668.687	0.0163159
668.765	0.0161858
668.843	0.0161828
668.921	0.0161476
668.999	0.0162436
669.078	0.0163427
669.156	0.0160407
669.234	0.0162054
669.312	0.0162945
669.390	0.0161588
669.468	0.0162142
669.546	0.0162180
669.624	0.0162827
669.703	0.0164283
669.781	0.0162811
669.859	0.0161680
669.937	0.0163594
670.015	0.0163067
670.093	0.0161617
670.171	0.0162391
670.249	0.0162850
670.328	0.0162360
670.406	0.0162499
670.484	0.0162575
670.562	0.0161732
670.640	0.0161668
670.718	0.0162447
670.796	0.0161572
670.874	0.0162268
670.953	0.0162423
671.031	0.0164312
671.109	0.0162484
671.187	0.0162395
671.265	0.0163487
671.343	0.0163448
671.421	0.0162345
671.499	0.0162549
671.578	0.0161893
671.656	0.0163137
671.734	0.0162717
671.812	0.0163215
671.890	0.0162465
671.968	0.0162959
672.046	0.0162662
672.124	0.0161434
672.203	0.0163058
672.281	0.0163203
672.359	0.0162136
672.437	0.0162868
672.515	0.0161423
672.593	0.0163445
672.671	0.0162292
672.749	0.0163223
672.828	0.0162132
672.906	0.0162618
672.984	0.0163625
673.062	0.0163058
673.140	0.0162873
673.218	0.0163392
673.296	0.0162447
673.374	0.0163220
673.453	0.0163931
673.531	0.0163131
673.609	0.0162315
673.687	0.0162613
673.765	0.0162669
673.843	0.0163324
673.921	0.0161893
673.999	0.0163536
674.078	0.0163525
674.156	0.0162858
674.234	0.0161647
674.312	0.0162897
674.390	0.0161506
674.468	0.0162195
674.546	0.0163251
674.624	0.0163516
674.703	0.0162695
674.781	0.0161882
674.859	0.0161996
674.937	0.0162642
675.015	0.0163781
675.093	0.0163963
675.171	0.0163863
675.249	0.0161600
675.328	0.0162568
675.406	0.0162543
675.484	0.0163826
675.562	0.0163441
675.640	0.0162923
675.718	0.0163615
675.796	0.0163250
675.874	0.0163557
675.953	0.0162179
676.031	0.0162894
676.109	0.0163307
676.187	0.0163064
676.265	0.0163210
676.343	0.0161279
676.421	0.0163161
676.499	0.0162766
676.578	0.0163167
676.656	0.0161401
676.734	0.0161781
676.812	0.0163211
676.890	0.0163142
676.968	0.0163713
677.046	0.0162480
677.124	0.0162222
677.203	0.0162969
677.281	0.0163657
677.359	0.0162636
677.437	0.0162749
677.515	0.0162658
677.593	0.0162344
677.671	0.0161564
677.749	0.0162947
677.828	0.0161951
677.906	0.0161741
677.984	0.0162313
678.062	0.0162337
678.140	0.0161906
678.218	0.0162904
678.296	0.0160446
678.374	0.0162634
678.453	0.0161839
678.531	0.0163236
678.609	0.0161130
678.687	0.0160958
678.765	0.0162296
678.843	0.0161563
678.921	0.0161658
678.999	0.0161026
679.078	0.0159995
679.156	0.0161574
679.234	0.0162061
679.312	0.0160785
679.390	0.0160905
679.468	0.0159215
679.546	0.0161203
679.624	0.0161422
679.703	0.0159814
679.781	0.0160683
679.859	0.0161002
679.937	0.0160353
680.015	0.0160543
680.093	0.0160301
680.171	0.0160734
680.249	0.0159640
680.328	0.0160584
680.406	0.0159661
680.484	0.0161287
680.562	0.0161662
680.640	0.0159061
680.718	0.0159947
680.796	0.0160408
680.874	0.0159229
680.953	0.0160768
681.031	0.0160121
681.109	0.0160933
681.187	0.0161015
681.265	0.0160963
681.343	0.0160576
681.421	0.0161157
681.499	0.0161024
681.578	0.0161135
681.656	0.0161684
681.734	0.0161423
681.812	0.0160095
681.890	0.0161342
681.968	0.0161333
682.046	0.0162046
682.124	0.0160919
682.203	0.0162263
682.281	0.0160691
682.359	0.0161211
682.437	0.0160828
682.515	0.0162122
682.593	0.0160300
682.671	0.0161045
682.749	0.0161066
682.828	0.0161566
682.906	0.0161444
682.984	0.0161058
683.062	0.0161978
683.140	0.0160162
683.218	0.0160995
683.296	0.0160986
683.374	0.0161425
683.453	0.0161785
683.531	0.0160466
683.609	0.0161504
683.687	0.0161189
683.765	0.0161614
683.843	0.0160011
683.921	0.0161353
683.999	0.0160416
684.078	0.0160912
684.156	0.0160619
684.234	0.0162184
684.312	0.0161612
684.390	0.0161064
684.468	0.0159984
684.546	0.0162296
684.624	0.0161089
684.703	0.0161246
684.781	0.0161332
684.859	0.0159895
684.937	0.0161252
685.015	0.0160861
685.093	0.0162299
685.171	0.0161181
685.249	0.0161998
685.328	0.0161093
685.406	0.0160696
685.484	0.0161335
685.562	0.0160402
685.640	0.0161043
685.718	0.0160798
685.796	0.0161165
685.874	0.0161330
685.953	0.0161170
686.031	0.0159035
686.109	0.0162452
686.187	0.0162131
686.265	0.0159576
686.343	0.0161619
686.421	0.0161378
686.499	0.0160160
686.578	0.0162238
686.656	0.0160505
686.734	0.0159153
686.812	0.0160207
686.890	0.0161355
686.968	0.0160407
687.046	0.0159329
687.124	0.0159874
687.203	0.0161772
687.281	0.0159513
687.359	0.0159645
687.437	0.0160783
687.515	0.0159905
687.593	0.0161509
687.671	0.0161028
687.749	0.0160688
687.828	0.0162148
687.906	0.0162744
687.984	0.0159630
688.062	0.0160888
688.140	0.0161861
688.218	0.0161651
688.296	0.0162632
688.374	0.0161632
688.453	0.0162405
688.531	0.0161012
688.609	0.0161415
688.687	0.0163609
688.765	0.0162453
688.843	0.0161147
688.921	0.0161817
688.999	0.0161965
689.078	0.0161520
689.156	0.0162016
689.234	0.0162501
689.312	0.0160757
689.390	0.0162543
689.468	0.0162039
689.546	0.0161708
689.624	0.0161810
689.703	0.0161794
689.781	0.0162183
689.859	0.0161754
689.937	0.0162845
690.015	0.0163177
690.093	0.0162775
690.171	0.0160935
690.249	0.0161472
690.328	0.0162037
690.406	0.0162191
690.484	0.0161112
690.562	0.0161234
690.640	0.0160418
690.718	0.0160685
690.796	0.0161790
690.874	0.0160926
690.953	0.0161836
691.031	0.0162881
691.109	0.0160385
691.187	0.0161679
691.265	0.0160812
691.343	0.0160611
691.421	0.0162183
691.499	0.0160592
691.578	0.0160801
691.656	0.0160329
691.734	0.0161504
691.812	0.0159823
691.890	0.0159449
691.968	0.0160140
692.046	0.0161749
692.124	0.0161798
692.203	0.0162222
692.281	0.0160412
692.359	0.0161121
692.437	0.0159807
692.515	0.0160976
692.593	0.0162640
692.671	0.0159600
692.749	0.0161066
692.828	0.0161089
692.906	0.0161943
692.984	0.0160355
693.062	0.0160069
693.140	0.0160909
693.218	0.0159953
693.296	0.0160542
693.374	0.0160984
693.453	0.0160430
693.531	0.0160002
693.609	0.0161194
693.687	0.0160542
693.765	0.0160665
693.843	0.0161536
693.921	0.0160833
693.999	0.0161323
694.078	0.0160593
694.156	0.0160026
694.234	0.0160561
694.312	0.0161324
694.390	0.0160887
694.468	0.0160003
694.546	0.0160566
694.624	0.0160191
694.703	0.0160287
694.781	0.0161894
694.859	0.0160532
694.937	0.0161752
695.015	0.0160917
695.093	0.0161057
695.171	0.0160342
695.249	0.0160426
695.328	0.0160473
695.406	0.0159760
695.484	0.0160073
695.562	0.0160954
695.640	0.0160448
695.718	0.0159874
695.796	0.0159808
695.874	0.0160401
695.953	0.0160517
696.031	0.0160635
696.109	0.0160616
696.187	0.0160860
696.265	0.0159687
696.343	0.0161010
696.421	0.0159982
696.499	0.0159882
696.578	0.0160501
696.656	0.0161485
696.734	0.0160240
696.812	0.0161136
696.890	0.0161517
696.968	0.0159842
697.046	0.0160088
697.124	0.0161627
697.203	0.0160870
697.281	0.0161445
697.359	0.0160201
697.437	0.0160648
697.515	0.0161614
697.593	0.0159779
697.671	0.0160281
697.749	0.0160152
697.828	0.0161813
697.906	0.0161438
697.984	0.0160873
698.062	0.0161036
698.140	0.0161686
698.218	0.0160283
698.296	0.0161204
698.374	0.0161501
698.453	0.0161211
698.531	0.0162344
698.609	0.0163350
698.687	0.0161761
698.765	0.0162083
698.843	0.0162547
698.921	0.0161786
698.999	0.0161925
699.078	0.0161871
699.156	0.0159984
699.234	0.0160909
699.312	0.0160604
699.390	0.0160918
699.468	0.0162432
699.546	0.0161476
699.624	0.0162109
699.703	0.0161916
699.781	0.0160891
699.859	0.0162831
699.937	0.0162548
700.015	0.0163248
700.093	0.0162806
700.171	0.0162154
700.249	0.0161954
700.328	0.0161887
700.406	0.0161738
700.484	0.0161829
700.562	0.0161694
700.640	0.0162193
700.718	0.0163312
700.796	0.0162183
700.874	0.0162589
700.953	0.0162189
701.031	0.0162070
701.109	0.0162688
701.187	0.0162089
701.265	0.0161385
701.343	0.0161370
701.421	0.0160883
701.499	0.0161286
701.578	0.0162155
701.656	0.0162202
701.734	0.0161573
701.812	0.0159439
701.890	0.0160300
701.968	0.0162005
702.046	0.0160900
702.124	0.0160878
702.203	0.0161023
702.281	0.0162003
702.359	0.0162234
702.437	0.0160895
702.515	0.0161317
702.593	0.0161578
702.671	0.0161089
702.749	0.0161714
702.828	0.0160448
702.906	0.0160970
702.984	0.0161123
703.062	0.0160805
703.140	0.0161419
703.218	0.0162407
703.296	0.0161730
703.374	0.0161532
703.453	0.0161367
703.531	0.0160527
703.609	0.0162045
703.687	0.0161268
703.765	0.0161173
703.843	0.0161252
703.921	0.0160872
703.999	0.0161752
704.078	0.0162707
704.156	0.0160493
704.234	0.0161648
704.312	0.0160812
704.390	0.0162009
704.468	0.0161433
704.546	0.0161924
704.624	0.0160713
704.703	0.0162592
704.781	0.0159935
704.859	0.0161092
704.937	0.0160407
705.015	0.0160738
705.093	0.0161726
705.171	0.0162863
705.249	0.0161546
705.328	0.0162430
705.406	0.0161625
705.484	0.0160934
705.562	0.0160371
705.640	0.0161029
705.718	0.0161554
705.796	0.0161420
705.874	0.0160777
705.953	0.0160287
706.031	0.0162379
706.109	0.0161066
706.187	0.0162804
706.265	0.0160339
706.343	0.0161431
706.421	0.0161481
706.499	0.0161548
706.578	0.0161626
706.656	0.0161726
706.734	0.0162968
706.812	0.0162151
706.890	0.0161097
706.968	0.0161617
707.046	0.0161956
707.124	0.0161873
707.203	0.0160995
707.281	0.0162032
707.359	0.0161849
707.437	0.0162556
707.515	0.0161795
707.593	0.0160928
707.671	0.0161837
707.749	0.0162905
707.828	0.0162139
707.906	0.0162380
707.984	0.0161200
708.062	0.0161797
708.140	0.0162933
708.218	0.0162778
708.296	0.0161472
708.374	0.0161634
708.453	0.0162350
708.531	0.0160628
708.609	0.0161452
708.687	0.0160746
708.765	0.0161745
708.843	0.0160594
708.921	0.0160298
708.999	0.0161933
709.078	0.0162010
709.156	0.0161156
709.234	0.0161320
709.312	0.0162537
709.390	0.0161547
709.468	0.0160935
709.546	0.0161166
709.624	0.0159930
709.703	0.0160269
709.781	0.0161141
709.859	0.0162027
709.937	0.0162984
710.015	0.0160860
710.093	0.0162389
710.171	0.0162344
710.249	0.0161806
710.328	0.0161621
710.406	0.0161611
710.484	0.0162560
710.562	0.0161738
710.640	0.0162366
710.718	0.0161840
710.796	0.0160712
710.874	0.0163068
710.953	0.0163276
711.031	0.0162733
711.109	0.0161951
711.187	0.0162231
711.265	0.0161978
711.343	0.0162164
711.421	0.0160971
711.499	0.0161591
711.578	0.0161623
711.656	0.0162291
711.734	0.0161111
711.812	0.0161610
711.890	0.0162078
711.968	0.0161549
712.046	0.0162983
712.124	0.0162113
712.203	0.0161544
712.281	0.0162663
712.359	0.0161179
712.437	0.0161703
712.515	0.0160760
712.593	0.0161594
712.671	0.0160931
712.749	0.0161434
712.828	0.0162547
712.906	0.0160877
712.984	0.0162035
713.062	0.0159988
713.140	0.0161364
713.218	0.0162214
713.296	0.0161350
713.374	0.0161880
713.453	0.0159735
713.531	0.0161004
713.609	0.0161596
713.687	0.0159339
713.765	0.0160759
713.843	0.0161282
713.921	0.0160912
713.999	0.0161208
714.078	0.0161185
714.156	0.0162669
714.234	0.0162251
714.312	0.0161783
714.390	0.0161857
714.468	0.0162136
714.546	0.0162153
714.624	0.0162733
714.703	0.0162974
714.781	0.0161877
714.859	0.0162210
714.937	0.0162511
715.015	0.0163197
715.093	0.0160825
715.171	0.0161861
715.249	0.0161227
715.328	0.0160562
715.406	0.0162302
715.484	0.0161655
715.562	0.0162519
715.640	0.0161950
715.718	0.0162460
715.796	0.0162511
715.874	0.0162054
715.953	0.0160884
716.031	0.0162852
716.109	0.0162337
716.187	0.0161161
716.265	0.0159819
716.343	0.0160670
716.421	0.0160744
716.499	0.0159498
716.578	0.0160947
716.656	0.0160966
716.734	0.0161373
716.812	0.0160419
716.890	0.0160442
716.968	0.0160579
717.046	0.0159343
717.124	0.0159782
717.203	0.0160467
717.281	0.0161304
717.359	0.0159961
717.437	0.0159416
717.515	0.0160300
717.593	0.0160732
717.671	0.0160503
717.749	0.0160885
717.828	0.0160162
717.906	0.0160092
717.984	0.0160770
718.062	0.0161356
718.140	0.0160805
718.218	0.0160630
718.296	0.0162054
718.374	0.0161669
718.453	0.0160565
718.531	0.0160365
718.609	0.0162365
718.687	0.0160851
718.765	0.0161556
718.843	0.0161060
718.921	0.0161960
718.999	0.0162824
719.078	0.0162714
719.156	0.0160975
719.234	0.0161984
719.312	0.0161757
719.390	0.0162061
719.468	0.0162990
719.546	0.0161647
719.624	0.0162682
719.703	0.0163052
719.781	0.0162498
719.859	0.0161593
719.937	0.0163562
720.015	0.0161250
720.093	0.0162183
720.171	0.0163612
720.249	0.0162025
720.328	0.0162051
720.406	0.0162690
720.484	0.0161823
720.562	0.0161857
720.640	0.0162292
720.718	0.0161064
720.796	0.0160970
720.874	0.0160915
720.953	0.0163128
721.031	0.0161794
721.109	0.0162363
721.187	0.0161482
721.265	0.0162254
721.343	0.0161890
721.421	0.0161415
721.499	0.0160455
721.578	0.0160570
721.656	0.0161118
721.734	0.0160798
721.812	0.0161335
721.890	0.0160927
721.968	0.0161150
722.046	0.0158678
722.124	0.0160965
722.203	0.0162476
722.281	0.0161900
722.359	0.0161517
722.437	0.0160381
722.515	0.0161094
722.593	0.0161102
722.671	0.0161254
722.749	0.0161568
722.828	0.0161247
722.906	0.0162209
722.984	0.0160232
723.062	0.0161288
723.140	0.0160185
723.218	0.0162754
723.296	0.0161597
723.374	0.0161085
723.453	0.0161901
723.531	0.0161444
723.609	0.0161643
723.687	0.0160268
723.765	0.0160723
723.843	0.0160754
723.921	0.0161645
723.999	0.0161225
724.078	0.0160732
724.156	0.0160339
724.234	0.0160652
724.312	0.0161716
724.390	0.0161914
724.468	0.0162446
724.546	0.0160708
724.624	0.0161009
724.703	0.0162503
724.781	0.0160519
724.859	0.0161798
724.937	0.0161899
725.015	0.0161880
725.093	0.0160932
725.171	0.0162715
725.249	0.0161102
725.328	0.0161662
725.406	0.0162051
725.484	0.0161549
725.562	0.0160572
725.640	0.0162039
725.718	0.0163575
725.796	0.0163255
725.874	0.0162484
725.953	0.0160880
726.031	0.0161229
726.109	0.0161304
726.187	0.0161403
726.265	0.0161581
726.343	0.0161472
726.421	0.0162353
726.499	0.0161167
726.578	0.0161928
726.656	0.0161898
726.734	0.0160671
726.812	0.0161896
726.890	0.0162483
726.968	0.0160902
727.046	0.0160434
727.124	0.0161813
727.203	0.0162664
727.281	0.0162092
727.359	0.0161241
727.437	0.0161941
727.515	0.0161671
727.593	0.0162738
727.671	0.0161978
727.749	0.0163074
727.828	0.0163406
727.906	0.0162862
727.984	0.0161733
728.062	0.0163760
728.140	0.0163929
728.218	0.0162326
728.296	0.0163117
728.374	0.0162451
728.453	0.0162329
728.531	0.0163737
728.609	0.0163819
728.687	0.0163428
728.765	0.0164317
728.843	0.0162534
728.921	0.0162156
728.999	0.0162622
729.078	0.0164380
729.156	0.0163575
729.234	0.0163570
729.312	0.0163426
729.390	0.0162106
729.468	0.0161859
729.546	0.0163568
729.624	0.0163544
729.703	0.0162329
729.781	0.0162372
729.859	0.0162693
729.937	0.0163479
730.015	0.0163171
730.093	0.0163184
730.171	0.0162123
730.249	0.0163136
730.328	0.0161331
730.406	0.0162411
730.484	0.0161907
730.562	0.0162846
730.640	0.0163342
730.718	0.0162802
730.796	0.0161413
730.874	0.0163311
730.953	0.0163784
731.031	0.0162801
731.109	0.0162376
731.187	0.0161552
731.265	0.0163532
731.343	0.0163808
731.421	0.0164015
731.499	0.0162915
731.578	0.0162926
731.656	0.0162959
731.734	0.0162438
731.812	0.0162079
731.890	0.0162765
731.968	0.0164101
732.046	0.0162238
732.124	0.0160617
732.203	0.0161826
732.281	0.0162178
732.359	0.0163271
732.437	0.0162485
732.515	0.0162144
732.593	0.0161951
732.671	0.0162467
732.749	0.0161312
732.828	0.0161950
732.906	0.0163520
732.984	0.0163248
733.062	0.0160288
733.140	0.0163244
733.218	0.0164485
733.296	0.0163448
733.374	0.0162677
733.453	0.0163331
733.531	0.0162895
733.609	0.0162899
733.687	0.0162583
733.765	0.0162311
733.843	0.0163141
733.921	0.0162673
733.999	0.0162108
734.078	0.0163419
734.156	0.0162069
734.234	0.0161575
734.312	0.0162544
734.390	0.0162138
734.468	0.0161357
734.546	0.0161620
734.624	0.0161842
734.703	0.0161662
734.781	0.0162315
734.859	0.0161345
734.937	0.0161179
735.015	0.0161436
735.093	0.0161942
735.171	0.0161819
735.249	0.0161208
735.328	0.0162320
735.406	0.0162224
735.484	0.0161774
735.562	0.0162428
735.640	0.0162090
735.718	0.0163444
735.796	0.0161763
735.874	0.0163276
735.953	0.0161745
736.031	0.0161571
736.109	0.0162045
736.187	0.0161854
736.265	0.0162989
736.343	0.0160235
736.421	0.0161639
736.499	0.0162511
736.578	0.0162350
736.656	0.0162717
736.734	0.0160271
736.812	0.0158934
736.890	0.0160014
736.968	0.0161595
737.046	0.0161999
737.124	0.0161327
737.203	0.0161049
737.281	0.0161137
737.359	0.0161897
737.437	0.0163064
737.515	0.0160069
737.593	0.0160574
737.671	0.0161545
737.749	0.0161291
737.828	0.0160864
737.906	0.0161554
737.984	0.0159927
738.062	0.0161897
738.140	0.0162198
738.218	0.0161440
738.296	0.0162587
738.374	0.0160257
738.453	0.0161398
738.531	0.0161732
738.609	0.0161980
738.687	0.0160410
738.765	0.0161694
738.843	0.0160771
738.921	0.0160844
738.999	0.0162472
739.078	0.0161971
739.156	0.0161570
739.234	0.0160936
739.312	0.0161968
739.390	0.0163634
739.468	0.0162683
739.546	0.0162653
739.624	0.0162609
739.703	0.0162704
739.781	0.0162688
739.859	0.0161694
739.937	0.0163073
740.015	0.0162908
740.093	0.0161916
740.171	0.0162864
740.249	0.0162058
740.328	0.0161544
740.406	0.0161979
740.484	0.0161479
740.562	0.0161053
740.640	0.0161123
740.718	0.0162589
740.796	0.0161639
740.874	0.0161849
740.953	0.0160534
741.031	0.0162237
741.109	0.0160841
741.187	0.0161390
741.265	0.0161108
741.343	0.0162369
741.421	0.0159876
741.499	0.0160420
741.578	0.0160633
741.656	0.0159522
741.734	0.0161611
741.812	0.0161548
741.890	0.0158803
741.968	0.0160519
742.046	0.0161236
742.124	0.0161078
742.203	0.0160748
742.281	0.0160381
742.359	0.0160835
742.437	0.0161927
742.515	0.0159966
742.593	0.0159785
742.671	0.0161333
742.749	0.0160411
742.828	0.0161503
742.906	0.0162959
742.984	0.0161935
743.062	0.0161778
743.140	0.0160537
743.218	0.0162360
743.296	0.0162528
743.374	0.0163155
743.453	0.0163632
743.531	0.0162394
743.609	0.0163467
743.687	0.0164132
743.765	0.0162883
743.843	0.0163365
743.921	0.0163672
743.999	0.0161993
744.078	0.0163403
744.156	0.0163107
744.234	0.0161751
744.312	0.0163300
744.390	0.0161967
744.468	0.0163010
744.546	0.0162440
744.624	0.0162581
744.703	0.0161334
744.781	0.0162825
744.859	0.0161578
744.937	0.0162495
745.015	0.0163123
745.093	0.0164280
745.171	0.0162675
745.249	0.0161987
745.328	0.0162544
745.406	0.0163007
745.484	0.0162874
745.562	0.0162773
745.640	0.0162498
745.718	0.0160954
745.796	0.0161771
745.874	0.0161990
745.953	0.0162006
746.031	0.0162937
746.109	0.0160681
746.187	0.0161655
746.265	0.0162648
746.343	0.0161751
746.421	0.0159831
746.499	0.0161904
746.578	0.0161910
746.656	0.0162103
746.734	0.0162650
746.812	0.0161365
746.890	0.0163200
746.968	0.0162063
747.046	0.0160156
747.124	0.0162300
747.203	0.0162678
747.281	0.0161871
747.359	0.0162060
747.437	0.0159872
747.515	0.0162173
747.593	0.0161039
747.671	0.0160308
747.749	0.0160400
747.828	0.0160510
747.906	0.0160493
747.984	0.0161803
748.062	0.0161737
748.140	0.0160966
748.218	0.0161067
748.296	0.0161924
748.374	0.0162234
748.453	0.0162094
748.531	0.0162065
748.609	0.0163156
748.687	0.0161864
748.765	0.0160869
748.843	0.0162362
748.921	0.0163683
748.999	0.0163918
749.078	0.0162277
749.156	0.0159897
749.234	0.0161298
749.312	0.0162096
749.390	0.0162072
749.468	0.0160542
749.546	0.0161540
749.624	0.0162026
749.703	0.0161335
749.781	0.0162102
749.859	0.0162450
749.937	0.0161195
750.015	0.0162027
750.093	0.0163145
750.171	0.0162569
750.249	0.0161387
750.328	0.0162124
750.406	0.0161761
750.484	0.0162141
750.562	0.0162530
750.640	0.0162527
750.718	0.0161491
750.796	0.0162331
750.874	0.0162978
750.953	0.0162557
751.031	0.0161177
751.109	0.0162860
751.187	0.0161864
751.265	0.0162830
751.343	0.0163995
751.421	0.0161363
751.499	0.0163031
751.578	0.0162883
751.656	0.0163091
751.734	0.0163425
751.812	0.0162882
751.890	0.0162935
751.968	0.0163277
752.046	0.0163111
752.124	0.0161797
752.203	0.0162077
752.281	0.0162803
752.359	0.0161246
752.437	0.0161807
752.515	0.0163158
752.593	0.0160703
752.671	0.0161015
752.749	0.0161096
752.828	0.0160809
752.906	0.0161466
752.984	0.0160198
753.062	0.0161205
753.140	0.0161965
753.218	0.0161201
753.296	0.0160480
753.374	0.0161974
753.453	0.0159808
753.531	0.0160689
753.609	0.0160681
753.687	0.0160958
753.765	0.0161830
753.843	0.0161851
753.921	0.0160741
753.999	0.0161401
754.078	0.0160681
754.156	0.0160731
754.234	0.0160704
754.312	0.0162647
754.390	0.0161349
754.468	0.0162502
754.546	0.0161235
754.624	0.0160861
754.703	0.0161662
754.781	0.0162439
754.859	0.0161430
754.937	0.0160488
755.015	0.0160944
755.093	0.0161392
755.171	0.0161297
755.249	0.0160794
755.328	0.0161458
755.406	0.0160300
755.484	0.0161592
755.562	0.0160310
755.640	0.0160785
755.718	0.0161914
755.796	0.0160040
755.874	0.0161233
755.953	0.0158431
756.031	0.0159569
756.109	0.0157995
756.187	0.0159138
756.265	0.0159447
756.343	0.0159284
756.421	0.0157717
756.499	0.0158829
756.578	0.0157889
756.656	0.0160040
756.734	0.0158846
756.812	0.0159396
756.890	0.0159137
756.968	0.0158531
757.046	0.0159685
757.124	0.0161105
757.203	0.0160551
757.281	0.0159254
757.359	0.0161158
757.437	0.0159344
757.515	0.0160457
757.593	0.0159573
757.671	0.0160081
757.749	0.0159208
757.828	0.0159320
757.906	0.0160848
757.984	0.0160209
758.062	0.0160507
758.140	0.0160101
758.218	0.0160381
758.296	0.0160443
758.374	0.0160271
758.453	0.0161208
758.531	0.0161767
758.609	0.0160865
758.687	0.0159571
758.765	0.0160725
758.843	0.0161870
758.921	0.0160934
758.999	0.0160799
759.078	0.0161044
759.156	0.0161084
759.234	0.0159535
759.312	0.0160403
759.390	0.0159527
759.468	0.0159831
759.546	0.0160419
759.624	0.0160137
759.703	0.0160968
759.781	0.0160105
759.859	0.0161050
759.937	0.0160835
760.015	0.0162600
760.093	0.0161680
760.171	0.0160648
760.249	0.0161800
760.328	0.0160835
760.406	0.0161161
760.484	0.0161427
760.562	0.0162051
760.640	0.0161421
760.718	0.0162038
760.796	0.0161334
760.874	0.0161916
760.953	0.0160732
761.031	0.0161361
761.109	0.0159945
761.187	0.0161106
761.265	0.0159744
761.343	0.0159632
761.421	0.0160669
761.499	0.0160210
761.578	0.0161526
761.656	0.0160768
761.734	0.0160532
761.812	0.0160047
761.890	0.0161795
761.968	0.0161982
762.046	0.0162080
762.124	0.0161610
762.203	0.0160582
762.281	0.0161164
762.359	0.0161389
762.437	0.0161397
762.515	0.0160732
762.593	0.0160633
762.671	0.0162201
762.749	0.0159726
762.828	0.0160326
762.906	0.0160821
762.984	0.0159994
763.062	0.0162169
763.140	0.0162354
763.218	0.0161504
763.296	0.0161367
763.374	0.0161297
763.453	0.0161263
763.531	0.0159700
763.609	0.0161791
763.687	0.0159952
763.765	0.0160411
763.843	0.0159660
763.921	0.0160102
763.999	0.0159080
764.078	0.0159634
764.156	0.0160896
764.234	0.0160993
764.312	0.0159925
764.390	0.0160655
764.468	0.0159129
764.546	0.0160653
764.624	0.0161144
764.703	0.0160389
764.781	0.0161488
764.859	0.0161362
764.937	0.0160254
765.015	0.0161461
765.093	0.0162124
765.171	0.0161352
765.249	0.0161371
765.328	0.0161494
765.406	0.0162558
765.484	0.0161159
765.562	0.0162057
765.640	0.0162268
765.718	0.0161504
765.796	0.0161331
765.874	0.0159762
765.953	0.0160793
766.031	0.0160067
766.109	0.0160555
766.187	0.0161156
766.265	0.0160511
766.343	0.0160139
766.421	0.0159212
766.499	0.0161319
766.578	0.0160388
766.656	0.0160634
766.734	0.0161063
766.812	0.0159574
766.890	0.0161433
766.968	0.0160201
767.046	0.0160581
767.124	0.0160608
767.203	0.0160231
767.281	0.0161629
767.359	0.0161869
767.437	0.0162217
767.515	0.0163248
767.593	0.0162716
767.671	0.0162874
767.749	0.0162428
767.828	0.0163586
767.906	0.0163142
767.984	0.0163853
768.062	0.0163072
768.140	0.0162946
768.218	0.0162411
768.296	0.0163375
768.374	0.0162695
768.453	0.0161133
768.531	0.0162184
768.609	0.0162347
768.687	0.0161259
768.765	0.0162096
768.843	0.0161938
768.921	0.0162234
768.999	0.0161932
769.078	0.0162796
769.156	0.0162563
769.234	0.0163245
769.312	0.0161138
769.390	0.0163385
769.468	0.0163353
769.546	0.0161803
769.624	0.0160457
769.703	0.0161844
769.781	0.0162103
769.859	0.0162398
769.937	0.0161449
770.015	0.0161371
770.093	0.0160717
770.171	0.0160984
770.249	0.0161423
770.328	0.0159534
770.406	0.0160476
770.484	0.0160394
770.562	0.0159911
770.640	0.0161080
770.718	0.0160490
770.796	0.0160854
770.874	0.0161063
770.953	0.0161514
771.031	0.0161706
771.109	0.0161810
771.187	0.0161958
771.265	0.0163572
771.343	0.0160617
771.421	0.0160684
771.499	0.0162267
771.578	0.0161600
771.656	0.0161446
771.734	0.0161801
771.812	0.0161788
771.890	0.0161739
771.968	0.0161142
772.046	0.0161239
772.124	0.0162064
772.203	0.0162493
772.281	0.0163194
772.359	0.0162529
772.437	0.0161686
772.515	0.0162920
772.593	0.0162740
772.671	0.0162399
772.749	0.0162164
772.828	0.0163187
772.906	0.0162022
772.984	0.0161994
773.062	0.0161787
773.140	0.0162378
773.218	0.0162655
773.296	0.0161687
773.374	0.0162514
773.453	0.0162355
773.531	0.0162944
773.609	0.0162901
773.687	0.0162024
773.765	0.0162347
773.843	0.0161366
773.921	0.0161623
773.999	0.0161829
774.078	0.0160478
774.156	0.0161691
774.234	0.0162189
774.312	0.0161386
774.390	0.0160722
774.468	0.0160117
774.546	0.0160622
774.624	0.0160455
774.703	0.0161420
774.781	0.0162029
774.859	0.0161308
774.937	0.0161283
775.015	0.0160163
775.093	0.0161976
775.171	0.0161122
775.249	0.0160207
775.328	0.0161306
775.406	0.0162784
775.484	0.0162346
775.562	0.0162933
775.640	0.0161798
775.718	0.0162426
775.796	0.0162625
775.874	0.0162332
775.953	0.0161649
776.031	0.0161009
776.109	0.0161757
776.187	0.0162016
776.265	0.0160773
776.343	0.0160880
776.421	0.0159884
776.499	0.0159839
776.578	0.0158419
776.656	0.0158153
776.734	0.0158537
776.812	0.0158749
776.890	0.0158956
776.968	0.0158895
777.046	0.0159878
777.124	0.0159177
777.203	0.0159201
777.281	0.0158636
777.359	0.0160655
777.437	0.0161193
777.515	0.0159798
777.593	0.0160883
777.671	0.0160397
777.749	0.0161299
777.828	0.0162679
777.906	0.0162403
777.984	0.0162296
778.062	0.0161388
778.140	0.0162614
778.218	0.0162697
778.296	0.0162064
778.374	0.0161674
778.453	0.0161860
778.531	0.0162968
778.609	0.0160739
778.687	0.0162551
778.765	0.0160358
778.843	0.0159010
778.921	0.0160194
778.999	0.0159888
779.078	0.0160017
779.156	0.0160483
779.234	0.0159132
779.312	0.0159809
779.390	0.0158697
779.468	0.0159352
779.546	0.0160697
779.624	0.0159491
779.703	0.0158282
779.781	0.0158244
779.859	0.0158764
779.937	0.0158420
780.015	0.0160513
780.093	0.0158773
780.171	0.0158817
780.249	0.0160352
780.328	0.0159862
780.406	0.0159149
780.484	0.0159549
780.562	0.0158800
780.640	0.0159149
780.718	0.0158198
780.796	0.0158428
780.874	0.0158795
780.953	0.0157745
781.031	0.0158932
781.109	0.0159843
781.187	0.0157906
781.265	0.0159207
781.343	0.0159867
781.421	0.0159477
781.499	0.0159359
781.578	0.0160204
781.656	0.0160559
781.734	0.0160340
781.812	0.0161052
781.890	0.0161952
781.968	0.0161015
782.046	0.0161491
782.124	0.0160749
782.203	0.0161165
782.281	0.0160469
782.359	0.0161278
782.437	0.0160706
782.515	0.0160585
782.593	0.0159546
782.671	0.0160775
782.749	0.0160838
782.828	0.0161244
782.906	0.0160545
782.984	0.0160004
783.062	0.0159773
783.140	0.0160530
783.218	0.0159843
783.296	0.0161188
783.374	0.0162269
783.453	0.0161594
783.531	0.0162740
783.609	0.0162860
783.687	0.0162619
783.765	0.0162612
783.843	0.0161454
783.921	0.0161033
783.999	0.0160628
784.078	0.0161273
784.156	0.0160582
784.234	0.0160111
784.312	0.0162415
784.390	0.0160378
784.468	0.0160944
784.546	0.0161805
784.624	0.0160300
784.703	0.0159586
784.781	0.0161192
784.859	0.0160743
784.937	0.0160087
785.015	0.0160257
785.093	0.0160250
785.171	0.0159859
785.249	0.0160662
785.328	0.0159766
785.406	0.0160415
785.484	0.0160237
785.562	0.0160398
785.640	0.0160085
785.718	0.0161225
785.796	0.0160507
785.874	0.0159914
785.953	0.0161259
786.031	0.0160313
786.109	0.0162772
786.187	0.0162471
786.265	0.0161994
786.343	0.0161226
786.421	0.0162309
786.499	0.0162961
786.578	0.0161897
786.656	0.0162064
786.734	0.0162059
786.812	0.0160205
786.890	0.0160044
786.968	0.0161169
787.046	0.0161598
787.124	0.0160672
787.203	0.0159552
787.281	0.0161183
787.359	0.0161351
787.437	0.0160494
787.515	0.0161165
787.593	0.0160974
787.671	0.0161998
787.749	0.0162860
787.828	0.0161867
787.906	0.0163295
787.984	0.0162579
788.062	0.0161993
788.140	0.0163559
788.218	0.0162231
788.296	0.0162531
788.374	0.0162694
788.453	0.0163171
788.531	0.0163091
788.609	0.0161977
788.687	0.0163116
788.765	0.0162462
788.843	0.0163557
788.921	0.0163425
788.999	0.0163074
789.078	0.0164100
789.156	0.0162988
789.234	0.0162632
789.312	0.0162695
789.390	0.0162560
789.468	0.0164551
789.546	0.0164200
789.624	0.0162777
789.703	0.0162640
789.781	0.0162303
789.859	0.0162136
789.937	0.0162350
790.015	0.0162033
790.093	0.0161646
790.171	0.0160366
790.249	0.0159792
790.328	0.0160439
790.406	0.0161627
790.484	0.0159387
790.562	0.0158245
790.640	0.0159238
790.718	0.0160484
790.796	0.0160918
790.874	0.0159953
790.953	0.0158910
791.031	0.0160658
791.109	0.0159914
791.187	0.0160327
791.265	0.0160028
791.343	0.0158932
791.421	0.0160377
791.499	0.0162074
791.578	0.0161492
791.656	0.0161102
791.734	0.0161858
791.812	0.0162193
791.890	0.0162327
791.968	0.0165041
792.046	0.0164985
792.124	0.0162701
792.203	0.0163338
792.281	0.0165099
792.359	0.0163801
792.437	0.0163277
792.515	0.0163512
792.593	0.0164279
792.671	0.0163203
792.749	0.0163616
792.828	0.0163621
792.906	0.0163275
792.984	0.0162042
793.062	0.0162270
793.140	0.0163466
793.218	0.0161765
793.296	0.0161143
793.374	0.0163467
793.453	0.0162024
793.531	0.0162377
793.609	0.0162597
793.687	0.0161877
793.765	0.0162618
793.843	0.0163860
793.921	0.0162829
793.999	0.0163686
794.078	0.0164077
794.156	0.0164141
794.234	0.0163515
794.312	0.0161805
794.390	0.0161876
794.468	0.0163268
794.546	0.0160480
794.624	0.0161049
794.703	0.0162741
794.781	0.0161023
794.859	0.0162530
794.937	0.0161890
795.015	0.0161713
795.093	0.0162003
795.171	0.0161253
795.249	0.0161125
795.328	0.0160474
795.406	0.0159939
795.484	0.0160988
795.562	0.0161040
795.640	0.0160568
795.718	0.0160418
795.796	0.0161323
795.874	0.0162391
795.953	0.0160791
796.031	0.0162557
796.109	0.0162115
796.187	0.0161473
796.265	0.0161053
796.343	0.0162271
796.421	0.0160735
796.499	0.0161491
796.578	0.0162184
796.656	0.0162141
796.734	0.0162533
796.812	0.0161964
796.890	0.0161536
796.968	0.0162643
797.046	0.0163298
797.124	0.0162724
797.203	0.0164235
797.281	0.0163522
797.359	0.0164006
797.437	0.0162639
797.515	0.0163664
797.593	0.0164320
797.671	0.0163085
797.749	0.0164925
797.828	0.0163654
797.906	0.0162944
797.984	0.0162659
798.062	0.0163364
798.140	0.0163450
798.218	0.0162162
798.296	0.0162643
798.374	0.0163799
798.453	0.0163911
798.531	0.0163728
798.609	0.0162687
798.687	0.0162050
798.765	0.0163199
798.843	0.0162409
798.921	0.0162839
798.999	0.0162691
799.078	0.0162427
799.156	0.0162312
799.234	0.0161481
799.312	0.0160936
799.390	0.0161044
799.468	0.0161893
799.546	0.0162308
799.624	0.0160864
799.703	0.0160796
799.781	0.0162440
799.859	0.0160891
799.937	0.0160320
800.015	0.0160118
800.093	0.0160759
800.171	0.0162130
800.249	0.0160744
800.328	0.0160989
800.406	0.0160547
800.484	0.0161985
800.562	0.0161434
800.640	0.0159660
800.718	0.0160796
800.796	0.0161136
800.874	0.0160863
800.953	0.0160416
801.031	0.0160336
801.109	0.0159440
801.187	0.0160940
801.265	0.0160242
801.343	0.0158279
801.421	0.0159682
801.499	0.0161117
801.578	0.0160841
801.656	0.0160083
801.734	0.0161195
801.812	0.0159937
801.890	0.0160724
801.968	0.0161562
802.046	0.0161378
802.124	0.0161027
802.203	0.0161639
802.281	0.0162806
802.359	0.0163371
802.437	0.0162603
802.515	0.0163529
802.593	0.0163149
802.671	0.0164573
802.749	0.0164901
802.828	0.0163130
802.906	0.0163163
802.984	0.0163813
803.062	0.0162489
803.140	0.0161964
803.218	0.0164170
803.296	0.0163880
803.374	0.0163155
803.453	0.0163358
803.531	0.0162844
803.609	0.0162775
803.687	0.0162328
803.765	0.0163121
803.843	0.0163528
803.921	0.0162799
803.999	0.0163510
804.078	0.0162561
804.156	0.0161728
804.234	0.0161176
804.312	0.0161134
804.390	0.0162849
804.468	0.0162215
804.546	0.0161225
804.624	0.0159829
804.703	0.0160118
804.781	0.0160006
804.859	0.0159970
804.937	0.0160027
805.015	0.0159286
805.093	0.0159273
805.171	0.0158277
805.249	0.0159167
805.328	0.0158257
805.406	0.0159467
805.484	0.0160072
805.562	0.0159948
805.640	0.0161006
805.718	0.0160719
805.796	0.0160144
805.874	0.0160473
805.953	0.0160283
806.031	0.0160794
806.109	0.0161837
806.187	0.0160992
806.265	0.0162638
806.343	0.0161823
806.421	0.0162643
806.499	0.0160802
806.578	0.0160914
806.656	0.0161303
806.734	0.0163187
806.812	0.0162974
806.890	0.0161906
806.968	0.0162142
807.046	0.0162223
807.124	0.0162802
807.203	0.0161998
807.281	0.0162059
807.359	0.0163414
807.437	0.0165478
807.515	0.0163334
807.593	0.0161781
807.671	0.0163280
807.749	0.0163503
807.828	0.0162940
807.906	0.0163924
807.984	0.0162840
808.062	0.0162875
808.140	0.0162838
808.218	0.0164000
808.296	0.0163006
808.374	0.0163264
808.453	0.0163377
808.531	0.0163306
808.609	0.0163821
808.687	0.0161349
808.765	0.0161667
808.843	0.0163721
808.921	0.0161311
808.999	0.0161886
809.078	0.0161630
809.156	0.0160046
809.234	0.0162218
809.312	0.0162238
809.390	0.0160895
809.468	0.0163070
809.546	0.0162694
809.624	0.0161386
809.703	0.0161684
809.781	0.0162645
809.859	0.0161823
809.937	0.0161883
810.015	0.0160435
810.093	0.0161269
810.171	0.0161599
810.249	0.0161368
810.328	0.0162171
810.406	0.0163081
810.484	0.0162530
810.562	0.0161140
810.640	0.0161017
810.718	0.0162763
810.796	0.0163376
810.874	0.0162753
810.953	0.0162074
811.031	0.0161332
811.109	0.0161069
811.187	0.0161990
811.265	0.0162597
811.343	0.0160884
811.421	0.0161354
811.499	0.0161437
811.578	0.0162654
811.656	0.0163437
811.734	0.0161775
811.812	0.0163196
811.890	0.0162596
811.968	0.0162793
812.046	0.0162775
812.124	0.0163371
812.203	0.0163402
812.281	0.0163181
812.359	0.0163751
812.437	0.0162853
812.515	0.0163824
812.593	0.0164283
812.671	0.0164156
812.749	0.0162915
812.828	0.0163145
812.906	0.0164207
812.984	0.0162065
813.062	0.0163420
813.140	0.0164179
813.218	0.0163004
813.296	0.0162743
813.374	0.0163783
813.453	0.0162821
813.531	0.0161378
813.609	0.0162466
813.687	0.0160336
813.765	0.0162312
813.843	0.0161570
813.921	0.0160969
813.999	0.0161986
814.078	0.0162033
814.156	0.0161090
814.234	0.0161624
814.312	0.0162525
814.390	0.0161876
814.468	0.0161974
814.546	0.0162347
814.624	0.0161472
814.703	0.0162804
814.781	0.0162558
814.859	0.0163005
814.937	0.0161519
815.015	0.0160574
815.093	0.0162678
815.171	0.0161930
815.249	0.0161646
815.328	0.0161768
815.406	0.0162528
815.484	0.0162180
815.562	0.0160764
815.640	0.0160857
815.718	0.0162485
815.796	0.0163942
815.874	0.0163171
815.953	0.0162029
816.031	0.0164351
816.109	0.0163469
816.187	0.0163883
816.265	0.0161380
816.343	0.0163957
816.421	0.0164427
816.499	0.0162766
816.578	0.0163063
816.656	0.0164874
816.734	0.0164084
816.812	0.0163842
816.890	0.0164353
816.968	0.0164835
817.046	0.0164050
817.124	0.0163110
817.203	0.0164168
817.281	0.0163869
817.359	0.0162719
817.437	0.0162497
817.515	0.0164900
817.593	0.0163613
817.671	0.0162664
817.749	0.0161217
817.828	0.0162369
817.906	0.0162844
817.984	0.0161990
818.062	0.0161538
818.140	0.0160909
818.218	0.0160265
818.296	0.0160409
818.374	0.0159701
818.453	0.0160534
818.531	0.0160831
818.609	0.0160319
818.687	0.0161736
818.765	0.0161735
818.843	0.0161002
818.921	0.0160693
818.999	0.0162483
819.078	0.0160004
819.156	0.0160979
819.234	0.0162794
819.312	0.0162045
819.390	0.0162787
819.468	0.0161835
819.546	0.0161124
819.624	0.0161460
819.703	0.0160923
819.781	0.0161562
819.859	0.0161981
819.937	0.0162514
820.015	0.0162426
820.093	0.0161364
820.171	0.0161432
820.249	0.0162265
820.328	0.0161472
820.406	0.0161078
820.484	0.0161801
820.562	0.0160931
820.640	0.0163027
820.718	0.0163160
820.796	0.0160477
820.874	0.0162323
820.953	0.0162099
821.031	0.0162154
821.109	0.0162830
821.187	0.0162630
821.265	0.0160847
821.343	0.0161044
821.421	0.0160766
821.499	0.0160663
821.578	0.0159998
821.656	0.0160862
821.734	0.0160283
821.812	0.0159865
821.890	0.0159316
821.968	0.0161418
822.046	0.0161072
822.124	0.0160656
822.203	0.0161032
822.281	0.0163634
822.359	0.0161924
822.437	0.0161393
822.515	0.0163015
822.593	0.0163208
822.671	0.0162746
822.749	0.0162354
822.828	0.0161420
822.906	0.0161568
822.984	0.0161428
823.062	0.0161715
823.140	0.0162460
823.218	0.0161437
823.296	0.0160699
823.374	0.0160971
823.453	0.0162096
823.531	0.0161880
823.609	0.0161440
823.687	0.0160844
823.765	0.0161890
823.843	0.0161742
823.921	0.0160751
823.999	0.0162619
824.078	0.0162424
824.156	0.0160787
824.234	0.0161140
824.312	0.0161613
824.390	0.0161647
824.468	0.0160085
824.546	0.0160944
824.624	0.0161843
824.703	0.0160086
824.781	0.0159400
824.859	0.0160336
824.937	0.0160648
825.015	0.0159920
825.093	0.0158826
825.171	0.0157165
825.249	0.0159107
825.328	0.0158479
825.406	0.0158273
825.484	0.0160637
825.562	0.0159560
825.640	0.0159219
825.718	0.0159923
825.796	0.0159735
825.874	0.0160172
825.953	0.0160926
826.031	0.0160966
826.109	0.0161787
826.187	0.0161717
826.265	0.0161479
826.343	0.0161747
826.421	0.0162025
826.499	0.0162627
826.578	0.0162881
826.656	0.0162315
826.734	0.0164279
826.812	0.0161337
826.890	0.0162983
826.968	0.0162572
827.046	0.0161658
827.124	0.0162121
827.203	0.0162416
827.281	0.0162498
827.359	0.0160855
827.437	0.0162071
827.515	0.0161801
827.593	0.0161342
827.671	0.0160551
827.749	0.0160188
827.828	0.0160063
827.906	0.0160511
827.984	0.0159467
828.062	0.0158932
828.140	0.0158815
828.218	0.0159231
828.296	0.0158604
828.374	0.0158733
828.453	0.0158770
828.531	0.0157925
828.609	0.0158538
828.687	0.0159002
828.765	0.0159905
828.843	0.0160133
828.921	0.0160570
828.999	0.0159645
829.078	0.0159765
829.156	0.0160168
829.234	0.0159711
829.312	0.0159814
829.390	0.0161607
829.468	0.0161222
829.546	0.0161282
829.624	0.0161198
829.703	0.0162559
829.781	0.0161912
829.859	0.0161107
829.937	0.0162606
830.015	0.0160938
830.093	0.0162695
830.171	0.0161481
830.249	0.0160992
830.328	0.0162663
830.406	0.0161013
830.484	0.0160850
830.562	0.0160229
830.640	0.0161469
830.718	0.0159588
830.796	0.0160805
830.874	0.0160213
830.953	0.0160676
831.031	0.0160316
831.109	0.0161769
831.187	0.0160880
831.265	0.0159794
831.343	0.0160507
831.421	0.0162751
831.499	0.0160849
831.578	0.0159869
831.656	0.0160777
831.734	0.0160085
831.812	0.0160819
831.890	0.0162006
831.968	0.0161227
832.046	0.0160442
832.124	0.0162595
832.203	0.0161924
832.281	0.0160350
832.359	0.0159915
832.437	0.0159733
832.515	0.0160541
832.593	0.0160666
832.671	0.0160243
832.749	0.0160793
832.828	0.0159663
832.906	0.0159343
832.984	0.0161238
833.062	0.0161047
833.140	0.0160526
833.218	0.0158693
833.296	0.0161303
833.374	0.0161413
833.453	0.0160851
833.531	0.0161142
833.609	0.0162081
833.687	0.0162685
833.765	0.0162756
833.843	0.0162218
833.921	0.0163925
833.999	0.0164263
834.078	0.0164532
834.156	0.0164152
834.234	0.0165580
834.312	0.0164600
834.390	0.0164469
834.468	0.0165506
834.546	0.0165791
834.624	0.0163687
834.703	0.0163992
834.781	0.0164472
834.859	0.0162790
834.937	0.0163226
835.015	0.0162836
835.093	0.0162404
835.171	0.0162219
835.249	0.0161483
835.328	0.0161959
835.406	0.0160668
835.484	0.0161568
835.562	0.0161113
835.640	0.0161258
835.718	0.0159694
835.796	0.0158925
835.874	0.0160061
835.953	0.0161589
836.031	0.0159969
836.109	0.0160535
836.187	0.0161823
836.265	0.0160118
836.343	0.0160175
836.421	0.0160595
836.499	0.0162102
836.578	0.0162474
836.656	0.0164214
836.734	0.0162398
836.812	0.0163884
836.890	0.0163089
836.968	0.0165111
837.046	0.0165914
837.124	0.0166278
837.203	0.0166045
837.281	0.0167085
837.359	0.0166240
837.437	0.0165617
837.515	0.0165000
837.593	0.0165961
837.671	0.0164076
837.749	0.0165337
837.828	0.0162236
837.906	0.0162814
837.984	0.0161610
838.062	0.0161080
838.140	0.0160970
838.218	0.0159958
838.296	0.0159978
838.374	0.0160704
838.453	0.0159100
838.531	0.0158115
838.609	0.0159151
838.687	0.0159152
838.765	0.0160457
838.843	0.0159416
838.921	0.0158418
838.999	0.0159386
839.078	0.0161011
839.156	0.0160580
839.234	0.0160704
839.312	0.0160253
839.390	0.0161275
839.468	0.0161346
839.546	0.0161149
839.624	0.0162894
839.703	0.0162180
839.781	0.0162364
839.859	0.0162582
839.937	0.0162734
840.015	0.0162708
840.093	0.0162666
840.171	0.0163911
840.249	0.0162425
840.328	0.0163332
840.406	0.0164144
840.484	0.0162922
840.562	0.0162235
840.640	0.0162524
840.718	0.0163527
840.796	0.0160774
840.874	0.0161350
840.953	0.0161435
841.031	0.0160178
841.109	0.0159404
841.187	0.0160970
841.265	0.0158740
841.343	0.0159618
841.421	0.0158225
841.499	0.0159395
841.578	0.0157216
841.656	0.0159428
841.734	0.0159966
841.812	0.0159936
841.890	0.0160212
841.968	0.0160774
842.046	0.0161072
842.124	0.0161099
842.203	0.0161554
842.281	0.0163197
842.359	0.0161224
842.437	0.0161576
842.515	0.0161465
842.593	0.0163236
842.671	0.0162302
842.749	0.0162471
842.828	0.0162131
842.906	0.0162927
842.984	0.0161884
843.062	0.0162234
843.140	0.0162634
843.218	0.0163806
843.296	0.0161430
843.374	0.0160628
843.453	0.0161089
843.531	0.0161327
843.609	0.0160236
843.687	0.0161430
843.765	0.0160505
843.843	0.0159530
843.921	0.0159768
843.999	0.0159616
844.078	0.0159535
844.156	0.0159215
844.234	0.0160619
844.312	0.0159753
844.390	0.0158941
844.468	0.0159499
844.546	0.0160089
844.624	0.0160113
844.703	0.0160726
844.781	0.0162178
844.859	0.0162039
844.937	0.0162704
845.015	0.0160392
845.093	0.0162266
845.171	0.0161153
845.249	0.0160330
845.328	0.0163068
845.406	0.0161224
845.484	0.0161894
845.562	0.0161057
845.640	0.0161716
845.718	0.0161105
845.796	0.0161430
845.874	0.0161156
845.953	0.0161295
846.031	0.0161365
846.109	0.0161229
846.187	0.0161847
846.265	0.0161066
846.343	0.0159499
846.421	0.0162313
846.499	0.0161158
846.578	0.0160106
846.656	0.0161194
846.734	0.0161103
846.812	0.0161604
846.890	0.0159187
846.968	0.0159597
847.046	0.0161242
847.124	0.0160243
847.203	0.0160412
847.281	0.0159810
847.359	0.0159343
847.437	0.0158238
847.515	0.0160254
847.593	0.0160600
847.671	0.0160354
847.749	0.0159001
847.828	0.0159232
847.906	0.0160176
847.984	0.0160167
848.062	0.0160809
848.140	0.0159566
848.218	0.0159781
848.296	0.0160397
848.374	0.0159821
848.453	0.0159898
848.531	0.0160609
848.609	0.0160714
848.687	0.0160307
848.765	0.0158437
848.843	0.0160345
848.921	0.0160890
848.999	0.0159303
849.078	0.0159879
849.156	0.0158650
849.234	0.0159118
849.312	0.0161459
849.390	0.0158714
849.468	0.0160206
849.546	0.0160661
849.624	0.0159232
849.703	0.0159729
849.781	0.0160261
849.859	0.0159753
849.937	0.0160225
850.015	0.0158470
850.093	0.0159270
850.171	0.0159012
850.249	0.0160615
850.328	0.0159697
850.406	0.0158443
850.484	0.0160213
850.562	0.0159570
850.640	0.0159763
850.718	0.0159744
850.796	0.0158379
850.874	0.0159840
850.953	0.0161597
851.031	0.0161134
851.109	0.0159505
851.187	0.0160155
851.265	0.0160992
851.343	0.0160755
851.421	0.0160731
851.499	0.0159655
851.578	0.0158369
851.656	0.0160634
851.734	0.0160820
851.812	0.0161811
851.890	0.0160218
851.968	0.0160129
852.046	0.0160305
852.124	0.0161520
852.203	0.0162078
852.281	0.0160296
852.359	0.0160931
852.437	0.0160904
852.515	0.0160442
852.593	0.0161889
852.671	0.0162709
852.749	0.0161621
852.828	0.0160038
852.906	0.0161550
852.984	0.0160898
853.062	0.0161342
853.140	0.0162012
853.218	0.0161205
853.296	0.0162409
853.374	0.0161913
853.453	0.0160678
853.531	0.0162295
853.609	0.0162265
853.687	0.0161810
853.765	0.0160626
853.843	0.0161158
853.921	0.0161732
853.999	0.0161819
854.078	0.0161248
854.156	0.0162118
854.234	0.0161728
854.312	0.0161882
854.390	0.0161783
854.468	0.0160628
854.546	0.0161792
854.624	0.0160674
854.703	0.0160352
854.781	0.0161469
854.859	0.0160394
854.937	0.0159690
855.015	0.0160487
855.093	0.0161817
855.171	0.0159043
855.249	0.0161637
855.328	0.0160596
855.406	0.0160405
855.484	0.0160989
855.562	0.0161205
855.640	0.0159593
855.718	0.0160468
855.796	0.0161774
855.874	0.0159855
855.953	0.0160265
856.031	0.0160846
856.109	0.0161327
856.187	0.0162488
856.265	0.0161308
856.343	0.0162131
856.421	0.0161449
856.499	0.0162198
856.578	0.0161509
856.656	0.0161464
856.734	0.0163010
856.812	0.0162022
856.890	0.0163258
856.968	0.0162856
857.046	0.0161713
857.124	0.0163107
857.203	0.0162811
857.281	0.0163145
857.359	0.0163498
857.437	0.0162962
857.515	0.0163555
857.593	0.0162522
857.671	0.0162395
857.749	0.0162379
857.828	0.0162053
857.906	0.0164435
857.984	0.0162557
858.062	0.0162471
858.140	0.0163118
858.218	0.0162659
858.296	0.0162798
858.374	0.0162932
858.453	0.0161303
858.531	0.0161777
858.609	0.0161561
858.687	0.0159313
858.765	0.0160165
858.843	0.0160837
858.921	0.0160152
858.999	0.0159963
859.078	0.0158546
859.156	0.0160059
859.234	0.0158723
859.312	0.0159737
859.390	0.0158932
859.468	0.0158179
859.546	0.0158494
859.624	0.0159713
859.703	0.0158503
859.781	0.0158690
859.859	0.0157462
859.937	0.0158136
860.015	0.0159525
860.093	0.0158347
860.171	0.0158255
860.249	0.0159698
860.328	0.0158253
860.406	0.0159451
860.484	0.0160596
860.562	0.0160809
860.640	0.0159891
860.718	0.0161252
860.796	0.0160188
860.874	0.0162045
860.953	0.0161915
861.031	0.0161600
861.109	0.0161902
861.187	0.0161738
861.265	0.0161884
861.343	0.0161091
861.421	0.0162289
861.499	0.0162772
861.578	0.0161966
861.656	0.0161658
861.734	0.0163390
861.812	0.0162849
861.890	0.0162616
861.968	0.0163047
862.046	0.0162068
862.124	0.0162362
862.203	0.0161092
862.281	0.0161343
862.359	0.0162188
862.437	0.0160503
862.515	0.0159305
862.593	0.0161277
862.671	0.0159653
862.749	0.0160437
862.828	0.0160018
862.906	0.0159566
862.984	0.0160685
863.062	0.0161022
863.140	0.0160655
863.218	0.0160002
863.296	0.0160430
863.374	0.0161143
863.453	0.0160249
863.531	0.0160414
863.609	0.0161112
863.687	0.0160458
863.765	0.0160725
863.843	0.0161843
863.921	0.0161469
863.999	0.0161547
864.078	0.0160575
864.156	0.0162729
864.234	0.0162363
864.312	0.0162396
864.390	0.0162468
864.468	0.0161376
864.546	0.0162964
864.624	0.0163712
864.703	0.0162240
864.781	0.0162365
864.859	0.0162811
864.937	0.0164438
865.015	0.0161778
865.093	0.0161236
865.171	0.0163150
865.249	0.0161118
865.328	0.0161726
865.406	0.0163318
865.484	0.0161563
865.562	0.0160973
865.640	0.0161286
865.718	0.0161971
865.796	0.0160971
865.874	0.0161656
865.953	0.0161807
866.031	0.0161995
866.109	0.0160867
866.187	0.0161941
866.265	0.0161688
866.343	0.0160526
866.421	0.0162160
866.499	0.0161302
866.578	0.0162577
866.656	0.0160258
866.734	0.0160393
866.812	0.0161360
866.890	0.0162115
866.968	0.0162463
867.046	0.0163057
867.124	0.0163219
867.203	0.0161990
867.281	0.0162916
867.359	0.0162308
867.437	0.0162647
867.515	0.0164672
867.593	0.0163674
867.671	0.0163309
867.749	0.0164142
867.828	0.0163449
867.906	0.0163222
867.984	0.0162600
868.062	0.0163289
868.140	0.0164579
868.218	0.0163471
868.296	0.0164581
868.374	0.0164207
868.453	0.0163782
868.531	0.0162712
868.609	0.0162416
868.687	0.0163937
868.765	0.0162849
868.843	0.0163318
868.921	0.0162798
868.999	0.0161102
869.078	0.0162132
869.156	0.0161395
869.234	0.0161721
869.312	0.0161658
869.390	0.0160410
869.468	0.0161263
869.546	0.0161414
869.624	0.0161458
869.703	0.0161091
869.781	0.0159985
869.859	0.0160478
869.937	0.0160793
870.015	0.0160384
870.093	0.0161586
870.171	0.0159505
870.249	0.0160747
870.328	0.0161497
870.406	0.0160432
870.484	0.0162045
870.562	0.0161613
870.640	0.0160963
870.718	0.0162376
870.796	0.0162710
870.874	0.0163255
870.953	0.0163231
871.031	0.0163153
871.109	0.0163734
871.187	0.0163655
871.265	0.0161882
871.343	0.0162534
871.421	0.0163915
871.499	0.0162291
871.578	0.0162126
871.656	0.0163271
871.734	0.0162305
871.812	0.0161899
871.890	0.0162772
871.968	0.0161794
872.046	0.0162171
872.124	0.0162125
872.203	0.0163146
872.281	0.0161735
872.359	0.0162344
872.437	0.0162151
872.515	0.0161026
872.593	0.0162447
872.671	0.0163421
872.749	0.0163123
872.828	0.0163235
872.906	0.0162423
872.984	0.0162280
873.062	0.0162549
873.140	0.0162481
873.218	0.0161822
873.296	0.0162083
873.374	0.0162002
873.453	0.0161828
873.531	0.0162514
873.609	0.0163256
873.687	0.0161827
873.765	0.0163342
873.843	0.0163298
873.921	0.0163885
873.999	0.0164293
874.078	0.0162126
874.156	0.0163184
874.234	0.0160845
874.312	0.0161198
874.390	0.0162190
874.468	0.0161305
874.546	0.0161908
874.624	0.0162193
874.703	0.0161397
874.781	0.0161710
874.859	0.0161044
874.937	0.0161034
875.015	0.0161318
875.093	0.0160890
875.171	0.0160924
875.249	0.0162017
875.328	0.0161712
875.406	0.0161626
875.484	0.0161777
875.562	0.0162215
875.640	0.0161555
875.718	0.0163118
875.796	0.0163963
875.874	0.0161962
875.953	0.0160609
876.031	0.0163956
876.109	0.0164198
876.187	0.0162788
876.265	0.0162165
876.343	0.0163047
876.421	0.0162556
876.499	0.0162906
876.578	0.0161600
876.656	0.0161238
876.734	0.0162347
876.812	0.0162319
876.890	0.0162307
876.968	0.0161034
877.046	0.0161127
877.124	0.0162408
877.203	0.0161125
877.281	0.0162438
877.359	0.0161375
877.437	0.0161240
877.515	0.0162619
877.593	0.0162076
877.671	0.0160832
877.749	0.0160033
877.828	0.0160708
877.906	0.0160355
877.984	0.0161317
878.062	0.0161549
878.140	0.0161417
878.218	0.0160577
878.296	0.0161037
878.374	0.0160138
878.453	0.0159635
878.531	0.0160214
878.609	0.0161522
878.687	0.0159022
878.765	0.0162162
878.843	0.0161133
878.921	0.0161736
878.999	0.0160699
879.078	0.0160990
879.156	0.0160987
879.234	0.0161305
879.312	0.0161794
879.390	0.0161786
879.468	0.0160659
879.546	0.0161372
879.624	0.0159818
879.703	0.0162603
879.781	0.0162101
879.859	0.0161363
879.937	0.0160231
880.015	0.0160500
880.093	0.0161236
880.171	0.0160606
880.249	0.0161467
880.328	0.0159779
880.406	0.0159620
880.484	0.0161743
880.562	0.0160781
880.640	0.0159100
880.718	0.0160273
880.796	0.0158543
880.874	0.0160713
880.953	0.0160009
881.031	0.0159987
881.109	0.0161121
881.187	0.0160963
881.265	0.0161297
881.343	0.0161371
881.421	0.0161009
881.499	0.0160846
881.578	0.0161839
881.656	0.0162128
881.734	0.0162012
881.812	0.0162061
881.890	0.0162229
881.968	0.0161224
882.046	0.0163048
882.124	0.0162005
882.203	0.0161501
882.281	0.0162119
882.359	0.0161692
882.437	0.0161554
882.515	0.0161034
882.593	0.0159682
882.671	0.0160219
882.749	0.0161372
882.828	0.0161082
882.906	0.0161222
882.984	0.0160097
883.062	0.0160122
883.140	0.0159632
883.218	0.0159681
883.296	0.0159832
883.374	0.0160773
883.453	0.0160049
883.531	0.0159437
883.609	0.0160165
883.687	0.0160060
883.765	0.0159507
883.843	0.0160099
883.921	0.0160818
883.999	0.0161244
884.078	0.0160235
884.156	0.0160938
884.234	0.0160420
884.312	0.0161708
884.390	0.0161658
884.468	0.0161955
884.546	0.0159859
884.624	0.0161068
884.703	0.0161183
884.781	0.0160619
884.859	0.0159979
884.937	0.0160458
885.015	0.0160442
885.093	0.0159451
885.171	0.0161696
885.249	0.0160687
885.328	0.0160389
885.406	0.0160429
885.484	0.0161084
885.562	0.0159176
885.640	0.0160411
885.718	0.0161798
885.796	0.0162160
885.874	0.0160950
885.953	0.0161902
886.031	0.0161637
886.109	0.0161185
886.187	0.0161901
886.265	0.0160489
886.343	0.0161427
886.421	0.0164084
886.499	0.0161565
886.578	0.0160988
886.656	0.0161556
886.734	0.0161821
886.812	0.0160907
886.890	0.0160899
886.968	0.0162000
887.046	0.0162349
887.124	0.0161295
887.203	0.0161756
887.281	0.0159896
887.359	0.0160584
887.437	0.0160653
887.515	0.0161755
887.593	0.0160764
887.671	0.0159761
887.749	0.0160799
887.828	0.0160910
887.906	0.0161366
887.984	0.0161203
888.062	0.0161570
888.140	0.0161134
888.218	0.0162430
888.296	0.0160183
888.374	0.0161462
888.453	0.0162323
888.531	0.0160744
888.609	0.0161983
888.687	0.0160967
888.765	0.0160695
888.843	0.0161575
888.921	0.0161161
888.999	0.0162907
889.078	0.0161454
889.156	0.0162077
889.234	0.0161115
889.312	0.0163478
889.390	0.0162965
889.468	0.0161447
889.546	0.0161373
889.624	0.0163725
889.703	0.0163101
889.781	0.0161080
889.859	0.0162822
889.937	0.0163773
890.015	0.0162543
890.093	0.0162032
890.171	0.0161324
890.249	0.0161897
890.328	0.0162667
890.406	0.0162215
890.484	0.0163744
890.562	0.0164100
890.640	0.0161953
890.718	0.0161607
890.796	0.0161338
890.874	0.0163174
890.953	0.0162303
891.031	0.0161559
891.109	0.0161456
891.187	0.0163007
891.265	0.0162392
891.343	0.0161447
891.421	0.0160750
891.499	0.0161150
891.578	0.0161784
891.656	0.0162350
891.734	0.0163264
891.812	0.0163849
891.890	0.0163285
891.968	0.0162755
892.046	0.0162671
892.124	0.0163329
892.203	0.0163867
892.281	0.0163283
892.359	0.0162357
892.437	0.0163908
892.515	0.0163247
892.593	0.0163055
892.671	0.0163023
892.749	0.0163186
892.828	0.0163010
892.906	0.0162826
892.984	0.0162743
893.062	0.0160966
893.140	0.0162805
893.218	0.0163090
893.296	0.0161723
893.374	0.0162022
893.453	0.0161931
893.531	0.0161230
893.609	0.0162112
893.687	0.0163779
893.765	0.0161071
893.843	0.0161424
893.921	0.0161135
893.999	0.0162364
894.078	0.0160880
894.156	0.0161549
894.234	0.0160797
894.312	0.0160789
894.390	0.0162466
894.468	0.0161720
894.546	0.0162929
894.624	0.0160774
894.703	0.0160902
894.781	0.0161446
894.859	0.0160722
894.937	0.0161425
895.015	0.0160812
895.093	0.0160850
895.171	0.0160213
895.249	0.0159756
895.328	0.0161425
895.406	0.0159728
895.484	0.0160233
895.562	0.0161598
895.640	0.0160971
895.718	0.0160297
895.796	0.0161398
895.874	0.0161535
895.953	0.0159945
896.031	0.0158704
896.109	0.0159636
896.187	0.0159849
896.265	0.0159828
896.343	0.0161408
896.421	0.0161078
896.499	0.0161466
896.578	0.0161066
896.656	0.0159451
896.734	0.0162568
896.812	0.0160198
896.890	0.0160435
896.968	0.0162415
897.046	0.0162811
897.124	0.0161907
897.203	0.0160883
897.281	0.0161046
897.359	0.0161803
897.437	0.0162112
897.515	0.0161865
897.593	0.0162268
897.671	0.0162059
897.749	0.0161422
897.828	0.0162320
897.906	0.0161445
897.984	0.0161615
898.062	0.0162045
898.140	0.0161972
898.218	0.0160685
898.296	0.0160778
898.374	0.0161585
898.453	0.0160614
898.531	0.0160904
898.609	0.0161868
898.687	0.0161774
898.765	0.0160294
898.843	0.0160754
898.921	0.0159808
898.999	0.0159921
899.078	0.0159647
899.156	0.0159677
899.234	0.0160056
899.312	0.0160256
899.390	0.0160658
899.468	0.0161893
899.546	0.0160750
899.624	0.0161673
899.703	0.0160999
899.781	0.0161692
899.859	0.0161625
899.937	0.0162672
900.015	0.0162524
900.093	0.0161629
900.171	0.0160870
900.249	0.0161951
900.328	0.0162411
900.406	0.0162240
900.484	0.0161145
900.562	0.0161120
900.640	0.0163457
900.718	0.0160665
900.796	0.0162469
900.874	0.0162860
900.953	0.0161035
901.031	0.0162513
901.109	0.0163207
901.187	0.0162969
901.265	0.0163300
901.343	0.0162286
901.421	0.0162099
901.499	0.0162572
901.578	0.0162996
901.656	0.0162228
901.734	0.0162116
901.812	0.0160912
901.890	0.0161587
901.968	0.0161025
902.046	0.0161322
902.124	0.0160602
902.203	0.0159850
902.281	0.0160939
902.359	0.0160572
902.437	0.0162035
902.515	0.0160896
902.593	0.0159815
902.671	0.0160839
902.749	0.0161792
902.828	0.0159784
902.906	0.0160680
902.984	0.0162140
903.062	0.0161246
903.140	0.0159948
903.218	0.0161110
903.296	0.0161235
903.374	0.0159049
903.453	0.0160727
903.531	0.0161295
903.609	0.0160926
903.687	0.0161649
903.765	0.0161259
903.843	0.0160109
903.921	0.0161388
903.999	0.0160530
904.078	0.0159300
904.156	0.0161386
904.234	0.0161337
904.312	0.0161482
904.390	0.0160662
904.468	0.0161292
904.546	0.0161382
904.624	0.0161252
904.703	0.0161732
904.781	0.0161110
904.859	0.0161662
904.937	0.0161069
905.015	0.0161240
905.093	0.0162811
905.171	0.0162332
905.249	0.0161356
905.328	0.0162057
905.406	0.0162164
905.484	0.0163805
905.562	0.0162177
905.640	0.0162965
905.718	0.0162920
905.796	0.0161465
905.874	0.0161593
905.953	0.0162576
906.031	0.0162310
906.109	0.0161303
906.187	0.0162084
906.265	0.0161673
906.343	0.0161977
906.421	0.0160784
906.499	0.0161237
906.578	0.0161050
906.656	0.0160220
906.734	0.0162197
906.812	0.0161374
906.890	0.0161066
906.968	0.0159115
907.046	0.0158921
907.124	0.0161510
907.203	0.0161292
907.281	0.0159933
907.359	0.0161361
907.437	0.0161206
907.515	0.0162357
907.593	0.0160802
907.671	0.0161417
907.749	0.0162096
907.828	0.0163031
907.906	0.0161950
907.984	0.0162804
908.062	0.0163235
908.140	0.0162708
908.218	0.0162989
908.296	0.0163388
908.374	0.0162400
908.453	0.0162263
908.531	0.0162698
908.609	0.0162456
908.687	0.0163011
908.765	0.0161893
908.843	0.0162681
908.921	0.0163281
908.999	0.0162460
909.078	0.0162221
909.156	0.0163661
909.234	0.0161569
909.312	0.0162905
909.390	0.0162875
909.468	0.0162952
909.546	0.0162591
909.624	0.0162595
909.703	0.0161865
909.781	0.0161089
909.859	0.0162876
909.937	0.0163554
910.015	0.0162283
910.093	0.0161355
910.171	0.0162113
910.249	0.0162003
910.328	0.0161729
910.406	0.0163078
910.484	0.0162292
910.562	0.0163592
910.640	0.0162366
910.718	0.0161752
910.796	0.0161697
910.874	0.0162868
910.953	0.0161508
911.031	0.0161552
911.109	0.0162346
911.187	0.0162655
911.265	0.0163432
911.343	0.0162493
911.421	0.0161696
911.499	0.0161784
911.578	0.0163159
911.656	0.0161950
911.734	0.0160860
911.812	0.0161385
911.890	0.0161617
911.968	0.0160780
912.046	0.0160294
912.124	0.0161431
912.203	0.0160683
912.281	0.0160267
912.359	0.0160269
912.437	0.0160566
912.515	0.0160837
912.593	0.0159662
912.671	0.0160769
912.749	0.0161328
912.828	0.0161597
912.906	0.0160924
912.984	0.0161681
913.062	0.0160959
913.140	0.0161959
913.218	0.0162369
913.296	0.0160541
913.374	0.0161555
913.453	0.0162212
913.531	0.0161867
913.609	0.0160809
913.687	0.0162518
913.765	0.0163230
913.843	0.0161728
913.921	0.0161068
913.999	0.0162488
914.078	0.0164116
914.156	0.0162569
914.234	0.0163015
914.312	0.0163285
914.390	0.0163080
914.468	0.0161675
914.546	0.0161317
914.624	0.0162047
914.703	0.0161762
914.781	0.0162912
914.859	0.0160896
914.937	0.0160899
915.015	0.0162630
915.093	0.0160976
915.171	0.0160462
915.249	0.0160747
915.328	0.0161337
915.406	0.0160236
915.484	0.0160747
915.562	0.0162148
915.640	0.0161319
915.718	0.0162203
915.796	0.0160933
915.874	0.0161427
915.953	0.0161012
916.031	0.0161879
916.109	0.0162813
916.187	0.0160516
916.265	0.0162348
916.343	0.0161881
916.421	0.0161327
916.499	0.0163380
916.578	0.0162630
916.656	0.0161534
916.734	0.0161620
916.812	0.0162111
916.890	0.0161738
916.968	0.0161897
917.046	0.0162156
917.124	0.0162827
917.203	0.0161317
917.281	0.0163121
917.359	0.0162288
917.437	0.0162301
917.515	0.0161537
917.593	0.0161385
917.671	0.0162459
917.749	0.0162035
917.828	0.0162602
917.906	0.0162260
917.984	0.0161825
918.062	0.0163255
918.140	0.0163004
918.218	0.0162199
918.296	0.0162899
918.374	0.0161864
918.453	0.0161743
918.531	0.0161230
918.609	0.0160507
918.687	0.0161572
918.765	0.0162918
918.843	0.0161143
918.921	0.0160517
918.999	0.0161025
919.078	0.0161576
919.156	0.0160103
919.234	0.0160934
919.312	0.0161903
919.390	0.0160400
919.468	0.0160088
919.546	0.0159432
919.624	0.0160273
919.703	0.0160406
919.781	0.0160455
919.859	0.0160332
919.937	0.0160339
