06/10/2022	19:06:26	Ver.	4.1	UNKNOWN
Optical Delay	600.015094	Delta X		0.078125	Sweeps	1	Scan Rate	0/0
Coordinates	Axis 1	NaN	Axis 2	NaN	Axis 3	NaN	Axis 4	NaN	Axis 5	NaN	Axis 6	0.000000
TX Power	0.000000	RX Power	0.000000

600.015	0.0161904
600.093	0.0163543
600.171	0.0162710
600.249	0.0163577
600.328	0.0164887
600.406	0.0163976
600.484	0.0163953
600.562	0.0165413
600.640	0.0164429
600.718	0.0165160
600.796	0.0165524
600.874	0.0164953
600.953	0.0165010
601.031	0.0164845
601.109	0.0164091
601.187	0.0163306
601.265	0.0164927
601.343	0.0165290
601.421	0.0165602
601.499	0.0164269
601.578	0.0164070
601.656	0.0164328
601.734	0.0166078
601.812	0.0164590
601.890	0.0165578
601.968	0.0164234
602.046	0.0163710
602.124	0.0165501
602.203	0.0165952
602.281	0.0164561
602.359	0.0164488
602.437	0.0165075
602.515	0.0166232
602.593	0.0165585
602.671	0.0164684
602.749	0.0163458
602.828	0.0165923
602.906	0.0165157
602.984	0.0164401
603.062	0.0165430
603.140	0.0165505
603.218	0.0165804
603.296	0.0165226
603.374	0.0164592
603.453	0.0166368
603.531	0.0164983
603.609	0.0164644
603.687	0.0166460
603.765	0.0164845
603.843	0.0165329
603.921	0.0165361
603.999	0.0164794
604.078	0.0164606
604.156	0.0165039
604.234	0.0164467
604.312	0.0165135
604.390	0.0165812
604.468	0.0166552
604.546	0.0164944
604.624	0.0164070
604.703	0.0164355
604.781	0.0164340
604.859	0.0166527
604.937	0.0163982
605.015	0.0165182
605.093	0.0164635
605.171	0.0165474
605.249	0.0165419
605.328	0.0164586
605.406	0.0164935
605.484	0.0163269
605.562	0.0165041
605.640	0.0164469
605.718	0.0165115
605.796	0.0163956
605.874	0.0164285
605.953	0.0163335
606.031	0.0164335
606.109	0.0164573
606.187	0.0164085
606.265	0.0164511
606.343	0.0164394
606.421	0.0165334
606.499	0.0163542
606.578	0.0164718
606.656	0.0163937
606.734	0.0164214
606.812	0.0164160
606.890	0.0163255
606.968	0.0163876
607.046	0.0164300
607.124	0.0163056
607.203	0.0162395
607.281	0.0163416
607.359	0.0163602
607.437	0.0163302
607.515	0.0163322
607.593	0.0163326
607.671	0.0162617
607.749	0.0160611
607.828	0.0161211
607.906	0.0162034
607.984	0.0161897
608.062	0.0162498
608.140	0.0162173
608.218	0.0161550
608.296	0.0162215
608.374	0.0162475
608.453	0.0161453
608.531	0.0160909
608.609	0.0161751
608.687	0.0161752
608.765	0.0161435
608.843	0.0162325
608.921	0.0164053
608.999	0.0163371
609.078	0.0162598
609.156	0.0161967
609.234	0.0163268
609.312	0.0162695
609.390	0.0162935
609.468	0.0162717
609.546	0.0163273
609.624	0.0165108
609.703	0.0166152
609.781	0.0163982
609.859	0.0162569
609.937	0.0164064
610.015	0.0165497
610.093	0.0164278
610.171	0.0164448
610.249	0.0164894
610.328	0.0166277
610.406	0.0165022
610.484	0.0165879
610.562	0.0166382
610.640	0.0165376
610.718	0.0166294
610.796	0.0168286
610.874	0.0167052
610.953	0.0165019
611.031	0.0166599
611.109	0.0165839
611.187	0.0167422
611.265	0.0167078
611.343	0.0166767
611.421	0.0166472
611.499	0.0167296
611.578	0.0167313
611.656	0.0165315
611.734	0.0164938
611.812	0.0164127
611.890	0.0165178
611.968	0.0164889
612.046	0.0164926
612.124	0.0165186
612.203	0.0165470
612.281	0.0165952
612.359	0.0164304
612.437	0.0162526
612.515	0.0163459
612.593	0.0164082
612.671	0.0163869
612.749	0.0163499
612.828	0.0163821
612.906	0.0164652
612.984	0.0163049
613.062	0.0163164
613.140	0.0162178
613.218	0.0162080
613.296	0.0163362
613.374	0.0162150
613.453	0.0162309
613.531	0.0163343
613.609	0.0162029
613.687	0.0161914
613.765	0.0161393
613.843	0.0161243
613.921	0.0163203
613.999	0.0162769
614.078	0.0161845
614.156	0.0162688
614.234	0.0163399
614.312	0.0164134
614.390	0.0162593
614.468	0.0163488
614.546	0.0162630
614.624	0.0162098
614.703	0.0162124
614.781	0.0161520
614.859	0.0163290
614.937	0.0163108
615.015	0.0163727
615.093	0.0163210
615.171	0.0163646
615.249	0.0162817
615.328	0.0162798
615.406	0.0162100
615.484	0.0162643
615.562	0.0161812
615.640	0.0161420
615.718	0.0162597
615.796	0.0162973
615.874	0.0162261
615.953	0.0162702
616.031	0.0161953
616.109	0.0160520
616.187	0.0162254
616.265	0.0161442
616.343	0.0162720
616.421	0.0161893
616.499	0.0162023
616.578	0.0161919
616.656	0.0160790
616.734	0.0160651
616.812	0.0161884
616.890	0.0161082
616.968	0.0161495
617.046	0.0160944
617.124	0.0160191
617.203	0.0160545
617.281	0.0159600
617.359	0.0159368
617.437	0.0159029
617.515	0.0160025
617.593	0.0159806
617.671	0.0158814
617.749	0.0159464
617.828	0.0158791
617.906	0.0158463
617.984	0.0158112
618.062	0.0159383
618.140	0.0159702
618.218	0.0158621
618.296	0.0159135
618.374	0.0159047
618.453	0.0159312
618.531	0.0159118
618.609	0.0158424
618.687	0.0158802
618.765	0.0159460
618.843	0.0159592
618.921	0.0158929
618.999	0.0158209
619.078	0.0160284
619.156	0.0159672
619.234	0.0159352
619.312	0.0161421
619.390	0.0159866
619.468	0.0159512
619.546	0.0159798
619.624	0.0160400
619.703	0.0160110
619.781	0.0161437
619.859	0.0161215
619.937	0.0161764
620.015	0.0161831
620.093	0.0161199
620.171	0.0159451
620.249	0.0161855
620.328	0.0162237
620.406	0.0163316
620.484	0.0163203
620.562	0.0164383
620.640	0.0162411
620.718	0.0163110
620.796	0.0164815
620.874	0.0163172
620.953	0.0163565
621.031	0.0163338
621.109	0.0162385
621.187	0.0163597
621.265	0.0164712
621.343	0.0162701
621.421	0.0162630
621.499	0.0162444
621.578	0.0162050
621.656	0.0161736
621.734	0.0163232
621.812	0.0162299
621.890	0.0162831
621.968	0.0161941
622.046	0.0160968
622.124	0.0163450
622.203	0.0163144
622.281	0.0161300
622.359	0.0161408
622.437	0.0162559
622.515	0.0162016
622.593	0.0161405
622.671	0.0161546
622.749	0.0161596
622.828	0.0162873
622.906	0.0162628
622.984	0.0162906
623.062	0.0163803
623.140	0.0163516
623.218	0.0161113
623.296	0.0162939
623.374	0.0163434
623.453	0.0162720
623.531	0.0164355
623.609	0.0163156
623.687	0.0163157
623.765	0.0165008
623.843	0.0164592
623.921	0.0165328
623.999	0.0163425
624.078	0.0164375
624.156	0.0165320
624.234	0.0165650
624.312	0.0165756
624.390	0.0165713
624.468	0.0164714
624.546	0.0167188
624.624	0.0165884
624.703	0.0165858
624.781	0.0165254
624.859	0.0166713
624.937	0.0166599
625.015	0.0165264
625.093	0.0165422
625.171	0.0168349
625.249	0.0165919
625.328	0.0167635
625.406	0.0166788
625.484	0.0165453
625.562	0.0166440
625.640	0.0165856
625.718	0.0165042
625.796	0.0165475
625.874	0.0166087
625.953	0.0166232
626.031	0.0164982
626.109	0.0164692
626.187	0.0166143
626.265	0.0164870
626.343	0.0165902
626.421	0.0164926
626.499	0.0165831
626.578	0.0165503
626.656	0.0166317
626.734	0.0164605
626.812	0.0165410
626.890	0.0164176
626.968	0.0163082
627.046	0.0164562
627.124	0.0166290
627.203	0.0164745
627.281	0.0165283
627.359	0.0164683
627.437	0.0164172
627.515	0.0164471
627.593	0.0164599
627.671	0.0165287
627.749	0.0163501
627.828	0.0164644
627.906	0.0164295
627.984	0.0163654
628.062	0.0164089
628.140	0.0163770
628.218	0.0164081
628.296	0.0165020
628.374	0.0164661
628.453	0.0162780
628.531	0.0164250
628.609	0.0163367
628.687	0.0164982
628.765	0.0164536
628.843	0.0164862
628.921	0.0164293
628.999	0.0163924
629.078	0.0163569
629.156	0.0165513
629.234	0.0164522
629.312	0.0164213
629.390	0.0163232
629.468	0.0164638
629.546	0.0164328
629.624	0.0163996
629.703	0.0163223
629.781	0.0164830
629.859	0.0163110
629.937	0.0165661
630.015	0.0165233
630.093	0.0165170
630.171	0.0164677
630.249	0.0163930
630.328	0.0163116
630.406	0.0164638
630.484	0.0163974
630.562	0.0162964
630.640	0.0164426
630.718	0.0166620
630.796	0.0165737
630.874	0.0164794
630.953	0.0165976
631.031	0.0164661
631.109	0.0163922
631.187	0.0165395
631.265	0.0164658
631.343	0.0164832
631.421	0.0164894
631.499	0.0166196
631.578	0.0166964
631.656	0.0163740
631.734	0.0163947
631.812	0.0164710
631.890	0.0164812
631.968	0.0164848
632.046	0.0163049
632.124	0.0164263
632.203	0.0163971
632.281	0.0163969
632.359	0.0165414
632.437	0.0164406
632.515	0.0163447
632.593	0.0163573
632.671	0.0163985
632.749	0.0164194
632.828	0.0163409
632.906	0.0164394
632.984	0.0162767
633.062	0.0163230
633.140	0.0163312
633.218	0.0163583
633.296	0.0163911
633.374	0.0162351
633.453	0.0163458
633.531	0.0163966
633.609	0.0162849
633.687	0.0163347
633.765	0.0163042
633.843	0.0162879
633.921	0.0163673
633.999	0.0162383
634.078	0.0162476
634.156	0.0161822
634.234	0.0162572
634.312	0.0163291
634.390	0.0162740
634.468	0.0160604
634.546	0.0162872
634.624	0.0162278
634.703	0.0162575
634.781	0.0162903
634.859	0.0162629
634.937	0.0162265
635.015	0.0162847
635.093	0.0162939
635.171	0.0162038
635.249	0.0160744
635.328	0.0162318
635.406	0.0162138
635.484	0.0162122
635.562	0.0162875
635.640	0.0160894
635.718	0.0160682
635.796	0.0161958
635.874	0.0162827
635.953	0.0163345
636.031	0.0161742
636.109	0.0161577
636.187	0.0161967
636.265	0.0161246
636.343	0.0162012
636.421	0.0162180
636.499	0.0161443
636.578	0.0161578
636.656	0.0162228
636.734	0.0161639
636.812	0.0161625
636.890	0.0161838
636.968	0.0161342
637.046	0.0161884
637.124	0.0160888
637.203	0.0160603
637.281	0.0160767
637.359	0.0161803
637.437	0.0161136
637.515	0.0160246
637.593	0.0162274
637.671	0.0160764
637.749	0.0159447
637.828	0.0158249
637.906	0.0159470
637.984	0.0160326
638.062	0.0158642
638.140	0.0160012
638.218	0.0160426
638.296	0.0161684
638.374	0.0159103
638.453	0.0161405
638.531	0.0159859
638.609	0.0159226
638.687	0.0160567
638.765	0.0161265
638.843	0.0161413
638.921	0.0161337
638.999	0.0161626
639.078	0.0160789
639.156	0.0162226
639.234	0.0162547
639.312	0.0159749
639.390	0.0160484
639.468	0.0161688
639.546	0.0161762
639.624	0.0161458
639.703	0.0160655
639.781	0.0161497
639.859	0.0162283
639.937	0.0161076
640.015	0.0161665
640.093	0.0162196
640.171	0.0161612
640.249	0.0162436
640.328	0.0160153
640.406	0.0161159
640.484	0.0160319
640.562	0.0161198
640.640	0.0161935
640.718	0.0161019
640.796	0.0161673
640.874	0.0161929
640.953	0.0161160
641.031	0.0161086
641.109	0.0162073
641.187	0.0162096
641.265	0.0161832
641.343	0.0160574
641.421	0.0161779
641.499	0.0161873
641.578	0.0162237
641.656	0.0161796
641.734	0.0160973
641.812	0.0162631
641.890	0.0162370
641.968	0.0161685
642.046	0.0161295
642.124	0.0161913
642.203	0.0163240
642.281	0.0161953
642.359	0.0161031
642.437	0.0161781
642.515	0.0161180
642.593	0.0161783
642.671	0.0162163
642.749	0.0162001
642.828	0.0161393
642.906	0.0163237
642.984	0.0163129
643.062	0.0162795
643.140	0.0164021
643.218	0.0162632
643.296	0.0163789
643.374	0.0163247
643.453	0.0162733
643.531	0.0163380
643.609	0.0163674
643.687	0.0164846
643.765	0.0163124
643.843	0.0164480
643.921	0.0164063
643.999	0.0164207
644.078	0.0164741
644.156	0.0164316
644.234	0.0164090
644.312	0.0164308
644.390	0.0165290
644.468	0.0165386
644.546	0.0164922
644.624	0.0165238
644.703	0.0164348
644.781	0.0163569
644.859	0.0165059
644.937	0.0165755
645.015	0.0164954
645.093	0.0164122
645.171	0.0164658
645.249	0.0165312
645.328	0.0165491
645.406	0.0165075
645.484	0.0165697
645.562	0.0166124
645.640	0.0165279
645.718	0.0165012
645.796	0.0165134
645.874	0.0164667
645.953	0.0165131
646.031	0.0164646
646.109	0.0165305
646.187	0.0164957
646.265	0.0165541
646.343	0.0165328
646.421	0.0165452
646.499	0.0164201
646.578	0.0165105
646.656	0.0163979
646.734	0.0165204
646.812	0.0165747
646.890	0.0166557
646.968	0.0165191
647.046	0.0165317
647.124	0.0165396
647.203	0.0164364
647.281	0.0164934
647.359	0.0165685
647.437	0.0164615
647.515	0.0165567
647.593	0.0164783
647.671	0.0165243
647.749	0.0165246
647.828	0.0166170
647.906	0.0165462
647.984	0.0165284
648.062	0.0164543
648.140	0.0165591
648.218	0.0166592
648.296	0.0164881
648.374	0.0164602
648.453	0.0165641
648.531	0.0164783
648.609	0.0164248
648.687	0.0166171
648.765	0.0164407
648.843	0.0164357
648.921	0.0164977
648.999	0.0164223
649.078	0.0165064
649.156	0.0164426
649.234	0.0164322
649.312	0.0164951
649.390	0.0164269
649.468	0.0163926
649.546	0.0164320
649.624	0.0163900
649.703	0.0164237
649.781	0.0165765
649.859	0.0165218
649.937	0.0163309
650.015	0.0163490
650.093	0.0164310
650.171	0.0163422
650.249	0.0164076
650.328	0.0165398
650.406	0.0162288
650.484	0.0165650
650.562	0.0163326
650.640	0.0163443
650.718	0.0164742
650.796	0.0163617
650.874	0.0163982
650.953	0.0164089
651.031	0.0161682
651.109	0.0162838
651.187	0.0165128
651.265	0.0165137
651.343	0.0162996
651.421	0.0162822
651.499	0.0163564
651.578	0.0163673
651.656	0.0165282
651.734	0.0164860
651.812	0.0163867
651.890	0.0163374
651.968	0.0162537
652.046	0.0163426
652.124	0.0164045
652.203	0.0164295
652.281	0.0163387
652.359	0.0162169
652.437	0.0163493
652.515	0.0163389
652.593	0.0162524
652.671	0.0162594
652.749	0.0163012
652.828	0.0163302
652.906	0.0163381
652.984	0.0163896
653.062	0.0161464
653.140	0.0162383
653.218	0.0164013
653.296	0.0163508
653.374	0.0164703
653.453	0.0163736
653.531	0.0163390
653.609	0.0163160
653.687	0.0163972
653.765	0.0165048
653.843	0.0163345
653.921	0.0163936
653.999	0.0164135
654.078	0.0164462
654.156	0.0164395
654.234	0.0164002
654.312	0.0162868
654.390	0.0165166
654.468	0.0163484
654.546	0.0163597
654.624	0.0163496
654.703	0.0163929
654.781	0.0165509
654.859	0.0162035
654.937	0.0163330
655.015	0.0164679
655.093	0.0163139
655.171	0.0162421
655.249	0.0164421
655.328	0.0163974
655.406	0.0163601
655.484	0.0163017
655.562	0.0164075
655.640	0.0163395
655.718	0.0163236
655.796	0.0163773
655.874	0.0163797
655.953	0.0163226
656.031	0.0163332
656.109	0.0163724
656.187	0.0163232
656.265	0.0162614
656.343	0.0162646
656.421	0.0163599
656.499	0.0162180
656.578	0.0161938
656.656	0.0163577
656.734	0.0161854
656.812	0.0163541
656.890	0.0161751
656.968	0.0161288
657.046	0.0163782
657.124	0.0162447
657.203	0.0162041
657.281	0.0162424
657.359	0.0161568
657.437	0.0161636
657.515	0.0161613
657.593	0.0161432
657.671	0.0161736
657.749	0.0162278
657.828	0.0162890
657.906	0.0161131
657.984	0.0161732
658.062	0.0163002
658.140	0.0161638
658.218	0.0161131
658.296	0.0161887
658.374	0.0161329
658.453	0.0161967
658.531	0.0162068
658.609	0.0160871
658.687	0.0160918
658.765	0.0161561
658.843	0.0162504
658.921	0.0162234
658.999	0.0161530
659.078	0.0161713
659.156	0.0162138
659.234	0.0162254
659.312	0.0162225
659.390	0.0161709
659.468	0.0161452
659.546	0.0162917
659.624	0.0163432
659.703	0.0162950
659.781	0.0161401
659.859	0.0163554
659.937	0.0162914
660.015	0.0161377
660.093	0.0162380
660.171	0.0162252
660.249	0.0161883
660.328	0.0163384
660.406	0.0162219
660.484	0.0161626
660.562	0.0162296
660.640	0.0162576
660.718	0.0161927
660.796	0.0160393
660.874	0.0164004
660.953	0.0163707
661.031	0.0162365
661.109	0.0163425
661.187	0.0162661
661.265	0.0161983
661.343	0.0162349
661.421	0.0162571
661.499	0.0161938
661.578	0.0162524
661.656	0.0162100
661.734	0.0163025
661.812	0.0163117
661.890	0.0162984
661.968	0.0162186
662.046	0.0161900
662.124	0.0162543
662.203	0.0161480
662.281	0.0161753
662.359	0.0162777
662.437	0.0162769
662.515	0.0161948
662.593	0.0161461
662.671	0.0162284
662.749	0.0163498
662.828	0.0162859
662.906	0.0162205
662.984	0.0161839
663.062	0.0162897
663.140	0.0163699
663.218	0.0163193
663.296	0.0161302
663.374	0.0162769
663.453	0.0163575
663.531	0.0162434
663.609	0.0162227
663.687	0.0162444
663.765	0.0162151
663.843	0.0161760
663.921	0.0163972
663.999	0.0164336
664.078	0.0164260
664.156	0.0163543
664.234	0.0163313
664.312	0.0162490
664.390	0.0164050
664.468	0.0163160
664.546	0.0162458
664.624	0.0161958
664.703	0.0163300
664.781	0.0163123
664.859	0.0162476
664.937	0.0162869
665.015	0.0163071
665.093	0.0163700
665.171	0.0162621
665.249	0.0163771
665.328	0.0164076
665.406	0.0163741
665.484	0.0162474
665.562	0.0164307
665.640	0.0163308
665.718	0.0163210
665.796	0.0162859
665.874	0.0164285
665.953	0.0162231
666.031	0.0163158
666.109	0.0164323
666.187	0.0163618
666.265	0.0164458
666.343	0.0163033
666.421	0.0162566
666.499	0.0164361
666.578	0.0163876
666.656	0.0164311
666.734	0.0164132
666.812	0.0163180
666.890	0.0164892
666.968	0.0163646
667.046	0.0163879
667.124	0.0163658
667.203	0.0162810
667.281	0.0164266
667.359	0.0165525
667.437	0.0163965
667.515	0.0163997
667.593	0.0164755
667.671	0.0163594
667.749	0.0163895
667.828	0.0164540
667.906	0.0163705
667.984	0.0164692
668.062	0.0164782
668.140	0.0163090
668.218	0.0164001
668.296	0.0163808
668.374	0.0163303
668.453	0.0163692
668.531	0.0162853
668.609	0.0164657
668.687	0.0164100
668.765	0.0164976
668.843	0.0165733
668.921	0.0164938
668.999	0.0164288
669.078	0.0165900
669.156	0.0164617
669.234	0.0164487
669.312	0.0165278
669.390	0.0165714
669.468	0.0165973
669.546	0.0164987
669.624	0.0164859
669.703	0.0165604
669.781	0.0164649
669.859	0.0164434
669.937	0.0164914
670.015	0.0164792
670.093	0.0163939
670.171	0.0166484
670.249	0.0165383
670.328	0.0165808
670.406	0.0164324
670.484	0.0164230
670.562	0.0164816
670.640	0.0165146
670.718	0.0165273
670.796	0.0165334
670.874	0.0164616
670.953	0.0164962
671.031	0.0164767
671.109	0.0165457
671.187	0.0165985
671.265	0.0164935
671.343	0.0165068
671.421	0.0165826
671.499	0.0166287
671.578	0.0166477
671.656	0.0165334
671.734	0.0165341
671.812	0.0165302
671.890	0.0165453
671.968	0.0163240
672.046	0.0164410
672.124	0.0165836
672.203	0.0165570
672.281	0.0164339
672.359	0.0164362
672.437	0.0164156
672.515	0.0165343
672.593	0.0165089
672.671	0.0165232
672.749	0.0164761
672.828	0.0164390
672.906	0.0165969
672.984	0.0166702
673.062	0.0165059
673.140	0.0164343
673.218	0.0165720
673.296	0.0164621
673.374	0.0162872
673.453	0.0164584
673.531	0.0165296
673.609	0.0164165
673.687	0.0165222
673.765	0.0164030
673.843	0.0164677
673.921	0.0164878
673.999	0.0165215
674.078	0.0164012
674.156	0.0162932
674.234	0.0163597
674.312	0.0163818
674.390	0.0164558
674.468	0.0163556
674.546	0.0163705
674.624	0.0164226
674.703	0.0163641
674.781	0.0164304
674.859	0.0165117
674.937	0.0163640
675.015	0.0164683
675.093	0.0164742
675.171	0.0163924
675.249	0.0163236
675.328	0.0162916
675.406	0.0162564
675.484	0.0163506
675.562	0.0163788
675.640	0.0162341
675.718	0.0163222
675.796	0.0163789
675.874	0.0163398
675.953	0.0163070
676.031	0.0163411
676.109	0.0162441
676.187	0.0162289
676.265	0.0163414
676.343	0.0163271
676.421	0.0162203
676.499	0.0162004
676.578	0.0163569
676.656	0.0162965
676.734	0.0161672
676.812	0.0162220
676.890	0.0162353
676.968	0.0163614
677.046	0.0163119
677.124	0.0162885
677.203	0.0162221
677.281	0.0161678
677.359	0.0163283
677.437	0.0164487
677.515	0.0163254
677.593	0.0163901
677.671	0.0162866
677.749	0.0163695
677.828	0.0163544
677.906	0.0162910
677.984	0.0164001
678.062	0.0162553
678.140	0.0162055
678.218	0.0163262
678.296	0.0164993
678.374	0.0163888
678.453	0.0163359
678.531	0.0164077
678.609	0.0163638
678.687	0.0163216
678.765	0.0163525
678.843	0.0163194
678.921	0.0162052
678.999	0.0162081
679.078	0.0162537
679.156	0.0162865
679.234	0.0162885
679.312	0.0162924
679.390	0.0162341
679.468	0.0162404
679.546	0.0163331
679.624	0.0163261
679.703	0.0162260
679.781	0.0162358
679.859	0.0162438
679.937	0.0162046
680.015	0.0161515
680.093	0.0162189
680.171	0.0162594
680.249	0.0162197
680.328	0.0162411
680.406	0.0161336
680.484	0.0163158
680.562	0.0161431
680.640	0.0162341
680.718	0.0162270
680.796	0.0162318
680.874	0.0161667
680.953	0.0162094
681.031	0.0162511
681.109	0.0162464
681.187	0.0162400
681.265	0.0162006
681.343	0.0163350
681.421	0.0161767
681.499	0.0160616
681.578	0.0161618
681.656	0.0162531
681.734	0.0162086
681.812	0.0162229
681.890	0.0162532
681.968	0.0160220
682.046	0.0162622
682.124	0.0163052
682.203	0.0162490
682.281	0.0162444
682.359	0.0161292
682.437	0.0162626
682.515	0.0162716
682.593	0.0162120
682.671	0.0162628
682.749	0.0162227
682.828	0.0163625
682.906	0.0163503
682.984	0.0163604
683.062	0.0162408
683.140	0.0163955
683.218	0.0162585
683.296	0.0161935
683.374	0.0163297
683.453	0.0162086
683.531	0.0162537
683.609	0.0162560
683.687	0.0164140
683.765	0.0163523
683.843	0.0163461
683.921	0.0162862
683.999	0.0162125
684.078	0.0163494
684.156	0.0163150
684.234	0.0162494
684.312	0.0163123
684.390	0.0164575
684.468	0.0163784
684.546	0.0164624
684.624	0.0162411
684.703	0.0165005
684.781	0.0163165
684.859	0.0163290
684.937	0.0163252
685.015	0.0164273
685.093	0.0164139
685.171	0.0164027
685.249	0.0162366
685.328	0.0163902
685.406	0.0165215
685.484	0.0164124
685.562	0.0164185
685.640	0.0163969
685.718	0.0164799
685.796	0.0164341
685.874	0.0162988
685.953	0.0163858
686.031	0.0165320
686.109	0.0164202
686.187	0.0165269
686.265	0.0165965
686.343	0.0164349
686.421	0.0165220
686.499	0.0164006
686.578	0.0163787
686.656	0.0162954
686.734	0.0165022
686.812	0.0165087
686.890	0.0164035
686.968	0.0165163
687.046	0.0165659
687.124	0.0164330
687.203	0.0164418
687.281	0.0164204
687.359	0.0164240
687.437	0.0163795
687.515	0.0165048
687.593	0.0164306
687.671	0.0164188
687.749	0.0163424
687.828	0.0163442
687.906	0.0164881
687.984	0.0164065
688.062	0.0163360
688.140	0.0164310
688.218	0.0162874
688.296	0.0163963
688.374	0.0162325
688.453	0.0162968
688.531	0.0163267
688.609	0.0162855
688.687	0.0161910
688.765	0.0162978
688.843	0.0163512
688.921	0.0162794
688.999	0.0162734
689.078	0.0161846
689.156	0.0161964
689.234	0.0161705
689.312	0.0162149
689.390	0.0163693
689.468	0.0164356
689.546	0.0162580
689.624	0.0163383
689.703	0.0163791
689.781	0.0161423
689.859	0.0161603
689.937	0.0162928
690.015	0.0162354
690.093	0.0162985
690.171	0.0162679
690.249	0.0162218
690.328	0.0161385
690.406	0.0162865
690.484	0.0163643
690.562	0.0161436
690.640	0.0161012
690.718	0.0162832
690.796	0.0161872
690.874	0.0161707
690.953	0.0161843
691.031	0.0162348
691.109	0.0161723
691.187	0.0162254
691.265	0.0161151
691.343	0.0162218
691.421	0.0162756
691.499	0.0162853
691.578	0.0162647
691.656	0.0161199
691.734	0.0161624
691.812	0.0163783
691.890	0.0161434
691.968	0.0161873
692.046	0.0161903
692.124	0.0161400
692.203	0.0163472
692.281	0.0162007
692.359	0.0159667
692.437	0.0164278
692.515	0.0163411
692.593	0.0162569
692.671	0.0162103
692.749	0.0162874
692.828	0.0163569
692.906	0.0163742
692.984	0.0162511
693.062	0.0163053
693.140	0.0161938
693.218	0.0162801
693.296	0.0164226
693.374	0.0163143
693.453	0.0162737
693.531	0.0163329
693.609	0.0162505
693.687	0.0163214
693.765	0.0162616
693.843	0.0163430
693.921	0.0163964
693.999	0.0163651
694.078	0.0162319
694.156	0.0162764
694.234	0.0162274
694.312	0.0162576
694.390	0.0162408
694.468	0.0162934
694.546	0.0161494
694.624	0.0163402
694.703	0.0162951
694.781	0.0163226
694.859	0.0163216
694.937	0.0162215
695.015	0.0162008
695.093	0.0163107
695.171	0.0162954
695.249	0.0163298
695.328	0.0162653
695.406	0.0163702
695.484	0.0163876
695.562	0.0163284
695.640	0.0161958
695.718	0.0164201
695.796	0.0163969
695.874	0.0163556
695.953	0.0162518
696.031	0.0163016
696.109	0.0163821
696.187	0.0165502
696.265	0.0164489
696.343	0.0162524
696.421	0.0162694
696.499	0.0162223
696.578	0.0163492
696.656	0.0163795
696.734	0.0163496
696.812	0.0162090
696.890	0.0163696
696.968	0.0163105
697.046	0.0163477
697.124	0.0163155
697.203	0.0164264
697.281	0.0162993
697.359	0.0163588
697.437	0.0163321
697.515	0.0162650
697.593	0.0163414
697.671	0.0163113
697.749	0.0162536
697.828	0.0162975
697.906	0.0162470
697.984	0.0163993
698.062	0.0163374
698.140	0.0162952
698.218	0.0163090
698.296	0.0163228
698.374	0.0161937
698.453	0.0162858
698.531	0.0163094
698.609	0.0162971
698.687	0.0161721
698.765	0.0162737
698.843	0.0162540
698.921	0.0162210
698.999	0.0163315
699.078	0.0162025
699.156	0.0163269
699.234	0.0163482
699.312	0.0161964
699.390	0.0162868
699.468	0.0163975
699.546	0.0163181
699.624	0.0163684
699.703	0.0162800
699.781	0.0163528
699.859	0.0162729
699.937	0.0162523
700.015	0.0161464
700.093	0.0161963
700.171	0.0163538
700.249	0.0163483
700.328	0.0161906
700.406	0.0162851
700.484	0.0163790
700.562	0.0164107
700.640	0.0163220
700.718	0.0162910
700.796	0.0163575
700.874	0.0164139
700.953	0.0161797
701.031	0.0163358
701.109	0.0164738
701.187	0.0163484
701.265	0.0163948
701.343	0.0163142
701.421	0.0163686
701.499	0.0163626
701.578	0.0162841
701.656	0.0164658
701.734	0.0164575
701.812	0.0163893
701.890	0.0165390
701.968	0.0162322
702.046	0.0162577
702.124	0.0165044
702.203	0.0163199
702.281	0.0161895
702.359	0.0163427
702.437	0.0163564
702.515	0.0163971
702.593	0.0162801
702.671	0.0164431
702.749	0.0164510
702.828	0.0162975
702.906	0.0162851
702.984	0.0162010
703.062	0.0164115
703.140	0.0163696
703.218	0.0164185
703.296	0.0164046
703.374	0.0162969
703.453	0.0163471
703.531	0.0164405
703.609	0.0165131
703.687	0.0162766
703.765	0.0163969
703.843	0.0163675
703.921	0.0162331
703.999	0.0162873
704.078	0.0163913
704.156	0.0163848
704.234	0.0163335
704.312	0.0164617
704.390	0.0164141
704.468	0.0163609
704.546	0.0163668
704.624	0.0165034
704.703	0.0165225
704.781	0.0163654
704.859	0.0163853
704.937	0.0164357
705.015	0.0164186
705.093	0.0164135
705.171	0.0164305
705.249	0.0165984
705.328	0.0165009
705.406	0.0164220
705.484	0.0164285
705.562	0.0164560
705.640	0.0165051
705.718	0.0164324
705.796	0.0165399
705.874	0.0164081
705.953	0.0163658
706.031	0.0162411
706.109	0.0164497
706.187	0.0163949
706.265	0.0163861
706.343	0.0163409
706.421	0.0163198
706.499	0.0163264
706.578	0.0163393
706.656	0.0164115
706.734	0.0164039
706.812	0.0163946
706.890	0.0163097
706.968	0.0162170
707.046	0.0163676
707.124	0.0162834
707.203	0.0164258
707.281	0.0164024
707.359	0.0162840
707.437	0.0164465
707.515	0.0164866
707.593	0.0163052
707.671	0.0164234
707.749	0.0162371
707.828	0.0162571
707.906	0.0163995
707.984	0.0165202
708.062	0.0165398
708.140	0.0164285
708.218	0.0164086
708.296	0.0165394
708.374	0.0164175
708.453	0.0165421
708.531	0.0163605
708.609	0.0164190
708.687	0.0164159
708.765	0.0163146
708.843	0.0164660
708.921	0.0165777
708.999	0.0163373
709.078	0.0164928
709.156	0.0164693
709.234	0.0163116
709.312	0.0164018
709.390	0.0164349
709.468	0.0163381
709.546	0.0164230
709.624	0.0163019
709.703	0.0164001
709.781	0.0163010
709.859	0.0163840
709.937	0.0164280
710.015	0.0162760
710.093	0.0162891
710.171	0.0162930
710.249	0.0163750
710.328	0.0164329
710.406	0.0163397
710.484	0.0164169
710.562	0.0162511
710.640	0.0162734
710.718	0.0162958
710.796	0.0162943
710.874	0.0163857
710.953	0.0162845
711.031	0.0163257
711.109	0.0163509
711.187	0.0162651
711.265	0.0162370
711.343	0.0163606
711.421	0.0164538
711.499	0.0162730
711.578	0.0163681
711.656	0.0164876
711.734	0.0164041
711.812	0.0163838
711.890	0.0163433
711.968	0.0164806
712.046	0.0163956
712.124	0.0162956
712.203	0.0164713
712.281	0.0163530
712.359	0.0163635
712.437	0.0163892
712.515	0.0163430
712.593	0.0164412
712.671	0.0165098
712.749	0.0164884
712.828	0.0165081
712.906	0.0165505
712.984	0.0164286
713.062	0.0163924
713.140	0.0164112
713.218	0.0164434
713.296	0.0164109
713.374	0.0164669
713.453	0.0163079
713.531	0.0162673
713.609	0.0164083
713.687	0.0164596
713.765	0.0163103
713.843	0.0163538
713.921	0.0162901
713.999	0.0162926
714.078	0.0162453
714.156	0.0162748
714.234	0.0164562
714.312	0.0164034
714.390	0.0163153
714.468	0.0161938
714.546	0.0161821
714.624	0.0162553
714.703	0.0162009
714.781	0.0162556
714.859	0.0162034
714.937	0.0161787
715.015	0.0162171
715.093	0.0162306
715.171	0.0161683
715.249	0.0162202
715.328	0.0162490
715.406	0.0162315
715.484	0.0161686
715.562	0.0162282
715.640	0.0161964
715.718	0.0162722
715.796	0.0162428
715.874	0.0161962
715.953	0.0161634
716.031	0.0162185
716.109	0.0163638
716.187	0.0162401
716.265	0.0163904
716.343	0.0162438
716.421	0.0161132
716.499	0.0161337
716.578	0.0162542
716.656	0.0163269
716.734	0.0161766
716.812	0.0162863
716.890	0.0162017
716.968	0.0164183
717.046	0.0163239
717.124	0.0163116
717.203	0.0163442
717.281	0.0162148
717.359	0.0161317
717.437	0.0163408
717.515	0.0164124
717.593	0.0164841
717.671	0.0162922
717.749	0.0162874
717.828	0.0163840
717.906	0.0164196
717.984	0.0164017
718.062	0.0163134
718.140	0.0163595
718.218	0.0163265
718.296	0.0163313
718.374	0.0163589
718.453	0.0163554
718.531	0.0163355
718.609	0.0162759
718.687	0.0163153
718.765	0.0164701
718.843	0.0164066
718.921	0.0162286
718.999	0.0162025
719.078	0.0164073
719.156	0.0162524
719.234	0.0162271
719.312	0.0162676
719.390	0.0162187
719.468	0.0161975
719.546	0.0163102
719.624	0.0163927
719.703	0.0163377
719.781	0.0164220
719.859	0.0163393
719.937	0.0161766
720.015	0.0163490
720.093	0.0161935
720.171	0.0161884
720.249	0.0162172
720.328	0.0163297
720.406	0.0162762
720.484	0.0162068
720.562	0.0162306
720.640	0.0162700
720.718	0.0164065
720.796	0.0163270
720.874	0.0161026
720.953	0.0162619
721.031	0.0164011
721.109	0.0162823
721.187	0.0164063
721.265	0.0164048
721.343	0.0163038
721.421	0.0162510
721.499	0.0163065
721.578	0.0163106
721.656	0.0163049
721.734	0.0163737
721.812	0.0164617
721.890	0.0163274
721.968	0.0162022
722.046	0.0162490
722.124	0.0161856
722.203	0.0164276
722.281	0.0164458
722.359	0.0162900
722.437	0.0164442
722.515	0.0163531
722.593	0.0163512
722.671	0.0163729
722.749	0.0163060
722.828	0.0164078
722.906	0.0163369
722.984	0.0164104
723.062	0.0164142
723.140	0.0163640
723.218	0.0163917
723.296	0.0164027
723.374	0.0163921
723.453	0.0164958
723.531	0.0164629
723.609	0.0162843
723.687	0.0163872
723.765	0.0165076
723.843	0.0163636
723.921	0.0163691
723.999	0.0162600
724.078	0.0163211
724.156	0.0164342
724.234	0.0164748
724.312	0.0163447
724.390	0.0164104
724.468	0.0163916
724.546	0.0164829
724.624	0.0163828
724.703	0.0164218
724.781	0.0164685
724.859	0.0163383
724.937	0.0163687
725.015	0.0163729
725.093	0.0164077
725.171	0.0164236
725.249	0.0164496
725.328	0.0164697
725.406	0.0164248
725.484	0.0164654
725.562	0.0165275
725.640	0.0165163
725.718	0.0164543
725.796	0.0164677
725.874	0.0163994
725.953	0.0164450
726.031	0.0164845
726.109	0.0163832
726.187	0.0163558
726.265	0.0165766
726.343	0.0165418
726.421	0.0164243
726.499	0.0165045
726.578	0.0164574
726.656	0.0164388
726.734	0.0164835
726.812	0.0164456
726.890	0.0165375
726.968	0.0165501
727.046	0.0165244
727.124	0.0165430
727.203	0.0166398
727.281	0.0165223
727.359	0.0163725
727.437	0.0165654
727.515	0.0164927
727.593	0.0164391
727.671	0.0165121
727.749	0.0164572
727.828	0.0165414
727.906	0.0164278
727.984	0.0164090
728.062	0.0164018
728.140	0.0164497
728.218	0.0165622
728.296	0.0164629
728.374	0.0164142
728.453	0.0163287
728.531	0.0165589
728.609	0.0164693
728.687	0.0164278
728.765	0.0165147
728.843	0.0164957
728.921	0.0164951
728.999	0.0165282
729.078	0.0165109
729.156	0.0165181
729.234	0.0163954
729.312	0.0165813
729.390	0.0165305
729.468	0.0165251
729.546	0.0164697
729.624	0.0164761
729.703	0.0163796
729.781	0.0163891
729.859	0.0164474
729.937	0.0163029
730.015	0.0164589
730.093	0.0164153
730.171	0.0163654
730.249	0.0164199
730.328	0.0165488
730.406	0.0164287
730.484	0.0164900
730.562	0.0163893
730.640	0.0165581
730.718	0.0166088
730.796	0.0165218
730.874	0.0162879
730.953	0.0164188
731.031	0.0163993
731.109	0.0164909
731.187	0.0163877
731.265	0.0164189
731.343	0.0165309
731.421	0.0163653
731.499	0.0163226
731.578	0.0162239
731.656	0.0163651
731.734	0.0163781
731.812	0.0162929
731.890	0.0162173
731.968	0.0163287
732.046	0.0163110
732.124	0.0163476
732.203	0.0162289
732.281	0.0162870
732.359	0.0163399
732.437	0.0163561
732.515	0.0163016
732.593	0.0163509
732.671	0.0162360
732.749	0.0163699
732.828	0.0164275
732.906	0.0164293
732.984	0.0163853
733.062	0.0165081
733.140	0.0164550
733.218	0.0164661
733.296	0.0165578
733.374	0.0164632
733.453	0.0163463
733.531	0.0165041
733.609	0.0164726
733.687	0.0164156
733.765	0.0163643
733.843	0.0163401
733.921	0.0163913
733.999	0.0164550
734.078	0.0164460
734.156	0.0164903
734.234	0.0165572
734.312	0.0164552
734.390	0.0164201
734.468	0.0163654
734.546	0.0164006
734.624	0.0163528
734.703	0.0164172
734.781	0.0162332
734.859	0.0163849
734.937	0.0163435
735.015	0.0164688
735.093	0.0163619
735.171	0.0163602
735.249	0.0162783
735.328	0.0162525
735.406	0.0164668
735.484	0.0164434
735.562	0.0163969
735.640	0.0164033
735.718	0.0164196
735.796	0.0163799
735.874	0.0162969
735.953	0.0163388
736.031	0.0163511
736.109	0.0163791
736.187	0.0164207
736.265	0.0163159
736.343	0.0163670
736.421	0.0163274
736.499	0.0165655
736.578	0.0163114
736.656	0.0164191
736.734	0.0164776
736.812	0.0164924
736.890	0.0163847
736.968	0.0163016
737.046	0.0163854
737.124	0.0165353
737.203	0.0164176
737.281	0.0165064
737.359	0.0164800
737.437	0.0165350
737.515	0.0164282
737.593	0.0164980
737.671	0.0165206
737.749	0.0165030
737.828	0.0164317
737.906	0.0164819
737.984	0.0164288
738.062	0.0164474
738.140	0.0163826
738.218	0.0164215
738.296	0.0165178
738.374	0.0165242
738.453	0.0161750
738.531	0.0163152
738.609	0.0163469
738.687	0.0162081
738.765	0.0162887
738.843	0.0162705
738.921	0.0162952
738.999	0.0164211
739.078	0.0163701
739.156	0.0162355
739.234	0.0162965
739.312	0.0162472
739.390	0.0162856
739.468	0.0161761
739.546	0.0162093
739.624	0.0163490
739.703	0.0160948
739.781	0.0161497
739.859	0.0161906
739.937	0.0162280
740.015	0.0162233
740.093	0.0161867
740.171	0.0162480
740.249	0.0161312
740.328	0.0161848
740.406	0.0161944
740.484	0.0162171
740.562	0.0162144
740.640	0.0162142
740.718	0.0162943
740.796	0.0162437
740.874	0.0162968
740.953	0.0163018
741.031	0.0162550
741.109	0.0163045
741.187	0.0163915
741.265	0.0164173
741.343	0.0163908
741.421	0.0164255
741.499	0.0163971
741.578	0.0164744
741.656	0.0163912
741.734	0.0165690
741.812	0.0164883
741.890	0.0165198
741.968	0.0163834
742.046	0.0166413
742.124	0.0166546
742.203	0.0164571
742.281	0.0163511
742.359	0.0163842
742.437	0.0165276
742.515	0.0164647
742.593	0.0164476
742.671	0.0164835
742.749	0.0164009
742.828	0.0165675
742.906	0.0164452
742.984	0.0164743
743.062	0.0165188
743.140	0.0164712
743.218	0.0163680
743.296	0.0162970
743.374	0.0163393
743.453	0.0164215
743.531	0.0163805
743.609	0.0162551
743.687	0.0162951
743.765	0.0162915
743.843	0.0162842
743.921	0.0162778
743.999	0.0162101
744.078	0.0163052
744.156	0.0163440
744.234	0.0163293
744.312	0.0163148
744.390	0.0162788
744.468	0.0162788
744.546	0.0162257
744.624	0.0162856
744.703	0.0163882
744.781	0.0162985
744.859	0.0162999
744.937	0.0162988
745.015	0.0163735
745.093	0.0164562
745.171	0.0163055
745.249	0.0164025
745.328	0.0163706
745.406	0.0162284
745.484	0.0162740
745.562	0.0164384
745.640	0.0163645
745.718	0.0162674
745.796	0.0164019
745.874	0.0163352
745.953	0.0162396
746.031	0.0163763
746.109	0.0164169
746.187	0.0165204
746.265	0.0164693
746.343	0.0163185
746.421	0.0163951
746.499	0.0164260
746.578	0.0164352
746.656	0.0163029
746.734	0.0163690
746.812	0.0164938
746.890	0.0163937
746.968	0.0163631
747.046	0.0163128
747.124	0.0163717
747.203	0.0163721
747.281	0.0163174
747.359	0.0162923
747.437	0.0163239
747.515	0.0163803
747.593	0.0164667
747.671	0.0165507
747.749	0.0164194
747.828	0.0164620
747.906	0.0163939
747.984	0.0164945
748.062	0.0164268
748.140	0.0165216
748.218	0.0164734
748.296	0.0165436
748.374	0.0164091
748.453	0.0165551
748.531	0.0164609
748.609	0.0164054
748.687	0.0165424
748.765	0.0164947
748.843	0.0164976
748.921	0.0165266
748.999	0.0164740
749.078	0.0163689
749.156	0.0165263
749.234	0.0164561
749.312	0.0164338
749.390	0.0165245
749.468	0.0164955
749.546	0.0164017
749.624	0.0164755
749.703	0.0164478
749.781	0.0164165
749.859	0.0163526
749.937	0.0165443
750.015	0.0164336
750.093	0.0164157
750.171	0.0164200
750.249	0.0163837
750.328	0.0164299
750.406	0.0163733
750.484	0.0163472
750.562	0.0165005
750.640	0.0163753
750.718	0.0161947
750.796	0.0163097
750.874	0.0163907
750.953	0.0162635
751.031	0.0162148
751.109	0.0162675
751.187	0.0163729
751.265	0.0162706
751.343	0.0162526
751.421	0.0163909
751.499	0.0164015
751.578	0.0163157
751.656	0.0163826
751.734	0.0163834
751.812	0.0164388
751.890	0.0161157
751.968	0.0163086
752.046	0.0162590
752.124	0.0162531
752.203	0.0162448
752.281	0.0161672
752.359	0.0162717
752.437	0.0161879
752.515	0.0161822
752.593	0.0162756
752.671	0.0162405
752.749	0.0163017
752.828	0.0163017
752.906	0.0162249
752.984	0.0162251
753.062	0.0161733
753.140	0.0162544
753.218	0.0162959
753.296	0.0163334
753.374	0.0161346
753.453	0.0163144
753.531	0.0163744
753.609	0.0162385
753.687	0.0162726
753.765	0.0162408
753.843	0.0163039
753.921	0.0163087
753.999	0.0162957
754.078	0.0162335
754.156	0.0163246
754.234	0.0163949
754.312	0.0163065
754.390	0.0161034
754.468	0.0162118
754.546	0.0163123
754.624	0.0162688
754.703	0.0162231
754.781	0.0161765
754.859	0.0162315
754.937	0.0162675
755.015	0.0162313
755.093	0.0162209
755.171	0.0162897
755.249	0.0162524
755.328	0.0161500
755.406	0.0160752
755.484	0.0161671
755.562	0.0160700
755.640	0.0161362
755.718	0.0161649
755.796	0.0161169
755.874	0.0161598
755.953	0.0161298
756.031	0.0162990
756.109	0.0161842
756.187	0.0162523
756.265	0.0162331
756.343	0.0162221
756.421	0.0163135
756.499	0.0162062
756.578	0.0161433
756.656	0.0162718
756.734	0.0163854
756.812	0.0161578
756.890	0.0161966
756.968	0.0163107
757.046	0.0162216
757.124	0.0162366
757.203	0.0162943
757.281	0.0163482
757.359	0.0163317
757.437	0.0161657
757.515	0.0163538
757.593	0.0164302
757.671	0.0162128
757.749	0.0162442
757.828	0.0164104
757.906	0.0163779
757.984	0.0164133
758.062	0.0163527
758.140	0.0163622
758.218	0.0164938
758.296	0.0164095
758.374	0.0163187
758.453	0.0164407
758.531	0.0164006
758.609	0.0162876
758.687	0.0163802
758.765	0.0164411
758.843	0.0164059
758.921	0.0162968
758.999	0.0161985
759.078	0.0161185
759.156	0.0162218
759.234	0.0162006
759.312	0.0161678
759.390	0.0163593
759.468	0.0165714
759.546	0.0162981
759.624	0.0161591
759.703	0.0163742
759.781	0.0163586
759.859	0.0163761
759.937	0.0163760
760.015	0.0162376
760.093	0.0163095
760.171	0.0162287
760.249	0.0162599
760.328	0.0162749
760.406	0.0162264
760.484	0.0161142
760.562	0.0160580
760.640	0.0161916
760.718	0.0161399
760.796	0.0160207
760.874	0.0159747
760.953	0.0159561
761.031	0.0159883
761.109	0.0161721
761.187	0.0159776
761.265	0.0161031
761.343	0.0160842
761.421	0.0160526
761.499	0.0160921
761.578	0.0161098
761.656	0.0160847
761.734	0.0162614
761.812	0.0161982
761.890	0.0161581
761.968	0.0162465
762.046	0.0162841
762.124	0.0162087
762.203	0.0162708
762.281	0.0162073
762.359	0.0162271
762.437	0.0162801
762.515	0.0164452
762.593	0.0163747
762.671	0.0162969
762.749	0.0164404
762.828	0.0163499
762.906	0.0164851
762.984	0.0164388
763.062	0.0163522
763.140	0.0163379
763.218	0.0163638
763.296	0.0162254
763.374	0.0163410
763.453	0.0163423
763.531	0.0162898
763.609	0.0162059
763.687	0.0161478
763.765	0.0162805
763.843	0.0163313
763.921	0.0163882
763.999	0.0164942
764.078	0.0162846
764.156	0.0163024
764.234	0.0163867
764.312	0.0163100
764.390	0.0163441
764.468	0.0164431
764.546	0.0163589
764.624	0.0163600
764.703	0.0164051
764.781	0.0163731
764.859	0.0162982
764.937	0.0165038
765.015	0.0163100
765.093	0.0163245
765.171	0.0164558
765.249	0.0162807
765.328	0.0163394
765.406	0.0163371
765.484	0.0162066
765.562	0.0163332
765.640	0.0163067
765.718	0.0163460
765.796	0.0162520
765.874	0.0161787
765.953	0.0162373
766.031	0.0163873
766.109	0.0162182
766.187	0.0161595
766.265	0.0163425
766.343	0.0162877
766.421	0.0162952
766.499	0.0164441
766.578	0.0162991
766.656	0.0166223
766.734	0.0164365
766.812	0.0164497
766.890	0.0164828
766.968	0.0164345
767.046	0.0164922
767.124	0.0166113
767.203	0.0165745
767.281	0.0164634
767.359	0.0165436
767.437	0.0167248
767.515	0.0166270
767.593	0.0166205
767.671	0.0166019
767.749	0.0166384
767.828	0.0165499
767.906	0.0165617
767.984	0.0164854
768.062	0.0164555
768.140	0.0164473
768.218	0.0163930
768.296	0.0165295
768.374	0.0164230
768.453	0.0164273
768.531	0.0164513
768.609	0.0163883
768.687	0.0163559
768.765	0.0164577
768.843	0.0164498
768.921	0.0163873
768.999	0.0164228
769.078	0.0164078
769.156	0.0161993
769.234	0.0164623
769.312	0.0163112
769.390	0.0162905
769.468	0.0163863
769.546	0.0163952
769.624	0.0162746
769.703	0.0162711
769.781	0.0162805
769.859	0.0164194
769.937	0.0162427
770.015	0.0162051
770.093	0.0161356
770.171	0.0161343
770.249	0.0162616
770.328	0.0163013
770.406	0.0163597
770.484	0.0162251
770.562	0.0162774
770.640	0.0163339
770.718	0.0162847
770.796	0.0164372
770.874	0.0164513
770.953	0.0163696
771.031	0.0164027
771.109	0.0164117
771.187	0.0164816
771.265	0.0163372
771.343	0.0165724
771.421	0.0164911
771.499	0.0164511
771.578	0.0163610
771.656	0.0164483
771.734	0.0164214
771.812	0.0164136
771.890	0.0165512
771.968	0.0164901
772.046	0.0165146
772.124	0.0165585
772.203	0.0164783
772.281	0.0164501
772.359	0.0164032
772.437	0.0165167
772.515	0.0164016
772.593	0.0165086
772.671	0.0163564
772.749	0.0165220
772.828	0.0164942
772.906	0.0164130
772.984	0.0164603
773.062	0.0164841
773.140	0.0165261
773.218	0.0162003
773.296	0.0162875
773.374	0.0162581
773.453	0.0163439
773.531	0.0163274
773.609	0.0163033
773.687	0.0163306
773.765	0.0162480
773.843	0.0162347
773.921	0.0163714
773.999	0.0162916
774.078	0.0163194
774.156	0.0162502
774.234	0.0161738
774.312	0.0162702
774.390	0.0161175
774.468	0.0161472
774.546	0.0160877
774.624	0.0161443
774.703	0.0160982
774.781	0.0162327
774.859	0.0162781
774.937	0.0163086
775.015	0.0163565
775.093	0.0162840
775.171	0.0163241
775.249	0.0162141
775.328	0.0163524
775.406	0.0162730
775.484	0.0161840
775.562	0.0162017
775.640	0.0162959
775.718	0.0163331
775.796	0.0161253
775.874	0.0161648
775.953	0.0161935
776.031	0.0161333
776.109	0.0159082
776.187	0.0161497
776.265	0.0162164
776.343	0.0160172
776.421	0.0159206
776.499	0.0159554
776.578	0.0159348
776.656	0.0160134
776.734	0.0159862
776.812	0.0161446
776.890	0.0160310
776.968	0.0160828
777.046	0.0161658
777.124	0.0160509
777.203	0.0161758
777.281	0.0162939
777.359	0.0162787
777.437	0.0161186
777.515	0.0162705
777.593	0.0162938
777.671	0.0162906
777.749	0.0164087
777.828	0.0164015
777.906	0.0163550
777.984	0.0164178
778.062	0.0165086
778.140	0.0163212
778.218	0.0162639
778.296	0.0163473
778.374	0.0162972
778.453	0.0163461
778.531	0.0162692
778.609	0.0162637
778.687	0.0161253
778.765	0.0162560
778.843	0.0161969
778.921	0.0163153
778.999	0.0162813
779.078	0.0161124
779.156	0.0159963
779.234	0.0159007
779.312	0.0160815
779.390	0.0162280
779.468	0.0160999
779.546	0.0160711
779.624	0.0161117
779.703	0.0160954
779.781	0.0162992
779.859	0.0160752
779.937	0.0160600
780.015	0.0160472
780.093	0.0161322
780.171	0.0161826
780.249	0.0160884
780.328	0.0162035
780.406	0.0161429
780.484	0.0161096
780.562	0.0160664
780.640	0.0161691
780.718	0.0160616
780.796	0.0161226
780.874	0.0161121
780.953	0.0162617
781.031	0.0161514
781.109	0.0162033
781.187	0.0163142
781.265	0.0162659
781.343	0.0163297
781.421	0.0164368
781.499	0.0163322
781.578	0.0164418
781.656	0.0163705
781.734	0.0164538
781.812	0.0163174
781.890	0.0165343
781.968	0.0165703
782.046	0.0163473
782.124	0.0163655
782.203	0.0163960
782.281	0.0163667
782.359	0.0163853
782.437	0.0164214
782.515	0.0163596
782.593	0.0162215
782.671	0.0163882
782.749	0.0163384
782.828	0.0163960
782.906	0.0165154
782.984	0.0163648
783.062	0.0165096
783.140	0.0164396
783.218	0.0164917
783.296	0.0164165
783.374	0.0165050
783.453	0.0164439
783.531	0.0163562
783.609	0.0163215
783.687	0.0162335
783.765	0.0162782
783.843	0.0164526
783.921	0.0162868
783.999	0.0162952
784.078	0.0163308
784.156	0.0163306
784.234	0.0162899
784.312	0.0163290
784.390	0.0162744
784.468	0.0163610
784.546	0.0163994
784.624	0.0163667
784.703	0.0162463
784.781	0.0160767
784.859	0.0162527
784.937	0.0162948
785.015	0.0163479
785.093	0.0163662
785.171	0.0162852
785.249	0.0164349
785.328	0.0162867
785.406	0.0163529
785.484	0.0162389
785.562	0.0163273
785.640	0.0161816
785.718	0.0163766
785.796	0.0162949
785.874	0.0162677
785.953	0.0164380
786.031	0.0164715
786.109	0.0164188
786.187	0.0163666
786.265	0.0164243
786.343	0.0163885
786.421	0.0163277
786.499	0.0164198
786.578	0.0164591
786.656	0.0163378
786.734	0.0164069
786.812	0.0163489
786.890	0.0163692
786.968	0.0163263
787.046	0.0163752
787.124	0.0163764
787.203	0.0164514
787.281	0.0165387
787.359	0.0166657
787.437	0.0164960
787.515	0.0164551
787.593	0.0165393
787.671	0.0165375
787.749	0.0164014
787.828	0.0164661
787.906	0.0164725
787.984	0.0165092
788.062	0.0165224
788.140	0.0164805
788.218	0.0164887
788.296	0.0163526
788.374	0.0163475
788.453	0.0164173
788.531	0.0163787
788.609	0.0164068
788.687	0.0164186
788.765	0.0164622
788.843	0.0164317
788.921	0.0163956
788.999	0.0163828
789.078	0.0165196
789.156	0.0164515
789.234	0.0164552
789.312	0.0164605
789.390	0.0163378
789.468	0.0164228
789.546	0.0163713
789.624	0.0163008
789.703	0.0163103
789.781	0.0163593
789.859	0.0162522
789.937	0.0161927
790.015	0.0162431
790.093	0.0160471
790.171	0.0161662
790.249	0.0161610
790.328	0.0162742
790.406	0.0160917
790.484	0.0162064
790.562	0.0162267
790.640	0.0160793
790.718	0.0162865
790.796	0.0163689
790.874	0.0163031
790.953	0.0163837
791.031	0.0163284
791.109	0.0164111
791.187	0.0164053
791.265	0.0163419
791.343	0.0164925
791.421	0.0163665
791.499	0.0163966
791.578	0.0165556
791.656	0.0165342
791.734	0.0165350
791.812	0.0165351
791.890	0.0166235
791.968	0.0165282
792.046	0.0167432
792.124	0.0166468
792.203	0.0166541
792.281	0.0165967
792.359	0.0165566
792.437	0.0166412
792.515	0.0166678
792.593	0.0166193
792.671	0.0165313
792.749	0.0164752
792.828	0.0165304
792.906	0.0165534
792.984	0.0165633
793.062	0.0164614
793.140	0.0164513
793.218	0.0165285
793.296	0.0164412
793.374	0.0165897
793.453	0.0164456
793.531	0.0163725
793.609	0.0163712
793.687	0.0164470
793.765	0.0164058
793.843	0.0164412
793.921	0.0163969
793.999	0.0165154
794.078	0.0164595
794.156	0.0164257
794.234	0.0163738
794.312	0.0163230
794.390	0.0164037
794.468	0.0163842
794.546	0.0163605
794.624	0.0163529
794.703	0.0162859
794.781	0.0164268
794.859	0.0163823
794.937	0.0163301
795.015	0.0162929
795.093	0.0163426
795.171	0.0163538
795.249	0.0164246
795.328	0.0164467
795.406	0.0164787
795.484	0.0164717
795.562	0.0164730
795.640	0.0164236
795.718	0.0163824
795.796	0.0165780
795.874	0.0165939
795.953	0.0165155
796.031	0.0165408
796.109	0.0163898
796.187	0.0164693
796.265	0.0165414
796.343	0.0164577
796.421	0.0165575
796.499	0.0166376
796.578	0.0165632
796.656	0.0166072
796.734	0.0165368
796.812	0.0163947
796.890	0.0164664
796.968	0.0165565
797.046	0.0163450
797.124	0.0165261
797.203	0.0164885
797.281	0.0162873
797.359	0.0165041
797.437	0.0165416
797.515	0.0164043
797.593	0.0163708
797.671	0.0164058
797.749	0.0164864
797.828	0.0163079
797.906	0.0163653
797.984	0.0162621
798.062	0.0164241
798.140	0.0162713
798.218	0.0162630
798.296	0.0163306
798.374	0.0163837
798.453	0.0163986
798.531	0.0162400
798.609	0.0163698
798.687	0.0163201
798.765	0.0163615
798.843	0.0162745
798.921	0.0161835
798.999	0.0163244
799.078	0.0163352
799.156	0.0162994
799.234	0.0162865
799.312	0.0163721
799.390	0.0162805
799.468	0.0163817
799.546	0.0162659
799.624	0.0163164
799.703	0.0163026
799.781	0.0162196
799.859	0.0161422
799.937	0.0163206
800.015	0.0162962
800.093	0.0163294
800.171	0.0163229
800.249	0.0162749
800.328	0.0163409
800.406	0.0163775
800.484	0.0163065
800.562	0.0162745
800.640	0.0163188
800.718	0.0163142
800.796	0.0163194
800.874	0.0164610
800.953	0.0163686
801.031	0.0162209
801.109	0.0162615
801.187	0.0162859
801.265	0.0161938
801.343	0.0162292
801.421	0.0163127
801.499	0.0163334
801.578	0.0163016
801.656	0.0165554
801.734	0.0163798
801.812	0.0162746
801.890	0.0163574
801.968	0.0164411
802.046	0.0163460
802.124	0.0162845
802.203	0.0163411
802.281	0.0163785
802.359	0.0163355
802.437	0.0165425
802.515	0.0163820
802.593	0.0164049
802.671	0.0164680
802.749	0.0163775
802.828	0.0161853
802.906	0.0162943
802.984	0.0163184
803.062	0.0165069
803.140	0.0162827
803.218	0.0162711
803.296	0.0164069
803.374	0.0163535
803.453	0.0163736
803.531	0.0163639
803.609	0.0163662
803.687	0.0162767
803.765	0.0162601
803.843	0.0163797
803.921	0.0163133
803.999	0.0164064
804.078	0.0163042
804.156	0.0163723
804.234	0.0163611
804.312	0.0162489
804.390	0.0163217
804.468	0.0162537
804.546	0.0163772
804.624	0.0164088
804.703	0.0163771
804.781	0.0163142
804.859	0.0162417
804.937	0.0164075
805.015	0.0163345
805.093	0.0164820
805.171	0.0163551
805.249	0.0164126
805.328	0.0163628
805.406	0.0162882
805.484	0.0164126
805.562	0.0164555
805.640	0.0164355
805.718	0.0165296
805.796	0.0165354
805.874	0.0165193
805.953	0.0165715
806.031	0.0164721
806.109	0.0164101
806.187	0.0162933
806.265	0.0164494
806.343	0.0165096
806.421	0.0163580
806.499	0.0164716
806.578	0.0165369
806.656	0.0164590
806.734	0.0163066
806.812	0.0164886
806.890	0.0165154
806.968	0.0166216
807.046	0.0165393
807.124	0.0166258
807.203	0.0166170
807.281	0.0166100
807.359	0.0166925
807.437	0.0165199
807.515	0.0165551
807.593	0.0167027
807.671	0.0167252
807.749	0.0165016
807.828	0.0165640
807.906	0.0166249
807.984	0.0164828
808.062	0.0165197
808.140	0.0164545
808.218	0.0166307
808.296	0.0164457
808.374	0.0165026
808.453	0.0164977
808.531	0.0163931
808.609	0.0163420
808.687	0.0163547
808.765	0.0164808
808.843	0.0164873
808.921	0.0162757
808.999	0.0162613
809.078	0.0165256
809.156	0.0164277
809.234	0.0163763
809.312	0.0164381
809.390	0.0163837
809.468	0.0164465
809.546	0.0163753
809.624	0.0164838
809.703	0.0163695
809.781	0.0163488
809.859	0.0162547
809.937	0.0163616
810.015	0.0164658
810.093	0.0163878
810.171	0.0162935
810.249	0.0163606
810.328	0.0163837
810.406	0.0164167
810.484	0.0163188
810.562	0.0164362
810.640	0.0163836
810.718	0.0163698
810.796	0.0162756
810.874	0.0164666
810.953	0.0164079
811.031	0.0164793
811.109	0.0163375
811.187	0.0163647
811.265	0.0165271
811.343	0.0164101
811.421	0.0163531
811.499	0.0165936
811.578	0.0165056
811.656	0.0165333
811.734	0.0163958
811.812	0.0165361
811.890	0.0166834
811.968	0.0165627
812.046	0.0166847
812.124	0.0165931
812.203	0.0164250
812.281	0.0165013
812.359	0.0164512
812.437	0.0165368
812.515	0.0165088
812.593	0.0166680
812.671	0.0165726
812.749	0.0165350
812.828	0.0163668
812.906	0.0164911
812.984	0.0166103
813.062	0.0164790
813.140	0.0164679
813.218	0.0164913
813.296	0.0163988
813.374	0.0164043
813.453	0.0163604
813.531	0.0163984
813.609	0.0163807
813.687	0.0163824
813.765	0.0165210
813.843	0.0165051
813.921	0.0164468
813.999	0.0164501
814.078	0.0165842
814.156	0.0164613
814.234	0.0165660
814.312	0.0164969
814.390	0.0164171
814.468	0.0164988
814.546	0.0163819
814.624	0.0164433
814.703	0.0162870
814.781	0.0163771
814.859	0.0164048
814.937	0.0162961
815.015	0.0162253
815.093	0.0163606
815.171	0.0164095
815.249	0.0163408
815.328	0.0163315
815.406	0.0164217
815.484	0.0163592
815.562	0.0162856
815.640	0.0163094
815.718	0.0162930
815.796	0.0164300
815.874	0.0164099
815.953	0.0163682
816.031	0.0164005
816.109	0.0163812
816.187	0.0164178
816.265	0.0163606
816.343	0.0163837
816.421	0.0164223
816.499	0.0163601
816.578	0.0164464
816.656	0.0163736
816.734	0.0165081
816.812	0.0166637
816.890	0.0165060
816.968	0.0164194
817.046	0.0165469
817.124	0.0164543
817.203	0.0165572
817.281	0.0165463
817.359	0.0166294
817.437	0.0165462
817.515	0.0164687
817.593	0.0163545
817.671	0.0163483
817.749	0.0163495
817.828	0.0163643
817.906	0.0162686
817.984	0.0161770
818.062	0.0163448
818.140	0.0163921
818.218	0.0162618
818.296	0.0161957
818.374	0.0161656
818.453	0.0162374
818.531	0.0162337
818.609	0.0164690
818.687	0.0162484
818.765	0.0162015
818.843	0.0163528
818.921	0.0162214
818.999	0.0163422
819.078	0.0163385
819.156	0.0162945
819.234	0.0163911
819.312	0.0163148
819.390	0.0162955
819.468	0.0162451
819.546	0.0162655
819.624	0.0163218
819.703	0.0163374
819.781	0.0163419
819.859	0.0162859
819.937	0.0162939
820.015	0.0162354
820.093	0.0162610
820.171	0.0164690
820.249	0.0164327
820.328	0.0163029
820.406	0.0164745
820.484	0.0163439
820.562	0.0163843
820.640	0.0165284
820.718	0.0163004
820.796	0.0162866
820.874	0.0164996
820.953	0.0162918
821.031	0.0164215
821.109	0.0164014
821.187	0.0162836
821.265	0.0163999
821.343	0.0162964
821.421	0.0162889
821.499	0.0162455
821.578	0.0161716
821.656	0.0161417
821.734	0.0161905
821.812	0.0162091
821.890	0.0162395
821.968	0.0162517
822.046	0.0162514
822.124	0.0162496
822.203	0.0163512
822.281	0.0164353
822.359	0.0163815
822.437	0.0162283
822.515	0.0162981
822.593	0.0162367
822.671	0.0161517
822.749	0.0162828
822.828	0.0161820
822.906	0.0160788
822.984	0.0161068
823.062	0.0160319
823.140	0.0159744
823.218	0.0159910
823.296	0.0161409
823.374	0.0161321
823.453	0.0160368
823.531	0.0160101
823.609	0.0162077
823.687	0.0162025
823.765	0.0161677
823.843	0.0160540
823.921	0.0161968
823.999	0.0161312
824.078	0.0161351
824.156	0.0161731
824.234	0.0161340
824.312	0.0163048
824.390	0.0160705
824.468	0.0161205
824.546	0.0162456
824.624	0.0162257
824.703	0.0162610
824.781	0.0162439
824.859	0.0162567
824.937	0.0161169
825.015	0.0162342
825.093	0.0161564
825.171	0.0161300
825.249	0.0162065
825.328	0.0163866
825.406	0.0162031
825.484	0.0161183
825.562	0.0162256
825.640	0.0162395
825.718	0.0163404
825.796	0.0161654
825.874	0.0163231
825.953	0.0162914
826.031	0.0162930
826.109	0.0162115
826.187	0.0162708
826.265	0.0163596
826.343	0.0161631
826.421	0.0162878
826.499	0.0163912
826.578	0.0165094
826.656	0.0163299
826.734	0.0163775
826.812	0.0163082
826.890	0.0163384
826.968	0.0163268
827.046	0.0162679
827.124	0.0162704
827.203	0.0162154
827.281	0.0162315
827.359	0.0162053
827.437	0.0161341
827.515	0.0163361
827.593	0.0161975
827.671	0.0161082
827.749	0.0163320
827.828	0.0161626
827.906	0.0161024
827.984	0.0161781
828.062	0.0161520
828.140	0.0160725
828.218	0.0160417
828.296	0.0159839
828.374	0.0161573
828.453	0.0161687
828.531	0.0161405
828.609	0.0161209
828.687	0.0161920
828.765	0.0161589
828.843	0.0162262
828.921	0.0161749
828.999	0.0162666
829.078	0.0163166
829.156	0.0163527
829.234	0.0165063
829.312	0.0165879
829.390	0.0163919
829.468	0.0163558
829.546	0.0165234
829.624	0.0165303
829.703	0.0164636
829.781	0.0165662
829.859	0.0164585
829.937	0.0165630
830.015	0.0164212
830.093	0.0165593
830.171	0.0164219
830.249	0.0165222
830.328	0.0165117
830.406	0.0162897
830.484	0.0165250
830.562	0.0165108
830.640	0.0163339
830.718	0.0163171
830.796	0.0164115
830.874	0.0164436
830.953	0.0163571
831.031	0.0164641
831.109	0.0164202
831.187	0.0163358
831.265	0.0163374
831.343	0.0163202
831.421	0.0162119
831.499	0.0163351
831.578	0.0164025
831.656	0.0164344
831.734	0.0164221
831.812	0.0164948
831.890	0.0163554
831.968	0.0165473
832.046	0.0164780
832.124	0.0165278
832.203	0.0164809
832.281	0.0165550
832.359	0.0166128
832.437	0.0163741
832.515	0.0163755
832.593	0.0165217
832.671	0.0164158
832.749	0.0162879
832.828	0.0163766
832.906	0.0164311
832.984	0.0164798
833.062	0.0163129
833.140	0.0164181
833.218	0.0164430
833.296	0.0164661
833.374	0.0165295
833.453	0.0164552
833.531	0.0165567
833.609	0.0166039
833.687	0.0165899
833.765	0.0165029
833.843	0.0165705
833.921	0.0166879
833.999	0.0166596
834.078	0.0167930
834.156	0.0167013
834.234	0.0167825
834.312	0.0167117
834.390	0.0167709
834.468	0.0166838
834.546	0.0168771
834.624	0.0165814
834.703	0.0166928
834.781	0.0166078
834.859	0.0166121
834.937	0.0165036
835.015	0.0166452
835.093	0.0165326
835.171	0.0165473
835.249	0.0164616
835.328	0.0163424
835.406	0.0164069
835.484	0.0163139
835.562	0.0163441
835.640	0.0163233
835.718	0.0162009
835.796	0.0161402
835.874	0.0163636
835.953	0.0162435
836.031	0.0161634
836.109	0.0162150
836.187	0.0161575
836.265	0.0161385
836.343	0.0161560
836.421	0.0161447
836.499	0.0162843
836.578	0.0162864
836.656	0.0163775
836.734	0.0163717
836.812	0.0163369
836.890	0.0164740
836.968	0.0164704
837.046	0.0164858
837.124	0.0166203
837.203	0.0164854
837.281	0.0166715
837.359	0.0165491
837.437	0.0166012
837.515	0.0167515
837.593	0.0165907
837.671	0.0164058
837.749	0.0164143
837.828	0.0166505
837.906	0.0163984
837.984	0.0164013
838.062	0.0162962
838.140	0.0162491
838.218	0.0161307
838.296	0.0161169
838.374	0.0161195
838.453	0.0160313
838.531	0.0160950
838.609	0.0160206
838.687	0.0160662
838.765	0.0160615
838.843	0.0161090
838.921	0.0160296
838.999	0.0160580
839.078	0.0161893
839.156	0.0161766
839.234	0.0161516
839.312	0.0163469
839.390	0.0162958
839.468	0.0162760
839.546	0.0162865
839.624	0.0162447
839.703	0.0163190
839.781	0.0163844
839.859	0.0163669
839.937	0.0162480
840.015	0.0164058
840.093	0.0164860
840.171	0.0164489
840.249	0.0164766
840.328	0.0164262
840.406	0.0164915
840.484	0.0165051
840.562	0.0164835
840.640	0.0164574
840.718	0.0164772
840.796	0.0163651
840.874	0.0163007
840.953	0.0162844
841.031	0.0163413
841.109	0.0161308
841.187	0.0161320
841.265	0.0162096
841.343	0.0162415
841.421	0.0161928
841.499	0.0160974
841.578	0.0161358
841.656	0.0162214
841.734	0.0160654
841.812	0.0161021
841.890	0.0162292
841.968	0.0161988
842.046	0.0162241
842.124	0.0162189
842.203	0.0163751
842.281	0.0162764
842.359	0.0164468
842.437	0.0164768
842.515	0.0164081
842.593	0.0162929
842.671	0.0164156
842.749	0.0165287
842.828	0.0164349
842.906	0.0164730
842.984	0.0163622
843.062	0.0165207
843.140	0.0164857
843.218	0.0163207
843.296	0.0164774
843.374	0.0165540
843.453	0.0164684
843.531	0.0164616
843.609	0.0161826
843.687	0.0163186
843.765	0.0162698
843.843	0.0162798
843.921	0.0162059
843.999	0.0161837
844.078	0.0160979
844.156	0.0161610
844.234	0.0161405
844.312	0.0160715
844.390	0.0161198
844.468	0.0160992
844.546	0.0162099
844.624	0.0161935
844.703	0.0161193
844.781	0.0161388
844.859	0.0163136
844.937	0.0162782
845.015	0.0161570
845.093	0.0163129
845.171	0.0163243
845.249	0.0162640
845.328	0.0163254
845.406	0.0163963
845.484	0.0162772
845.562	0.0163004
845.640	0.0162222
845.718	0.0163588
845.796	0.0162773
845.874	0.0162416
845.953	0.0162407
846.031	0.0163432
846.109	0.0162831
846.187	0.0164365
846.265	0.0164946
846.343	0.0163261
846.421	0.0162026
846.499	0.0162684
846.578	0.0162582
846.656	0.0162744
846.734	0.0161938
846.812	0.0161808
846.890	0.0161383
846.968	0.0162943
847.046	0.0160455
847.124	0.0163351
847.203	0.0161987
847.281	0.0162098
847.359	0.0161746
847.437	0.0162563
847.515	0.0162193
847.593	0.0161691
847.671	0.0161470
847.749	0.0162313
847.828	0.0159774
847.906	0.0160999
847.984	0.0162769
848.062	0.0161886
848.140	0.0163956
848.218	0.0162642
848.296	0.0160875
848.374	0.0163046
848.453	0.0162127
848.531	0.0162706
848.609	0.0163276
848.687	0.0162669
848.765	0.0161298
848.843	0.0163073
848.921	0.0163404
848.999	0.0162896
849.078	0.0165133
849.156	0.0162778
849.234	0.0161753
849.312	0.0163680
849.390	0.0162133
849.468	0.0162567
849.546	0.0163130
849.624	0.0163408
849.703	0.0163719
849.781	0.0163272
849.859	0.0162359
849.937	0.0163102
850.015	0.0162775
850.093	0.0163210
850.171	0.0163860
850.249	0.0162601
850.328	0.0163390
850.406	0.0163277
850.484	0.0162695
850.562	0.0163863
850.640	0.0164914
850.718	0.0163868
850.796	0.0162224
850.874	0.0163308
850.953	0.0163596
851.031	0.0163228
851.109	0.0163215
851.187	0.0162597
851.265	0.0163766
851.343	0.0163286
851.421	0.0163489
851.499	0.0162446
851.578	0.0161610
851.656	0.0162237
851.734	0.0162827
851.812	0.0162439
851.890	0.0161375
851.968	0.0163980
852.046	0.0162346
852.124	0.0162380
852.203	0.0161230
852.281	0.0161663
852.359	0.0163104
852.437	0.0162141
852.515	0.0162737
852.593	0.0163774
852.671	0.0163845
852.749	0.0162717
852.828	0.0163013
852.906	0.0162698
852.984	0.0162870
853.062	0.0164111
853.140	0.0163475
853.218	0.0162885
853.296	0.0162045
853.374	0.0164178
853.453	0.0162569
853.531	0.0161339
853.609	0.0162847
853.687	0.0162350
853.765	0.0162844
853.843	0.0163068
853.921	0.0162599
853.999	0.0164167
854.078	0.0162473
854.156	0.0163370
854.234	0.0164436
854.312	0.0163491
854.390	0.0164197
854.468	0.0163676
854.546	0.0162756
854.624	0.0163015
854.703	0.0164583
854.781	0.0162997
854.859	0.0164304
854.937	0.0163348
855.015	0.0162714
855.093	0.0162995
855.171	0.0162047
855.249	0.0162428
855.328	0.0162914
855.406	0.0162468
855.484	0.0162997
855.562	0.0162822
855.640	0.0163415
855.718	0.0162643
855.796	0.0161557
855.874	0.0163122
855.953	0.0162526
856.031	0.0162126
856.109	0.0162942
856.187	0.0161958
856.265	0.0161477
856.343	0.0162423
856.421	0.0163752
856.499	0.0161671
856.578	0.0161741
856.656	0.0161581
856.734	0.0163640
856.812	0.0163754
856.890	0.0161176
856.968	0.0163158
857.046	0.0163247
857.124	0.0164252
857.203	0.0162021
857.281	0.0162683
857.359	0.0162466
857.437	0.0163715
857.515	0.0163150
857.593	0.0162926
857.671	0.0162367
857.749	0.0163480
857.828	0.0163025
857.906	0.0162582
857.984	0.0164901
858.062	0.0164513
858.140	0.0162302
858.218	0.0163856
858.296	0.0163809
858.374	0.0164670
858.453	0.0164645
858.531	0.0162433
858.609	0.0162254
858.687	0.0163359
858.765	0.0164940
858.843	0.0162424
858.921	0.0162447
858.999	0.0162486
859.078	0.0161919
859.156	0.0162730
859.234	0.0161994
859.312	0.0163643
859.390	0.0162260
859.468	0.0161877
859.546	0.0162447
859.624	0.0160862
859.703	0.0162603
859.781	0.0162151
859.859	0.0161574
859.937	0.0162660
860.015	0.0163093
860.093	0.0164592
860.171	0.0163008
860.249	0.0162449
860.328	0.0162497
860.406	0.0164128
860.484	0.0164173
860.562	0.0164008
860.640	0.0163148
860.718	0.0164153
860.796	0.0164204
860.874	0.0163550
860.953	0.0163077
861.031	0.0163387
861.109	0.0165823
861.187	0.0165598
861.265	0.0165341
861.343	0.0165105
861.421	0.0164864
861.499	0.0163986
861.578	0.0165540
861.656	0.0167229
861.734	0.0165067
861.812	0.0166371
861.890	0.0165347
861.968	0.0163853
862.046	0.0163991
862.124	0.0164275
862.203	0.0163525
862.281	0.0163550
862.359	0.0164615
862.437	0.0163855
862.515	0.0162228
862.593	0.0163946
862.671	0.0163232
862.749	0.0162134
862.828	0.0162906
862.906	0.0163612
862.984	0.0162108
863.062	0.0163331
863.140	0.0161804
863.218	0.0162000
863.296	0.0161547
863.374	0.0162369
863.453	0.0161655
863.531	0.0162458
863.609	0.0163233
863.687	0.0162407
863.765	0.0163044
863.843	0.0162322
863.921	0.0163725
863.999	0.0163412
864.078	0.0165041
864.156	0.0165286
864.234	0.0165493
864.312	0.0165235
864.390	0.0165040
864.468	0.0165887
864.546	0.0165159
864.624	0.0165242
864.703	0.0166383
864.781	0.0167400
864.859	0.0166767
864.937	0.0166304
865.015	0.0167046
865.093	0.0166982
865.171	0.0166560
865.249	0.0164474
865.328	0.0164585
865.406	0.0164853
865.484	0.0164818
865.562	0.0164919
865.640	0.0163358
865.718	0.0163069
865.796	0.0163610
865.874	0.0164368
865.953	0.0163992
866.031	0.0163360
866.109	0.0163980
866.187	0.0164243
866.265	0.0163354
866.343	0.0163081
866.421	0.0163618
866.499	0.0163746
866.578	0.0165232
866.656	0.0163348
866.734	0.0162238
866.812	0.0163264
866.890	0.0163082
866.968	0.0164959
867.046	0.0162635
867.124	0.0163345
867.203	0.0164247
867.281	0.0163724
867.359	0.0162943
867.437	0.0162858
867.515	0.0163346
867.593	0.0165096
867.671	0.0164764
867.749	0.0165251
867.828	0.0165842
867.906	0.0166481
867.984	0.0164952
868.062	0.0165445
868.140	0.0164991
868.218	0.0165911
868.296	0.0165491
868.374	0.0166261
868.453	0.0164684
868.531	0.0166747
868.609	0.0165897
868.687	0.0164780
868.765	0.0166125
868.843	0.0166333
868.921	0.0165726
868.999	0.0165066
869.078	0.0163592
869.156	0.0163892
869.234	0.0163848
869.312	0.0164814
869.390	0.0163676
869.468	0.0162471
869.546	0.0163731
869.624	0.0163412
869.703	0.0163602
869.781	0.0163308
869.859	0.0163145
869.937	0.0163196
870.015	0.0163271
870.093	0.0161884
870.171	0.0163233
870.249	0.0164755
870.328	0.0163076
870.406	0.0164277
870.484	0.0164129
870.562	0.0163556
870.640	0.0164114
870.718	0.0165230
870.796	0.0164658
870.874	0.0165218
870.953	0.0164433
871.031	0.0165198
871.109	0.0164192
871.187	0.0164268
871.265	0.0164871
871.343	0.0164211
871.421	0.0163169
871.499	0.0164331
871.578	0.0165682
871.656	0.0164791
871.734	0.0163432
871.812	0.0163764
871.890	0.0164049
871.968	0.0162952
872.046	0.0163185
872.124	0.0163075
872.203	0.0162357
872.281	0.0162978
872.359	0.0162411
872.437	0.0164464
872.515	0.0164384
872.593	0.0164655
872.671	0.0162366
872.749	0.0163731
872.828	0.0164660
872.906	0.0163342
872.984	0.0164803
873.062	0.0164350
873.140	0.0164793
873.218	0.0163120
873.296	0.0164806
873.374	0.0163331
873.453	0.0162796
873.531	0.0163469
873.609	0.0164051
873.687	0.0164717
873.765	0.0164230
873.843	0.0165364
873.921	0.0165547
873.999	0.0163902
874.078	0.0164807
874.156	0.0163853
874.234	0.0163844
874.312	0.0164558
874.390	0.0166529
874.468	0.0163783
874.546	0.0165841
874.624	0.0164091
874.703	0.0164301
874.781	0.0165045
874.859	0.0164368
874.937	0.0163615
875.015	0.0163402
875.093	0.0163017
875.171	0.0162452
875.249	0.0162351
875.328	0.0161123
875.406	0.0161523
875.484	0.0163030
875.562	0.0162584
875.640	0.0162660
875.718	0.0161442
875.796	0.0163049
875.874	0.0161949
875.953	0.0162567
876.031	0.0161343
876.109	0.0161840
876.187	0.0163440
876.265	0.0163109
876.343	0.0160647
876.421	0.0162701
876.499	0.0162075
876.578	0.0160675
876.656	0.0162053
876.734	0.0163570
876.812	0.0161730
876.890	0.0162356
876.968	0.0162492
877.046	0.0162423
877.124	0.0162344
877.203	0.0163163
877.281	0.0161608
877.359	0.0161954
877.437	0.0162294
877.515	0.0163398
877.593	0.0161504
877.671	0.0161631
877.749	0.0162790
877.828	0.0163033
877.906	0.0162156
877.984	0.0163268
878.062	0.0162125
878.140	0.0161842
878.218	0.0162175
878.296	0.0161533
878.374	0.0162128
878.453	0.0163396
878.531	0.0161883
878.609	0.0162532
878.687	0.0163711
878.765	0.0162533
878.843	0.0163245
878.921	0.0163349
878.999	0.0161204
879.078	0.0162785
879.156	0.0163000
879.234	0.0162383
879.312	0.0161237
879.390	0.0161485
879.468	0.0162341
879.546	0.0161976
879.624	0.0162260
879.703	0.0160839
879.781	0.0161886
879.859	0.0161407
879.937	0.0161370
880.015	0.0162708
880.093	0.0161063
880.171	0.0161523
880.249	0.0161510
880.328	0.0162222
880.406	0.0161863
880.484	0.0162891
880.562	0.0161681
880.640	0.0161096
880.718	0.0161913
880.796	0.0162344
880.874	0.0162727
880.953	0.0162247
881.031	0.0162254
881.109	0.0163290
881.187	0.0163357
881.265	0.0163123
881.343	0.0163585
881.421	0.0164104
881.499	0.0162922
881.578	0.0163417
881.656	0.0162680
881.734	0.0163358
881.812	0.0163733
881.890	0.0164085
881.968	0.0164149
882.046	0.0163655
882.124	0.0163461
882.203	0.0163698
882.281	0.0165051
882.359	0.0163181
882.437	0.0162732
882.515	0.0163509
882.593	0.0165074
882.671	0.0164094
882.749	0.0163633
882.828	0.0163781
882.906	0.0163116
882.984	0.0163824
883.062	0.0162893
883.140	0.0162841
883.218	0.0164147
883.296	0.0163533
883.374	0.0163721
883.453	0.0163184
883.531	0.0162771
883.609	0.0162867
883.687	0.0162988
883.765	0.0163385
883.843	0.0163336
883.921	0.0163838
883.999	0.0165695
884.078	0.0164807
884.156	0.0163750
884.234	0.0162847
884.312	0.0164384
884.390	0.0165625
884.468	0.0164862
884.546	0.0164848
884.624	0.0164855
884.703	0.0164065
884.781	0.0165246
884.859	0.0164694
884.937	0.0162722
885.015	0.0164569
885.093	0.0164577
885.171	0.0163319
885.249	0.0162966
885.328	0.0162493
885.406	0.0164571
885.484	0.0164531
885.562	0.0164104
885.640	0.0163591
885.718	0.0163490
885.796	0.0163178
885.874	0.0163769
885.953	0.0164150
886.031	0.0163342
886.109	0.0163647
886.187	0.0163312
886.265	0.0163731
886.343	0.0164788
886.421	0.0164545
886.499	0.0164182
886.578	0.0164705
886.656	0.0164850
886.734	0.0163563
886.812	0.0164356
886.890	0.0163937
886.968	0.0164193
887.046	0.0164661
887.124	0.0163129
887.203	0.0164983
887.281	0.0164316
887.359	0.0163911
887.437	0.0164286
887.515	0.0162824
887.593	0.0163164
887.671	0.0164909
887.749	0.0163143
887.828	0.0164613
887.906	0.0164239
887.984	0.0164491
888.062	0.0164264
888.140	0.0163694
888.218	0.0163443
888.296	0.0162984
888.374	0.0164520
888.453	0.0164065
888.531	0.0163849
888.609	0.0163341
888.687	0.0165809
888.765	0.0164725
888.843	0.0164777
888.921	0.0164500
888.999	0.0164959
889.078	0.0164534
889.156	0.0163824
889.234	0.0165196
889.312	0.0164993
889.390	0.0165419
889.468	0.0165225
889.546	0.0163723
889.624	0.0164904
889.703	0.0166087
889.781	0.0165637
889.859	0.0165666
889.937	0.0165464
890.015	0.0164624
890.093	0.0165528
890.171	0.0165614
890.249	0.0164251
890.328	0.0165596
890.406	0.0164039
890.484	0.0164069
890.562	0.0166031
890.640	0.0165546
890.718	0.0165364
890.796	0.0164045
890.874	0.0163718
890.953	0.0165783
891.031	0.0165137
891.109	0.0163565
891.187	0.0163155
891.265	0.0163782
891.343	0.0165208
891.421	0.0163660
891.499	0.0163397
891.578	0.0162420
891.656	0.0163865
891.734	0.0164518
891.812	0.0164925
891.890	0.0163299
891.968	0.0163770
892.046	0.0163508
892.124	0.0163900
892.203	0.0163414
892.281	0.0163837
892.359	0.0164052
892.437	0.0162531
892.515	0.0163228
892.593	0.0162692
892.671	0.0163799
892.749	0.0163333
892.828	0.0164877
892.906	0.0163964
892.984	0.0162394
893.062	0.0162688
893.140	0.0162335
893.218	0.0162490
893.296	0.0161334
893.374	0.0161339
893.453	0.0161665
893.531	0.0162899
893.609	0.0161707
893.687	0.0162785
893.765	0.0161427
893.843	0.0161131
893.921	0.0161972
893.999	0.0163115
894.078	0.0161016
894.156	0.0162152
894.234	0.0161970
894.312	0.0161890
894.390	0.0162219
894.468	0.0163459
894.546	0.0162192
894.624	0.0162674
894.703	0.0162737
894.781	0.0162650
894.859	0.0162317
894.937	0.0164062
895.015	0.0163611
895.093	0.0162980
895.171	0.0163417
895.249	0.0163213
895.328	0.0162164
895.406	0.0162542
895.484	0.0163223
895.562	0.0161683
895.640	0.0163150
895.718	0.0162680
895.796	0.0162137
895.874	0.0162522
895.953	0.0163543
896.031	0.0163448
896.109	0.0163914
896.187	0.0162411
896.265	0.0162440
896.343	0.0162796
896.421	0.0162307
896.499	0.0162706
896.578	0.0163007
896.656	0.0162614
896.734	0.0161163
896.812	0.0163525
896.890	0.0162294
896.968	0.0161748
897.046	0.0162784
897.124	0.0162336
897.203	0.0162951
897.281	0.0162299
897.359	0.0161489
897.437	0.0161349
897.515	0.0162839
897.593	0.0163381
897.671	0.0162071
897.749	0.0162090
897.828	0.0164439
897.906	0.0164288
897.984	0.0165477
898.062	0.0164019
898.140	0.0164644
898.218	0.0164130
898.296	0.0163735
898.374	0.0164407
898.453	0.0163554
898.531	0.0164793
898.609	0.0164413
898.687	0.0165181
898.765	0.0164217
898.843	0.0163401
898.921	0.0165237
898.999	0.0164330
899.078	0.0163502
899.156	0.0164777
899.234	0.0164691
899.312	0.0164469
899.390	0.0163440
899.468	0.0164500
899.546	0.0164648
899.624	0.0164583
899.703	0.0163211
899.781	0.0164722
899.859	0.0163833
899.937	0.0163617
900.015	0.0164462
900.093	0.0163194
900.171	0.0162450
900.249	0.0161905
900.328	0.0163966
900.406	0.0164458
900.484	0.0164158
900.562	0.0162804
900.640	0.0163860
900.718	0.0163465
900.796	0.0162699
900.874	0.0162576
900.953	0.0163315
901.031	0.0163205
901.109	0.0161822
901.187	0.0163346
901.265	0.0162587
901.343	0.0161120
901.421	0.0163208
901.499	0.0162763
901.578	0.0162821
901.656	0.0163748
901.734	0.0162809
901.812	0.0162804
901.890	0.0162946
901.968	0.0162741
902.046	0.0164429
902.124	0.0163280
902.203	0.0164109
902.281	0.0163435
902.359	0.0163455
902.437	0.0164098
902.515	0.0163405
902.593	0.0164733
902.671	0.0164355
902.749	0.0163123
902.828	0.0163546
902.906	0.0163201
902.984	0.0162302
903.062	0.0162958
903.140	0.0163980
903.218	0.0164679
903.296	0.0163432
903.374	0.0164781
903.453	0.0164404
903.531	0.0164973
903.609	0.0163240
903.687	0.0163318
903.765	0.0163246
903.843	0.0163969
903.921	0.0164826
903.999	0.0164803
904.078	0.0163307
904.156	0.0164428
904.234	0.0162889
904.312	0.0163774
904.390	0.0164355
904.468	0.0163107
904.546	0.0163188
904.624	0.0163084
904.703	0.0162462
904.781	0.0163382
904.859	0.0163915
904.937	0.0164256
905.015	0.0163291
905.093	0.0163180
905.171	0.0162538
905.249	0.0163139
905.328	0.0165241
905.406	0.0163854
905.484	0.0164382
905.562	0.0165538
905.640	0.0164912
905.718	0.0164206
905.796	0.0164056
905.874	0.0164552
905.953	0.0165865
906.031	0.0165392
906.109	0.0165518
906.187	0.0165139
906.265	0.0164817
906.343	0.0165092
906.421	0.0165247
906.499	0.0164812
906.578	0.0165905
906.656	0.0165842
906.734	0.0163636
906.812	0.0163282
906.890	0.0164689
906.968	0.0163187
907.046	0.0163657
907.124	0.0162791
907.203	0.0164603
907.281	0.0164110
907.359	0.0163676
907.437	0.0164336
907.515	0.0163811
907.593	0.0163892
907.671	0.0163392
907.749	0.0164680
907.828	0.0163558
907.906	0.0164054
907.984	0.0163462
908.062	0.0164809
908.140	0.0164295
908.218	0.0165144
908.296	0.0163351
908.374	0.0164946
908.453	0.0164358
908.531	0.0162851
908.609	0.0163750
908.687	0.0164285
908.765	0.0163845
908.843	0.0164967
908.921	0.0163880
908.999	0.0163115
909.078	0.0163749
909.156	0.0163555
909.234	0.0164825
909.312	0.0165711
909.390	0.0164125
909.468	0.0162723
909.546	0.0163877
909.624	0.0164185
909.703	0.0164281
909.781	0.0163364
909.859	0.0163774
909.937	0.0163882
910.015	0.0164720
910.093	0.0163728
910.171	0.0165079
910.249	0.0163748
910.328	0.0163754
910.406	0.0163349
910.484	0.0164255
910.562	0.0163787
910.640	0.0164108
910.718	0.0164613
910.796	0.0163496
910.874	0.0163460
910.953	0.0162781
911.031	0.0163525
911.109	0.0164741
911.187	0.0162592
911.265	0.0162801
911.343	0.0165279
911.421	0.0163691
911.499	0.0165519
911.578	0.0162925
911.656	0.0163838
911.734	0.0164533
911.812	0.0164209
911.890	0.0164008
911.968	0.0163249
912.046	0.0163882
912.124	0.0164870
912.203	0.0163648
912.281	0.0164034
912.359	0.0165122
912.437	0.0163066
912.515	0.0162135
912.593	0.0162898
912.671	0.0162856
912.749	0.0163327
912.828	0.0162934
912.906	0.0162676
912.984	0.0162488
913.062	0.0161008
913.140	0.0162016
913.218	0.0162962
913.296	0.0162085
913.374	0.0163264
913.453	0.0162508
913.531	0.0162675
913.609	0.0163292
913.687	0.0162601
913.765	0.0162854
913.843	0.0162933
913.921	0.0164048
913.999	0.0162849
914.078	0.0163608
914.156	0.0162312
914.234	0.0163792
914.312	0.0163521
914.390	0.0163645
914.468	0.0164214
914.546	0.0162415
914.624	0.0163866
914.703	0.0164673
914.781	0.0164848
914.859	0.0163612
914.937	0.0163667
915.015	0.0163282
915.093	0.0163737
915.171	0.0163492
915.249	0.0162283
915.328	0.0163794
915.406	0.0163235
915.484	0.0162002
915.562	0.0163379
915.640	0.0162339
915.718	0.0164189
915.796	0.0164230
915.874	0.0162428
915.953	0.0162343
916.031	0.0163221
916.109	0.0163267
916.187	0.0162989
916.265	0.0164565
916.343	0.0163235
916.421	0.0163603
916.499	0.0162915
916.578	0.0164152
916.656	0.0162543
916.734	0.0162548
916.812	0.0163225
916.890	0.0163017
916.968	0.0164397
917.046	0.0162472
917.124	0.0161792
917.203	0.0162640
917.281	0.0161625
917.359	0.0163300
917.437	0.0161882
917.515	0.0161580
917.593	0.0161230
917.671	0.0161813
917.749	0.0162389
917.828	0.0160825
917.906	0.0162133
917.984	0.0161160
918.062	0.0160989
918.140	0.0161151
918.218	0.0161002
918.296	0.0161500
918.374	0.0160859
918.453	0.0162285
918.531	0.0160902
918.609	0.0162087
918.687	0.0161211
918.765	0.0160558
918.843	0.0160584
918.921	0.0162287
918.999	0.0161236
919.078	0.0160794
919.156	0.0160699
919.234	0.0161442
919.312	0.0159986
919.390	0.0162183
919.468	0.0160552
919.546	0.0160993
919.624	0.0162435
919.703	0.0161252
919.781	0.0160624
919.859	0.0161597
919.937	0.0161832
