06/10/2022	19:06:46	Ver.	4.1	UNKNOWN
Optical Delay	600.015094	Delta X		0.078125	Sweeps	1	Scan Rate	0/0
Coordinates	Axis 1	NaN	Axis 2	NaN	Axis 3	NaN	Axis 4	NaN	Axis 5	NaN	Axis 6	0.000000
TX Power	0.000000	RX Power	0.000000

600.015	0.0162047
600.093	0.0163132
600.171	0.0164059
600.249	0.0164207
600.328	0.0164191
600.406	0.0164249
600.484	0.0162250
600.562	0.0162949
600.640	0.0163426
600.718	0.0164718
600.796	0.0164768
600.874	0.0163895
600.953	0.0163297
601.031	0.0162711
601.109	0.0164808
601.187	0.0164330
601.265	0.0163746
601.343	0.0164284
601.421	0.0163714
601.499	0.0164221
601.578	0.0164861
601.656	0.0163624
601.734	0.0164198
601.812	0.0164430
601.890	0.0164038
601.968	0.0164802
602.046	0.0163424
602.124	0.0164015
602.203	0.0163621
602.281	0.0164386
602.359	0.0164411
602.437	0.0164761
602.515	0.0164423
602.593	0.0164547
602.671	0.0162887
602.749	0.0164092
602.828	0.0164257
602.906	0.0163866
602.984	0.0164118
603.062	0.0163950
603.140	0.0162680
603.218	0.0163953
603.296	0.0163544
603.374	0.0164629
603.453	0.0165157
603.531	0.0162417
603.609	0.0163432
603.687	0.0163596
603.765	0.0164180
603.843	0.0162330
603.921	0.0163376
603.999	0.0162189
604.078	0.0164085
604.156	0.0163448
604.234	0.0164332
604.312	0.0162280
604.390	0.0161651
604.468	0.0162634
604.546	0.0162518
604.624	0.0163649
604.703	0.0163155
604.781	0.0163442
604.859	0.0162571
604.937	0.0162229
605.015	0.0163216
605.093	0.0162539
605.171	0.0162334
605.249	0.0162591
605.328	0.0162031
605.406	0.0162772
605.484	0.0161601
605.562	0.0161687
605.640	0.0161712
605.718	0.0160764
605.796	0.0162252
605.874	0.0162137
605.953	0.0162170
606.031	0.0161532
606.109	0.0161533
606.187	0.0162090
606.265	0.0161718
606.343	0.0161691
606.421	0.0160731
606.499	0.0161022
606.578	0.0161207
606.656	0.0160552
606.734	0.0160706
606.812	0.0161793
606.890	0.0160015
606.968	0.0160938
607.046	0.0160302
607.124	0.0161549
607.203	0.0161748
607.281	0.0159963
607.359	0.0160655
607.437	0.0161351
607.515	0.0161730
607.593	0.0161710
607.671	0.0159827
607.749	0.0160699
607.828	0.0160788
607.906	0.0161297
607.984	0.0161378
608.062	0.0161914
608.140	0.0162304
608.218	0.0162724
608.296	0.0162296
608.374	0.0161477
608.453	0.0161600
608.531	0.0162995
608.609	0.0163163
608.687	0.0162189
608.765	0.0163142
608.843	0.0162910
608.921	0.0164755
608.999	0.0163712
609.078	0.0164336
609.156	0.0164404
609.234	0.0164471
609.312	0.0165096
609.390	0.0165392
609.468	0.0165891
609.546	0.0163187
609.624	0.0164964
609.703	0.0166192
609.781	0.0165109
609.859	0.0164905
609.937	0.0165136
610.015	0.0166483
610.093	0.0163365
610.171	0.0163044
610.249	0.0165366
610.328	0.0164544
610.406	0.0164619
610.484	0.0164050
610.562	0.0163657
610.640	0.0163711
610.718	0.0163436
610.796	0.0162544
610.874	0.0162991
610.953	0.0162868
611.031	0.0161116
611.109	0.0161741
611.187	0.0162022
611.265	0.0162511
611.343	0.0161033
611.421	0.0162276
611.499	0.0161683
611.578	0.0162337
611.656	0.0162772
611.734	0.0161318
611.812	0.0161172
611.890	0.0161191
611.968	0.0160247
612.046	0.0161217
612.124	0.0162701
612.203	0.0161297
612.281	0.0161913
612.359	0.0160621
612.437	0.0161039
612.515	0.0160031
612.593	0.0160309
612.671	0.0161040
612.749	0.0161089
612.828	0.0162872
612.906	0.0161289
612.984	0.0160286
613.062	0.0160539
613.140	0.0159873
613.218	0.0159964
613.296	0.0161720
613.374	0.0160826
613.453	0.0161621
613.531	0.0160724
613.609	0.0160339
613.687	0.0159105
613.765	0.0160606
613.843	0.0160621
613.921	0.0161688
613.999	0.0161337
614.078	0.0160755
614.156	0.0161040
614.234	0.0160905
614.312	0.0162235
614.390	0.0160411
614.468	0.0159412
614.546	0.0160969
614.624	0.0160094
614.703	0.0158481
614.781	0.0160602
614.859	0.0160069
614.937	0.0160154
615.015	0.0159054
615.093	0.0159413
615.171	0.0160381
615.249	0.0160176
615.328	0.0158754
615.406	0.0158442
615.484	0.0158573
615.562	0.0159831
615.640	0.0158356
615.718	0.0159306
615.796	0.0160319
615.874	0.0159340
615.953	0.0158206
616.031	0.0157168
616.109	0.0157686
616.187	0.0157662
616.265	0.0157974
616.343	0.0157635
616.421	0.0156864
616.499	0.0156269
616.578	0.0157429
616.656	0.0156150
616.734	0.0157590
616.812	0.0156709
616.890	0.0157666
616.968	0.0157577
617.046	0.0157229
617.124	0.0156915
617.203	0.0157582
617.281	0.0156255
617.359	0.0157676
617.437	0.0157001
617.515	0.0156532
617.593	0.0156476
617.671	0.0159178
617.749	0.0157641
617.828	0.0159110
617.906	0.0157877
617.984	0.0159406
618.062	0.0158719
618.140	0.0158150
618.218	0.0159550
618.296	0.0159878
618.374	0.0160835
618.453	0.0159522
618.531	0.0161322
618.609	0.0160777
618.687	0.0160186
618.765	0.0161127
618.843	0.0161421
618.921	0.0160434
618.999	0.0159521
619.078	0.0161649
619.156	0.0161877
619.234	0.0161594
619.312	0.0162477
619.390	0.0162680
619.468	0.0161449
619.546	0.0160944
619.624	0.0161944
619.703	0.0161165
619.781	0.0161311
619.859	0.0161451
619.937	0.0162502
620.015	0.0162592
620.093	0.0161737
620.171	0.0160879
620.249	0.0160600
620.328	0.0160310
620.406	0.0159100
620.484	0.0159903
620.562	0.0161188
620.640	0.0160358
620.718	0.0159216
620.796	0.0160768
620.874	0.0159754
620.953	0.0160029
621.031	0.0161584
621.109	0.0160820
621.187	0.0161339
621.265	0.0159459
621.343	0.0161232
621.421	0.0161443
621.499	0.0160930
621.578	0.0161021
621.656	0.0161598
621.734	0.0160880
621.812	0.0161535
621.890	0.0161810
621.968	0.0162148
622.046	0.0161587
622.124	0.0162729
622.203	0.0164472
622.281	0.0163376
622.359	0.0163726
622.437	0.0163223
622.515	0.0162669
622.593	0.0163955
622.671	0.0165949
622.749	0.0164263
622.828	0.0163592
622.906	0.0164664
622.984	0.0164883
623.062	0.0163934
623.140	0.0164842
623.218	0.0164754
623.296	0.0165584
623.374	0.0164541
623.453	0.0163926
623.531	0.0166614
623.609	0.0164754
623.687	0.0163771
623.765	0.0164943
623.843	0.0164888
623.921	0.0166595
623.999	0.0165635
624.078	0.0164320
624.156	0.0165808
624.234	0.0164828
624.312	0.0165364
624.390	0.0165585
624.468	0.0165361
624.546	0.0165289
624.624	0.0164513
624.703	0.0164050
624.781	0.0165367
624.859	0.0164695
624.937	0.0163329
625.015	0.0164088
625.093	0.0165048
625.171	0.0164463
625.249	0.0164412
625.328	0.0164230
625.406	0.0163112
625.484	0.0164129
625.562	0.0163354
625.640	0.0163881
625.718	0.0162823
625.796	0.0163497
625.874	0.0162556
625.953	0.0163631
626.031	0.0163131
626.109	0.0162940
626.187	0.0163621
626.265	0.0162996
626.343	0.0163165
626.421	0.0162527
626.499	0.0161711
626.578	0.0161759
626.656	0.0163142
626.734	0.0163054
626.812	0.0163679
626.890	0.0162885
626.968	0.0162901
627.046	0.0162783
627.124	0.0161037
627.203	0.0162272
627.281	0.0163815
627.359	0.0163940
627.437	0.0163400
627.515	0.0162006
627.593	0.0161419
627.671	0.0162854
627.749	0.0162714
627.828	0.0162215
627.906	0.0161619
627.984	0.0163168
628.062	0.0161224
628.140	0.0163102
628.218	0.0163422
628.296	0.0162392
628.374	0.0163280
628.453	0.0160770
628.531	0.0162305
628.609	0.0163224
628.687	0.0162539
628.765	0.0162077
628.843	0.0162523
628.921	0.0163357
628.999	0.0162494
629.078	0.0162205
629.156	0.0162707
629.234	0.0162897
629.312	0.0162783
629.390	0.0162626
629.468	0.0163545
629.546	0.0162344
629.624	0.0163211
629.703	0.0162994
629.781	0.0162492
629.859	0.0163277
629.937	0.0161661
630.015	0.0162792
630.093	0.0164525
630.171	0.0163316
630.249	0.0162706
630.328	0.0162719
630.406	0.0162428
630.484	0.0161685
630.562	0.0161787
630.640	0.0161782
630.718	0.0162260
630.796	0.0161665
630.874	0.0162457
630.953	0.0162106
631.031	0.0160860
631.109	0.0161772
631.187	0.0161669
631.265	0.0160642
631.343	0.0161881
631.421	0.0162167
631.499	0.0161436
631.578	0.0161268
631.656	0.0161090
631.734	0.0160639
631.812	0.0161263
631.890	0.0160626
631.968	0.0160797
632.046	0.0162294
632.124	0.0162140
632.203	0.0160700
632.281	0.0161477
632.359	0.0161159
632.437	0.0161774
632.515	0.0161364
632.593	0.0160980
632.671	0.0161901
632.749	0.0161153
632.828	0.0160085
632.906	0.0161819
632.984	0.0160928
633.062	0.0159650
633.140	0.0160876
633.218	0.0162048
633.296	0.0160423
633.374	0.0160674
633.453	0.0161027
633.531	0.0159562
633.609	0.0158910
633.687	0.0160919
633.765	0.0159669
633.843	0.0160000
633.921	0.0160133
633.999	0.0159782
634.078	0.0162083
634.156	0.0161510
634.234	0.0161517
634.312	0.0159843
634.390	0.0159733
634.468	0.0160178
634.546	0.0160255
634.624	0.0159484
634.703	0.0158938
634.781	0.0160211
634.859	0.0159794
634.937	0.0160656
635.015	0.0160233
635.093	0.0160649
635.171	0.0159969
635.249	0.0161546
635.328	0.0160470
635.406	0.0160471
635.484	0.0159010
635.562	0.0159946
635.640	0.0160101
635.718	0.0159503
635.796	0.0159964
635.874	0.0159959
635.953	0.0159980
636.031	0.0160007
636.109	0.0159628
636.187	0.0159354
636.265	0.0159766
636.343	0.0160093
636.421	0.0158415
636.499	0.0159621
636.578	0.0159809
636.656	0.0159170
636.734	0.0159698
636.812	0.0159232
636.890	0.0159056
636.968	0.0158126
637.046	0.0157903
637.124	0.0159022
637.203	0.0158955
637.281	0.0159263
637.359	0.0160072
637.437	0.0159943
637.515	0.0158819
637.593	0.0159779
637.671	0.0159287
637.749	0.0159991
637.828	0.0160089
637.906	0.0159348
637.984	0.0160468
638.062	0.0159615
638.140	0.0160052
638.218	0.0160003
638.296	0.0160664
638.374	0.0160791
638.453	0.0160405
638.531	0.0160257
638.609	0.0159579
638.687	0.0159897
638.765	0.0160015
638.843	0.0161000
638.921	0.0159171
638.999	0.0160399
639.078	0.0160928
639.156	0.0161385
639.234	0.0159494
639.312	0.0159484
639.390	0.0160473
639.468	0.0158981
639.546	0.0159220
639.624	0.0161411
639.703	0.0160791
639.781	0.0160725
639.859	0.0160462
639.937	0.0160052
640.015	0.0159778
640.093	0.0160885
640.171	0.0160564
640.249	0.0158700
640.328	0.0160585
640.406	0.0159911
640.484	0.0159157
640.562	0.0158270
640.640	0.0159353
640.718	0.0160746
640.796	0.0159580
640.874	0.0160784
640.953	0.0160866
641.031	0.0160697
641.109	0.0161247
641.187	0.0160074
641.265	0.0161251
641.343	0.0160378
641.421	0.0159599
641.499	0.0161295
641.578	0.0161815
641.656	0.0161691
641.734	0.0160197
641.812	0.0160621
641.890	0.0160995
641.968	0.0159885
642.046	0.0162173
642.124	0.0161764
642.203	0.0161192
642.281	0.0161518
642.359	0.0161432
642.437	0.0161178
642.515	0.0161906
642.593	0.0162376
642.671	0.0163128
642.749	0.0162029
642.828	0.0162930
642.906	0.0162543
642.984	0.0162895
643.062	0.0162923
643.140	0.0162860
643.218	0.0163309
643.296	0.0162939
643.374	0.0163858
643.453	0.0163960
643.531	0.0164256
643.609	0.0162189
643.687	0.0163965
643.765	0.0163902
643.843	0.0163539
643.921	0.0163177
643.999	0.0162722
644.078	0.0163552
644.156	0.0163054
644.234	0.0162708
644.312	0.0163866
644.390	0.0162804
644.468	0.0164202
644.546	0.0163988
644.624	0.0164035
644.703	0.0164488
644.781	0.0162485
644.859	0.0162337
644.937	0.0163570
645.015	0.0162933
645.093	0.0163236
645.171	0.0163342
645.249	0.0164970
645.328	0.0165239
645.406	0.0163401
645.484	0.0163354
645.562	0.0164218
645.640	0.0162807
645.718	0.0163229
645.796	0.0163728
645.874	0.0164234
645.953	0.0164065
646.031	0.0165533
646.109	0.0164087
646.187	0.0164026
646.265	0.0164754
646.343	0.0164190
646.421	0.0164381
646.499	0.0163506
646.578	0.0164458
646.656	0.0164155
646.734	0.0163652
646.812	0.0164237
646.890	0.0163298
646.968	0.0164819
647.046	0.0164291
647.124	0.0163197
647.203	0.0163914
647.281	0.0162604
647.359	0.0164514
647.437	0.0164185
647.515	0.0162709
647.593	0.0162077
647.671	0.0163310
647.749	0.0163503
647.828	0.0163577
647.906	0.0162966
647.984	0.0163298
648.062	0.0163003
648.140	0.0163202
648.218	0.0163432
648.296	0.0162368
648.374	0.0162610
648.453	0.0163935
648.531	0.0162607
648.609	0.0162435
648.687	0.0162506
648.765	0.0164349
648.843	0.0162341
648.921	0.0162347
648.999	0.0160961
649.078	0.0161567
649.156	0.0162513
649.234	0.0163225
649.312	0.0162984
649.390	0.0162305
649.468	0.0161571
649.546	0.0162196
649.624	0.0163161
649.703	0.0161327
649.781	0.0162102
649.859	0.0162663
649.937	0.0161511
650.015	0.0161809
650.093	0.0161852
650.171	0.0160707
650.249	0.0161395
650.328	0.0161231
650.406	0.0161876
650.484	0.0162846
650.562	0.0162880
650.640	0.0162200
650.718	0.0160840
650.796	0.0161906
650.874	0.0162417
650.953	0.0162772
651.031	0.0160504
651.109	0.0160584
651.187	0.0161758
651.265	0.0161080
651.343	0.0161134
651.421	0.0161953
651.499	0.0159959
651.578	0.0162360
651.656	0.0161820
651.734	0.0161053
651.812	0.0162785
651.890	0.0161475
651.968	0.0162054
652.046	0.0161415
652.124	0.0160481
652.203	0.0160632
652.281	0.0161116
652.359	0.0161405
652.437	0.0161724
652.515	0.0161242
652.593	0.0162073
652.671	0.0161357
652.749	0.0162315
652.828	0.0162043
652.906	0.0161464
652.984	0.0161057
653.062	0.0162154
653.140	0.0161798
653.218	0.0162183
653.296	0.0162594
653.374	0.0162054
653.453	0.0160766
653.531	0.0162007
653.609	0.0160761
653.687	0.0162270
653.765	0.0162159
653.843	0.0162209
653.921	0.0161476
653.999	0.0161930
654.078	0.0161984
654.156	0.0162978
654.234	0.0162011
654.312	0.0162604
654.390	0.0162036
654.468	0.0161880
654.546	0.0161146
654.624	0.0160564
654.703	0.0161208
654.781	0.0161642
654.859	0.0161008
654.937	0.0160735
655.015	0.0161492
655.093	0.0160647
655.171	0.0162342
655.249	0.0162254
655.328	0.0161819
655.406	0.0159701
655.484	0.0160864
655.562	0.0161324
655.640	0.0160385
655.718	0.0159845
655.796	0.0160423
655.874	0.0161600
655.953	0.0160276
656.031	0.0161720
656.109	0.0159539
656.187	0.0159917
656.265	0.0159373
656.343	0.0160149
656.421	0.0161449
656.499	0.0159950
656.578	0.0159828
656.656	0.0158379
656.734	0.0160091
656.812	0.0160244
656.890	0.0158980
656.968	0.0159347
657.046	0.0161075
657.124	0.0158675
657.203	0.0159126
657.281	0.0161422
657.359	0.0160385
657.437	0.0159078
657.515	0.0159570
657.593	0.0160606
657.671	0.0159280
657.749	0.0159364
657.828	0.0160649
657.906	0.0160261
657.984	0.0158723
658.062	0.0159024
658.140	0.0159484
658.218	0.0159590
658.296	0.0161710
658.374	0.0160441
658.453	0.0158907
658.531	0.0160275
658.609	0.0160013
658.687	0.0159441
658.765	0.0159158
658.843	0.0160296
658.921	0.0161526
658.999	0.0160541
659.078	0.0160679
659.156	0.0160614
659.234	0.0160318
659.312	0.0161411
659.390	0.0161054
659.468	0.0160005
659.546	0.0160265
659.624	0.0160450
659.703	0.0161377
659.781	0.0160460
659.859	0.0161423
659.937	0.0161037
660.015	0.0159724
660.093	0.0159686
660.171	0.0160632
660.249	0.0159655
660.328	0.0160374
660.406	0.0160341
660.484	0.0160963
660.562	0.0161493
660.640	0.0161547
660.718	0.0160396
660.796	0.0161085
660.874	0.0161159
660.953	0.0159958
661.031	0.0160211
661.109	0.0162254
661.187	0.0161797
661.265	0.0161522
661.343	0.0160892
661.421	0.0161369
661.499	0.0161027
661.578	0.0161749
661.656	0.0160984
661.734	0.0160867
661.812	0.0161539
661.890	0.0159208
661.968	0.0162082
662.046	0.0160713
662.124	0.0161326
662.203	0.0161648
662.281	0.0162459
662.359	0.0160991
662.437	0.0160631
662.515	0.0161377
662.593	0.0161826
662.671	0.0162712
662.749	0.0161497
662.828	0.0161296
662.906	0.0161266
662.984	0.0161138
663.062	0.0162003
663.140	0.0162180
663.218	0.0160833
663.296	0.0161359
663.374	0.0161006
663.453	0.0159830
663.531	0.0161115
663.609	0.0162463
663.687	0.0163054
663.765	0.0161889
663.843	0.0161831
663.921	0.0161441
663.999	0.0161440
664.078	0.0162397
664.156	0.0160007
664.234	0.0161580
664.312	0.0160667
664.390	0.0161631
664.468	0.0161606
664.546	0.0162660
664.624	0.0161627
664.703	0.0161143
664.781	0.0160182
664.859	0.0162149
664.937	0.0162273
665.015	0.0160982
665.093	0.0162714
665.171	0.0161673
665.249	0.0161246
665.328	0.0160841
665.406	0.0162659
665.484	0.0161717
665.562	0.0161871
665.640	0.0159980
665.718	0.0159575
665.796	0.0161410
665.874	0.0160641
665.953	0.0161583
666.031	0.0162471
666.109	0.0162547
666.187	0.0162517
666.265	0.0162745
666.343	0.0163345
666.421	0.0161507
666.499	0.0161468
666.578	0.0163167
666.656	0.0163137
666.734	0.0163152
666.812	0.0163335
666.890	0.0163057
666.968	0.0161993
667.046	0.0162470
667.124	0.0162600
667.203	0.0161272
667.281	0.0161803
667.359	0.0163863
667.437	0.0162846
667.515	0.0161815
667.593	0.0162497
667.671	0.0161317
667.749	0.0163621
667.828	0.0162287
667.906	0.0161726
667.984	0.0163048
668.062	0.0163396
668.140	0.0161673
668.218	0.0162414
668.296	0.0161784
668.374	0.0162128
668.453	0.0162215
668.531	0.0161864
668.609	0.0162408
668.687	0.0161795
668.765	0.0163066
668.843	0.0162848
668.921	0.0163665
668.999	0.0163451
669.078	0.0162714
669.156	0.0162442
669.234	0.0162250
669.312	0.0163142
669.390	0.0163373
669.468	0.0162767
669.546	0.0164209
669.624	0.0163465
669.703	0.0163122
669.781	0.0162257
669.859	0.0162958
669.937	0.0162985
670.015	0.0163583
670.093	0.0162620
670.171	0.0164765
670.249	0.0163237
670.328	0.0163309
670.406	0.0164358
670.484	0.0163073
670.562	0.0162884
670.640	0.0163151
670.718	0.0163226
670.796	0.0163245
670.874	0.0164252
670.953	0.0163100
671.031	0.0164261
671.109	0.0162661
671.187	0.0162481
671.265	0.0160761
671.343	0.0163471
671.421	0.0162695
671.499	0.0160421
671.578	0.0162129
671.656	0.0164145
671.734	0.0162402
671.812	0.0161949
671.890	0.0162007
671.968	0.0161954
672.046	0.0162169
672.124	0.0160925
672.203	0.0160970
672.281	0.0162640
672.359	0.0162696
672.437	0.0161913
672.515	0.0163269
672.593	0.0161981
672.671	0.0159435
672.749	0.0162334
672.828	0.0162492
672.906	0.0161292
672.984	0.0160702
673.062	0.0161869
673.140	0.0162805
673.218	0.0162188
673.296	0.0160239
673.374	0.0160649
673.453	0.0160510
673.531	0.0161591
673.609	0.0161778
673.687	0.0159697
673.765	0.0161777
673.843	0.0160654
673.921	0.0160078
673.999	0.0160618
674.078	0.0160369
674.156	0.0160986
674.234	0.0160783
674.312	0.0160223
674.390	0.0161148
674.468	0.0161125
674.546	0.0160548
674.624	0.0161298
674.703	0.0160209
674.781	0.0162061
674.859	0.0161620
674.937	0.0160572
675.015	0.0160748
675.093	0.0160802
675.171	0.0161167
675.249	0.0160627
675.328	0.0161163
675.406	0.0160117
675.484	0.0161549
675.562	0.0161655
675.640	0.0160923
675.718	0.0159866
675.796	0.0160653
675.874	0.0160470
675.953	0.0160631
676.031	0.0160982
676.109	0.0160631
676.187	0.0160744
676.265	0.0160880
676.343	0.0161287
676.421	0.0162360
676.499	0.0161545
676.578	0.0160100
676.656	0.0160053
676.734	0.0160084
676.812	0.0160976
676.890	0.0161132
676.968	0.0161765
677.046	0.0161946
677.124	0.0159801
677.203	0.0162164
677.281	0.0160957
677.359	0.0160433
677.437	0.0160269
677.515	0.0162507
677.593	0.0162367
677.671	0.0160655
677.749	0.0160115
677.828	0.0160349
677.906	0.0161337
677.984	0.0159104
678.062	0.0161018
678.140	0.0161565
678.218	0.0161749
678.296	0.0159853
678.374	0.0161181
678.453	0.0160404
678.531	0.0160693
678.609	0.0159786
678.687	0.0159998
678.765	0.0160874
678.843	0.0160538
678.921	0.0160007
678.999	0.0158784
679.078	0.0160084
679.156	0.0159505
679.234	0.0159528
679.312	0.0160448
679.390	0.0158709
679.468	0.0161583
679.546	0.0161591
679.624	0.0160862
679.703	0.0159341
679.781	0.0161038
679.859	0.0159704
679.937	0.0159934
680.015	0.0160499
680.093	0.0160856
680.171	0.0159543
680.249	0.0159893
680.328	0.0160951
680.406	0.0160780
680.484	0.0159097
680.562	0.0160251
680.640	0.0159946
680.718	0.0159790
680.796	0.0160682
680.874	0.0160213
680.953	0.0160777
681.031	0.0160976
681.109	0.0158929
681.187	0.0160837
681.265	0.0161099
681.343	0.0161676
681.421	0.0161367
681.499	0.0160551
681.578	0.0161442
681.656	0.0161264
681.734	0.0160130
681.812	0.0160787
681.890	0.0161457
681.968	0.0161886
682.046	0.0161381
682.124	0.0161431
682.203	0.0160472
682.281	0.0161003
682.359	0.0160821
682.437	0.0161977
682.515	0.0161328
682.593	0.0162994
682.671	0.0163255
682.749	0.0161047
682.828	0.0161205
682.906	0.0162191
682.984	0.0161162
683.062	0.0162335
683.140	0.0161327
683.218	0.0161646
683.296	0.0162598
683.374	0.0161493
683.453	0.0163119
683.531	0.0162068
683.609	0.0162103
683.687	0.0160561
683.765	0.0160989
683.843	0.0163699
683.921	0.0162761
683.999	0.0162202
684.078	0.0162013
684.156	0.0161016
684.234	0.0162354
684.312	0.0162394
684.390	0.0162225
684.468	0.0162827
684.546	0.0162697
684.624	0.0162830
684.703	0.0162172
684.781	0.0162531
684.859	0.0163079
684.937	0.0161446
685.015	0.0162270
685.093	0.0163528
685.171	0.0162622
685.249	0.0162576
685.328	0.0162408
685.406	0.0163396
685.484	0.0164282
685.562	0.0162043
685.640	0.0162653
685.718	0.0162714
685.796	0.0163235
685.874	0.0163454
685.953	0.0162317
686.031	0.0161534
686.109	0.0162744
686.187	0.0163310
686.265	0.0162475
686.343	0.0161641
686.421	0.0163618
686.499	0.0162421
686.578	0.0161287
686.656	0.0161945
686.734	0.0162405
686.812	0.0162326
686.890	0.0161610
686.968	0.0162685
687.046	0.0160609
687.124	0.0161842
687.203	0.0161441
687.281	0.0163300
687.359	0.0161349
687.437	0.0161255
687.515	0.0162354
687.593	0.0160581
687.671	0.0160863
687.749	0.0161732
687.828	0.0161075
687.906	0.0160521
687.984	0.0160349
688.062	0.0160533
688.140	0.0159923
688.218	0.0159751
688.296	0.0160707
688.374	0.0159481
688.453	0.0161945
688.531	0.0159867
688.609	0.0160632
688.687	0.0160020
688.765	0.0159297
688.843	0.0159837
688.921	0.0160982
688.999	0.0159563
689.078	0.0159070
689.156	0.0160065
689.234	0.0160357
689.312	0.0159727
689.390	0.0159142
689.468	0.0159370
689.546	0.0160468
689.624	0.0158189
689.703	0.0159383
689.781	0.0160699
689.859	0.0158599
689.937	0.0159058
690.015	0.0160921
690.093	0.0160800
690.171	0.0159458
690.249	0.0159952
690.328	0.0159486
690.406	0.0158138
690.484	0.0159983
690.562	0.0160252
690.640	0.0159916
690.718	0.0160270
690.796	0.0160821
690.874	0.0159592
690.953	0.0159383
691.031	0.0159512
691.109	0.0159520
691.187	0.0159684
691.265	0.0160067
691.343	0.0162144
691.421	0.0160506
691.499	0.0160133
691.578	0.0159575
691.656	0.0160847
691.734	0.0160953
691.812	0.0160317
691.890	0.0161331
691.968	0.0160759
692.046	0.0159845
692.124	0.0160664
692.203	0.0161449
692.281	0.0160538
692.359	0.0160170
692.437	0.0161605
692.515	0.0160822
692.593	0.0161226
692.671	0.0160995
692.749	0.0162831
692.828	0.0161434
692.906	0.0160432
692.984	0.0160456
693.062	0.0161016
693.140	0.0161700
693.218	0.0160880
693.296	0.0160434
693.374	0.0161774
693.453	0.0161178
693.531	0.0160397
693.609	0.0160330
693.687	0.0162360
693.765	0.0159779
693.843	0.0160704
693.921	0.0160416
693.999	0.0160127
694.078	0.0161205
694.156	0.0161161
694.234	0.0161699
694.312	0.0161480
694.390	0.0160654
694.468	0.0160249
694.546	0.0160459
694.624	0.0160738
694.703	0.0159745
694.781	0.0160043
694.859	0.0160992
694.937	0.0161312
695.015	0.0162730
695.093	0.0160599
695.171	0.0160755
695.249	0.0162209
695.328	0.0159201
695.406	0.0160895
695.484	0.0160243
695.562	0.0160854
695.640	0.0161926
695.718	0.0159704
695.796	0.0161212
695.874	0.0161742
695.953	0.0160625
696.031	0.0160744
696.109	0.0160649
696.187	0.0160069
696.265	0.0161783
696.343	0.0160286
696.421	0.0161269
696.499	0.0161974
696.578	0.0162414
696.656	0.0160986
696.734	0.0161089
696.812	0.0160493
696.890	0.0160052
696.968	0.0161109
697.046	0.0160537
697.124	0.0161158
697.203	0.0161410
697.281	0.0161082
697.359	0.0160468
697.437	0.0161044
697.515	0.0160891
697.593	0.0160029
697.671	0.0160946
697.749	0.0160895
697.828	0.0160505
697.906	0.0160614
697.984	0.0161345
698.062	0.0160024
698.140	0.0160011
698.218	0.0160270
698.296	0.0160302
698.374	0.0160110
698.453	0.0160558
698.531	0.0161526
698.609	0.0159678
698.687	0.0161606
698.765	0.0161255
698.843	0.0160664
698.921	0.0161829
698.999	0.0161497
699.078	0.0160667
699.156	0.0160743
699.234	0.0161894
699.312	0.0161926
699.390	0.0161238
699.468	0.0161086
699.546	0.0162245
699.624	0.0162463
699.703	0.0161321
699.781	0.0163011
699.859	0.0161180
699.937	0.0161745
700.015	0.0161454
700.093	0.0160929
700.171	0.0161446
700.249	0.0162186
700.328	0.0162034
700.406	0.0160986
700.484	0.0162031
700.562	0.0162247
700.640	0.0161591
700.718	0.0161975
700.796	0.0161430
700.874	0.0163187
700.953	0.0161864
701.031	0.0162375
701.109	0.0161987
701.187	0.0163576
701.265	0.0161925
701.343	0.0162773
701.421	0.0162550
701.499	0.0161248
701.578	0.0162196
701.656	0.0162003
701.734	0.0162064
701.812	0.0161891
701.890	0.0162925
701.968	0.0160927
702.046	0.0161412
702.124	0.0161237
702.203	0.0163084
702.281	0.0162395
702.359	0.0162212
702.437	0.0161565
702.515	0.0161459
702.593	0.0162874
702.671	0.0162671
702.749	0.0161247
702.828	0.0161475
702.906	0.0162833
702.984	0.0161515
703.062	0.0161869
703.140	0.0163115
703.218	0.0161462
703.296	0.0161970
703.374	0.0162619
703.453	0.0161401
703.531	0.0162370
703.609	0.0162723
703.687	0.0161448
703.765	0.0163101
703.843	0.0162545
703.921	0.0161354
703.999	0.0161384
704.078	0.0162186
704.156	0.0161700
704.234	0.0163608
704.312	0.0163114
704.390	0.0161832
704.468	0.0161838
704.546	0.0162560
704.624	0.0161356
704.703	0.0161063
704.781	0.0160436
704.859	0.0161004
704.937	0.0160265
705.015	0.0161296
705.093	0.0162092
705.171	0.0161147
705.249	0.0160844
705.328	0.0162209
705.406	0.0161273
705.484	0.0161633
705.562	0.0162013
705.640	0.0161494
705.718	0.0163022
705.796	0.0161709
705.874	0.0161592
705.953	0.0162077
706.031	0.0162597
706.109	0.0161753
706.187	0.0162286
706.265	0.0163082
706.343	0.0161877
706.421	0.0162041
706.499	0.0163588
706.578	0.0162403
706.656	0.0162703
706.734	0.0161469
706.812	0.0163254
706.890	0.0163432
706.968	0.0162111
707.046	0.0162749
707.124	0.0162353
707.203	0.0161842
707.281	0.0162237
707.359	0.0163831
707.437	0.0162159
707.515	0.0161824
707.593	0.0162232
707.671	0.0162540
707.749	0.0162486
707.828	0.0162061
707.906	0.0161346
707.984	0.0163042
708.062	0.0161522
708.140	0.0160903
708.218	0.0160278
708.296	0.0162037
708.374	0.0161416
708.453	0.0162297
708.531	0.0162077
708.609	0.0161745
708.687	0.0161563
708.765	0.0162341
708.843	0.0161668
708.921	0.0162019
708.999	0.0161333
709.078	0.0163116
709.156	0.0163497
709.234	0.0162458
709.312	0.0161562
709.390	0.0162124
709.468	0.0161095
709.546	0.0161748
709.624	0.0162494
709.703	0.0160535
709.781	0.0161122
709.859	0.0163013
709.937	0.0162744
710.015	0.0162098
710.093	0.0161212
710.171	0.0161944
710.249	0.0161442
710.328	0.0161287
710.406	0.0160817
710.484	0.0161746
710.562	0.0161259
710.640	0.0162248
710.718	0.0162161
710.796	0.0163187
710.874	0.0163555
710.953	0.0162508
711.031	0.0162897
711.109	0.0162325
711.187	0.0162773
711.265	0.0162525
711.343	0.0163263
711.421	0.0162221
711.499	0.0161819
711.578	0.0162031
711.656	0.0163186
711.734	0.0162825
711.812	0.0163216
711.890	0.0161475
711.968	0.0161510
712.046	0.0161899
712.124	0.0163132
712.203	0.0161329
712.281	0.0161074
712.359	0.0161240
712.437	0.0160328
712.515	0.0161184
712.593	0.0161367
712.671	0.0160895
712.749	0.0159771
712.828	0.0160057
712.906	0.0160408
712.984	0.0158321
713.062	0.0159184
713.140	0.0159644
713.218	0.0159291
713.296	0.0158044
713.374	0.0158552
713.453	0.0159254
713.531	0.0158950
713.609	0.0160330
713.687	0.0159315
713.765	0.0160059
713.843	0.0159650
713.921	0.0160003
713.999	0.0160750
714.078	0.0158282
714.156	0.0159525
714.234	0.0159624
714.312	0.0160101
714.390	0.0159299
714.468	0.0159469
714.546	0.0159584
714.624	0.0159451
714.703	0.0160718
714.781	0.0160742
714.859	0.0161005
714.937	0.0160822
715.015	0.0159800
715.093	0.0160606
715.171	0.0159341
715.249	0.0159541
715.328	0.0160480
715.406	0.0159967
715.484	0.0159528
715.562	0.0161040
715.640	0.0160882
715.718	0.0161053
715.796	0.0160635
715.874	0.0160860
715.953	0.0161604
716.031	0.0159322
716.109	0.0159400
716.187	0.0161316
716.265	0.0161794
716.343	0.0161156
716.421	0.0160371
716.499	0.0160796
716.578	0.0160834
716.656	0.0160290
716.734	0.0160445
716.812	0.0161963
716.890	0.0161367
716.968	0.0160310
717.046	0.0161679
717.124	0.0161512
717.203	0.0159672
717.281	0.0161037
717.359	0.0161810
717.437	0.0162051
717.515	0.0160656
717.593	0.0160537
717.671	0.0161301
717.749	0.0162138
717.828	0.0159470
717.906	0.0159988
717.984	0.0161156
718.062	0.0160661
718.140	0.0160726
718.218	0.0159672
718.296	0.0162537
718.374	0.0160663
718.453	0.0159665
718.531	0.0160405
718.609	0.0159763
718.687	0.0159998
718.765	0.0159772
718.843	0.0159075
718.921	0.0159743
718.999	0.0160212
719.078	0.0160704
719.156	0.0161646
719.234	0.0160522
719.312	0.0160340
719.390	0.0161640
719.468	0.0161098
719.546	0.0160858
719.624	0.0161440
719.703	0.0161646
719.781	0.0160467
719.859	0.0161623
719.937	0.0161524
720.015	0.0161579
720.093	0.0162198
720.171	0.0162477
720.249	0.0161640
720.328	0.0160608
720.406	0.0160748
720.484	0.0159635
720.562	0.0160386
720.640	0.0162710
720.718	0.0161982
720.796	0.0160783
720.874	0.0161688
720.953	0.0162374
721.031	0.0161037
721.109	0.0161253
721.187	0.0162254
721.265	0.0161321
721.343	0.0161716
721.421	0.0161444
721.499	0.0161788
721.578	0.0162095
721.656	0.0161773
721.734	0.0162745
721.812	0.0161864
721.890	0.0162423
721.968	0.0162814
722.046	0.0162885
722.124	0.0162424
722.203	0.0162873
722.281	0.0161543
722.359	0.0163103
722.437	0.0163563
722.515	0.0161622
722.593	0.0163258
722.671	0.0162255
722.749	0.0161500
722.828	0.0160889
722.906	0.0162763
722.984	0.0161959
723.062	0.0162030
723.140	0.0160912
723.218	0.0161203
723.296	0.0162003
723.374	0.0161669
723.453	0.0160405
723.531	0.0161980
723.609	0.0161755
723.687	0.0162107
723.765	0.0161067
723.843	0.0163239
723.921	0.0162894
723.999	0.0163205
724.078	0.0162017
724.156	0.0162311
724.234	0.0162647
724.312	0.0161797
724.390	0.0162017
724.468	0.0163052
724.546	0.0162923
724.624	0.0161671
724.703	0.0163828
724.781	0.0163276
724.859	0.0161793
724.937	0.0162331
725.015	0.0161687
725.093	0.0162876
725.171	0.0163911
725.249	0.0162907
725.328	0.0163361
725.406	0.0162302
725.484	0.0164510
725.562	0.0163720
725.640	0.0162846
725.718	0.0161936
725.796	0.0163088
725.874	0.0163320
725.953	0.0163550
726.031	0.0163214
726.109	0.0161229
726.187	0.0162760
726.265	0.0163978
726.343	0.0163095
726.421	0.0161781
726.499	0.0160802
726.578	0.0162695
726.656	0.0161810
726.734	0.0162284
726.812	0.0161246
726.890	0.0162092
726.968	0.0163190
727.046	0.0162041
727.124	0.0161859
727.203	0.0163443
727.281	0.0162836
727.359	0.0162660
727.437	0.0162711
727.515	0.0163072
727.593	0.0163476
727.671	0.0163355
727.749	0.0163021
727.828	0.0163216
727.906	0.0163195
727.984	0.0163795
728.062	0.0162217
728.140	0.0162402
728.218	0.0162495
728.296	0.0162032
728.374	0.0162194
728.453	0.0162402
728.531	0.0162698
728.609	0.0160542
728.687	0.0160829
728.765	0.0161372
728.843	0.0163657
728.921	0.0163192
728.999	0.0160751
729.078	0.0161209
729.156	0.0162720
729.234	0.0161773
729.312	0.0162072
729.390	0.0162513
729.468	0.0162302
729.546	0.0163059
729.624	0.0162418
729.703	0.0162946
729.781	0.0162490
729.859	0.0161978
729.937	0.0161654
730.015	0.0162552
730.093	0.0163308
730.171	0.0162965
730.249	0.0162580
730.328	0.0161849
730.406	0.0161675
730.484	0.0161445
730.562	0.0161675
730.640	0.0160853
730.718	0.0162310
730.796	0.0161442
730.874	0.0162378
730.953	0.0160739
731.031	0.0160053
731.109	0.0161546
731.187	0.0160613
731.265	0.0161108
731.343	0.0161554
731.421	0.0162997
731.499	0.0161202
731.578	0.0162137
731.656	0.0162317
731.734	0.0162093
731.812	0.0161617
731.890	0.0161609
731.968	0.0162855
732.046	0.0164856
732.124	0.0161964
732.203	0.0162285
732.281	0.0163068
732.359	0.0162946
732.437	0.0164207
732.515	0.0163393
732.593	0.0163477
732.671	0.0162566
732.749	0.0164162
732.828	0.0164632
732.906	0.0163746
732.984	0.0163790
733.062	0.0161719
733.140	0.0162268
733.218	0.0164286
733.296	0.0162792
733.374	0.0161911
733.453	0.0161574
733.531	0.0162567
733.609	0.0162306
733.687	0.0162479
733.765	0.0162733
733.843	0.0163651
733.921	0.0162254
733.999	0.0162685
734.078	0.0162405
734.156	0.0161875
734.234	0.0161233
734.312	0.0161215
734.390	0.0163115
734.468	0.0162327
734.546	0.0161495
734.624	0.0162513
734.703	0.0161816
734.781	0.0160764
734.859	0.0161189
734.937	0.0162225
735.015	0.0161895
735.093	0.0162469
735.171	0.0163461
735.249	0.0163023
735.328	0.0162650
735.406	0.0160069
735.484	0.0160675
735.562	0.0162860
735.640	0.0163969
735.718	0.0162253
735.796	0.0161052
735.874	0.0163084
735.953	0.0160825
736.031	0.0160603
736.109	0.0162759
736.187	0.0163176
736.265	0.0162280
736.343	0.0162266
736.421	0.0163157
736.499	0.0161607
736.578	0.0161523
736.656	0.0162002
736.734	0.0161002
736.812	0.0161841
736.890	0.0161687
736.968	0.0162218
737.046	0.0161317
737.124	0.0160276
737.203	0.0160637
737.281	0.0161378
737.359	0.0160709
737.437	0.0160321
737.515	0.0158149
737.593	0.0159480
737.671	0.0160453
737.749	0.0158968
737.828	0.0159973
737.906	0.0160072
737.984	0.0160158
738.062	0.0160397
738.140	0.0158939
738.218	0.0159030
738.296	0.0159325
738.374	0.0160537
738.453	0.0160005
738.531	0.0161043
738.609	0.0159924
738.687	0.0160468
738.765	0.0160977
738.843	0.0160072
738.921	0.0160180
738.999	0.0159284
739.078	0.0160384
739.156	0.0159074
739.234	0.0160997
739.312	0.0160167
739.390	0.0161650
739.468	0.0160852
739.546	0.0160225
739.624	0.0161218
739.703	0.0160152
739.781	0.0160828
739.859	0.0161394
739.937	0.0161398
740.015	0.0161088
740.093	0.0160575
740.171	0.0161800
740.249	0.0163518
740.328	0.0161957
740.406	0.0161207
740.484	0.0162495
740.562	0.0163387
740.640	0.0162215
740.718	0.0162003
740.796	0.0162059
740.874	0.0163320
740.953	0.0162724
741.031	0.0162069
741.109	0.0161733
741.187	0.0163438
741.265	0.0161449
741.343	0.0161604
741.421	0.0162457
741.499	0.0162470
741.578	0.0162200
741.656	0.0162318
741.734	0.0161945
741.812	0.0162954
741.890	0.0161492
741.968	0.0161764
742.046	0.0162051
742.124	0.0160478
742.203	0.0161223
742.281	0.0161338
742.359	0.0162919
742.437	0.0162455
742.515	0.0161476
742.593	0.0162068
742.671	0.0162138
742.749	0.0160107
742.828	0.0162061
742.906	0.0163137
742.984	0.0162473
743.062	0.0160972
743.140	0.0160894
743.218	0.0160201
743.296	0.0160513
743.374	0.0159199
743.453	0.0160760
743.531	0.0160593
743.609	0.0160057
743.687	0.0159990
743.765	0.0160652
743.843	0.0160832
743.921	0.0159988
743.999	0.0161279
744.078	0.0161237
744.156	0.0161900
744.234	0.0161544
744.312	0.0161403
744.390	0.0162006
744.468	0.0162475
744.546	0.0162402
744.624	0.0162110
744.703	0.0162699
744.781	0.0162163
744.859	0.0162582
744.937	0.0162656
745.015	0.0162152
745.093	0.0163452
745.171	0.0161766
745.249	0.0161400
745.328	0.0162419
745.406	0.0162835
745.484	0.0160457
745.562	0.0161658
745.640	0.0162005
745.718	0.0162096
745.796	0.0162075
745.874	0.0161375
745.953	0.0161867
746.031	0.0162323
746.109	0.0162753
746.187	0.0161375
746.265	0.0161731
746.343	0.0162280
746.421	0.0161686
746.499	0.0160712
746.578	0.0160523
746.656	0.0161661
746.734	0.0161153
746.812	0.0160757
746.890	0.0161395
746.968	0.0162177
747.046	0.0161512
747.124	0.0162030
747.203	0.0161439
747.281	0.0161649
747.359	0.0161928
747.437	0.0162689
747.515	0.0161906
747.593	0.0162502
747.671	0.0162878
747.749	0.0161600
747.828	0.0162457
747.906	0.0162080
747.984	0.0162617
748.062	0.0163170
748.140	0.0162176
748.218	0.0163762
748.296	0.0163151
748.374	0.0161481
748.453	0.0161943
748.531	0.0161565
748.609	0.0163303
748.687	0.0162830
748.765	0.0161194
748.843	0.0161973
748.921	0.0161876
748.999	0.0160932
749.078	0.0161394
749.156	0.0161957
749.234	0.0160387
749.312	0.0160734
749.390	0.0160434
749.468	0.0161737
749.546	0.0159855
749.624	0.0161111
749.703	0.0161942
749.781	0.0160696
749.859	0.0161089
749.937	0.0160902
750.015	0.0161242
750.093	0.0161318
750.171	0.0160545
750.249	0.0159795
750.328	0.0162079
750.406	0.0161507
750.484	0.0161044
750.562	0.0159832
750.640	0.0159734
750.718	0.0159890
750.796	0.0160344
750.874	0.0160307
750.953	0.0160999
751.031	0.0161752
751.109	0.0160166
751.187	0.0160281
751.265	0.0160871
751.343	0.0160286
751.421	0.0159859
751.499	0.0161423
751.578	0.0160385
751.656	0.0160060
751.734	0.0159035
751.812	0.0158366
751.890	0.0160975
751.968	0.0158876
752.046	0.0159229
752.124	0.0159430
752.203	0.0159592
752.281	0.0159324
752.359	0.0160566
752.437	0.0160444
752.515	0.0159597
752.593	0.0160293
752.671	0.0160043
752.749	0.0160348
752.828	0.0161148
752.906	0.0161211
752.984	0.0159595
753.062	0.0159964
753.140	0.0160898
753.218	0.0160389
753.296	0.0159758
753.374	0.0159785
753.453	0.0160816
753.531	0.0160230
753.609	0.0160484
753.687	0.0161111
753.765	0.0160854
753.843	0.0161019
753.921	0.0160374
753.999	0.0162144
754.078	0.0161911
754.156	0.0160227
754.234	0.0160551
754.312	0.0161392
754.390	0.0161202
754.468	0.0160098
754.546	0.0160884
754.624	0.0160294
754.703	0.0161395
754.781	0.0159920
754.859	0.0160957
754.937	0.0161075
755.015	0.0160173
755.093	0.0160054
755.171	0.0159818
755.249	0.0159327
755.328	0.0160212
755.406	0.0159480
755.484	0.0160092
755.562	0.0159953
755.640	0.0160074
755.718	0.0157987
755.796	0.0159056
755.874	0.0160255
755.953	0.0159417
756.031	0.0159027
756.109	0.0161363
756.187	0.0160425
756.265	0.0159637
756.343	0.0159988
756.421	0.0160044
756.499	0.0159013
756.578	0.0160505
756.656	0.0160523
756.734	0.0160528
756.812	0.0160236
756.890	0.0159911
756.968	0.0161091
757.046	0.0160906
757.124	0.0162091
757.203	0.0161777
757.281	0.0160387
757.359	0.0160964
757.437	0.0161049
757.515	0.0161939
757.593	0.0161152
757.671	0.0161614
757.749	0.0159911
757.828	0.0160141
757.906	0.0162570
757.984	0.0161427
758.062	0.0160468
758.140	0.0160989
758.218	0.0161324
758.296	0.0161492
758.374	0.0162029
758.453	0.0160654
758.531	0.0160186
758.609	0.0159844
758.687	0.0160513
758.765	0.0160717
758.843	0.0161056
758.921	0.0160526
758.999	0.0159060
759.078	0.0160318
759.156	0.0159187
759.234	0.0158566
759.312	0.0158481
759.390	0.0158479
759.468	0.0160452
759.546	0.0160593
759.624	0.0158985
759.703	0.0158858
759.781	0.0159077
759.859	0.0159273
759.937	0.0159258
760.015	0.0159134
760.093	0.0158944
760.171	0.0158686
760.249	0.0159833
760.328	0.0158603
760.406	0.0158974
760.484	0.0158561
760.562	0.0159577
760.640	0.0157673
760.718	0.0158848
760.796	0.0159874
760.874	0.0159889
760.953	0.0160480
761.031	0.0158852
761.109	0.0160310
761.187	0.0161593
761.265	0.0160395
761.343	0.0160484
761.421	0.0159454
761.499	0.0160886
761.578	0.0162358
761.656	0.0161553
761.734	0.0160524
761.812	0.0161009
761.890	0.0160272
761.968	0.0161475
762.046	0.0161445
762.124	0.0161875
762.203	0.0161891
762.281	0.0160882
762.359	0.0162305
762.437	0.0161288
762.515	0.0161873
762.593	0.0162557
762.671	0.0161768
762.749	0.0161450
762.828	0.0161213
762.906	0.0160963
762.984	0.0161545
763.062	0.0160742
763.140	0.0160736
763.218	0.0160326
763.296	0.0161375
763.374	0.0161028
763.453	0.0160481
763.531	0.0160256
763.609	0.0161977
763.687	0.0162424
763.765	0.0160574
763.843	0.0160913
763.921	0.0161976
763.999	0.0160230
764.078	0.0161815
764.156	0.0161412
764.234	0.0161224
764.312	0.0161108
764.390	0.0162494
764.468	0.0161889
764.546	0.0161553
764.624	0.0161599
764.703	0.0163232
764.781	0.0162244
764.859	0.0161985
764.937	0.0163171
765.015	0.0161757
765.093	0.0161604
765.171	0.0161619
765.249	0.0161677
765.328	0.0161711
765.406	0.0162820
765.484	0.0161558
765.562	0.0161016
765.640	0.0162170
765.718	0.0163537
765.796	0.0162170
765.874	0.0162800
765.953	0.0161737
766.031	0.0162650
766.109	0.0162071
766.187	0.0162070
766.265	0.0162524
766.343	0.0162481
766.421	0.0162817
766.499	0.0162494
766.578	0.0163110
766.656	0.0162882
766.734	0.0162740
766.812	0.0163746
766.890	0.0164339
766.968	0.0162524
767.046	0.0162617
767.124	0.0163761
767.203	0.0162407
767.281	0.0164052
767.359	0.0163855
767.437	0.0162659
767.515	0.0161711
767.593	0.0161973
767.671	0.0161359
767.749	0.0161340
767.828	0.0161245
767.906	0.0161437
767.984	0.0160342
768.062	0.0161544
768.140	0.0161293
768.218	0.0161182
768.296	0.0161807
768.374	0.0160741
768.453	0.0161862
768.531	0.0161618
768.609	0.0161605
768.687	0.0160262
768.765	0.0160835
768.843	0.0161183
768.921	0.0160685
768.999	0.0162180
769.078	0.0162214
769.156	0.0160456
769.234	0.0160033
769.312	0.0159974
769.390	0.0161160
769.468	0.0161188
769.546	0.0159927
769.624	0.0161089
769.703	0.0160783
769.781	0.0162061
769.859	0.0159396
769.937	0.0161389
770.015	0.0161903
770.093	0.0160253
770.171	0.0160873
770.249	0.0160762
770.328	0.0161478
770.406	0.0160540
770.484	0.0162293
770.562	0.0161079
770.640	0.0163122
770.718	0.0161205
770.796	0.0160543
770.874	0.0163605
770.953	0.0162479
771.031	0.0161229
771.109	0.0160236
771.187	0.0160917
771.265	0.0161068
771.343	0.0160688
771.421	0.0161845
771.499	0.0161696
771.578	0.0160590
771.656	0.0160752
771.734	0.0161437
771.812	0.0162688
771.890	0.0161781
771.968	0.0161328
772.046	0.0159516
772.124	0.0162059
772.203	0.0161258
772.281	0.0161278
772.359	0.0161690
772.437	0.0161182
772.515	0.0160310
772.593	0.0161474
772.671	0.0161723
772.749	0.0161897
772.828	0.0160094
772.906	0.0161234
772.984	0.0161115
773.062	0.0159511
773.140	0.0161191
773.218	0.0161300
773.296	0.0160842
773.374	0.0161097
773.453	0.0160175
773.531	0.0159319
773.609	0.0159195
773.687	0.0159571
773.765	0.0158200
773.843	0.0158963
773.921	0.0159860
773.999	0.0157356
774.078	0.0158315
774.156	0.0158464
774.234	0.0158256
774.312	0.0158833
774.390	0.0159135
774.468	0.0158251
774.546	0.0157332
774.624	0.0160552
774.703	0.0159249
774.781	0.0159634
774.859	0.0161226
774.937	0.0160735
775.015	0.0162549
775.093	0.0160738
775.171	0.0162404
775.249	0.0160541
775.328	0.0160336
775.406	0.0161971
775.484	0.0160614
775.562	0.0159687
775.640	0.0159315
775.718	0.0159581
775.796	0.0158717
775.874	0.0159427
775.953	0.0160791
776.031	0.0159441
776.109	0.0158910
776.187	0.0157851
776.265	0.0157883
776.343	0.0158083
776.421	0.0158690
776.499	0.0158269
776.578	0.0158370
776.656	0.0159245
776.734	0.0159790
776.812	0.0161204
776.890	0.0158759
776.968	0.0159350
777.046	0.0161501
777.124	0.0160783
777.203	0.0160240
777.281	0.0160661
777.359	0.0161408
777.437	0.0160629
777.515	0.0161975
777.593	0.0161568
777.671	0.0160274
777.749	0.0160630
777.828	0.0161440
777.906	0.0160830
777.984	0.0161224
778.062	0.0160325
778.140	0.0161049
778.218	0.0160460
778.296	0.0159843
778.374	0.0160598
778.453	0.0159728
778.531	0.0160846
778.609	0.0158457
778.687	0.0158981
778.765	0.0158688
778.843	0.0159490
778.921	0.0160652
778.999	0.0158434
779.078	0.0160551
779.156	0.0159411
779.234	0.0159457
779.312	0.0160199
779.390	0.0160064
779.468	0.0159166
779.546	0.0159497
779.624	0.0159462
779.703	0.0161066
779.781	0.0162187
779.859	0.0160970
779.937	0.0160314
780.015	0.0158397
780.093	0.0158963
780.171	0.0161015
780.249	0.0160081
780.328	0.0160446
780.406	0.0158001
780.484	0.0157429
780.562	0.0161105
780.640	0.0159920
780.718	0.0160844
780.796	0.0160773
780.874	0.0161386
780.953	0.0159904
781.031	0.0161213
781.109	0.0162354
781.187	0.0161768
781.265	0.0161732
781.343	0.0163067
781.421	0.0161608
781.499	0.0161796
781.578	0.0160672
781.656	0.0161125
781.734	0.0162828
781.812	0.0162366
781.890	0.0161411
781.968	0.0162518
782.046	0.0161105
782.124	0.0161929
782.203	0.0161953
782.281	0.0161708
782.359	0.0161507
782.437	0.0162471
782.515	0.0161499
782.593	0.0160772
782.671	0.0161878
782.749	0.0162045
782.828	0.0161894
782.906	0.0160306
782.984	0.0162498
783.062	0.0161291
783.140	0.0161153
783.218	0.0161913
783.296	0.0161677
783.374	0.0162027
783.453	0.0161711
783.531	0.0161954
783.609	0.0160793
783.687	0.0162021
783.765	0.0160956
783.843	0.0160608
783.921	0.0162149
783.999	0.0160861
784.078	0.0161748
784.156	0.0161554
784.234	0.0160831
784.312	0.0160228
784.390	0.0161716
784.468	0.0161585
784.546	0.0162932
784.624	0.0161751
784.703	0.0161442
784.781	0.0162138
784.859	0.0162249
784.937	0.0161479
785.015	0.0162318
785.093	0.0162957
785.171	0.0162646
785.249	0.0162166
785.328	0.0162293
785.406	0.0161662
785.484	0.0161757
785.562	0.0162016
785.640	0.0162236
785.718	0.0162594
785.796	0.0160648
785.874	0.0163811
785.953	0.0162243
786.031	0.0161816
786.109	0.0162232
786.187	0.0162448
786.265	0.0162515
786.343	0.0161728
786.421	0.0160365
786.499	0.0161643
786.578	0.0160830
786.656	0.0160884
786.734	0.0160768
786.812	0.0161736
786.890	0.0161707
786.968	0.0163531
787.046	0.0163156
787.124	0.0162849
787.203	0.0162511
787.281	0.0162658
787.359	0.0162753
787.437	0.0162246
787.515	0.0163342
787.593	0.0163877
787.671	0.0163073
787.749	0.0163078
787.828	0.0162613
787.906	0.0161718
787.984	0.0161411
788.062	0.0162709
788.140	0.0162115
788.218	0.0162442
788.296	0.0160814
788.374	0.0162119
788.453	0.0160433
788.531	0.0162111
788.609	0.0162737
788.687	0.0161532
788.765	0.0162451
788.843	0.0162682
788.921	0.0161559
788.999	0.0162041
789.078	0.0162112
789.156	0.0162222
789.234	0.0162852
789.312	0.0162690
789.390	0.0162426
789.468	0.0162733
789.546	0.0160041
789.624	0.0161368
789.703	0.0161682
789.781	0.0160160
789.859	0.0159961
789.937	0.0160655
790.015	0.0160291
790.093	0.0162238
790.171	0.0160578
790.249	0.0162457
790.328	0.0161273
790.406	0.0161597
790.484	0.0161082
790.562	0.0161833
790.640	0.0161009
790.718	0.0162543
790.796	0.0163264
790.874	0.0162067
790.953	0.0163232
791.031	0.0161607
791.109	0.0162312
791.187	0.0164036
791.265	0.0162985
791.343	0.0163713
791.421	0.0163602
791.499	0.0164438
791.578	0.0163451
791.656	0.0163807
791.734	0.0163205
791.812	0.0163887
791.890	0.0163327
791.968	0.0165184
792.046	0.0162998
792.124	0.0163361
792.203	0.0162190
792.281	0.0162966
792.359	0.0162254
792.437	0.0162653
792.515	0.0162334
792.593	0.0162996
792.671	0.0162698
792.749	0.0162729
792.828	0.0161525
792.906	0.0161729
792.984	0.0162699
793.062	0.0163035
793.140	0.0161448
793.218	0.0162859
793.296	0.0161949
793.374	0.0162601
793.453	0.0162518
793.531	0.0163461
793.609	0.0164176
793.687	0.0163567
793.765	0.0162255
793.843	0.0162946
793.921	0.0162900
793.999	0.0161761
794.078	0.0161597
794.156	0.0161690
794.234	0.0161010
794.312	0.0160808
794.390	0.0160585
794.468	0.0160166
794.546	0.0160053
794.624	0.0160667
794.703	0.0160899
794.781	0.0160769
794.859	0.0161002
794.937	0.0160487
795.015	0.0160791
795.093	0.0160649
795.171	0.0161314
795.249	0.0161098
795.328	0.0161127
795.406	0.0161644
795.484	0.0162748
795.562	0.0161655
795.640	0.0163235
795.718	0.0162495
795.796	0.0161848
795.874	0.0162674
795.953	0.0162058
796.031	0.0160265
796.109	0.0160905
796.187	0.0161292
796.265	0.0163429
796.343	0.0162763
796.421	0.0161182
796.499	0.0161069
796.578	0.0162170
796.656	0.0162576
796.734	0.0161430
796.812	0.0161507
796.890	0.0162395
796.968	0.0162167
797.046	0.0160802
797.124	0.0161910
797.203	0.0161015
797.281	0.0161737
797.359	0.0161962
797.437	0.0162203
797.515	0.0161472
797.593	0.0162538
797.671	0.0162202
797.749	0.0162230
797.828	0.0162061
797.906	0.0161630
797.984	0.0160511
798.062	0.0162080
798.140	0.0160799
798.218	0.0161002
798.296	0.0161713
798.374	0.0162428
798.453	0.0162601
798.531	0.0160545
798.609	0.0161114
798.687	0.0162968
798.765	0.0161851
798.843	0.0159145
798.921	0.0161197
798.999	0.0160962
799.078	0.0162836
799.156	0.0160226
799.234	0.0161971
799.312	0.0160378
799.390	0.0160533
799.468	0.0160125
799.546	0.0159647
799.624	0.0161617
799.703	0.0160815
799.781	0.0161282
799.859	0.0160986
799.937	0.0161894
800.015	0.0161977
800.093	0.0162332
800.171	0.0161375
800.249	0.0160164
800.328	0.0162799
800.406	0.0161288
800.484	0.0160870
800.562	0.0161071
800.640	0.0161960
800.718	0.0161154
800.796	0.0161337
800.874	0.0158955
800.953	0.0160174
801.031	0.0160616
801.109	0.0159922
801.187	0.0160986
801.265	0.0159252
801.343	0.0158382
801.421	0.0160464
801.499	0.0160294
801.578	0.0160278
801.656	0.0161414
801.734	0.0161150
801.812	0.0159381
801.890	0.0160751
801.968	0.0160550
802.046	0.0161388
802.124	0.0161431
802.203	0.0162738
802.281	0.0160079
802.359	0.0160995
802.437	0.0162244
802.515	0.0162917
802.593	0.0161734
802.671	0.0161472
802.749	0.0162843
802.828	0.0162496
802.906	0.0162131
802.984	0.0162304
803.062	0.0163918
803.140	0.0163017
803.218	0.0161626
803.296	0.0162289
803.374	0.0162420
803.453	0.0162071
803.531	0.0161730
803.609	0.0164049
803.687	0.0162157
803.765	0.0160777
803.843	0.0162794
803.921	0.0162499
803.999	0.0162247
804.078	0.0161825
804.156	0.0162377
804.234	0.0162163
804.312	0.0161224
804.390	0.0161572
804.468	0.0161281
804.546	0.0162175
804.624	0.0161621
804.703	0.0161343
804.781	0.0160889
804.859	0.0160708
804.937	0.0161837
805.015	0.0161686
805.093	0.0162357
805.171	0.0162565
805.249	0.0162158
805.328	0.0162956
805.406	0.0161603
805.484	0.0162990
805.562	0.0162905
805.640	0.0162575
805.718	0.0163619
805.796	0.0164127
805.874	0.0162985
805.953	0.0162894
806.031	0.0162338
806.109	0.0162675
806.187	0.0162246
806.265	0.0162018
806.343	0.0161964
806.421	0.0161396
806.499	0.0162442
806.578	0.0162708
806.656	0.0162038
806.734	0.0161315
806.812	0.0162743
806.890	0.0162424
806.968	0.0163434
807.046	0.0163701
807.124	0.0163481
807.203	0.0162003
807.281	0.0162976
807.359	0.0164312
807.437	0.0163928
807.515	0.0161295
807.593	0.0162726
807.671	0.0164114
807.749	0.0164133
807.828	0.0162914
807.906	0.0161575
807.984	0.0163008
808.062	0.0163264
808.140	0.0161488
808.218	0.0163206
808.296	0.0162978
808.374	0.0162610
808.453	0.0162426
808.531	0.0163024
808.609	0.0162977
808.687	0.0162479
808.765	0.0160751
808.843	0.0161885
808.921	0.0161237
808.999	0.0161710
809.078	0.0162527
809.156	0.0162175
809.234	0.0161784
809.312	0.0160821
809.390	0.0163178
809.468	0.0160646
809.546	0.0161015
809.624	0.0162412
809.703	0.0161762
809.781	0.0162003
809.859	0.0160748
809.937	0.0161233
810.015	0.0161708
810.093	0.0162325
810.171	0.0159861
810.249	0.0162425
810.328	0.0162658
810.406	0.0162283
810.484	0.0161662
810.562	0.0162732
810.640	0.0161972
810.718	0.0163112
810.796	0.0161789
810.874	0.0162975
810.953	0.0162099
811.031	0.0161745
811.109	0.0162544
811.187	0.0161671
811.265	0.0160886
811.343	0.0162099
811.421	0.0162988
811.499	0.0164047
811.578	0.0162614
811.656	0.0163328
811.734	0.0163400
811.812	0.0164497
811.890	0.0162604
811.968	0.0162469
812.046	0.0163551
812.124	0.0163608
812.203	0.0163668
812.281	0.0163078
812.359	0.0164571
812.437	0.0163609
812.515	0.0163652
812.593	0.0162519
812.671	0.0163287
812.749	0.0162914
812.828	0.0163674
812.906	0.0163073
812.984	0.0165131
813.062	0.0161242
813.140	0.0162598
813.218	0.0162977
813.296	0.0162616
813.374	0.0160571
813.453	0.0161423
813.531	0.0161575
813.609	0.0160929
813.687	0.0161543
813.765	0.0161957
813.843	0.0161377
813.921	0.0161221
813.999	0.0162070
814.078	0.0161805
814.156	0.0161674
814.234	0.0161133
814.312	0.0161282
814.390	0.0161198
814.468	0.0161568
814.546	0.0161214
814.624	0.0159859
814.703	0.0159936
814.781	0.0160818
814.859	0.0160773
814.937	0.0160315
815.015	0.0161001
815.093	0.0161465
815.171	0.0162409
815.249	0.0160275
815.328	0.0161056
815.406	0.0162307
815.484	0.0161407
815.562	0.0160226
815.640	0.0162259
815.718	0.0162125
815.796	0.0161830
815.874	0.0161369
815.953	0.0162128
816.031	0.0159707
816.109	0.0160480
816.187	0.0162580
816.265	0.0162019
816.343	0.0162145
816.421	0.0161725
816.499	0.0162260
816.578	0.0161313
816.656	0.0162321
816.734	0.0163213
816.812	0.0162513
816.890	0.0162261
816.968	0.0161304
817.046	0.0163310
817.124	0.0163374
817.203	0.0162115
817.281	0.0162123
817.359	0.0160660
817.437	0.0159671
817.515	0.0160312
817.593	0.0161627
817.671	0.0159418
817.749	0.0160359
817.828	0.0160884
817.906	0.0159412
817.984	0.0158946
818.062	0.0159969
818.140	0.0159757
818.218	0.0159418
818.296	0.0159830
818.374	0.0158344
818.453	0.0158086
818.531	0.0160242
818.609	0.0159586
818.687	0.0159029
818.765	0.0158066
818.843	0.0159937
818.921	0.0160754
818.999	0.0159829
819.078	0.0160407
819.156	0.0160514
819.234	0.0161539
819.312	0.0160669
819.390	0.0160617
819.468	0.0160910
819.546	0.0160201
819.624	0.0161208
819.703	0.0160505
819.781	0.0160462
819.859	0.0160317
819.937	0.0160667
820.015	0.0161076
820.093	0.0160291
820.171	0.0159290
820.249	0.0160694
820.328	0.0161766
820.406	0.0161143
820.484	0.0161915
820.562	0.0160802
820.640	0.0160558
820.718	0.0161949
820.796	0.0161739
820.874	0.0162070
820.953	0.0161087
821.031	0.0161715
821.109	0.0160035
821.187	0.0161042
821.265	0.0160758
821.343	0.0158495
821.421	0.0159126
821.499	0.0158344
821.578	0.0158632
821.656	0.0158925
821.734	0.0158646
821.812	0.0159498
821.890	0.0159656
821.968	0.0158994
822.046	0.0160001
822.124	0.0158865
822.203	0.0160130
822.281	0.0160127
822.359	0.0159930
822.437	0.0159488
822.515	0.0162207
822.593	0.0160478
822.671	0.0159936
822.749	0.0160316
822.828	0.0158923
822.906	0.0159029
822.984	0.0158401
823.062	0.0158736
823.140	0.0159206
823.218	0.0159241
823.296	0.0159111
823.374	0.0159076
823.453	0.0160246
823.531	0.0159659
823.609	0.0161368
823.687	0.0161400
823.765	0.0161032
823.843	0.0161015
823.921	0.0161288
823.999	0.0161246
824.078	0.0161527
824.156	0.0162184
824.234	0.0162604
824.312	0.0163028
824.390	0.0161941
824.468	0.0161853
824.546	0.0161716
824.624	0.0160168
824.703	0.0159888
824.781	0.0160686
824.859	0.0160225
824.937	0.0161242
825.015	0.0160141
825.093	0.0159834
825.171	0.0159326
825.249	0.0160973
825.328	0.0160102
825.406	0.0160271
825.484	0.0160236
825.562	0.0160516
825.640	0.0160218
825.718	0.0160449
825.796	0.0159940
825.874	0.0159890
825.953	0.0161065
826.031	0.0160161
826.109	0.0160363
826.187	0.0159588
826.265	0.0161093
826.343	0.0160974
826.421	0.0160976
826.499	0.0161649
826.578	0.0162181
826.656	0.0162258
826.734	0.0162682
826.812	0.0162511
826.890	0.0161606
826.968	0.0161859
827.046	0.0160403
827.124	0.0162113
827.203	0.0161503
827.281	0.0160886
827.359	0.0160270
827.437	0.0160386
827.515	0.0158902
827.593	0.0160312
827.671	0.0159895
827.749	0.0159904
827.828	0.0159931
827.906	0.0159915
827.984	0.0159885
828.062	0.0160047
828.140	0.0159338
828.218	0.0159139
828.296	0.0159993
828.374	0.0160047
828.453	0.0160340
828.531	0.0160188
828.609	0.0159827
828.687	0.0162420
828.765	0.0161083
828.843	0.0161622
828.921	0.0162755
828.999	0.0162312
829.078	0.0163297
829.156	0.0164313
829.234	0.0163295
829.312	0.0163834
829.390	0.0163658
829.468	0.0164352
829.546	0.0163760
829.624	0.0164119
829.703	0.0163718
829.781	0.0164477
829.859	0.0164079
829.937	0.0161628
830.015	0.0163282
830.093	0.0163996
830.171	0.0164427
830.249	0.0165485
830.328	0.0164098
830.406	0.0163408
830.484	0.0164350
830.562	0.0164442
830.640	0.0163847
830.718	0.0163454
830.796	0.0163153
830.874	0.0162482
830.953	0.0163434
831.031	0.0162489
831.109	0.0162351
831.187	0.0161922
831.265	0.0162293
831.343	0.0160919
831.421	0.0161250
831.499	0.0162183
831.578	0.0162864
831.656	0.0162922
831.734	0.0163338
831.812	0.0163042
831.890	0.0163543
831.968	0.0164220
832.046	0.0163974
832.124	0.0164581
832.203	0.0164259
832.281	0.0163850
832.359	0.0162540
832.437	0.0163468
832.515	0.0161581
832.593	0.0162612
832.671	0.0162242
832.749	0.0161758
832.828	0.0160809
832.906	0.0160386
832.984	0.0161037
833.062	0.0162200
833.140	0.0162701
833.218	0.0161767
833.296	0.0160796
833.374	0.0160474
833.453	0.0160548
833.531	0.0163240
833.609	0.0163025
833.687	0.0163140
833.765	0.0161928
833.843	0.0162383
833.921	0.0163265
833.999	0.0162613
834.078	0.0163577
834.156	0.0164065
834.234	0.0162996
834.312	0.0162988
834.390	0.0163309
834.468	0.0164360
834.546	0.0163773
834.624	0.0163910
834.703	0.0163229
834.781	0.0163029
834.859	0.0162514
834.937	0.0161979
835.015	0.0160790
835.093	0.0161363
835.171	0.0161649
835.249	0.0161730
835.328	0.0159711
835.406	0.0159308
835.484	0.0158141
835.562	0.0158199
835.640	0.0157835
835.718	0.0157684
835.796	0.0157895
835.874	0.0158444
835.953	0.0157653
836.031	0.0157439
836.109	0.0158092
836.187	0.0157706
836.265	0.0157355
836.343	0.0159179
836.421	0.0159303
836.499	0.0159850
836.578	0.0160013
836.656	0.0160344
836.734	0.0161447
836.812	0.0161182
836.890	0.0163132
836.968	0.0161556
837.046	0.0161753
837.124	0.0163909
837.203	0.0162834
837.281	0.0163497
837.359	0.0164118
837.437	0.0162922
837.515	0.0164061
837.593	0.0162589
837.671	0.0161643
837.749	0.0161185
837.828	0.0160854
837.906	0.0160601
837.984	0.0160065
838.062	0.0158753
838.140	0.0159652
838.218	0.0158428
838.296	0.0158906
838.374	0.0157582
838.453	0.0158315
838.531	0.0157397
838.609	0.0157918
838.687	0.0158470
838.765	0.0158080
838.843	0.0157885
838.921	0.0159108
838.999	0.0159362
839.078	0.0161190
839.156	0.0160035
839.234	0.0158992
839.312	0.0160850
839.390	0.0161839
839.468	0.0160759
839.546	0.0160019
839.624	0.0161040
839.703	0.0160823
839.781	0.0161727
839.859	0.0160693
839.937	0.0163280
840.015	0.0162692
840.093	0.0162312
840.171	0.0163220
840.249	0.0163759
840.328	0.0164345
840.406	0.0163914
840.484	0.0163715
840.562	0.0161517
840.640	0.0163152
840.718	0.0161539
840.796	0.0162584
840.874	0.0162314
840.953	0.0160815
841.031	0.0159628
841.109	0.0160199
841.187	0.0161089
841.265	0.0159288
841.343	0.0159341
841.421	0.0159839
841.499	0.0161170
841.578	0.0158885
841.656	0.0159578
841.734	0.0160618
841.812	0.0160032
841.890	0.0160232
841.968	0.0159248
842.046	0.0160023
842.124	0.0161217
842.203	0.0162739
842.281	0.0160822
842.359	0.0161227
842.437	0.0159383
842.515	0.0160678
842.593	0.0160989
842.671	0.0160011
842.749	0.0161197
842.828	0.0160329
842.906	0.0161189
842.984	0.0161587
843.062	0.0163075
843.140	0.0161760
843.218	0.0162097
843.296	0.0161880
843.374	0.0160986
843.453	0.0159721
843.531	0.0160101
843.609	0.0159740
843.687	0.0160275
843.765	0.0160390
843.843	0.0160047
843.921	0.0158659
843.999	0.0158606
844.078	0.0160504
844.156	0.0159303
844.234	0.0158359
844.312	0.0160549
844.390	0.0159029
844.468	0.0159809
844.546	0.0158855
844.624	0.0159483
844.703	0.0158849
844.781	0.0160706
844.859	0.0159868
844.937	0.0159362
845.015	0.0159772
845.093	0.0159673
845.171	0.0161071
845.249	0.0161252
845.328	0.0159555
845.406	0.0159348
845.484	0.0160782
845.562	0.0159015
845.640	0.0159122
845.718	0.0160300
845.796	0.0158949
845.874	0.0160888
845.953	0.0159917
846.031	0.0160479
846.109	0.0161082
846.187	0.0159219
846.265	0.0159228
846.343	0.0159649
846.421	0.0159306
846.499	0.0159859
846.578	0.0160527
846.656	0.0161016
846.734	0.0159165
846.812	0.0158246
846.890	0.0159037
846.968	0.0159486
847.046	0.0160377
847.124	0.0160184
847.203	0.0158733
847.281	0.0158445
847.359	0.0160068
847.437	0.0159447
847.515	0.0159939
847.593	0.0158896
847.671	0.0159784
847.749	0.0160659
847.828	0.0159739
847.906	0.0160530
847.984	0.0159608
848.062	0.0159752
848.140	0.0159471
848.218	0.0159818
848.296	0.0160654
848.374	0.0159955
848.453	0.0160461
848.531	0.0160887
848.609	0.0160759
848.687	0.0161271
848.765	0.0161137
848.843	0.0161093
848.921	0.0160950
848.999	0.0159842
849.078	0.0161071
849.156	0.0160896
849.234	0.0160509
849.312	0.0160201
849.390	0.0159559
849.468	0.0160455
849.546	0.0160950
849.624	0.0159232
849.703	0.0159843
849.781	0.0158991
849.859	0.0160345
849.937	0.0160429
850.015	0.0159133
850.093	0.0158833
850.171	0.0160300
850.249	0.0159673
850.328	0.0160397
850.406	0.0160840
850.484	0.0161429
850.562	0.0159595
850.640	0.0160089
850.718	0.0160842
850.796	0.0161774
850.874	0.0158902
850.953	0.0160244
851.031	0.0160712
851.109	0.0160386
851.187	0.0160596
851.265	0.0159634
851.343	0.0159611
851.421	0.0160519
851.499	0.0158717
851.578	0.0160178
851.656	0.0159576
851.734	0.0159090
851.812	0.0159602
851.890	0.0160254
851.968	0.0159664
852.046	0.0158926
852.124	0.0158331
852.203	0.0160252
852.281	0.0159834
852.359	0.0159499
852.437	0.0159937
852.515	0.0159886
852.593	0.0159731
852.671	0.0159570
852.749	0.0160812
852.828	0.0161769
852.906	0.0161177
852.984	0.0160557
853.062	0.0161761
853.140	0.0161562
853.218	0.0161040
853.296	0.0161588
853.374	0.0161029
853.453	0.0160880
853.531	0.0160291
853.609	0.0160396
853.687	0.0161562
853.765	0.0161401
853.843	0.0160719
853.921	0.0162275
853.999	0.0160815
854.078	0.0160760
854.156	0.0161692
854.234	0.0160063
854.312	0.0159381
854.390	0.0160364
854.468	0.0160973
854.546	0.0160453
854.624	0.0160246
854.703	0.0159513
854.781	0.0160754
854.859	0.0161420
854.937	0.0161710
855.015	0.0160322
855.093	0.0160014
855.171	0.0161005
855.249	0.0160278
855.328	0.0160651
855.406	0.0159532
855.484	0.0160172
855.562	0.0158335
855.640	0.0159678
855.718	0.0159982
855.796	0.0159087
855.874	0.0159735
855.953	0.0160820
856.031	0.0160793
856.109	0.0160130
856.187	0.0158735
856.265	0.0158901
856.343	0.0161166
856.421	0.0160651
856.499	0.0159675
856.578	0.0161338
856.656	0.0160905
856.734	0.0161310
856.812	0.0161125
856.890	0.0161297
856.968	0.0160838
857.046	0.0160438
857.124	0.0160891
857.203	0.0160766
857.281	0.0161784
857.359	0.0162575
857.437	0.0162785
857.515	0.0161208
857.593	0.0160336
857.671	0.0162589
857.749	0.0162506
857.828	0.0162257
857.906	0.0163500
857.984	0.0162893
858.062	0.0161636
858.140	0.0162119
858.218	0.0163551
858.296	0.0162914
858.374	0.0162959
858.453	0.0163333
858.531	0.0162645
858.609	0.0162883
858.687	0.0161073
858.765	0.0163516
858.843	0.0161969
858.921	0.0162032
858.999	0.0163053
859.078	0.0161556
859.156	0.0160352
859.234	0.0160220
859.312	0.0160327
859.390	0.0160268
859.468	0.0160969
859.546	0.0160648
859.624	0.0160379
859.703	0.0160493
859.781	0.0160598
859.859	0.0159634
859.937	0.0160654
860.015	0.0159695
860.093	0.0160653
860.171	0.0160829
860.249	0.0160828
860.328	0.0160864
860.406	0.0161241
860.484	0.0161183
860.562	0.0160707
860.640	0.0161527
860.718	0.0161331
860.796	0.0161360
860.874	0.0160074
860.953	0.0161620
861.031	0.0161906
861.109	0.0161533
861.187	0.0161972
861.265	0.0163137
861.343	0.0163074
861.421	0.0163105
861.499	0.0163213
861.578	0.0164626
861.656	0.0162318
861.734	0.0162404
861.812	0.0162696
861.890	0.0161546
861.968	0.0163181
862.046	0.0161324
862.124	0.0162742
862.203	0.0162939
862.281	0.0160287
862.359	0.0162908
862.437	0.0161813
862.515	0.0161839
862.593	0.0162136
862.671	0.0161771
862.749	0.0162487
862.828	0.0162728
862.906	0.0161871
862.984	0.0162862
863.062	0.0160724
863.140	0.0161001
863.218	0.0162362
863.296	0.0162566
863.374	0.0160685
863.453	0.0162113
863.531	0.0160911
863.609	0.0160517
863.687	0.0161441
863.765	0.0162501
863.843	0.0161868
863.921	0.0159913
863.999	0.0162691
864.078	0.0163171
864.156	0.0161156
864.234	0.0162988
864.312	0.0163959
864.390	0.0163990
864.468	0.0163523
864.546	0.0163663
864.624	0.0163530
864.703	0.0164893
864.781	0.0164590
864.859	0.0164886
864.937	0.0164458
865.015	0.0164783
865.093	0.0163403
865.171	0.0163385
865.249	0.0162990
865.328	0.0162827
865.406	0.0162340
865.484	0.0163216
865.562	0.0163007
865.640	0.0161241
865.718	0.0162096
865.796	0.0162048
865.874	0.0161552
865.953	0.0160206
866.031	0.0161154
866.109	0.0160835
866.187	0.0162243
866.265	0.0160659
866.343	0.0160435
866.421	0.0160645
866.499	0.0161845
866.578	0.0160740
866.656	0.0160535
866.734	0.0160690
866.812	0.0162246
866.890	0.0161650
866.968	0.0160069
867.046	0.0162656
867.124	0.0161557
867.203	0.0161353
867.281	0.0163258
867.359	0.0162346
867.437	0.0160903
867.515	0.0162157
867.593	0.0163408
867.671	0.0163702
867.749	0.0162695
867.828	0.0162210
867.906	0.0163283
867.984	0.0163882
868.062	0.0163789
868.140	0.0164464
868.218	0.0164578
868.296	0.0163794
868.374	0.0162907
868.453	0.0164009
868.531	0.0162792
868.609	0.0163565
868.687	0.0163773
868.765	0.0162923
868.843	0.0162906
868.921	0.0163440
868.999	0.0163592
869.078	0.0161485
869.156	0.0161333
869.234	0.0160476
869.312	0.0161190
869.390	0.0161446
869.468	0.0161201
869.546	0.0161568
869.624	0.0160912
869.703	0.0160344
869.781	0.0159909
869.859	0.0160159
869.937	0.0162261
870.015	0.0159895
870.093	0.0160609
870.171	0.0162282
870.249	0.0161501
870.328	0.0161473
870.406	0.0161240
870.484	0.0161383
870.562	0.0160436
870.640	0.0160502
870.718	0.0162258
870.796	0.0162757
870.874	0.0164007
870.953	0.0163045
871.031	0.0163013
871.109	0.0163032
871.187	0.0161934
871.265	0.0162687
871.343	0.0163088
871.421	0.0163012
871.499	0.0162872
871.578	0.0162944
871.656	0.0162964
871.734	0.0162399
871.812	0.0159949
871.890	0.0162065
871.968	0.0160771
872.046	0.0161594
872.124	0.0161108
872.203	0.0161555
872.281	0.0162352
872.359	0.0161139
872.437	0.0160455
872.515	0.0159814
872.593	0.0161545
872.671	0.0161610
872.749	0.0161803
872.828	0.0160874
872.906	0.0161223
872.984	0.0160658
873.062	0.0159869
873.140	0.0162064
873.218	0.0163462
873.296	0.0160873
873.374	0.0161247
873.453	0.0160905
873.531	0.0161338
873.609	0.0161990
873.687	0.0161965
873.765	0.0161648
873.843	0.0161516
873.921	0.0161746
873.999	0.0161030
874.078	0.0161559
874.156	0.0160980
874.234	0.0160888
874.312	0.0162248
874.390	0.0162064
874.468	0.0160715
874.546	0.0161336
874.624	0.0159752
874.703	0.0158208
874.781	0.0161083
874.859	0.0160040
874.937	0.0159698
875.015	0.0159322
875.093	0.0158778
875.171	0.0159067
875.249	0.0158272
875.328	0.0159161
875.406	0.0157210
875.484	0.0158571
875.562	0.0158307
875.640	0.0157968
875.718	0.0159446
875.796	0.0159641
875.874	0.0158894
875.953	0.0159701
876.031	0.0158987
876.109	0.0159240
876.187	0.0158987
876.265	0.0159847
876.343	0.0158894
876.421	0.0159475
876.499	0.0160361
876.578	0.0160051
876.656	0.0160143
876.734	0.0160317
876.812	0.0159853
876.890	0.0158663
876.968	0.0160349
877.046	0.0159464
877.124	0.0159815
877.203	0.0159868
877.281	0.0161269
877.359	0.0160738
877.437	0.0159823
877.515	0.0160023
877.593	0.0159776
877.671	0.0159868
877.749	0.0160188
877.828	0.0160729
877.906	0.0159103
877.984	0.0159520
878.062	0.0160029
878.140	0.0160249
878.218	0.0160297
878.296	0.0157773
878.374	0.0158469
878.453	0.0157893
878.531	0.0158553
878.609	0.0160557
878.687	0.0159036
878.765	0.0160046
878.843	0.0160210
878.921	0.0160111
878.999	0.0159055
879.078	0.0158495
879.156	0.0159008
879.234	0.0159772
879.312	0.0159496
879.390	0.0160240
879.468	0.0159657
879.546	0.0159886
879.624	0.0160310
879.703	0.0160023
879.781	0.0161064
879.859	0.0160368
879.937	0.0160516
880.015	0.0160168
880.093	0.0160452
880.171	0.0159290
880.249	0.0161672
880.328	0.0159631
880.406	0.0160381
880.484	0.0163024
880.562	0.0162219
880.640	0.0160834
880.718	0.0162183
880.796	0.0160745
880.874	0.0162206
880.953	0.0163678
881.031	0.0163242
881.109	0.0162273
881.187	0.0161907
881.265	0.0162443
881.343	0.0163906
881.421	0.0163852
881.499	0.0162003
881.578	0.0161782
881.656	0.0163129
881.734	0.0162510
881.812	0.0161203
881.890	0.0161939
881.968	0.0163463
882.046	0.0162099
882.124	0.0164078
882.203	0.0162038
882.281	0.0161323
882.359	0.0163200
882.437	0.0163226
882.515	0.0161319
882.593	0.0159851
882.671	0.0162731
882.749	0.0161983
882.828	0.0161935
882.906	0.0162117
882.984	0.0160490
883.062	0.0160657
883.140	0.0163029
883.218	0.0161007
883.296	0.0160558
883.374	0.0161769
883.453	0.0160160
883.531	0.0160381
883.609	0.0162095
883.687	0.0161008
883.765	0.0161920
883.843	0.0160078
883.921	0.0160925
883.999	0.0161859
884.078	0.0161497
884.156	0.0161683
884.234	0.0162342
884.312	0.0163519
884.390	0.0162157
884.468	0.0160605
884.546	0.0161119
884.624	0.0161834
884.703	0.0162921
884.781	0.0161272
884.859	0.0161452
884.937	0.0162379
885.015	0.0161310
885.093	0.0160289
885.171	0.0162354
885.249	0.0161340
885.328	0.0160950
885.406	0.0161397
885.484	0.0161081
885.562	0.0161701
885.640	0.0162171
885.718	0.0161966
885.796	0.0162141
885.874	0.0161945
885.953	0.0161086
886.031	0.0162054
886.109	0.0161983
886.187	0.0162897
886.265	0.0164224
886.343	0.0162329
886.421	0.0162730
886.499	0.0162082
886.578	0.0163119
886.656	0.0160989
886.734	0.0162503
886.812	0.0163763
886.890	0.0162438
886.968	0.0162892
887.046	0.0160717
887.124	0.0160991
887.203	0.0161557
887.281	0.0161610
887.359	0.0163066
887.437	0.0161473
887.515	0.0161515
887.593	0.0160557
887.671	0.0160909
887.749	0.0162242
887.828	0.0163487
887.906	0.0162275
887.984	0.0162457
888.062	0.0162749
888.140	0.0161243
888.218	0.0162766
888.296	0.0162075
888.374	0.0160849
888.453	0.0161375
888.531	0.0162336
888.609	0.0162620
888.687	0.0162907
888.765	0.0163921
888.843	0.0163396
888.921	0.0163622
888.999	0.0164364
889.078	0.0163154
889.156	0.0164003
889.234	0.0163129
889.312	0.0163314
889.390	0.0162584
889.468	0.0163151
889.546	0.0162598
889.624	0.0161445
889.703	0.0162648
889.781	0.0162101
889.859	0.0162601
889.937	0.0163274
890.015	0.0161279
890.093	0.0161449
890.171	0.0162080
890.249	0.0162021
890.328	0.0162741
890.406	0.0162149
890.484	0.0161819
890.562	0.0161297
890.640	0.0161769
890.718	0.0160305
890.796	0.0160408
890.874	0.0160741
890.953	0.0160498
891.031	0.0161070
891.109	0.0160712
891.187	0.0161029
891.265	0.0161225
891.343	0.0161147
891.421	0.0159601
891.499	0.0160698
891.578	0.0160387
891.656	0.0159274
891.734	0.0159818
891.812	0.0159663
891.890	0.0160699
891.968	0.0159979
892.046	0.0159998
892.124	0.0160019
892.203	0.0160802
892.281	0.0160101
892.359	0.0160170
892.437	0.0161233
892.515	0.0161876
892.593	0.0160493
892.671	0.0160865
892.749	0.0161029
892.828	0.0162679
892.906	0.0161127
892.984	0.0160638
893.062	0.0161063
893.140	0.0160590
893.218	0.0161735
893.296	0.0160278
893.374	0.0160628
893.453	0.0160992
893.531	0.0161101
893.609	0.0161462
893.687	0.0161318
893.765	0.0160121
893.843	0.0159536
893.921	0.0159768
893.999	0.0160234
894.078	0.0160677
894.156	0.0160613
894.234	0.0158961
894.312	0.0160446
894.390	0.0159789
894.468	0.0160137
894.546	0.0161018
894.624	0.0160796
894.703	0.0160271
894.781	0.0159421
894.859	0.0159486
894.937	0.0160056
895.015	0.0160193
895.093	0.0160448
895.171	0.0160332
895.249	0.0159856
895.328	0.0160237
895.406	0.0160162
895.484	0.0160579
895.562	0.0161093
895.640	0.0159722
895.718	0.0160825
895.796	0.0161498
895.874	0.0161963
895.953	0.0161298
896.031	0.0160575
896.109	0.0162897
896.187	0.0160954
896.265	0.0161621
896.343	0.0161990
896.421	0.0161732
896.499	0.0161136
896.578	0.0161360
896.656	0.0161080
896.734	0.0161160
896.812	0.0160552
896.890	0.0161077
896.968	0.0161736
897.046	0.0160753
897.124	0.0160722
897.203	0.0160067
897.281	0.0161215
897.359	0.0160526
897.437	0.0161684
897.515	0.0160873
897.593	0.0162436
897.671	0.0161514
897.749	0.0161230
897.828	0.0161280
897.906	0.0160762
897.984	0.0160531
898.062	0.0162267
898.140	0.0160970
898.218	0.0161163
898.296	0.0161086
898.374	0.0159880
898.453	0.0160374
898.531	0.0161694
898.609	0.0161845
898.687	0.0161176
898.765	0.0161810
898.843	0.0161337
898.921	0.0160342
898.999	0.0161269
899.078	0.0161060
899.156	0.0161562
899.234	0.0161083
899.312	0.0160111
899.390	0.0160500
899.468	0.0161471
899.546	0.0160303
899.624	0.0161930
899.703	0.0162318
899.781	0.0161086
899.859	0.0161762
899.937	0.0160661
900.015	0.0161613
900.093	0.0160164
900.171	0.0161143
900.249	0.0163004
900.328	0.0161657
900.406	0.0160978
900.484	0.0160701
900.562	0.0160459
900.640	0.0160546
900.718	0.0160101
900.796	0.0160559
900.874	0.0159962
900.953	0.0160066
901.031	0.0161133
901.109	0.0157612
901.187	0.0159318
901.265	0.0159925
901.343	0.0158923
901.421	0.0161463
901.499	0.0160030
901.578	0.0161617
901.656	0.0160472
901.734	0.0159538
901.812	0.0159371
901.890	0.0161022
901.968	0.0162540
902.046	0.0161163
902.124	0.0160281
902.203	0.0161705
902.281	0.0162117
902.359	0.0160849
902.437	0.0160702
902.515	0.0162553
902.593	0.0163461
902.671	0.0162514
902.749	0.0162079
902.828	0.0161615
902.906	0.0161541
902.984	0.0161875
903.062	0.0161271
903.140	0.0160323
903.218	0.0161465
903.296	0.0161777
903.374	0.0162807
903.453	0.0161591
903.531	0.0160936
903.609	0.0160249
903.687	0.0161869
903.765	0.0162430
903.843	0.0160349
903.921	0.0160650
903.999	0.0161732
904.078	0.0160918
904.156	0.0160046
904.234	0.0161507
904.312	0.0162201
904.390	0.0161935
904.468	0.0161952
904.546	0.0162321
904.624	0.0164619
904.703	0.0162691
904.781	0.0163033
904.859	0.0161850
904.937	0.0163063
905.015	0.0162128
905.093	0.0162792
905.171	0.0162960
905.249	0.0163766
905.328	0.0163871
905.406	0.0163086
905.484	0.0162798
905.562	0.0162817
905.640	0.0163308
905.718	0.0163219
905.796	0.0163103
905.874	0.0163280
905.953	0.0164732
906.031	0.0163136
906.109	0.0162788
906.187	0.0162807
906.265	0.0161915
906.343	0.0162527
906.421	0.0163107
906.499	0.0161903
906.578	0.0161585
906.656	0.0162135
906.734	0.0162813
906.812	0.0162362
906.890	0.0161541
906.968	0.0163300
907.046	0.0161996
907.124	0.0161521
907.203	0.0161057
907.281	0.0160319
907.359	0.0161637
907.437	0.0161795
907.515	0.0161987
907.593	0.0160801
907.671	0.0162388
907.749	0.0160812
907.828	0.0161918
907.906	0.0162087
907.984	0.0162270
908.062	0.0161567
908.140	0.0162383
908.218	0.0162737
908.296	0.0162982
908.374	0.0162664
908.453	0.0161446
908.531	0.0162109
908.609	0.0161679
908.687	0.0162409
908.765	0.0162058
908.843	0.0161801
908.921	0.0161766
908.999	0.0162545
909.078	0.0161108
909.156	0.0161861
909.234	0.0161674
909.312	0.0161490
909.390	0.0162283
909.468	0.0160839
909.546	0.0161431
909.624	0.0160749
909.703	0.0162420
909.781	0.0162409
909.859	0.0161850
909.937	0.0160787
910.015	0.0163591
910.093	0.0163560
910.171	0.0161791
910.249	0.0163062
910.328	0.0162254
910.406	0.0162702
910.484	0.0162530
910.562	0.0161825
910.640	0.0161061
910.718	0.0160535
910.796	0.0161227
910.874	0.0162276
910.953	0.0161927
911.031	0.0162289
911.109	0.0161223
911.187	0.0161802
911.265	0.0161675
911.343	0.0161360
911.421	0.0161642
911.499	0.0162193
911.578	0.0161555
911.656	0.0160849
911.734	0.0160809
911.812	0.0161352
911.890	0.0161255
911.968	0.0160772
912.046	0.0162196
912.124	0.0159772
912.203	0.0161224
912.281	0.0161931
912.359	0.0160262
912.437	0.0160238
912.515	0.0161102
912.593	0.0161465
912.671	0.0160292
912.749	0.0162582
912.828	0.0161410
912.906	0.0162016
912.984	0.0161871
913.062	0.0163663
913.140	0.0161412
913.218	0.0161193
913.296	0.0162566
913.374	0.0163149
913.453	0.0162281
913.531	0.0162006
913.609	0.0162392
913.687	0.0161981
913.765	0.0161763
913.843	0.0162292
913.921	0.0161903
913.999	0.0162470
914.078	0.0160876
914.156	0.0161016
914.234	0.0160148
914.312	0.0161497
914.390	0.0160854
914.468	0.0163421
914.546	0.0160711
914.624	0.0162196
914.703	0.0162410
914.781	0.0161401
914.859	0.0160770
914.937	0.0161240
915.015	0.0161431
915.093	0.0161387
915.171	0.0161218
915.249	0.0161772
915.328	0.0161544
915.406	0.0162032
915.484	0.0161310
915.562	0.0163402
915.640	0.0161721
915.718	0.0161423
915.796	0.0161217
915.874	0.0160650
915.953	0.0158862
916.031	0.0159883
916.109	0.0160879
916.187	0.0161031
916.265	0.0160577
916.343	0.0160981
916.421	0.0160365
916.499	0.0158333
916.578	0.0159448
916.656	0.0160020
916.734	0.0159708
916.812	0.0159922
916.890	0.0159888
916.968	0.0159473
917.046	0.0159087
917.124	0.0159033
917.203	0.0158916
917.281	0.0158665
917.359	0.0158883
917.437	0.0159446
917.515	0.0159445
917.593	0.0159283
917.671	0.0158700
917.749	0.0158080
917.828	0.0159463
917.906	0.0158652
917.984	0.0156802
918.062	0.0159900
918.140	0.0159524
918.218	0.0158708
918.296	0.0159510
918.374	0.0159590
918.453	0.0161206
918.531	0.0159999
918.609	0.0161932
918.687	0.0161139
918.765	0.0159653
918.843	0.0160116
918.921	0.0160226
918.999	0.0160899
919.078	0.0160028
919.156	0.0160073
919.234	0.0160866
919.312	0.0159814
919.390	0.0160558
919.468	0.0160573
919.546	0.0161667
919.624	0.0163414
919.703	0.0161440
919.781	0.0160134
919.859	0.0159988
919.937	0.0160498
