06/10/2022	19:07:01	Ver.	4.1	UNKNOWN
Optical Delay	600.015094	Delta X		0.078125	Sweeps	1	Scan Rate	0/0
Coordinates	Axis 1	NaN	Axis 2	NaN	Axis 3	NaN	Axis 4	NaN	Axis 5	NaN	Axis 6	0.000000
TX Power	0.000000	RX Power	0.000000

600.015	0.0167213
600.093	0.0168022
600.171	0.0168844
600.249	0.0167500
600.328	0.0168564
600.406	0.0167351
600.484	0.0167045
600.562	0.0167970
600.640	0.0166882
600.718	0.0166865
600.796	0.0166715
600.874	0.0168462
600.953	0.0169353
601.031	0.0167560
601.109	0.0166781
601.187	0.0165800
601.265	0.0167234
601.343	0.0166547
601.421	0.0166481
601.499	0.0166840
601.578	0.0165205
601.656	0.0166701
601.734	0.0165546
601.812	0.0166252
601.890	0.0164674
601.968	0.0165418
602.046	0.0165522
602.124	0.0166985
602.203	0.0166592
602.281	0.0165981
602.359	0.0165999
602.437	0.0166125
602.515	0.0165665
602.593	0.0165549
602.671	0.0165163
602.749	0.0163950
602.828	0.0165282
602.906	0.0166257
602.984	0.0164223
603.062	0.0164754
603.140	0.0166307
603.218	0.0165813
603.296	0.0165338
603.374	0.0164110
603.453	0.0164449
603.531	0.0165211
603.609	0.0163901
603.687	0.0164379
603.765	0.0164551
603.843	0.0164171
603.921	0.0164717
603.999	0.0164262
604.078	0.0163570
604.156	0.0163815
604.234	0.0163651
604.312	0.0162399
604.390	0.0162671
604.468	0.0164685
604.546	0.0163235
604.624	0.0163382
604.703	0.0163440
604.781	0.0164322
604.859	0.0163358
604.937	0.0163201
605.015	0.0162736
605.093	0.0162853
605.171	0.0163046
605.249	0.0164503
605.328	0.0163274
605.406	0.0163873
605.484	0.0163692
605.562	0.0162184
605.640	0.0162432
605.718	0.0164229
605.796	0.0164376
605.874	0.0164835
605.953	0.0165668
606.031	0.0164188
606.109	0.0164294
606.187	0.0165045
606.265	0.0164960
606.343	0.0166128
606.421	0.0166310
606.499	0.0165645
606.578	0.0166840
606.656	0.0167503
606.734	0.0165737
606.812	0.0167378
606.890	0.0167261
606.968	0.0166611
607.046	0.0166749
607.124	0.0167892
607.203	0.0167889
607.281	0.0168012
607.359	0.0168286
607.437	0.0168156
607.515	0.0168638
607.593	0.0168381
607.671	0.0168427
607.749	0.0166391
607.828	0.0167942
607.906	0.0167205
607.984	0.0167416
608.062	0.0166586
608.140	0.0168146
608.218	0.0167264
608.296	0.0167224
608.374	0.0166515
608.453	0.0166022
608.531	0.0167769
608.609	0.0166111
608.687	0.0166109
608.765	0.0165532
608.843	0.0166007
608.921	0.0166306
608.999	0.0164780
609.078	0.0165545
609.156	0.0166404
609.234	0.0165025
609.312	0.0165436
609.390	0.0166557
609.468	0.0165848
609.546	0.0165044
609.624	0.0165633
609.703	0.0165120
609.781	0.0164683
609.859	0.0164956
609.937	0.0164565
610.015	0.0163863
610.093	0.0164603
610.171	0.0164468
610.249	0.0164093
610.328	0.0165091
610.406	0.0164349
610.484	0.0163979
610.562	0.0163908
610.640	0.0163844
610.718	0.0162521
610.796	0.0164340
610.874	0.0162517
610.953	0.0163505
611.031	0.0163433
611.109	0.0164510
611.187	0.0164169
611.265	0.0163264
611.343	0.0163054
611.421	0.0163984
611.499	0.0164352
611.578	0.0163258
611.656	0.0163165
611.734	0.0163646
611.812	0.0164964
611.890	0.0164177
611.968	0.0163248
612.046	0.0163104
612.124	0.0163663
612.203	0.0165625
612.281	0.0165128
612.359	0.0164886
612.437	0.0163251
612.515	0.0164032
612.593	0.0164752
612.671	0.0163891
612.749	0.0162924
612.828	0.0163148
612.906	0.0162906
612.984	0.0164144
613.062	0.0162765
613.140	0.0161372
613.218	0.0162309
613.296	0.0161930
613.374	0.0163590
613.453	0.0161363
613.531	0.0159949
613.609	0.0161884
613.687	0.0161136
613.765	0.0160597
613.843	0.0160583
613.921	0.0160521
613.999	0.0159607
614.078	0.0159904
614.156	0.0160744
614.234	0.0161265
614.312	0.0159152
614.390	0.0159327
614.468	0.0159826
614.546	0.0158814
614.624	0.0161082
614.703	0.0158803
614.781	0.0158728
614.859	0.0160063
614.937	0.0159659
615.015	0.0159622
615.093	0.0159289
615.171	0.0160268
615.249	0.0160085
615.328	0.0160255
615.406	0.0159653
615.484	0.0160329
615.562	0.0160783
615.640	0.0161270
615.718	0.0161195
615.796	0.0161150
615.874	0.0161011
615.953	0.0163277
616.031	0.0162711
616.109	0.0163051
616.187	0.0164188
616.265	0.0164099
616.343	0.0164297
616.421	0.0164917
616.499	0.0164095
616.578	0.0164214
616.656	0.0164778
616.734	0.0166301
616.812	0.0164153
616.890	0.0164537
616.968	0.0165729
617.046	0.0166508
617.124	0.0165608
617.203	0.0165679
617.281	0.0165913
617.359	0.0166030
617.437	0.0165829
617.515	0.0165916
617.593	0.0166378
617.671	0.0164747
617.749	0.0165460
617.828	0.0163890
617.906	0.0165275
617.984	0.0164552
618.062	0.0161993
618.140	0.0164817
618.218	0.0163985
618.296	0.0163615
618.374	0.0163586
618.453	0.0164439
618.531	0.0164027
618.609	0.0163841
618.687	0.0162948
618.765	0.0162437
618.843	0.0164130
618.921	0.0164304
618.999	0.0164126
619.078	0.0164344
619.156	0.0165542
619.234	0.0164027
619.312	0.0164646
619.390	0.0165131
619.468	0.0164385
619.546	0.0167062
619.624	0.0166280
619.703	0.0163827
619.781	0.0166380
619.859	0.0166644
619.937	0.0166237
620.015	0.0166077
620.093	0.0166847
620.171	0.0166586
620.249	0.0167445
620.328	0.0167616
620.406	0.0168551
620.484	0.0167872
620.562	0.0166293
620.640	0.0166574
620.718	0.0167481
620.796	0.0166644
620.874	0.0166911
620.953	0.0168559
621.031	0.0166732
621.109	0.0167056
621.187	0.0167281
621.265	0.0167201
621.343	0.0168136
621.421	0.0166493
621.499	0.0167127
621.578	0.0168259
621.656	0.0168919
621.734	0.0167711
621.812	0.0169084
621.890	0.0169166
621.968	0.0166660
622.046	0.0168175
622.124	0.0168453
622.203	0.0168250
622.281	0.0169582
622.359	0.0169511
622.437	0.0167809
622.515	0.0167995
622.593	0.0168549
622.671	0.0168911
622.749	0.0167384
622.828	0.0166780
622.906	0.0166219
622.984	0.0166134
623.062	0.0166579
623.140	0.0167422
623.218	0.0168062
623.296	0.0166625
623.374	0.0166771
623.453	0.0166400
623.531	0.0165449
623.609	0.0166746
623.687	0.0165344
623.765	0.0164383
623.843	0.0165352
623.921	0.0166262
623.999	0.0166417
624.078	0.0165673
624.156	0.0165267
624.234	0.0165894
624.312	0.0165130
624.390	0.0165955
624.468	0.0166635
624.546	0.0165273
624.624	0.0166781
624.703	0.0166338
624.781	0.0164861
624.859	0.0164717
624.937	0.0165595
625.015	0.0165978
625.093	0.0164246
625.171	0.0167058
625.249	0.0165075
625.328	0.0164067
625.406	0.0165763
625.484	0.0165573
625.562	0.0166415
625.640	0.0166876
625.718	0.0165894
625.796	0.0165660
625.874	0.0164922
625.953	0.0166063
626.031	0.0166555
626.109	0.0167275
626.187	0.0165437
626.265	0.0165713
626.343	0.0165928
626.421	0.0165520
626.499	0.0167106
626.578	0.0165693
626.656	0.0165260
626.734	0.0168026
626.812	0.0167268
626.890	0.0166099
626.968	0.0166740
627.046	0.0165962
627.124	0.0165968
627.203	0.0166559
627.281	0.0166593
627.359	0.0166283
627.437	0.0167627
627.515	0.0167492
627.593	0.0166090
627.671	0.0166350
627.749	0.0166571
627.828	0.0167098
627.906	0.0165199
627.984	0.0165203
628.062	0.0165583
628.140	0.0166048
628.218	0.0163894
628.296	0.0164535
628.374	0.0165755
628.453	0.0165589
628.531	0.0164329
628.609	0.0165300
628.687	0.0164452
628.765	0.0164483
628.843	0.0166227
628.921	0.0165454
628.999	0.0163237
629.078	0.0163962
629.156	0.0164010
629.234	0.0163153
629.312	0.0164413
629.390	0.0164618
629.468	0.0163828
629.546	0.0164693
629.624	0.0163397
629.703	0.0163674
629.781	0.0162549
629.859	0.0162994
629.937	0.0163905
630.015	0.0163322
630.093	0.0163969
630.171	0.0163952
630.249	0.0163091
630.328	0.0163863
630.406	0.0164437
630.484	0.0164601
630.562	0.0163958
630.640	0.0164898
630.718	0.0163589
630.796	0.0163869
630.874	0.0163275
630.953	0.0163754
631.031	0.0162917
631.109	0.0164538
631.187	0.0163990
631.265	0.0163920
631.343	0.0163651
631.421	0.0164230
631.499	0.0165263
631.578	0.0162687
631.656	0.0163226
631.734	0.0164428
631.812	0.0164196
631.890	0.0165173
631.968	0.0164310
632.046	0.0165193
632.124	0.0163926
632.203	0.0163663
632.281	0.0163407
632.359	0.0163744
632.437	0.0164396
632.515	0.0162019
632.593	0.0163046
632.671	0.0164684
632.749	0.0165770
632.828	0.0163868
632.906	0.0164709
632.984	0.0162878
633.062	0.0162965
633.140	0.0162652
633.218	0.0163241
633.296	0.0163799
633.374	0.0163324
633.453	0.0162977
633.531	0.0163206
633.609	0.0163468
633.687	0.0161787
633.765	0.0163387
633.843	0.0161890
633.921	0.0162923
633.999	0.0163225
634.078	0.0163156
634.156	0.0162907
634.234	0.0161353
634.312	0.0162589
634.390	0.0161970
634.468	0.0161153
634.546	0.0163335
634.624	0.0162897
634.703	0.0162247
634.781	0.0161806
634.859	0.0161875
634.937	0.0161809
635.015	0.0162890
635.093	0.0162546
635.171	0.0161142
635.249	0.0161379
635.328	0.0162730
635.406	0.0162774
635.484	0.0162317
635.562	0.0163654
635.640	0.0163727
635.718	0.0162984
635.796	0.0163345
635.874	0.0161702
635.953	0.0162823
636.031	0.0163779
636.109	0.0164048
636.187	0.0162269
636.265	0.0163641
636.343	0.0163208
636.421	0.0162794
636.499	0.0163381
636.578	0.0161320
636.656	0.0161613
636.734	0.0162782
636.812	0.0164336
636.890	0.0161404
636.968	0.0161852
637.046	0.0163708
637.124	0.0163417
637.203	0.0164217
637.281	0.0162628
637.359	0.0163490
637.437	0.0161696
637.515	0.0163906
637.593	0.0162730
637.671	0.0162996
637.749	0.0162838
637.828	0.0163433
637.906	0.0164530
637.984	0.0165116
638.062	0.0163443
638.140	0.0162970
638.218	0.0162558
638.296	0.0161902
638.374	0.0164453
638.453	0.0165138
638.531	0.0165399
638.609	0.0163252
638.687	0.0163705
638.765	0.0163714
638.843	0.0164072
638.921	0.0163065
638.999	0.0164130
639.078	0.0164191
639.156	0.0163591
639.234	0.0163036
639.312	0.0162051
639.390	0.0164217
639.468	0.0163456
639.546	0.0164152
639.624	0.0164540
639.703	0.0163082
639.781	0.0163089
639.859	0.0163850
639.937	0.0163731
640.015	0.0163113
640.093	0.0163937
640.171	0.0164198
640.249	0.0164746
640.328	0.0165042
640.406	0.0164058
640.484	0.0165474
640.562	0.0164695
640.640	0.0164874
640.718	0.0166976
640.796	0.0166705
640.874	0.0166157
640.953	0.0165358
641.031	0.0165607
641.109	0.0166375
641.187	0.0165860
641.265	0.0168797
641.343	0.0167406
641.421	0.0165442
641.499	0.0166472
641.578	0.0166383
641.656	0.0168622
641.734	0.0167805
641.812	0.0168100
641.890	0.0167937
641.968	0.0166916
642.046	0.0166720
642.124	0.0167252
642.203	0.0168262
642.281	0.0167158
642.359	0.0167400
642.437	0.0167364
642.515	0.0165930
642.593	0.0166786
642.671	0.0167219
642.749	0.0168394
642.828	0.0169019
642.906	0.0166738
642.984	0.0166730
643.062	0.0168290
643.140	0.0168715
643.218	0.0167836
643.296	0.0166528
643.374	0.0168492
643.453	0.0167443
643.531	0.0165601
643.609	0.0166366
643.687	0.0167487
643.765	0.0168240
643.843	0.0168147
643.921	0.0167583
643.999	0.0167149
644.078	0.0166419
644.156	0.0168076
644.234	0.0168401
644.312	0.0168239
644.390	0.0167335
644.468	0.0167332
644.546	0.0167152
644.624	0.0166981
644.703	0.0166726
644.781	0.0166798
644.859	0.0167848
644.937	0.0168174
645.015	0.0167316
645.093	0.0166138
645.171	0.0167880
645.249	0.0166952
645.328	0.0166233
645.406	0.0166058
645.484	0.0166459
645.562	0.0167645
645.640	0.0166028
645.718	0.0165913
645.796	0.0165109
645.874	0.0165494
645.953	0.0166367
646.031	0.0165759
646.109	0.0164717
646.187	0.0164588
646.265	0.0166475
646.343	0.0164401
646.421	0.0165540
646.499	0.0164330
646.578	0.0164445
646.656	0.0163950
646.734	0.0164382
646.812	0.0164883
646.890	0.0164001
646.968	0.0165089
647.046	0.0164174
647.124	0.0164453
647.203	0.0163764
647.281	0.0163562
647.359	0.0163574
647.437	0.0163827
647.515	0.0163713
647.593	0.0163969
647.671	0.0164491
647.749	0.0163159
647.828	0.0163332
647.906	0.0163139
647.984	0.0163839
648.062	0.0164366
648.140	0.0164142
648.218	0.0163360
648.296	0.0162556
648.374	0.0163943
648.453	0.0163564
648.531	0.0164435
648.609	0.0165278
648.687	0.0164327
648.765	0.0164075
648.843	0.0164832
648.921	0.0164509
648.999	0.0163834
649.078	0.0165430
649.156	0.0164884
649.234	0.0163698
649.312	0.0163538
649.390	0.0164271
649.468	0.0164599
649.546	0.0165262
649.624	0.0165470
649.703	0.0163199
649.781	0.0164580
649.859	0.0164985
649.937	0.0164172
650.015	0.0163736
650.093	0.0164582
650.171	0.0164761
650.249	0.0165086
650.328	0.0165429
650.406	0.0164772
650.484	0.0163830
650.562	0.0164360
650.640	0.0165421
650.718	0.0162813
650.796	0.0165726
650.874	0.0164005
650.953	0.0164413
651.031	0.0164234
651.109	0.0163912
651.187	0.0164417
651.265	0.0164095
651.343	0.0163560
651.421	0.0163666
651.499	0.0164655
651.578	0.0164138
651.656	0.0163848
651.734	0.0162843
651.812	0.0164798
651.890	0.0165231
651.968	0.0162347
652.046	0.0163862
652.124	0.0163792
652.203	0.0162983
652.281	0.0163477
652.359	0.0164929
652.437	0.0165516
652.515	0.0164537
652.593	0.0163956
652.671	0.0163814
652.749	0.0164798
652.828	0.0163799
652.906	0.0164223
652.984	0.0163994
653.062	0.0163640
653.140	0.0162524
653.218	0.0163132
653.296	0.0163774
653.374	0.0163563
653.453	0.0162844
653.531	0.0162829
653.609	0.0162376
653.687	0.0162427
653.765	0.0162894
653.843	0.0163593
653.921	0.0163327
653.999	0.0163888
654.078	0.0162360
654.156	0.0161640
654.234	0.0162690
654.312	0.0161363
654.390	0.0162830
654.468	0.0163586
654.546	0.0162987
654.624	0.0163134
654.703	0.0161336
654.781	0.0162658
654.859	0.0163551
654.937	0.0162779
655.015	0.0164092
655.093	0.0162492
655.171	0.0163139
655.249	0.0164357
655.328	0.0163141
655.406	0.0163023
655.484	0.0163591
655.562	0.0164736
655.640	0.0163532
655.718	0.0165034
655.796	0.0163274
655.874	0.0163866
655.953	0.0163550
656.031	0.0163317
656.109	0.0162313
656.187	0.0164091
656.265	0.0165120
656.343	0.0162759
656.421	0.0163586
656.499	0.0163759
656.578	0.0162859
656.656	0.0163512
656.734	0.0164241
656.812	0.0163509
656.890	0.0163323
656.968	0.0163733
657.046	0.0164490
657.124	0.0165650
657.203	0.0163358
657.281	0.0163042
657.359	0.0163778
657.437	0.0163457
657.515	0.0165874
657.593	0.0163972
657.671	0.0163239
657.749	0.0164639
657.828	0.0165582
657.906	0.0164622
657.984	0.0164866
658.062	0.0164703
658.140	0.0165426
658.218	0.0163896
658.296	0.0164291
658.374	0.0165128
658.453	0.0164834
658.531	0.0163072
658.609	0.0164264
658.687	0.0164052
658.765	0.0162826
658.843	0.0165325
658.921	0.0164030
658.999	0.0163058
659.078	0.0164125
659.156	0.0164507
659.234	0.0163348
659.312	0.0164113
659.390	0.0165827
659.468	0.0164381
659.546	0.0165163
659.624	0.0164224
659.703	0.0163677
659.781	0.0165745
659.859	0.0165834
659.937	0.0164605
660.015	0.0164676
660.093	0.0164561
660.171	0.0163766
660.249	0.0164387
660.328	0.0164779
660.406	0.0165601
660.484	0.0163958
660.562	0.0164843
660.640	0.0164598
660.718	0.0165226
660.796	0.0165571
660.874	0.0166135
660.953	0.0164088
661.031	0.0164274
661.109	0.0165030
661.187	0.0165742
661.265	0.0164122
661.343	0.0164467
661.421	0.0164482
661.499	0.0165160
661.578	0.0165904
661.656	0.0165767
661.734	0.0165095
661.812	0.0164591
661.890	0.0165433
661.968	0.0163316
662.046	0.0165814
662.124	0.0165526
662.203	0.0165862
662.281	0.0164291
662.359	0.0163098
662.437	0.0165093
662.515	0.0164707
662.593	0.0165575
662.671	0.0164651
662.749	0.0163555
662.828	0.0163900
662.906	0.0164633
662.984	0.0165005
663.062	0.0164140
663.140	0.0165056
663.218	0.0164892
663.296	0.0164195
663.374	0.0164585
663.453	0.0165685
663.531	0.0166102
663.609	0.0165522
663.687	0.0163998
663.765	0.0164524
663.843	0.0165601
663.921	0.0165554
663.999	0.0164449
664.078	0.0164034
664.156	0.0165325
664.234	0.0165969
664.312	0.0165157
664.390	0.0165231
664.468	0.0165983
664.546	0.0165044
664.624	0.0163739
664.703	0.0165198
664.781	0.0165955
664.859	0.0165591
664.937	0.0164732
665.015	0.0164637
665.093	0.0166560
665.171	0.0165670
665.249	0.0164037
665.328	0.0165515
665.406	0.0166275
665.484	0.0165976
665.562	0.0166193
665.640	0.0165536
665.718	0.0164329
665.796	0.0165392
665.874	0.0166296
665.953	0.0165388
666.031	0.0164551
666.109	0.0166766
666.187	0.0166084
666.265	0.0166103
666.343	0.0165467
666.421	0.0165945
666.499	0.0164767
666.578	0.0166963
666.656	0.0166260
666.734	0.0166485
666.812	0.0166732
666.890	0.0166127
666.968	0.0166448
667.046	0.0166323
667.124	0.0165646
667.203	0.0166329
667.281	0.0166209
667.359	0.0165670
667.437	0.0166535
667.515	0.0165795
667.593	0.0167366
667.671	0.0166193
667.749	0.0166170
667.828	0.0166910
667.906	0.0167141
667.984	0.0167484
668.062	0.0167020
668.140	0.0166165
668.218	0.0167162
668.296	0.0167284
668.374	0.0165784
668.453	0.0165363
668.531	0.0165398
668.609	0.0166769
668.687	0.0165982
668.765	0.0165437
668.843	0.0165369
668.921	0.0165514
668.999	0.0163454
669.078	0.0164307
669.156	0.0166062
669.234	0.0165886
669.312	0.0167046
669.390	0.0164948
669.468	0.0164079
669.546	0.0165446
669.624	0.0164609
669.703	0.0164240
669.781	0.0163724
669.859	0.0163670
669.937	0.0163957
670.015	0.0164919
670.093	0.0164364
670.171	0.0163884
670.249	0.0165542
670.328	0.0164354
670.406	0.0163880
670.484	0.0164629
670.562	0.0165506
670.640	0.0165964
670.718	0.0165177
670.796	0.0163196
670.874	0.0164024
670.953	0.0164928
671.031	0.0165469
671.109	0.0165257
671.187	0.0165790
671.265	0.0164970
671.343	0.0163326
671.421	0.0164262
671.499	0.0165530
671.578	0.0164809
671.656	0.0164622
671.734	0.0164172
671.812	0.0163879
671.890	0.0163602
671.968	0.0163787
672.046	0.0164764
672.124	0.0163386
672.203	0.0164626
672.281	0.0163747
672.359	0.0164094
672.437	0.0163715
672.515	0.0162961
672.593	0.0164050
672.671	0.0163795
672.749	0.0164615
672.828	0.0164030
672.906	0.0162244
672.984	0.0162571
673.062	0.0163158
673.140	0.0163595
673.218	0.0162657
673.296	0.0162703
673.374	0.0164112
673.453	0.0163337
673.531	0.0163152
673.609	0.0162823
673.687	0.0163013
673.765	0.0163729
673.843	0.0164019
673.921	0.0163773
673.999	0.0162489
674.078	0.0162956
674.156	0.0163040
674.234	0.0163462
674.312	0.0163638
674.390	0.0162663
674.468	0.0163239
674.546	0.0162736
674.624	0.0162079
674.703	0.0163198
674.781	0.0164261
674.859	0.0163398
674.937	0.0161423
675.015	0.0162476
675.093	0.0163027
675.171	0.0163638
675.249	0.0163296
675.328	0.0162973
675.406	0.0162865
675.484	0.0163539
675.562	0.0163284
675.640	0.0162521
675.718	0.0163059
675.796	0.0163364
675.874	0.0162362
675.953	0.0164238
676.031	0.0164674
676.109	0.0162750
676.187	0.0162121
676.265	0.0163703
676.343	0.0162772
676.421	0.0162917
676.499	0.0162437
676.578	0.0163403
676.656	0.0163596
676.734	0.0165925
676.812	0.0163670
676.890	0.0162388
676.968	0.0164498
677.046	0.0163669
677.124	0.0164598
677.203	0.0164326
677.281	0.0163735
677.359	0.0163842
677.437	0.0165237
677.515	0.0164022
677.593	0.0164413
677.671	0.0163448
677.749	0.0163102
677.828	0.0163935
677.906	0.0163815
677.984	0.0163674
678.062	0.0163801
678.140	0.0164913
678.218	0.0163746
678.296	0.0164538
678.374	0.0165440
678.453	0.0163593
678.531	0.0163335
678.609	0.0164259
678.687	0.0165177
678.765	0.0164983
678.843	0.0163865
678.921	0.0163184
678.999	0.0163440
679.078	0.0165115
679.156	0.0165278
679.234	0.0164478
679.312	0.0165327
679.390	0.0164874
679.468	0.0164332
679.546	0.0164761
679.624	0.0165137
679.703	0.0164869
679.781	0.0164755
679.859	0.0165218
679.937	0.0165787
680.015	0.0164958
680.093	0.0166132
680.171	0.0166831
680.249	0.0165776
680.328	0.0166061
680.406	0.0164396
680.484	0.0166203
680.562	0.0164358
680.640	0.0165605
680.718	0.0166008
680.796	0.0166036
680.874	0.0166055
680.953	0.0164938
681.031	0.0166114
681.109	0.0166831
681.187	0.0165387
681.265	0.0165180
681.343	0.0165416
681.421	0.0165311
681.499	0.0165130
681.578	0.0166553
681.656	0.0166167
681.734	0.0166542
681.812	0.0164784
681.890	0.0166277
681.968	0.0166608
682.046	0.0165144
682.124	0.0166904
682.203	0.0167301
682.281	0.0165948
682.359	0.0165793
682.437	0.0165659
682.515	0.0166308
682.593	0.0167278
682.671	0.0166891
682.749	0.0166284
682.828	0.0165789
682.906	0.0166570
682.984	0.0167554
683.062	0.0167807
683.140	0.0167034
683.218	0.0166584
683.296	0.0165334
683.374	0.0166470
683.453	0.0166567
683.531	0.0166711
683.609	0.0165298
683.687	0.0165823
683.765	0.0166428
683.843	0.0166582
683.921	0.0165789
683.999	0.0164540
684.078	0.0165541
684.156	0.0165112
684.234	0.0163866
684.312	0.0164171
684.390	0.0164941
684.468	0.0164137
684.546	0.0165556
684.624	0.0164103
684.703	0.0164539
684.781	0.0164303
684.859	0.0164569
684.937	0.0164457
685.015	0.0164449
685.093	0.0164920
685.171	0.0163810
685.249	0.0162909
685.328	0.0164175
685.406	0.0165462
685.484	0.0163596
685.562	0.0163578
685.640	0.0163725
685.718	0.0163548
685.796	0.0163939
685.874	0.0162395
685.953	0.0163280
686.031	0.0163713
686.109	0.0163500
686.187	0.0161805
686.265	0.0162898
686.343	0.0163581
686.421	0.0163026
686.499	0.0163323
686.578	0.0163474
686.656	0.0163204
686.734	0.0162551
686.812	0.0163818
686.890	0.0162179
686.968	0.0163103
687.046	0.0164455
687.124	0.0163096
687.203	0.0164040
687.281	0.0163837
687.359	0.0164083
687.437	0.0162627
687.515	0.0163638
687.593	0.0162692
687.671	0.0163220
687.749	0.0164599
687.828	0.0163966
687.906	0.0163096
687.984	0.0163149
688.062	0.0162563
688.140	0.0163470
688.218	0.0163083
688.296	0.0163139
688.374	0.0163436
688.453	0.0163660
688.531	0.0162910
688.609	0.0163572
688.687	0.0162809
688.765	0.0163533
688.843	0.0163139
688.921	0.0163554
688.999	0.0163964
689.078	0.0164906
689.156	0.0163670
689.234	0.0163405
689.312	0.0164516
689.390	0.0163586
689.468	0.0164235
689.546	0.0163156
689.624	0.0163001
689.703	0.0162842
689.781	0.0163968
689.859	0.0163464
689.937	0.0163414
690.015	0.0164150
690.093	0.0163493
690.171	0.0164100
690.249	0.0163747
690.328	0.0163715
690.406	0.0163520
690.484	0.0162959
690.562	0.0162937
690.640	0.0163215
690.718	0.0163827
690.796	0.0163365
690.874	0.0163005
690.953	0.0163390
691.031	0.0163197
691.109	0.0164713
691.187	0.0163839
691.265	0.0163343
691.343	0.0164054
691.421	0.0162843
691.499	0.0163983
691.578	0.0163518
691.656	0.0162608
691.734	0.0163199
691.812	0.0163695
691.890	0.0163181
691.968	0.0162955
692.046	0.0163902
692.124	0.0163239
692.203	0.0163883
692.281	0.0164214
692.359	0.0163794
692.437	0.0165184
692.515	0.0163129
692.593	0.0164594
692.671	0.0164193
692.749	0.0163426
692.828	0.0163208
692.906	0.0162631
692.984	0.0164094
693.062	0.0163801
693.140	0.0163678
693.218	0.0163621
693.296	0.0163901
693.374	0.0163697
693.453	0.0163045
693.531	0.0163414
693.609	0.0162608
693.687	0.0163635
693.765	0.0163478
693.843	0.0165008
693.921	0.0164836
693.999	0.0162681
694.078	0.0162959
694.156	0.0164381
694.234	0.0164156
694.312	0.0164835
694.390	0.0164429
694.468	0.0163975
694.546	0.0163522
694.624	0.0163389
694.703	0.0164136
694.781	0.0162641
694.859	0.0165063
694.937	0.0163664
695.015	0.0164340
695.093	0.0163604
695.171	0.0163516
695.249	0.0164374
695.328	0.0164149
695.406	0.0164490
695.484	0.0164451
695.562	0.0164404
695.640	0.0164013
695.718	0.0164192
695.796	0.0163692
695.874	0.0165026
695.953	0.0163811
696.031	0.0162437
696.109	0.0165311
696.187	0.0164907
696.265	0.0166296
696.343	0.0164796
696.421	0.0164988
696.499	0.0164666
696.578	0.0163799
696.656	0.0164973
696.734	0.0164170
696.812	0.0164596
696.890	0.0165723
696.968	0.0165339
697.046	0.0167065
697.124	0.0166730
697.203	0.0165624
697.281	0.0163775
697.359	0.0164304
697.437	0.0167409
697.515	0.0167195
697.593	0.0166901
697.671	0.0165170
697.749	0.0165205
697.828	0.0166249
697.906	0.0166248
697.984	0.0167091
698.062	0.0166852
698.140	0.0166531
698.218	0.0165505
698.296	0.0166075
698.374	0.0165642
698.453	0.0165341
698.531	0.0167506
698.609	0.0165739
698.687	0.0165216
698.765	0.0165680
698.843	0.0166061
698.921	0.0164832
698.999	0.0165597
699.078	0.0166782
699.156	0.0165773
699.234	0.0164897
699.312	0.0164651
699.390	0.0166420
699.468	0.0166152
699.546	0.0166188
699.624	0.0165875
699.703	0.0165167
699.781	0.0164922
699.859	0.0166110
699.937	0.0165646
700.015	0.0165495
700.093	0.0166000
700.171	0.0166021
700.249	0.0164780
700.328	0.0164981
700.406	0.0165040
700.484	0.0167389
700.562	0.0165113
700.640	0.0165376
700.718	0.0166420
700.796	0.0165633
700.874	0.0166422
700.953	0.0166499
701.031	0.0166032
701.109	0.0164977
701.187	0.0165321
701.265	0.0165807
701.343	0.0166603
701.421	0.0167253
701.499	0.0165152
701.578	0.0166499
701.656	0.0166369
701.734	0.0166146
701.812	0.0165139
701.890	0.0167048
701.968	0.0165658
702.046	0.0165630
702.124	0.0165471
702.203	0.0166036
702.281	0.0165721
702.359	0.0165074
702.437	0.0165157
702.515	0.0164592
702.593	0.0166888
702.671	0.0166014
702.749	0.0165247
702.828	0.0164201
702.906	0.0165050
702.984	0.0166547
703.062	0.0165823
703.140	0.0164706
703.218	0.0166210
703.296	0.0166019
703.374	0.0166859
703.453	0.0165920
703.531	0.0164491
703.609	0.0165500
703.687	0.0165409
703.765	0.0165800
703.843	0.0165003
703.921	0.0166266
703.999	0.0165098
704.078	0.0165092
704.156	0.0165470
704.234	0.0166481
704.312	0.0165667
704.390	0.0165442
704.468	0.0166376
704.546	0.0166737
704.624	0.0166507
704.703	0.0166387
704.781	0.0166079
704.859	0.0167785
704.937	0.0166681
705.015	0.0166081
705.093	0.0165813
705.171	0.0166412
705.249	0.0166860
705.328	0.0165628
705.406	0.0165301
705.484	0.0166006
705.562	0.0166045
705.640	0.0166760
705.718	0.0165986
705.796	0.0166739
705.874	0.0165313
705.953	0.0165776
706.031	0.0166637
706.109	0.0165762
706.187	0.0165777
706.265	0.0166622
706.343	0.0164423
706.421	0.0166115
706.499	0.0166676
706.578	0.0166284
706.656	0.0166747
706.734	0.0166087
706.812	0.0165533
706.890	0.0165387
706.968	0.0166370
707.046	0.0166402
707.124	0.0165616
707.203	0.0164153
707.281	0.0165772
707.359	0.0166112
707.437	0.0166145
707.515	0.0165684
707.593	0.0165866
707.671	0.0166533
707.749	0.0164565
707.828	0.0164223
707.906	0.0165208
707.984	0.0164743
708.062	0.0163891
708.140	0.0163280
708.218	0.0165462
708.296	0.0165496
708.374	0.0165381
708.453	0.0164065
708.531	0.0163607
708.609	0.0163898
708.687	0.0164926
708.765	0.0163145
708.843	0.0163528
708.921	0.0165245
708.999	0.0164297
709.078	0.0163165
709.156	0.0165067
709.234	0.0165150
709.312	0.0164965
709.390	0.0164693
709.468	0.0163087
709.546	0.0163338
709.624	0.0163342
709.703	0.0164381
709.781	0.0164323
709.859	0.0164343
709.937	0.0163834
710.015	0.0163512
710.093	0.0163778
710.171	0.0162370
710.249	0.0163567
710.328	0.0163156
710.406	0.0161837
710.484	0.0163587
710.562	0.0164471
710.640	0.0162737
710.718	0.0163148
710.796	0.0162531
710.874	0.0161897
710.953	0.0162879
711.031	0.0161674
711.109	0.0163029
711.187	0.0161814
711.265	0.0162830
711.343	0.0162924
711.421	0.0161430
711.499	0.0162663
711.578	0.0162989
711.656	0.0163438
711.734	0.0162760
711.812	0.0162746
711.890	0.0163493
711.968	0.0163197
712.046	0.0163374
712.124	0.0162656
712.203	0.0162280
712.281	0.0163860
712.359	0.0162134
712.437	0.0162125
712.515	0.0163870
712.593	0.0164449
712.671	0.0163685
712.749	0.0162035
712.828	0.0162540
712.906	0.0162285
712.984	0.0163976
713.062	0.0163078
713.140	0.0164049
713.218	0.0164061
713.296	0.0163107
713.374	0.0164391
713.453	0.0163403
713.531	0.0162684
713.609	0.0162570
713.687	0.0163506
713.765	0.0162163
713.843	0.0163416
713.921	0.0163790
713.999	0.0163880
714.078	0.0162255
714.156	0.0163419
714.234	0.0163780
714.312	0.0164511
714.390	0.0164419
714.468	0.0163993
714.546	0.0165190
714.624	0.0164385
714.703	0.0164139
714.781	0.0163475
714.859	0.0164964
714.937	0.0165067
715.015	0.0164955
715.093	0.0163561
715.171	0.0163403
715.249	0.0164771
715.328	0.0164706
715.406	0.0162653
715.484	0.0162730
715.562	0.0163332
715.640	0.0163280
715.718	0.0163263
715.796	0.0163857
715.874	0.0163490
715.953	0.0161990
716.031	0.0162567
716.109	0.0162913
716.187	0.0162024
716.265	0.0162552
716.343	0.0163254
716.421	0.0163079
716.499	0.0163921
716.578	0.0164178
716.656	0.0164796
716.734	0.0162947
716.812	0.0163444
716.890	0.0164309
716.968	0.0165832
717.046	0.0163969
717.124	0.0166238
717.203	0.0164618
717.281	0.0163448
717.359	0.0163990
717.437	0.0165855
717.515	0.0164716
717.593	0.0166162
717.671	0.0165723
717.749	0.0165514
717.828	0.0164168
717.906	0.0164346
717.984	0.0165535
718.062	0.0164935
718.140	0.0165254
718.218	0.0165762
718.296	0.0164549
718.374	0.0164545
718.453	0.0165466
718.531	0.0165009
718.609	0.0165977
718.687	0.0165582
718.765	0.0165255
718.843	0.0165630
718.921	0.0165604
718.999	0.0166495
719.078	0.0165799
719.156	0.0166244
719.234	0.0166143
719.312	0.0168173
719.390	0.0165969
719.468	0.0165578
719.546	0.0167696
719.624	0.0167781
719.703	0.0165251
719.781	0.0165942
719.859	0.0165724
719.937	0.0166577
720.015	0.0166320
720.093	0.0166518
720.171	0.0165604
720.249	0.0165116
720.328	0.0167057
720.406	0.0166846
720.484	0.0164235
720.562	0.0166673
720.640	0.0165074
720.718	0.0165524
720.796	0.0166163
720.874	0.0166626
720.953	0.0165532
721.031	0.0165034
721.109	0.0164829
721.187	0.0165675
721.265	0.0165808
721.343	0.0164494
721.421	0.0164779
721.499	0.0164996
721.578	0.0164975
721.656	0.0165359
721.734	0.0165623
721.812	0.0167233
721.890	0.0165012
721.968	0.0164074
722.046	0.0165772
722.124	0.0165611
722.203	0.0167159
722.281	0.0164980
722.359	0.0165369
722.437	0.0165559
722.515	0.0166845
722.593	0.0166604
722.671	0.0166142
722.749	0.0165682
722.828	0.0165881
722.906	0.0166679
722.984	0.0166316
723.062	0.0167545
723.140	0.0166763
723.218	0.0165243
723.296	0.0165183
723.374	0.0166101
723.453	0.0167726
723.531	0.0166177
723.609	0.0166143
723.687	0.0165333
723.765	0.0165894
723.843	0.0166489
723.921	0.0166753
723.999	0.0166246
724.078	0.0165513
724.156	0.0165834
724.234	0.0166580
724.312	0.0166245
724.390	0.0167461
724.468	0.0165989
724.546	0.0166160
724.624	0.0166253
724.703	0.0167432
724.781	0.0166693
724.859	0.0164993
724.937	0.0165427
725.015	0.0165780
725.093	0.0166621
725.171	0.0166690
725.249	0.0165742
725.328	0.0166415
725.406	0.0166605
725.484	0.0167233
725.562	0.0165541
725.640	0.0165112
725.718	0.0166499
725.796	0.0165680
725.874	0.0164731
725.953	0.0166097
726.031	0.0166900
726.109	0.0167121
726.187	0.0167163
726.265	0.0167146
726.343	0.0167274
726.421	0.0166508
726.499	0.0166610
726.578	0.0166286
726.656	0.0167271
726.734	0.0165724
726.812	0.0165945
726.890	0.0166699
726.968	0.0166824
727.046	0.0167407
727.124	0.0167005
727.203	0.0166463
727.281	0.0165340
727.359	0.0165947
727.437	0.0167117
727.515	0.0167491
727.593	0.0166984
727.671	0.0167274
727.749	0.0165549
727.828	0.0166512
727.906	0.0166962
727.984	0.0166785
728.062	0.0166100
728.140	0.0165103
728.218	0.0166151
728.296	0.0167674
728.374	0.0165633
728.453	0.0165263
728.531	0.0164749
728.609	0.0165697
728.687	0.0165552
728.765	0.0164636
728.843	0.0164639
728.921	0.0165736
728.999	0.0165816
729.078	0.0165247
729.156	0.0164296
729.234	0.0166326
729.312	0.0165018
729.390	0.0164614
729.468	0.0166837
729.546	0.0165616
729.624	0.0166043
729.703	0.0164986
729.781	0.0165652
729.859	0.0166028
729.937	0.0166442
730.015	0.0164893
730.093	0.0165866
730.171	0.0167484
730.249	0.0166211
730.328	0.0165767
730.406	0.0165787
730.484	0.0166177
730.562	0.0165742
730.640	0.0166026
730.718	0.0167987
730.796	0.0167036
730.874	0.0165978
730.953	0.0165580
731.031	0.0165607
731.109	0.0166660
731.187	0.0167136
731.265	0.0166073
731.343	0.0165856
731.421	0.0166621
731.499	0.0165690
731.578	0.0165949
731.656	0.0167442
731.734	0.0165872
731.812	0.0166193
731.890	0.0163900
731.968	0.0164912
732.046	0.0165304
732.124	0.0166220
732.203	0.0165845
732.281	0.0165252
732.359	0.0165086
732.437	0.0164609
732.515	0.0165096
732.593	0.0163785
732.671	0.0165361
732.749	0.0164727
732.828	0.0164102
732.906	0.0164567
732.984	0.0165129
733.062	0.0164886
733.140	0.0165476
733.218	0.0164667
733.296	0.0164465
733.374	0.0164826
733.453	0.0165964
733.531	0.0164769
733.609	0.0165626
733.687	0.0164764
733.765	0.0166113
733.843	0.0164395
733.921	0.0163873
733.999	0.0164248
734.078	0.0165312
734.156	0.0164704
734.234	0.0163575
734.312	0.0165514
734.390	0.0164996
734.468	0.0164944
734.546	0.0162902
734.624	0.0163529
734.703	0.0164523
734.781	0.0164876
734.859	0.0165393
734.937	0.0164007
735.015	0.0161738
735.093	0.0162891
735.171	0.0163792
735.249	0.0161852
735.328	0.0161432
735.406	0.0163180
735.484	0.0163269
735.562	0.0162320
735.640	0.0162543
735.718	0.0162668
735.796	0.0161331
735.874	0.0161874
735.953	0.0161794
736.031	0.0163341
736.109	0.0162435
736.187	0.0161776
736.265	0.0162919
736.343	0.0162438
736.421	0.0163645
736.499	0.0162527
736.578	0.0163301
736.656	0.0162814
736.734	0.0163498
736.812	0.0163674
736.890	0.0162439
736.968	0.0161186
737.046	0.0162881
737.124	0.0163058
737.203	0.0163284
737.281	0.0162984
737.359	0.0163926
737.437	0.0162453
737.515	0.0163918
737.593	0.0163066
737.671	0.0163574
737.749	0.0164855
737.828	0.0165514
737.906	0.0165273
737.984	0.0165157
738.062	0.0164720
738.140	0.0165647
738.218	0.0165994
738.296	0.0164355
738.374	0.0165638
738.453	0.0166940
738.531	0.0166367
738.609	0.0165088
738.687	0.0165490
738.765	0.0166005
738.843	0.0163933
738.921	0.0165950
738.999	0.0165662
739.078	0.0165204
739.156	0.0165556
739.234	0.0165821
739.312	0.0165021
739.390	0.0165710
739.468	0.0165891
739.546	0.0165168
739.624	0.0164530
739.703	0.0165855
739.781	0.0165549
739.859	0.0165409
739.937	0.0164065
740.015	0.0164631
740.093	0.0164386
740.171	0.0166412
740.249	0.0166171
740.328	0.0164759
740.406	0.0164278
740.484	0.0165079
740.562	0.0165107
740.640	0.0165508
740.718	0.0164164
740.796	0.0164633
740.874	0.0165487
740.953	0.0165569
741.031	0.0164253
741.109	0.0164554
741.187	0.0165239
741.265	0.0165690
741.343	0.0162964
741.421	0.0164674
741.499	0.0165342
741.578	0.0163741
741.656	0.0165073
741.734	0.0165455
741.812	0.0165285
741.890	0.0166082
741.968	0.0164683
742.046	0.0165285
742.124	0.0166983
742.203	0.0166032
742.281	0.0166305
742.359	0.0165094
742.437	0.0164381
742.515	0.0165510
742.593	0.0164926
742.671	0.0164394
742.749	0.0165193
742.828	0.0166065
742.906	0.0166309
742.984	0.0166184
743.062	0.0165302
743.140	0.0163814
743.218	0.0165063
743.296	0.0164658
743.374	0.0165734
743.453	0.0163881
743.531	0.0164458
743.609	0.0166061
743.687	0.0164928
743.765	0.0165488
743.843	0.0164155
743.921	0.0165526
743.999	0.0165459
744.078	0.0165226
744.156	0.0164420
744.234	0.0164811
744.312	0.0166386
744.390	0.0165329
744.468	0.0164897
744.546	0.0165292
744.624	0.0166641
744.703	0.0165405
744.781	0.0164935
744.859	0.0165787
744.937	0.0163892
745.015	0.0164940
745.093	0.0164379
745.171	0.0164455
745.249	0.0166055
745.328	0.0165945
745.406	0.0163803
745.484	0.0164201
745.562	0.0166754
745.640	0.0166412
745.718	0.0164098
745.796	0.0164621
745.874	0.0164357
745.953	0.0164323
746.031	0.0164539
746.109	0.0164549
746.187	0.0165795
746.265	0.0163945
746.343	0.0164547
746.421	0.0165058
746.499	0.0165493
746.578	0.0165073
746.656	0.0164279
746.734	0.0163658
746.812	0.0164278
746.890	0.0163029
746.968	0.0164098
747.046	0.0164503
747.124	0.0164022
747.203	0.0164171
747.281	0.0164880
747.359	0.0167342
747.437	0.0166348
747.515	0.0164030
747.593	0.0165176
747.671	0.0164344
747.749	0.0164690
747.828	0.0164316
747.906	0.0164098
747.984	0.0163677
748.062	0.0164632
748.140	0.0164667
748.218	0.0164941
748.296	0.0163387
748.374	0.0163398
748.453	0.0164899
748.531	0.0163846
748.609	0.0163013
748.687	0.0164151
748.765	0.0163850
748.843	0.0162664
748.921	0.0163721
748.999	0.0163836
749.078	0.0163941
749.156	0.0162695
749.234	0.0163927
749.312	0.0164718
749.390	0.0163448
749.468	0.0163470
749.546	0.0163717
749.624	0.0163681
749.703	0.0162408
749.781	0.0163512
749.859	0.0163772
749.937	0.0163216
750.015	0.0162672
750.093	0.0163232
750.171	0.0162868
750.249	0.0162567
750.328	0.0162812
750.406	0.0162346
750.484	0.0163061
750.562	0.0162567
750.640	0.0165051
750.718	0.0162665
750.796	0.0163260
750.874	0.0162552
750.953	0.0163380
751.031	0.0163557
751.109	0.0162300
751.187	0.0160398
751.265	0.0163351
751.343	0.0162593
751.421	0.0161617
751.499	0.0163047
751.578	0.0162661
751.656	0.0162160
751.734	0.0162723
751.812	0.0162400
751.890	0.0163078
751.968	0.0163963
752.046	0.0164129
752.124	0.0164471
752.203	0.0164147
752.281	0.0163512
752.359	0.0164296
752.437	0.0164697
752.515	0.0164906
752.593	0.0164111
752.671	0.0165002
752.749	0.0163646
752.828	0.0164828
752.906	0.0164294
752.984	0.0164867
753.062	0.0163834
753.140	0.0163031
753.218	0.0164804
753.296	0.0165508
753.374	0.0165191
753.453	0.0163702
753.531	0.0163901
753.609	0.0164170
753.687	0.0163416
753.765	0.0164811
753.843	0.0165333
753.921	0.0164426
753.999	0.0164362
754.078	0.0165565
754.156	0.0164742
754.234	0.0164317
754.312	0.0165467
754.390	0.0164702
754.468	0.0164756
754.546	0.0164777
754.624	0.0162927
754.703	0.0165045
754.781	0.0164906
754.859	0.0163962
754.937	0.0163578
755.015	0.0164021
755.093	0.0165732
755.171	0.0162791
755.249	0.0165343
755.328	0.0165208
755.406	0.0165372
755.484	0.0165581
755.562	0.0163555
755.640	0.0164919
755.718	0.0164436
755.796	0.0165377
755.874	0.0165899
755.953	0.0164041
756.031	0.0164779
756.109	0.0165463
756.187	0.0164504
756.265	0.0164395
756.343	0.0164914
756.421	0.0163959
756.499	0.0163668
756.578	0.0162973
756.656	0.0162018
756.734	0.0163133
756.812	0.0163679
756.890	0.0162836
756.968	0.0164051
757.046	0.0162073
757.124	0.0162858
757.203	0.0164963
757.281	0.0162679
757.359	0.0162312
757.437	0.0163290
757.515	0.0163636
757.593	0.0162775
757.671	0.0164272
757.749	0.0164474
757.828	0.0164024
757.906	0.0164424
757.984	0.0162932
758.062	0.0162589
758.140	0.0164033
758.218	0.0163289
758.296	0.0161636
758.374	0.0163188
758.453	0.0163715
758.531	0.0163509
758.609	0.0162090
758.687	0.0162630
758.765	0.0163165
758.843	0.0164678
758.921	0.0164324
758.999	0.0163869
759.078	0.0165087
759.156	0.0163641
759.234	0.0163371
759.312	0.0165424
759.390	0.0164816
759.468	0.0165386
759.546	0.0164964
759.624	0.0163493
759.703	0.0163844
759.781	0.0163698
759.859	0.0164659
759.937	0.0163465
760.015	0.0163842
760.093	0.0163206
760.171	0.0163646
760.249	0.0164143
760.328	0.0164283
760.406	0.0163914
760.484	0.0164897
760.562	0.0164356
760.640	0.0165509
760.718	0.0164916
760.796	0.0163440
760.874	0.0164708
760.953	0.0165434
761.031	0.0165383
761.109	0.0164877
761.187	0.0165436
761.265	0.0165115
761.343	0.0163947
761.421	0.0165572
761.499	0.0164521
761.578	0.0164210
761.656	0.0164668
761.734	0.0165752
761.812	0.0166093
761.890	0.0166131
761.968	0.0165804
762.046	0.0165155
762.124	0.0165562
762.203	0.0166395
762.281	0.0166090
762.359	0.0165641
762.437	0.0165382
762.515	0.0165078
762.593	0.0165694
762.671	0.0165642
762.749	0.0165877
762.828	0.0164339
762.906	0.0165673
762.984	0.0164422
763.062	0.0163933
763.140	0.0165762
763.218	0.0166599
763.296	0.0166772
763.374	0.0166102
763.453	0.0167004
763.531	0.0165589
763.609	0.0166994
763.687	0.0167897
763.765	0.0165881
763.843	0.0166888
763.921	0.0167082
763.999	0.0166899
764.078	0.0168412
764.156	0.0166881
764.234	0.0165984
764.312	0.0165462
764.390	0.0165995
764.468	0.0167772
764.546	0.0166103
764.624	0.0166151
764.703	0.0165536
764.781	0.0165322
764.859	0.0165416
764.937	0.0164749
765.015	0.0165053
765.093	0.0164726
765.171	0.0164386
765.249	0.0165546
765.328	0.0164172
765.406	0.0163740
765.484	0.0164089
765.562	0.0164312
765.640	0.0164812
765.718	0.0165613
765.796	0.0165215
765.874	0.0164667
765.953	0.0164249
766.031	0.0164236
766.109	0.0164236
766.187	0.0166068
766.265	0.0164476
766.343	0.0165025
766.421	0.0164608
766.499	0.0164394
766.578	0.0164687
766.656	0.0165106
766.734	0.0166544
766.812	0.0165640
766.890	0.0166063
766.968	0.0164508
767.046	0.0165347
767.124	0.0163962
767.203	0.0164738
767.281	0.0163985
767.359	0.0165189
767.437	0.0165161
767.515	0.0164392
767.593	0.0164905
767.671	0.0165004
767.749	0.0164729
767.828	0.0165704
767.906	0.0165281
767.984	0.0164322
768.062	0.0163922
768.140	0.0163459
768.218	0.0165189
768.296	0.0164684
768.374	0.0165567
768.453	0.0162344
768.531	0.0163646
768.609	0.0165214
768.687	0.0165046
768.765	0.0163487
768.843	0.0162620
768.921	0.0165617
768.999	0.0164204
769.078	0.0164128
769.156	0.0164658
769.234	0.0164674
769.312	0.0165177
769.390	0.0164120
769.468	0.0163428
769.546	0.0163783
769.624	0.0164063
769.703	0.0164333
769.781	0.0163326
769.859	0.0163557
769.937	0.0163257
770.015	0.0163151
770.093	0.0164247
770.171	0.0165186
770.249	0.0164292
770.328	0.0165185
770.406	0.0165279
770.484	0.0165495
770.562	0.0164321
770.640	0.0163188
770.718	0.0162713
770.796	0.0162657
770.874	0.0163029
770.953	0.0163551
771.031	0.0164761
771.109	0.0164187
771.187	0.0164955
771.265	0.0163219
771.343	0.0163082
771.421	0.0163527
771.499	0.0162903
771.578	0.0163711
771.656	0.0162650
771.734	0.0163560
771.812	0.0163213
771.890	0.0163062
771.968	0.0163962
772.046	0.0164230
772.124	0.0163763
772.203	0.0163995
772.281	0.0164055
772.359	0.0162962
772.437	0.0163232
772.515	0.0164220
772.593	0.0162807
772.671	0.0163693
772.749	0.0163626
772.828	0.0162291
772.906	0.0163125
772.984	0.0164569
773.062	0.0162067
773.140	0.0163453
773.218	0.0162804
773.296	0.0162666
773.374	0.0162276
773.453	0.0161529
773.531	0.0163086
773.609	0.0161532
773.687	0.0161509
773.765	0.0162542
773.843	0.0161684
773.921	0.0161573
773.999	0.0161429
774.078	0.0162065
774.156	0.0161669
774.234	0.0162952
774.312	0.0163718
774.390	0.0164861
774.468	0.0162881
774.546	0.0164097
774.624	0.0164518
774.703	0.0165154
774.781	0.0165678
774.859	0.0164293
774.937	0.0163580
775.015	0.0163779
775.093	0.0161533
775.171	0.0161948
775.249	0.0162965
775.328	0.0162199
775.406	0.0162231
775.484	0.0163264
775.562	0.0161132
775.640	0.0161444
775.718	0.0161889
775.796	0.0161984
775.874	0.0163338
775.953	0.0161794
776.031	0.0162439
776.109	0.0162550
776.187	0.0162561
776.265	0.0162691
776.343	0.0163113
776.421	0.0163150
776.499	0.0162804
776.578	0.0164225
776.656	0.0163867
776.734	0.0163727
776.812	0.0163634
776.890	0.0164100
776.968	0.0164195
777.046	0.0165717
777.124	0.0165301
777.203	0.0165253
777.281	0.0165656
777.359	0.0164606
777.437	0.0165571
777.515	0.0164490
777.593	0.0164177
777.671	0.0163680
777.749	0.0164445
777.828	0.0163815
777.906	0.0164060
777.984	0.0164689
778.062	0.0164021
778.140	0.0164014
778.218	0.0164491
778.296	0.0163154
778.374	0.0165722
778.453	0.0164936
778.531	0.0165695
778.609	0.0164892
778.687	0.0164680
778.765	0.0165072
778.843	0.0165900
778.921	0.0165595
778.999	0.0165166
779.078	0.0166108
779.156	0.0164998
779.234	0.0165760
779.312	0.0165146
779.390	0.0165562
779.468	0.0165433
779.546	0.0165260
779.624	0.0163664
779.703	0.0164078
779.781	0.0163509
779.859	0.0165567
779.937	0.0163897
780.015	0.0163517
780.093	0.0166117
780.171	0.0164965
780.249	0.0165470
780.328	0.0166552
780.406	0.0166232
780.484	0.0167344
780.562	0.0166560
780.640	0.0167626
780.718	0.0167326
780.796	0.0167140
780.874	0.0167297
780.953	0.0167569
781.031	0.0167735
781.109	0.0167581
781.187	0.0166230
781.265	0.0167324
781.343	0.0167389
781.421	0.0165600
781.499	0.0166339
781.578	0.0167433
781.656	0.0165828
781.734	0.0166306
781.812	0.0166598
781.890	0.0165701
781.968	0.0166134
782.046	0.0166332
782.124	0.0166164
782.203	0.0167094
782.281	0.0166405
782.359	0.0166386
782.437	0.0166290
782.515	0.0166122
782.593	0.0166430
782.671	0.0166306
782.749	0.0166508
782.828	0.0166784
782.906	0.0165050
782.984	0.0165919
783.062	0.0165286
783.140	0.0165393
783.218	0.0165083
783.296	0.0166698
783.374	0.0164422
783.453	0.0166761
783.531	0.0163781
783.609	0.0164238
783.687	0.0164266
783.765	0.0164767
783.843	0.0164762
783.921	0.0164983
783.999	0.0165205
784.078	0.0164812
784.156	0.0164871
784.234	0.0163712
784.312	0.0164849
784.390	0.0164610
784.468	0.0164834
784.546	0.0165626
784.624	0.0166145
784.703	0.0165083
784.781	0.0166094
784.859	0.0164696
784.937	0.0165813
785.015	0.0164759
785.093	0.0165240
785.171	0.0166150
785.249	0.0164635
785.328	0.0164426
785.406	0.0165372
785.484	0.0165666
785.562	0.0164268
785.640	0.0163948
785.718	0.0163391
785.796	0.0165419
785.874	0.0164495
785.953	0.0164046
786.031	0.0165692
786.109	0.0164016
786.187	0.0164682
786.265	0.0165242
786.343	0.0164512
786.421	0.0164669
786.499	0.0165374
786.578	0.0164655
786.656	0.0165862
786.734	0.0165285
786.812	0.0166637
786.890	0.0167246
786.968	0.0165364
787.046	0.0166931
787.124	0.0165907
787.203	0.0166860
787.281	0.0167979
787.359	0.0165379
787.437	0.0167175
787.515	0.0166815
787.593	0.0164602
787.671	0.0166372
787.749	0.0164473
787.828	0.0165231
787.906	0.0165131
787.984	0.0165471
788.062	0.0165989
788.140	0.0166786
788.218	0.0166925
788.296	0.0165082
788.374	0.0165694
788.453	0.0165952
788.531	0.0165238
788.609	0.0167083
788.687	0.0166837
788.765	0.0165861
788.843	0.0165716
788.921	0.0166541
788.999	0.0166016
789.078	0.0166826
789.156	0.0166090
789.234	0.0166400
789.312	0.0166314
789.390	0.0165988
789.468	0.0165978
789.546	0.0164024
789.624	0.0164253
789.703	0.0163210
789.781	0.0163297
789.859	0.0164624
789.937	0.0164606
790.015	0.0165047
790.093	0.0163250
790.171	0.0163596
790.249	0.0164622
790.328	0.0164450
790.406	0.0164581
790.484	0.0164426
790.562	0.0164277
790.640	0.0165544
790.718	0.0165754
790.796	0.0165003
790.874	0.0165234
790.953	0.0165376
791.031	0.0166652
791.109	0.0166773
791.187	0.0167869
791.265	0.0165995
791.343	0.0166929
791.421	0.0168060
791.499	0.0167297
791.578	0.0165927
791.656	0.0167747
791.734	0.0166604
791.812	0.0165334
791.890	0.0166209
791.968	0.0165905
792.046	0.0166234
792.124	0.0167968
792.203	0.0165615
792.281	0.0164788
792.359	0.0164143
792.437	0.0166556
792.515	0.0164703
792.593	0.0164553
792.671	0.0166103
792.749	0.0166370
792.828	0.0165306
792.906	0.0165652
792.984	0.0163980
793.062	0.0165124
793.140	0.0166324
793.218	0.0165282
793.296	0.0165981
793.374	0.0164706
793.453	0.0166383
793.531	0.0165407
793.609	0.0163078
793.687	0.0163081
793.765	0.0163223
793.843	0.0163737
793.921	0.0163750
793.999	0.0163804
794.078	0.0162642
794.156	0.0162492
794.234	0.0163326
794.312	0.0162743
794.390	0.0161887
794.468	0.0163657
794.546	0.0161968
794.624	0.0163026
794.703	0.0164265
794.781	0.0163195
794.859	0.0163502
794.937	0.0164646
795.015	0.0163422
795.093	0.0163317
795.171	0.0165221
795.249	0.0165862
795.328	0.0165822
795.406	0.0165865
795.484	0.0165647
795.562	0.0166325
795.640	0.0165350
795.718	0.0164890
795.796	0.0164264
795.874	0.0164624
795.953	0.0163871
796.031	0.0165446
796.109	0.0165602
796.187	0.0167783
796.265	0.0164749
796.343	0.0164526
796.421	0.0166324
796.499	0.0164721
796.578	0.0164462
796.656	0.0165729
796.734	0.0165940
796.812	0.0165725
796.890	0.0164733
796.968	0.0166666
797.046	0.0167477
797.124	0.0166172
797.203	0.0166728
797.281	0.0166669
797.359	0.0165460
797.437	0.0165006
797.515	0.0165782
797.593	0.0166892
797.671	0.0165604
797.749	0.0165668
797.828	0.0164047
797.906	0.0165583
797.984	0.0164403
798.062	0.0164890
798.140	0.0165154
798.218	0.0165096
798.296	0.0164602
798.374	0.0163992
798.453	0.0163505
798.531	0.0162166
798.609	0.0163786
798.687	0.0166133
798.765	0.0164468
798.843	0.0163271
798.921	0.0163729
798.999	0.0163388
799.078	0.0163255
799.156	0.0162321
799.234	0.0164799
799.312	0.0163185
799.390	0.0163390
799.468	0.0162200
799.546	0.0163242
799.624	0.0163506
799.703	0.0162925
799.781	0.0164300
799.859	0.0164304
799.937	0.0163667
800.015	0.0164017
800.093	0.0164156
800.171	0.0164429
800.249	0.0164833
800.328	0.0163327
800.406	0.0164994
800.484	0.0165748
800.562	0.0164535
800.640	0.0164980
800.718	0.0164855
800.796	0.0164867
800.874	0.0165247
800.953	0.0163127
801.031	0.0164862
801.109	0.0165336
801.187	0.0165371
801.265	0.0167182
801.343	0.0164002
801.421	0.0165622
801.499	0.0167386
801.578	0.0166534
801.656	0.0167094
801.734	0.0167550
801.812	0.0165743
801.890	0.0166569
801.968	0.0167397
802.046	0.0166110
802.124	0.0166042
802.203	0.0167504
802.281	0.0167166
802.359	0.0166522
802.437	0.0165011
802.515	0.0166481
802.593	0.0166099
802.671	0.0166350
802.749	0.0166382
802.828	0.0166948
802.906	0.0167192
802.984	0.0167760
803.062	0.0167203
803.140	0.0166607
803.218	0.0165677
803.296	0.0166677
803.374	0.0166616
803.453	0.0168044
803.531	0.0166772
803.609	0.0165167
803.687	0.0165672
803.765	0.0166059
803.843	0.0166197
803.921	0.0165411
803.999	0.0165104
804.078	0.0166556
804.156	0.0165817
804.234	0.0165236
804.312	0.0164875
804.390	0.0164568
804.468	0.0165340
804.546	0.0165085
804.624	0.0165240
804.703	0.0165150
804.781	0.0165353
804.859	0.0165645
804.937	0.0164905
805.015	0.0165688
805.093	0.0166753
805.171	0.0167509
805.249	0.0166048
805.328	0.0166868
805.406	0.0167854
805.484	0.0167689
805.562	0.0168574
805.640	0.0167976
805.718	0.0167070
805.796	0.0166551
805.874	0.0166583
805.953	0.0167240
806.031	0.0167704
806.109	0.0166845
806.187	0.0167262
806.265	0.0168051
806.343	0.0167655
806.421	0.0168071
806.499	0.0167136
806.578	0.0166593
806.656	0.0167049
806.734	0.0167023
806.812	0.0167216
806.890	0.0168163
806.968	0.0167475
807.046	0.0167698
807.124	0.0167250
807.203	0.0166833
807.281	0.0167432
807.359	0.0167856
807.437	0.0166409
807.515	0.0165450
807.593	0.0165943
807.671	0.0166196
807.749	0.0167284
807.828	0.0166507
807.906	0.0165924
807.984	0.0164880
808.062	0.0165757
808.140	0.0167313
808.218	0.0166415
808.296	0.0166138
808.374	0.0166614
808.453	0.0166120
808.531	0.0165851
808.609	0.0165207
808.687	0.0165913
808.765	0.0166319
808.843	0.0165118
808.921	0.0164046
808.999	0.0164159
809.078	0.0164422
809.156	0.0164291
809.234	0.0164734
809.312	0.0163557
809.390	0.0163078
809.468	0.0163163
809.546	0.0162410
809.624	0.0164684
809.703	0.0164938
809.781	0.0164514
809.859	0.0165323
809.937	0.0164992
810.015	0.0164713
810.093	0.0165615
810.171	0.0165451
810.249	0.0165312
810.328	0.0165260
810.406	0.0164982
810.484	0.0164907
810.562	0.0166533
810.640	0.0165459
810.718	0.0165062
810.796	0.0165855
810.874	0.0165450
810.953	0.0166579
811.031	0.0165359
811.109	0.0165062
811.187	0.0167068
811.265	0.0166953
811.343	0.0165230
811.421	0.0165543
811.499	0.0166414
811.578	0.0166521
811.656	0.0166798
811.734	0.0166282
811.812	0.0165459
811.890	0.0165974
811.968	0.0165549
812.046	0.0165552
812.124	0.0165149
812.203	0.0165022
812.281	0.0163165
812.359	0.0164967
812.437	0.0165295
812.515	0.0165176
812.593	0.0164375
812.671	0.0165022
812.749	0.0163575
812.828	0.0163897
812.906	0.0163835
812.984	0.0163943
813.062	0.0162726
813.140	0.0163556
813.218	0.0162852
813.296	0.0162302
813.374	0.0163320
813.453	0.0162359
813.531	0.0162296
813.609	0.0163580
813.687	0.0162956
813.765	0.0163487
813.843	0.0164266
813.921	0.0164508
813.999	0.0164496
814.078	0.0163772
814.156	0.0164182
814.234	0.0163747
814.312	0.0163464
814.390	0.0163094
814.468	0.0162170
814.546	0.0163019
814.624	0.0164030
814.703	0.0161629
814.781	0.0163283
814.859	0.0162865
814.937	0.0163582
815.015	0.0163711
815.093	0.0163551
815.171	0.0163148
815.249	0.0163082
815.328	0.0163450
815.406	0.0164146
815.484	0.0163360
815.562	0.0162066
815.640	0.0165395
815.718	0.0165604
815.796	0.0163994
815.874	0.0164715
815.953	0.0165858
816.031	0.0164952
816.109	0.0164438
816.187	0.0165414
816.265	0.0166175
816.343	0.0166179
816.421	0.0166270
816.499	0.0166595
816.578	0.0166132
816.656	0.0166210
816.734	0.0166183
816.812	0.0165945
816.890	0.0166716
816.968	0.0165078
817.046	0.0164175
817.124	0.0166953
817.203	0.0165956
817.281	0.0165536
817.359	0.0165406
817.437	0.0164734
817.515	0.0165665
817.593	0.0164508
817.671	0.0163209
817.749	0.0164117
817.828	0.0166003
817.906	0.0164504
817.984	0.0163728
818.062	0.0162457
818.140	0.0162277
818.218	0.0164278
818.296	0.0163232
818.374	0.0162897
818.453	0.0163712
818.531	0.0164467
818.609	0.0164124
818.687	0.0165349
818.765	0.0165157
818.843	0.0165363
818.921	0.0164817
818.999	0.0163801
819.078	0.0165376
819.156	0.0165853
819.234	0.0164163
819.312	0.0164150
819.390	0.0164509
819.468	0.0165049
819.546	0.0163540
819.624	0.0164561
819.703	0.0163387
819.781	0.0163223
819.859	0.0164711
819.937	0.0162602
820.015	0.0162113
820.093	0.0163959
820.171	0.0163507
820.249	0.0163401
820.328	0.0163638
820.406	0.0163536
820.484	0.0162822
820.562	0.0163309
820.640	0.0163780
820.718	0.0164438
820.796	0.0163957
820.874	0.0163158
820.953	0.0165684
821.031	0.0164502
821.109	0.0164716
821.187	0.0164080
821.265	0.0162813
821.343	0.0163624
821.421	0.0164388
821.499	0.0165465
821.578	0.0164423
821.656	0.0164897
821.734	0.0164561
821.812	0.0164367
821.890	0.0164347
821.968	0.0166967
822.046	0.0165212
822.124	0.0165407
822.203	0.0165057
822.281	0.0165875
822.359	0.0165312
822.437	0.0165544
822.515	0.0163634
822.593	0.0163394
822.671	0.0162035
822.749	0.0162491
822.828	0.0163343
822.906	0.0162455
822.984	0.0162852
823.062	0.0162627
823.140	0.0162018
823.218	0.0162253
823.296	0.0164191
823.374	0.0163413
823.453	0.0163860
823.531	0.0164382
823.609	0.0162595
823.687	0.0163567
823.765	0.0164136
823.843	0.0163156
823.921	0.0163493
823.999	0.0163402
824.078	0.0163719
824.156	0.0163363
824.234	0.0163478
824.312	0.0165030
824.390	0.0162672
824.468	0.0164381
824.546	0.0165211
824.624	0.0164999
824.703	0.0163400
824.781	0.0163638
824.859	0.0164137
824.937	0.0163253
825.015	0.0163206
825.093	0.0164104
825.171	0.0165167
825.249	0.0163376
825.328	0.0164422
825.406	0.0164741
825.484	0.0164736
825.562	0.0164153
825.640	0.0165320
825.718	0.0165018
825.796	0.0164556
825.874	0.0165022
825.953	0.0165419
826.031	0.0166087
826.109	0.0167348
826.187	0.0167085
826.265	0.0167226
826.343	0.0167351
826.421	0.0167752
826.499	0.0168584
826.578	0.0169824
826.656	0.0169399
826.734	0.0167951
826.812	0.0168980
826.890	0.0168287
826.968	0.0165762
827.046	0.0167110
827.124	0.0166595
827.203	0.0166183
827.281	0.0165341
827.359	0.0165876
827.437	0.0167007
827.515	0.0165699
827.593	0.0165620
827.671	0.0165289
827.749	0.0166482
827.828	0.0163182
827.906	0.0164673
827.984	0.0164477
828.062	0.0163251
828.140	0.0162898
828.218	0.0165197
828.296	0.0164799
828.374	0.0164310
828.453	0.0165710
828.531	0.0165220
828.609	0.0166000
828.687	0.0166378
828.765	0.0166257
828.843	0.0165490
828.921	0.0166929
828.999	0.0167470
829.078	0.0165820
829.156	0.0167609
829.234	0.0167211
829.312	0.0167702
829.390	0.0166853
829.468	0.0166022
829.546	0.0167191
829.624	0.0168594
829.703	0.0167688
829.781	0.0167485
829.859	0.0167770
829.937	0.0166924
830.015	0.0167881
830.093	0.0166738
830.171	0.0166679
830.249	0.0166824
830.328	0.0167725
830.406	0.0166145
830.484	0.0166609
830.562	0.0166154
830.640	0.0165812
830.718	0.0165236
830.796	0.0164739
830.874	0.0165720
830.953	0.0164883
831.031	0.0163770
831.109	0.0163686
831.187	0.0164130
831.265	0.0164866
831.343	0.0165123
831.421	0.0164776
831.499	0.0163515
831.578	0.0164696
831.656	0.0164310
831.734	0.0165813
831.812	0.0165209
831.890	0.0164928
831.968	0.0165007
832.046	0.0164479
832.124	0.0166889
832.203	0.0166769
832.281	0.0164261
832.359	0.0165635
832.437	0.0164810
832.515	0.0163853
832.593	0.0163506
832.671	0.0164260
832.749	0.0162401
832.828	0.0162714
832.906	0.0162911
832.984	0.0163020
833.062	0.0162574
833.140	0.0162295
833.218	0.0163134
833.296	0.0162738
833.374	0.0163734
833.453	0.0164043
833.531	0.0165098
833.609	0.0162991
833.687	0.0164561
833.765	0.0164916
833.843	0.0164420
833.921	0.0165330
833.999	0.0165902
834.078	0.0165598
834.156	0.0166507
834.234	0.0165073
834.312	0.0166414
834.390	0.0166605
834.468	0.0165089
834.546	0.0165063
834.624	0.0165550
834.703	0.0166399
834.781	0.0164745
834.859	0.0164835
834.937	0.0165452
835.015	0.0164555
835.093	0.0163290
835.171	0.0163512
835.249	0.0162560
835.328	0.0161974
835.406	0.0162804
835.484	0.0162148
835.562	0.0161578
835.640	0.0162990
835.718	0.0160393
835.796	0.0160025
835.874	0.0161251
835.953	0.0160822
836.031	0.0161311
836.109	0.0161674
836.187	0.0161980
836.265	0.0161897
836.343	0.0162171
836.421	0.0163503
836.499	0.0163665
836.578	0.0164095
836.656	0.0163925
836.734	0.0164226
836.812	0.0164847
836.890	0.0165170
836.968	0.0166464
837.046	0.0165419
837.124	0.0166518
837.203	0.0166370
837.281	0.0167102
837.359	0.0166650
837.437	0.0166228
837.515	0.0167245
837.593	0.0165613
837.671	0.0165589
837.749	0.0165260
837.828	0.0164340
837.906	0.0164547
837.984	0.0164661
838.062	0.0162735
838.140	0.0161012
838.218	0.0163557
838.296	0.0163199
838.374	0.0160857
838.453	0.0163010
838.531	0.0162804
838.609	0.0162981
838.687	0.0163578
838.765	0.0163356
838.843	0.0162556
838.921	0.0162569
838.999	0.0163899
839.078	0.0164236
839.156	0.0162951
839.234	0.0163761
839.312	0.0164858
839.390	0.0163972
839.468	0.0164425
839.546	0.0164934
839.624	0.0165137
839.703	0.0164442
839.781	0.0164714
839.859	0.0165293
839.937	0.0164794
840.015	0.0166177
840.093	0.0166906
840.171	0.0166382
840.249	0.0166140
840.328	0.0165752
840.406	0.0166012
840.484	0.0164221
840.562	0.0165503
840.640	0.0163207
840.718	0.0165098
840.796	0.0163829
840.874	0.0163563
840.953	0.0164929
841.031	0.0161817
841.109	0.0162831
841.187	0.0162920
841.265	0.0163618
841.343	0.0162356
841.421	0.0161969
841.499	0.0162582
841.578	0.0162534
841.656	0.0163496
841.734	0.0161665
841.812	0.0161880
841.890	0.0163089
841.968	0.0164099
842.046	0.0162592
842.124	0.0162299
842.203	0.0164209
842.281	0.0163382
842.359	0.0164299
842.437	0.0163469
842.515	0.0162649
842.593	0.0163024
842.671	0.0165314
842.749	0.0164951
842.828	0.0164958
842.906	0.0163757
842.984	0.0164367
843.062	0.0164539
843.140	0.0165448
843.218	0.0163975
843.296	0.0163066
843.374	0.0162602
843.453	0.0163340
843.531	0.0164236
843.609	0.0162532
843.687	0.0163654
843.765	0.0163245
843.843	0.0162309
843.921	0.0161935
843.999	0.0162958
844.078	0.0162213
844.156	0.0163276
844.234	0.0161935
844.312	0.0161140
844.390	0.0162562
844.468	0.0163644
844.546	0.0161682
844.624	0.0162498
844.703	0.0162178
844.781	0.0162730
844.859	0.0163261
844.937	0.0162502
845.015	0.0162758
845.093	0.0163677
845.171	0.0163620
845.249	0.0162753
845.328	0.0163490
845.406	0.0163706
845.484	0.0164379
845.562	0.0164931
845.640	0.0163817
845.718	0.0163046
845.796	0.0163683
845.874	0.0163727
845.953	0.0164857
846.031	0.0164261
846.109	0.0163483
846.187	0.0163974
846.265	0.0165151
846.343	0.0165651
846.421	0.0164032
846.499	0.0164310
846.578	0.0165921
846.656	0.0164475
846.734	0.0165042
846.812	0.0165079
846.890	0.0165259
846.968	0.0165024
847.046	0.0164586
847.124	0.0164491
847.203	0.0164402
847.281	0.0163654
847.359	0.0163654
847.437	0.0164345
847.515	0.0163217
847.593	0.0163747
847.671	0.0164182
847.749	0.0163687
847.828	0.0163376
847.906	0.0164345
847.984	0.0163370
848.062	0.0162908
848.140	0.0163977
848.218	0.0164005
848.296	0.0165338
848.374	0.0164378
848.453	0.0164181
848.531	0.0164816
848.609	0.0164802
848.687	0.0164778
848.765	0.0163864
848.843	0.0165080
848.921	0.0164890
848.999	0.0165059
849.078	0.0163890
849.156	0.0163739
849.234	0.0163615
849.312	0.0162731
849.390	0.0165631
849.468	0.0164914
849.546	0.0163740
849.624	0.0163748
849.703	0.0163644
849.781	0.0163895
849.859	0.0164017
849.937	0.0164229
850.015	0.0164062
850.093	0.0163912
850.171	0.0164624
850.249	0.0164709
850.328	0.0164767
850.406	0.0163387
850.484	0.0164185
850.562	0.0164162
850.640	0.0163981
850.718	0.0163923
850.796	0.0165548
850.874	0.0165345
850.953	0.0166086
851.031	0.0166666
851.109	0.0165692
851.187	0.0164597
851.265	0.0164055
851.343	0.0164451
851.421	0.0164175
851.499	0.0165314
851.578	0.0164838
851.656	0.0164615
851.734	0.0162066
851.812	0.0164237
851.890	0.0164186
851.968	0.0164255
852.046	0.0163760
852.124	0.0163136
852.203	0.0163867
852.281	0.0164732
852.359	0.0163888
852.437	0.0163916
852.515	0.0165058
852.593	0.0165160
852.671	0.0162878
852.749	0.0164047
852.828	0.0163911
852.906	0.0164275
852.984	0.0164204
853.062	0.0165350
853.140	0.0163324
853.218	0.0164113
853.296	0.0164469
853.374	0.0164559
853.453	0.0164413
853.531	0.0164421
853.609	0.0163647
853.687	0.0164339
853.765	0.0163181
853.843	0.0164409
853.921	0.0164156
853.999	0.0163493
854.078	0.0163034
854.156	0.0164206
854.234	0.0163593
854.312	0.0163482
854.390	0.0164227
854.468	0.0164506
854.546	0.0166002
854.624	0.0164061
854.703	0.0164639
854.781	0.0164843
854.859	0.0165274
854.937	0.0165565
855.015	0.0163886
855.093	0.0165125
855.171	0.0164514
855.249	0.0164172
855.328	0.0163289
855.406	0.0164150
855.484	0.0163866
855.562	0.0165022
855.640	0.0163960
855.718	0.0162875
855.796	0.0164574
855.874	0.0164945
855.953	0.0165784
856.031	0.0163649
856.109	0.0163438
856.187	0.0164845
856.265	0.0165417
856.343	0.0165582
856.421	0.0164736
856.499	0.0165886
856.578	0.0165775
856.656	0.0165863
856.734	0.0166908
856.812	0.0167274
856.890	0.0165520
856.968	0.0166737
857.046	0.0165984
857.124	0.0165067
857.203	0.0164880
857.281	0.0165815
857.359	0.0165999
857.437	0.0165566
857.515	0.0167132
857.593	0.0167863
857.671	0.0164904
857.749	0.0165869
857.828	0.0167714
857.906	0.0164648
857.984	0.0165854
858.062	0.0166725
858.140	0.0166590
858.218	0.0164623
858.296	0.0166170
858.374	0.0164416
858.453	0.0166101
858.531	0.0165594
858.609	0.0165096
858.687	0.0164487
858.765	0.0166028
858.843	0.0166136
858.921	0.0165446
858.999	0.0163990
859.078	0.0165437
859.156	0.0163961
859.234	0.0163580
859.312	0.0163181
859.390	0.0161992
859.468	0.0161994
859.546	0.0161890
859.624	0.0162740
859.703	0.0164108
859.781	0.0164388
859.859	0.0162009
859.937	0.0161778
860.015	0.0163202
860.093	0.0163870
860.171	0.0163037
860.249	0.0165046
860.328	0.0163392
860.406	0.0164790
860.484	0.0165294
860.562	0.0164309
860.640	0.0164198
860.718	0.0166128
860.796	0.0167095
860.874	0.0166528
860.953	0.0168106
861.031	0.0169345
861.109	0.0167902
861.187	0.0168023
861.265	0.0169348
861.343	0.0169692
861.421	0.0169839
861.499	0.0169811
861.578	0.0169367
861.656	0.0169216
861.734	0.0167950
861.812	0.0168562
861.890	0.0168120
861.968	0.0167157
862.046	0.0168049
862.124	0.0167144
862.203	0.0167300
862.281	0.0167655
862.359	0.0166980
862.437	0.0167301
862.515	0.0167568
862.593	0.0167405
862.671	0.0166214
862.749	0.0165821
862.828	0.0167097
862.906	0.0166374
862.984	0.0165067
863.062	0.0164306
863.140	0.0165042
863.218	0.0164606
863.296	0.0164533
863.374	0.0165812
863.453	0.0163049
863.531	0.0165136
863.609	0.0163803
863.687	0.0163844
863.765	0.0163957
863.843	0.0164075
863.921	0.0165848
863.999	0.0163853
864.078	0.0163174
864.156	0.0166155
864.234	0.0164671
864.312	0.0166703
864.390	0.0167348
864.468	0.0166255
864.546	0.0168920
864.624	0.0166824
864.703	0.0166783
864.781	0.0167371
864.859	0.0168382
864.937	0.0168048
865.015	0.0167009
865.093	0.0166280
865.171	0.0167213
865.249	0.0166673
865.328	0.0166260
865.406	0.0165838
865.484	0.0165469
865.562	0.0166671
865.640	0.0164759
865.718	0.0164993
865.796	0.0164256
865.874	0.0164381
865.953	0.0166439
866.031	0.0165243
866.109	0.0165451
866.187	0.0164087
866.265	0.0163958
866.343	0.0165925
866.421	0.0165076
866.499	0.0165138
866.578	0.0165478
866.656	0.0164252
866.734	0.0165039
866.812	0.0164391
866.890	0.0165161
866.968	0.0165514
867.046	0.0164948
867.124	0.0165224
867.203	0.0166534
867.281	0.0167126
867.359	0.0166500
867.437	0.0165972
867.515	0.0167264
867.593	0.0165679
867.671	0.0166370
867.749	0.0167262
867.828	0.0166927
867.906	0.0167266
867.984	0.0168739
868.062	0.0167912
868.140	0.0166557
868.218	0.0166688
868.296	0.0166236
868.374	0.0165957
868.453	0.0166067
868.531	0.0165739
868.609	0.0167198
868.687	0.0166189
868.765	0.0164952
868.843	0.0164804
868.921	0.0165328
868.999	0.0162041
869.078	0.0164133
869.156	0.0164562
869.234	0.0163728
869.312	0.0165077
869.390	0.0164323
869.468	0.0164349
869.546	0.0163896
869.624	0.0162740
869.703	0.0163748
869.781	0.0163876
869.859	0.0164496
869.937	0.0165030
870.015	0.0164126
870.093	0.0163881
870.171	0.0164272
870.249	0.0164190
870.328	0.0164362
870.406	0.0163991
870.484	0.0165007
870.562	0.0165676
870.640	0.0165517
870.718	0.0166518
870.796	0.0166429
870.874	0.0166637
870.953	0.0167599
871.031	0.0166627
871.109	0.0166515
871.187	0.0165124
871.265	0.0166702
871.343	0.0166274
871.421	0.0165167
871.499	0.0164200
871.578	0.0165045
871.656	0.0165029
871.734	0.0164627
871.812	0.0164047
871.890	0.0163942
871.968	0.0163537
872.046	0.0164050
872.124	0.0164211
872.203	0.0162473
872.281	0.0162267
872.359	0.0163004
872.437	0.0163014
872.515	0.0162942
872.593	0.0161912
872.671	0.0162340
872.749	0.0163544
872.828	0.0163236
872.906	0.0162830
872.984	0.0163366
873.062	0.0163183
873.140	0.0163925
873.218	0.0163569
873.296	0.0162422
873.374	0.0162702
873.453	0.0164798
873.531	0.0163314
873.609	0.0163792
873.687	0.0163577
873.765	0.0164048
873.843	0.0163572
873.921	0.0163639
873.999	0.0165504
874.078	0.0165968
874.156	0.0164977
874.234	0.0163261
874.312	0.0164031
874.390	0.0163685
874.468	0.0164211
874.546	0.0164221
874.624	0.0163023
874.703	0.0164485
874.781	0.0166119
874.859	0.0164121
874.937	0.0164497
875.015	0.0163445
875.093	0.0161607
875.171	0.0162537
875.249	0.0163686
875.328	0.0163069
875.406	0.0162339
875.484	0.0161859
875.562	0.0162442
875.640	0.0162084
875.718	0.0162531
875.796	0.0162773
875.874	0.0163588
875.953	0.0163039
876.031	0.0161935
876.109	0.0163445
876.187	0.0163248
876.265	0.0163097
876.343	0.0164444
876.421	0.0163278
876.499	0.0162908
876.578	0.0163972
876.656	0.0164164
876.734	0.0164667
876.812	0.0165080
876.890	0.0165347
876.968	0.0165014
877.046	0.0165079
877.124	0.0165505
877.203	0.0165231
877.281	0.0165605
877.359	0.0166029
877.437	0.0166260
877.515	0.0164920
877.593	0.0164788
877.671	0.0164350
877.749	0.0164202
877.828	0.0166064
877.906	0.0166201
877.984	0.0164857
878.062	0.0164555
878.140	0.0165250
878.218	0.0164891
878.296	0.0164073
878.374	0.0165444
878.453	0.0164813
878.531	0.0166345
878.609	0.0164585
878.687	0.0165434
878.765	0.0165601
878.843	0.0165713
878.921	0.0165852
878.999	0.0165077
879.078	0.0165218
879.156	0.0165421
879.234	0.0165415
879.312	0.0164477
879.390	0.0164420
879.468	0.0166302
879.546	0.0165722
879.624	0.0165031
879.703	0.0164999
879.781	0.0165540
879.859	0.0165100
879.937	0.0164249
880.015	0.0164083
880.093	0.0164429
880.171	0.0164846
880.249	0.0165005
880.328	0.0164973
880.406	0.0165871
880.484	0.0165592
880.562	0.0167105
880.640	0.0164813
880.718	0.0166299
880.796	0.0166574
880.874	0.0165849
880.953	0.0166215
881.031	0.0166300
881.109	0.0165200
881.187	0.0165145
881.265	0.0165359
881.343	0.0165926
881.421	0.0165002
881.499	0.0164376
881.578	0.0163974
881.656	0.0165413
881.734	0.0164520
881.812	0.0164910
881.890	0.0164030
881.968	0.0165192
882.046	0.0166266
882.124	0.0165514
882.203	0.0165031
882.281	0.0165720
882.359	0.0164748
882.437	0.0163654
882.515	0.0164445
882.593	0.0164015
882.671	0.0164801
882.749	0.0165728
882.828	0.0164024
882.906	0.0165052
882.984	0.0164112
883.062	0.0163885
883.140	0.0165394
883.218	0.0165730
883.296	0.0165648
883.374	0.0164976
883.453	0.0165862
883.531	0.0166406
883.609	0.0165131
883.687	0.0165633
883.765	0.0165772
883.843	0.0166540
883.921	0.0166280
883.999	0.0166438
884.078	0.0165361
884.156	0.0166143
884.234	0.0166537
884.312	0.0164800
884.390	0.0165745
884.468	0.0166751
884.546	0.0165362
884.624	0.0165049
884.703	0.0166538
884.781	0.0168314
884.859	0.0167050
884.937	0.0165508
885.015	0.0166998
885.093	0.0166598
885.171	0.0165873
885.249	0.0165005
885.328	0.0165355
885.406	0.0168164
885.484	0.0166533
885.562	0.0165936
885.640	0.0165883
885.718	0.0166640
885.796	0.0166525
885.874	0.0166190
885.953	0.0167400
886.031	0.0167274
886.109	0.0167044
886.187	0.0167578
886.265	0.0166740
886.343	0.0166667
886.421	0.0168440
886.499	0.0167077
886.578	0.0167221
886.656	0.0168414
886.734	0.0167549
886.812	0.0167737
886.890	0.0165534
886.968	0.0167064
887.046	0.0168204
887.124	0.0166939
887.203	0.0166956
887.281	0.0166518
887.359	0.0167384
887.437	0.0166506
887.515	0.0166169
887.593	0.0165167
887.671	0.0166257
887.749	0.0165896
887.828	0.0166164
887.906	0.0165399
887.984	0.0165677
888.062	0.0166082
888.140	0.0164681
888.218	0.0165015
888.296	0.0165318
888.374	0.0164725
888.453	0.0165043
888.531	0.0165274
888.609	0.0164835
888.687	0.0164196
888.765	0.0165720
888.843	0.0165610
888.921	0.0164825
888.999	0.0165787
889.078	0.0165022
889.156	0.0165285
889.234	0.0165997
889.312	0.0164577
889.390	0.0164342
889.468	0.0163132
889.546	0.0164012
889.624	0.0164848
889.703	0.0164156
889.781	0.0163876
889.859	0.0162732
889.937	0.0163341
890.015	0.0164133
890.093	0.0164230
890.171	0.0162949
890.249	0.0164912
890.328	0.0163428
890.406	0.0162847
890.484	0.0162555
890.562	0.0164850
890.640	0.0164555
890.718	0.0163969
890.796	0.0163801
890.874	0.0163941
890.953	0.0165021
891.031	0.0163760
891.109	0.0165250
891.187	0.0164809
891.265	0.0165240
891.343	0.0165433
891.421	0.0164883
891.499	0.0164307
891.578	0.0165385
891.656	0.0166008
891.734	0.0163782
891.812	0.0164597
891.890	0.0163535
891.968	0.0163310
892.046	0.0165139
892.124	0.0164890
892.203	0.0164834
892.281	0.0163673
892.359	0.0164082
892.437	0.0164857
892.515	0.0163991
892.593	0.0164221
892.671	0.0164952
892.749	0.0164639
892.828	0.0163764
892.906	0.0164633
892.984	0.0164811
893.062	0.0165152
893.140	0.0165118
893.218	0.0164074
893.296	0.0163969
893.374	0.0164344
893.453	0.0164419
893.531	0.0164736
893.609	0.0164174
893.687	0.0164967
893.765	0.0165089
893.843	0.0163875
893.921	0.0164692
893.999	0.0165062
894.078	0.0165067
894.156	0.0162903
894.234	0.0165346
894.312	0.0163646
894.390	0.0163165
894.468	0.0164679
894.546	0.0165201
894.624	0.0164746
894.703	0.0164210
894.781	0.0164455
894.859	0.0165358
894.937	0.0164521
895.015	0.0165580
895.093	0.0166111
895.171	0.0166553
895.249	0.0166522
895.328	0.0165813
895.406	0.0165657
895.484	0.0167262
895.562	0.0166099
895.640	0.0165963
895.718	0.0165327
895.796	0.0164116
895.874	0.0164714
895.953	0.0166145
896.031	0.0163596
896.109	0.0165020
896.187	0.0165093
896.265	0.0164917
896.343	0.0164624
896.421	0.0165642
896.499	0.0164809
896.578	0.0165070
896.656	0.0164050
896.734	0.0164833
896.812	0.0163586
896.890	0.0164922
896.968	0.0163399
897.046	0.0164262
897.124	0.0165614
897.203	0.0162880
897.281	0.0164452
897.359	0.0164560
897.437	0.0163824
897.515	0.0164227
897.593	0.0162473
897.671	0.0163642
897.749	0.0163892
897.828	0.0163834
897.906	0.0163139
897.984	0.0164259
898.062	0.0163623
898.140	0.0163925
898.218	0.0163676
898.296	0.0163006
898.374	0.0163798
898.453	0.0164577
898.531	0.0164314
898.609	0.0162973
898.687	0.0163711
898.765	0.0164051
898.843	0.0163908
898.921	0.0164241
898.999	0.0163523
899.078	0.0164514
899.156	0.0164189
899.234	0.0164582
899.312	0.0164532
899.390	0.0165428
899.468	0.0164335
899.546	0.0164157
899.624	0.0164408
899.703	0.0164963
899.781	0.0164992
899.859	0.0164548
899.937	0.0163647
900.015	0.0165443
900.093	0.0166565
900.171	0.0164430
900.249	0.0164729
900.328	0.0163721
900.406	0.0164844
900.484	0.0164917
900.562	0.0165303
900.640	0.0165275
900.718	0.0163202
900.796	0.0163416
900.874	0.0164061
900.953	0.0163947
901.031	0.0163139
901.109	0.0164337
901.187	0.0164576
901.265	0.0163619
901.343	0.0164090
901.421	0.0164314
901.499	0.0163996
901.578	0.0165285
901.656	0.0165028
901.734	0.0164775
901.812	0.0166161
901.890	0.0165958
901.968	0.0166157
902.046	0.0165415
902.124	0.0166813
902.203	0.0166980
902.281	0.0166893
902.359	0.0165829
902.437	0.0166376
902.515	0.0166817
902.593	0.0167286
902.671	0.0166734
902.749	0.0167295
902.828	0.0166477
902.906	0.0166119
902.984	0.0166375
903.062	0.0165138
903.140	0.0167242
903.218	0.0166140
903.296	0.0164989
903.374	0.0166071
903.453	0.0165662
903.531	0.0165065
903.609	0.0164139
903.687	0.0165813
903.765	0.0164510
903.843	0.0165659
903.921	0.0166362
903.999	0.0165706
904.078	0.0164408
904.156	0.0163746
904.234	0.0165601
904.312	0.0165982
904.390	0.0165572
904.468	0.0166087
904.546	0.0166205
904.624	0.0164755
904.703	0.0165260
904.781	0.0165014
904.859	0.0165400
904.937	0.0165870
905.015	0.0165853
905.093	0.0165681
905.171	0.0165833
905.249	0.0167029
905.328	0.0166033
905.406	0.0166889
905.484	0.0166137
905.562	0.0165916
905.640	0.0165638
905.718	0.0167234
905.796	0.0167439
905.874	0.0166494
905.953	0.0165346
906.031	0.0165676
906.109	0.0166959
906.187	0.0165842
906.265	0.0165490
906.343	0.0167451
906.421	0.0165558
906.499	0.0163686
906.578	0.0165254
906.656	0.0165041
906.734	0.0165791
906.812	0.0166373
906.890	0.0165961
906.968	0.0165630
907.046	0.0164651
907.124	0.0164503
907.203	0.0165514
907.281	0.0166537
907.359	0.0166926
907.437	0.0165578
907.515	0.0163953
907.593	0.0166703
907.671	0.0166629
907.749	0.0166872
907.828	0.0167197
907.906	0.0165830
907.984	0.0164994
908.062	0.0166062
908.140	0.0166354
908.218	0.0166058
908.296	0.0166289
908.374	0.0166005
908.453	0.0164980
908.531	0.0165182
908.609	0.0165150
908.687	0.0165316
908.765	0.0165193
908.843	0.0165192
908.921	0.0165337
908.999	0.0165596
909.078	0.0165403
909.156	0.0165134
909.234	0.0165586
909.312	0.0164866
909.390	0.0164779
909.468	0.0164359
909.546	0.0165129
909.624	0.0164387
909.703	0.0163866
909.781	0.0164038
909.859	0.0164996
909.937	0.0165536
910.015	0.0165330
910.093	0.0163387
910.171	0.0165534
910.249	0.0165900
910.328	0.0165633
910.406	0.0164590
910.484	0.0164822
910.562	0.0164833
910.640	0.0165142
910.718	0.0165720
910.796	0.0166532
910.874	0.0166535
910.953	0.0165446
911.031	0.0166275
911.109	0.0166047
911.187	0.0166412
911.265	0.0166077
911.343	0.0165418
911.421	0.0165398
911.499	0.0165352
911.578	0.0164933
911.656	0.0166504
911.734	0.0165182
911.812	0.0165273
911.890	0.0166590
911.968	0.0164783
912.046	0.0164580
912.124	0.0163881
912.203	0.0166329
912.281	0.0166674
912.359	0.0167236
912.437	0.0165936
912.515	0.0165687
912.593	0.0166108
912.671	0.0166824
912.749	0.0167480
912.828	0.0166210
912.906	0.0164923
912.984	0.0167085
913.062	0.0167496
913.140	0.0167120
913.218	0.0165596
913.296	0.0165620
913.374	0.0167319
913.453	0.0167185
913.531	0.0164697
913.609	0.0165055
913.687	0.0165352
913.765	0.0163425
913.843	0.0164905
913.921	0.0164853
913.999	0.0164778
914.078	0.0162322
914.156	0.0163744
914.234	0.0164719
914.312	0.0162410
914.390	0.0163371
914.468	0.0163496
914.546	0.0164115
914.624	0.0162270
914.703	0.0162699
914.781	0.0163627
914.859	0.0162347
914.937	0.0163508
915.015	0.0162274
915.093	0.0162329
915.171	0.0162798
915.249	0.0162677
915.328	0.0162944
915.406	0.0163076
915.484	0.0164288
915.562	0.0163488
915.640	0.0163773
915.718	0.0163738
915.796	0.0162325
915.874	0.0162879
915.953	0.0162783
916.031	0.0162968
916.109	0.0163441
916.187	0.0162995
916.265	0.0163767
916.343	0.0165376
916.421	0.0164072
916.499	0.0161491
916.578	0.0164046
916.656	0.0163578
916.734	0.0165026
916.812	0.0164654
916.890	0.0164294
916.968	0.0163618
917.046	0.0164973
917.124	0.0163390
917.203	0.0164583
917.281	0.0163417
917.359	0.0164921
917.437	0.0163470
917.515	0.0163929
917.593	0.0164368
917.671	0.0163996
917.749	0.0163029
917.828	0.0162057
917.906	0.0164748
917.984	0.0164254
918.062	0.0163706
918.140	0.0163678
918.218	0.0163815
918.296	0.0164653
918.374	0.0163834
918.453	0.0163515
918.531	0.0163675
918.609	0.0164284
918.687	0.0164316
918.765	0.0163894
918.843	0.0164724
918.921	0.0165179
918.999	0.0163717
919.078	0.0163783
919.156	0.0166177
919.234	0.0163564
919.312	0.0165061
919.390	0.0164324
919.468	0.0165135
919.546	0.0164583
919.624	0.0165552
919.703	0.0164053
919.781	0.0164379
919.859	0.0163828
919.937	0.0162476
