06/10/2022	18:29:59	Ver.	4.1	UNKNOWN
Optical Delay	600.015094	Delta X		0.078125	Sweeps	1	Scan Rate	0/0
Coordinates	Axis 1	NaN	Axis 2	NaN	Axis 3	NaN	Axis 4	NaN	Axis 5	NaN	Axis 6	0.000000
TX Power	0.000000	RX Power	0.000000

600.015	0.0158290
600.093	0.0158206
600.171	0.0158140
600.249	0.0157944
600.328	0.0158153
600.406	0.0158915
600.484	0.0157734
600.562	0.0157201
600.640	0.0157352
600.718	0.0160793
600.796	0.0158281
600.874	0.0157946
600.953	0.0158044
601.031	0.0159537
601.109	0.0158962
601.187	0.0158746
601.265	0.0158112
601.343	0.0158193
601.421	0.0158733
601.499	0.0159850
601.578	0.0158794
601.656	0.0157957
601.734	0.0158949
601.812	0.0157814
601.890	0.0160054
601.968	0.0160020
602.046	0.0157951
602.124	0.0158421
602.203	0.0158738
602.281	0.0158819
602.359	0.0158115
602.437	0.0158595
602.515	0.0158549
602.593	0.0157824
602.671	0.0157802
602.749	0.0158945
602.828	0.0158721
602.906	0.0158872
602.984	0.0158194
603.062	0.0157656
603.140	0.0160015
603.218	0.0158778
603.296	0.0157883
603.374	0.0158855
603.453	0.0159342
603.531	0.0158494
603.609	0.0157908
603.687	0.0158785
603.765	0.0158576
603.843	0.0158385
603.921	0.0157462
603.999	0.0158694
604.078	0.0158331
604.156	0.0157827
604.234	0.0157809
604.312	0.0157803
604.390	0.0158829
604.468	0.0159544
604.546	0.0158806
604.624	0.0158443
604.703	0.0159560
604.781	0.0159748
604.859	0.0158911
604.937	0.0159003
605.015	0.0158837
605.093	0.0158366
605.171	0.0158288
605.249	0.0157915
605.328	0.0159299
605.406	0.0158464
605.484	0.0158381
605.562	0.0158486
605.640	0.0158405
605.718	0.0157217
605.796	0.0158978
605.874	0.0158288
605.953	0.0158885
606.031	0.0158145
606.109	0.0157977
606.187	0.0158150
606.265	0.0157520
606.343	0.0158759
606.421	0.0160049
606.499	0.0158504
606.578	0.0158120
606.656	0.0159586
606.734	0.0157853
606.812	0.0158879
606.890	0.0157996
606.968	0.0157712
607.046	0.0158528
607.124	0.0158644
607.203	0.0158685
607.281	0.0156488
607.359	0.0157941
607.437	0.0158620
607.515	0.0159071
607.593	0.0157314
607.671	0.0158563
607.749	0.0158944
607.828	0.0157401
607.906	0.0159393
607.984	0.0158221
608.062	0.0158700
608.140	0.0158144
608.218	0.0158937
608.296	0.0158815
608.374	0.0157532
608.453	0.0158707
608.531	0.0159131
608.609	0.0157860
608.687	0.0158491
608.765	0.0157212
608.843	0.0157881
608.921	0.0157432
608.999	0.0158179
609.078	0.0158123
609.156	0.0159513
609.234	0.0160335
609.312	0.0158945
609.390	0.0158661
609.468	0.0157443
609.546	0.0158559
609.624	0.0159907
609.703	0.0160829
609.781	0.0158186
609.859	0.0159587
609.937	0.0158315
610.015	0.0157745
610.093	0.0158941
610.171	0.0158926
610.249	0.0157706
610.328	0.0159554
610.406	0.0158659
610.484	0.0159109
610.562	0.0158865
610.640	0.0158994
610.718	0.0158696
610.796	0.0158627
610.874	0.0158893
610.953	0.0156947
611.031	0.0158813
611.109	0.0158070
611.187	0.0159480
611.265	0.0158542
611.343	0.0157903
611.421	0.0158597
611.499	0.0158788
611.578	0.0157325
611.656	0.0157917
611.734	0.0158574
611.812	0.0159116
611.890	0.0157973
611.968	0.0158057
612.046	0.0157616
612.124	0.0158473
612.203	0.0158568
612.281	0.0157354
612.359	0.0158718
612.437	0.0159791
612.515	0.0157664
612.593	0.0158517
612.671	0.0158368
612.749	0.0159108
612.828	0.0158918
612.906	0.0157184
612.984	0.0158450
613.062	0.0159087
613.140	0.0158345
613.218	0.0159399
613.296	0.0159273
613.374	0.0158614
613.453	0.0157867
613.531	0.0157379
613.609	0.0159304
613.687	0.0158689
613.765	0.0158519
613.843	0.0158781
613.921	0.0158138
613.999	0.0159841
614.078	0.0157700
614.156	0.0158287
614.234	0.0159425
614.312	0.0160163
614.390	0.0159983
614.468	0.0158826
614.546	0.0158378
614.624	0.0158567
614.703	0.0158758
614.781	0.0159035
614.859	0.0159050
614.937	0.0159530
615.015	0.0158819
615.093	0.0158952
615.171	0.0158345
615.249	0.0159029
615.328	0.0157926
615.406	0.0159291
615.484	0.0158777
615.562	0.0159644
615.640	0.0157986
615.718	0.0159107
615.796	0.0159987
615.874	0.0159069
615.953	0.0158374
616.031	0.0158585
616.109	0.0158315
616.187	0.0159367
616.265	0.0158219
616.343	0.0159116
616.421	0.0158765
616.499	0.0159782
616.578	0.0158180
616.656	0.0159080
616.734	0.0158612
616.812	0.0158957
616.890	0.0158202
616.968	0.0159261
617.046	0.0159105
617.124	0.0158112
617.203	0.0158568
617.281	0.0159500
617.359	0.0159393
617.437	0.0158706
617.515	0.0159302
617.593	0.0158315
617.671	0.0158513
617.749	0.0159557
617.828	0.0159737
617.906	0.0160094
617.984	0.0158669
618.062	0.0158763
618.140	0.0158832
618.218	0.0157885
618.296	0.0159042
618.374	0.0158786
618.453	0.0158370
618.531	0.0158159
618.609	0.0158989
618.687	0.0158829
618.765	0.0159254
618.843	0.0158900
618.921	0.0158170
618.999	0.0158527
619.078	0.0158302
619.156	0.0157317
619.234	0.0158011
619.312	0.0158942
619.390	0.0158330
619.468	0.0159495
619.546	0.0157613
619.624	0.0159780
619.703	0.0159157
619.781	0.0157707
619.859	0.0159325
619.937	0.0158238
620.015	0.0158002
620.093	0.0158514
620.171	0.0158992
620.249	0.0158080
620.328	0.0159811
620.406	0.0158224
620.484	0.0158607
620.562	0.0159431
620.640	0.0157900
620.718	0.0158501
620.796	0.0159412
620.874	0.0158175
620.953	0.0156680
621.031	0.0158591
621.109	0.0157433
621.187	0.0158794
621.265	0.0158098
621.343	0.0157955
621.421	0.0157605
621.499	0.0158044
621.578	0.0159433
621.656	0.0159514
621.734	0.0158366
621.812	0.0159258
621.890	0.0157854
621.968	0.0159012
622.046	0.0159119
622.124	0.0158098
622.203	0.0158082
622.281	0.0158142
622.359	0.0159105
622.437	0.0159474
622.515	0.0158563
622.593	0.0158022
622.671	0.0158311
622.749	0.0159703
622.828	0.0159068
622.906	0.0158314
622.984	0.0158637
623.062	0.0159441
623.140	0.0159405
623.218	0.0158543
623.296	0.0159815
623.374	0.0158279
623.453	0.0159172
623.531	0.0158064
623.609	0.0157991
623.687	0.0158425
623.765	0.0157403
623.843	0.0159425
623.921	0.0158611
623.999	0.0158501
624.078	0.0157187
624.156	0.0159570
624.234	0.0159296
624.312	0.0157667
624.390	0.0157970
624.468	0.0158626
624.546	0.0159031
624.624	0.0158856
624.703	0.0157830
624.781	0.0158034
624.859	0.0158335
624.937	0.0160242
625.015	0.0157819
625.093	0.0158161
625.171	0.0159090
625.249	0.0158578
625.328	0.0158996
625.406	0.0159555
625.484	0.0157172
625.562	0.0157874
625.640	0.0157869
625.718	0.0159021
625.796	0.0159724
625.874	0.0157944
625.953	0.0159861
626.031	0.0158867
626.109	0.0159009
626.187	0.0157349
626.265	0.0158837
626.343	0.0158187
626.421	0.0160403
626.499	0.0159297
626.578	0.0158562
626.656	0.0157972
626.734	0.0159415
626.812	0.0159139
626.890	0.0158625
626.968	0.0157600
627.046	0.0158968
627.124	0.0159052
627.203	0.0158582
627.281	0.0157582
627.359	0.0159464
627.437	0.0159778
627.515	0.0158979
627.593	0.0158642
627.671	0.0157861
627.749	0.0159266
627.828	0.0158067
627.906	0.0158422
627.984	0.0159664
628.062	0.0159147
628.140	0.0158862
628.218	0.0157550
628.296	0.0158331
628.374	0.0159557
628.453	0.0158531
628.531	0.0159370
628.609	0.0159120
628.687	0.0157308
628.765	0.0157854
628.843	0.0159290
628.921	0.0158159
628.999	0.0158060
629.078	0.0159165
629.156	0.0159042
629.234	0.0158575
629.312	0.0158321
629.390	0.0158047
629.468	0.0159389
629.546	0.0158504
629.624	0.0158814
629.703	0.0158535
629.781	0.0159236
629.859	0.0158620
629.937	0.0158881
630.015	0.0158081
630.093	0.0158637
630.171	0.0159621
630.249	0.0159152
630.328	0.0157768
630.406	0.0158830
630.484	0.0158029
630.562	0.0159045
630.640	0.0158294
630.718	0.0159985
630.796	0.0158445
630.874	0.0158666
630.953	0.0157397
631.031	0.0157994
631.109	0.0158711
631.187	0.0158719
631.265	0.0158036
631.343	0.0159760
631.421	0.0158522
631.499	0.0158273
631.578	0.0160111
631.656	0.0159355
631.734	0.0158990
631.812	0.0158330
631.890	0.0159625
631.968	0.0156404
632.046	0.0159279
632.124	0.0158615
632.203	0.0160569
632.281	0.0158818
632.359	0.0158628
632.437	0.0158600
632.515	0.0158223
632.593	0.0158392
632.671	0.0157414
632.749	0.0157566
632.828	0.0158069
632.906	0.0156710
632.984	0.0157776
633.062	0.0158817
633.140	0.0160379
633.218	0.0159422
633.296	0.0157787
633.374	0.0158770
633.453	0.0159230
633.531	0.0158801
633.609	0.0158145
633.687	0.0158644
633.765	0.0159205
633.843	0.0159159
633.921	0.0157995
633.999	0.0157803
634.078	0.0158595
634.156	0.0158150
634.234	0.0157164
634.312	0.0160053
634.390	0.0159467
634.468	0.0160061
634.546	0.0159464
634.624	0.0158025
634.703	0.0158579
634.781	0.0158212
634.859	0.0157824
634.937	0.0157607
635.015	0.0158389
635.093	0.0157869
635.171	0.0158870
635.249	0.0158830
635.328	0.0157325
635.406	0.0158280
635.484	0.0159566
635.562	0.0158770
635.640	0.0159972
635.718	0.0159538
635.796	0.0159401
635.874	0.0157316
635.953	0.0158141
636.031	0.0159785
636.109	0.0158072
636.187	0.0158693
636.265	0.0158503
636.343	0.0157929
636.421	0.0158344
636.499	0.0159027
636.578	0.0157687
636.656	0.0158181
636.734	0.0157349
636.812	0.0158256
636.890	0.0159189
636.968	0.0158619
637.046	0.0159178
637.124	0.0158836
637.203	0.0160626
637.281	0.0159983
637.359	0.0158575
637.437	0.0159531
637.515	0.0158062
637.593	0.0157858
637.671	0.0158923
637.749	0.0157938
637.828	0.0158593
637.906	0.0158440
637.984	0.0157053
638.062	0.0158102
638.140	0.0157982
638.218	0.0158314
638.296	0.0157840
638.374	0.0158866
638.453	0.0158558
638.531	0.0158365
638.609	0.0159509
638.687	0.0158833
638.765	0.0158157
638.843	0.0158546
638.921	0.0159116
638.999	0.0157761
639.078	0.0158913
639.156	0.0159211
639.234	0.0159305
639.312	0.0158193
639.390	0.0159818
639.468	0.0159014
639.546	0.0157867
639.624	0.0159064
639.703	0.0157285
639.781	0.0159343
639.859	0.0158749
639.937	0.0158439
640.015	0.0158150
640.093	0.0157841
640.171	0.0157426
640.249	0.0157504
640.328	0.0159090
640.406	0.0158108
640.484	0.0158357
640.562	0.0157311
640.640	0.0158565
640.718	0.0159574
640.796	0.0157427
640.874	0.0158006
640.953	0.0159086
641.031	0.0158749
641.109	0.0159058
641.187	0.0158803
641.265	0.0156937
641.343	0.0158371
641.421	0.0157889
641.499	0.0159013
641.578	0.0159782
641.656	0.0158546
641.734	0.0158289
641.812	0.0157358
641.890	0.0158526
641.968	0.0157711
642.046	0.0158856
642.124	0.0158757
642.203	0.0158894
642.281	0.0159333
642.359	0.0158269
642.437	0.0158015
642.515	0.0158350
642.593	0.0157911
642.671	0.0158053
642.749	0.0159160
642.828	0.0158354
642.906	0.0158587
642.984	0.0157510
643.062	0.0158735
643.140	0.0158550
643.218	0.0158096
643.296	0.0158449
643.374	0.0158752
643.453	0.0159008
643.531	0.0159328
643.609	0.0158849
643.687	0.0158709
643.765	0.0158205
643.843	0.0156801
643.921	0.0158783
643.999	0.0160282
644.078	0.0157158
644.156	0.0158497
644.234	0.0158604
644.312	0.0158995
644.390	0.0158096
644.468	0.0157949
644.546	0.0160318
644.624	0.0158364
644.703	0.0158620
644.781	0.0158975
644.859	0.0158364
644.937	0.0157338
645.015	0.0158234
645.093	0.0159859
645.171	0.0158558
645.249	0.0159662
645.328	0.0158735
645.406	0.0159672
645.484	0.0158088
645.562	0.0158624
645.640	0.0159490
645.718	0.0157844
645.796	0.0159939
645.874	0.0158945
645.953	0.0158271
646.031	0.0158580
646.109	0.0158296
646.187	0.0158636
646.265	0.0159114
646.343	0.0157937
646.421	0.0158990
646.499	0.0157817
646.578	0.0159189
646.656	0.0159133
646.734	0.0158421
646.812	0.0157981
646.890	0.0159914
646.968	0.0157131
647.046	0.0158305
647.124	0.0159643
647.203	0.0157884
647.281	0.0158937
647.359	0.0158742
647.437	0.0158841
647.515	0.0159379
647.593	0.0159203
647.671	0.0157909
647.749	0.0159263
647.828	0.0159300
647.906	0.0160121
647.984	0.0158818
648.062	0.0158619
648.140	0.0158171
648.218	0.0159343
648.296	0.0158566
648.374	0.0158224
648.453	0.0160010
648.531	0.0159192
648.609	0.0157796
648.687	0.0158313
648.765	0.0157029
648.843	0.0159474
648.921	0.0159592
648.999	0.0158690
649.078	0.0159016
649.156	0.0158314
649.234	0.0158140
649.312	0.0159498
649.390	0.0159488
649.468	0.0157603
649.546	0.0159409
649.624	0.0158772
649.703	0.0157578
649.781	0.0158612
649.859	0.0158902
649.937	0.0158593
650.015	0.0159422
650.093	0.0159840
650.171	0.0159460
650.249	0.0157604
650.328	0.0158595
650.406	0.0158587
650.484	0.0158107
650.562	0.0159461
650.640	0.0158776
650.718	0.0157790
650.796	0.0158163
650.874	0.0158657
650.953	0.0157886
651.031	0.0158965
651.109	0.0158913
651.187	0.0158996
651.265	0.0158739
651.343	0.0159261
651.421	0.0158760
651.499	0.0157410
651.578	0.0158754
651.656	0.0158714
651.734	0.0159374
651.812	0.0158936
651.890	0.0159782
651.968	0.0158591
652.046	0.0160363
652.124	0.0159262
652.203	0.0159397
652.281	0.0159462
652.359	0.0158114
652.437	0.0159971
652.515	0.0158818
652.593	0.0158480
652.671	0.0158231
652.749	0.0159356
652.828	0.0159335
652.906	0.0159378
652.984	0.0158279
653.062	0.0157800
653.140	0.0159481
653.218	0.0159326
653.296	0.0158219
653.374	0.0158292
653.453	0.0158901
653.531	0.0158147
653.609	0.0158925
653.687	0.0159034
653.765	0.0158347
653.843	0.0157169
653.921	0.0158923
653.999	0.0158646
654.078	0.0158949
654.156	0.0159580
654.234	0.0157327
654.312	0.0157809
654.390	0.0157561
654.468	0.0157951
654.546	0.0158460
654.624	0.0157194
654.703	0.0158711
654.781	0.0159061
654.859	0.0158632
654.937	0.0157998
655.015	0.0158935
655.093	0.0157539
655.171	0.0157958
655.249	0.0157358
655.328	0.0158211
655.406	0.0158654
655.484	0.0158258
655.562	0.0157439
655.640	0.0157776
655.718	0.0159663
655.796	0.0158147
655.874	0.0158862
655.953	0.0158449
656.031	0.0158218
656.109	0.0159013
656.187	0.0158537
656.265	0.0159962
656.343	0.0157559
656.421	0.0158385
656.499	0.0157252
656.578	0.0158158
656.656	0.0159940
656.734	0.0158752
656.812	0.0158474
656.890	0.0159780
656.968	0.0159227
657.046	0.0157509
657.124	0.0157664
657.203	0.0159001
657.281	0.0157796
657.359	0.0158094
657.437	0.0159061
657.515	0.0158250
657.593	0.0159666
657.671	0.0158397
657.749	0.0158052
657.828	0.0157885
657.906	0.0158751
657.984	0.0159695
658.062	0.0159005
658.140	0.0157001
658.218	0.0158685
658.296	0.0158939
658.374	0.0159730
658.453	0.0160201
658.531	0.0157475
658.609	0.0159404
658.687	0.0159557
658.765	0.0158358
658.843	0.0158051
658.921	0.0158539
658.999	0.0159027
659.078	0.0157985
659.156	0.0158421
659.234	0.0158325
659.312	0.0159216
659.390	0.0158758
659.468	0.0158537
659.546	0.0157303
659.624	0.0158353
659.703	0.0159477
659.781	0.0158403
659.859	0.0159286
659.937	0.0159612
660.015	0.0157483
660.093	0.0158553
660.171	0.0159003
660.249	0.0157761
660.328	0.0160435
660.406	0.0159383
660.484	0.0159497
660.562	0.0160634
660.640	0.0158134
660.718	0.0157220
660.796	0.0158934
660.874	0.0158878
660.953	0.0158055
661.031	0.0157543
661.109	0.0157774
661.187	0.0157712
661.265	0.0160057
661.343	0.0158442
661.421	0.0158978
661.499	0.0158752
661.578	0.0159386
661.656	0.0159940
661.734	0.0159306
661.812	0.0158659
661.890	0.0158711
661.968	0.0158171
662.046	0.0158607
662.124	0.0160432
662.203	0.0158215
662.281	0.0158768
662.359	0.0159174
662.437	0.0159679
662.515	0.0158676
662.593	0.0158840
662.671	0.0158894
662.749	0.0158638
662.828	0.0157630
662.906	0.0159966
662.984	0.0158041
663.062	0.0158087
663.140	0.0158773
663.218	0.0158914
663.296	0.0159446
663.374	0.0158478
663.453	0.0158543
663.531	0.0156331
663.609	0.0159059
663.687	0.0158817
663.765	0.0158616
663.843	0.0159200
663.921	0.0158844
663.999	0.0157960
664.078	0.0156989
664.156	0.0157485
664.234	0.0160019
664.312	0.0158832
664.390	0.0157545
664.468	0.0158752
664.546	0.0160265
664.624	0.0159435
664.703	0.0158644
664.781	0.0158818
664.859	0.0159379
664.937	0.0158643
665.015	0.0158867
665.093	0.0158591
665.171	0.0160132
665.249	0.0159413
665.328	0.0159014
665.406	0.0157993
665.484	0.0159074
665.562	0.0159390
665.640	0.0158266
665.718	0.0158499
665.796	0.0159396
665.874	0.0159950
665.953	0.0158886
666.031	0.0157950
666.109	0.0156934
666.187	0.0158371
666.265	0.0157761
666.343	0.0158142
666.421	0.0158524
666.499	0.0158514
666.578	0.0159155
666.656	0.0158671
666.734	0.0159388
666.812	0.0157912
666.890	0.0158900
666.968	0.0158704
667.046	0.0158212
667.124	0.0160645
667.203	0.0160293
667.281	0.0159274
667.359	0.0158741
667.437	0.0158176
667.515	0.0158904
667.593	0.0158771
667.671	0.0160216
667.749	0.0157745
667.828	0.0159167
667.906	0.0158441
667.984	0.0159172
668.062	0.0157736
668.140	0.0159319
668.218	0.0159245
668.296	0.0157910
668.374	0.0158421
668.453	0.0158302
668.531	0.0158041
668.609	0.0159192
668.687	0.0159848
668.765	0.0158525
668.843	0.0159603
668.921	0.0158237
668.999	0.0159184
669.078	0.0159144
669.156	0.0158983
669.234	0.0158259
669.312	0.0159538
669.390	0.0159102
669.468	0.0158155
669.546	0.0159348
669.624	0.0159705
669.703	0.0158826
669.781	0.0159186
669.859	0.0158998
669.937	0.0158775
670.015	0.0159058
670.093	0.0158878
670.171	0.0160894
670.249	0.0160725
670.328	0.0159666
670.406	0.0160059
670.484	0.0159293
670.562	0.0158942
670.640	0.0159714
670.718	0.0159064
670.796	0.0157799
670.874	0.0159010
670.953	0.0159041
671.031	0.0158149
671.109	0.0157938
671.187	0.0158687
671.265	0.0159169
671.343	0.0157688
671.421	0.0158426
671.499	0.0158876
671.578	0.0158569
671.656	0.0159180
671.734	0.0158352
671.812	0.0159158
671.890	0.0158089
671.968	0.0158136
672.046	0.0159098
672.124	0.0158346
672.203	0.0158517
672.281	0.0158712
672.359	0.0159187
672.437	0.0158538
672.515	0.0158807
672.593	0.0159655
672.671	0.0160300
672.749	0.0158421
672.828	0.0159039
672.906	0.0159295
672.984	0.0158247
673.062	0.0158370
673.140	0.0158684
673.218	0.0158695
673.296	0.0158690
673.374	0.0159684
673.453	0.0159920
673.531	0.0158690
673.609	0.0158493
673.687	0.0158643
673.765	0.0159634
673.843	0.0158325
673.921	0.0158351
673.999	0.0158150
674.078	0.0159795
674.156	0.0157010
674.234	0.0156681
674.312	0.0158622
674.390	0.0160035
674.468	0.0157892
674.546	0.0158427
674.624	0.0159359
674.703	0.0159711
674.781	0.0159648
674.859	0.0159689
674.937	0.0158649
675.015	0.0158926
675.093	0.0160055
675.171	0.0159608
675.249	0.0159259
675.328	0.0158540
675.406	0.0160161
675.484	0.0160040
675.562	0.0160323
675.640	0.0158292
675.718	0.0157409
675.796	0.0159846
675.874	0.0159245
675.953	0.0159417
676.031	0.0158910
676.109	0.0158311
676.187	0.0159086
676.265	0.0159160
676.343	0.0159643
676.421	0.0158481
676.499	0.0159136
676.578	0.0158351
676.656	0.0158626
676.734	0.0158259
676.812	0.0158484
676.890	0.0158456
676.968	0.0158121
677.046	0.0156527
677.124	0.0158985
677.203	0.0159156
677.281	0.0159099
677.359	0.0158311
677.437	0.0158686
677.515	0.0158099
677.593	0.0157455
677.671	0.0159952
677.749	0.0158550
677.828	0.0159338
677.906	0.0158750
677.984	0.0158047
678.062	0.0158485
678.140	0.0158549
678.218	0.0158247
678.296	0.0158488
678.374	0.0158934
678.453	0.0159158
678.531	0.0158759
678.609	0.0158739
678.687	0.0157909
678.765	0.0158230
678.843	0.0158783
678.921	0.0157522
678.999	0.0157151
679.078	0.0158868
679.156	0.0158704
679.234	0.0159468
679.312	0.0159222
679.390	0.0158619
679.468	0.0157564
679.546	0.0160641
679.624	0.0157790
679.703	0.0158270
679.781	0.0159017
679.859	0.0157215
679.937	0.0157684
680.015	0.0158299
680.093	0.0159793
680.171	0.0158163
680.249	0.0157742
680.328	0.0157841
680.406	0.0159151
680.484	0.0159065
680.562	0.0160104
680.640	0.0158256
680.718	0.0158685
680.796	0.0158257
680.874	0.0159229
680.953	0.0158935
681.031	0.0157743
681.109	0.0158067
681.187	0.0158781
681.265	0.0157961
681.343	0.0159444
681.421	0.0158369
681.499	0.0158276
681.578	0.0159002
681.656	0.0158220
681.734	0.0158496
681.812	0.0159601
681.890	0.0158075
681.968	0.0157933
682.046	0.0158193
682.124	0.0159785
682.203	0.0158820
682.281	0.0157084
682.359	0.0159353
682.437	0.0159696
682.515	0.0158998
682.593	0.0158829
682.671	0.0158378
682.749	0.0157684
682.828	0.0158259
682.906	0.0158253
682.984	0.0157690
683.062	0.0159084
683.140	0.0157840
683.218	0.0157979
683.296	0.0159527
683.374	0.0158630
683.453	0.0157825
683.531	0.0157716
683.609	0.0159917
683.687	0.0158517
683.765	0.0158629
683.843	0.0159625
683.921	0.0158082
683.999	0.0157570
684.078	0.0158439
684.156	0.0158790
684.234	0.0158707
684.312	0.0158318
684.390	0.0158016
684.468	0.0159255
684.546	0.0157941
684.624	0.0157927
684.703	0.0158606
684.781	0.0159716
684.859	0.0159918
684.937	0.0158928
685.015	0.0158437
685.093	0.0158353
685.171	0.0158594
685.249	0.0158433
685.328	0.0156099
685.406	0.0158513
685.484	0.0158860
685.562	0.0158870
685.640	0.0159219
685.718	0.0157298
685.796	0.0158456
685.874	0.0157890
685.953	0.0157878
686.031	0.0157904
686.109	0.0158614
686.187	0.0158461
686.265	0.0159622
686.343	0.0158197
686.421	0.0158238
686.499	0.0158644
686.578	0.0159639
686.656	0.0158804
686.734	0.0157562
686.812	0.0157571
686.890	0.0158024
686.968	0.0157790
687.046	0.0158790
687.124	0.0158308
687.203	0.0159242
687.281	0.0159415
687.359	0.0158319
687.437	0.0156383
687.515	0.0157128
687.593	0.0159364
687.671	0.0159087
687.749	0.0157991
687.828	0.0157881
687.906	0.0159396
687.984	0.0159248
688.062	0.0157688
688.140	0.0157420
688.218	0.0159202
688.296	0.0158237
688.374	0.0156831
688.453	0.0158756
688.531	0.0160011
688.609	0.0159225
688.687	0.0157273
688.765	0.0158447
688.843	0.0160194
688.921	0.0158398
688.999	0.0158559
689.078	0.0158137
689.156	0.0158419
689.234	0.0158429
689.312	0.0158037
689.390	0.0157831
689.468	0.0159103
689.546	0.0158253
689.624	0.0157433
689.703	0.0158545
689.781	0.0159336
689.859	0.0157516
689.937	0.0157447
690.015	0.0159074
690.093	0.0157826
690.171	0.0158244
690.249	0.0160133
690.328	0.0158177
690.406	0.0157815
690.484	0.0160244
690.562	0.0158946
690.640	0.0158511
690.718	0.0157741
690.796	0.0158401
690.874	0.0158706
690.953	0.0157590
691.031	0.0158382
691.109	0.0158524
691.187	0.0158334
691.265	0.0158541
691.343	0.0158274
691.421	0.0159258
691.499	0.0158324
691.578	0.0159025
691.656	0.0158597
691.734	0.0159196
691.812	0.0159142
691.890	0.0157764
691.968	0.0158154
692.046	0.0158936
692.124	0.0157790
692.203	0.0157587
692.281	0.0158485
692.359	0.0158620
692.437	0.0158799
692.515	0.0158532
692.593	0.0157862
692.671	0.0158805
692.749	0.0157655
692.828	0.0159577
692.906	0.0159122
692.984	0.0158788
693.062	0.0158425
693.140	0.0158253
693.218	0.0157761
693.296	0.0158424
693.374	0.0158923
693.453	0.0158407
693.531	0.0159187
693.609	0.0159068
693.687	0.0157623
693.765	0.0157613
693.843	0.0157681
693.921	0.0158859
693.999	0.0158887
694.078	0.0159501
694.156	0.0158192
694.234	0.0159727
694.312	0.0158237
694.390	0.0157745
694.468	0.0158205
694.546	0.0160213
694.624	0.0158392
694.703	0.0158787
694.781	0.0160348
694.859	0.0157427
694.937	0.0158237
695.015	0.0158067
695.093	0.0160287
695.171	0.0159862
695.249	0.0157663
695.328	0.0158366
695.406	0.0159391
695.484	0.0159030
695.562	0.0157906
695.640	0.0157854
695.718	0.0157867
695.796	0.0158920
695.874	0.0159243
695.953	0.0158524
696.031	0.0159538
696.109	0.0157937
696.187	0.0157968
696.265	0.0158157
696.343	0.0157256
696.421	0.0158829
696.499	0.0160027
696.578	0.0158601
696.656	0.0158179
696.734	0.0158907
696.812	0.0158717
696.890	0.0156831
696.968	0.0158578
697.046	0.0159208
697.124	0.0158470
697.203	0.0158614
697.281	0.0159372
697.359	0.0158533
697.437	0.0158815
697.515	0.0158256
697.593	0.0158646
697.671	0.0157632
697.749	0.0159058
697.828	0.0158453
697.906	0.0158167
697.984	0.0158392
698.062	0.0158630
698.140	0.0157906
698.218	0.0159008
698.296	0.0158069
698.374	0.0158154
698.453	0.0158225
698.531	0.0158654
698.609	0.0157508
698.687	0.0158031
698.765	0.0158425
698.843	0.0158189
698.921	0.0159018
698.999	0.0158975
699.078	0.0158175
699.156	0.0157158
699.234	0.0158105
699.312	0.0159032
699.390	0.0158576
699.468	0.0157630
699.546	0.0158379
699.624	0.0158788
699.703	0.0158679
699.781	0.0159550
699.859	0.0158434
699.937	0.0158267
700.015	0.0158985
700.093	0.0159673
700.171	0.0157951
700.249	0.0158470
700.328	0.0158360
700.406	0.0158608
700.484	0.0160065
700.562	0.0159435
700.640	0.0158930
700.718	0.0158932
700.796	0.0159081
700.874	0.0158366
700.953	0.0158230
701.031	0.0157965
701.109	0.0159195
701.187	0.0159301
701.265	0.0157668
701.343	0.0157989
701.421	0.0159393
701.499	0.0157542
701.578	0.0158210
701.656	0.0158910
701.734	0.0157862
701.812	0.0158413
701.890	0.0158819
701.968	0.0158929
702.046	0.0158284
702.124	0.0157616
702.203	0.0158824
702.281	0.0157857
702.359	0.0158618
702.437	0.0158173
702.515	0.0158619
702.593	0.0159510
702.671	0.0157540
702.749	0.0157785
702.828	0.0158818
702.906	0.0159020
702.984	0.0157513
703.062	0.0158094
703.140	0.0158469
703.218	0.0157597
703.296	0.0157728
703.374	0.0157864
703.453	0.0158030
703.531	0.0158076
703.609	0.0157596
703.687	0.0158910
703.765	0.0158448
703.843	0.0159097
703.921	0.0159783
703.999	0.0158836
704.078	0.0158459
704.156	0.0158003
704.234	0.0158769
704.312	0.0157794
704.390	0.0159100
704.468	0.0158855
704.546	0.0158515
704.624	0.0158189
704.703	0.0158983
704.781	0.0159050
704.859	0.0158302
704.937	0.0158981
705.015	0.0159485
705.093	0.0157326
705.171	0.0158000
705.249	0.0158972
705.328	0.0157968
705.406	0.0158040
705.484	0.0159364
705.562	0.0157639
705.640	0.0158677
705.718	0.0159377
705.796	0.0159072
705.874	0.0157661
705.953	0.0159046
706.031	0.0158395
706.109	0.0157857
706.187	0.0158577
706.265	0.0157523
706.343	0.0158801
706.421	0.0159522
706.499	0.0158644
706.578	0.0158892
706.656	0.0157508
706.734	0.0159690
706.812	0.0158341
706.890	0.0156767
706.968	0.0158410
707.046	0.0157954
707.124	0.0158810
707.203	0.0158959
707.281	0.0157176
707.359	0.0159007
707.437	0.0160010
707.515	0.0159310
707.593	0.0158970
707.671	0.0159319
707.749	0.0158217
707.828	0.0158772
707.906	0.0157973
707.984	0.0157282
708.062	0.0158871
708.140	0.0159393
708.218	0.0158257
708.296	0.0158447
708.374	0.0158863
708.453	0.0159362
708.531	0.0159647
708.609	0.0159013
708.687	0.0157961
708.765	0.0157339
708.843	0.0158293
708.921	0.0157307
708.999	0.0159597
709.078	0.0157300
709.156	0.0158540
709.234	0.0158437
709.312	0.0158376
709.390	0.0157938
709.468	0.0157986
709.546	0.0158125
709.624	0.0157095
709.703	0.0158157
709.781	0.0158170
709.859	0.0157735
709.937	0.0158429
710.015	0.0158871
710.093	0.0157767
710.171	0.0158190
710.249	0.0158982
710.328	0.0157527
710.406	0.0156834
710.484	0.0157076
710.562	0.0158543
710.640	0.0157995
710.718	0.0157014
710.796	0.0158407
710.874	0.0157518
710.953	0.0157758
711.031	0.0158755
711.109	0.0158084
711.187	0.0156719
711.265	0.0156465
711.343	0.0159184
711.421	0.0158163
711.499	0.0158223
711.578	0.0158424
711.656	0.0157661
711.734	0.0158338
711.812	0.0157468
711.890	0.0158063
711.968	0.0158398
712.046	0.0157531
712.124	0.0158508
712.203	0.0158504
712.281	0.0157377
712.359	0.0158823
712.437	0.0157755
712.515	0.0158762
712.593	0.0158566
712.671	0.0159452
712.749	0.0158379
712.828	0.0157556
712.906	0.0158286
712.984	0.0158224
713.062	0.0158768
713.140	0.0158227
713.218	0.0157895
713.296	0.0158371
713.374	0.0158300
713.453	0.0158072
713.531	0.0158762
713.609	0.0158452
713.687	0.0158566
713.765	0.0157961
713.843	0.0157940
713.921	0.0156614
713.999	0.0158432
714.078	0.0160621
714.156	0.0157588
714.234	0.0158419
714.312	0.0157689
714.390	0.0157045
714.468	0.0158443
714.546	0.0158247
714.624	0.0158779
714.703	0.0159245
714.781	0.0158861
714.859	0.0157247
714.937	0.0158735
715.015	0.0159062
715.093	0.0157739
715.171	0.0157933
715.249	0.0158301
715.328	0.0158725
715.406	0.0158585
715.484	0.0158179
715.562	0.0158597
715.640	0.0158829
715.718	0.0157793
715.796	0.0157597
715.874	0.0158340
715.953	0.0159238
716.031	0.0159181
716.109	0.0158718
716.187	0.0158178
716.265	0.0159338
716.343	0.0159147
716.421	0.0159174
716.499	0.0158926
716.578	0.0158025
716.656	0.0156793
716.734	0.0159303
716.812	0.0159024
716.890	0.0158097
716.968	0.0157569
717.046	0.0158843
717.124	0.0157374
717.203	0.0157813
717.281	0.0158581
717.359	0.0158348
717.437	0.0157938
717.515	0.0157143
717.593	0.0158200
717.671	0.0158229
717.749	0.0158438
717.828	0.0158455
717.906	0.0156763
717.984	0.0157703
718.062	0.0156990
718.140	0.0157209
718.218	0.0158633
718.296	0.0159019
718.374	0.0159182
718.453	0.0158624
718.531	0.0158262
718.609	0.0158398
718.687	0.0158020
718.765	0.0157476
718.843	0.0157720
718.921	0.0158251
718.999	0.0156695
719.078	0.0158334
719.156	0.0159554
719.234	0.0159299
719.312	0.0159398
719.390	0.0158643
719.468	0.0157056
719.546	0.0156997
719.624	0.0158262
719.703	0.0158684
719.781	0.0159368
719.859	0.0156878
719.937	0.0157575
720.015	0.0158733
720.093	0.0157218
720.171	0.0158153
720.249	0.0158363
720.328	0.0157518
720.406	0.0158763
720.484	0.0158278
720.562	0.0156100
720.640	0.0158537
720.718	0.0158081
720.796	0.0157151
720.874	0.0157728
720.953	0.0158340
721.031	0.0157199
721.109	0.0157237
721.187	0.0157971
721.265	0.0157235
721.343	0.0157328
721.421	0.0159163
721.499	0.0158109
721.578	0.0158919
721.656	0.0158391
721.734	0.0158459
721.812	0.0157100
721.890	0.0157954
721.968	0.0157997
722.046	0.0158041
722.124	0.0157988
722.203	0.0157771
722.281	0.0158360
722.359	0.0158516
722.437	0.0158402
722.515	0.0158769
722.593	0.0158167
722.671	0.0156866
722.749	0.0158324
722.828	0.0159893
722.906	0.0159029
722.984	0.0159044
723.062	0.0158482
723.140	0.0159433
723.218	0.0158475
723.296	0.0158565
723.374	0.0157208
723.453	0.0159515
723.531	0.0158989
723.609	0.0157625
723.687	0.0158466
723.765	0.0159875
723.843	0.0160284
723.921	0.0158871
723.999	0.0157581
724.078	0.0158908
724.156	0.0158629
724.234	0.0158998
724.312	0.0159480
724.390	0.0160183
724.468	0.0159412
724.546	0.0158614
724.624	0.0158397
724.703	0.0159315
724.781	0.0157671
724.859	0.0158176
724.937	0.0159815
725.015	0.0159800
725.093	0.0160547
725.171	0.0159595
725.249	0.0159510
725.328	0.0159544
725.406	0.0159867
725.484	0.0160179
725.562	0.0159267
725.640	0.0158720
725.718	0.0158706
725.796	0.0159263
725.874	0.0158121
725.953	0.0159176
726.031	0.0159629
726.109	0.0159781
726.187	0.0159097
726.265	0.0158210
726.343	0.0159659
726.421	0.0159171
726.499	0.0158744
726.578	0.0159518
726.656	0.0159704
726.734	0.0158801
726.812	0.0158063
726.890	0.0159286
726.968	0.0158646
727.046	0.0158647
727.124	0.0160253
727.203	0.0159516
727.281	0.0159505
727.359	0.0159245
727.437	0.0158399
727.515	0.0158134
727.593	0.0158736
727.671	0.0159961
727.749	0.0159225
727.828	0.0159810
727.906	0.0159309
727.984	0.0158730
728.062	0.0158791
728.140	0.0158842
728.218	0.0158276
728.296	0.0157740
728.374	0.0159195
728.453	0.0159336
728.531	0.0158817
728.609	0.0160011
728.687	0.0158072
728.765	0.0158303
728.843	0.0157755
728.921	0.0158585
728.999	0.0158492
729.078	0.0158149
729.156	0.0158191
729.234	0.0159380
729.312	0.0158211
729.390	0.0159212
729.468	0.0159430
729.546	0.0158642
729.624	0.0156829
729.703	0.0157486
729.781	0.0157980
729.859	0.0158970
729.937	0.0159598
730.015	0.0157777
730.093	0.0159128
730.171	0.0158309
730.249	0.0157543
730.328	0.0157780
730.406	0.0159121
730.484	0.0159901
730.562	0.0158898
730.640	0.0157896
730.718	0.0158004
730.796	0.0157333
730.874	0.0158213
730.953	0.0159248
731.031	0.0158672
731.109	0.0158221
731.187	0.0159132
731.265	0.0157365
731.343	0.0158241
731.421	0.0157850
731.499	0.0157033
731.578	0.0158582
731.656	0.0157426
731.734	0.0158395
731.812	0.0159069
731.890	0.0157225
731.968	0.0157049
732.046	0.0159399
732.124	0.0159206
732.203	0.0158135
732.281	0.0158022
732.359	0.0157661
732.437	0.0157998
732.515	0.0159077
732.593	0.0159074
732.671	0.0157594
732.749	0.0158112
732.828	0.0158625
732.906	0.0157990
732.984	0.0159183
733.062	0.0158765
733.140	0.0157922
733.218	0.0158083
733.296	0.0157854
733.374	0.0156961
733.453	0.0158176
733.531	0.0157610
733.609	0.0157937
733.687	0.0157883
733.765	0.0158211
733.843	0.0159222
733.921	0.0158185
733.999	0.0157693
734.078	0.0158856
734.156	0.0158011
734.234	0.0157992
734.312	0.0158032
734.390	0.0158406
734.468	0.0157715
734.546	0.0159419
734.624	0.0158443
734.703	0.0157974
734.781	0.0159722
734.859	0.0158331
734.937	0.0159047
735.015	0.0158661
735.093	0.0158855
735.171	0.0158300
735.249	0.0159511
735.328	0.0158833
735.406	0.0157837
735.484	0.0159007
735.562	0.0159311
735.640	0.0158459
735.718	0.0157987
735.796	0.0158408
735.874	0.0158108
735.953	0.0158369
736.031	0.0159035
736.109	0.0159639
736.187	0.0157558
736.265	0.0157912
736.343	0.0159494
736.421	0.0158571
736.499	0.0157977
736.578	0.0159565
736.656	0.0158709
736.734	0.0158656
736.812	0.0156863
736.890	0.0157296
736.968	0.0159251
737.046	0.0158241
737.124	0.0157223
737.203	0.0157407
737.281	0.0159380
737.359	0.0159003
737.437	0.0158429
737.515	0.0157320
737.593	0.0156960
737.671	0.0158324
737.749	0.0158773
737.828	0.0158539
737.906	0.0157668
737.984	0.0157289
738.062	0.0158106
738.140	0.0158412
738.218	0.0157288
738.296	0.0157951
738.374	0.0159034
738.453	0.0157774
738.531	0.0158200
738.609	0.0158460
738.687	0.0157586
738.765	0.0157461
738.843	0.0157705
738.921	0.0158999
738.999	0.0157217
739.078	0.0159316
739.156	0.0157547
739.234	0.0156762
739.312	0.0161019
739.390	0.0159933
739.468	0.0159660
739.546	0.0159478
739.624	0.0161165
739.703	0.0160232
739.781	0.0159658
739.859	0.0160471
739.937	0.0162611
740.015	0.0160655
740.093	0.0161414
740.171	0.0161356
740.249	0.0160419
740.328	0.0160706
740.406	0.0159964
740.484	0.0158086
740.562	0.0159328
740.640	0.0157753
740.718	0.0157558
740.796	0.0156866
740.874	0.0157818
740.953	0.0157776
741.031	0.0155541
741.109	0.0154396
741.187	0.0155146
741.265	0.0155025
741.343	0.0153781
741.421	0.0153911
741.499	0.0154501
741.578	0.0154333
741.656	0.0154040
741.734	0.0156225
741.812	0.0158143
741.890	0.0159293
741.968	0.0159739
742.046	0.0161856
742.124	0.0160755
742.203	0.0161549
742.281	0.0162109
742.359	0.0161086
742.437	0.0159507
742.515	0.0158295
742.593	0.0157738
742.671	0.0154510
742.749	0.0151756
742.828	0.0148447
742.906	0.0147722
742.984	0.0146012
743.062	0.0146312
743.140	0.0147366
743.218	0.0147043
743.296	0.0148394
743.374	0.0152148
743.453	0.0156439
743.531	0.0159389
743.609	0.0162545
743.687	0.0168443
743.765	0.0172998
743.843	0.0178565
743.921	0.0181127
743.999	0.0186825
744.078	0.0190375
744.156	0.0196315
744.234	0.0200961
744.312	0.0200546
744.390	0.0200300
744.468	0.0198511
744.546	0.0194585
744.624	0.0188531
744.703	0.0179394
744.781	0.0169508
744.859	0.0156029
744.937	0.0145375
745.015	0.0132655
745.093	0.0121262
745.171	0.0113446
745.249	0.0103929
745.328	0.00971359
745.406	0.00938965
745.484	0.00907799
745.562	0.00920822
745.640	0.00934608
745.718	0.00968971
745.796	0.0103005
745.874	0.0109762
745.953	0.0116717
746.031	0.0127933
746.109	0.0138982
746.187	0.0150479
746.265	0.0162476
746.343	0.0176924
746.421	0.0188307
746.499	0.0200101
746.578	0.0210691
746.656	0.0219600
746.734	0.0227377
746.812	0.0232516
746.890	0.0235029
746.968	0.0235876
747.046	0.0234388
747.124	0.0226580
747.203	0.0218105
747.281	0.0206466
747.359	0.0195174
747.437	0.0179750
747.515	0.0165361
747.593	0.0149696
747.671	0.0133501
747.749	0.0121918
747.828	0.0108569
747.906	0.0101942
747.984	0.00972183
748.062	0.00951500
748.140	0.00963425
748.218	0.0100845
748.296	0.0106746
748.374	0.0113251
748.453	0.0123272
748.531	0.0133378
748.609	0.0141412
748.687	0.0151822
748.765	0.0162325
748.843	0.0171889
748.921	0.0182574
748.999	0.0190777
749.078	0.0199628
749.156	0.0205507
749.234	0.0210371
749.312	0.0212792
749.390	0.0212814
749.468	0.0211455
749.546	0.0208329
749.624	0.0201177
749.703	0.0190941
749.781	0.0181785
749.859	0.0170044
749.937	0.0156406
750.015	0.0143941
750.093	0.0129276
750.171	0.0116298
750.249	0.0103931
750.328	0.00933075
750.406	0.00859299
750.484	0.00806732
750.562	0.00784790
750.640	0.00830254
750.718	0.00874969
750.796	0.00950874
750.874	0.0104479
750.953	0.0116071
751.031	0.0129220
751.109	0.0142973
751.187	0.0158917
751.265	0.0173582
751.343	0.0189183
751.421	0.0203376
751.499	0.0217986
751.578	0.0229652
751.656	0.0241142
751.734	0.0248361
751.812	0.0253924
751.890	0.0254638
751.968	0.0252670
752.046	0.0248164
752.124	0.0240758
752.203	0.0228759
752.281	0.0217091
752.359	0.0202831
752.437	0.0184323
752.515	0.0165266
752.593	0.0149498
752.671	0.0131171
752.749	0.0113838
752.828	0.00977905
752.906	0.00833740
752.984	0.00732979
753.062	0.00649925
753.140	0.00622475
753.218	0.00623650
753.296	0.00649963
753.374	0.00713203
753.453	0.00805878
753.531	0.00932693
753.609	0.0108427
753.687	0.0123537
753.765	0.0139526
753.843	0.0155444
753.921	0.0171678
753.999	0.0186775
754.078	0.0200394
754.156	0.0210881
754.234	0.0219360
754.312	0.0226225
754.390	0.0230706
754.468	0.0230202
754.546	0.0232186
754.624	0.0229298
754.703	0.0222778
754.781	0.0217262
754.859	0.0209628
754.937	0.0199705
755.015	0.0189794
755.093	0.0178130
755.171	0.0167496
755.249	0.0156864
755.328	0.0143082
755.406	0.0134985
755.484	0.0124599
755.562	0.0115069
755.640	0.0111118
755.718	0.0106900
755.796	0.0103662
755.874	0.0101016
755.953	0.0101935
756.031	0.0104100
756.109	0.0109085
756.187	0.0114709
756.265	0.0121638
756.343	0.0127486
756.421	0.0135705
756.499	0.0142850
756.578	0.0150081
756.656	0.0158441
756.734	0.0164764
756.812	0.0170305
756.890	0.0175863
756.968	0.0181577
757.046	0.0185347
757.124	0.0188553
757.203	0.0193607
757.281	0.0195432
757.359	0.0197404
757.437	0.0199406
757.515	0.0197726
757.593	0.0197137
757.671	0.0195516
757.749	0.0193204
757.828	0.0189413
757.906	0.0184087
757.984	0.0178807
758.062	0.0172841
758.140	0.0164548
758.218	0.0158074
758.296	0.0152503
758.374	0.0147384
758.453	0.0142142
758.531	0.0139301
758.609	0.0135327
758.687	0.0133438
758.765	0.0130806
758.843	0.0129665
758.921	0.0129421
758.999	0.0130682
759.078	0.0131985
759.156	0.0135483
759.234	0.0136954
759.312	0.0140379
759.390	0.0144770
759.468	0.0149454
759.546	0.0153619
759.624	0.0156291
759.703	0.0158809
759.781	0.0162370
759.859	0.0164196
759.937	0.0166196
760.015	0.0168284
760.093	0.0167706
760.171	0.0167703
760.249	0.0166957
760.328	0.0165775
760.406	0.0162398
760.484	0.0162092
760.562	0.0159085
760.640	0.0157780
760.718	0.0154893
760.796	0.0152013
760.874	0.0152663
760.953	0.0150580
761.031	0.0151263
761.109	0.0150986
761.187	0.0152361
761.265	0.0154710
761.343	0.0156264
761.421	0.0159270
761.499	0.0161221
761.578	0.0161089
761.656	0.0162128
761.734	0.0164086
761.812	0.0166103
761.890	0.0166466
761.968	0.0165468
762.046	0.0166129
762.124	0.0166018
762.203	0.0166420
762.281	0.0167394
762.359	0.0166548
762.437	0.0169190
762.515	0.0167891
762.593	0.0167469
762.671	0.0166982
762.749	0.0165742
762.828	0.0165266
762.906	0.0163390
762.984	0.0161405
763.062	0.0161216
763.140	0.0159553
763.218	0.0158081
763.296	0.0154420
763.374	0.0154731
763.453	0.0152901
763.531	0.0151096
763.609	0.0148676
763.687	0.0147655
763.765	0.0146604
763.843	0.0145924
763.921	0.0145912
763.999	0.0146951
764.078	0.0145886
764.156	0.0146657
764.234	0.0148559
764.312	0.0150098
764.390	0.0150370
764.468	0.0153495
764.546	0.0155797
764.624	0.0158325
764.703	0.0161485
764.781	0.0163637
764.859	0.0166583
764.937	0.0167627
765.015	0.0169596
765.093	0.0170676
765.171	0.0172271
765.249	0.0169710
765.328	0.0169612
765.406	0.0168076
765.484	0.0166508
765.562	0.0164846
765.640	0.0163514
765.718	0.0161979
765.796	0.0160509
765.874	0.0159314
765.953	0.0158785
766.031	0.0157637
766.109	0.0156326
766.187	0.0157350
766.265	0.0155487
766.343	0.0156075
766.421	0.0154681
766.499	0.0154255
766.578	0.0154563
766.656	0.0154343
766.734	0.0152872
766.812	0.0150450
766.890	0.0149694
766.968	0.0148022
767.046	0.0147304
767.124	0.0145541
767.203	0.0146984
767.281	0.0147818
767.359	0.0148987
767.437	0.0150533
767.515	0.0153846
767.593	0.0156318
767.671	0.0159735
767.749	0.0162576
767.828	0.0167013
767.906	0.0167133
767.984	0.0169066
768.062	0.0170280
768.140	0.0171163
768.218	0.0171792
768.296	0.0170272
768.374	0.0169541
768.453	0.0171405
768.531	0.0169617
768.609	0.0166849
768.687	0.0166014
768.765	0.0163725
768.843	0.0160176
768.921	0.0156182
768.999	0.0153429
769.078	0.0152144
769.156	0.0150481
769.234	0.0148814
769.312	0.0148985
769.390	0.0148837
769.468	0.0145609
769.546	0.0147119
769.624	0.0147959
769.703	0.0150168
769.781	0.0150208
769.859	0.0152285
769.937	0.0156068
770.015	0.0156985
770.093	0.0158182
770.171	0.0161224
770.249	0.0163306
770.328	0.0163012
770.406	0.0162838
770.484	0.0164442
770.562	0.0165459
770.640	0.0163199
770.718	0.0163055
770.796	0.0161271
770.874	0.0160815
770.953	0.0160873
771.031	0.0159228
771.109	0.0158922
771.187	0.0155895
771.265	0.0157306
771.343	0.0156518
771.421	0.0157689
771.499	0.0159279
771.578	0.0156977
771.656	0.0157066
771.734	0.0158431
771.812	0.0157721
771.890	0.0158646
771.968	0.0158426
772.046	0.0158434
772.124	0.0157030
772.203	0.0157211
772.281	0.0155842
772.359	0.0155096
772.437	0.0154225
772.515	0.0155013
772.593	0.0155644
772.671	0.0156300
772.749	0.0155858
772.828	0.0157004
772.906	0.0155829
772.984	0.0155739
773.062	0.0155257
773.140	0.0157040
773.218	0.0156505
773.296	0.0154491
773.374	0.0155931
773.453	0.0158020
773.531	0.0157854
773.609	0.0159764
773.687	0.0159933
773.765	0.0160954
773.843	0.0162209
773.921	0.0164063
773.999	0.0163129
774.078	0.0165116
774.156	0.0166299
774.234	0.0166402
774.312	0.0167275
774.390	0.0165646
774.468	0.0166387
774.546	0.0165154
774.624	0.0164339
774.703	0.0162643
774.781	0.0162366
774.859	0.0160936
774.937	0.0158730
775.015	0.0157074
775.093	0.0156780
775.171	0.0156844
775.249	0.0155550
775.328	0.0155165
775.406	0.0154385
775.484	0.0154364
775.562	0.0156038
775.640	0.0154707
775.718	0.0153631
775.796	0.0154804
775.874	0.0155679
775.953	0.0154450
776.031	0.0154814
776.109	0.0156931
776.187	0.0157661
776.265	0.0157955
776.343	0.0157839
776.421	0.0160394
776.499	0.0159505
776.578	0.0160740
776.656	0.0160004
776.734	0.0161685
776.812	0.0162268
776.890	0.0162521
776.968	0.0162923
777.046	0.0161600
777.124	0.0159747
777.203	0.0158898
777.281	0.0158565
777.359	0.0157017
777.437	0.0154931
777.515	0.0153466
777.593	0.0153660
777.671	0.0153408
777.749	0.0153842
777.828	0.0153314
777.906	0.0153912
777.984	0.0154441
778.062	0.0154711
778.140	0.0155885
778.218	0.0155930
778.296	0.0156916
778.374	0.0157507
778.453	0.0156142
778.531	0.0156815
778.609	0.0156838
778.687	0.0157899
778.765	0.0158750
778.843	0.0158914
778.921	0.0157982
778.999	0.0157539
779.078	0.0160416
779.156	0.0161769
779.234	0.0161158
779.312	0.0160932
779.390	0.0162495
779.468	0.0163869
779.546	0.0164834
779.624	0.0165684
779.703	0.0164799
779.781	0.0165612
779.859	0.0164588
779.937	0.0164384
780.015	0.0164339
780.093	0.0161808
780.171	0.0162897
780.249	0.0161356
780.328	0.0159660
780.406	0.0160892
780.484	0.0158756
780.562	0.0158000
780.640	0.0156438
780.718	0.0157854
780.796	0.0158784
780.874	0.0157844
780.953	0.0157991
781.031	0.0157719
781.109	0.0157597
781.187	0.0158884
781.265	0.0158390
781.343	0.0158914
781.421	0.0158706
781.499	0.0159298
781.578	0.0160368
781.656	0.0161413
781.734	0.0160001
781.812	0.0160564
781.890	0.0161099
781.968	0.0159917
782.046	0.0160606
782.124	0.0159281
782.203	0.0158933
782.281	0.0157950
782.359	0.0157587
782.437	0.0155865
782.515	0.0155666
782.593	0.0154905
782.671	0.0154652
782.749	0.0154893
782.828	0.0154459
782.906	0.0154037
782.984	0.0154633
783.062	0.0155147
783.140	0.0155375
783.218	0.0154842
783.296	0.0154671
783.374	0.0155881
783.453	0.0155670
783.531	0.0154606
783.609	0.0155112
783.687	0.0154785
783.765	0.0154748
783.843	0.0154631
783.921	0.0154807
783.999	0.0154866
784.078	0.0154187
784.156	0.0154343
784.234	0.0156329
784.312	0.0156128
784.390	0.0156803
784.468	0.0156940
784.546	0.0156850
784.624	0.0157679
784.703	0.0157591
784.781	0.0160065
784.859	0.0160044
784.937	0.0160612
785.015	0.0161122
785.093	0.0162365
785.171	0.0163699
785.249	0.0165627
785.328	0.0163811
785.406	0.0166086
785.484	0.0166491
785.562	0.0165995
785.640	0.0167332
785.718	0.0165527
785.796	0.0166046
785.874	0.0164574
785.953	0.0164468
786.031	0.0162866
786.109	0.0163902
786.187	0.0162685
786.265	0.0161297
786.343	0.0159510
786.421	0.0158758
786.499	0.0157463
786.578	0.0155371
786.656	0.0155544
786.734	0.0154482
786.812	0.0154833
786.890	0.0154214
786.968	0.0156004
787.046	0.0155701
787.124	0.0154516
787.203	0.0154771
787.281	0.0154768
787.359	0.0155256
787.437	0.0155728
787.515	0.0154694
787.593	0.0154390
787.671	0.0154549
787.749	0.0154070
787.828	0.0154676
787.906	0.0155370
787.984	0.0156651
788.062	0.0155696
788.140	0.0155013
788.218	0.0155357
788.296	0.0157355
788.374	0.0156889
788.453	0.0157011
788.531	0.0155081
788.609	0.0155741
788.687	0.0157699
788.765	0.0158451
788.843	0.0160092
788.921	0.0159510
788.999	0.0158801
789.078	0.0162230
789.156	0.0161211
789.234	0.0162192
789.312	0.0162535
789.390	0.0162565
789.468	0.0162505
789.546	0.0162692
789.624	0.0163077
789.703	0.0161754
789.781	0.0162343
789.859	0.0161690
789.937	0.0160217
790.015	0.0161871
790.093	0.0159576
790.171	0.0158407
790.249	0.0157124
790.328	0.0155974
790.406	0.0156291
790.484	0.0155347
790.562	0.0155241
790.640	0.0155817
790.718	0.0155412
790.796	0.0153642
790.874	0.0153738
790.953	0.0152785
791.031	0.0153922
791.109	0.0156104
791.187	0.0156647
791.265	0.0158302
791.343	0.0159333
791.421	0.0160183
791.499	0.0162424
791.578	0.0164327
791.656	0.0163869
791.734	0.0165636
791.812	0.0165591
791.890	0.0166277
791.968	0.0165592
792.046	0.0165435
792.124	0.0165279
792.203	0.0163945
792.281	0.0163284
792.359	0.0162105
792.437	0.0159839
792.515	0.0158780
792.593	0.0156751
792.671	0.0155748
792.749	0.0155194
792.828	0.0152158
792.906	0.0152463
792.984	0.0151041
793.062	0.0149222
793.140	0.0150426
793.218	0.0149949
793.296	0.0151622
793.374	0.0150613
793.453	0.0153272
793.531	0.0153248
793.609	0.0154506
793.687	0.0156260
793.765	0.0156076
793.843	0.0156887
793.921	0.0157059
793.999	0.0158199
794.078	0.0159619
794.156	0.0161475
794.234	0.0161581
794.312	0.0161568
794.390	0.0161263
794.468	0.0161953
794.546	0.0163029
794.624	0.0162825
794.703	0.0162766
794.781	0.0163432
794.859	0.0162649
794.937	0.0161983
795.015	0.0162598
795.093	0.0162135
795.171	0.0160659
795.249	0.0161919
795.328	0.0162079
795.406	0.0160754
795.484	0.0159488
795.562	0.0157502
795.640	0.0157568
795.718	0.0156052
795.796	0.0156451
795.874	0.0156078
795.953	0.0153284
796.031	0.0152693
796.109	0.0154078
796.187	0.0152930
796.265	0.0152323
796.343	0.0152668
796.421	0.0153214
796.499	0.0154933
796.578	0.0155257
796.656	0.0154236
796.734	0.0158150
796.812	0.0157771
796.890	0.0157933
796.968	0.0159808
797.046	0.0161012
797.124	0.0162287
797.203	0.0163029
797.281	0.0164777
797.359	0.0166037
797.437	0.0165488
797.515	0.0165106
797.593	0.0166109
797.671	0.0167692
797.749	0.0166642
797.828	0.0166366
797.906	0.0166589
797.984	0.0165485
798.062	0.0162999
798.140	0.0161225
798.218	0.0160514
798.296	0.0159467
798.374	0.0157393
798.453	0.0155302
798.531	0.0154402
798.609	0.0153891
798.687	0.0151105
798.765	0.0150872
798.843	0.0149274
798.921	0.0148915
798.999	0.0148090
799.078	0.0149519
799.156	0.0147688
799.234	0.0149580
799.312	0.0149983
799.390	0.0150614
799.468	0.0152173
799.546	0.0153269
799.624	0.0153722
799.703	0.0155350
799.781	0.0155784
799.859	0.0156319
799.937	0.0159500
800.015	0.0158657
800.093	0.0159718
800.171	0.0161111
800.249	0.0161400
800.328	0.0160597
800.406	0.0161720
800.484	0.0161855
800.562	0.0162879
800.640	0.0162666
800.718	0.0163071
800.796	0.0164211
800.874	0.0163924
800.953	0.0164925
801.031	0.0164025
801.109	0.0161742
801.187	0.0160699
801.265	0.0160457
801.343	0.0161378
801.421	0.0159974
801.499	0.0158599
801.578	0.0159514
801.656	0.0156953
801.734	0.0156324
801.812	0.0156367
801.890	0.0156864
801.968	0.0156324
802.046	0.0155558
802.124	0.0156433
802.203	0.0155915
802.281	0.0155391
802.359	0.0156776
802.437	0.0158302
802.515	0.0156425
802.593	0.0156643
802.671	0.0157979
802.749	0.0160284
802.828	0.0159613
802.906	0.0159689
802.984	0.0159238
803.062	0.0158968
803.140	0.0159859
803.218	0.0159396
803.296	0.0160260
803.374	0.0159821
803.453	0.0157687
803.531	0.0158621
803.609	0.0157603
803.687	0.0154760
803.765	0.0155843
803.843	0.0155096
803.921	0.0155334
803.999	0.0155189
804.078	0.0154003
804.156	0.0155079
804.234	0.0153591
804.312	0.0155070
804.390	0.0156799
804.468	0.0156048
804.546	0.0157362
804.624	0.0157732
804.703	0.0158747
804.781	0.0158321
804.859	0.0160571
804.937	0.0161301
805.015	0.0163527
805.093	0.0163764
805.171	0.0163319
805.249	0.0166143
805.328	0.0165828
805.406	0.0165723
805.484	0.0166003
805.562	0.0165126
805.640	0.0164125
805.718	0.0164478
805.796	0.0164028
805.874	0.0163651
805.953	0.0164395
806.031	0.0163667
806.109	0.0161205
806.187	0.0160397
806.265	0.0159177
806.343	0.0157693
806.421	0.0158316
806.499	0.0155605
806.578	0.0155586
806.656	0.0154518
806.734	0.0153761
806.812	0.0153006
806.890	0.0151769
806.968	0.0151561
807.046	0.0152184
807.124	0.0154314
807.203	0.0152512
807.281	0.0152937
807.359	0.0154272
807.437	0.0153783
807.515	0.0154957
807.593	0.0156767
807.671	0.0155810
807.749	0.0158548
807.828	0.0160403
807.906	0.0159687
807.984	0.0161087
808.062	0.0158653
808.140	0.0159135
808.218	0.0161078
808.296	0.0160693
808.374	0.0159219
808.453	0.0160667
808.531	0.0160867
808.609	0.0162368
808.687	0.0159988
808.765	0.0160117
808.843	0.0158698
808.921	0.0160389
808.999	0.0159959
809.078	0.0158755
809.156	0.0158504
809.234	0.0157308
809.312	0.0155125
809.390	0.0155302
809.468	0.0156043
809.546	0.0157002
809.624	0.0155732
809.703	0.0155535
809.781	0.0156447
809.859	0.0156406
809.937	0.0156327
810.015	0.0157901
810.093	0.0158266
810.171	0.0159113
810.249	0.0159704
810.328	0.0161228
810.406	0.0160949
810.484	0.0162058
810.562	0.0161581
810.640	0.0162340
810.718	0.0162002
810.796	0.0162489
810.874	0.0161877
810.953	0.0163789
811.031	0.0162111
811.109	0.0162198
811.187	0.0161404
811.265	0.0162167
811.343	0.0161108
811.421	0.0162212
811.499	0.0161424
811.578	0.0162897
811.656	0.0161407
811.734	0.0161326
811.812	0.0160655
811.890	0.0159100
811.968	0.0157869
812.046	0.0158439
812.124	0.0158637
812.203	0.0158794
812.281	0.0157246
812.359	0.0156853
812.437	0.0156876
812.515	0.0156851
812.593	0.0156470
812.671	0.0154984
812.749	0.0155458
812.828	0.0155450
812.906	0.0154702
812.984	0.0154111
813.062	0.0153571
813.140	0.0154902
813.218	0.0155098
813.296	0.0155344
813.374	0.0154761
813.453	0.0155781
813.531	0.0155369
813.609	0.0155592
813.687	0.0158143
813.765	0.0158565
813.843	0.0158317
813.921	0.0159171
813.999	0.0159872
814.078	0.0162038
814.156	0.0162691
814.234	0.0162021
814.312	0.0161574
814.390	0.0162884
814.468	0.0162151
814.546	0.0161971
814.624	0.0163224
814.703	0.0161613
814.781	0.0161288
814.859	0.0160266
814.937	0.0160224
815.015	0.0160157
815.093	0.0158885
815.171	0.0157399
815.249	0.0156245
815.328	0.0155296
815.406	0.0155751
815.484	0.0155260
815.562	0.0155109
815.640	0.0155694
815.718	0.0156674
815.796	0.0154986
815.874	0.0155188
815.953	0.0157019
816.031	0.0156455
816.109	0.0156154
816.187	0.0156004
816.265	0.0156602
816.343	0.0159168
816.421	0.0157762
816.499	0.0158718
816.578	0.0158249
816.656	0.0160047
816.734	0.0159560
816.812	0.0161294
816.890	0.0160981
816.968	0.0161761
817.046	0.0163066
817.124	0.0163333
817.203	0.0162649
817.281	0.0162733
817.359	0.0163153
817.437	0.0161695
817.515	0.0162845
817.593	0.0161925
817.671	0.0162665
817.749	0.0162198
817.828	0.0161676
817.906	0.0160766
817.984	0.0160733
818.062	0.0159529
818.140	0.0158673
818.218	0.0157731
818.296	0.0157363
818.374	0.0156593
818.453	0.0157280
818.531	0.0153606
818.609	0.0153833
818.687	0.0151482
818.765	0.0150803
818.843	0.0151270
818.921	0.0153363
818.999	0.0152378
819.078	0.0151985
819.156	0.0152623
819.234	0.0153088
819.312	0.0154739
819.390	0.0155093
819.468	0.0156040
819.546	0.0157372
819.624	0.0158298
819.703	0.0159254
819.781	0.0159476
819.859	0.0160692
819.937	0.0160652
820.015	0.0160339
820.093	0.0160487
820.171	0.0161434
820.249	0.0162700
820.328	0.0161413
820.406	0.0159704
820.484	0.0160817
820.562	0.0158977
820.640	0.0159379
820.718	0.0159557
820.796	0.0158089
820.874	0.0158790
820.953	0.0159464
821.031	0.0158871
821.109	0.0158376
821.187	0.0157976
821.265	0.0158722
821.343	0.0158080
821.421	0.0158614
821.499	0.0158784
821.578	0.0160409
821.656	0.0158951
821.734	0.0159834
821.812	0.0158675
821.890	0.0158348
821.968	0.0158658
822.046	0.0159517
822.124	0.0158114
822.203	0.0157253
822.281	0.0157156
822.359	0.0157740
822.437	0.0157353
822.515	0.0159668
822.593	0.0158058
822.671	0.0158473
822.749	0.0157047
822.828	0.0157619
822.906	0.0157057
822.984	0.0158733
823.062	0.0158822
823.140	0.0156686
823.218	0.0157730
823.296	0.0157368
823.374	0.0156332
823.453	0.0156738
823.531	0.0157616
823.609	0.0156580
823.687	0.0157186
823.765	0.0156847
823.843	0.0155905
823.921	0.0157336
823.999	0.0157527
824.078	0.0156678
824.156	0.0156927
824.234	0.0157833
824.312	0.0156538
824.390	0.0157281
824.468	0.0157318
824.546	0.0157590
824.624	0.0157266
824.703	0.0158590
824.781	0.0158297
824.859	0.0159063
824.937	0.0159234
825.015	0.0161114
825.093	0.0160229
825.171	0.0161694
825.249	0.0161235
825.328	0.0160152
825.406	0.0161088
825.484	0.0160441
825.562	0.0161282
825.640	0.0162786
825.718	0.0160454
825.796	0.0161552
825.874	0.0160394
825.953	0.0158779
826.031	0.0158224
826.109	0.0159562
826.187	0.0158362
826.265	0.0158545
826.343	0.0157655
826.421	0.0157628
826.499	0.0156628
826.578	0.0156711
826.656	0.0156818
826.734	0.0156818
826.812	0.0155560
826.890	0.0154687
826.968	0.0156259
827.046	0.0155158
827.124	0.0156120
827.203	0.0156599
827.281	0.0157577
827.359	0.0155576
827.437	0.0156045
827.515	0.0157376
827.593	0.0157300
827.671	0.0157085
827.749	0.0158772
827.828	0.0158090
827.906	0.0159243
827.984	0.0160742
828.062	0.0159721
828.140	0.0160031
828.218	0.0158980
828.296	0.0162306
828.374	0.0161501
828.453	0.0160953
828.531	0.0161974
828.609	0.0161247
828.687	0.0161985
828.765	0.0162011
828.843	0.0159805
828.921	0.0161642
828.999	0.0160278
829.078	0.0159967
829.156	0.0158884
829.234	0.0157034
829.312	0.0156490
829.390	0.0157166
829.468	0.0156089
829.546	0.0155280
829.624	0.0155260
829.703	0.0155125
829.781	0.0155576
829.859	0.0156425
829.937	0.0156880
830.015	0.0155520
830.093	0.0156867
830.171	0.0157124
830.249	0.0157338
830.328	0.0158266
830.406	0.0159520
830.484	0.0159163
830.562	0.0158105
830.640	0.0158858
830.718	0.0158696
830.796	0.0158430
830.874	0.0159568
830.953	0.0159571
831.031	0.0159868
831.109	0.0158717
831.187	0.0158270
831.265	0.0158051
831.343	0.0159076
831.421	0.0157610
831.499	0.0159608
831.578	0.0158643
831.656	0.0158797
831.734	0.0158200
831.812	0.0159415
831.890	0.0158015
831.968	0.0159625
832.046	0.0157604
832.124	0.0156696
832.203	0.0157610
832.281	0.0157538
832.359	0.0157137
832.437	0.0158173
832.515	0.0157942
832.593	0.0157676
832.671	0.0158059
832.749	0.0160023
832.828	0.0158032
832.906	0.0158292
832.984	0.0158645
833.062	0.0158662
833.140	0.0158525
833.218	0.0158586
833.296	0.0159579
833.374	0.0160121
833.453	0.0158819
833.531	0.0158755
833.609	0.0160554
833.687	0.0159541
833.765	0.0158618
833.843	0.0160849
833.921	0.0159164
833.999	0.0159943
834.078	0.0159695
834.156	0.0159361
834.234	0.0160248
834.312	0.0158762
834.390	0.0158298
834.468	0.0158099
834.546	0.0156341
834.624	0.0156320
834.703	0.0158300
834.781	0.0157238
834.859	0.0156277
834.937	0.0157352
835.015	0.0156413
835.093	0.0155789
835.171	0.0156271
835.249	0.0156539
835.328	0.0156992
835.406	0.0155565
835.484	0.0156160
835.562	0.0155801
835.640	0.0156881
835.718	0.0157796
835.796	0.0158302
835.874	0.0158263
835.953	0.0158184
836.031	0.0158716
836.109	0.0160164
836.187	0.0159679
836.265	0.0159500
836.343	0.0159196
836.421	0.0159041
836.499	0.0160622
836.578	0.0160707
836.656	0.0161355
836.734	0.0160448
836.812	0.0160624
836.890	0.0160222
836.968	0.0160966
837.046	0.0159515
837.124	0.0159713
837.203	0.0158665
837.281	0.0159726
837.359	0.0157449
837.437	0.0160107
837.515	0.0157583
837.593	0.0157590
837.671	0.0157343
837.749	0.0157257
837.828	0.0155929
837.906	0.0156904
837.984	0.0158614
838.062	0.0157513
838.140	0.0157549
838.218	0.0157516
838.296	0.0158230
838.374	0.0156743
838.453	0.0157822
838.531	0.0157741
838.609	0.0160043
838.687	0.0157504
838.765	0.0159322
838.843	0.0159276
838.921	0.0158556
838.999	0.0161007
839.078	0.0160580
839.156	0.0159486
839.234	0.0159119
839.312	0.0159223
839.390	0.0158376
839.468	0.0158302
839.546	0.0158273
839.624	0.0158254
839.703	0.0158047
839.781	0.0155821
839.859	0.0155787
839.937	0.0156314
840.015	0.0156174
840.093	0.0156608
840.171	0.0156927
840.249	0.0156504
840.328	0.0156900
840.406	0.0157378
840.484	0.0158359
840.562	0.0158149
840.640	0.0158904
840.718	0.0160497
840.796	0.0161188
840.874	0.0162292
840.953	0.0161504
841.031	0.0161308
841.109	0.0162236
841.187	0.0163493
841.265	0.0163232
841.343	0.0162585
841.421	0.0162492
841.499	0.0162222
841.578	0.0160243
841.656	0.0159774
841.734	0.0159256
841.812	0.0157616
841.890	0.0156543
841.968	0.0155949
842.046	0.0155296
842.124	0.0153220
842.203	0.0152290
842.281	0.0152232
842.359	0.0152241
842.437	0.0152205
842.515	0.0153603
842.593	0.0153060
842.671	0.0153055
842.749	0.0154639
842.828	0.0155479
842.906	0.0157900
842.984	0.0158417
843.062	0.0158674
843.140	0.0160667
843.218	0.0160231
843.296	0.0161958
843.374	0.0162887
843.453	0.0162241
843.531	0.0162315
843.609	0.0163521
843.687	0.0165112
843.765	0.0165405
843.843	0.0164522
843.921	0.0164806
843.999	0.0164845
844.078	0.0163972
844.156	0.0162761
844.234	0.0161896
844.312	0.0159695
844.390	0.0156255
844.468	0.0157626
844.546	0.0157079
844.624	0.0155569
844.703	0.0154509
844.781	0.0152103
844.859	0.0152878
844.937	0.0152745
845.015	0.0152306
845.093	0.0153260
845.171	0.0151652
845.249	0.0154930
845.328	0.0155970
845.406	0.0156781
845.484	0.0156389
845.562	0.0158041
845.640	0.0157897
845.718	0.0160476
845.796	0.0160525
845.874	0.0161402
845.953	0.0161786
846.031	0.0162259
846.109	0.0161411
846.187	0.0161599
846.265	0.0161148
846.343	0.0162136
846.421	0.0160752
846.499	0.0160632
846.578	0.0161074
846.656	0.0160606
846.734	0.0159914
846.812	0.0159922
846.890	0.0158951
846.968	0.0156958
847.046	0.0157927
847.124	0.0158463
847.203	0.0154117
847.281	0.0156203
847.359	0.0153952
847.437	0.0154974
847.515	0.0154737
847.593	0.0153573
847.671	0.0153245
847.749	0.0153511
847.828	0.0155044
847.906	0.0155846
847.984	0.0157006
848.062	0.0158041
848.140	0.0159330
848.218	0.0159001
848.296	0.0160631
848.374	0.0161538
848.453	0.0162215
848.531	0.0163916
848.609	0.0163052
848.687	0.0164368
848.765	0.0165750
848.843	0.0165589
848.921	0.0164355
848.999	0.0163995
849.078	0.0164390
849.156	0.0164615
849.234	0.0164233
849.312	0.0161375
849.390	0.0161349
849.468	0.0160856
849.546	0.0160660
849.624	0.0159489
849.703	0.0157483
849.781	0.0155713
849.859	0.0156139
849.937	0.0154720
850.015	0.0152862
850.093	0.0152426
850.171	0.0151818
850.249	0.0150530
850.328	0.0152673
850.406	0.0151447
850.484	0.0149815
850.562	0.0151814
850.640	0.0152795
850.718	0.0153685
850.796	0.0153539
850.874	0.0156178
850.953	0.0157436
851.031	0.0158338
851.109	0.0160348
851.187	0.0161040
851.265	0.0161668
851.343	0.0163363
851.421	0.0162685
851.499	0.0164732
851.578	0.0165654
851.656	0.0165696
851.734	0.0166496
851.812	0.0165765
851.890	0.0164785
851.968	0.0165408
852.046	0.0164211
852.124	0.0162006
852.203	0.0161409
852.281	0.0161193
852.359	0.0157966
852.437	0.0157893
852.515	0.0156570
852.593	0.0155013
852.671	0.0152467
852.749	0.0151934
852.828	0.0150574
852.906	0.0150190
852.984	0.0149947
853.062	0.0151817
853.140	0.0151742
853.218	0.0150887
853.296	0.0151293
853.374	0.0152525
853.453	0.0154189
853.531	0.0156138
853.609	0.0155631
853.687	0.0157386
853.765	0.0158968
853.843	0.0159524
853.921	0.0160814
853.999	0.0162717
854.078	0.0163545
854.156	0.0165729
854.234	0.0165563
854.312	0.0166109
854.390	0.0164612
854.468	0.0164269
854.546	0.0164887
854.624	0.0163749
854.703	0.0163218
854.781	0.0162228
854.859	0.0161619
854.937	0.0160740
855.015	0.0159254
855.093	0.0158490
855.171	0.0158502
855.249	0.0157352
855.328	0.0155312
855.406	0.0154733
855.484	0.0156142
855.562	0.0156551
855.640	0.0157053
855.718	0.0155399
855.796	0.0155733
855.874	0.0156664
855.953	0.0156667
856.031	0.0157368
856.109	0.0158319
856.187	0.0158828
856.265	0.0158196
856.343	0.0158311
856.421	0.0158583
856.499	0.0159254
856.578	0.0160680
856.656	0.0161816
856.734	0.0159579
856.812	0.0159067
856.890	0.0160121
856.968	0.0160014
857.046	0.0159690
857.124	0.0158067
857.203	0.0158508
857.281	0.0157645
857.359	0.0157719
857.437	0.0158611
857.515	0.0158115
857.593	0.0157479
857.671	0.0157249
857.749	0.0155900
857.828	0.0155621
857.906	0.0157100
857.984	0.0157152
858.062	0.0157546
858.140	0.0157814
858.218	0.0157922
858.296	0.0159121
858.374	0.0160962
858.453	0.0160316
858.531	0.0159901
858.609	0.0161831
858.687	0.0161549
858.765	0.0163108
858.843	0.0162450
858.921	0.0162753
858.999	0.0162370
859.078	0.0163889
859.156	0.0163171
859.234	0.0162395
859.312	0.0161167
859.390	0.0161104
859.468	0.0159763
859.546	0.0161245
859.624	0.0160537
859.703	0.0159127
859.781	0.0158189
859.859	0.0158515
859.937	0.0158196
860.015	0.0157060
860.093	0.0155618
860.171	0.0157587
860.249	0.0155983
860.328	0.0155344
860.406	0.0156645
860.484	0.0157347
860.562	0.0157687
860.640	0.0158067
860.718	0.0156661
860.796	0.0158139
860.874	0.0159296
860.953	0.0158144
861.031	0.0157084
861.109	0.0157433
861.187	0.0159029
861.265	0.0158038
861.343	0.0159178
861.421	0.0158751
861.499	0.0158376
861.578	0.0159376
861.656	0.0158607
861.734	0.0159235
861.812	0.0158231
861.890	0.0160317
861.968	0.0159341
862.046	0.0159777
862.124	0.0160036
862.203	0.0160594
862.281	0.0160107
862.359	0.0159593
862.437	0.0160033
862.515	0.0159425
862.593	0.0159391
862.671	0.0158797
862.749	0.0158456
862.828	0.0159622
862.906	0.0156647
862.984	0.0156789
863.062	0.0158914
863.140	0.0157327
863.218	0.0156893
863.296	0.0157123
863.374	0.0157766
863.453	0.0157135
863.531	0.0155982
863.609	0.0158128
863.687	0.0156304
863.765	0.0156914
863.843	0.0157810
863.921	0.0158904
863.999	0.0158304
864.078	0.0158428
864.156	0.0159326
864.234	0.0159425
864.312	0.0161414
864.390	0.0160045
864.468	0.0160050
864.546	0.0159100
864.624	0.0161286
864.703	0.0161055
864.781	0.0161349
864.859	0.0160972
864.937	0.0161555
865.015	0.0161010
865.093	0.0161088
865.171	0.0160515
865.249	0.0160349
865.328	0.0159531
865.406	0.0160021
865.484	0.0158960
865.562	0.0159317
865.640	0.0159925
865.718	0.0158253
865.796	0.0158372
865.874	0.0157887
865.953	0.0156239
866.031	0.0157749
866.109	0.0156580
866.187	0.0155006
866.265	0.0155315
866.343	0.0156785
866.421	0.0154796
866.499	0.0155688
866.578	0.0155852
866.656	0.0155000
866.734	0.0155571
866.812	0.0156419
866.890	0.0156160
866.968	0.0158089
867.046	0.0158047
867.124	0.0158922
867.203	0.0158485
867.281	0.0158157
867.359	0.0158633
867.437	0.0160521
867.515	0.0161382
867.593	0.0160320
867.671	0.0159745
867.749	0.0161118
867.828	0.0159809
867.906	0.0159534
867.984	0.0158797
868.062	0.0159641
868.140	0.0159837
868.218	0.0159045
868.296	0.0159493
868.374	0.0157555
868.453	0.0156673
868.531	0.0156426
868.609	0.0155769
868.687	0.0157626
868.765	0.0155746
868.843	0.0155036
868.921	0.0155833
868.999	0.0156216
869.078	0.0156927
869.156	0.0157720
869.234	0.0158302
869.312	0.0158329
869.390	0.0158051
869.468	0.0158490
869.546	0.0158834
869.624	0.0160326
869.703	0.0160455
869.781	0.0161005
869.859	0.0161463
869.937	0.0160764
870.015	0.0160921
870.093	0.0161755
870.171	0.0160713
870.249	0.0160466
870.328	0.0159804
870.406	0.0159262
870.484	0.0159045
870.562	0.0157706
870.640	0.0158154
870.718	0.0158689
870.796	0.0158584
870.874	0.0158197
870.953	0.0158274
871.031	0.0157338
871.109	0.0159193
871.187	0.0159404
871.265	0.0158626
871.343	0.0156897
871.421	0.0157896
871.499	0.0160257
871.578	0.0158632
871.656	0.0159255
871.734	0.0158738
871.812	0.0158422
871.890	0.0158499
871.968	0.0158022
872.046	0.0158467
872.124	0.0159241
872.203	0.0158845
872.281	0.0158472
872.359	0.0159008
872.437	0.0159303
872.515	0.0157552
872.593	0.0159187
872.671	0.0157658
872.749	0.0158481
872.828	0.0157546
872.906	0.0157720
872.984	0.0157404
873.062	0.0156902
873.140	0.0156349
873.218	0.0155822
873.296	0.0157188
873.374	0.0156712
873.453	0.0156133
873.531	0.0157254
873.609	0.0156815
873.687	0.0155283
873.765	0.0155181
873.843	0.0157196
873.921	0.0156605
873.999	0.0157111
874.078	0.0157034
874.156	0.0159258
874.234	0.0157915
874.312	0.0160024
874.390	0.0159238
874.468	0.0159003
874.546	0.0160545
874.624	0.0159709
874.703	0.0159364
874.781	0.0159935
874.859	0.0159560
874.937	0.0159488
875.015	0.0158643
875.093	0.0160851
875.171	0.0160503
875.249	0.0158340
875.328	0.0158548
875.406	0.0159681
875.484	0.0157796
875.562	0.0158565
875.640	0.0160848
875.718	0.0158814
875.796	0.0158762
875.874	0.0159825
875.953	0.0159084
876.031	0.0159052
876.109	0.0158334
876.187	0.0159676
876.265	0.0160413
876.343	0.0160978
876.421	0.0158904
876.499	0.0160461
876.578	0.0161095
876.656	0.0160121
876.734	0.0160694
876.812	0.0160976
876.890	0.0160223
876.968	0.0159736
877.046	0.0160828
877.124	0.0161183
877.203	0.0160117
877.281	0.0158710
877.359	0.0160303
877.437	0.0157518
877.515	0.0158480
877.593	0.0158154
877.671	0.0158814
877.749	0.0158808
877.828	0.0156924
877.906	0.0156803
877.984	0.0155929
878.062	0.0155910
878.140	0.0156155
878.218	0.0156137
878.296	0.0155773
878.374	0.0156961
878.453	0.0156982
878.531	0.0157880
878.609	0.0158787
878.687	0.0156905
878.765	0.0159660
878.843	0.0157930
878.921	0.0158379
878.999	0.0159358
879.078	0.0159033
879.156	0.0159274
879.234	0.0158911
879.312	0.0158200
879.390	0.0159286
879.468	0.0157907
879.546	0.0156716
879.624	0.0158974
879.703	0.0157478
879.781	0.0157658
879.859	0.0156908
879.937	0.0157460
880.015	0.0157375
880.093	0.0157188
880.171	0.0157407
880.249	0.0157940
880.328	0.0156715
880.406	0.0156828
880.484	0.0157975
880.562	0.0158018
880.640	0.0159160
880.718	0.0159541
880.796	0.0157501
880.874	0.0158263
880.953	0.0159590
881.031	0.0158972
881.109	0.0159935
881.187	0.0160167
881.265	0.0158664
881.343	0.0158996
881.421	0.0160072
881.499	0.0159477
881.578	0.0158157
881.656	0.0161283
881.734	0.0159057
881.812	0.0159383
881.890	0.0160413
881.968	0.0158747
882.046	0.0160891
882.124	0.0160307
882.203	0.0160655
882.281	0.0159187
882.359	0.0159477
882.437	0.0160637
882.515	0.0160355
882.593	0.0159597
882.671	0.0159348
882.749	0.0159303
882.828	0.0157734
882.906	0.0158400
882.984	0.0157679
883.062	0.0158549
883.140	0.0158031
883.218	0.0158033
883.296	0.0157661
883.374	0.0158416
883.453	0.0159372
883.531	0.0158472
883.609	0.0158317
883.687	0.0157742
883.765	0.0158294
883.843	0.0158785
883.921	0.0159035
883.999	0.0157858
884.078	0.0159638
884.156	0.0160348
884.234	0.0160120
884.312	0.0159704
884.390	0.0159526
884.468	0.0158916
884.546	0.0158341
884.624	0.0159634
884.703	0.0159060
884.781	0.0158210
884.859	0.0158908
884.937	0.0159383
885.015	0.0159145
885.093	0.0158826
885.171	0.0159454
885.249	0.0159792
885.328	0.0157895
885.406	0.0156925
885.484	0.0157854
885.562	0.0159355
885.640	0.0157716
885.718	0.0156901
885.796	0.0157049
885.874	0.0157449
885.953	0.0158968
886.031	0.0155855
886.109	0.0156143
886.187	0.0156200
886.265	0.0157653
886.343	0.0157364
886.421	0.0156545
886.499	0.0157771
886.578	0.0155649
886.656	0.0157457
886.734	0.0158117
886.812	0.0158379
886.890	0.0158508
886.968	0.0159807
887.046	0.0160291
887.124	0.0159801
887.203	0.0161053
887.281	0.0161130
887.359	0.0158987
887.437	0.0160195
887.515	0.0161977
887.593	0.0160061
887.671	0.0160227
887.749	0.0160307
887.828	0.0160612
887.906	0.0160237
887.984	0.0160351
888.062	0.0160670
888.140	0.0159470
888.218	0.0158311
888.296	0.0157612
888.374	0.0159311
888.453	0.0159630
888.531	0.0158469
888.609	0.0157954
888.687	0.0158258
888.765	0.0157394
888.843	0.0157312
888.921	0.0158101
888.999	0.0157242
889.078	0.0157596
889.156	0.0158021
889.234	0.0156277
889.312	0.0155854
889.390	0.0157462
889.468	0.0155633
889.546	0.0157216
889.624	0.0158901
889.703	0.0157690
889.781	0.0159032
889.859	0.0159591
889.937	0.0158945
890.015	0.0157594
890.093	0.0158488
890.171	0.0159821
890.249	0.0161272
890.328	0.0159793
890.406	0.0159040
890.484	0.0161325
890.562	0.0159564
890.640	0.0159177
890.718	0.0159072
890.796	0.0159660
890.874	0.0159564
890.953	0.0159509
891.031	0.0159245
891.109	0.0158713
891.187	0.0158002
891.265	0.0158064
891.343	0.0157533
891.421	0.0157354
891.499	0.0158068
891.578	0.0157045
891.656	0.0159218
891.734	0.0157885
891.812	0.0156564
891.890	0.0157693
891.968	0.0157390
892.046	0.0156653
892.124	0.0156956
892.203	0.0156841
892.281	0.0156068
892.359	0.0156926
892.437	0.0158942
892.515	0.0156822
892.593	0.0158356
892.671	0.0158756
892.749	0.0156689
892.828	0.0156736
892.906	0.0157294
892.984	0.0158027
893.062	0.0157450
893.140	0.0157195
893.218	0.0158144
893.296	0.0157045
893.374	0.0158358
893.453	0.0157736
893.531	0.0156935
893.609	0.0157795
893.687	0.0158194
893.765	0.0158995
893.843	0.0157577
893.921	0.0157632
893.999	0.0159358
894.078	0.0159422
894.156	0.0159204
894.234	0.0159743
894.312	0.0159363
894.390	0.0158531
894.468	0.0158728
894.546	0.0159875
894.624	0.0158739
894.703	0.0159663
894.781	0.0157373
894.859	0.0158189
894.937	0.0159682
895.015	0.0159960
895.093	0.0159541
895.171	0.0158961
895.249	0.0158244
895.328	0.0159856
895.406	0.0158527
895.484	0.0158638
895.562	0.0158153
895.640	0.0159175
895.718	0.0157653
895.796	0.0158445
895.874	0.0158021
895.953	0.0158218
896.031	0.0158332
896.109	0.0158143
896.187	0.0157623
896.265	0.0157334
896.343	0.0158201
896.421	0.0158070
896.499	0.0158682
896.578	0.0158282
896.656	0.0158807
896.734	0.0159304
896.812	0.0159140
896.890	0.0159117
896.968	0.0159431
897.046	0.0159728
897.124	0.0159383
897.203	0.0160993
897.281	0.0159367
897.359	0.0158794
897.437	0.0159036
897.515	0.0159008
897.593	0.0160024
897.671	0.0159233
897.749	0.0157204
897.828	0.0158389
897.906	0.0158028
897.984	0.0159050
898.062	0.0159066
898.140	0.0157381
898.218	0.0157619
898.296	0.0157255
898.374	0.0157909
898.453	0.0157301
898.531	0.0156797
898.609	0.0157280
898.687	0.0155691
898.765	0.0157687
898.843	0.0158530
898.921	0.0156242
898.999	0.0156528
899.078	0.0157707
899.156	0.0158626
899.234	0.0158081
899.312	0.0156509
899.390	0.0157774
899.468	0.0158311
899.546	0.0159225
899.624	0.0159020
899.703	0.0159373
899.781	0.0159668
899.859	0.0159222
899.937	0.0160263
900.015	0.0159120
900.093	0.0161195
900.171	0.0159640
900.249	0.0159377
900.328	0.0159085
900.406	0.0159758
900.484	0.0159661
900.562	0.0159851
900.640	0.0159788
900.718	0.0158851
900.796	0.0160123
900.874	0.0159586
900.953	0.0158213
901.031	0.0159995
901.109	0.0159496
901.187	0.0157551
901.265	0.0158173
901.343	0.0161462
901.421	0.0159264
901.499	0.0157965
901.578	0.0158659
901.656	0.0158860
901.734	0.0159434
901.812	0.0160458
901.890	0.0159849
901.968	0.0158973
902.046	0.0157881
902.124	0.0158577
902.203	0.0158141
902.281	0.0158154
902.359	0.0159473
902.437	0.0158155
902.515	0.0157595
902.593	0.0158823
902.671	0.0158428
902.749	0.0157207
902.828	0.0157462
902.906	0.0158794
902.984	0.0157813
903.062	0.0157145
903.140	0.0158171
903.218	0.0157893
903.296	0.0158128
903.374	0.0158086
903.453	0.0157471
903.531	0.0157254
903.609	0.0157401
903.687	0.0158582
903.765	0.0158070
903.843	0.0157065
903.921	0.0158322
903.999	0.0158266
904.078	0.0158594
904.156	0.0158701
904.234	0.0158656
904.312	0.0158661
904.390	0.0159851
904.468	0.0159850
904.546	0.0159235
904.624	0.0160727
904.703	0.0159129
904.781	0.0158546
904.859	0.0159602
904.937	0.0161498
905.015	0.0160588
905.093	0.0159911
905.171	0.0160379
905.249	0.0160808
905.328	0.0159467
905.406	0.0160768
905.484	0.0158426
905.562	0.0160904
905.640	0.0158367
905.718	0.0159126
905.796	0.0157839
905.874	0.0159228
905.953	0.0158286
906.031	0.0157452
906.109	0.0157322
906.187	0.0158479
906.265	0.0158620
906.343	0.0158296
906.421	0.0158990
906.499	0.0159362
906.578	0.0158398
906.656	0.0159592
906.734	0.0160161
906.812	0.0160185
906.890	0.0159908
906.968	0.0160033
907.046	0.0161346
907.124	0.0161065
907.203	0.0161523
907.281	0.0162245
907.359	0.0161832
907.437	0.0160188
907.515	0.0162335
907.593	0.0160944
907.671	0.0162059
907.749	0.0161752
907.828	0.0159676
907.906	0.0161120
907.984	0.0160183
908.062	0.0159686
908.140	0.0159253
908.218	0.0157595
908.296	0.0156534
908.374	0.0157201
908.453	0.0157322
908.531	0.0156893
908.609	0.0157773
908.687	0.0157744
908.765	0.0157165
908.843	0.0156037
908.921	0.0157014
908.999	0.0157683
909.078	0.0156950
909.156	0.0155524
909.234	0.0157825
909.312	0.0157034
909.390	0.0156986
909.468	0.0157407
909.546	0.0156796
909.624	0.0159231
909.703	0.0156640
909.781	0.0158765
909.859	0.0159395
909.937	0.0160275
910.015	0.0158755
910.093	0.0159481
910.171	0.0159368
910.249	0.0158231
910.328	0.0160152
910.406	0.0161035
910.484	0.0159869
910.562	0.0159636
910.640	0.0160987
910.718	0.0160515
910.796	0.0160616
910.874	0.0161696
910.953	0.0161968
911.031	0.0160561
911.109	0.0161050
911.187	0.0160620
911.265	0.0160968
911.343	0.0159826
911.421	0.0159211
911.499	0.0159434
911.578	0.0159554
911.656	0.0158871
911.734	0.0157982
911.812	0.0157747
911.890	0.0159181
911.968	0.0158115
912.046	0.0157227
912.124	0.0156991
912.203	0.0157589
912.281	0.0156882
912.359	0.0157314
912.437	0.0158169
912.515	0.0157388
912.593	0.0157700
912.671	0.0158495
912.749	0.0158601
912.828	0.0158275
912.906	0.0157223
912.984	0.0159209
913.062	0.0158738
913.140	0.0159353
913.218	0.0158658
913.296	0.0158627
913.374	0.0158615
913.453	0.0157861
913.531	0.0159004
913.609	0.0158841
913.687	0.0158331
913.765	0.0157986
913.843	0.0157892
913.921	0.0157814
913.999	0.0158500
914.078	0.0157523
914.156	0.0158167
914.234	0.0157760
914.312	0.0158101
914.390	0.0157796
914.468	0.0158359
914.546	0.0158410
914.624	0.0159555
914.703	0.0158990
914.781	0.0159100
914.859	0.0160459
914.937	0.0160916
915.015	0.0159235
915.093	0.0159798
915.171	0.0158784
915.249	0.0161503
915.328	0.0160757
915.406	0.0159386
915.484	0.0159940
915.562	0.0160120
915.640	0.0160888
915.718	0.0158521
915.796	0.0159444
915.874	0.0158813
915.953	0.0158134
916.031	0.0158091
916.109	0.0158105
916.187	0.0159277
916.265	0.0157424
916.343	0.0156684
916.421	0.0158498
916.499	0.0156027
916.578	0.0156176
916.656	0.0156000
916.734	0.0156166
916.812	0.0157345
916.890	0.0157568
916.968	0.0157535
917.046	0.0158005
917.124	0.0157461
917.203	0.0158277
917.281	0.0159578
917.359	0.0159122
917.437	0.0159290
917.515	0.0159102
917.593	0.0160859
917.671	0.0158498
917.749	0.0160268
917.828	0.0159396
917.906	0.0159566
917.984	0.0161349
918.062	0.0161703
918.140	0.0160629
918.218	0.0160231
918.296	0.0159895
918.374	0.0159865
918.453	0.0160925
918.531	0.0159206
918.609	0.0158787
918.687	0.0156799
918.765	0.0156280
918.843	0.0156813
918.921	0.0156982
918.999	0.0157209
919.078	0.0155550
919.156	0.0155988
919.234	0.0157106
919.312	0.0156487
919.390	0.0155068
919.468	0.0155624
919.546	0.0157500
919.624	0.0155978
919.703	0.0156917
919.781	0.0156579
919.859	0.0156163
919.937	0.0158096
