06/10/2022	18:30:19	Ver.	4.1	UNKNOWN
Optical Delay	600.015094	Delta X		0.078125	Sweeps	1	Scan Rate	0/0
Coordinates	Axis 1	NaN	Axis 2	NaN	Axis 3	NaN	Axis 4	NaN	Axis 5	NaN	Axis 6	0.000000
TX Power	0.000000	RX Power	0.000000

600.015	0.0163786
600.093	0.0164077
600.171	0.0164513
600.249	0.0163758
600.328	0.0163507
600.406	0.0165141
600.484	0.0164623
600.562	0.0163871
600.640	0.0164673
600.718	0.0164418
600.796	0.0163995
600.874	0.0163966
600.953	0.0164336
601.031	0.0164965
601.109	0.0165249
601.187	0.0164439
601.265	0.0164696
601.343	0.0164559
601.421	0.0164465
601.499	0.0163480
601.578	0.0164166
601.656	0.0165565
601.734	0.0165210
601.812	0.0164775
601.890	0.0163737
601.968	0.0164748
602.046	0.0164182
602.124	0.0163598
602.203	0.0164869
602.281	0.0163746
602.359	0.0164568
602.437	0.0165403
602.515	0.0163934
602.593	0.0163884
602.671	0.0164063
602.749	0.0164272
602.828	0.0164072
602.906	0.0163966
602.984	0.0164638
603.062	0.0163680
603.140	0.0164546
603.218	0.0165151
603.296	0.0163578
603.374	0.0164149
603.453	0.0163154
603.531	0.0164310
603.609	0.0164087
603.687	0.0163376
603.765	0.0164330
603.843	0.0164540
603.921	0.0163666
603.999	0.0165108
604.078	0.0163712
604.156	0.0163877
604.234	0.0164690
604.312	0.0163113
604.390	0.0163077
604.468	0.0164803
604.546	0.0163216
604.624	0.0164040
604.703	0.0163851
604.781	0.0164384
604.859	0.0164387
604.937	0.0164659
605.015	0.0162517
605.093	0.0163258
605.171	0.0165167
605.249	0.0163100
605.328	0.0163448
605.406	0.0161938
605.484	0.0163851
605.562	0.0163841
605.640	0.0163594
605.718	0.0164577
605.796	0.0164545
605.874	0.0164442
605.953	0.0164136
606.031	0.0164639
606.109	0.0163741
606.187	0.0164429
606.265	0.0163573
606.343	0.0163524
606.421	0.0164532
606.499	0.0163583
606.578	0.0163976
606.656	0.0164739
606.734	0.0163342
606.812	0.0164161
606.890	0.0163924
606.968	0.0164625
607.046	0.0165119
607.124	0.0163884
607.203	0.0165416
607.281	0.0163954
607.359	0.0163717
607.437	0.0163556
607.515	0.0164196
607.593	0.0164158
607.671	0.0164810
607.749	0.0164350
607.828	0.0164919
607.906	0.0164104
607.984	0.0162469
608.062	0.0162821
608.140	0.0164886
608.218	0.0164571
608.296	0.0163847
608.374	0.0164972
608.453	0.0164009
608.531	0.0162907
608.609	0.0163018
608.687	0.0163544
608.765	0.0165179
608.843	0.0163450
608.921	0.0163423
608.999	0.0164468
609.078	0.0165138
609.156	0.0165187
609.234	0.0164725
609.312	0.0164260
609.390	0.0164529
609.468	0.0164315
609.546	0.0163647
609.624	0.0163943
609.703	0.0164941
609.781	0.0164308
609.859	0.0164504
609.937	0.0163429
610.015	0.0164074
610.093	0.0163396
610.171	0.0162957
610.249	0.0165628
610.328	0.0163274
610.406	0.0163139
610.484	0.0162521
610.562	0.0164291
610.640	0.0164404
610.718	0.0164831
610.796	0.0164440
610.874	0.0164110
610.953	0.0163848
611.031	0.0163803
611.109	0.0162764
611.187	0.0163563
611.265	0.0164296
611.343	0.0165408
611.421	0.0162335
611.499	0.0162914
611.578	0.0163969
611.656	0.0163246
611.734	0.0163653
611.812	0.0164007
611.890	0.0163890
611.968	0.0164604
612.046	0.0164880
612.124	0.0163140
612.203	0.0163893
612.281	0.0163807
612.359	0.0163518
612.437	0.0162845
612.515	0.0164612
612.593	0.0164787
612.671	0.0164015
612.749	0.0164488
612.828	0.0164294
612.906	0.0164482
612.984	0.0163898
613.062	0.0165311
613.140	0.0164445
613.218	0.0162935
613.296	0.0164772
613.374	0.0164319
613.453	0.0165244
613.531	0.0164561
613.609	0.0164439
613.687	0.0162897
613.765	0.0163399
613.843	0.0163569
613.921	0.0164329
613.999	0.0164475
614.078	0.0164281
614.156	0.0164444
614.234	0.0164395
614.312	0.0164589
614.390	0.0164280
614.468	0.0163351
614.546	0.0163381
614.624	0.0163814
614.703	0.0164887
614.781	0.0163622
614.859	0.0164711
614.937	0.0165525
615.015	0.0164258
615.093	0.0164593
615.171	0.0165164
615.249	0.0165682
615.328	0.0164297
615.406	0.0163421
615.484	0.0163158
615.562	0.0164344
615.640	0.0164564
615.718	0.0163753
615.796	0.0164095
615.874	0.0164549
615.953	0.0164979
616.031	0.0163902
616.109	0.0164297
616.187	0.0163516
616.265	0.0162489
616.343	0.0162943
616.421	0.0165226
616.499	0.0165182
616.578	0.0163953
616.656	0.0163219
616.734	0.0164612
616.812	0.0164021
616.890	0.0164745
616.968	0.0163641
617.046	0.0163857
617.124	0.0164786
617.203	0.0165133
617.281	0.0163865
617.359	0.0163889
617.437	0.0164714
617.515	0.0165211
617.593	0.0164095
617.671	0.0163577
617.749	0.0166111
617.828	0.0164350
617.906	0.0163557
617.984	0.0164863
618.062	0.0163947
618.140	0.0163870
618.218	0.0165409
618.296	0.0163955
618.374	0.0164166
618.453	0.0165364
618.531	0.0164400
618.609	0.0165126
618.687	0.0164347
618.765	0.0162762
618.843	0.0164081
618.921	0.0164152
618.999	0.0164558
619.078	0.0163702
619.156	0.0163286
619.234	0.0163750
619.312	0.0163811
619.390	0.0164207
619.468	0.0163041
619.546	0.0164135
619.624	0.0164928
619.703	0.0165182
619.781	0.0164345
619.859	0.0164925
619.937	0.0164320
620.015	0.0164045
620.093	0.0162952
620.171	0.0164161
620.249	0.0163437
620.328	0.0164290
620.406	0.0165002
620.484	0.0162877
620.562	0.0164044
620.640	0.0164261
620.718	0.0163853
620.796	0.0163475
620.874	0.0163310
620.953	0.0165756
621.031	0.0163992
621.109	0.0164669
621.187	0.0164037
621.265	0.0165359
621.343	0.0163773
621.421	0.0165290
621.499	0.0165138
621.578	0.0163897
621.656	0.0163271
621.734	0.0164803
621.812	0.0164687
621.890	0.0163961
621.968	0.0163407
622.046	0.0165295
622.124	0.0165101
622.203	0.0163039
622.281	0.0164482
622.359	0.0163490
622.437	0.0163564
622.515	0.0165034
622.593	0.0163483
622.671	0.0162904
622.749	0.0164311
622.828	0.0165112
622.906	0.0164549
622.984	0.0164767
623.062	0.0164400
623.140	0.0164884
623.218	0.0164386
623.296	0.0164491
623.374	0.0164628
623.453	0.0163441
623.531	0.0164228
623.609	0.0163728
623.687	0.0165553
623.765	0.0165084
623.843	0.0163087
623.921	0.0163969
623.999	0.0164719
624.078	0.0164220
624.156	0.0163930
624.234	0.0164561
624.312	0.0164619
624.390	0.0164647
624.468	0.0163812
624.546	0.0164665
624.624	0.0164059
624.703	0.0164080
624.781	0.0165577
624.859	0.0163963
624.937	0.0164635
625.015	0.0164520
625.093	0.0164613
625.171	0.0164581
625.249	0.0164617
625.328	0.0163708
625.406	0.0165578
625.484	0.0164046
625.562	0.0163910
625.640	0.0163969
625.718	0.0163966
625.796	0.0163582
625.874	0.0164394
625.953	0.0164648
626.031	0.0164496
626.109	0.0164108
626.187	0.0165118
626.265	0.0165343
626.343	0.0164213
626.421	0.0163129
626.499	0.0165308
626.578	0.0163411
626.656	0.0163897
626.734	0.0164785
626.812	0.0164220
626.890	0.0163941
626.968	0.0163921
627.046	0.0164709
627.124	0.0163672
627.203	0.0163273
627.281	0.0164504
627.359	0.0164381
627.437	0.0164642
627.515	0.0163663
627.593	0.0164156
627.671	0.0165194
627.749	0.0164396
627.828	0.0164008
627.906	0.0163770
627.984	0.0164781
628.062	0.0163790
628.140	0.0163785
628.218	0.0164140
628.296	0.0163940
628.374	0.0163664
628.453	0.0164755
628.531	0.0165282
628.609	0.0164463
628.687	0.0164400
628.765	0.0165556
628.843	0.0165228
628.921	0.0163530
628.999	0.0164011
629.078	0.0164402
629.156	0.0164240
629.234	0.0163928
629.312	0.0164103
629.390	0.0164033
629.468	0.0163902
629.546	0.0164724
629.624	0.0164551
629.703	0.0165479
629.781	0.0164175
629.859	0.0162997
629.937	0.0164329
630.015	0.0163969
630.093	0.0163255
630.171	0.0163664
630.249	0.0164282
630.328	0.0166067
630.406	0.0164353
630.484	0.0164415
630.562	0.0163081
630.640	0.0163633
630.718	0.0163808
630.796	0.0164355
630.874	0.0163477
630.953	0.0165887
631.031	0.0164000
631.109	0.0164574
631.187	0.0164609
631.265	0.0165612
631.343	0.0163930
631.421	0.0163870
631.499	0.0165567
631.578	0.0163734
631.656	0.0164555
631.734	0.0165454
631.812	0.0165304
631.890	0.0163074
631.968	0.0162373
632.046	0.0164851
632.124	0.0165280
632.203	0.0165462
632.281	0.0162666
632.359	0.0163164
632.437	0.0164070
632.515	0.0162730
632.593	0.0164706
632.671	0.0164268
632.749	0.0164616
632.828	0.0164080
632.906	0.0164194
632.984	0.0164233
633.062	0.0163183
633.140	0.0163232
633.218	0.0164957
633.296	0.0164214
633.374	0.0164722
633.453	0.0163776
633.531	0.0164343
633.609	0.0164680
633.687	0.0163260
633.765	0.0164432
633.843	0.0164867
633.921	0.0163976
633.999	0.0164611
634.078	0.0164032
634.156	0.0164243
634.234	0.0164679
634.312	0.0163377
634.390	0.0162555
634.468	0.0164416
634.546	0.0163139
634.624	0.0164407
634.703	0.0165376
634.781	0.0164903
634.859	0.0165774
634.937	0.0164645
635.015	0.0163360
635.093	0.0164874
635.171	0.0164247
635.249	0.0164229
635.328	0.0163673
635.406	0.0164525
635.484	0.0165093
635.562	0.0164816
635.640	0.0163168
635.718	0.0164917
635.796	0.0163907
635.874	0.0164232
635.953	0.0164433
636.031	0.0164039
636.109	0.0164819
636.187	0.0164402
636.265	0.0164447
636.343	0.0163729
636.421	0.0162904
636.499	0.0164429
636.578	0.0163296
636.656	0.0164142
636.734	0.0163950
636.812	0.0164237
636.890	0.0164349
636.968	0.0165143
637.046	0.0164478
637.124	0.0163868
637.203	0.0164748
637.281	0.0163830
637.359	0.0164388
637.437	0.0164584
637.515	0.0164527
637.593	0.0164404
637.671	0.0164825
637.749	0.0165159
637.828	0.0165072
637.906	0.0164778
637.984	0.0164143
638.062	0.0163760
638.140	0.0163569
638.218	0.0163720
638.296	0.0165040
638.374	0.0165665
638.453	0.0165105
638.531	0.0162884
638.609	0.0163993
638.687	0.0165946
638.765	0.0164189
638.843	0.0164959
638.921	0.0163610
638.999	0.0164194
639.078	0.0164330
639.156	0.0164575
639.234	0.0164196
639.312	0.0164510
639.390	0.0164603
639.468	0.0165331
639.546	0.0165485
639.624	0.0164996
639.703	0.0163998
639.781	0.0164014
639.859	0.0164400
639.937	0.0164703
640.015	0.0164491
640.093	0.0163863
640.171	0.0163686
640.249	0.0164063
640.328	0.0165531
640.406	0.0167244
640.484	0.0163721
640.562	0.0162283
640.640	0.0166619
640.718	0.0164878
640.796	0.0164809
640.874	0.0164986
640.953	0.0165167
641.031	0.0165028
641.109	0.0164302
641.187	0.0163612
641.265	0.0164288
641.343	0.0164059
641.421	0.0164654
641.499	0.0164812
641.578	0.0164323
641.656	0.0163846
641.734	0.0163616
641.812	0.0165116
641.890	0.0163678
641.968	0.0164591
642.046	0.0165163
642.124	0.0164099
642.203	0.0164656
642.281	0.0164365
642.359	0.0165295
642.437	0.0163337
642.515	0.0164694
642.593	0.0164111
642.671	0.0164758
642.749	0.0164926
642.828	0.0164322
642.906	0.0163841
642.984	0.0164259
643.062	0.0164256
643.140	0.0164732
643.218	0.0163616
643.296	0.0164381
643.374	0.0163650
643.453	0.0165215
643.531	0.0163787
643.609	0.0163853
643.687	0.0164595
643.765	0.0165311
643.843	0.0164478
643.921	0.0165102
643.999	0.0164268
644.078	0.0163822
644.156	0.0164039
644.234	0.0165601
644.312	0.0164509
644.390	0.0165393
644.468	0.0163442
644.546	0.0163740
644.624	0.0163186
644.703	0.0163842
644.781	0.0164960
644.859	0.0163919
644.937	0.0163620
645.015	0.0163776
645.093	0.0164506
645.171	0.0164610
645.249	0.0165428
645.328	0.0164676
645.406	0.0164050
645.484	0.0164331
645.562	0.0164136
645.640	0.0164545
645.718	0.0165833
645.796	0.0164386
645.874	0.0164870
645.953	0.0163908
646.031	0.0165189
646.109	0.0164025
646.187	0.0164113
646.265	0.0164603
646.343	0.0162756
646.421	0.0165200
646.499	0.0166301
646.578	0.0165463
646.656	0.0164981
646.734	0.0165654
646.812	0.0164249
646.890	0.0163521
646.968	0.0164472
647.046	0.0164934
647.124	0.0164127
647.203	0.0164656
647.281	0.0165384
647.359	0.0165041
647.437	0.0163711
647.515	0.0163750
647.593	0.0164323
647.671	0.0164621
647.749	0.0164961
647.828	0.0162817
647.906	0.0165249
647.984	0.0164406
648.062	0.0163625
648.140	0.0164384
648.218	0.0165591
648.296	0.0164970
648.374	0.0164479
648.453	0.0163464
648.531	0.0164342
648.609	0.0164700
648.687	0.0164507
648.765	0.0163979
648.843	0.0162725
648.921	0.0164085
648.999	0.0164820
649.078	0.0164758
649.156	0.0164103
649.234	0.0165447
649.312	0.0163416
649.390	0.0164519
649.468	0.0164125
649.546	0.0164699
649.624	0.0163779
649.703	0.0165249
649.781	0.0165141
649.859	0.0164938
649.937	0.0164744
650.015	0.0162420
650.093	0.0165197
650.171	0.0164297
650.249	0.0164738
650.328	0.0164713
650.406	0.0165343
650.484	0.0163109
650.562	0.0163530
650.640	0.0163934
650.718	0.0164616
650.796	0.0164425
650.874	0.0163153
650.953	0.0165054
651.031	0.0165008
651.109	0.0164715
651.187	0.0164996
651.265	0.0164651
651.343	0.0162932
651.421	0.0164574
651.499	0.0165073
651.578	0.0163371
651.656	0.0164118
651.734	0.0164536
651.812	0.0165913
651.890	0.0164206
651.968	0.0163538
652.046	0.0164248
652.124	0.0163293
652.203	0.0163539
652.281	0.0164121
652.359	0.0163397
652.437	0.0164176
652.515	0.0164668
652.593	0.0165576
652.671	0.0164358
652.749	0.0164778
652.828	0.0163523
652.906	0.0163654
652.984	0.0163951
653.062	0.0163882
653.140	0.0163573
653.218	0.0164730
653.296	0.0164592
653.374	0.0164122
653.453	0.0164693
653.531	0.0163374
653.609	0.0164670
653.687	0.0164960
653.765	0.0164426
653.843	0.0165014
653.921	0.0165488
653.999	0.0164700
654.078	0.0164758
654.156	0.0164744
654.234	0.0163958
654.312	0.0163574
654.390	0.0163898
654.468	0.0165067
654.546	0.0162343
654.624	0.0164271
654.703	0.0165968
654.781	0.0165443
654.859	0.0164448
654.937	0.0163931
655.015	0.0164013
655.093	0.0164776
655.171	0.0163746
655.249	0.0163995
655.328	0.0164320
655.406	0.0163767
655.484	0.0163409
655.562	0.0165157
655.640	0.0164265
655.718	0.0164828
655.796	0.0164674
655.874	0.0164191
655.953	0.0164751
656.031	0.0164429
656.109	0.0163775
656.187	0.0164240
656.265	0.0165880
656.343	0.0164413
656.421	0.0164573
656.499	0.0164201
656.578	0.0164921
656.656	0.0164483
656.734	0.0164214
656.812	0.0163971
656.890	0.0164311
656.968	0.0164280
657.046	0.0164326
657.124	0.0164783
657.203	0.0164551
657.281	0.0164616
657.359	0.0164949
657.437	0.0164635
657.515	0.0164137
657.593	0.0165115
657.671	0.0164017
657.749	0.0163099
657.828	0.0162579
657.906	0.0164453
657.984	0.0165863
658.062	0.0164194
658.140	0.0164390
658.218	0.0164644
658.296	0.0165361
658.374	0.0163855
658.453	0.0165018
658.531	0.0163747
658.609	0.0163716
658.687	0.0164941
658.765	0.0165798
658.843	0.0164005
658.921	0.0165365
658.999	0.0164370
659.078	0.0164029
659.156	0.0165108
659.234	0.0165934
659.312	0.0163723
659.390	0.0165254
659.468	0.0165140
659.546	0.0164695
659.624	0.0165625
659.703	0.0164732
659.781	0.0162710
659.859	0.0164104
659.937	0.0165242
660.015	0.0165407
660.093	0.0163844
660.171	0.0165228
660.249	0.0165001
660.328	0.0164185
660.406	0.0165575
660.484	0.0163894
660.562	0.0164156
660.640	0.0165302
660.718	0.0165413
660.796	0.0164552
660.874	0.0163058
660.953	0.0162914
661.031	0.0164462
661.109	0.0164946
661.187	0.0165305
661.265	0.0163911
661.343	0.0163889
661.421	0.0163583
661.499	0.0164187
661.578	0.0164725
661.656	0.0163510
661.734	0.0163580
661.812	0.0164751
661.890	0.0164167
661.968	0.0163795
662.046	0.0164960
662.124	0.0164539
662.203	0.0163342
662.281	0.0163579
662.359	0.0163758
662.437	0.0164644
662.515	0.0164572
662.593	0.0163726
662.671	0.0164855
662.749	0.0164412
662.828	0.0164449
662.906	0.0164091
662.984	0.0163972
663.062	0.0164468
663.140	0.0164403
663.218	0.0164393
663.296	0.0163696
663.374	0.0165199
663.453	0.0165054
663.531	0.0164173
663.609	0.0164270
663.687	0.0163353
663.765	0.0166306
663.843	0.0164439
663.921	0.0163686
663.999	0.0164445
664.078	0.0164423
664.156	0.0165439
664.234	0.0163612
664.312	0.0164617
664.390	0.0165138
664.468	0.0162860
664.546	0.0163613
664.624	0.0164026
664.703	0.0165179
664.781	0.0165316
664.859	0.0163297
664.937	0.0163946
665.015	0.0164457
665.093	0.0163921
665.171	0.0164808
665.249	0.0164539
665.328	0.0163879
665.406	0.0165014
665.484	0.0164515
665.562	0.0164478
665.640	0.0165192
665.718	0.0164258
665.796	0.0164147
665.874	0.0165277
665.953	0.0164281
666.031	0.0164206
666.109	0.0164052
666.187	0.0164043
666.265	0.0164262
666.343	0.0163509
666.421	0.0161699
666.499	0.0164259
666.578	0.0162775
666.656	0.0164809
666.734	0.0164040
666.812	0.0163670
666.890	0.0164411
666.968	0.0163727
667.046	0.0165054
667.124	0.0162599
667.203	0.0164520
667.281	0.0164540
667.359	0.0164384
667.437	0.0164355
667.515	0.0164658
667.593	0.0164413
667.671	0.0164986
667.749	0.0164458
667.828	0.0165070
667.906	0.0163940
667.984	0.0163975
668.062	0.0164843
668.140	0.0165606
668.218	0.0164635
668.296	0.0165504
668.374	0.0164415
668.453	0.0165463
668.531	0.0164059
668.609	0.0163713
668.687	0.0162408
668.765	0.0162987
668.843	0.0163258
668.921	0.0164225
668.999	0.0164177
669.078	0.0163783
669.156	0.0163143
669.234	0.0164148
669.312	0.0163813
669.390	0.0164606
669.468	0.0163927
669.546	0.0163685
669.624	0.0164849
669.703	0.0163612
669.781	0.0164256
669.859	0.0164678
669.937	0.0163811
670.015	0.0163911
670.093	0.0164815
670.171	0.0165891
670.249	0.0164381
670.328	0.0162407
670.406	0.0163883
670.484	0.0165681
670.562	0.0164008
670.640	0.0163784
670.718	0.0164314
670.796	0.0163926
670.874	0.0164101
670.953	0.0163612
671.031	0.0164271
671.109	0.0164394
671.187	0.0163726
671.265	0.0164356
671.343	0.0163245
671.421	0.0163866
671.499	0.0165095
671.578	0.0163358
671.656	0.0163269
671.734	0.0163383
671.812	0.0164492
671.890	0.0163336
671.968	0.0161867
672.046	0.0163340
672.124	0.0162045
672.203	0.0163572
672.281	0.0164336
672.359	0.0162790
672.437	0.0162902
672.515	0.0163971
672.593	0.0162864
672.671	0.0163916
672.749	0.0164140
672.828	0.0163029
672.906	0.0166051
672.984	0.0163474
673.062	0.0164333
673.140	0.0164407
673.218	0.0164426
673.296	0.0164600
673.374	0.0165867
673.453	0.0165037
673.531	0.0164080
673.609	0.0164654
673.687	0.0165273
673.765	0.0164959
673.843	0.0162677
673.921	0.0163632
673.999	0.0164045
674.078	0.0163881
674.156	0.0164663
674.234	0.0163457
674.312	0.0163765
674.390	0.0164377
674.468	0.0164656
674.546	0.0162366
674.624	0.0164142
674.703	0.0164111
674.781	0.0163679
674.859	0.0163515
674.937	0.0163638
675.015	0.0163803
675.093	0.0164172
675.171	0.0164343
675.249	0.0163272
675.328	0.0163816
675.406	0.0164900
675.484	0.0165061
675.562	0.0165725
675.640	0.0164601
675.718	0.0164532
675.796	0.0165166
675.874	0.0165321
675.953	0.0164388
676.031	0.0163993
676.109	0.0165133
676.187	0.0164262
676.265	0.0164741
676.343	0.0165466
676.421	0.0164648
676.499	0.0164374
676.578	0.0163023
676.656	0.0163766
676.734	0.0164413
676.812	0.0163634
676.890	0.0164331
676.968	0.0165310
677.046	0.0164030
677.124	0.0165218
677.203	0.0163322
677.281	0.0164275
677.359	0.0165211
677.437	0.0164338
677.515	0.0164243
677.593	0.0164196
677.671	0.0163221
677.749	0.0163249
677.828	0.0163582
677.906	0.0164580
677.984	0.0164638
678.062	0.0164807
678.140	0.0164024
678.218	0.0164149
678.296	0.0165133
678.374	0.0165241
678.453	0.0165295
678.531	0.0164892
678.609	0.0163680
678.687	0.0163730
678.765	0.0164739
678.843	0.0165829
678.921	0.0164818
678.999	0.0164293
679.078	0.0164830
679.156	0.0164393
679.234	0.0163797
679.312	0.0163668
679.390	0.0163366
679.468	0.0163228
679.546	0.0165266
679.624	0.0164176
679.703	0.0163802
679.781	0.0164116
679.859	0.0163867
679.937	0.0165415
680.015	0.0163860
680.093	0.0164030
680.171	0.0163181
680.249	0.0163125
680.328	0.0164009
680.406	0.0165743
680.484	0.0163912
680.562	0.0164765
680.640	0.0164075
680.718	0.0164112
680.796	0.0166277
680.874	0.0165598
680.953	0.0163505
681.031	0.0165295
681.109	0.0163942
681.187	0.0164978
681.265	0.0164768
681.343	0.0163959
681.421	0.0164433
681.499	0.0165159
681.578	0.0165533
681.656	0.0165629
681.734	0.0164814
681.812	0.0164424
681.890	0.0164953
681.968	0.0164410
682.046	0.0164355
682.124	0.0163744
682.203	0.0164509
682.281	0.0163087
682.359	0.0163472
682.437	0.0165893
682.515	0.0165587
682.593	0.0163688
682.671	0.0163852
682.749	0.0163786
682.828	0.0163662
682.906	0.0163871
682.984	0.0163497
683.062	0.0162868
683.140	0.0164098
683.218	0.0165146
683.296	0.0163346
683.374	0.0163372
683.453	0.0165570
683.531	0.0163878
683.609	0.0163153
683.687	0.0164759
683.765	0.0163898
683.843	0.0164411
683.921	0.0162494
683.999	0.0163696
684.078	0.0164160
684.156	0.0164109
684.234	0.0164128
684.312	0.0165357
684.390	0.0165440
684.468	0.0165395
684.546	0.0163940
684.624	0.0164995
684.703	0.0164624
684.781	0.0163934
684.859	0.0163356
684.937	0.0165209
685.015	0.0164098
685.093	0.0163899
685.171	0.0163464
685.249	0.0163676
685.328	0.0163255
685.406	0.0164461
685.484	0.0163522
685.562	0.0163228
685.640	0.0165133
685.718	0.0163861
685.796	0.0163943
685.874	0.0164098
685.953	0.0162963
686.031	0.0165332
686.109	0.0165150
686.187	0.0163857
686.265	0.0165115
686.343	0.0163850
686.421	0.0165158
686.499	0.0164056
686.578	0.0164307
686.656	0.0163556
686.734	0.0165027
686.812	0.0164381
686.890	0.0165076
686.968	0.0164634
687.046	0.0164405
687.124	0.0165346
687.203	0.0164394
687.281	0.0164832
687.359	0.0164040
687.437	0.0164174
687.515	0.0165862
687.593	0.0163968
687.671	0.0163566
687.749	0.0164314
687.828	0.0164822
687.906	0.0163653
687.984	0.0164542
688.062	0.0163074
688.140	0.0163231
688.218	0.0163913
688.296	0.0165189
688.374	0.0164939
688.453	0.0162860
688.531	0.0165202
688.609	0.0165530
688.687	0.0163043
688.765	0.0163798
688.843	0.0163876
688.921	0.0164296
688.999	0.0164321
689.078	0.0163468
689.156	0.0163563
689.234	0.0163484
689.312	0.0163552
689.390	0.0165177
689.468	0.0164879
689.546	0.0164397
689.624	0.0163705
689.703	0.0164460
689.781	0.0164870
689.859	0.0164492
689.937	0.0164691
690.015	0.0165167
690.093	0.0165723
690.171	0.0163657
690.249	0.0163577
690.328	0.0163659
690.406	0.0164810
690.484	0.0164715
690.562	0.0164576
690.640	0.0163740
690.718	0.0163243
690.796	0.0164352
690.874	0.0164806
690.953	0.0163821
691.031	0.0164263
691.109	0.0166204
691.187	0.0163771
691.265	0.0162314
691.343	0.0163617
691.421	0.0163194
691.499	0.0164162
691.578	0.0164909
691.656	0.0162691
691.734	0.0165000
691.812	0.0164574
691.890	0.0164645
691.968	0.0164259
692.046	0.0163846
692.124	0.0164896
692.203	0.0164747
692.281	0.0163698
692.359	0.0164176
692.437	0.0164340
692.515	0.0164759
692.593	0.0163067
692.671	0.0163052
692.749	0.0164132
692.828	0.0163521
692.906	0.0163149
692.984	0.0164534
693.062	0.0165017
693.140	0.0164434
693.218	0.0163668
693.296	0.0162988
693.374	0.0164658
693.453	0.0165195
693.531	0.0165964
693.609	0.0162481
693.687	0.0162479
693.765	0.0163674
693.843	0.0165183
693.921	0.0165559
693.999	0.0164729
694.078	0.0163781
694.156	0.0164329
694.234	0.0163936
694.312	0.0163612
694.390	0.0164032
694.468	0.0165012
694.546	0.0164739
694.624	0.0164137
694.703	0.0164506
694.781	0.0164278
694.859	0.0164994
694.937	0.0163672
695.015	0.0163214
695.093	0.0164733
695.171	0.0162629
695.249	0.0163824
695.328	0.0165073
695.406	0.0165795
695.484	0.0163361
695.562	0.0164256
695.640	0.0165395
695.718	0.0163961
695.796	0.0164313
695.874	0.0162842
695.953	0.0165128
696.031	0.0164977
696.109	0.0163358
696.187	0.0163937
696.265	0.0163683
696.343	0.0164577
696.421	0.0164970
696.499	0.0165359
696.578	0.0164206
696.656	0.0163138
696.734	0.0163210
696.812	0.0165217
696.890	0.0163118
696.968	0.0164045
697.046	0.0163939
697.124	0.0162904
697.203	0.0163224
697.281	0.0164423
697.359	0.0164103
697.437	0.0163992
697.515	0.0164089
697.593	0.0164049
697.671	0.0164444
697.749	0.0164652
697.828	0.0163064
697.906	0.0164001
697.984	0.0163724
698.062	0.0163681
698.140	0.0163608
698.218	0.0165221
698.296	0.0163619
698.374	0.0164435
698.453	0.0163965
698.531	0.0162984
698.609	0.0164558
698.687	0.0163753
698.765	0.0163964
698.843	0.0163933
698.921	0.0163967
698.999	0.0165250
699.078	0.0164017
699.156	0.0164483
699.234	0.0165117
699.312	0.0165349
699.390	0.0165237
699.468	0.0165076
699.546	0.0164203
699.624	0.0163645
699.703	0.0164182
699.781	0.0162449
699.859	0.0164878
699.937	0.0164139
700.015	0.0163989
700.093	0.0163703
700.171	0.0162199
700.249	0.0164007
700.328	0.0163539
700.406	0.0163967
700.484	0.0165153
700.562	0.0163459
700.640	0.0164137
700.718	0.0163622
700.796	0.0163992
700.874	0.0163532
700.953	0.0164894
701.031	0.0165066
701.109	0.0163668
701.187	0.0163805
701.265	0.0162714
701.343	0.0164336
701.421	0.0163561
701.499	0.0163630
701.578	0.0163129
701.656	0.0163569
701.734	0.0164406
701.812	0.0164342
701.890	0.0164110
701.968	0.0163421
702.046	0.0162999
702.124	0.0163399
702.203	0.0164334
702.281	0.0164288
702.359	0.0163483
702.437	0.0164130
702.515	0.0163943
702.593	0.0163592
702.671	0.0163907
702.749	0.0163232
702.828	0.0164356
702.906	0.0164262
702.984	0.0162318
703.062	0.0162916
703.140	0.0164643
703.218	0.0164619
703.296	0.0163917
703.374	0.0163530
703.453	0.0163032
703.531	0.0163982
703.609	0.0163686
703.687	0.0164063
703.765	0.0163532
703.843	0.0163487
703.921	0.0163860
703.999	0.0164931
704.078	0.0164215
704.156	0.0164546
704.234	0.0163709
704.312	0.0163470
704.390	0.0164610
704.468	0.0163029
704.546	0.0163609
704.624	0.0162840
704.703	0.0163813
704.781	0.0163128
704.859	0.0164649
704.937	0.0165230
705.015	0.0163441
705.093	0.0164510
705.171	0.0164000
705.249	0.0163410
705.328	0.0165053
705.406	0.0164468
705.484	0.0164720
705.562	0.0164416
705.640	0.0164532
705.718	0.0163484
705.796	0.0164179
705.874	0.0163911
705.953	0.0163152
706.031	0.0163363
706.109	0.0164866
706.187	0.0163106
706.265	0.0164550
706.343	0.0163498
706.421	0.0164410
706.499	0.0164222
706.578	0.0162146
706.656	0.0164215
706.734	0.0164909
706.812	0.0164515
706.890	0.0163049
706.968	0.0163103
707.046	0.0163715
707.124	0.0163992
707.203	0.0164298
707.281	0.0163970
707.359	0.0163240
707.437	0.0163836
707.515	0.0164917
707.593	0.0164375
707.671	0.0164345
707.749	0.0164334
707.828	0.0164189
707.906	0.0163789
707.984	0.0163409
708.062	0.0165881
708.140	0.0164002
708.218	0.0163316
708.296	0.0162931
708.374	0.0164372
708.453	0.0165147
708.531	0.0164326
708.609	0.0164168
708.687	0.0164167
708.765	0.0163769
708.843	0.0163885
708.921	0.0163427
708.999	0.0164384
709.078	0.0162912
709.156	0.0163812
709.234	0.0164951
709.312	0.0165816
709.390	0.0164268
709.468	0.0164600
709.546	0.0163402
709.624	0.0164071
709.703	0.0165392
709.781	0.0164034
709.859	0.0163560
709.937	0.0164146
710.015	0.0164560
710.093	0.0164436
710.171	0.0165164
710.249	0.0163331
710.328	0.0163616
710.406	0.0165224
710.484	0.0163290
710.562	0.0163390
710.640	0.0164577
710.718	0.0163908
710.796	0.0163493
710.874	0.0165795
710.953	0.0163635
711.031	0.0163379
711.109	0.0165011
711.187	0.0163319
711.265	0.0164544
711.343	0.0164642
711.421	0.0163038
711.499	0.0164163
711.578	0.0164218
711.656	0.0165305
711.734	0.0163154
711.812	0.0164458
711.890	0.0163349
711.968	0.0164317
712.046	0.0164867
712.124	0.0164554
712.203	0.0165076
712.281	0.0164076
712.359	0.0165045
712.437	0.0164695
712.515	0.0164182
712.593	0.0164977
712.671	0.0165136
712.749	0.0163629
712.828	0.0165469
712.906	0.0164898
712.984	0.0165272
713.062	0.0164374
713.140	0.0164886
713.218	0.0164804
713.296	0.0166090
713.374	0.0164214
713.453	0.0163898
713.531	0.0164960
713.609	0.0164371
713.687	0.0164413
713.765	0.0165267
713.843	0.0164709
713.921	0.0164976
713.999	0.0164352
714.078	0.0164819
714.156	0.0163867
714.234	0.0164940
714.312	0.0163966
714.390	0.0163104
714.468	0.0164157
714.546	0.0163712
714.624	0.0163547
714.703	0.0163811
714.781	0.0164850
714.859	0.0163518
714.937	0.0164342
715.015	0.0165207
715.093	0.0163674
715.171	0.0163150
715.249	0.0163610
715.328	0.0163403
715.406	0.0163670
715.484	0.0164719
715.562	0.0165153
715.640	0.0164451
715.718	0.0164745
715.796	0.0163396
715.874	0.0164284
715.953	0.0164662
716.031	0.0164539
716.109	0.0164636
716.187	0.0164544
716.265	0.0164380
716.343	0.0165593
716.421	0.0164754
716.499	0.0163689
716.578	0.0163345
716.656	0.0164507
716.734	0.0163770
716.812	0.0163636
716.890	0.0165725
716.968	0.0164114
717.046	0.0163863
717.124	0.0164197
717.203	0.0164199
717.281	0.0163609
717.359	0.0163521
717.437	0.0164353
717.515	0.0164151
717.593	0.0164345
717.671	0.0164608
717.749	0.0162746
717.828	0.0163808
717.906	0.0163952
717.984	0.0164301
718.062	0.0163875
718.140	0.0163786
718.218	0.0163688
718.296	0.0163390
718.374	0.0164449
718.453	0.0165320
718.531	0.0163652
718.609	0.0163810
718.687	0.0164028
718.765	0.0163593
718.843	0.0163876
718.921	0.0164639
718.999	0.0163919
719.078	0.0164217
719.156	0.0163571
719.234	0.0163654
719.312	0.0164157
719.390	0.0163361
719.468	0.0163322
719.546	0.0164951
719.624	0.0165051
719.703	0.0164223
719.781	0.0164622
719.859	0.0164461
719.937	0.0164011
720.015	0.0164017
720.093	0.0163052
720.171	0.0162914
720.249	0.0164695
720.328	0.0164556
720.406	0.0163134
720.484	0.0163126
720.562	0.0163737
720.640	0.0164257
720.718	0.0163579
720.796	0.0163785
720.874	0.0163587
720.953	0.0163548
721.031	0.0163596
721.109	0.0163664
721.187	0.0164203
721.265	0.0165105
721.343	0.0164764
721.421	0.0162823
721.499	0.0164697
721.578	0.0164537
721.656	0.0163732
721.734	0.0164196
721.812	0.0163680
721.890	0.0163819
721.968	0.0163369
722.046	0.0163936
722.124	0.0164084
722.203	0.0164921
722.281	0.0164047
722.359	0.0164520
722.437	0.0164452
722.515	0.0163962
722.593	0.0163927
722.671	0.0163970
722.749	0.0165228
722.828	0.0164247
722.906	0.0163974
722.984	0.0163760
723.062	0.0164217
723.140	0.0163660
723.218	0.0164207
723.296	0.0164542
723.374	0.0163656
723.453	0.0164791
723.531	0.0164133
723.609	0.0163782
723.687	0.0163227
723.765	0.0164703
723.843	0.0164371
723.921	0.0164185
723.999	0.0164211
724.078	0.0164436
724.156	0.0164441
724.234	0.0166132
724.312	0.0164166
724.390	0.0165012
724.468	0.0165041
724.546	0.0165366
724.624	0.0163881
724.703	0.0165356
724.781	0.0164884
724.859	0.0164625
724.937	0.0164204
725.015	0.0164245
725.093	0.0164118
725.171	0.0164022
725.249	0.0165648
725.328	0.0164778
725.406	0.0162911
725.484	0.0165483
725.562	0.0166240
725.640	0.0164810
725.718	0.0163347
725.796	0.0165095
725.874	0.0165823
725.953	0.0165360
726.031	0.0164402
726.109	0.0163804
726.187	0.0164507
726.265	0.0166056
726.343	0.0166182
726.421	0.0165183
726.499	0.0163852
726.578	0.0164682
726.656	0.0164848
726.734	0.0165113
726.812	0.0165414
726.890	0.0164646
726.968	0.0164919
727.046	0.0163911
727.124	0.0165616
727.203	0.0164176
727.281	0.0165211
727.359	0.0165928
727.437	0.0164758
727.515	0.0164714
727.593	0.0164561
727.671	0.0164318
727.749	0.0164214
727.828	0.0165364
727.906	0.0164027
727.984	0.0164384
728.062	0.0163604
728.140	0.0164626
728.218	0.0163345
728.296	0.0163656
728.374	0.0164787
728.453	0.0164792
728.531	0.0165212
728.609	0.0163177
728.687	0.0164957
728.765	0.0164900
728.843	0.0163817
728.921	0.0163077
728.999	0.0163179
729.078	0.0163580
729.156	0.0164532
729.234	0.0165061
729.312	0.0164355
729.390	0.0165417
729.468	0.0164337
729.546	0.0164069
729.624	0.0162539
729.703	0.0163458
729.781	0.0164073
729.859	0.0163557
729.937	0.0163519
730.015	0.0164794
730.093	0.0162084
730.171	0.0164358
730.249	0.0165505
730.328	0.0163771
730.406	0.0164186
730.484	0.0165107
730.562	0.0163931
730.640	0.0164230
730.718	0.0162861
730.796	0.0162067
730.874	0.0164595
730.953	0.0164029
731.031	0.0165412
731.109	0.0163752
731.187	0.0163721
731.265	0.0164180
731.343	0.0164097
731.421	0.0163516
731.499	0.0163994
731.578	0.0164045
731.656	0.0163291
731.734	0.0163390
731.812	0.0164026
731.890	0.0163032
731.968	0.0163910
732.046	0.0163915
732.124	0.0164069
732.203	0.0164997
732.281	0.0163251
732.359	0.0163824
732.437	0.0163145
732.515	0.0164304
732.593	0.0164973
732.671	0.0164342
732.749	0.0164050
732.828	0.0163406
732.906	0.0164339
732.984	0.0164127
733.062	0.0164680
733.140	0.0164897
733.218	0.0163873
733.296	0.0164054
733.374	0.0163594
733.453	0.0164244
733.531	0.0164213
733.609	0.0164117
733.687	0.0162413
733.765	0.0163509
733.843	0.0163931
733.921	0.0164270
733.999	0.0163065
734.078	0.0162143
734.156	0.0163985
734.234	0.0163438
734.312	0.0163396
734.390	0.0162746
734.468	0.0163544
734.546	0.0163660
734.624	0.0163574
734.703	0.0164400
734.781	0.0163416
734.859	0.0164851
734.937	0.0163690
735.015	0.0163942
735.093	0.0163646
735.171	0.0163440
735.249	0.0162357
735.328	0.0164330
735.406	0.0165023
735.484	0.0163141
735.562	0.0164170
735.640	0.0163100
735.718	0.0163966
735.796	0.0165053
735.874	0.0163181
735.953	0.0163524
736.031	0.0163199
736.109	0.0163998
736.187	0.0163905
736.265	0.0163190
736.343	0.0163269
736.421	0.0163503
736.499	0.0163467
736.578	0.0163731
736.656	0.0163670
736.734	0.0163313
736.812	0.0162575
736.890	0.0164037
736.968	0.0163088
737.046	0.0163493
737.124	0.0164669
737.203	0.0163587
737.281	0.0162391
737.359	0.0163606
737.437	0.0163485
737.515	0.0162988
737.593	0.0162518
737.671	0.0163099
737.749	0.0162643
737.828	0.0163815
737.906	0.0163813
737.984	0.0164558
738.062	0.0162884
738.140	0.0163665
738.218	0.0164072
738.296	0.0163004
738.374	0.0163913
738.453	0.0163158
738.531	0.0163528
738.609	0.0163185
738.687	0.0163242
738.765	0.0165621
738.843	0.0163764
738.921	0.0162320
738.999	0.0164965
739.078	0.0164507
739.156	0.0161742
739.234	0.0163817
739.312	0.0163612
739.390	0.0162548
739.468	0.0163002
739.546	0.0164194
739.624	0.0166776
739.703	0.0166090
739.781	0.0165266
739.859	0.0163987
739.937	0.0166225
740.015	0.0166737
740.093	0.0167580
740.171	0.0167747
740.249	0.0167783
740.328	0.0167299
740.406	0.0166064
740.484	0.0166174
740.562	0.0165337
740.640	0.0165491
740.718	0.0164305
740.796	0.0162955
740.874	0.0162478
740.953	0.0162115
741.031	0.0161582
741.109	0.0159600
741.187	0.0160710
741.265	0.0158312
741.343	0.0157169
741.421	0.0156574
741.499	0.0156244
741.578	0.0156017
741.656	0.0155420
741.734	0.0156039
741.812	0.0157581
741.890	0.0158081
741.968	0.0160498
742.046	0.0163132
742.124	0.0165104
742.203	0.0167952
742.281	0.0169324
742.359	0.0170161
742.437	0.0172798
742.515	0.0172531
742.593	0.0172660
742.671	0.0172791
742.749	0.0171400
742.828	0.0167621
742.906	0.0166523
742.984	0.0161906
743.062	0.0160240
743.140	0.0158403
743.218	0.0155277
743.296	0.0151817
743.374	0.0150385
743.453	0.0152938
743.531	0.0152612
743.609	0.0155476
743.687	0.0158673
743.765	0.0160699
743.843	0.0165450
743.921	0.0170239
743.999	0.0173641
744.078	0.0178076
744.156	0.0183519
744.234	0.0186040
744.312	0.0190308
744.390	0.0194351
744.468	0.0197886
744.546	0.0200745
744.624	0.0200774
744.703	0.0199506
744.781	0.0198471
744.859	0.0194509
744.937	0.0188757
745.015	0.0181293
745.093	0.0172767
745.171	0.0160031
745.249	0.0149783
745.328	0.0137269
745.406	0.0123591
745.484	0.0113679
745.562	0.0103522
745.640	0.00955757
745.718	0.00897568
745.796	0.00859108
745.874	0.00848656
745.953	0.00851669
746.031	0.00906097
746.109	0.00981323
746.187	0.0107841
746.265	0.0121033
746.343	0.0137019
746.421	0.0150577
746.499	0.0169316
746.578	0.0185738
746.656	0.0202945
746.734	0.0218095
746.812	0.0233630
746.890	0.0243613
746.968	0.0250867
747.046	0.0255077
747.124	0.0256243
747.203	0.0254175
747.281	0.0249890
747.359	0.0242211
747.437	0.0232777
747.515	0.0223043
747.593	0.0210963
747.671	0.0199461
747.749	0.0188117
747.828	0.0171465
747.906	0.0158189
747.984	0.0143243
748.062	0.0130874
748.140	0.0116294
748.218	0.0104644
748.296	0.00957512
748.374	0.00903793
748.453	0.00892792
748.531	0.00892433
748.609	0.00936119
748.687	0.00985008
748.765	0.0106688
748.843	0.0115546
748.921	0.0125034
748.999	0.0135435
749.078	0.0146877
749.156	0.0158494
749.234	0.0168245
749.312	0.0177596
749.390	0.0188169
749.468	0.0195663
749.546	0.0203104
749.624	0.0211048
749.703	0.0212594
749.781	0.0214133
749.859	0.0214352
749.937	0.0211667
750.015	0.0204967
750.093	0.0199210
750.171	0.0189566
750.249	0.0182127
750.328	0.0172781
750.406	0.0165471
750.484	0.0156480
750.562	0.0147643
750.640	0.0140195
750.718	0.0132922
750.796	0.0127503
750.874	0.0123943
750.953	0.0119975
751.031	0.0120171
751.109	0.0121965
751.187	0.0125320
751.265	0.0129092
751.343	0.0133736
751.421	0.0141031
751.499	0.0147939
751.578	0.0154089
751.656	0.0160725
751.734	0.0167294
751.812	0.0176101
751.890	0.0182758
751.968	0.0188785
752.046	0.0198707
752.124	0.0205737
752.203	0.0213895
752.281	0.0220618
752.359	0.0224802
752.437	0.0227223
752.515	0.0231291
752.593	0.0231361
752.671	0.0228237
752.749	0.0223548
752.828	0.0215968
752.906	0.0206440
752.984	0.0195539
753.062	0.0181360
753.140	0.0164886
753.218	0.0151060
753.296	0.0136053
753.374	0.0121124
753.453	0.0107455
753.531	0.00931908
753.609	0.00830345
753.687	0.00764595
753.765	0.00723053
753.843	0.00717819
753.921	0.00753647
753.999	0.00795181
754.078	0.00891853
754.156	0.0100642
754.234	0.0113254
754.312	0.0129041
754.390	0.0145715
754.468	0.0160645
754.546	0.0177110
754.624	0.0193458
754.703	0.0205733
754.781	0.0216927
754.859	0.0228235
754.937	0.0233836
755.015	0.0238953
755.093	0.0242538
755.171	0.0243652
755.249	0.0240574
755.328	0.0239280
755.406	0.0233244
755.484	0.0226218
755.562	0.0216346
755.640	0.0205435
755.718	0.0193699
755.796	0.0181826
755.874	0.0169910
755.953	0.0155317
756.031	0.0143926
756.109	0.0133365
756.187	0.0123602
756.265	0.0115457
756.343	0.0108345
756.421	0.0102804
756.499	0.00994987
756.578	0.00981422
756.656	0.00976151
756.734	0.0100091
756.812	0.0103993
756.890	0.0107983
756.968	0.0113723
757.046	0.0123947
757.124	0.0132322
757.203	0.0144922
757.281	0.0155869
757.359	0.0166559
757.437	0.0178310
757.515	0.0190718
757.593	0.0197690
757.671	0.0204439
757.749	0.0212874
757.828	0.0217450
757.906	0.0222373
757.984	0.0224008
758.062	0.0223092
758.140	0.0223409
758.218	0.0220130
758.296	0.0215227
758.374	0.0207354
758.453	0.0199012
758.531	0.0190516
758.609	0.0179895
758.687	0.0169617
758.765	0.0159141
758.843	0.0147350
758.921	0.0137390
758.999	0.0129512
759.078	0.0124687
759.156	0.0119195
759.234	0.0115558
759.312	0.0114313
759.390	0.0113938
759.468	0.0116650
759.546	0.0120687
759.624	0.0124957
759.703	0.0130137
759.781	0.0136745
759.859	0.0145742
759.937	0.0152903
760.015	0.0159826
760.093	0.0167216
760.171	0.0172173
760.249	0.0176297
760.328	0.0180162
760.406	0.0182699
760.484	0.0183065
760.562	0.0181857
760.640	0.0180465
760.718	0.0178409
760.796	0.0177215
760.874	0.0178088
760.953	0.0176195
761.031	0.0172941
761.109	0.0173016
761.187	0.0174251
761.265	0.0173150
761.343	0.0173493
761.421	0.0172318
761.499	0.0172617
761.578	0.0170262
761.656	0.0167868
761.734	0.0167004
761.812	0.0164597
761.890	0.0162700
761.968	0.0160503
762.046	0.0158537
762.124	0.0156190
762.203	0.0155557
762.281	0.0154611
762.359	0.0154314
762.437	0.0153597
762.515	0.0155029
762.593	0.0155971
762.671	0.0156750
762.749	0.0160292
762.828	0.0163914
762.906	0.0165456
762.984	0.0166187
763.062	0.0169206
763.140	0.0172616
763.218	0.0172794
763.296	0.0172781
763.374	0.0175993
763.453	0.0173733
763.531	0.0174108
763.609	0.0174068
763.687	0.0170957
763.765	0.0166689
763.843	0.0163940
763.921	0.0162455
763.999	0.0157882
764.078	0.0155899
764.156	0.0151844
764.234	0.0152856
764.312	0.0150194
764.390	0.0152013
764.468	0.0150104
764.546	0.0153517
764.624	0.0153910
764.703	0.0155392
764.781	0.0155958
764.859	0.0157910
764.937	0.0161328
765.015	0.0161969
765.093	0.0163625
765.171	0.0165159
765.249	0.0167481
765.328	0.0170107
765.406	0.0171210
765.484	0.0172020
765.562	0.0173996
765.640	0.0173222
765.718	0.0173534
765.796	0.0173688
765.874	0.0172046
765.953	0.0173885
766.031	0.0174285
766.109	0.0174570
766.187	0.0175760
766.265	0.0175198
766.343	0.0175193
766.421	0.0174355
766.499	0.0173067
766.578	0.0169354
766.656	0.0167416
766.734	0.0164949
766.812	0.0161844
766.890	0.0156387
766.968	0.0153549
767.046	0.0149879
767.124	0.0148004
767.203	0.0146067
767.281	0.0144633
767.359	0.0144374
767.437	0.0144130
767.515	0.0145827
767.593	0.0145647
767.671	0.0148531
767.749	0.0151009
767.828	0.0152988
767.906	0.0156223
767.984	0.0159282
768.062	0.0163094
768.140	0.0165852
768.218	0.0170119
768.296	0.0172322
768.374	0.0173762
768.453	0.0174913
768.531	0.0179239
768.609	0.0179108
768.687	0.0177778
768.765	0.0178346
768.843	0.0178506
768.921	0.0177812
768.999	0.0176304
769.078	0.0174973
769.156	0.0172834
769.234	0.0170435
769.312	0.0168342
769.390	0.0165115
769.468	0.0164224
769.546	0.0161560
769.624	0.0158598
769.703	0.0156733
769.781	0.0157612
769.859	0.0153944
769.937	0.0154553
770.015	0.0152822
770.093	0.0153619
770.171	0.0156130
770.249	0.0155811
770.328	0.0155773
770.406	0.0157147
770.484	0.0160705
770.562	0.0161826
770.640	0.0162331
770.718	0.0165159
770.796	0.0168079
770.874	0.0167889
770.953	0.0170412
771.031	0.0170420
771.109	0.0170798
771.187	0.0171707
771.265	0.0171752
771.343	0.0170991
771.421	0.0170444
771.499	0.0168902
771.578	0.0169257
771.656	0.0169176
771.734	0.0166248
771.812	0.0164597
771.890	0.0163268
771.968	0.0162003
772.046	0.0159688
772.124	0.0158078
772.203	0.0158063
772.281	0.0157538
772.359	0.0157496
772.437	0.0157166
772.515	0.0158157
772.593	0.0158210
772.671	0.0158897
772.749	0.0159747
772.828	0.0160500
772.906	0.0159941
772.984	0.0160385
773.062	0.0160593
773.140	0.0161305
773.218	0.0160695
773.296	0.0162225
773.374	0.0161585
773.453	0.0163654
773.531	0.0164182
773.609	0.0164684
773.687	0.0165002
773.765	0.0165616
773.843	0.0166611
773.921	0.0167776
773.999	0.0167486
774.078	0.0169420
774.156	0.0170779
774.234	0.0169563
774.312	0.0170337
774.390	0.0172485
774.468	0.0172980
774.546	0.0171658
774.624	0.0171417
774.703	0.0171349
774.781	0.0170402
774.859	0.0170486
774.937	0.0170209
775.015	0.0171043
775.093	0.0168639
775.171	0.0165045
775.249	0.0165233
775.328	0.0165324
775.406	0.0164164
775.484	0.0162395
775.562	0.0161308
775.640	0.0160830
775.718	0.0159398
775.796	0.0158852
775.874	0.0157845
775.953	0.0156858
776.031	0.0156596
776.109	0.0157970
776.187	0.0158219
776.265	0.0157790
776.343	0.0159504
776.421	0.0161161
776.499	0.0163116
776.578	0.0164935
776.656	0.0166191
776.734	0.0166978
776.812	0.0167262
776.890	0.0168827
776.968	0.0169695
777.046	0.0169740
777.124	0.0169668
777.203	0.0167699
777.281	0.0168335
777.359	0.0167907
777.437	0.0168479
777.515	0.0166428
777.593	0.0165055
777.671	0.0165147
777.749	0.0165173
777.828	0.0163455
777.906	0.0162674
777.984	0.0160336
778.062	0.0160645
778.140	0.0158681
778.218	0.0158838
778.296	0.0156866
778.374	0.0157063
778.453	0.0156237
778.531	0.0156467
778.609	0.0157462
778.687	0.0157118
778.765	0.0158180
778.843	0.0156196
778.921	0.0158202
778.999	0.0159414
779.078	0.0160326
779.156	0.0161795
779.234	0.0162217
779.312	0.0163596
779.390	0.0164771
779.468	0.0167310
779.546	0.0167696
779.624	0.0168839
779.703	0.0170084
779.781	0.0170928
779.859	0.0170911
779.937	0.0171688
780.015	0.0173572
780.093	0.0172775
780.171	0.0173552
780.249	0.0174855
780.328	0.0172643
780.406	0.0171788
780.484	0.0171503
780.562	0.0169200
780.640	0.0166858
780.718	0.0167211
780.796	0.0166344
780.874	0.0164478
780.953	0.0162640
781.031	0.0162979
781.109	0.0163760
781.187	0.0162955
781.265	0.0161118
781.343	0.0161590
781.421	0.0163300
781.499	0.0162992
781.578	0.0163158
781.656	0.0164683
781.734	0.0164718
781.812	0.0164345
781.890	0.0165217
781.968	0.0164903
782.046	0.0164468
782.124	0.0163011
782.203	0.0163248
782.281	0.0161569
782.359	0.0161346
782.437	0.0160835
782.515	0.0159599
782.593	0.0158919
782.671	0.0158595
782.749	0.0158318
782.828	0.0160696
782.906	0.0160316
782.984	0.0161510
783.062	0.0159436
783.140	0.0160525
783.218	0.0160123
783.296	0.0160986
783.374	0.0160011
783.453	0.0160690
783.531	0.0159614
783.609	0.0159911
783.687	0.0160484
783.765	0.0160494
783.843	0.0160738
783.921	0.0161731
783.999	0.0161808
784.078	0.0162040
784.156	0.0161616
784.234	0.0161958
784.312	0.0163416
784.390	0.0163432
784.468	0.0163692
784.546	0.0164527
784.624	0.0165932
784.703	0.0165418
784.781	0.0165781
784.859	0.0166107
784.937	0.0165479
785.015	0.0164983
785.093	0.0166212
785.171	0.0165335
785.249	0.0166840
785.328	0.0167357
785.406	0.0168422
785.484	0.0167809
785.562	0.0168725
785.640	0.0169399
785.718	0.0168418
785.796	0.0169930
785.874	0.0170133
785.953	0.0170881
786.031	0.0170117
786.109	0.0170901
786.187	0.0169268
786.265	0.0169114
786.343	0.0168577
786.421	0.0167786
786.499	0.0167510
786.578	0.0166435
786.656	0.0167361
786.734	0.0165265
786.812	0.0163488
786.890	0.0162995
786.968	0.0161591
787.046	0.0161040
787.124	0.0159903
787.203	0.0158819
787.281	0.0158541
787.359	0.0158336
787.437	0.0158569
787.515	0.0158076
787.593	0.0157357
787.671	0.0158393
787.749	0.0158441
787.828	0.0158279
787.906	0.0159753
787.984	0.0158846
788.062	0.0160079
788.140	0.0160744
788.218	0.0161266
788.296	0.0161202
788.374	0.0161573
788.453	0.0161064
788.531	0.0162238
788.609	0.0161016
788.687	0.0161446
788.765	0.0163138
788.843	0.0161611
788.921	0.0162830
788.999	0.0164085
789.078	0.0164067
789.156	0.0166347
789.234	0.0167272
789.312	0.0169026
789.390	0.0168532
789.468	0.0169633
789.546	0.0170267
789.624	0.0171838
789.703	0.0170621
789.781	0.0168865
789.859	0.0169046
789.937	0.0168811
790.015	0.0167814
790.093	0.0167276
790.171	0.0166636
790.249	0.0164073
790.328	0.0163866
790.406	0.0161578
790.484	0.0162418
790.562	0.0161051
790.640	0.0161127
790.718	0.0159825
790.796	0.0158543
790.874	0.0158808
790.953	0.0159016
791.031	0.0158246
791.109	0.0157867
791.187	0.0158786
791.265	0.0159399
791.343	0.0158755
791.421	0.0160330
791.499	0.0161632
791.578	0.0163013
791.656	0.0162981
791.734	0.0164178
791.812	0.0166238
791.890	0.0167563
791.968	0.0168864
792.046	0.0169565
792.124	0.0170945
792.203	0.0172041
792.281	0.0171969
792.359	0.0170891
792.437	0.0172540
792.515	0.0170544
792.593	0.0168472
792.671	0.0169073
792.749	0.0169109
792.828	0.0166859
792.906	0.0164977
792.984	0.0163587
793.062	0.0163698
793.140	0.0161693
793.218	0.0159807
793.296	0.0157780
793.374	0.0157890
793.453	0.0157433
793.531	0.0156313
793.609	0.0155536
793.687	0.0155564
793.765	0.0157557
793.843	0.0156989
793.921	0.0157841
793.999	0.0157150
794.078	0.0157965
794.156	0.0158955
794.234	0.0160806
794.312	0.0161324
794.390	0.0163126
794.468	0.0163370
794.546	0.0164989
794.624	0.0166259
794.703	0.0165359
794.781	0.0166969
794.859	0.0168286
794.937	0.0168436
795.015	0.0168780
795.093	0.0167353
795.171	0.0167855
795.249	0.0169421
795.328	0.0169698
795.406	0.0168610
795.484	0.0169974
795.562	0.0168732
795.640	0.0167466
795.718	0.0169270
795.796	0.0167631
795.874	0.0167004
795.953	0.0163799
796.031	0.0162519
796.109	0.0162689
796.187	0.0160722
796.265	0.0159207
796.343	0.0157986
796.421	0.0159084
796.499	0.0156889
796.578	0.0157801
796.656	0.0156505
796.734	0.0156097
796.812	0.0156544
796.890	0.0158912
796.968	0.0159818
797.046	0.0160684
797.124	0.0161105
797.203	0.0162653
797.281	0.0163853
797.359	0.0165180
797.437	0.0166065
797.515	0.0167075
797.593	0.0167616
797.671	0.0169991
797.749	0.0170018
797.828	0.0171394
797.906	0.0172326
797.984	0.0172421
798.062	0.0171512
798.140	0.0172848
798.218	0.0171092
798.296	0.0170071
798.374	0.0170839
798.453	0.0169146
798.531	0.0166760
798.609	0.0165820
798.687	0.0164065
798.765	0.0161964
798.843	0.0160419
798.921	0.0157444
798.999	0.0157689
799.078	0.0155965
799.156	0.0154716
799.234	0.0154925
799.312	0.0153738
799.390	0.0153799
799.468	0.0153450
799.546	0.0154047
799.624	0.0157292
799.703	0.0156109
799.781	0.0156663
799.859	0.0157972
799.937	0.0160743
800.015	0.0160883
800.093	0.0161141
800.171	0.0163187
800.249	0.0164979
800.328	0.0164703
800.406	0.0165839
800.484	0.0168638
800.562	0.0168313
800.640	0.0167443
800.718	0.0170745
800.796	0.0171013
800.874	0.0171148
800.953	0.0170023
801.031	0.0170206
801.109	0.0169741
801.187	0.0170863
801.265	0.0169025
801.343	0.0170260
801.421	0.0169656
801.499	0.0168375
801.578	0.0167376
801.656	0.0167797
801.734	0.0165824
801.812	0.0164278
801.890	0.0163560
801.968	0.0162806
802.046	0.0161241
802.124	0.0160596
802.203	0.0159716
802.281	0.0161064
802.359	0.0160266
802.437	0.0159386
802.515	0.0159501
802.593	0.0158158
802.671	0.0158811
802.749	0.0159095
802.828	0.0160004
802.906	0.0161831
802.984	0.0161192
803.062	0.0161607
803.140	0.0163096
803.218	0.0163733
803.296	0.0165188
803.374	0.0165573
803.453	0.0166876
803.531	0.0166062
803.609	0.0166606
803.687	0.0166050
803.765	0.0167237
803.843	0.0166951
803.921	0.0165647
803.999	0.0164931
804.078	0.0164754
804.156	0.0164433
804.234	0.0163557
804.312	0.0162062
804.390	0.0163123
804.468	0.0163099
804.546	0.0161613
804.624	0.0161352
804.703	0.0162727
804.781	0.0161225
804.859	0.0161092
804.937	0.0161480
805.015	0.0164027
805.093	0.0163026
805.171	0.0163224
805.249	0.0164962
805.328	0.0167145
805.406	0.0167512
805.484	0.0167813
805.562	0.0166737
805.640	0.0168675
805.718	0.0168711
805.796	0.0170159
805.874	0.0169953
805.953	0.0169144
806.031	0.0168661
806.109	0.0169883
806.187	0.0168279
806.265	0.0167992
806.343	0.0167233
806.421	0.0166481
806.499	0.0165648
806.578	0.0164701
806.656	0.0164120
806.734	0.0163098
806.812	0.0162407
806.890	0.0161066
806.968	0.0160069
807.046	0.0159478
807.124	0.0159641
807.203	0.0158776
807.281	0.0158743
807.359	0.0156912
807.437	0.0158551
807.515	0.0159227
807.593	0.0159681
807.671	0.0160618
807.749	0.0159590
807.828	0.0160729
807.906	0.0162206
807.984	0.0160649
808.062	0.0162419
808.140	0.0162703
808.218	0.0162099
808.296	0.0163499
808.374	0.0162875
808.453	0.0164533
808.531	0.0165495
808.609	0.0165779
808.687	0.0165211
808.765	0.0165010
808.843	0.0167065
808.921	0.0166952
808.999	0.0165715
809.078	0.0166321
809.156	0.0166095
809.234	0.0165864
809.312	0.0165532
809.390	0.0165096
809.468	0.0166959
809.546	0.0164010
809.624	0.0164625
809.703	0.0164176
809.781	0.0163603
809.859	0.0164203
809.937	0.0163075
810.015	0.0162070
810.093	0.0161213
810.171	0.0163168
810.249	0.0161848
810.328	0.0161922
810.406	0.0161993
810.484	0.0163499
810.562	0.0163360
810.640	0.0164993
810.718	0.0165554
810.796	0.0164175
810.874	0.0165483
810.953	0.0166904
811.031	0.0166607
811.109	0.0166959
811.187	0.0166790
811.265	0.0166846
811.343	0.0165925
811.421	0.0166296
811.499	0.0165995
811.578	0.0166124
811.656	0.0166045
811.734	0.0165051
811.812	0.0166257
811.890	0.0166804
811.968	0.0165675
812.046	0.0164268
812.124	0.0164317
812.203	0.0164395
812.281	0.0164168
812.359	0.0165466
812.437	0.0166807
812.515	0.0164358
812.593	0.0164950
812.671	0.0164611
812.749	0.0162820
812.828	0.0164075
812.906	0.0163134
812.984	0.0162482
813.062	0.0160493
813.140	0.0159909
813.218	0.0160915
813.296	0.0159338
813.374	0.0158325
813.453	0.0159084
813.531	0.0157732
813.609	0.0160034
813.687	0.0157558
813.765	0.0158842
813.843	0.0160159
813.921	0.0159969
813.999	0.0160241
814.078	0.0161793
814.156	0.0162376
814.234	0.0163008
814.312	0.0164407
814.390	0.0165112
814.468	0.0166743
814.546	0.0167962
814.624	0.0168779
814.703	0.0169405
814.781	0.0171210
814.859	0.0169642
814.937	0.0169216
815.015	0.0169432
815.093	0.0169251
815.171	0.0167825
815.249	0.0168307
815.328	0.0167845
815.406	0.0165482
815.484	0.0165277
815.562	0.0164220
815.640	0.0162835
815.718	0.0161509
815.796	0.0160618
815.874	0.0160014
815.953	0.0159609
816.031	0.0159447
816.109	0.0158893
816.187	0.0158851
816.265	0.0156731
816.343	0.0158685
816.421	0.0159924
816.499	0.0158589
816.578	0.0159198
816.656	0.0161948
816.734	0.0161835
816.812	0.0162168
816.890	0.0162823
816.968	0.0164368
817.046	0.0164607
817.124	0.0165718
817.203	0.0166210
817.281	0.0166031
817.359	0.0166165
817.437	0.0166612
817.515	0.0168245
817.593	0.0168159
817.671	0.0168735
817.749	0.0167983
817.828	0.0168584
817.906	0.0169276
817.984	0.0168662
818.062	0.0168245
818.140	0.0167844
818.218	0.0167734
818.296	0.0166418
818.374	0.0165538
818.453	0.0166073
818.531	0.0165247
818.609	0.0162338
818.687	0.0162663
818.765	0.0160786
818.843	0.0160790
818.921	0.0160129
818.999	0.0159561
819.078	0.0159490
819.156	0.0159052
819.234	0.0158344
819.312	0.0158857
819.390	0.0158965
819.468	0.0159683
819.546	0.0160181
819.624	0.0160077
819.703	0.0160144
819.781	0.0160655
819.859	0.0162002
819.937	0.0163749
820.015	0.0163891
820.093	0.0165530
820.171	0.0165075
820.249	0.0165485
820.328	0.0164878
820.406	0.0167351
820.484	0.0167262
820.562	0.0167908
820.640	0.0167369
820.718	0.0166732
820.796	0.0168030
820.874	0.0165980
820.953	0.0166425
821.031	0.0166605
821.109	0.0166179
821.187	0.0164582
821.265	0.0165318
821.343	0.0164030
821.421	0.0164111
821.499	0.0165137
821.578	0.0164975
821.656	0.0163647
821.734	0.0163834
821.812	0.0162605
821.890	0.0163398
821.968	0.0162378
822.046	0.0162901
822.124	0.0163064
822.203	0.0163365
822.281	0.0162794
822.359	0.0163241
822.437	0.0163363
822.515	0.0163024
822.593	0.0162289
822.671	0.0162666
822.749	0.0162669
822.828	0.0162194
822.906	0.0164908
822.984	0.0164447
823.062	0.0163334
823.140	0.0163829
823.218	0.0162626
823.296	0.0163180
823.374	0.0163694
823.453	0.0163848
823.531	0.0163085
823.609	0.0164259
823.687	0.0165402
823.765	0.0164979
823.843	0.0166969
823.921	0.0166096
823.999	0.0164559
824.078	0.0165459
824.156	0.0164788
824.234	0.0163786
824.312	0.0163808
824.390	0.0163929
824.468	0.0163531
824.546	0.0161776
824.624	0.0161962
824.703	0.0161720
824.781	0.0162119
824.859	0.0160693
824.937	0.0162875
825.015	0.0162747
825.093	0.0163396
825.171	0.0162408
825.249	0.0164894
825.328	0.0163893
825.406	0.0164651
825.484	0.0166081
825.562	0.0166150
825.640	0.0167181
825.718	0.0165813
825.796	0.0166573
825.874	0.0167912
825.953	0.0166451
826.031	0.0166820
826.109	0.0166628
826.187	0.0167505
826.265	0.0166854
826.343	0.0165846
826.421	0.0165556
826.499	0.0165036
826.578	0.0165736
826.656	0.0164126
826.734	0.0162655
826.812	0.0163829
826.890	0.0162325
826.968	0.0160995
827.046	0.0162215
827.124	0.0162588
827.203	0.0161595
827.281	0.0160882
827.359	0.0160349
827.437	0.0162401
827.515	0.0161083
827.593	0.0160315
827.671	0.0160721
827.749	0.0162337
827.828	0.0161603
827.906	0.0163970
827.984	0.0164285
828.062	0.0163457
828.140	0.0165344
828.218	0.0166263
828.296	0.0167067
828.374	0.0166479
828.453	0.0169323
828.531	0.0169124
828.609	0.0168355
828.687	0.0169237
828.765	0.0167911
828.843	0.0169367
828.921	0.0168886
828.999	0.0169440
829.078	0.0168705
829.156	0.0167963
829.234	0.0166235
829.312	0.0167699
829.390	0.0166558
829.468	0.0165076
829.546	0.0164217
829.624	0.0163103
829.703	0.0162547
829.781	0.0161158
829.859	0.0161765
829.937	0.0162733
830.015	0.0162476
830.093	0.0161819
830.171	0.0160228
830.249	0.0162134
830.328	0.0163065
830.406	0.0160966
830.484	0.0161745
830.562	0.0162934
830.640	0.0165704
830.718	0.0164082
830.796	0.0164791
830.874	0.0164526
830.953	0.0164722
831.031	0.0165724
831.109	0.0165424
831.187	0.0164959
831.265	0.0166053
831.343	0.0164989
831.421	0.0164487
831.499	0.0164061
831.578	0.0163519
831.656	0.0165234
831.734	0.0165305
831.812	0.0164234
831.890	0.0166299
831.968	0.0165234
832.046	0.0165111
832.124	0.0165016
832.203	0.0165184
832.281	0.0165082
832.359	0.0164516
832.437	0.0164223
832.515	0.0163714
832.593	0.0164705
832.671	0.0163696
832.749	0.0163507
832.828	0.0163336
832.906	0.0164529
832.984	0.0162417
833.062	0.0161908
833.140	0.0164938
833.218	0.0164513
833.296	0.0162939
833.374	0.0164268
833.453	0.0164761
833.531	0.0165131
833.609	0.0164972
833.687	0.0163316
833.765	0.0164565
833.843	0.0165308
833.921	0.0165064
833.999	0.0166526
834.078	0.0166848
834.156	0.0165801
834.234	0.0166191
834.312	0.0167616
834.390	0.0167274
834.468	0.0166459
834.546	0.0165614
834.624	0.0165870
834.703	0.0166085
834.781	0.0166096
834.859	0.0165858
834.937	0.0165469
835.015	0.0163093
835.093	0.0164143
835.171	0.0163248
835.249	0.0162653
835.328	0.0162756
835.406	0.0163437
835.484	0.0162035
835.562	0.0160840
835.640	0.0161317
835.718	0.0162291
835.796	0.0160954
835.874	0.0161536
835.953	0.0162951
836.031	0.0162222
836.109	0.0163261
836.187	0.0163876
836.265	0.0163628
836.343	0.0164687
836.421	0.0164950
836.499	0.0165401
836.578	0.0164341
836.656	0.0164845
836.734	0.0167112
836.812	0.0166191
836.890	0.0166020
836.968	0.0164776
837.046	0.0165863
837.124	0.0165664
837.203	0.0166933
837.281	0.0164882
837.359	0.0163963
837.437	0.0165563
837.515	0.0165314
837.593	0.0166322
837.671	0.0165166
837.749	0.0163793
837.828	0.0164138
837.906	0.0165892
837.984	0.0163732
838.062	0.0165549
838.140	0.0163879
838.218	0.0164088
838.296	0.0163659
838.374	0.0163187
838.453	0.0164497
838.531	0.0164025
838.609	0.0163992
838.687	0.0164614
838.765	0.0163422
838.843	0.0163078
838.921	0.0164101
838.999	0.0164136
839.078	0.0163577
839.156	0.0163726
839.234	0.0163777
839.312	0.0164418
839.390	0.0165826
839.468	0.0163879
839.546	0.0164472
839.624	0.0163756
839.703	0.0163055
839.781	0.0164046
839.859	0.0165049
839.937	0.0165229
840.015	0.0163760
840.093	0.0162404
840.171	0.0162247
840.249	0.0163675
840.328	0.0162877
840.406	0.0161962
840.484	0.0161714
840.562	0.0163190
840.640	0.0163249
840.718	0.0162415
840.796	0.0163841
840.874	0.0162029
840.953	0.0164661
841.031	0.0164851
841.109	0.0165548
841.187	0.0165511
841.265	0.0165787
841.343	0.0166100
841.421	0.0166684
841.499	0.0166476
841.578	0.0165669
841.656	0.0166758
841.734	0.0166211
841.812	0.0166570
841.890	0.0164577
841.968	0.0165543
842.046	0.0163861
842.124	0.0162766
842.203	0.0163340
842.281	0.0160618
842.359	0.0158481
842.437	0.0159432
842.515	0.0158543
842.593	0.0157415
842.671	0.0158105
842.749	0.0159713
842.828	0.0158142
842.906	0.0158734
842.984	0.0160567
843.062	0.0160507
843.140	0.0160300
843.218	0.0162006
843.296	0.0164309
843.374	0.0165126
843.453	0.0165432
843.531	0.0164920
843.609	0.0167278
843.687	0.0167453
843.765	0.0169587
843.843	0.0170000
843.921	0.0170576
843.999	0.0170776
844.078	0.0172871
844.156	0.0172176
844.234	0.0171327
844.312	0.0171180
844.390	0.0171794
844.468	0.0170770
844.546	0.0169631
844.624	0.0167525
844.703	0.0167883
844.781	0.0165654
844.859	0.0163105
844.937	0.0161828
845.015	0.0159290
845.093	0.0157549
845.171	0.0158313
845.249	0.0157841
845.328	0.0157734
845.406	0.0156931
845.484	0.0155415
845.562	0.0156013
845.640	0.0156454
845.718	0.0157345
845.796	0.0158675
845.874	0.0159028
845.953	0.0160751
846.031	0.0163212
846.109	0.0163004
846.187	0.0163917
846.265	0.0165199
846.343	0.0166537
846.421	0.0167622
846.499	0.0168092
846.578	0.0168963
846.656	0.0169559
846.734	0.0169407
846.812	0.0169319
846.890	0.0169320
846.968	0.0170311
847.046	0.0170509
847.124	0.0169469
847.203	0.0169496
847.281	0.0168417
847.359	0.0166750
847.437	0.0165985
847.515	0.0165463
847.593	0.0162785
847.671	0.0161691
847.749	0.0162390
847.828	0.0160337
847.906	0.0159382
847.984	0.0160300
848.062	0.0158862
848.140	0.0156293
848.218	0.0157603
848.296	0.0159499
848.374	0.0160798
848.453	0.0161323
848.531	0.0162119
848.609	0.0163119
848.687	0.0165271
848.765	0.0167593
848.843	0.0166941
848.921	0.0169556
848.999	0.0171085
849.078	0.0172091
849.156	0.0171860
849.234	0.0173512
849.312	0.0172838
849.390	0.0172990
849.468	0.0173661
849.546	0.0172057
849.624	0.0170080
849.703	0.0169738
849.781	0.0167253
849.859	0.0167593
849.937	0.0164803
850.015	0.0162598
850.093	0.0162019
850.171	0.0160921
850.249	0.0160268
850.328	0.0158377
850.406	0.0158688
850.484	0.0157560
850.562	0.0155415
850.640	0.0156185
850.718	0.0156590
850.796	0.0156164
850.874	0.0157584
850.953	0.0156578
851.031	0.0158189
851.109	0.0158450
851.187	0.0158167
851.265	0.0162083
851.343	0.0162606
851.421	0.0162649
851.499	0.0164516
851.578	0.0165244
851.656	0.0169138
851.734	0.0168932
851.812	0.0170307
851.890	0.0169526
851.968	0.0171472
852.046	0.0170980
852.124	0.0171602
852.203	0.0171786
852.281	0.0171651
852.359	0.0171259
852.437	0.0170295
852.515	0.0168870
852.593	0.0167056
852.671	0.0165520
852.749	0.0163263
852.828	0.0162389
852.906	0.0160842
852.984	0.0159939
853.062	0.0158930
853.140	0.0157786
853.218	0.0156698
853.296	0.0156786
853.374	0.0156927
853.453	0.0156512
853.531	0.0157820
853.609	0.0156171
853.687	0.0158035
853.765	0.0160272
853.843	0.0160746
853.921	0.0161455
853.999	0.0162575
854.078	0.0162845
854.156	0.0163448
854.234	0.0165382
854.312	0.0165464
854.390	0.0167635
854.468	0.0169917
854.546	0.0168227
854.624	0.0169984
854.703	0.0170493
854.781	0.0169038
854.859	0.0169517
854.937	0.0169659
855.015	0.0168076
855.093	0.0169220
855.171	0.0167432
855.249	0.0165726
855.328	0.0167479
855.406	0.0165316
855.484	0.0165408
855.562	0.0164771
855.640	0.0162859
855.718	0.0162748
855.796	0.0163187
855.874	0.0161667
855.953	0.0160971
856.031	0.0161667
856.109	0.0163593
856.187	0.0163885
856.265	0.0162769
856.343	0.0163252
856.421	0.0162096
856.499	0.0161332
856.578	0.0163264
856.656	0.0163926
856.734	0.0163654
856.812	0.0163917
856.890	0.0164822
856.968	0.0163630
857.046	0.0164853
857.124	0.0163496
857.203	0.0164990
857.281	0.0164713
857.359	0.0163887
857.437	0.0166040
857.515	0.0164310
857.593	0.0164069
857.671	0.0163985
857.749	0.0163483
857.828	0.0164751
857.906	0.0164172
857.984	0.0164629
858.062	0.0163985
858.140	0.0164217
858.218	0.0163774
858.296	0.0161949
858.374	0.0164375
858.453	0.0163434
858.531	0.0163638
858.609	0.0163840
858.687	0.0163885
858.765	0.0166190
858.843	0.0164761
858.921	0.0163702
858.999	0.0164373
859.078	0.0165938
859.156	0.0166169
859.234	0.0166029
859.312	0.0166692
859.390	0.0165164
859.468	0.0164901
859.546	0.0167440
859.624	0.0167184
859.703	0.0165114
859.781	0.0164961
859.859	0.0165208
859.937	0.0164331
860.015	0.0164116
860.093	0.0163857
860.171	0.0164285
860.249	0.0163619
860.328	0.0164656
860.406	0.0163039
860.484	0.0164229
860.562	0.0163152
860.640	0.0162130
860.718	0.0164649
860.796	0.0162205
860.874	0.0163070
860.953	0.0162489
861.031	0.0162789
861.109	0.0163657
861.187	0.0163882
861.265	0.0163508
861.343	0.0164069
861.421	0.0163065
861.499	0.0163764
861.578	0.0163473
861.656	0.0162085
861.734	0.0162210
861.812	0.0162663
861.890	0.0163034
861.968	0.0162918
862.046	0.0164826
862.124	0.0164500
862.203	0.0164637
862.281	0.0166162
862.359	0.0165167
862.437	0.0165179
862.515	0.0165254
862.593	0.0165945
862.671	0.0166097
862.749	0.0168127
862.828	0.0166555
862.906	0.0165746
862.984	0.0165898
863.062	0.0165807
863.140	0.0164904
863.218	0.0164734
863.296	0.0162025
863.374	0.0162768
863.453	0.0163815
863.531	0.0162388
863.609	0.0162262
863.687	0.0162221
863.765	0.0161393
863.843	0.0161646
863.921	0.0162923
863.999	0.0163284
864.078	0.0161216
864.156	0.0160350
864.234	0.0161599
864.312	0.0162871
864.390	0.0161288
864.468	0.0162682
864.546	0.0163616
864.624	0.0164426
864.703	0.0165257
864.781	0.0164761
864.859	0.0166119
864.937	0.0167056
865.015	0.0166694
865.093	0.0166764
865.171	0.0169046
865.249	0.0168031
865.328	0.0168274
865.406	0.0168354
865.484	0.0166518
865.562	0.0166927
865.640	0.0166095
865.718	0.0164603
865.796	0.0165639
865.874	0.0165446
865.953	0.0165318
866.031	0.0163063
866.109	0.0161982
866.187	0.0163434
866.265	0.0162003
866.343	0.0162479
866.421	0.0161246
866.499	0.0160777
866.578	0.0161452
866.656	0.0161607
866.734	0.0161337
866.812	0.0161051
866.890	0.0159903
866.968	0.0162607
867.046	0.0162341
867.124	0.0160864
867.203	0.0162210
867.281	0.0163277
867.359	0.0163293
867.437	0.0162455
867.515	0.0164407
867.593	0.0165075
867.671	0.0164169
867.749	0.0164801
867.828	0.0166007
867.906	0.0165627
867.984	0.0164439
868.062	0.0165328
868.140	0.0166026
868.218	0.0166690
868.296	0.0165171
868.374	0.0164895
868.453	0.0164282
868.531	0.0164951
868.609	0.0163358
868.687	0.0163776
868.765	0.0163091
868.843	0.0162333
868.921	0.0160970
868.999	0.0161330
869.078	0.0162492
869.156	0.0160867
869.234	0.0161368
869.312	0.0160548
869.390	0.0160801
869.468	0.0160722
869.546	0.0161259
869.624	0.0161383
869.703	0.0163033
869.781	0.0162116
869.859	0.0163325
869.937	0.0162057
870.015	0.0164240
870.093	0.0163641
870.171	0.0165054
870.249	0.0166023
870.328	0.0165637
870.406	0.0165858
870.484	0.0165127
870.562	0.0166207
870.640	0.0164868
870.718	0.0165403
870.796	0.0166787
870.874	0.0165282
870.953	0.0166642
871.031	0.0164276
871.109	0.0164881
871.187	0.0165916
871.265	0.0164711
871.343	0.0165156
871.421	0.0165772
871.499	0.0164646
871.578	0.0165576
871.656	0.0165225
871.734	0.0163376
871.812	0.0164333
871.890	0.0164034
871.968	0.0165202
872.046	0.0164063
872.124	0.0165870
872.203	0.0165639
872.281	0.0163397
872.359	0.0164424
872.437	0.0163639
872.515	0.0164052
872.593	0.0164563
872.671	0.0163660
872.749	0.0163332
872.828	0.0161476
872.906	0.0161847
872.984	0.0161942
873.062	0.0161529
873.140	0.0160966
873.218	0.0161749
873.296	0.0161610
873.374	0.0160043
873.453	0.0160134
873.531	0.0162215
873.609	0.0160499
873.687	0.0161584
873.765	0.0161423
873.843	0.0162527
873.921	0.0162703
873.999	0.0163877
874.078	0.0163038
874.156	0.0162897
874.234	0.0164248
874.312	0.0163062
874.390	0.0162578
874.468	0.0162785
874.546	0.0165012
874.624	0.0166005
874.703	0.0163596
874.781	0.0164816
874.859	0.0162565
874.937	0.0163543
875.015	0.0164220
875.093	0.0163257
875.171	0.0165193
875.249	0.0164523
875.328	0.0163050
875.406	0.0163761
875.484	0.0163749
875.562	0.0163712
875.640	0.0164555
875.718	0.0164220
875.796	0.0164680
875.874	0.0165041
875.953	0.0162797
876.031	0.0164040
876.109	0.0164584
876.187	0.0163936
876.265	0.0164847
876.343	0.0163772
876.421	0.0165048
876.499	0.0164998
876.578	0.0165068
876.656	0.0166270
876.734	0.0166982
876.812	0.0165994
876.890	0.0166267
876.968	0.0166821
877.046	0.0166862
877.124	0.0167120
877.203	0.0166808
877.281	0.0166486
877.359	0.0165876
877.437	0.0164703
877.515	0.0164747
877.593	0.0165863
877.671	0.0165149
877.749	0.0164367
877.828	0.0164203
877.906	0.0162011
877.984	0.0162390
878.062	0.0162915
878.140	0.0161127
878.218	0.0162957
878.296	0.0162303
878.374	0.0160828
878.453	0.0162716
878.531	0.0163353
878.609	0.0162300
878.687	0.0162737
878.765	0.0163309
878.843	0.0162101
878.921	0.0162453
878.999	0.0163096
879.078	0.0162885
879.156	0.0163631
879.234	0.0163635
879.312	0.0162437
879.390	0.0162752
879.468	0.0162865
879.546	0.0164082
879.624	0.0162311
879.703	0.0163146
879.781	0.0163480
879.859	0.0162904
879.937	0.0163767
880.015	0.0164254
880.093	0.0163917
880.171	0.0163054
880.249	0.0164088
880.328	0.0163354
880.406	0.0163526
880.484	0.0164452
880.562	0.0163340
880.640	0.0162685
880.718	0.0163087
880.796	0.0164353
880.874	0.0164061
880.953	0.0164525
881.031	0.0165752
881.109	0.0163459
881.187	0.0164276
881.265	0.0165504
881.343	0.0164545
881.421	0.0165230
881.499	0.0163468
881.578	0.0164249
881.656	0.0164810
881.734	0.0165623
881.812	0.0165269
881.890	0.0165425
881.968	0.0164037
882.046	0.0166084
882.124	0.0165218
882.203	0.0165363
882.281	0.0165755
882.359	0.0164256
882.437	0.0165859
882.515	0.0165936
882.593	0.0165775
882.671	0.0167166
882.749	0.0166400
882.828	0.0165378
882.906	0.0165696
882.984	0.0164748
883.062	0.0165681
883.140	0.0164381
883.218	0.0163363
883.296	0.0163908
883.374	0.0164861
883.453	0.0163599
883.531	0.0163947
883.609	0.0163827
883.687	0.0163441
883.765	0.0162190
883.843	0.0161922
883.921	0.0163370
883.999	0.0162735
884.078	0.0163734
884.156	0.0163363
884.234	0.0162803
884.312	0.0162930
884.390	0.0162549
884.468	0.0161975
884.546	0.0164424
884.624	0.0164140
884.703	0.0164849
884.781	0.0164672
884.859	0.0165334
884.937	0.0164389
885.015	0.0166166
885.093	0.0164751
885.171	0.0165533
885.249	0.0164745
885.328	0.0165839
885.406	0.0165794
885.484	0.0164970
885.562	0.0163979
885.640	0.0163616
885.718	0.0164001
885.796	0.0163886
885.874	0.0163866
885.953	0.0163449
886.031	0.0163190
886.109	0.0161242
886.187	0.0160575
886.265	0.0162265
886.343	0.0162490
886.421	0.0160612
886.499	0.0161418
886.578	0.0160989
886.656	0.0161579
886.734	0.0161011
886.812	0.0161070
886.890	0.0161720
886.968	0.0162846
887.046	0.0162797
887.124	0.0162698
887.203	0.0162743
887.281	0.0163177
887.359	0.0165594
887.437	0.0163669
887.515	0.0165687
887.593	0.0166454
887.671	0.0165888
887.749	0.0166009
887.828	0.0165718
887.906	0.0166038
887.984	0.0166131
888.062	0.0165552
888.140	0.0165556
888.218	0.0166593
888.296	0.0166546
888.374	0.0166279
888.453	0.0165801
888.531	0.0164985
888.609	0.0165362
888.687	0.0164954
888.765	0.0164853
888.843	0.0164680
888.921	0.0163923
888.999	0.0163538
889.078	0.0163375
889.156	0.0163631
889.234	0.0163445
889.312	0.0162787
889.390	0.0163634
889.468	0.0162761
889.546	0.0163466
889.624	0.0162401
889.703	0.0162444
889.781	0.0163758
889.859	0.0162772
889.937	0.0164359
890.015	0.0164783
890.093	0.0165449
890.171	0.0164958
890.249	0.0165715
890.328	0.0164865
890.406	0.0165776
890.484	0.0165086
890.562	0.0166212
890.640	0.0166300
890.718	0.0165216
890.796	0.0165702
890.874	0.0165675
890.953	0.0165913
891.031	0.0165822
891.109	0.0164694
891.187	0.0163792
891.265	0.0164034
891.343	0.0164784
891.421	0.0164826
891.499	0.0162788
891.578	0.0163694
891.656	0.0163248
891.734	0.0162870
891.812	0.0162920
891.890	0.0163470
891.968	0.0164056
892.046	0.0163502
892.124	0.0163044
892.203	0.0162242
892.281	0.0162755
892.359	0.0162863
892.437	0.0163475
892.515	0.0163029
892.593	0.0163084
892.671	0.0163150
892.749	0.0163045
892.828	0.0162888
892.906	0.0161988
892.984	0.0163108
893.062	0.0163989
893.140	0.0163457
893.218	0.0162495
893.296	0.0162685
893.374	0.0162481
893.453	0.0163089
893.531	0.0162372
893.609	0.0163934
893.687	0.0164722
893.765	0.0163451
893.843	0.0163781
893.921	0.0163402
893.999	0.0162776
894.078	0.0162745
894.156	0.0162850
894.234	0.0163857
894.312	0.0164645
894.390	0.0163364
894.468	0.0164006
894.546	0.0163948
894.624	0.0163721
894.703	0.0165016
894.781	0.0164165
894.859	0.0163993
894.937	0.0166006
895.015	0.0166715
895.093	0.0163455
895.171	0.0163580
895.249	0.0163460
895.328	0.0164493
895.406	0.0164232
895.484	0.0163787
895.562	0.0165553
895.640	0.0163992
895.718	0.0163644
895.796	0.0163640
895.874	0.0163418
895.953	0.0162737
896.031	0.0162873
896.109	0.0164885
896.187	0.0163078
896.265	0.0163392
896.343	0.0164491
896.421	0.0163646
896.499	0.0162219
896.578	0.0164967
896.656	0.0165004
896.734	0.0163310
896.812	0.0163555
896.890	0.0162756
896.968	0.0163764
897.046	0.0164738
897.124	0.0164656
897.203	0.0166677
897.281	0.0165327
897.359	0.0166040
897.437	0.0167245
897.515	0.0166104
897.593	0.0166216
897.671	0.0165504
897.749	0.0166576
897.828	0.0166354
897.906	0.0165596
897.984	0.0164954
898.062	0.0164665
898.140	0.0163268
898.218	0.0163918
898.296	0.0164632
898.374	0.0165978
898.453	0.0162798
898.531	0.0162231
898.609	0.0163496
898.687	0.0162762
898.765	0.0162045
898.843	0.0162255
898.921	0.0161213
898.999	0.0162334
899.078	0.0162657
899.156	0.0161932
899.234	0.0161897
899.312	0.0162420
899.390	0.0161390
899.468	0.0163235
899.546	0.0163614
899.624	0.0163090
899.703	0.0163934
899.781	0.0164439
899.859	0.0163962
899.937	0.0163790
900.015	0.0166323
900.093	0.0164372
900.171	0.0164948
900.249	0.0164612
900.328	0.0165446
900.406	0.0166291
900.484	0.0165016
900.562	0.0163585
900.640	0.0165453
900.718	0.0164689
900.796	0.0164766
900.874	0.0164281
900.953	0.0164218
901.031	0.0162865
901.109	0.0165260
901.187	0.0164113
901.265	0.0163541
901.343	0.0164787
901.421	0.0163625
901.499	0.0163104
901.578	0.0163583
901.656	0.0163300
901.734	0.0163596
901.812	0.0162997
901.890	0.0164816
901.968	0.0165285
902.046	0.0164886
902.124	0.0163834
902.203	0.0163882
902.281	0.0163623
902.359	0.0164435
902.437	0.0164436
902.515	0.0164048
902.593	0.0164233
902.671	0.0162654
902.749	0.0163172
902.828	0.0163047
902.906	0.0162907
902.984	0.0163383
903.062	0.0163268
903.140	0.0161445
903.218	0.0162692
903.296	0.0162060
903.374	0.0163042
903.453	0.0161633
903.531	0.0161134
903.609	0.0161815
903.687	0.0162108
903.765	0.0163308
903.843	0.0162792
903.921	0.0162776
903.999	0.0162083
904.078	0.0163436
904.156	0.0162457
904.234	0.0164095
904.312	0.0164283
904.390	0.0163627
904.468	0.0163979
904.546	0.0163486
904.624	0.0164642
904.703	0.0165181
904.781	0.0164948
904.859	0.0166264
904.937	0.0166241
905.015	0.0165006
905.093	0.0164564
905.171	0.0164898
905.249	0.0165731
905.328	0.0166293
905.406	0.0165583
905.484	0.0164689
905.562	0.0164921
905.640	0.0164579
905.718	0.0163553
905.796	0.0164308
905.874	0.0164627
905.953	0.0164769
906.031	0.0162679
906.109	0.0164986
906.187	0.0163559
906.265	0.0161929
906.343	0.0162828
906.421	0.0162907
906.499	0.0162341
906.578	0.0163840
906.656	0.0164761
906.734	0.0163908
906.812	0.0164006
906.890	0.0164632
906.968	0.0163819
907.046	0.0164095
907.124	0.0165788
907.203	0.0164845
907.281	0.0165329
907.359	0.0164761
907.437	0.0164370
907.515	0.0166804
907.593	0.0166319
907.671	0.0166308
907.749	0.0165348
907.828	0.0164855
907.906	0.0166367
907.984	0.0167096
908.062	0.0164067
908.140	0.0164399
908.218	0.0164870
908.296	0.0166323
908.374	0.0165094
908.453	0.0166209
908.531	0.0165356
908.609	0.0165111
908.687	0.0165155
908.765	0.0164928
908.843	0.0164628
908.921	0.0163763
908.999	0.0164451
909.078	0.0163506
909.156	0.0162131
909.234	0.0164194
909.312	0.0162866
909.390	0.0162447
909.468	0.0163361
909.546	0.0162998
909.624	0.0163168
909.703	0.0162561
909.781	0.0163686
909.859	0.0161787
909.937	0.0162715
910.015	0.0161715
910.093	0.0162344
910.171	0.0162955
910.249	0.0162772
910.328	0.0163776
910.406	0.0163771
910.484	0.0165115
910.562	0.0164520
910.640	0.0164496
910.718	0.0164928
910.796	0.0164840
910.874	0.0165425
910.953	0.0166574
911.031	0.0167334
911.109	0.0166391
911.187	0.0166570
911.265	0.0166389
911.343	0.0168067
911.421	0.0167971
911.499	0.0167220
911.578	0.0167245
911.656	0.0166692
911.734	0.0166152
911.812	0.0166762
911.890	0.0164981
911.968	0.0164150
912.046	0.0163813
912.124	0.0163509
912.203	0.0163967
912.281	0.0161921
912.359	0.0160675
912.437	0.0163007
912.515	0.0162698
912.593	0.0162751
912.671	0.0162925
912.749	0.0162008
912.828	0.0162244
912.906	0.0162702
912.984	0.0162311
913.062	0.0164098
913.140	0.0164392
913.218	0.0164236
913.296	0.0165063
913.374	0.0163687
913.453	0.0165465
913.531	0.0165266
913.609	0.0163831
913.687	0.0162410
913.765	0.0165704
913.843	0.0163868
913.921	0.0164482
913.999	0.0163350
914.078	0.0164868
914.156	0.0165298
914.234	0.0163576
914.312	0.0163949
914.390	0.0163674
914.468	0.0163148
914.546	0.0163824
914.624	0.0164257
914.703	0.0165656
914.781	0.0163331
914.859	0.0163449
914.937	0.0164420
915.015	0.0163554
915.093	0.0163677
915.171	0.0164142
915.249	0.0165070
915.328	0.0164547
915.406	0.0165208
915.484	0.0166642
915.562	0.0166006
915.640	0.0165785
915.718	0.0165604
915.796	0.0165816
915.874	0.0165538
915.953	0.0164523
916.031	0.0164529
916.109	0.0164124
916.187	0.0163477
916.265	0.0164288
916.343	0.0164629
916.421	0.0162990
916.499	0.0163598
916.578	0.0163537
916.656	0.0163593
916.734	0.0165043
916.812	0.0163133
916.890	0.0163482
916.968	0.0162019
917.046	0.0162977
917.124	0.0164484
917.203	0.0162613
917.281	0.0163675
917.359	0.0162578
917.437	0.0163303
917.515	0.0164285
917.593	0.0164471
917.671	0.0164259
917.749	0.0164367
917.828	0.0163890
917.906	0.0165026
917.984	0.0165395
918.062	0.0166071
918.140	0.0165838
918.218	0.0165636
918.296	0.0166380
918.374	0.0166136
918.453	0.0165611
918.531	0.0166492
918.609	0.0165703
918.687	0.0165350
918.765	0.0165431
918.843	0.0166444
918.921	0.0164129
918.999	0.0164537
919.078	0.0163039
919.156	0.0163781
919.234	0.0162928
919.312	0.0164189
919.390	0.0163859
919.468	0.0162293
919.546	0.0162266
919.624	0.0163093
919.703	0.0162377
919.781	0.0161727
919.859	0.0162230
919.937	0.0162864
