06/10/2022	18:31:19	Ver.	4.1	UNKNOWN
Optical Delay	600.015094	Delta X		0.078125	Sweeps	1	Scan Rate	0/0
Coordinates	Axis 1	NaN	Axis 2	NaN	Axis 3	NaN	Axis 4	NaN	Axis 5	NaN	Axis 6	0.000000
TX Power	0.000000	RX Power	0.000000

600.015	0.0165608
600.093	0.0166092
600.171	0.0167183
600.249	0.0165956
600.328	0.0164060
600.406	0.0163899
600.484	0.0166006
600.562	0.0164907
600.640	0.0164484
600.718	0.0165264
600.796	0.0165527
600.874	0.0165827
600.953	0.0165266
601.031	0.0164861
601.109	0.0166332
601.187	0.0166479
601.265	0.0164852
601.343	0.0165347
601.421	0.0164803
601.499	0.0166261
601.578	0.0165823
601.656	0.0166318
601.734	0.0164764
601.812	0.0166224
601.890	0.0164705
601.968	0.0164781
602.046	0.0165913
602.124	0.0167148
602.203	0.0166329
602.281	0.0164832
602.359	0.0166180
602.437	0.0163766
602.515	0.0165639
602.593	0.0165789
602.671	0.0166161
602.749	0.0166320
602.828	0.0165844
602.906	0.0165896
602.984	0.0165582
603.062	0.0164378
603.140	0.0165195
603.218	0.0165820
603.296	0.0165762
603.374	0.0166035
603.453	0.0165481
603.531	0.0164088
603.609	0.0164312
603.687	0.0164710
603.765	0.0165472
603.843	0.0166022
603.921	0.0166048
603.999	0.0165264
604.078	0.0165170
604.156	0.0165255
604.234	0.0166648
604.312	0.0165338
604.390	0.0165063
604.468	0.0165832
604.546	0.0165444
604.624	0.0165715
604.703	0.0165587
604.781	0.0165974
604.859	0.0165835
604.937	0.0164285
605.015	0.0165121
605.093	0.0165627
605.171	0.0165363
605.249	0.0165700
605.328	0.0166548
605.406	0.0165425
605.484	0.0165684
605.562	0.0164902
605.640	0.0165159
605.718	0.0166303
605.796	0.0166105
605.874	0.0165352
605.953	0.0164804
606.031	0.0164923
606.109	0.0165329
606.187	0.0166507
606.265	0.0165320
606.343	0.0164067
606.421	0.0165366
606.499	0.0166206
606.578	0.0165176
606.656	0.0165015
606.734	0.0165476
606.812	0.0165409
606.890	0.0165976
606.968	0.0164957
607.046	0.0166192
607.124	0.0163789
607.203	0.0165829
607.281	0.0166211
607.359	0.0165619
607.437	0.0166455
607.515	0.0165698
607.593	0.0164895
607.671	0.0164665
607.749	0.0164864
607.828	0.0164019
607.906	0.0166518
607.984	0.0165921
608.062	0.0164724
608.140	0.0164811
608.218	0.0165505
608.296	0.0166590
608.374	0.0166866
608.453	0.0167240
608.531	0.0164864
608.609	0.0166920
608.687	0.0164138
608.765	0.0165659
608.843	0.0165150
608.921	0.0165722
608.999	0.0166072
609.078	0.0165720
609.156	0.0165882
609.234	0.0165891
609.312	0.0165854
609.390	0.0165921
609.468	0.0166473
609.546	0.0165589
609.624	0.0166145
609.703	0.0165692
609.781	0.0165270
609.859	0.0165791
609.937	0.0165643
610.015	0.0165768
610.093	0.0164319
610.171	0.0167194
610.249	0.0166010
610.328	0.0164796
610.406	0.0166207
610.484	0.0165353
610.562	0.0166219
610.640	0.0164667
610.718	0.0165081
610.796	0.0164939
610.874	0.0166145
610.953	0.0165147
611.031	0.0164577
611.109	0.0165073
611.187	0.0166511
611.265	0.0165859
611.343	0.0164054
611.421	0.0164564
611.499	0.0165039
611.578	0.0165272
611.656	0.0164753
611.734	0.0164056
611.812	0.0164760
611.890	0.0164841
611.968	0.0163796
612.046	0.0164150
612.124	0.0165160
612.203	0.0164568
612.281	0.0164207
612.359	0.0164232
612.437	0.0165635
612.515	0.0165347
612.593	0.0164541
612.671	0.0165182
612.749	0.0163959
612.828	0.0164722
612.906	0.0165260
612.984	0.0165282
613.062	0.0165475
613.140	0.0165936
613.218	0.0164928
613.296	0.0166003
613.374	0.0164518
613.453	0.0165063
613.531	0.0166231
613.609	0.0166037
613.687	0.0165605
613.765	0.0166380
613.843	0.0166917
613.921	0.0164584
613.999	0.0164136
614.078	0.0164537
614.156	0.0166132
614.234	0.0165432
614.312	0.0164174
614.390	0.0166321
614.468	0.0165015
614.546	0.0164550
614.624	0.0165779
614.703	0.0165222
614.781	0.0165726
614.859	0.0164977
614.937	0.0165476
615.015	0.0165399
615.093	0.0166162
615.171	0.0166387
615.249	0.0165022
615.328	0.0166049
615.406	0.0165368
615.484	0.0165437
615.562	0.0165252
615.640	0.0164916
615.718	0.0166358
615.796	0.0164808
615.874	0.0163597
615.953	0.0164779
616.031	0.0166024
616.109	0.0165752
616.187	0.0165660
616.265	0.0164169
616.343	0.0165005
616.421	0.0164156
616.499	0.0166125
616.578	0.0165444
616.656	0.0165064
616.734	0.0165798
616.812	0.0163597
616.890	0.0166380
616.968	0.0163944
617.046	0.0164391
617.124	0.0165814
617.203	0.0165186
617.281	0.0164061
617.359	0.0165610
617.437	0.0165957
617.515	0.0166423
617.593	0.0165431
617.671	0.0165110
617.749	0.0165733
617.828	0.0166031
617.906	0.0165191
617.984	0.0166234
618.062	0.0164536
618.140	0.0164580
618.218	0.0165367
618.296	0.0166655
618.374	0.0164720
618.453	0.0165324
618.531	0.0165495
618.609	0.0166747
618.687	0.0165707
618.765	0.0163760
618.843	0.0163772
618.921	0.0165612
618.999	0.0165339
619.078	0.0166102
619.156	0.0166566
619.234	0.0165173
619.312	0.0165572
619.390	0.0165973
619.468	0.0166055
619.546	0.0164365
619.624	0.0166446
619.703	0.0165638
619.781	0.0166530
619.859	0.0165681
619.937	0.0166316
620.015	0.0164240
620.093	0.0165097
620.171	0.0164482
620.249	0.0165215
620.328	0.0165784
620.406	0.0165456
620.484	0.0166476
620.562	0.0164993
620.640	0.0164503
620.718	0.0165060
620.796	0.0164600
620.874	0.0165736
620.953	0.0165110
621.031	0.0165382
621.109	0.0165633
621.187	0.0165955
621.265	0.0166138
621.343	0.0165714
621.421	0.0165400
621.499	0.0166767
621.578	0.0165434
621.656	0.0166686
621.734	0.0166090
621.812	0.0165390
621.890	0.0166096
621.968	0.0166353
622.046	0.0166085
622.124	0.0165948
622.203	0.0165832
622.281	0.0166230
622.359	0.0166955
622.437	0.0166948
622.515	0.0165182
622.593	0.0165224
622.671	0.0165804
622.749	0.0166197
622.828	0.0165939
622.906	0.0165331
622.984	0.0165612
623.062	0.0166071
623.140	0.0166125
623.218	0.0165932
623.296	0.0166643
623.374	0.0164310
623.453	0.0165863
623.531	0.0165784
623.609	0.0165883
623.687	0.0164751
623.765	0.0165107
623.843	0.0167050
623.921	0.0165879
623.999	0.0164706
624.078	0.0164417
624.156	0.0165871
624.234	0.0165076
624.312	0.0166335
624.390	0.0164399
624.468	0.0165562
624.546	0.0165274
624.624	0.0166634
624.703	0.0164890
624.781	0.0163921
624.859	0.0164803
624.937	0.0164627
625.015	0.0165235
625.093	0.0165918
625.171	0.0166346
625.249	0.0165627
625.328	0.0165523
625.406	0.0165417
625.484	0.0166528
625.562	0.0166339
625.640	0.0165048
625.718	0.0165458
625.796	0.0166072
625.874	0.0165110
625.953	0.0163722
626.031	0.0165479
626.109	0.0165784
626.187	0.0166875
626.265	0.0165135
626.343	0.0165166
626.421	0.0165533
626.499	0.0165278
626.578	0.0165545
626.656	0.0165731
626.734	0.0165955
626.812	0.0165812
626.890	0.0164742
626.968	0.0165663
627.046	0.0165163
627.124	0.0164778
627.203	0.0166422
627.281	0.0165472
627.359	0.0166173
627.437	0.0166544
627.515	0.0165679
627.593	0.0166522
627.671	0.0166001
627.749	0.0164417
627.828	0.0165101
627.906	0.0165965
627.984	0.0165788
628.062	0.0164674
628.140	0.0164799
628.218	0.0165989
628.296	0.0164446
628.374	0.0164332
628.453	0.0165091
628.531	0.0166090
628.609	0.0164967
628.687	0.0166547
628.765	0.0166134
628.843	0.0163675
628.921	0.0164357
628.999	0.0166180
629.078	0.0164709
629.156	0.0165062
629.234	0.0164864
629.312	0.0166249
629.390	0.0165958
629.468	0.0165727
629.546	0.0164942
629.624	0.0165972
629.703	0.0166012
629.781	0.0166002
629.859	0.0165516
629.937	0.0164177
630.015	0.0165405
630.093	0.0164474
630.171	0.0166426
630.249	0.0163456
630.328	0.0164903
630.406	0.0165691
630.484	0.0166293
630.562	0.0165262
630.640	0.0165546
630.718	0.0165757
630.796	0.0164083
630.874	0.0165102
630.953	0.0166152
631.031	0.0166880
631.109	0.0165641
631.187	0.0166221
631.265	0.0164011
631.343	0.0166380
631.421	0.0166104
631.499	0.0164413
631.578	0.0165418
631.656	0.0164117
631.734	0.0165190
631.812	0.0166185
631.890	0.0164853
631.968	0.0166060
632.046	0.0166795
632.124	0.0164969
632.203	0.0166212
632.281	0.0165462
632.359	0.0164029
632.437	0.0165275
632.515	0.0164790
632.593	0.0165931
632.671	0.0165725
632.749	0.0165054
632.828	0.0166414
632.906	0.0167084
632.984	0.0165833
633.062	0.0165127
633.140	0.0166174
633.218	0.0165271
633.296	0.0164163
633.374	0.0164478
633.453	0.0166339
633.531	0.0166516
633.609	0.0165220
633.687	0.0164903
633.765	0.0165550
633.843	0.0165816
633.921	0.0165159
633.999	0.0165974
634.078	0.0166155
634.156	0.0165382
634.234	0.0165424
634.312	0.0164708
634.390	0.0165559
634.468	0.0166680
634.546	0.0165884
634.624	0.0165625
634.703	0.0165176
634.781	0.0165995
634.859	0.0165875
634.937	0.0164721
635.015	0.0165407
635.093	0.0165688
635.171	0.0164882
635.249	0.0165626
635.328	0.0165334
635.406	0.0164849
635.484	0.0165097
635.562	0.0167477
635.640	0.0166050
635.718	0.0165330
635.796	0.0165033
635.874	0.0165192
635.953	0.0165028
636.031	0.0165481
636.109	0.0165154
636.187	0.0166264
636.265	0.0165698
636.343	0.0164959
636.421	0.0164796
636.499	0.0166364
636.578	0.0166402
636.656	0.0165430
636.734	0.0164680
636.812	0.0165858
636.890	0.0165486
636.968	0.0166372
637.046	0.0165506
637.124	0.0164066
637.203	0.0165260
637.281	0.0165768
637.359	0.0164455
637.437	0.0166788
637.515	0.0164596
637.593	0.0166102
637.671	0.0165733
637.749	0.0164266
637.828	0.0167324
637.906	0.0166118
637.984	0.0164540
638.062	0.0166453
638.140	0.0165646
638.218	0.0166057
638.296	0.0165388
638.374	0.0164878
638.453	0.0164964
638.531	0.0165804
638.609	0.0166252
638.687	0.0165767
638.765	0.0166477
638.843	0.0164773
638.921	0.0166008
638.999	0.0165360
639.078	0.0165835
639.156	0.0165201
639.234	0.0164805
639.312	0.0165758
639.390	0.0166013
639.468	0.0165435
639.546	0.0166621
639.624	0.0164722
639.703	0.0164301
639.781	0.0164860
639.859	0.0163734
639.937	0.0164314
640.015	0.0165306
640.093	0.0166393
640.171	0.0165728
640.249	0.0164232
640.328	0.0165746
640.406	0.0165870
640.484	0.0164484
640.562	0.0165247
640.640	0.0164342
640.718	0.0163837
640.796	0.0163978
640.874	0.0166324
640.953	0.0166132
641.031	0.0166282
641.109	0.0165483
641.187	0.0164350
641.265	0.0166279
641.343	0.0164235
641.421	0.0165566
641.499	0.0166094
641.578	0.0165601
641.656	0.0165530
641.734	0.0166267
641.812	0.0166536
641.890	0.0165556
641.968	0.0165587
642.046	0.0166141
642.124	0.0165987
642.203	0.0165691
642.281	0.0164258
642.359	0.0165261
642.437	0.0166448
642.515	0.0165712
642.593	0.0164760
642.671	0.0166520
642.749	0.0165475
642.828	0.0165651
642.906	0.0166353
642.984	0.0165220
643.062	0.0166533
643.140	0.0165791
643.218	0.0166682
643.296	0.0165868
643.374	0.0164732
643.453	0.0164975
643.531	0.0164805
643.609	0.0164911
643.687	0.0164691
643.765	0.0164039
643.843	0.0165219
643.921	0.0164883
643.999	0.0165888
644.078	0.0164888
644.156	0.0165347
644.234	0.0164450
644.312	0.0166285
644.390	0.0165816
644.468	0.0164906
644.546	0.0165382
644.624	0.0166380
644.703	0.0166058
644.781	0.0165167
644.859	0.0165230
644.937	0.0166232
645.015	0.0164752
645.093	0.0165600
645.171	0.0165879
645.249	0.0165842
645.328	0.0164975
645.406	0.0164309
645.484	0.0165807
645.562	0.0165393
645.640	0.0165274
645.718	0.0164637
645.796	0.0166055
645.874	0.0165461
645.953	0.0165553
646.031	0.0165149
646.109	0.0166235
646.187	0.0164465
646.265	0.0166624
646.343	0.0165836
646.421	0.0165367
646.499	0.0165300
646.578	0.0164398
646.656	0.0165018
646.734	0.0165620
646.812	0.0166136
646.890	0.0166761
646.968	0.0165896
647.046	0.0164976
647.124	0.0164736
647.203	0.0164345
647.281	0.0164941
647.359	0.0165317
647.437	0.0165285
647.515	0.0165905
647.593	0.0165388
647.671	0.0165504
647.749	0.0165862
647.828	0.0165551
647.906	0.0166399
647.984	0.0165523
648.062	0.0165654
648.140	0.0165308
648.218	0.0166674
648.296	0.0166254
648.374	0.0164807
648.453	0.0164793
648.531	0.0165392
648.609	0.0167249
648.687	0.0165646
648.765	0.0165395
648.843	0.0164153
648.921	0.0164742
648.999	0.0165893
649.078	0.0166843
649.156	0.0165631
649.234	0.0165291
649.312	0.0164877
649.390	0.0166985
649.468	0.0165482
649.546	0.0164661
649.624	0.0166087
649.703	0.0166796
649.781	0.0167050
649.859	0.0165910
649.937	0.0165215
650.015	0.0165908
650.093	0.0165323
650.171	0.0164352
650.249	0.0166219
650.328	0.0165611
650.406	0.0165057
650.484	0.0165914
650.562	0.0164899
650.640	0.0164928
650.718	0.0165681
650.796	0.0166336
650.874	0.0164486
650.953	0.0165587
651.031	0.0166174
651.109	0.0167069
651.187	0.0163741
651.265	0.0164415
651.343	0.0165019
651.421	0.0166701
651.499	0.0165079
651.578	0.0165466
651.656	0.0164798
651.734	0.0165821
651.812	0.0164473
651.890	0.0165702
651.968	0.0166373
652.046	0.0166335
652.124	0.0164764
652.203	0.0165498
652.281	0.0164864
652.359	0.0165970
652.437	0.0165323
652.515	0.0165764
652.593	0.0166570
652.671	0.0164835
652.749	0.0165131
652.828	0.0166483
652.906	0.0165633
652.984	0.0165451
653.062	0.0165429
653.140	0.0163982
653.218	0.0164741
653.296	0.0164775
653.374	0.0166530
653.453	0.0164929
653.531	0.0165484
653.609	0.0164561
653.687	0.0164782
653.765	0.0164979
653.843	0.0166119
653.921	0.0166138
653.999	0.0166249
654.078	0.0166088
654.156	0.0165054
654.234	0.0165739
654.312	0.0165874
654.390	0.0166891
654.468	0.0166109
654.546	0.0164833
654.624	0.0166868
654.703	0.0166227
654.781	0.0165449
654.859	0.0165576
654.937	0.0166003
655.015	0.0166277
655.093	0.0166856
655.171	0.0165842
655.249	0.0165340
655.328	0.0165042
655.406	0.0164914
655.484	0.0166636
655.562	0.0165499
655.640	0.0166594
655.718	0.0165964
655.796	0.0164871
655.874	0.0165900
655.953	0.0165347
656.031	0.0164861
656.109	0.0164240
656.187	0.0163724
656.265	0.0165134
656.343	0.0164932
656.421	0.0165141
656.499	0.0165458
656.578	0.0164803
656.656	0.0165799
656.734	0.0166071
656.812	0.0165299
656.890	0.0164700
656.968	0.0165987
657.046	0.0165440
657.124	0.0164859
657.203	0.0165409
657.281	0.0166481
657.359	0.0165508
657.437	0.0164441
657.515	0.0166348
657.593	0.0164076
657.671	0.0165386
657.749	0.0165443
657.828	0.0165331
657.906	0.0165557
657.984	0.0165661
658.062	0.0165311
658.140	0.0165358
658.218	0.0165521
658.296	0.0164333
658.374	0.0164390
658.453	0.0164100
658.531	0.0165112
658.609	0.0164825
658.687	0.0164412
658.765	0.0165524
658.843	0.0164799
658.921	0.0165964
658.999	0.0165627
659.078	0.0165487
659.156	0.0165186
659.234	0.0164928
659.312	0.0166009
659.390	0.0165805
659.468	0.0165683
659.546	0.0164593
659.624	0.0163638
659.703	0.0165103
659.781	0.0165089
659.859	0.0165650
659.937	0.0166068
660.015	0.0166354
660.093	0.0165852
660.171	0.0166428
660.249	0.0165376
660.328	0.0165834
660.406	0.0165684
660.484	0.0165198
660.562	0.0165801
660.640	0.0165458
660.718	0.0164814
660.796	0.0165761
660.874	0.0166844
660.953	0.0165449
661.031	0.0165390
661.109	0.0165301
661.187	0.0166290
661.265	0.0166252
661.343	0.0165948
661.421	0.0164980
661.499	0.0165922
661.578	0.0165346
661.656	0.0165775
661.734	0.0165502
661.812	0.0165753
661.890	0.0164162
661.968	0.0166387
662.046	0.0166042
662.124	0.0165131
662.203	0.0164489
662.281	0.0164359
662.359	0.0165553
662.437	0.0165271
662.515	0.0165108
662.593	0.0165607
662.671	0.0165546
662.749	0.0165534
662.828	0.0165237
662.906	0.0164777
662.984	0.0166354
663.062	0.0166489
663.140	0.0164520
663.218	0.0165345
663.296	0.0166011
663.374	0.0166370
663.453	0.0164352
663.531	0.0164543
663.609	0.0165166
663.687	0.0163927
663.765	0.0165656
663.843	0.0165514
663.921	0.0164641
663.999	0.0166453
664.078	0.0167051
664.156	0.0165891
664.234	0.0165120
664.312	0.0165574
664.390	0.0165856
664.468	0.0165020
664.546	0.0165659
664.624	0.0165562
664.703	0.0166142
664.781	0.0164812
664.859	0.0164500
664.937	0.0166484
665.015	0.0163611
665.093	0.0165504
665.171	0.0166406
665.249	0.0165931
665.328	0.0165176
665.406	0.0165743
665.484	0.0165812
665.562	0.0164864
665.640	0.0166076
665.718	0.0166274
665.796	0.0165278
665.874	0.0165131
665.953	0.0166144
666.031	0.0165599
666.109	0.0163914
666.187	0.0165060
666.265	0.0165202
666.343	0.0164600
666.421	0.0164986
666.499	0.0166704
666.578	0.0164468
666.656	0.0165633
666.734	0.0166894
666.812	0.0164272
666.890	0.0165113
666.968	0.0164637
667.046	0.0165364
667.124	0.0166052
667.203	0.0164550
667.281	0.0165235
667.359	0.0165888
667.437	0.0166874
667.515	0.0163229
667.593	0.0164397
667.671	0.0165089
667.749	0.0164848
667.828	0.0165569
667.906	0.0165165
667.984	0.0165443
668.062	0.0163926
668.140	0.0165199
668.218	0.0164469
668.296	0.0163570
668.374	0.0165926
668.453	0.0165122
668.531	0.0163972
668.609	0.0163726
668.687	0.0164484
668.765	0.0165912
668.843	0.0164467
668.921	0.0165801
668.999	0.0165160
669.078	0.0165646
669.156	0.0165610
669.234	0.0165581
669.312	0.0165112
669.390	0.0166022
669.468	0.0165915
669.546	0.0165048
669.624	0.0165232
669.703	0.0166294
669.781	0.0166322
669.859	0.0165333
669.937	0.0164261
670.015	0.0165803
670.093	0.0164991
670.171	0.0165010
670.249	0.0164173
670.328	0.0165304
670.406	0.0165498
670.484	0.0165265
670.562	0.0164705
670.640	0.0164176
670.718	0.0164012
670.796	0.0165289
670.874	0.0163580
670.953	0.0164703
671.031	0.0164169
671.109	0.0164812
671.187	0.0164352
671.265	0.0163967
671.343	0.0165317
671.421	0.0165482
671.499	0.0164431
671.578	0.0163776
671.656	0.0165944
671.734	0.0165723
671.812	0.0165058
671.890	0.0165226
671.968	0.0165678
672.046	0.0166126
672.124	0.0167133
672.203	0.0164985
672.281	0.0165765
672.359	0.0166422
672.437	0.0165746
672.515	0.0166823
672.593	0.0166728
672.671	0.0166501
672.749	0.0165432
672.828	0.0165501
672.906	0.0164692
672.984	0.0164822
673.062	0.0166009
673.140	0.0165223
673.218	0.0164734
673.296	0.0164030
673.374	0.0165722
673.453	0.0165412
673.531	0.0165484
673.609	0.0165855
673.687	0.0165826
673.765	0.0164896
673.843	0.0164097
673.921	0.0165013
673.999	0.0165103
674.078	0.0164359
674.156	0.0164429
674.234	0.0164394
674.312	0.0165961
674.390	0.0164631
674.468	0.0163731
674.546	0.0164770
674.624	0.0166865
674.703	0.0165382
674.781	0.0165346
674.859	0.0164864
674.937	0.0165081
675.015	0.0165401
675.093	0.0165450
675.171	0.0164985
675.249	0.0163594
675.328	0.0164066
675.406	0.0165113
675.484	0.0166360
675.562	0.0165636
675.640	0.0165320
675.718	0.0163576
675.796	0.0164951
675.874	0.0165713
675.953	0.0165481
676.031	0.0164671
676.109	0.0166492
676.187	0.0166586
676.265	0.0165039
676.343	0.0166123
676.421	0.0164220
676.499	0.0166119
676.578	0.0164579
676.656	0.0164088
676.734	0.0164867
676.812	0.0165569
676.890	0.0166369
676.968	0.0164435
677.046	0.0164396
677.124	0.0165386
677.203	0.0165233
677.281	0.0165025
677.359	0.0164985
677.437	0.0165662
677.515	0.0165018
677.593	0.0164786
677.671	0.0165555
677.749	0.0165482
677.828	0.0166689
677.906	0.0165907
677.984	0.0165704
678.062	0.0166154
678.140	0.0164212
678.218	0.0166541
678.296	0.0166768
678.374	0.0165486
678.453	0.0164854
678.531	0.0165239
678.609	0.0164666
678.687	0.0164544
678.765	0.0165027
678.843	0.0166772
678.921	0.0164773
678.999	0.0164965
679.078	0.0166117
679.156	0.0165427
679.234	0.0164577
679.312	0.0165572
679.390	0.0163959
679.468	0.0165330
679.546	0.0165248
679.624	0.0162357
679.703	0.0164624
679.781	0.0164111
679.859	0.0165456
679.937	0.0165250
680.015	0.0164954
680.093	0.0165246
680.171	0.0165314
680.249	0.0164877
680.328	0.0164515
680.406	0.0165509
680.484	0.0165299
680.562	0.0164712
680.640	0.0165105
680.718	0.0165156
680.796	0.0164786
680.874	0.0165086
680.953	0.0166716
681.031	0.0165913
681.109	0.0165749
681.187	0.0166082
681.265	0.0165237
681.343	0.0166166
681.421	0.0164972
681.499	0.0164610
681.578	0.0165668
681.656	0.0164691
681.734	0.0165527
681.812	0.0164803
681.890	0.0165939
681.968	0.0165759
682.046	0.0166115
682.124	0.0165730
682.203	0.0164502
682.281	0.0164554
682.359	0.0166582
682.437	0.0164329
682.515	0.0164231
682.593	0.0164365
682.671	0.0163939
682.749	0.0165134
682.828	0.0165905
682.906	0.0165054
682.984	0.0164785
683.062	0.0164177
683.140	0.0164886
683.218	0.0165472
683.296	0.0164575
683.374	0.0165279
683.453	0.0165086
683.531	0.0163916
683.609	0.0166370
683.687	0.0165708
683.765	0.0165976
683.843	0.0165122
683.921	0.0163023
683.999	0.0166042
684.078	0.0165147
684.156	0.0166258
684.234	0.0165464
684.312	0.0164644
684.390	0.0165989
684.468	0.0165050
684.546	0.0164845
684.624	0.0166192
684.703	0.0166177
684.781	0.0165242
684.859	0.0165322
684.937	0.0163281
685.015	0.0165581
685.093	0.0166100
685.171	0.0165792
685.249	0.0164827
685.328	0.0164550
685.406	0.0165633
685.484	0.0165496
685.562	0.0165359
685.640	0.0164304
685.718	0.0166565
685.796	0.0166238
685.874	0.0165498
685.953	0.0164689
686.031	0.0164101
686.109	0.0165657
686.187	0.0165077
686.265	0.0164162
686.343	0.0165667
686.421	0.0165080
686.499	0.0165012
686.578	0.0166682
686.656	0.0164606
686.734	0.0164848
686.812	0.0166038
686.890	0.0164161
686.968	0.0163545
687.046	0.0165297
687.124	0.0165907
687.203	0.0165836
687.281	0.0165077
687.359	0.0164980
687.437	0.0165491
687.515	0.0165723
687.593	0.0165469
687.671	0.0164921
687.749	0.0165463
687.828	0.0165710
687.906	0.0165041
687.984	0.0165627
688.062	0.0166174
688.140	0.0165736
688.218	0.0166086
688.296	0.0164253
688.374	0.0164042
688.453	0.0166064
688.531	0.0165605
688.609	0.0165490
688.687	0.0165687
688.765	0.0164898
688.843	0.0164785
688.921	0.0164049
688.999	0.0163788
689.078	0.0166687
689.156	0.0165414
689.234	0.0165113
689.312	0.0164695
689.390	0.0164087
689.468	0.0164726
689.546	0.0165411
689.624	0.0165347
689.703	0.0166251
689.781	0.0164203
689.859	0.0165382
689.937	0.0165779
690.015	0.0165218
690.093	0.0165717
690.171	0.0165398
690.249	0.0166565
690.328	0.0164498
690.406	0.0165037
690.484	0.0165334
690.562	0.0165681
690.640	0.0165536
690.718	0.0164961
690.796	0.0165356
690.874	0.0165224
690.953	0.0165756
691.031	0.0165823
691.109	0.0165826
691.187	0.0165021
691.265	0.0163867
691.343	0.0167273
691.421	0.0166488
691.499	0.0166163
691.578	0.0164512
691.656	0.0165714
691.734	0.0166119
691.812	0.0166274
691.890	0.0164807
691.968	0.0165668
692.046	0.0164710
692.124	0.0166938
692.203	0.0164638
692.281	0.0164497
692.359	0.0165951
692.437	0.0165781
692.515	0.0165211
692.593	0.0165391
692.671	0.0164986
692.749	0.0164730
692.828	0.0164399
692.906	0.0164079
692.984	0.0165062
693.062	0.0164611
693.140	0.0165839
693.218	0.0165759
693.296	0.0165728
693.374	0.0165423
693.453	0.0165580
693.531	0.0165709
693.609	0.0164824
693.687	0.0165569
693.765	0.0164620
693.843	0.0164980
693.921	0.0164788
693.999	0.0166000
694.078	0.0164156
694.156	0.0164585
694.234	0.0166422
694.312	0.0165500
694.390	0.0165807
694.468	0.0165634
694.546	0.0164090
694.624	0.0166098
694.703	0.0165908
694.781	0.0165285
694.859	0.0165147
694.937	0.0165501
695.015	0.0165016
695.093	0.0166330
695.171	0.0165767
695.249	0.0165092
695.328	0.0165843
695.406	0.0165984
695.484	0.0165457
695.562	0.0165565
695.640	0.0165511
695.718	0.0164989
695.796	0.0166054
695.874	0.0165150
695.953	0.0163360
696.031	0.0164912
696.109	0.0164901
696.187	0.0166205
696.265	0.0164526
696.343	0.0164827
696.421	0.0164947
696.499	0.0165757
696.578	0.0165596
696.656	0.0165424
696.734	0.0166224
696.812	0.0164871
696.890	0.0166547
696.968	0.0166234
697.046	0.0163928
697.124	0.0164055
697.203	0.0165937
697.281	0.0165705
697.359	0.0165457
697.437	0.0165323
697.515	0.0166726
697.593	0.0164941
697.671	0.0164777
697.749	0.0166441
697.828	0.0165587
697.906	0.0164768
697.984	0.0165545
698.062	0.0165584
698.140	0.0165860
698.218	0.0165677
698.296	0.0165548
698.374	0.0166288
698.453	0.0165130
698.531	0.0166130
698.609	0.0164977
698.687	0.0165313
698.765	0.0164280
698.843	0.0166079
698.921	0.0166145
698.999	0.0164254
699.078	0.0164867
699.156	0.0166347
699.234	0.0166967
699.312	0.0166264
699.390	0.0163746
699.468	0.0164200
699.546	0.0164971
699.624	0.0166225
699.703	0.0166351
699.781	0.0165385
699.859	0.0165156
699.937	0.0164664
700.015	0.0165141
700.093	0.0165553
700.171	0.0166024
700.249	0.0165769
700.328	0.0165209
700.406	0.0166020
700.484	0.0165909
700.562	0.0164467
700.640	0.0165694
700.718	0.0165421
700.796	0.0165811
700.874	0.0165028
700.953	0.0165397
701.031	0.0165054
701.109	0.0165367
701.187	0.0165472
701.265	0.0165878
701.343	0.0165894
701.421	0.0165565
701.499	0.0165268
701.578	0.0164648
701.656	0.0164936
701.734	0.0164557
701.812	0.0166142
701.890	0.0165124
701.968	0.0164562
702.046	0.0165798
702.124	0.0164720
702.203	0.0165508
702.281	0.0164935
702.359	0.0165170
702.437	0.0165131
702.515	0.0165337
702.593	0.0166560
702.671	0.0166182
702.749	0.0166212
702.828	0.0164714
702.906	0.0165854
702.984	0.0165244
703.062	0.0165947
703.140	0.0166054
703.218	0.0165691
703.296	0.0165490
703.374	0.0165606
703.453	0.0165395
703.531	0.0164771
703.609	0.0165409
703.687	0.0165922
703.765	0.0164649
703.843	0.0164986
703.921	0.0166613
703.999	0.0165710
704.078	0.0164343
704.156	0.0165298
704.234	0.0165223
704.312	0.0166194
704.390	0.0164619
704.468	0.0163651
704.546	0.0165536
704.624	0.0166082
704.703	0.0164854
704.781	0.0164924
704.859	0.0164768
704.937	0.0165425
705.015	0.0164787
705.093	0.0165707
705.171	0.0165152
705.249	0.0165545
705.328	0.0164916
705.406	0.0165706
705.484	0.0165892
705.562	0.0165287
705.640	0.0166780
705.718	0.0166237
705.796	0.0165030
705.874	0.0165524
705.953	0.0165172
706.031	0.0165901
706.109	0.0165641
706.187	0.0166061
706.265	0.0165527
706.343	0.0166013
706.421	0.0164908
706.499	0.0165229
706.578	0.0164891
706.656	0.0165734
706.734	0.0166402
706.812	0.0165070
706.890	0.0165726
706.968	0.0164211
707.046	0.0165441
707.124	0.0165593
707.203	0.0163906
707.281	0.0164308
707.359	0.0165955
707.437	0.0164880
707.515	0.0164347
707.593	0.0165546
707.671	0.0166637
707.749	0.0164307
707.828	0.0166935
707.906	0.0165005
707.984	0.0167478
708.062	0.0166116
708.140	0.0165668
708.218	0.0164958
708.296	0.0165607
708.374	0.0165449
708.453	0.0164718
708.531	0.0164993
708.609	0.0164561
708.687	0.0164433
708.765	0.0165926
708.843	0.0166002
708.921	0.0165128
708.999	0.0165131
709.078	0.0165704
709.156	0.0166141
709.234	0.0165758
709.312	0.0164901
709.390	0.0166319
709.468	0.0165904
709.546	0.0164771
709.624	0.0166003
709.703	0.0165426
709.781	0.0165825
709.859	0.0166184
709.937	0.0166228
710.015	0.0166090
710.093	0.0163888
710.171	0.0165327
710.249	0.0165701
710.328	0.0166086
710.406	0.0164056
710.484	0.0165395
710.562	0.0165289
710.640	0.0165331
710.718	0.0165594
710.796	0.0166314
710.874	0.0165495
710.953	0.0164750
711.031	0.0165611
711.109	0.0167133
711.187	0.0166187
711.265	0.0164769
711.343	0.0165503
711.421	0.0165685
711.499	0.0166622
711.578	0.0165749
711.656	0.0165530
711.734	0.0165607
711.812	0.0166190
711.890	0.0165701
711.968	0.0166243
712.046	0.0163979
712.124	0.0164664
712.203	0.0165990
712.281	0.0164558
712.359	0.0164993
712.437	0.0165639
712.515	0.0164838
712.593	0.0165755
712.671	0.0165829
712.749	0.0165366
712.828	0.0166090
712.906	0.0164896
712.984	0.0163621
713.062	0.0164915
713.140	0.0165833
713.218	0.0166207
713.296	0.0165076
713.374	0.0164029
713.453	0.0166122
713.531	0.0164102
713.609	0.0164941
713.687	0.0166338
713.765	0.0166177
713.843	0.0166047
713.921	0.0165215
713.999	0.0164399
714.078	0.0165388
714.156	0.0165819
714.234	0.0165986
714.312	0.0164508
714.390	0.0165909
714.468	0.0165691
714.546	0.0165468
714.624	0.0165992
714.703	0.0166590
714.781	0.0165270
714.859	0.0163883
714.937	0.0164931
715.015	0.0164827
715.093	0.0165891
715.171	0.0165295
715.249	0.0166028
715.328	0.0164888
715.406	0.0164729
715.484	0.0165323
715.562	0.0164350
715.640	0.0165853
715.718	0.0165882
715.796	0.0165186
715.874	0.0164917
715.953	0.0164552
716.031	0.0166093
716.109	0.0165839
716.187	0.0164200
716.265	0.0166301
716.343	0.0164900
716.421	0.0165587
716.499	0.0165397
716.578	0.0165417
716.656	0.0165467
716.734	0.0164844
716.812	0.0164838
716.890	0.0165857
716.968	0.0165416
717.046	0.0166251
717.124	0.0163757
717.203	0.0164485
717.281	0.0166398
717.359	0.0165091
717.437	0.0165337
717.515	0.0163409
717.593	0.0165735
717.671	0.0166302
717.749	0.0165744
717.828	0.0165874
717.906	0.0164921
717.984	0.0164511
718.062	0.0164359
718.140	0.0164486
718.218	0.0165860
718.296	0.0164051
718.374	0.0163750
718.453	0.0165541
718.531	0.0166177
718.609	0.0164736
718.687	0.0164577
718.765	0.0165287
718.843	0.0163560
718.921	0.0165499
718.999	0.0165359
719.078	0.0165448
719.156	0.0165786
719.234	0.0164705
719.312	0.0165403
719.390	0.0164482
719.468	0.0164707
719.546	0.0165369
719.624	0.0164948
719.703	0.0165356
719.781	0.0164619
719.859	0.0165337
719.937	0.0166782
720.015	0.0164609
720.093	0.0164180
720.171	0.0165408
720.249	0.0165771
720.328	0.0166462
720.406	0.0165902
720.484	0.0164435
720.562	0.0164289
720.640	0.0164793
720.718	0.0165488
720.796	0.0165702
720.874	0.0166052
720.953	0.0165836
721.031	0.0165702
721.109	0.0165216
721.187	0.0165617
721.265	0.0165516
721.343	0.0166248
721.421	0.0165359
721.499	0.0165398
721.578	0.0165922
721.656	0.0165150
721.734	0.0166043
721.812	0.0164307
721.890	0.0165119
721.968	0.0164503
722.046	0.0164150
722.124	0.0166615
722.203	0.0165669
722.281	0.0164129
722.359	0.0164101
722.437	0.0166128
722.515	0.0165005
722.593	0.0165703
722.671	0.0166468
722.749	0.0165932
722.828	0.0166508
722.906	0.0166283
722.984	0.0164576
723.062	0.0166836
723.140	0.0165700
723.218	0.0165702
723.296	0.0166069
723.374	0.0165144
723.453	0.0164851
723.531	0.0166546
723.609	0.0165141
723.687	0.0164978
723.765	0.0165967
723.843	0.0166019
723.921	0.0165355
723.999	0.0165375
724.078	0.0165771
724.156	0.0165771
724.234	0.0164707
724.312	0.0166720
724.390	0.0165737
724.468	0.0165991
724.546	0.0165022
724.624	0.0165834
724.703	0.0165842
724.781	0.0166098
724.859	0.0164929
724.937	0.0166041
725.015	0.0166315
725.093	0.0164722
725.171	0.0165522
725.249	0.0165069
725.328	0.0165216
725.406	0.0165423
725.484	0.0165871
725.562	0.0165372
725.640	0.0166824
725.718	0.0166080
725.796	0.0165215
725.874	0.0167310
725.953	0.0165411
726.031	0.0166911
726.109	0.0165810
726.187	0.0166246
726.265	0.0165658
726.343	0.0166502
726.421	0.0165548
726.499	0.0167075
726.578	0.0165092
726.656	0.0165988
726.734	0.0165475
726.812	0.0165063
726.890	0.0167133
726.968	0.0165530
727.046	0.0165555
727.124	0.0164893
727.203	0.0164493
727.281	0.0164478
727.359	0.0165800
727.437	0.0166588
727.515	0.0166932
727.593	0.0166348
727.671	0.0164559
727.749	0.0164497
727.828	0.0166127
727.906	0.0167052
727.984	0.0165016
728.062	0.0166558
728.140	0.0164751
728.218	0.0166325
728.296	0.0165985
728.374	0.0166183
728.453	0.0166548
728.531	0.0165475
728.609	0.0166064
728.687	0.0165560
728.765	0.0165955
728.843	0.0164867
728.921	0.0165372
728.999	0.0166071
729.078	0.0165107
729.156	0.0165816
729.234	0.0165380
729.312	0.0167683
729.390	0.0164651
729.468	0.0166248
729.546	0.0166799
729.624	0.0164734
729.703	0.0165062
729.781	0.0165790
729.859	0.0164823
729.937	0.0165318
730.015	0.0166048
730.093	0.0164543
730.171	0.0166088
730.249	0.0166062
730.328	0.0165909
730.406	0.0165678
730.484	0.0164051
730.562	0.0164977
730.640	0.0166336
730.718	0.0166493
730.796	0.0164803
730.874	0.0164793
730.953	0.0164304
731.031	0.0164803
731.109	0.0165697
731.187	0.0165170
731.265	0.0166020
731.343	0.0165787
731.421	0.0166167
731.499	0.0165944
731.578	0.0164735
731.656	0.0165350
731.734	0.0166234
731.812	0.0164649
731.890	0.0164022
731.968	0.0166026
732.046	0.0165940
732.124	0.0165702
732.203	0.0165397
732.281	0.0165868
732.359	0.0165361
732.437	0.0163761
732.515	0.0164875
732.593	0.0164932
732.671	0.0165983
732.749	0.0164804
732.828	0.0164890
732.906	0.0166303
732.984	0.0166560
733.062	0.0165207
733.140	0.0164893
733.218	0.0164887
733.296	0.0166074
733.374	0.0164510
733.453	0.0165650
733.531	0.0165733
733.609	0.0165300
733.687	0.0165785
733.765	0.0166239
733.843	0.0165491
733.921	0.0164146
733.999	0.0164944
734.078	0.0163605
734.156	0.0165009
734.234	0.0165725
734.312	0.0165298
734.390	0.0164474
734.468	0.0164351
734.546	0.0164775
734.624	0.0164884
734.703	0.0165089
734.781	0.0164759
734.859	0.0164635
734.937	0.0165211
735.015	0.0165201
735.093	0.0165088
735.171	0.0164198
735.249	0.0165515
735.328	0.0164108
735.406	0.0165495
735.484	0.0165900
735.562	0.0164268
735.640	0.0164773
735.718	0.0164273
735.796	0.0164017
735.874	0.0165014
735.953	0.0165306
736.031	0.0164182
736.109	0.0165284
736.187	0.0165615
736.265	0.0163853
736.343	0.0165492
736.421	0.0166043
736.499	0.0164539
736.578	0.0163625
736.656	0.0164935
736.734	0.0164637
736.812	0.0163895
736.890	0.0164865
736.968	0.0165829
737.046	0.0164642
737.124	0.0164929
737.203	0.0165341
737.281	0.0165917
737.359	0.0164912
737.437	0.0164354
737.515	0.0165118
737.593	0.0165639
737.671	0.0165289
737.749	0.0164945
737.828	0.0164118
737.906	0.0164374
737.984	0.0163771
738.062	0.0164635
738.140	0.0164490
738.218	0.0163762
738.296	0.0164124
738.374	0.0163831
738.453	0.0164700
738.531	0.0166333
738.609	0.0163843
738.687	0.0164568
738.765	0.0166245
738.843	0.0165493
738.921	0.0164103
738.999	0.0165043
739.078	0.0166307
739.156	0.0166329
739.234	0.0165397
739.312	0.0165321
739.390	0.0165711
739.468	0.0166351
739.546	0.0166393
739.624	0.0165849
739.703	0.0166019
739.781	0.0166185
739.859	0.0168304
739.937	0.0167487
740.015	0.0167482
740.093	0.0166655
740.171	0.0166779
740.249	0.0167995
740.328	0.0166544
740.406	0.0165842
740.484	0.0166275
740.562	0.0165320
740.640	0.0166654
740.718	0.0165953
740.796	0.0165051
740.874	0.0164999
740.953	0.0163912
741.031	0.0163123
741.109	0.0165028
741.187	0.0162705
741.265	0.0161783
741.343	0.0160130
741.421	0.0159570
741.499	0.0160236
741.578	0.0157195
741.656	0.0157114
741.734	0.0157457
741.812	0.0157996
741.890	0.0157886
741.968	0.0159369
742.046	0.0159917
742.124	0.0161299
742.203	0.0163571
742.281	0.0165126
742.359	0.0166732
742.437	0.0168383
742.515	0.0169008
742.593	0.0170207
742.671	0.0172087
742.749	0.0172204
742.828	0.0171819
742.906	0.0172898
742.984	0.0172889
743.062	0.0172739
743.140	0.0172587
743.218	0.0172768
743.296	0.0171590
743.374	0.0172865
743.453	0.0171021
743.531	0.0172417
743.609	0.0170567
743.687	0.0172912
743.765	0.0172585
743.843	0.0170450
743.921	0.0171706
743.999	0.0170007
744.078	0.0168849
744.156	0.0168542
744.234	0.0166776
744.312	0.0166907
744.390	0.0162756
744.468	0.0162752
744.546	0.0160681
744.624	0.0158971
744.703	0.0155466
744.781	0.0154153
744.859	0.0152435
744.937	0.0154035
745.015	0.0151266
745.093	0.0152000
745.171	0.0153938
745.249	0.0154421
745.328	0.0157241
745.406	0.0159068
745.484	0.0158945
745.562	0.0159604
745.640	0.0158745
745.718	0.0161286
745.796	0.0162076
745.874	0.0161115
745.953	0.0163073
746.031	0.0165010
746.109	0.0167108
746.187	0.0169650
746.265	0.0172783
746.343	0.0176170
746.421	0.0177890
746.499	0.0180032
746.578	0.0181121
746.656	0.0177944
746.734	0.0174541
746.812	0.0170112
746.890	0.0162959
746.968	0.0156243
747.046	0.0148814
747.124	0.0143949
747.203	0.0138118
747.281	0.0138531
747.359	0.0137833
747.437	0.0139611
747.515	0.0144804
747.593	0.0151795
747.671	0.0158670
747.749	0.0166116
747.828	0.0172957
747.906	0.0180632
747.984	0.0185214
748.062	0.0193076
748.140	0.0198372
748.218	0.0203068
748.296	0.0205947
748.374	0.0209972
748.453	0.0210667
748.531	0.0213718
748.609	0.0213985
748.687	0.0213309
748.765	0.0211623
748.843	0.0208649
748.921	0.0204942
748.999	0.0199024
749.078	0.0192014
749.156	0.0182796
749.234	0.0173103
749.312	0.0164935
749.390	0.0152570
749.468	0.0140448
749.546	0.0129533
749.624	0.0116830
749.703	0.0104851
749.781	0.00947594
749.859	0.00853920
749.937	0.00774475
750.015	0.00708000
750.093	0.00687599
750.171	0.00708076
750.249	0.00713341
750.328	0.00802780
750.406	0.00890236
750.484	0.0102283
750.562	0.0116497
750.640	0.0132361
750.718	0.0147734
750.796	0.0166559
750.874	0.0183696
750.953	0.0201479
751.031	0.0219225
751.109	0.0234299
751.187	0.0246389
751.265	0.0256718
751.343	0.0262765
751.421	0.0265855
751.499	0.0265739
751.578	0.0262578
751.656	0.0256768
751.734	0.0246106
751.812	0.0237469
751.890	0.0228243
751.968	0.0218855
752.046	0.0208002
752.124	0.0196346
752.203	0.0187063
752.281	0.0178384
752.359	0.0169984
752.437	0.0159090
752.515	0.0151871
752.593	0.0142119
752.671	0.0133752
752.749	0.0123714
752.828	0.0113863
752.906	0.0104881
752.984	0.00976151
753.062	0.00914291
753.140	0.00886848
753.218	0.00878838
753.296	0.00875481
753.374	0.00896660
753.453	0.00970215
753.531	0.0104788
753.609	0.0112428
753.687	0.0122574
753.765	0.0134216
753.843	0.0146939
753.921	0.0159042
753.999	0.0173567
754.078	0.0184756
754.156	0.0197913
754.234	0.0208196
754.312	0.0214791
754.390	0.0222968
754.468	0.0226445
754.546	0.0228294
754.624	0.0226685
754.703	0.0224912
754.781	0.0219936
754.859	0.0215623
754.937	0.0210797
755.015	0.0202090
755.093	0.0195741
755.171	0.0188800
755.249	0.0181332
755.328	0.0174323
755.406	0.0167188
755.484	0.0159104
755.562	0.0152149
755.640	0.0142233
755.718	0.0134088
755.796	0.0126522
755.874	0.0120474
755.953	0.0115189
756.031	0.0107824
756.109	0.0105859
756.187	0.0103694
756.265	0.0103297
756.343	0.0103794
756.421	0.0109146
756.499	0.0114601
756.578	0.0123466
756.656	0.0132909
756.734	0.0144860
756.812	0.0159278
756.890	0.0174884
756.968	0.0187203
757.046	0.0203693
757.124	0.0216960
757.203	0.0229015
757.281	0.0240238
757.359	0.0247375
757.437	0.0251971
757.515	0.0254586
757.593	0.0252828
757.671	0.0249609
757.749	0.0244616
757.828	0.0236144
757.906	0.0225240
757.984	0.0215262
758.062	0.0201009
758.140	0.0186330
758.218	0.0171890
758.296	0.0155570
758.374	0.0140831
758.453	0.0123927
758.531	0.0110706
758.609	0.00963081
758.687	0.00831421
758.765	0.00759254
758.843	0.00696396
758.921	0.00641113
758.999	0.00632591
759.078	0.00667496
759.156	0.00716614
759.234	0.00788948
759.312	0.00877182
759.390	0.0100632
759.468	0.0114997
759.546	0.0129678
759.624	0.0143405
759.703	0.0160966
759.781	0.0178667
759.859	0.0193711
759.937	0.0207008
760.015	0.0219964
760.093	0.0229166
760.171	0.0236793
760.249	0.0240331
760.328	0.0244204
760.406	0.0243756
760.484	0.0240371
760.562	0.0235543
760.640	0.0230766
760.718	0.0225134
760.796	0.0217628
760.874	0.0209879
760.953	0.0201648
761.031	0.0194043
761.109	0.0185313
761.187	0.0176952
761.265	0.0170380
761.343	0.0161256
761.421	0.0153864
761.499	0.0146491
761.578	0.0138462
761.656	0.0133035
761.734	0.0128997
761.812	0.0125965
761.890	0.0121571
761.968	0.0121369
762.046	0.0119361
762.124	0.0119900
762.203	0.0120715
762.281	0.0121165
762.359	0.0123769
762.437	0.0126507
762.515	0.0130874
762.593	0.0136881
762.671	0.0143652
762.749	0.0150034
762.828	0.0156161
762.906	0.0162633
762.984	0.0171244
763.062	0.0178747
763.140	0.0181386
763.218	0.0185058
763.296	0.0189422
763.374	0.0190771
763.453	0.0191857
763.531	0.0190620
763.609	0.0189042
763.687	0.0185463
763.765	0.0183405
763.843	0.0182153
763.921	0.0177135
763.999	0.0175246
764.078	0.0174008
764.156	0.0170028
764.234	0.0168179
764.312	0.0166726
764.390	0.0166034
764.468	0.0164877
764.546	0.0161726
764.624	0.0160519
764.703	0.0160254
764.781	0.0158189
764.859	0.0156335
764.937	0.0156304
765.015	0.0155013
765.093	0.0157012
765.171	0.0156261
765.249	0.0155772
765.328	0.0157011
765.406	0.0160374
765.484	0.0159161
765.562	0.0160648
765.640	0.0162852
765.718	0.0166700
765.796	0.0168880
765.874	0.0171181
765.953	0.0172403
766.031	0.0176103
766.109	0.0179405
766.187	0.0180193
766.265	0.0179610
766.343	0.0179162
766.421	0.0178178
766.499	0.0175849
766.578	0.0172423
766.656	0.0169614
766.734	0.0166911
766.812	0.0163496
766.890	0.0160072
766.968	0.0160583
767.046	0.0160763
767.124	0.0159858
767.203	0.0159631
767.281	0.0159840
767.359	0.0162735
767.437	0.0164463
767.515	0.0164366
767.593	0.0165382
767.671	0.0165485
767.749	0.0167616
767.828	0.0168198
767.906	0.0166806
767.984	0.0166730
768.062	0.0165848
768.140	0.0164226
768.218	0.0162629
768.296	0.0160736
768.374	0.0158387
768.453	0.0158147
768.531	0.0155028
768.609	0.0153728
768.687	0.0152623
768.765	0.0149680
768.843	0.0147556
768.921	0.0147955
768.999	0.0149331
769.078	0.0147971
769.156	0.0149480
769.234	0.0148630
769.312	0.0151156
769.390	0.0153342
769.468	0.0156597
769.546	0.0159709
769.624	0.0162440
769.703	0.0166520
769.781	0.0168674
769.859	0.0170760
769.937	0.0173732
770.015	0.0176983
770.093	0.0179135
770.171	0.0179214
770.249	0.0181801
770.328	0.0182639
770.406	0.0181557
770.484	0.0183331
770.562	0.0182793
770.640	0.0182677
770.718	0.0181162
770.796	0.0182063
770.874	0.0179473
770.953	0.0176919
771.031	0.0177872
771.109	0.0175348
771.187	0.0173437
771.265	0.0171569
771.343	0.0169646
771.421	0.0167146
771.499	0.0164381
771.578	0.0162478
771.656	0.0159099
771.734	0.0157253
771.812	0.0156332
771.890	0.0156590
771.968	0.0153223
772.046	0.0152991
772.124	0.0153008
772.203	0.0151739
772.281	0.0153478
772.359	0.0153728
772.437	0.0154481
772.515	0.0154510
772.593	0.0156331
772.671	0.0158078
772.749	0.0158648
772.828	0.0159070
772.906	0.0161333
772.984	0.0161501
773.062	0.0163565
773.140	0.0163650
773.218	0.0166162
773.296	0.0167641
773.374	0.0168449
773.453	0.0170247
773.531	0.0171427
773.609	0.0171889
773.687	0.0174311
773.765	0.0174866
773.843	0.0173096
773.921	0.0173064
773.999	0.0171794
774.078	0.0171575
774.156	0.0169908
774.234	0.0166602
774.312	0.0166151
774.390	0.0164664
774.468	0.0162175
774.546	0.0161092
774.624	0.0159579
774.703	0.0159801
774.781	0.0156364
774.859	0.0157401
774.937	0.0156255
775.015	0.0155412
775.093	0.0158132
775.171	0.0158841
775.249	0.0159212
775.328	0.0161433
775.406	0.0161323
775.484	0.0161848
775.562	0.0163300
775.640	0.0164461
775.718	0.0166331
775.796	0.0168055
775.874	0.0169241
775.953	0.0172478
776.031	0.0173099
776.109	0.0175052
776.187	0.0176315
776.265	0.0177528
776.343	0.0178539
776.421	0.0180222
776.499	0.0179296
776.578	0.0179197
776.656	0.0178899
776.734	0.0177698
776.812	0.0175902
776.890	0.0174728
776.968	0.0171182
777.046	0.0169160
777.124	0.0166940
777.203	0.0166452
777.281	0.0164926
777.359	0.0161523
777.437	0.0161379
777.515	0.0158009
777.593	0.0158263
777.671	0.0154990
777.749	0.0155947
777.828	0.0155085
777.906	0.0153865
777.984	0.0154395
778.062	0.0155408
778.140	0.0154876
778.218	0.0153796
778.296	0.0155050
778.374	0.0154681
778.453	0.0156292
778.531	0.0157501
778.609	0.0158597
778.687	0.0159869
778.765	0.0160400
778.843	0.0161816
778.921	0.0163696
778.999	0.0165454
779.078	0.0166046
779.156	0.0167791
779.234	0.0168539
779.312	0.0169760
779.390	0.0171300
779.468	0.0171451
779.546	0.0171304
779.624	0.0170496
779.703	0.0170681
779.781	0.0170746
779.859	0.0170383
779.937	0.0168062
780.015	0.0167435
780.093	0.0166837
780.171	0.0164201
780.249	0.0165213
780.328	0.0162322
780.406	0.0161324
780.484	0.0160613
780.562	0.0159415
780.640	0.0158366
780.718	0.0156812
780.796	0.0157331
780.874	0.0157766
780.953	0.0159505
781.031	0.0160401
781.109	0.0163845
781.187	0.0166061
781.265	0.0167291
781.343	0.0170618
781.421	0.0174195
781.499	0.0174993
781.578	0.0177010
781.656	0.0180223
781.734	0.0180078
781.812	0.0182254
781.890	0.0184076
781.968	0.0183179
782.046	0.0179505
782.124	0.0179595
782.203	0.0178929
782.281	0.0175838
782.359	0.0174912
782.437	0.0170928
782.515	0.0168612
782.593	0.0165460
782.671	0.0162337
782.749	0.0160899
782.828	0.0159830
782.906	0.0157495
782.984	0.0154507
783.062	0.0153348
783.140	0.0153527
783.218	0.0153374
783.296	0.0150476
783.374	0.0149462
783.453	0.0148617
783.531	0.0148840
783.609	0.0148605
783.687	0.0150235
783.765	0.0151363
783.843	0.0151477
783.921	0.0152386
783.999	0.0153325
784.078	0.0155712
784.156	0.0156675
784.234	0.0159193
784.312	0.0160567
784.390	0.0163567
784.468	0.0166409
784.546	0.0168208
784.624	0.0170365
784.703	0.0172986
784.781	0.0174656
784.859	0.0175708
784.937	0.0176588
785.015	0.0177820
785.093	0.0178593
785.171	0.0177522
785.249	0.0176952
785.328	0.0177722
785.406	0.0176657
785.484	0.0176434
785.562	0.0174435
785.640	0.0172434
785.718	0.0171127
785.796	0.0168433
785.874	0.0167700
785.953	0.0166213
786.031	0.0164227
786.109	0.0162403
786.187	0.0161896
786.265	0.0159076
786.343	0.0158621
786.421	0.0155749
786.499	0.0157059
786.578	0.0156744
786.656	0.0157716
786.734	0.0157242
786.812	0.0157532
786.890	0.0157067
786.968	0.0158430
787.046	0.0159740
787.124	0.0160573
787.203	0.0160716
787.281	0.0161408
787.359	0.0162675
787.437	0.0165031
787.515	0.0165378
787.593	0.0166627
787.671	0.0168066
787.749	0.0169028
787.828	0.0170281
787.906	0.0171020
787.984	0.0171114
788.062	0.0170186
788.140	0.0170547
788.218	0.0168858
788.296	0.0168552
788.374	0.0167152
788.453	0.0165464
788.531	0.0164870
788.609	0.0165063
788.687	0.0163810
788.765	0.0164603
788.843	0.0165054
788.921	0.0165321
788.999	0.0163804
789.078	0.0164057
789.156	0.0165781
789.234	0.0165429
789.312	0.0165430
789.390	0.0165613
789.468	0.0167377
789.546	0.0167248
789.624	0.0166610
789.703	0.0167550
789.781	0.0166878
789.859	0.0165929
789.937	0.0165425
790.015	0.0163493
790.093	0.0165060
790.171	0.0163772
790.249	0.0163032
790.328	0.0163095
790.406	0.0163946
790.484	0.0161763
790.562	0.0161536
790.640	0.0162234
790.718	0.0160172
790.796	0.0160909
790.874	0.0161662
790.953	0.0162312
791.031	0.0162489
791.109	0.0163332
791.187	0.0163434
791.265	0.0164319
791.343	0.0165569
791.421	0.0165578
791.499	0.0166412
791.578	0.0166746
791.656	0.0167609
791.734	0.0166569
791.812	0.0166278
791.890	0.0167110
791.968	0.0168626
792.046	0.0168458
792.124	0.0167835
792.203	0.0168410
792.281	0.0166866
792.359	0.0165584
792.437	0.0164560
792.515	0.0163457
792.593	0.0164666
792.671	0.0162176
792.749	0.0161647
792.828	0.0160227
792.906	0.0162435
792.984	0.0161837
793.062	0.0161705
793.140	0.0163058
793.218	0.0163715
793.296	0.0163448
793.374	0.0164770
793.453	0.0165557
793.531	0.0166134
793.609	0.0168130
793.687	0.0170844
793.765	0.0170322
793.843	0.0171698
793.921	0.0171405
793.999	0.0172598
794.078	0.0172720
794.156	0.0173017
794.234	0.0171664
794.312	0.0172342
794.390	0.0170594
794.468	0.0169210
794.546	0.0169259
794.624	0.0167765
794.703	0.0166596
794.781	0.0166021
794.859	0.0165914
794.937	0.0164845
795.015	0.0163968
795.093	0.0162758
795.171	0.0162329
795.249	0.0160418
795.328	0.0159777
795.406	0.0158833
795.484	0.0158239
795.562	0.0157780
795.640	0.0157240
795.718	0.0156704
795.796	0.0156684
795.874	0.0158353
795.953	0.0157703
796.031	0.0157972
796.109	0.0157975
796.187	0.0157862
796.265	0.0160262
796.343	0.0161392
796.421	0.0161950
796.499	0.0162336
796.578	0.0164629
796.656	0.0167171
796.734	0.0168168
796.812	0.0170168
796.890	0.0170739
796.968	0.0171702
797.046	0.0172974
797.124	0.0173302
797.203	0.0174944
797.281	0.0172723
797.359	0.0174385
797.437	0.0174359
797.515	0.0172359
797.593	0.0171545
797.671	0.0170564
797.749	0.0168661
797.828	0.0168831
797.906	0.0167552
797.984	0.0166441
798.062	0.0163667
798.140	0.0164123
798.218	0.0161710
798.296	0.0159361
798.374	0.0157982
798.453	0.0158113
798.531	0.0157517
798.609	0.0159295
798.687	0.0157780
798.765	0.0157560
798.843	0.0159113
798.921	0.0159493
798.999	0.0160671
799.078	0.0161118
799.156	0.0163407
799.234	0.0164835
799.312	0.0167218
799.390	0.0168252
799.468	0.0169603
799.546	0.0169948
799.624	0.0171497
799.703	0.0173087
799.781	0.0173592
799.859	0.0172942
799.937	0.0173293
800.015	0.0173212
800.093	0.0172138
800.171	0.0171294
800.249	0.0171356
800.328	0.0169876
800.406	0.0168705
800.484	0.0167518
800.562	0.0168129
800.640	0.0166835
800.718	0.0165225
800.796	0.0164377
800.874	0.0164452
800.953	0.0163850
801.031	0.0163254
801.109	0.0162218
801.187	0.0161279
801.265	0.0162451
801.343	0.0162192
801.421	0.0161816
801.499	0.0157355
801.578	0.0160347
801.656	0.0159903
801.734	0.0159657
801.812	0.0159792
801.890	0.0158974
801.968	0.0157869
802.046	0.0158656
802.124	0.0159048
802.203	0.0160568
802.281	0.0162695
802.359	0.0162051
802.437	0.0162926
802.515	0.0165122
802.593	0.0165479
802.671	0.0164745
802.749	0.0166178
802.828	0.0167239
802.906	0.0168963
802.984	0.0169318
803.062	0.0170138
803.140	0.0170942
803.218	0.0171484
803.296	0.0171134
803.374	0.0170247
803.453	0.0170622
803.531	0.0170484
803.609	0.0169736
803.687	0.0168499
803.765	0.0167226
803.843	0.0166078
803.921	0.0165479
803.999	0.0164461
804.078	0.0163666
804.156	0.0162189
804.234	0.0161360
804.312	0.0162575
804.390	0.0161151
804.468	0.0161074
804.546	0.0162676
804.624	0.0161102
804.703	0.0161530
804.781	0.0164208
804.859	0.0164053
804.937	0.0165208
805.015	0.0166149
805.093	0.0166602
805.171	0.0168242
805.249	0.0167957
805.328	0.0168932
805.406	0.0169701
805.484	0.0170151
805.562	0.0169357
805.640	0.0170329
805.718	0.0170606
805.796	0.0168503
805.874	0.0168270
805.953	0.0168457
806.031	0.0167764
806.109	0.0166306
806.187	0.0166994
806.265	0.0165755
806.343	0.0165897
806.421	0.0162975
806.499	0.0164238
806.578	0.0163909
806.656	0.0163887
806.734	0.0162499
806.812	0.0161978
806.890	0.0161800
806.968	0.0161581
807.046	0.0161649
807.124	0.0161016
807.203	0.0161991
807.281	0.0161967
807.359	0.0162058
807.437	0.0163064
807.515	0.0163577
807.593	0.0163096
807.671	0.0165646
807.749	0.0164595
807.828	0.0164882
807.906	0.0165465
807.984	0.0165258
808.062	0.0165144
808.140	0.0164530
808.218	0.0166837
808.296	0.0166798
808.374	0.0167182
808.453	0.0167712
808.531	0.0166941
808.609	0.0166755
808.687	0.0167010
808.765	0.0167014
808.843	0.0167548
808.921	0.0166933
808.999	0.0167342
809.078	0.0166418
809.156	0.0167417
809.234	0.0166349
809.312	0.0164944
809.390	0.0163981
809.468	0.0163119
809.546	0.0164153
809.624	0.0163542
809.703	0.0163084
809.781	0.0162413
809.859	0.0160934
809.937	0.0161832
810.015	0.0162278
810.093	0.0161855
810.171	0.0163216
810.249	0.0162882
810.328	0.0162831
810.406	0.0164547
810.484	0.0164651
810.562	0.0165553
810.640	0.0166118
810.718	0.0166106
810.796	0.0168114
810.874	0.0167986
810.953	0.0169723
811.031	0.0169909
811.109	0.0170541
811.187	0.0169865
811.265	0.0169238
811.343	0.0170060
811.421	0.0170158
811.499	0.0168046
811.578	0.0167340
811.656	0.0168583
811.734	0.0167469
811.812	0.0165586
811.890	0.0165590
811.968	0.0164120
812.046	0.0163355
812.124	0.0163624
812.203	0.0162914
812.281	0.0163193
812.359	0.0162989
812.437	0.0162239
812.515	0.0162032
812.593	0.0160872
812.671	0.0161160
812.749	0.0162213
812.828	0.0162622
812.906	0.0163432
812.984	0.0163459
813.062	0.0162936
813.140	0.0164236
813.218	0.0164746
813.296	0.0166385
813.374	0.0165244
813.453	0.0166058
813.531	0.0166647
813.609	0.0166673
813.687	0.0166386
813.765	0.0167864
813.843	0.0167202
813.921	0.0167499
813.999	0.0167780
814.078	0.0168714
814.156	0.0167234
814.234	0.0167403
814.312	0.0166534
814.390	0.0166992
814.468	0.0167728
814.546	0.0167015
814.624	0.0164767
814.703	0.0165050
814.781	0.0165387
814.859	0.0166190
814.937	0.0164249
815.015	0.0163086
815.093	0.0163429
815.171	0.0163137
815.249	0.0163049
815.328	0.0162083
815.406	0.0162485
815.484	0.0161929
815.562	0.0161941
815.640	0.0162957
815.718	0.0161920
815.796	0.0163840
815.874	0.0164797
815.953	0.0165302
816.031	0.0166087
816.109	0.0165827
816.187	0.0165394
816.265	0.0167398
816.343	0.0167198
816.421	0.0167665
816.499	0.0168205
816.578	0.0167093
816.656	0.0168446
816.734	0.0167318
816.812	0.0167953
816.890	0.0168647
816.968	0.0166998
817.046	0.0167871
817.124	0.0167041
817.203	0.0166882
817.281	0.0167708
817.359	0.0164693
817.437	0.0163529
817.515	0.0164042
817.593	0.0164532
817.671	0.0164127
817.749	0.0163850
817.828	0.0162738
817.906	0.0162716
817.984	0.0163384
818.062	0.0163541
818.140	0.0162074
818.218	0.0162345
818.296	0.0163385
818.374	0.0163266
818.453	0.0164224
818.531	0.0164397
818.609	0.0164230
818.687	0.0164616
818.765	0.0164823
818.843	0.0165408
818.921	0.0165934
818.999	0.0164809
819.078	0.0166275
819.156	0.0165510
819.234	0.0166608
819.312	0.0167587
819.390	0.0166716
819.468	0.0169279
819.546	0.0168683
819.624	0.0170618
819.703	0.0170233
819.781	0.0168687
819.859	0.0170113
819.937	0.0169758
820.015	0.0170643
820.093	0.0168263
820.171	0.0168604
820.249	0.0169286
820.328	0.0166652
820.406	0.0165690
820.484	0.0164648
820.562	0.0163715
820.640	0.0163645
820.718	0.0162266
820.796	0.0160880
820.874	0.0162363
820.953	0.0161959
821.031	0.0160419
821.109	0.0160063
821.187	0.0160159
821.265	0.0161024
821.343	0.0161349
821.421	0.0160802
821.499	0.0160870
821.578	0.0162299
821.656	0.0161791
821.734	0.0163065
821.812	0.0164704
821.890	0.0163316
821.968	0.0164568
822.046	0.0164793
822.124	0.0165472
822.203	0.0165203
822.281	0.0165741
822.359	0.0166414
822.437	0.0166846
822.515	0.0165573
822.593	0.0166674
822.671	0.0167581
822.749	0.0167297
822.828	0.0166996
822.906	0.0166076
822.984	0.0165571
823.062	0.0167033
823.140	0.0167052
823.218	0.0165476
823.296	0.0165801
823.374	0.0164217
823.453	0.0167096
823.531	0.0166982
823.609	0.0166761
823.687	0.0164977
823.765	0.0166029
823.843	0.0167184
823.921	0.0165675
823.999	0.0165327
824.078	0.0164517
824.156	0.0165292
824.234	0.0163607
824.312	0.0163588
824.390	0.0162833
824.468	0.0163044
824.546	0.0163874
824.624	0.0165970
824.703	0.0162495
824.781	0.0163134
824.859	0.0164561
824.937	0.0164432
825.015	0.0164754
825.093	0.0165402
825.171	0.0165823
825.249	0.0166302
825.328	0.0164754
825.406	0.0166174
825.484	0.0166930
825.562	0.0168105
825.640	0.0168618
825.718	0.0167746
825.796	0.0168088
825.874	0.0168281
825.953	0.0167175
826.031	0.0166303
826.109	0.0166241
826.187	0.0165965
826.265	0.0165360
826.343	0.0163810
826.421	0.0164971
826.499	0.0164348
826.578	0.0163342
826.656	0.0163967
826.734	0.0163150
826.812	0.0162859
826.890	0.0163736
826.968	0.0162774
827.046	0.0162173
827.124	0.0163131
827.203	0.0161678
827.281	0.0163223
827.359	0.0164835
827.437	0.0163065
827.515	0.0164761
827.593	0.0164579
827.671	0.0166609
827.749	0.0166055
827.828	0.0165926
827.906	0.0165521
827.984	0.0166927
828.062	0.0165398
828.140	0.0166048
828.218	0.0167747
828.296	0.0167097
828.374	0.0168001
828.453	0.0166528
828.531	0.0167689
828.609	0.0166269
828.687	0.0165071
828.765	0.0164620
828.843	0.0165759
828.921	0.0165027
828.999	0.0163799
829.078	0.0166041
829.156	0.0164028
829.234	0.0165011
829.312	0.0163910
829.390	0.0165275
829.468	0.0163992
829.546	0.0164130
829.624	0.0165237
829.703	0.0164761
829.781	0.0163999
829.859	0.0164001
829.937	0.0165409
830.015	0.0165205
830.093	0.0166713
830.171	0.0166956
830.249	0.0167707
830.328	0.0166843
830.406	0.0167002
830.484	0.0168121
830.562	0.0168010
830.640	0.0168990
830.718	0.0168445
830.796	0.0169138
830.874	0.0168496
830.953	0.0167664
831.031	0.0169019
831.109	0.0166702
831.187	0.0166149
831.265	0.0165795
831.343	0.0166283
831.421	0.0164564
831.499	0.0165647
831.578	0.0163248
831.656	0.0164285
831.734	0.0166089
831.812	0.0164301
831.890	0.0163676
831.968	0.0162818
832.046	0.0162112
832.124	0.0162202
832.203	0.0162314
832.281	0.0163866
832.359	0.0161787
832.437	0.0162291
832.515	0.0162289
832.593	0.0163083
832.671	0.0161306
832.749	0.0162897
832.828	0.0163581
832.906	0.0163637
832.984	0.0163791
833.062	0.0166785
833.140	0.0166180
833.218	0.0164174
833.296	0.0164326
833.374	0.0166924
833.453	0.0166028
833.531	0.0166846
833.609	0.0168320
833.687	0.0168569
833.765	0.0168718
833.843	0.0168236
833.921	0.0167250
833.999	0.0166803
834.078	0.0166718
834.156	0.0166920
834.234	0.0166317
834.312	0.0165825
834.390	0.0166577
834.468	0.0164438
834.546	0.0164953
834.624	0.0164539
834.703	0.0164159
834.781	0.0164673
834.859	0.0163978
834.937	0.0164705
835.015	0.0164070
835.093	0.0163940
835.171	0.0163799
835.249	0.0164497
835.328	0.0164841
835.406	0.0163845
835.484	0.0163850
835.562	0.0164680
835.640	0.0166228
835.718	0.0164439
835.796	0.0165725
835.874	0.0165201
835.953	0.0166339
836.031	0.0165852
836.109	0.0166152
836.187	0.0166860
836.265	0.0167839
836.343	0.0166232
836.421	0.0167027
836.499	0.0166302
836.578	0.0166007
836.656	0.0167060
836.734	0.0167088
836.812	0.0165468
836.890	0.0166696
836.968	0.0166837
837.046	0.0164932
837.124	0.0165170
837.203	0.0164548
837.281	0.0164835
837.359	0.0164433
837.437	0.0164117
837.515	0.0163795
837.593	0.0163252
837.671	0.0162637
837.749	0.0164305
837.828	0.0164809
837.906	0.0164526
837.984	0.0164819
838.062	0.0165248
838.140	0.0165518
838.218	0.0165344
838.296	0.0164830
838.374	0.0166314
838.453	0.0165727
838.531	0.0166376
838.609	0.0166933
838.687	0.0165882
838.765	0.0165561
838.843	0.0167222
838.921	0.0165349
838.999	0.0164809
839.078	0.0165186
839.156	0.0166612
839.234	0.0165692
839.312	0.0163889
839.390	0.0166114
839.468	0.0166923
839.546	0.0167416
839.624	0.0165717
839.703	0.0166812
839.781	0.0166846
839.859	0.0167587
839.937	0.0167059
840.015	0.0166351
840.093	0.0164980
840.171	0.0165857
840.249	0.0166187
840.328	0.0166184
840.406	0.0165983
840.484	0.0165747
840.562	0.0165105
840.640	0.0164107
840.718	0.0165544
840.796	0.0164869
840.874	0.0164963
840.953	0.0164243
841.031	0.0166239
841.109	0.0165640
841.187	0.0164430
841.265	0.0164670
841.343	0.0165083
841.421	0.0163966
841.499	0.0164159
841.578	0.0163865
841.656	0.0164686
841.734	0.0164265
841.812	0.0164774
841.890	0.0164675
841.968	0.0164275
842.046	0.0165012
842.124	0.0164909
842.203	0.0163718
842.281	0.0164562
842.359	0.0165701
842.437	0.0166335
842.515	0.0166529
842.593	0.0166433
842.671	0.0166167
842.749	0.0167123
842.828	0.0166565
842.906	0.0167057
842.984	0.0166473
843.062	0.0167013
843.140	0.0165927
843.218	0.0166431
843.296	0.0166470
843.374	0.0165706
843.453	0.0166247
843.531	0.0164707
843.609	0.0165475
843.687	0.0164834
843.765	0.0162744
843.843	0.0160677
843.921	0.0162096
843.999	0.0161790
844.078	0.0161903
844.156	0.0162281
844.234	0.0162350
844.312	0.0162636
844.390	0.0162348
844.468	0.0163590
844.546	0.0163598
844.624	0.0165045
844.703	0.0165646
844.781	0.0168204
844.859	0.0169977
844.937	0.0170663
845.015	0.0171449
845.093	0.0170988
845.171	0.0172240
845.249	0.0173715
845.328	0.0172696
845.406	0.0174172
845.484	0.0172656
845.562	0.0171571
845.640	0.0170026
845.718	0.0170762
845.796	0.0168860
845.874	0.0167383
845.953	0.0167397
846.031	0.0165849
846.109	0.0163728
846.187	0.0162415
846.265	0.0161716
846.343	0.0159282
846.421	0.0158060
846.499	0.0158128
846.578	0.0157162
846.656	0.0156013
846.734	0.0153758
846.812	0.0154311
846.890	0.0155089
846.968	0.0155383
847.046	0.0155505
847.124	0.0155566
847.203	0.0158629
847.281	0.0158064
847.359	0.0161536
847.437	0.0162887
847.515	0.0164682
847.593	0.0165479
847.671	0.0166862
847.749	0.0168930
847.828	0.0171854
847.906	0.0171807
847.984	0.0172989
848.062	0.0172783
848.140	0.0173370
848.218	0.0172595
848.296	0.0172794
848.374	0.0175302
848.453	0.0175176
848.531	0.0173945
848.609	0.0172943
848.687	0.0172584
848.765	0.0173547
848.843	0.0172366
848.921	0.0171245
848.999	0.0170451
849.078	0.0168917
849.156	0.0168804
849.234	0.0167343
849.312	0.0165723
849.390	0.0164180
849.468	0.0162703
849.546	0.0161645
849.624	0.0159539
849.703	0.0160046
849.781	0.0156783
849.859	0.0157713
849.937	0.0156283
850.015	0.0155303
850.093	0.0156857
850.171	0.0157123
850.249	0.0157523
850.328	0.0156927
850.406	0.0159209
850.484	0.0159211
850.562	0.0161713
850.640	0.0162846
850.718	0.0164378
850.796	0.0166712
850.874	0.0167200
850.953	0.0168553
851.031	0.0169411
851.109	0.0170010
851.187	0.0170778
851.265	0.0170524
851.343	0.0171297
851.421	0.0171777
851.499	0.0171423
851.578	0.0170161
851.656	0.0171815
851.734	0.0169649
851.812	0.0170615
851.890	0.0169636
851.968	0.0170006
852.046	0.0168446
852.124	0.0167924
852.203	0.0166302
852.281	0.0164412
852.359	0.0163821
852.437	0.0161970
852.515	0.0162696
852.593	0.0161253
852.671	0.0161536
852.749	0.0160081
852.828	0.0158512
852.906	0.0159746
852.984	0.0159612
853.062	0.0158736
853.140	0.0160677
853.218	0.0160258
853.296	0.0162493
853.374	0.0162643
853.453	0.0162820
853.531	0.0165231
853.609	0.0165629
853.687	0.0167500
853.765	0.0167825
853.843	0.0168251
853.921	0.0168804
853.999	0.0171796
854.078	0.0170001
854.156	0.0171202
854.234	0.0171117
854.312	0.0171384
854.390	0.0171800
854.468	0.0170446
854.546	0.0169401
854.624	0.0169285
854.703	0.0168214
854.781	0.0166166
854.859	0.0166265
854.937	0.0165635
855.015	0.0163436
855.093	0.0162798
855.171	0.0163200
855.249	0.0161842
855.328	0.0160821
855.406	0.0160854
855.484	0.0161169
855.562	0.0160361
855.640	0.0159412
855.718	0.0160146
855.796	0.0160674
855.874	0.0162032
855.953	0.0160717
856.031	0.0163107
856.109	0.0162521
856.187	0.0161562
856.265	0.0162529
856.343	0.0164236
856.421	0.0163956
856.499	0.0164008
856.578	0.0167095
856.656	0.0166033
856.734	0.0165091
856.812	0.0167950
856.890	0.0168768
856.968	0.0168855
857.046	0.0168992
857.124	0.0169361
857.203	0.0170341
857.281	0.0170934
857.359	0.0171133
857.437	0.0169405
857.515	0.0170671
857.593	0.0170741
857.671	0.0170723
857.749	0.0170634
857.828	0.0168874
857.906	0.0168190
857.984	0.0167577
858.062	0.0166029
858.140	0.0165816
858.218	0.0166433
858.296	0.0166744
858.374	0.0166103
858.453	0.0165973
858.531	0.0164148
858.609	0.0164784
858.687	0.0164464
858.765	0.0164465
858.843	0.0162621
858.921	0.0164715
858.999	0.0165455
859.078	0.0163251
859.156	0.0163424
859.234	0.0164250
859.312	0.0163171
859.390	0.0163622
859.468	0.0162445
859.546	0.0161237
859.624	0.0162000
859.703	0.0162763
859.781	0.0161455
859.859	0.0162980
859.937	0.0162360
860.015	0.0161208
860.093	0.0161913
860.171	0.0163158
860.249	0.0164556
860.328	0.0165439
860.406	0.0165202
860.484	0.0165768
860.562	0.0166491
860.640	0.0166875
860.718	0.0167016
860.796	0.0167452
860.874	0.0168398
860.953	0.0167511
861.031	0.0167166
861.109	0.0168900
861.187	0.0168897
861.265	0.0169741
861.343	0.0167801
861.421	0.0167672
861.499	0.0169608
861.578	0.0168394
861.656	0.0168279
861.734	0.0168198
861.812	0.0167149
861.890	0.0167468
861.968	0.0166379
862.046	0.0167130
862.124	0.0166290
862.203	0.0166320
862.281	0.0165641
862.359	0.0165701
862.437	0.0164497
862.515	0.0165710
862.593	0.0165098
862.671	0.0163776
862.749	0.0165282
862.828	0.0164139
862.906	0.0163776
862.984	0.0162939
863.062	0.0162134
863.140	0.0164250
863.218	0.0164479
863.296	0.0163699
863.374	0.0165282
863.453	0.0164605
863.531	0.0163515
863.609	0.0165247
863.687	0.0165282
863.765	0.0165277
863.843	0.0164938
863.921	0.0166103
863.999	0.0165558
864.078	0.0164767
864.156	0.0164679
864.234	0.0165658
864.312	0.0164995
864.390	0.0165185
864.468	0.0167661
864.546	0.0165695
864.624	0.0165611
864.703	0.0165380
864.781	0.0166243
864.859	0.0165489
864.937	0.0165440
865.015	0.0165619
865.093	0.0164847
865.171	0.0164227
865.249	0.0164108
865.328	0.0164523
865.406	0.0164554
865.484	0.0164793
865.562	0.0164586
865.640	0.0163969
865.718	0.0165895
865.796	0.0164240
865.874	0.0165215
865.953	0.0164883
866.031	0.0164793
866.109	0.0164844
866.187	0.0164870
866.265	0.0166352
866.343	0.0165326
866.421	0.0164939
866.499	0.0166786
866.578	0.0165379
866.656	0.0166882
866.734	0.0166698
866.812	0.0167486
866.890	0.0167619
866.968	0.0168060
867.046	0.0169585
867.124	0.0169370
867.203	0.0166602
867.281	0.0167558
867.359	0.0169279
867.437	0.0169479
867.515	0.0167361
867.593	0.0167063
867.671	0.0165990
867.749	0.0168014
867.828	0.0168149
867.906	0.0166326
867.984	0.0166895
868.062	0.0166735
868.140	0.0165417
868.218	0.0165145
868.296	0.0166220
868.374	0.0165958
868.453	0.0165517
868.531	0.0162445
868.609	0.0162523
868.687	0.0163654
868.765	0.0164113
868.843	0.0163708
868.921	0.0162707
868.999	0.0163072
869.078	0.0162546
869.156	0.0163411
869.234	0.0163802
869.312	0.0165383
869.390	0.0163412
869.468	0.0164350
869.546	0.0165000
869.624	0.0166135
869.703	0.0166090
869.781	0.0164913
869.859	0.0165256
869.937	0.0165887
870.015	0.0165011
870.093	0.0165243
870.171	0.0165182
870.249	0.0164689
870.328	0.0164812
870.406	0.0165753
870.484	0.0165299
870.562	0.0164491
870.640	0.0164243
870.718	0.0162296
870.796	0.0160972
870.874	0.0162739
870.953	0.0163492
871.031	0.0162030
871.109	0.0162566
871.187	0.0163514
871.265	0.0162151
871.343	0.0162846
871.421	0.0163001
871.499	0.0163900
871.578	0.0165533
871.656	0.0165349
871.734	0.0166241
871.812	0.0166581
871.890	0.0167260
871.968	0.0167852
872.046	0.0167812
872.124	0.0169431
872.203	0.0168361
872.281	0.0168568
872.359	0.0169666
872.437	0.0169893
872.515	0.0170245
872.593	0.0170529
872.671	0.0169350
872.749	0.0169750
872.828	0.0167625
872.906	0.0169365
872.984	0.0168977
873.062	0.0167229
873.140	0.0167193
873.218	0.0166382
873.296	0.0165070
873.374	0.0166846
873.453	0.0165881
873.531	0.0163487
873.609	0.0164160
873.687	0.0163537
873.765	0.0162296
873.843	0.0163544
873.921	0.0162390
873.999	0.0162626
874.078	0.0162122
874.156	0.0162078
874.234	0.0161462
874.312	0.0161670
874.390	0.0160473
874.468	0.0161987
874.546	0.0161829
874.624	0.0162691
874.703	0.0163451
874.781	0.0162124
874.859	0.0162836
874.937	0.0164133
875.015	0.0163979
875.093	0.0163840
875.171	0.0164976
875.249	0.0165170
875.328	0.0165437
875.406	0.0166305
875.484	0.0166997
875.562	0.0166779
875.640	0.0165553
875.718	0.0166817
875.796	0.0169016
875.874	0.0167042
875.953	0.0166772
876.031	0.0167576
876.109	0.0167603
876.187	0.0167294
876.265	0.0167560
876.343	0.0167241
876.421	0.0166389
876.499	0.0167252
876.578	0.0166305
876.656	0.0166270
876.734	0.0166388
876.812	0.0166228
876.890	0.0165556
876.968	0.0164532
877.046	0.0164778
877.124	0.0163392
877.203	0.0164184
877.281	0.0163762
877.359	0.0162047
877.437	0.0164449
877.515	0.0162807
877.593	0.0163589
877.671	0.0164171
877.749	0.0163668
877.828	0.0165230
877.906	0.0163457
877.984	0.0165598
878.062	0.0165977
878.140	0.0166829
878.218	0.0166921
878.296	0.0168454
878.374	0.0167961
878.453	0.0167320
878.531	0.0168327
878.609	0.0169730
878.687	0.0168897
878.765	0.0168250
878.843	0.0168552
878.921	0.0168826
878.999	0.0169493
879.078	0.0169273
879.156	0.0168984
879.234	0.0169443
879.312	0.0167323
879.390	0.0166629
879.468	0.0167652
879.546	0.0166655
879.624	0.0165440
879.703	0.0162629
879.781	0.0164226
879.859	0.0164113
879.937	0.0162492
880.015	0.0162112
880.093	0.0161436
880.171	0.0162308
880.249	0.0161293
880.328	0.0161304
880.406	0.0162115
880.484	0.0160881
880.562	0.0159129
880.640	0.0160606
880.718	0.0159451
880.796	0.0161858
880.874	0.0162697
880.953	0.0162240
881.031	0.0161757
881.109	0.0164462
881.187	0.0164758
881.265	0.0164024
881.343	0.0162833
881.421	0.0166261
881.499	0.0165598
881.578	0.0166904
881.656	0.0166594
881.734	0.0167095
881.812	0.0168140
881.890	0.0168686
881.968	0.0167795
882.046	0.0168988
882.124	0.0169888
882.203	0.0168920
882.281	0.0168122
882.359	0.0168032
882.437	0.0168436
882.515	0.0168655
882.593	0.0166953
882.671	0.0166037
882.749	0.0165576
882.828	0.0166457
882.906	0.0166419
882.984	0.0165219
883.062	0.0165014
883.140	0.0164272
883.218	0.0164219
883.296	0.0164137
883.374	0.0163927
883.453	0.0164252
883.531	0.0164060
883.609	0.0163687
883.687	0.0164196
883.765	0.0164356
883.843	0.0163736
883.921	0.0163513
883.999	0.0164026
884.078	0.0164605
884.156	0.0163564
884.234	0.0165776
884.312	0.0165602
884.390	0.0163905
884.468	0.0164047
884.546	0.0165649
884.624	0.0165421
884.703	0.0166709
884.781	0.0165749
884.859	0.0165709
884.937	0.0166007
885.015	0.0165807
885.093	0.0166191
885.171	0.0165841
885.249	0.0164781
885.328	0.0165108
885.406	0.0165047
885.484	0.0165534
885.562	0.0166536
885.640	0.0164523
885.718	0.0165518
885.796	0.0166566
885.874	0.0165209
885.953	0.0164753
886.031	0.0165540
886.109	0.0165056
886.187	0.0164982
886.265	0.0165402
886.343	0.0165130
886.421	0.0165327
886.499	0.0165543
886.578	0.0165734
886.656	0.0165888
886.734	0.0165726
886.812	0.0164120
886.890	0.0166483
886.968	0.0165381
887.046	0.0165298
887.124	0.0165443
887.203	0.0165244
887.281	0.0164761
887.359	0.0164785
887.437	0.0165073
887.515	0.0164031
887.593	0.0164752
887.671	0.0165981
887.749	0.0165511
887.828	0.0165683
887.906	0.0165972
887.984	0.0165112
888.062	0.0165462
888.140	0.0165446
888.218	0.0164869
888.296	0.0164803
888.374	0.0165202
888.453	0.0166235
888.531	0.0164114
888.609	0.0165852
888.687	0.0165437
888.765	0.0165244
888.843	0.0166119
888.921	0.0165851
888.999	0.0164188
889.078	0.0164398
889.156	0.0163556
889.234	0.0164407
889.312	0.0165458
889.390	0.0164542
889.468	0.0164149
889.546	0.0165471
889.624	0.0166618
889.703	0.0166402
889.781	0.0165905
889.859	0.0167376
889.937	0.0167613
890.015	0.0168190
890.093	0.0167413
890.171	0.0168012
890.249	0.0167117
890.328	0.0168443
890.406	0.0168038
890.484	0.0168137
890.562	0.0167376
890.640	0.0166840
890.718	0.0166566
890.796	0.0166199
890.874	0.0166163
890.953	0.0165514
891.031	0.0165052
891.109	0.0164690
891.187	0.0163376
891.265	0.0163630
891.343	0.0164230
891.421	0.0163966
891.499	0.0163757
891.578	0.0163055
891.656	0.0162874
891.734	0.0163216
891.812	0.0162720
891.890	0.0163917
891.968	0.0162623
892.046	0.0163155
892.124	0.0163525
892.203	0.0164165
892.281	0.0165234
892.359	0.0164883
892.437	0.0164297
892.515	0.0165448
892.593	0.0164843
892.671	0.0165862
892.749	0.0165416
892.828	0.0166895
892.906	0.0166997
892.984	0.0167017
893.062	0.0167262
893.140	0.0167227
893.218	0.0166940
893.296	0.0167881
893.374	0.0167847
893.453	0.0167409
893.531	0.0168678
893.609	0.0167059
893.687	0.0167480
893.765	0.0168363
893.843	0.0166010
893.921	0.0166037
893.999	0.0167110
894.078	0.0164411
894.156	0.0166026
894.234	0.0166805
894.312	0.0164862
894.390	0.0164355
894.468	0.0164959
894.546	0.0163158
894.624	0.0163787
894.703	0.0163255
894.781	0.0163161
894.859	0.0164935
894.937	0.0163188
895.015	0.0163308
895.093	0.0162292
895.171	0.0162033
895.249	0.0163367
895.328	0.0164724
895.406	0.0162953
895.484	0.0164543
895.562	0.0164286
895.640	0.0163824
895.718	0.0164819
895.796	0.0165627
895.874	0.0165653
895.953	0.0165550
896.031	0.0166805
896.109	0.0165495
896.187	0.0166344
896.265	0.0165382
896.343	0.0166412
896.421	0.0165499
896.499	0.0165011
896.578	0.0165787
896.656	0.0165199
896.734	0.0166108
896.812	0.0166434
896.890	0.0164488
896.968	0.0164992
897.046	0.0164126
897.124	0.0165462
897.203	0.0164008
897.281	0.0166394
897.359	0.0165788
897.437	0.0164607
897.515	0.0166228
897.593	0.0165530
897.671	0.0164922
897.749	0.0163811
897.828	0.0164395
897.906	0.0165451
897.984	0.0165749
898.062	0.0164524
898.140	0.0166016
898.218	0.0165875
898.296	0.0165073
898.374	0.0166181
898.453	0.0166631
898.531	0.0167029
898.609	0.0166482
898.687	0.0165883
898.765	0.0164502
898.843	0.0166545
898.921	0.0166929
898.999	0.0166688
899.078	0.0166151
899.156	0.0165430
899.234	0.0165311
899.312	0.0164651
899.390	0.0164632
899.468	0.0165623
899.546	0.0164228
899.624	0.0164401
899.703	0.0165451
899.781	0.0163987
899.859	0.0163074
899.937	0.0162537
900.015	0.0162318
900.093	0.0161805
900.171	0.0163577
900.249	0.0163371
900.328	0.0162732
900.406	0.0164108
900.484	0.0163513
900.562	0.0163609
900.640	0.0163923
900.718	0.0163589
900.796	0.0164487
900.874	0.0165208
900.953	0.0165151
901.031	0.0166257
901.109	0.0165501
901.187	0.0165755
901.265	0.0166272
901.343	0.0166721
901.421	0.0166624
901.499	0.0165763
901.578	0.0166545
901.656	0.0164299
901.734	0.0164550
901.812	0.0166873
901.890	0.0165895
901.968	0.0165606
902.046	0.0166743
902.124	0.0164435
902.203	0.0164631
902.281	0.0164323
902.359	0.0166003
902.437	0.0165466
902.515	0.0164793
902.593	0.0165334
902.671	0.0164945
902.749	0.0164981
902.828	0.0165704
902.906	0.0163666
902.984	0.0163849
903.062	0.0164771
903.140	0.0163050
903.218	0.0164674
903.296	0.0163786
903.374	0.0163628
903.453	0.0163248
903.531	0.0165672
903.609	0.0164092
903.687	0.0164662
903.765	0.0163929
903.843	0.0163346
903.921	0.0165435
903.999	0.0164301
904.078	0.0164050
904.156	0.0165437
904.234	0.0165195
904.312	0.0166075
904.390	0.0165631
904.468	0.0164799
904.546	0.0165750
904.624	0.0166721
904.703	0.0164750
904.781	0.0166130
904.859	0.0164233
904.937	0.0164951
905.015	0.0165775
905.093	0.0166656
905.171	0.0164220
905.249	0.0164716
905.328	0.0164294
905.406	0.0164641
905.484	0.0163696
905.562	0.0164433
905.640	0.0165623
905.718	0.0165926
905.796	0.0165366
905.874	0.0163628
905.953	0.0163828
906.031	0.0164516
906.109	0.0164756
906.187	0.0164028
906.265	0.0164905
906.343	0.0164349
906.421	0.0165176
906.499	0.0167477
906.578	0.0165635
906.656	0.0166564
906.734	0.0166891
906.812	0.0167538
906.890	0.0167370
906.968	0.0166985
907.046	0.0168784
907.124	0.0168074
907.203	0.0167062
907.281	0.0166718
907.359	0.0167249
907.437	0.0167936
907.515	0.0167619
907.593	0.0166312
907.671	0.0166959
907.749	0.0166608
907.828	0.0165596
907.906	0.0163953
907.984	0.0164043
908.062	0.0165015
908.140	0.0165141
908.218	0.0163734
908.296	0.0163546
908.374	0.0163505
908.453	0.0163643
908.531	0.0163792
908.609	0.0163647
908.687	0.0164084
908.765	0.0164432
908.843	0.0163966
908.921	0.0164793
908.999	0.0165702
909.078	0.0165792
909.156	0.0165717
909.234	0.0165888
909.312	0.0167289
909.390	0.0167081
909.468	0.0166630
909.546	0.0167841
909.624	0.0167091
909.703	0.0168188
909.781	0.0165899
909.859	0.0167142
909.937	0.0166880
910.015	0.0166858
910.093	0.0165034
910.171	0.0166566
910.249	0.0165218
910.328	0.0164787
910.406	0.0166463
910.484	0.0165781
910.562	0.0165531
910.640	0.0165855
910.718	0.0165274
910.796	0.0165111
910.874	0.0164643
910.953	0.0165427
911.031	0.0164510
911.109	0.0164937
911.187	0.0164545
911.265	0.0163821
911.343	0.0164713
911.421	0.0164646
911.499	0.0164865
911.578	0.0164272
911.656	0.0163854
911.734	0.0162760
911.812	0.0164028
911.890	0.0163297
911.968	0.0164655
912.046	0.0165125
912.124	0.0164372
912.203	0.0165414
912.281	0.0164909
912.359	0.0165975
912.437	0.0164591
912.515	0.0166904
912.593	0.0166652
912.671	0.0166293
912.749	0.0167430
912.828	0.0166584
912.906	0.0166831
912.984	0.0166420
913.062	0.0166806
913.140	0.0166422
913.218	0.0167124
913.296	0.0166460
913.374	0.0166970
913.453	0.0165623
913.531	0.0166695
913.609	0.0165857
913.687	0.0166277
913.765	0.0166275
913.843	0.0165707
913.921	0.0166441
913.999	0.0165676
914.078	0.0166833
914.156	0.0165328
914.234	0.0164159
914.312	0.0164613
914.390	0.0164495
914.468	0.0165460
914.546	0.0165454
914.624	0.0165115
914.703	0.0164545
914.781	0.0165231
914.859	0.0164323
914.937	0.0163589
915.015	0.0163721
915.093	0.0164829
915.171	0.0164054
915.249	0.0165390
915.328	0.0164419
915.406	0.0164721
915.484	0.0165625
915.562	0.0165166
915.640	0.0165082
915.718	0.0164985
915.796	0.0165897
915.874	0.0165850
915.953	0.0166151
916.031	0.0165003
916.109	0.0164635
916.187	0.0165073
916.265	0.0164821
916.343	0.0165327
916.421	0.0164616
916.499	0.0165322
916.578	0.0166398
916.656	0.0164680
916.734	0.0164417
916.812	0.0163787
916.890	0.0164973
916.968	0.0164903
917.046	0.0164471
917.124	0.0164320
917.203	0.0163770
917.281	0.0164104
917.359	0.0164102
917.437	0.0164223
917.515	0.0163708
917.593	0.0164001
917.671	0.0163191
917.749	0.0163989
917.828	0.0164919
917.906	0.0165557
917.984	0.0163721
918.062	0.0164294
918.140	0.0164919
918.218	0.0165867
918.296	0.0165950
918.374	0.0166238
918.453	0.0166742
918.531	0.0165992
918.609	0.0167458
918.687	0.0166541
918.765	0.0166292
918.843	0.0165655
918.921	0.0165645
918.999	0.0165583
919.078	0.0165759
919.156	0.0166754
919.234	0.0166251
919.312	0.0164943
919.390	0.0165516
919.468	0.0164931
919.546	0.0164626
919.624	0.0165938
919.703	0.0163480
919.781	0.0163255
919.859	0.0163565
919.937	0.0164056
