06/10/2022	18:31:34	Ver.	4.1	UNKNOWN
Optical Delay	600.015094	Delta X		0.078125	Sweeps	1	Scan Rate	0/0
Coordinates	Axis 1	NaN	Axis 2	NaN	Axis 3	NaN	Axis 4	NaN	Axis 5	NaN	Axis 6	0.000000
TX Power	0.000000	RX Power	0.000000

600.015	0.0163211
600.093	0.0162452
600.171	0.0163109
600.249	0.0164405
600.328	0.0164170
600.406	0.0163494
600.484	0.0163782
600.562	0.0163764
600.640	0.0163532
600.718	0.0164562
600.796	0.0162038
600.874	0.0160883
600.953	0.0163586
601.031	0.0162786
601.109	0.0163090
601.187	0.0163564
601.265	0.0163602
601.343	0.0163288
601.421	0.0161694
601.499	0.0164074
601.578	0.0163586
601.656	0.0163950
601.734	0.0164090
601.812	0.0163584
601.890	0.0165232
601.968	0.0163364
602.046	0.0163387
602.124	0.0163380
602.203	0.0163253
602.281	0.0163358
602.359	0.0164420
602.437	0.0163088
602.515	0.0162772
602.593	0.0162222
602.671	0.0163849
602.749	0.0164072
602.828	0.0163499
602.906	0.0162640
602.984	0.0164737
603.062	0.0163506
603.140	0.0162960
603.218	0.0162887
603.296	0.0163443
603.374	0.0163682
603.453	0.0164330
603.531	0.0163978
603.609	0.0164236
603.687	0.0163694
603.765	0.0164410
603.843	0.0163725
603.921	0.0162890
603.999	0.0162931
604.078	0.0163795
604.156	0.0163847
604.234	0.0164830
604.312	0.0163673
604.390	0.0163728
604.468	0.0163118
604.546	0.0163760
604.624	0.0162560
604.703	0.0163581
604.781	0.0163684
604.859	0.0162895
604.937	0.0163319
605.015	0.0161822
605.093	0.0164185
605.171	0.0163963
605.249	0.0163592
605.328	0.0164663
605.406	0.0162524
605.484	0.0162564
605.562	0.0163268
605.640	0.0164031
605.718	0.0164156
605.796	0.0163940
605.874	0.0164068
605.953	0.0163515
606.031	0.0162160
606.109	0.0164601
606.187	0.0162344
606.265	0.0164010
606.343	0.0162998
606.421	0.0163148
606.499	0.0163245
606.578	0.0163144
606.656	0.0162843
606.734	0.0164105
606.812	0.0163124
606.890	0.0163216
606.968	0.0163878
607.046	0.0163956
607.124	0.0163669
607.203	0.0164925
607.281	0.0163521
607.359	0.0162740
607.437	0.0163873
607.515	0.0163583
607.593	0.0163012
607.671	0.0164133
607.749	0.0163931
607.828	0.0162916
607.906	0.0163212
607.984	0.0163365
608.062	0.0163821
608.140	0.0163582
608.218	0.0163396
608.296	0.0163698
608.374	0.0163863
608.453	0.0163899
608.531	0.0162792
608.609	0.0162696
608.687	0.0164088
608.765	0.0162682
608.843	0.0163914
608.921	0.0163994
608.999	0.0162666
609.078	0.0163326
609.156	0.0165267
609.234	0.0162769
609.312	0.0163678
609.390	0.0163942
609.468	0.0163624
609.546	0.0164419
609.624	0.0162723
609.703	0.0163008
609.781	0.0163538
609.859	0.0164628
609.937	0.0162618
610.015	0.0161956
610.093	0.0163517
610.171	0.0162727
610.249	0.0162790
610.328	0.0164234
610.406	0.0162411
610.484	0.0161983
610.562	0.0162659
610.640	0.0163858
610.718	0.0164388
610.796	0.0164670
610.874	0.0163013
610.953	0.0162457
611.031	0.0162692
611.109	0.0162133
611.187	0.0163903
611.265	0.0163246
611.343	0.0162780
611.421	0.0162940
611.499	0.0162251
611.578	0.0162922
611.656	0.0163301
611.734	0.0163061
611.812	0.0163032
611.890	0.0162959
611.968	0.0163088
612.046	0.0162766
612.124	0.0162752
612.203	0.0163809
612.281	0.0163277
612.359	0.0162217
612.437	0.0162582
612.515	0.0164120
612.593	0.0163712
612.671	0.0162939
612.749	0.0163705
612.828	0.0164073
612.906	0.0162133
612.984	0.0162156
613.062	0.0162542
613.140	0.0163976
613.218	0.0162897
613.296	0.0163166
613.374	0.0163593
613.453	0.0162228
613.531	0.0162526
613.609	0.0163251
613.687	0.0163586
613.765	0.0161964
613.843	0.0162324
613.921	0.0162534
613.999	0.0163267
614.078	0.0163349
614.156	0.0163931
614.234	0.0163231
614.312	0.0163293
614.390	0.0162848
614.468	0.0163281
614.546	0.0163055
614.624	0.0162544
614.703	0.0162473
614.781	0.0163069
614.859	0.0164173
614.937	0.0163110
615.015	0.0162931
615.093	0.0163100
615.171	0.0162704
615.249	0.0163048
615.328	0.0163445
615.406	0.0163618
615.484	0.0163116
615.562	0.0163651
615.640	0.0162586
615.718	0.0163227
615.796	0.0164813
615.874	0.0163810
615.953	0.0163316
616.031	0.0163256
616.109	0.0163395
616.187	0.0162751
616.265	0.0163065
616.343	0.0164129
616.421	0.0163052
616.499	0.0163458
616.578	0.0162974
616.656	0.0163543
616.734	0.0162965
616.812	0.0162057
616.890	0.0162921
616.968	0.0162688
617.046	0.0161269
617.124	0.0162070
617.203	0.0164119
617.281	0.0165107
617.359	0.0163140
617.437	0.0162825
617.515	0.0163321
617.593	0.0163437
617.671	0.0163011
617.749	0.0163913
617.828	0.0164040
617.906	0.0163268
617.984	0.0163176
618.062	0.0163215
618.140	0.0163631
618.218	0.0163416
618.296	0.0162965
618.374	0.0162206
618.453	0.0163364
618.531	0.0164470
618.609	0.0162804
618.687	0.0163029
618.765	0.0164182
618.843	0.0163715
618.921	0.0160999
618.999	0.0164763
619.078	0.0164457
619.156	0.0163268
619.234	0.0162012
619.312	0.0163312
619.390	0.0163274
619.468	0.0163052
619.546	0.0163433
619.624	0.0163653
619.703	0.0162631
619.781	0.0162434
619.859	0.0162256
619.937	0.0162684
620.015	0.0163329
620.093	0.0162654
620.171	0.0164082
620.249	0.0162039
620.328	0.0163195
620.406	0.0164619
620.484	0.0163715
620.562	0.0162580
620.640	0.0163320
620.718	0.0163654
620.796	0.0164250
620.874	0.0163050
620.953	0.0161839
621.031	0.0163467
621.109	0.0161951
621.187	0.0160892
621.265	0.0163561
621.343	0.0163383
621.421	0.0162740
621.499	0.0164283
621.578	0.0163237
621.656	0.0162205
621.734	0.0163398
621.812	0.0162157
621.890	0.0162405
621.968	0.0162234
622.046	0.0161392
622.124	0.0161487
622.203	0.0163354
622.281	0.0163813
622.359	0.0161813
622.437	0.0163663
622.515	0.0161229
622.593	0.0162507
622.671	0.0161588
622.749	0.0161720
622.828	0.0163372
622.906	0.0161525
622.984	0.0162772
623.062	0.0163158
623.140	0.0161709
623.218	0.0162011
623.296	0.0161967
623.374	0.0163858
623.453	0.0163759
623.531	0.0162764
623.609	0.0162929
623.687	0.0162555
623.765	0.0161954
623.843	0.0162981
623.921	0.0163442
623.999	0.0163241
624.078	0.0163413
624.156	0.0163110
624.234	0.0163491
624.312	0.0162086
624.390	0.0161827
624.468	0.0164160
624.546	0.0163130
624.624	0.0162591
624.703	0.0162077
624.781	0.0163145
624.859	0.0164090
624.937	0.0162587
625.015	0.0163790
625.093	0.0163286
625.171	0.0164041
625.249	0.0164737
625.328	0.0163374
625.406	0.0163004
625.484	0.0162360
625.562	0.0163944
625.640	0.0163542
625.718	0.0163923
625.796	0.0162299
625.874	0.0163916
625.953	0.0163725
626.031	0.0162419
626.109	0.0163445
626.187	0.0163080
626.265	0.0162596
626.343	0.0163110
626.421	0.0163985
626.499	0.0163435
626.578	0.0162309
626.656	0.0162234
626.734	0.0162232
626.812	0.0162903
626.890	0.0162841
626.968	0.0162315
627.046	0.0163602
627.124	0.0163634
627.203	0.0163297
627.281	0.0162008
627.359	0.0162863
627.437	0.0164772
627.515	0.0162075
627.593	0.0161748
627.671	0.0163065
627.749	0.0162363
627.828	0.0163107
627.906	0.0162393
627.984	0.0162077
628.062	0.0162848
628.140	0.0163815
628.218	0.0162679
628.296	0.0163088
628.374	0.0162514
628.453	0.0163526
628.531	0.0163150
628.609	0.0162678
628.687	0.0162778
628.765	0.0163159
628.843	0.0162238
628.921	0.0161623
628.999	0.0163863
629.078	0.0163313
629.156	0.0161261
629.234	0.0162489
629.312	0.0163876
629.390	0.0163155
629.468	0.0162140
629.546	0.0162669
629.624	0.0162771
629.703	0.0163141
629.781	0.0163200
629.859	0.0162509
629.937	0.0163065
630.015	0.0162939
630.093	0.0163036
630.171	0.0163257
630.249	0.0162745
630.328	0.0162809
630.406	0.0161640
630.484	0.0163999
630.562	0.0162789
630.640	0.0163191
630.718	0.0164382
630.796	0.0161865
630.874	0.0163219
630.953	0.0162988
631.031	0.0163272
631.109	0.0163763
631.187	0.0163700
631.265	0.0163261
631.343	0.0163309
631.421	0.0163632
631.499	0.0164079
631.578	0.0162593
631.656	0.0162398
631.734	0.0163259
631.812	0.0162605
631.890	0.0162437
631.968	0.0163599
632.046	0.0163188
632.124	0.0162671
632.203	0.0163705
632.281	0.0161655
632.359	0.0163120
632.437	0.0162293
632.515	0.0162841
632.593	0.0164191
632.671	0.0162276
632.749	0.0164758
632.828	0.0162350
632.906	0.0162409
632.984	0.0161927
633.062	0.0161198
633.140	0.0163000
633.218	0.0163461
633.296	0.0163062
633.374	0.0163055
633.453	0.0162744
633.531	0.0163244
633.609	0.0163271
633.687	0.0163106
633.765	0.0162163
633.843	0.0162133
633.921	0.0163029
633.999	0.0162614
634.078	0.0163827
634.156	0.0162416
634.234	0.0162744
634.312	0.0163841
634.390	0.0162818
634.468	0.0162421
634.546	0.0162894
634.624	0.0163754
634.703	0.0163508
634.781	0.0162156
634.859	0.0162226
634.937	0.0162813
635.015	0.0162942
635.093	0.0163071
635.171	0.0162646
635.249	0.0162449
635.328	0.0164182
635.406	0.0162508
635.484	0.0163425
635.562	0.0164192
635.640	0.0163889
635.718	0.0162565
635.796	0.0163104
635.874	0.0163824
635.953	0.0162917
636.031	0.0163125
636.109	0.0163054
636.187	0.0163511
636.265	0.0164279
636.343	0.0164014
636.421	0.0164114
636.499	0.0163976
636.578	0.0163828
636.656	0.0163805
636.734	0.0162886
636.812	0.0164683
636.890	0.0163619
636.968	0.0163403
637.046	0.0163026
637.124	0.0162005
637.203	0.0162988
637.281	0.0161797
637.359	0.0162820
637.437	0.0162125
637.515	0.0162257
637.593	0.0165302
637.671	0.0162473
637.749	0.0164143
637.828	0.0163457
637.906	0.0163980
637.984	0.0163072
638.062	0.0163003
638.140	0.0163595
638.218	0.0164084
638.296	0.0162214
638.374	0.0163608
638.453	0.0163328
638.531	0.0163103
638.609	0.0162988
638.687	0.0162807
638.765	0.0163524
638.843	0.0165055
638.921	0.0164693
638.999	0.0164056
639.078	0.0164814
639.156	0.0163094
639.234	0.0163677
639.312	0.0164051
639.390	0.0163263
639.468	0.0163364
639.546	0.0162871
639.624	0.0163453
639.703	0.0163251
639.781	0.0162423
639.859	0.0162400
639.937	0.0162940
640.015	0.0163280
640.093	0.0163063
640.171	0.0163503
640.249	0.0164279
640.328	0.0163512
640.406	0.0162149
640.484	0.0164234
640.562	0.0162830
640.640	0.0164032
640.718	0.0163593
640.796	0.0162220
640.874	0.0163831
640.953	0.0162894
641.031	0.0163535
641.109	0.0163184
641.187	0.0161915
641.265	0.0164198
641.343	0.0163278
641.421	0.0163575
641.499	0.0162666
641.578	0.0162302
641.656	0.0164617
641.734	0.0163171
641.812	0.0162800
641.890	0.0163321
641.968	0.0163068
642.046	0.0163668
642.124	0.0163670
642.203	0.0163506
642.281	0.0163253
642.359	0.0163879
642.437	0.0163362
642.515	0.0163837
642.593	0.0163244
642.671	0.0162193
642.749	0.0161878
642.828	0.0163583
642.906	0.0163013
642.984	0.0162917
643.062	0.0162621
643.140	0.0163090
643.218	0.0163554
643.296	0.0163776
643.374	0.0163583
643.453	0.0161937
643.531	0.0163144
643.609	0.0163795
643.687	0.0162476
643.765	0.0163573
643.843	0.0162164
643.921	0.0163670
643.999	0.0162701
644.078	0.0161919
644.156	0.0162290
644.234	0.0162344
644.312	0.0162634
644.390	0.0163573
644.468	0.0161778
644.546	0.0163181
644.624	0.0161656
644.703	0.0161359
644.781	0.0164043
644.859	0.0164891
644.937	0.0163551
645.015	0.0162830
645.093	0.0162397
645.171	0.0162791
645.249	0.0163779
645.328	0.0162522
645.406	0.0163186
645.484	0.0163530
645.562	0.0162338
645.640	0.0162708
645.718	0.0162694
645.796	0.0163506
645.874	0.0163965
645.953	0.0163048
646.031	0.0164230
646.109	0.0163564
646.187	0.0162675
646.265	0.0163266
646.343	0.0163235
646.421	0.0161702
646.499	0.0163846
646.578	0.0161685
646.656	0.0163590
646.734	0.0164439
646.812	0.0162875
646.890	0.0161697
646.968	0.0163518
647.046	0.0164455
647.124	0.0163084
647.203	0.0163206
647.281	0.0162829
647.359	0.0163476
647.437	0.0161984
647.515	0.0162650
647.593	0.0161604
647.671	0.0161670
647.749	0.0162801
647.828	0.0163867
647.906	0.0163837
647.984	0.0162764
648.062	0.0163216
648.140	0.0162627
648.218	0.0162355
648.296	0.0162773
648.374	0.0164351
648.453	0.0162426
648.531	0.0163708
648.609	0.0162000
648.687	0.0162183
648.765	0.0163651
648.843	0.0161694
648.921	0.0164093
648.999	0.0163496
649.078	0.0162509
649.156	0.0163664
649.234	0.0162266
649.312	0.0163582
649.390	0.0162372
649.468	0.0162992
649.546	0.0162856
649.624	0.0162955
649.703	0.0163235
649.781	0.0162666
649.859	0.0162424
649.937	0.0163221
650.015	0.0162760
650.093	0.0162765
650.171	0.0162500
650.249	0.0163421
650.328	0.0162251
650.406	0.0163511
650.484	0.0163004
650.562	0.0162817
650.640	0.0163007
650.718	0.0161662
650.796	0.0163988
650.874	0.0162550
650.953	0.0163629
651.031	0.0164175
651.109	0.0163096
651.187	0.0163028
651.265	0.0162417
651.343	0.0163784
651.421	0.0163789
651.499	0.0162418
651.578	0.0164045
651.656	0.0162855
651.734	0.0163390
651.812	0.0163179
651.890	0.0163441
651.968	0.0160905
652.046	0.0162398
652.124	0.0163544
652.203	0.0163984
652.281	0.0163321
652.359	0.0162673
652.437	0.0163343
652.515	0.0163013
652.593	0.0163985
652.671	0.0163615
652.749	0.0162994
652.828	0.0162630
652.906	0.0162494
652.984	0.0163197
653.062	0.0163449
653.140	0.0162486
653.218	0.0162960
653.296	0.0163246
653.374	0.0162656
653.453	0.0162684
653.531	0.0164035
653.609	0.0162489
653.687	0.0162202
653.765	0.0163742
653.843	0.0163177
653.921	0.0162560
653.999	0.0162287
654.078	0.0162406
654.156	0.0162751
654.234	0.0162192
654.312	0.0163216
654.390	0.0163102
654.468	0.0163211
654.546	0.0162096
654.624	0.0164066
654.703	0.0163972
654.781	0.0162027
654.859	0.0162276
654.937	0.0161903
655.015	0.0160558
655.093	0.0162479
655.171	0.0162932
655.249	0.0163577
655.328	0.0163661
655.406	0.0162819
655.484	0.0163068
655.562	0.0163584
655.640	0.0161165
655.718	0.0162167
655.796	0.0163290
655.874	0.0164058
655.953	0.0162234
656.031	0.0162401
656.109	0.0161663
656.187	0.0162109
656.265	0.0163154
656.343	0.0162525
656.421	0.0161947
656.499	0.0163451
656.578	0.0162402
656.656	0.0162357
656.734	0.0163252
656.812	0.0161507
656.890	0.0162408
656.968	0.0162777
657.046	0.0162857
657.124	0.0164258
657.203	0.0162321
657.281	0.0163548
657.359	0.0162661
657.437	0.0163185
657.515	0.0163877
657.593	0.0164037
657.671	0.0162431
657.749	0.0162498
657.828	0.0162566
657.906	0.0163194
657.984	0.0163634
658.062	0.0162685
658.140	0.0162354
658.218	0.0162831
658.296	0.0162568
658.374	0.0162796
658.453	0.0163398
658.531	0.0162866
658.609	0.0163831
658.687	0.0162012
658.765	0.0162816
658.843	0.0162968
658.921	0.0162408
658.999	0.0163276
659.078	0.0164088
659.156	0.0161623
659.234	0.0163465
659.312	0.0163508
659.390	0.0162827
659.468	0.0162927
659.546	0.0163246
659.624	0.0163425
659.703	0.0162481
659.781	0.0161950
659.859	0.0164082
659.937	0.0163220
660.015	0.0162626
660.093	0.0163048
660.171	0.0162856
660.249	0.0162990
660.328	0.0162855
660.406	0.0163370
660.484	0.0163987
660.562	0.0162887
660.640	0.0163635
660.718	0.0163976
660.796	0.0162833
660.874	0.0163137
660.953	0.0161388
661.031	0.0162938
661.109	0.0163797
661.187	0.0164813
661.265	0.0162934
661.343	0.0162676
661.421	0.0162891
661.499	0.0162632
661.578	0.0162471
661.656	0.0163549
661.734	0.0162799
661.812	0.0163362
661.890	0.0163020
661.968	0.0163184
662.046	0.0162068
662.124	0.0162237
662.203	0.0164383
662.281	0.0162174
662.359	0.0162031
662.437	0.0162233
662.515	0.0163600
662.593	0.0161798
662.671	0.0162815
662.749	0.0165483
662.828	0.0163158
662.906	0.0162980
662.984	0.0162644
663.062	0.0161250
663.140	0.0163743
663.218	0.0162801
663.296	0.0161795
663.374	0.0162460
663.453	0.0163046
663.531	0.0162749
663.609	0.0162579
663.687	0.0164156
663.765	0.0163518
663.843	0.0162379
663.921	0.0163432
663.999	0.0163094
664.078	0.0163121
664.156	0.0163358
664.234	0.0162936
664.312	0.0161612
664.390	0.0162538
664.468	0.0163705
664.546	0.0163881
664.624	0.0163052
664.703	0.0164938
664.781	0.0162964
664.859	0.0162729
664.937	0.0163876
665.015	0.0163033
665.093	0.0162173
665.171	0.0163654
665.249	0.0163042
665.328	0.0163427
665.406	0.0162525
665.484	0.0163103
665.562	0.0161798
665.640	0.0162142
665.718	0.0163872
665.796	0.0163085
665.874	0.0162416
665.953	0.0161741
666.031	0.0162363
666.109	0.0161906
666.187	0.0162604
666.265	0.0162785
666.343	0.0162503
666.421	0.0162904
666.499	0.0163239
666.578	0.0162597
666.656	0.0163830
666.734	0.0163530
666.812	0.0163431
666.890	0.0162617
666.968	0.0163062
667.046	0.0162920
667.124	0.0163802
667.203	0.0162550
667.281	0.0163803
667.359	0.0163708
667.437	0.0163725
667.515	0.0163726
667.593	0.0161720
667.671	0.0162264
667.749	0.0163145
667.828	0.0162942
667.906	0.0162537
667.984	0.0162770
668.062	0.0162627
668.140	0.0163931
668.218	0.0162915
668.296	0.0161514
668.374	0.0161604
668.453	0.0161582
668.531	0.0163538
668.609	0.0162553
668.687	0.0163889
668.765	0.0163483
668.843	0.0162648
668.921	0.0162614
668.999	0.0162296
669.078	0.0163515
669.156	0.0163867
669.234	0.0162604
669.312	0.0162047
669.390	0.0162907
669.468	0.0163700
669.546	0.0163467
669.624	0.0162917
669.703	0.0164201
669.781	0.0162100
669.859	0.0163528
669.937	0.0163884
670.015	0.0163452
670.093	0.0162366
670.171	0.0163287
670.249	0.0161928
670.328	0.0161833
670.406	0.0161805
670.484	0.0163232
670.562	0.0163474
670.640	0.0161975
670.718	0.0162447
670.796	0.0162220
670.874	0.0162181
670.953	0.0162122
671.031	0.0162310
671.109	0.0162491
671.187	0.0163508
671.265	0.0162506
671.343	0.0161596
671.421	0.0163158
671.499	0.0161280
671.578	0.0163023
671.656	0.0163970
671.734	0.0162832
671.812	0.0163033
671.890	0.0162854
671.968	0.0162724
672.046	0.0163161
672.124	0.0163020
672.203	0.0163544
672.281	0.0163587
672.359	0.0161911
672.437	0.0162311
672.515	0.0162580
672.593	0.0164015
672.671	0.0163255
672.749	0.0161566
672.828	0.0162703
672.906	0.0163207
672.984	0.0163625
673.062	0.0163314
673.140	0.0162782
673.218	0.0163786
673.296	0.0163274
673.374	0.0162518
673.453	0.0163028
673.531	0.0162253
673.609	0.0163129
673.687	0.0162651
673.765	0.0161932
673.843	0.0161564
673.921	0.0162610
673.999	0.0163696
674.078	0.0162122
674.156	0.0162280
674.234	0.0162705
674.312	0.0162564
674.390	0.0163776
674.468	0.0161242
674.546	0.0162337
674.624	0.0162421
674.703	0.0161135
674.781	0.0164169
674.859	0.0161859
674.937	0.0163503
675.015	0.0163295
675.093	0.0162450
675.171	0.0162574
675.249	0.0162820
675.328	0.0162203
675.406	0.0163972
675.484	0.0161980
675.562	0.0162661
675.640	0.0162459
675.718	0.0162110
675.796	0.0163084
675.874	0.0163187
675.953	0.0162239
676.031	0.0162973
676.109	0.0163198
676.187	0.0161836
676.265	0.0161144
676.343	0.0163895
676.421	0.0162283
676.499	0.0162485
676.578	0.0161790
676.656	0.0162647
676.734	0.0162994
676.812	0.0163224
676.890	0.0162156
676.968	0.0162378
677.046	0.0163236
677.124	0.0161847
677.203	0.0162185
677.281	0.0161400
677.359	0.0162990
677.437	0.0163115
677.515	0.0160991
677.593	0.0160481
677.671	0.0161433
677.749	0.0162589
677.828	0.0163857
677.906	0.0162875
677.984	0.0161677
678.062	0.0162678
678.140	0.0162524
678.218	0.0161071
678.296	0.0164070
678.374	0.0163324
678.453	0.0162929
678.531	0.0162854
678.609	0.0162695
678.687	0.0163210
678.765	0.0163329
678.843	0.0162489
678.921	0.0163284
678.999	0.0163477
679.078	0.0163153
679.156	0.0162912
679.234	0.0163111
679.312	0.0164148
679.390	0.0163731
679.468	0.0162151
679.546	0.0161175
679.624	0.0163185
679.703	0.0162923
679.781	0.0162523
679.859	0.0162952
679.937	0.0162917
680.015	0.0163667
680.093	0.0162500
680.171	0.0162361
680.249	0.0163563
680.328	0.0162988
680.406	0.0162024
680.484	0.0163342
680.562	0.0161233
680.640	0.0162566
680.718	0.0163874
680.796	0.0164700
680.874	0.0161588
680.953	0.0163457
681.031	0.0161713
681.109	0.0163424
681.187	0.0164154
681.265	0.0162801
681.343	0.0163525
681.421	0.0163840
681.499	0.0163889
681.578	0.0162000
681.656	0.0161239
681.734	0.0162282
681.812	0.0164525
681.890	0.0163147
681.968	0.0164201
682.046	0.0164619
682.124	0.0162418
682.203	0.0162218
682.281	0.0163576
682.359	0.0162971
682.437	0.0162354
682.515	0.0163196
682.593	0.0163548
682.671	0.0163285
682.749	0.0162787
682.828	0.0163283
682.906	0.0163377
682.984	0.0162634
683.062	0.0163380
683.140	0.0163507
683.218	0.0162919
683.296	0.0162862
683.374	0.0162896
683.453	0.0161713
683.531	0.0163327
683.609	0.0163309
683.687	0.0163469
683.765	0.0163148
683.843	0.0164179
683.921	0.0162418
683.999	0.0162965
684.078	0.0161581
684.156	0.0163003
684.234	0.0163438
684.312	0.0163230
684.390	0.0164127
684.468	0.0164542
684.546	0.0163010
684.624	0.0162498
684.703	0.0163897
684.781	0.0162705
684.859	0.0162040
684.937	0.0162715
685.015	0.0162868
685.093	0.0163878
685.171	0.0163968
685.249	0.0162854
685.328	0.0164561
685.406	0.0163970
685.484	0.0164474
685.562	0.0162208
685.640	0.0163943
685.718	0.0163123
685.796	0.0163943
685.874	0.0163789
685.953	0.0161285
686.031	0.0163794
686.109	0.0162786
686.187	0.0162614
686.265	0.0164260
686.343	0.0163287
686.421	0.0161800
686.499	0.0161922
686.578	0.0162694
686.656	0.0164023
686.734	0.0162483
686.812	0.0161777
686.890	0.0162183
686.968	0.0163989
687.046	0.0163223
687.124	0.0163203
687.203	0.0162624
687.281	0.0162997
687.359	0.0163133
687.437	0.0163778
687.515	0.0163132
687.593	0.0162311
687.671	0.0162951
687.749	0.0161965
687.828	0.0163834
687.906	0.0164326
687.984	0.0163680
688.062	0.0163462
688.140	0.0163103
688.218	0.0161919
688.296	0.0162527
688.374	0.0163710
688.453	0.0163601
688.531	0.0162936
688.609	0.0163322
688.687	0.0164068
688.765	0.0162176
688.843	0.0162862
688.921	0.0163097
688.999	0.0162645
689.078	0.0162235
689.156	0.0162930
689.234	0.0163124
689.312	0.0162739
689.390	0.0161497
689.468	0.0162516
689.546	0.0164154
689.624	0.0162334
689.703	0.0162656
689.781	0.0163799
689.859	0.0163110
689.937	0.0163387
690.015	0.0162092
690.093	0.0162439
690.171	0.0161646
690.249	0.0162910
690.328	0.0162966
690.406	0.0164274
690.484	0.0162036
690.562	0.0163494
690.640	0.0163516
690.718	0.0163029
690.796	0.0161572
690.874	0.0163002
690.953	0.0164839
691.031	0.0163369
691.109	0.0162674
691.187	0.0161900
691.265	0.0162664
691.343	0.0162978
691.421	0.0163139
691.499	0.0163613
691.578	0.0163371
691.656	0.0164224
691.734	0.0162757
691.812	0.0164407
691.890	0.0163343
691.968	0.0162852
692.046	0.0163107
692.124	0.0162155
692.203	0.0164103
692.281	0.0163058
692.359	0.0163737
692.437	0.0162842
692.515	0.0162009
692.593	0.0162410
692.671	0.0162596
692.749	0.0162847
692.828	0.0163606
692.906	0.0162523
692.984	0.0163766
693.062	0.0163666
693.140	0.0163497
693.218	0.0162167
693.296	0.0164071
693.374	0.0163319
693.453	0.0163013
693.531	0.0163867
693.609	0.0162383
693.687	0.0162794
693.765	0.0164133
693.843	0.0163527
693.921	0.0163195
693.999	0.0162052
694.078	0.0163060
694.156	0.0164141
694.234	0.0162877
694.312	0.0163169
694.390	0.0162502
694.468	0.0162208
694.546	0.0163422
694.624	0.0163531
694.703	0.0163244
694.781	0.0163525
694.859	0.0162466
694.937	0.0162579
695.015	0.0163695
695.093	0.0162180
695.171	0.0161883
695.249	0.0163425
695.328	0.0162988
695.406	0.0162187
695.484	0.0163426
695.562	0.0162862
695.640	0.0163158
695.718	0.0163365
695.796	0.0161015
695.874	0.0162656
695.953	0.0164153
696.031	0.0163089
696.109	0.0163897
696.187	0.0163120
696.265	0.0164650
696.343	0.0163148
696.421	0.0160965
696.499	0.0164269
696.578	0.0163120
696.656	0.0162494
696.734	0.0162572
696.812	0.0162133
696.890	0.0163432
696.968	0.0163397
697.046	0.0163084
697.124	0.0163294
697.203	0.0163065
697.281	0.0163143
697.359	0.0162584
697.437	0.0162105
697.515	0.0163089
697.593	0.0163243
697.671	0.0163913
697.749	0.0164040
697.828	0.0163335
697.906	0.0163708
697.984	0.0163622
698.062	0.0162450
698.140	0.0162495
698.218	0.0163272
698.296	0.0163194
698.374	0.0163457
698.453	0.0162666
698.531	0.0163409
698.609	0.0162550
698.687	0.0162619
698.765	0.0162528
698.843	0.0162872
698.921	0.0162857
698.999	0.0163551
699.078	0.0162932
699.156	0.0162698
699.234	0.0163435
699.312	0.0163753
699.390	0.0162788
699.468	0.0164164
699.546	0.0163416
699.624	0.0162280
699.703	0.0162650
699.781	0.0163751
699.859	0.0162701
699.937	0.0163136
700.015	0.0161594
700.093	0.0163442
700.171	0.0164359
700.249	0.0162421
700.328	0.0163109
700.406	0.0163788
700.484	0.0163226
700.562	0.0162630
700.640	0.0163678
700.718	0.0161913
700.796	0.0163933
700.874	0.0163367
700.953	0.0164210
701.031	0.0164002
701.109	0.0162991
701.187	0.0163206
701.265	0.0163855
701.343	0.0162173
701.421	0.0162827
701.499	0.0162852
701.578	0.0163464
701.656	0.0162273
701.734	0.0162673
701.812	0.0162456
701.890	0.0163027
701.968	0.0162619
702.046	0.0162357
702.124	0.0162759
702.203	0.0162312
702.281	0.0162808
702.359	0.0162083
702.437	0.0163739
702.515	0.0162370
702.593	0.0164198
702.671	0.0163508
702.749	0.0163336
702.828	0.0162741
702.906	0.0163170
702.984	0.0163489
703.062	0.0163275
703.140	0.0163153
703.218	0.0163065
703.296	0.0163826
703.374	0.0163888
703.453	0.0162947
703.531	0.0163853
703.609	0.0163185
703.687	0.0163042
703.765	0.0164023
703.843	0.0163206
703.921	0.0161541
703.999	0.0162663
704.078	0.0163218
704.156	0.0162637
704.234	0.0163287
704.312	0.0163625
704.390	0.0162086
704.468	0.0162216
704.546	0.0162154
704.624	0.0162586
704.703	0.0162805
704.781	0.0162837
704.859	0.0162748
704.937	0.0162731
705.015	0.0163074
705.093	0.0161263
705.171	0.0161982
705.249	0.0163425
705.328	0.0162344
705.406	0.0163316
705.484	0.0163504
705.562	0.0164026
705.640	0.0162378
705.718	0.0162016
705.796	0.0163280
705.874	0.0163394
705.953	0.0163560
706.031	0.0162810
706.109	0.0162296
706.187	0.0161875
706.265	0.0163107
706.343	0.0163091
706.421	0.0164511
706.499	0.0163798
706.578	0.0162114
706.656	0.0161648
706.734	0.0163234
706.812	0.0162230
706.890	0.0163271
706.968	0.0163287
707.046	0.0163440
707.124	0.0163640
707.203	0.0161823
707.281	0.0161913
707.359	0.0162635
707.437	0.0162862
707.515	0.0163473
707.593	0.0162198
707.671	0.0162942
707.749	0.0161628
707.828	0.0162678
707.906	0.0163715
707.984	0.0162942
708.062	0.0162564
708.140	0.0163938
708.218	0.0163448
708.296	0.0163722
708.374	0.0164191
708.453	0.0162805
708.531	0.0163121
708.609	0.0163361
708.687	0.0163145
708.765	0.0162899
708.843	0.0162688
708.921	0.0161975
708.999	0.0163850
709.078	0.0163759
709.156	0.0164364
709.234	0.0163165
709.312	0.0162863
709.390	0.0164088
709.468	0.0163105
709.546	0.0162123
709.624	0.0162994
709.703	0.0162975
709.781	0.0163566
709.859	0.0164059
709.937	0.0163940
710.015	0.0163958
710.093	0.0163157
710.171	0.0163187
710.249	0.0163201
710.328	0.0163618
710.406	0.0162487
710.484	0.0163277
710.562	0.0163029
710.640	0.0162868
710.718	0.0162088
710.796	0.0164055
710.874	0.0163736
710.953	0.0162083
711.031	0.0163111
711.109	0.0162542
711.187	0.0163229
711.265	0.0162112
711.343	0.0163234
711.421	0.0163799
711.499	0.0163795
711.578	0.0162206
711.656	0.0162466
711.734	0.0162827
711.812	0.0163444
711.890	0.0163285
711.968	0.0162824
712.046	0.0165031
712.124	0.0162496
712.203	0.0161684
712.281	0.0163621
712.359	0.0163799
712.437	0.0163968
712.515	0.0163397
712.593	0.0163931
712.671	0.0163161
712.749	0.0163380
712.828	0.0163621
712.906	0.0161942
712.984	0.0162772
713.062	0.0163046
713.140	0.0161546
713.218	0.0164536
713.296	0.0163888
713.374	0.0164563
713.453	0.0164132
713.531	0.0163520
713.609	0.0162936
713.687	0.0162795
713.765	0.0161558
713.843	0.0162800
713.921	0.0163441
713.999	0.0161823
714.078	0.0161902
714.156	0.0163035
714.234	0.0162859
714.312	0.0163425
714.390	0.0161796
714.468	0.0162457
714.546	0.0162794
714.624	0.0163007
714.703	0.0162879
714.781	0.0162939
714.859	0.0162365
714.937	0.0161411
715.015	0.0162512
715.093	0.0164256
715.171	0.0164352
715.249	0.0161524
715.328	0.0163056
715.406	0.0162918
715.484	0.0163789
715.562	0.0162699
715.640	0.0162711
715.718	0.0163805
715.796	0.0163724
715.874	0.0165253
715.953	0.0162938
716.031	0.0163058
716.109	0.0162559
716.187	0.0162298
716.265	0.0162551
716.343	0.0162993
716.421	0.0163956
716.499	0.0163454
716.578	0.0161512
716.656	0.0162019
716.734	0.0163392
716.812	0.0163963
716.890	0.0162701
716.968	0.0162560
717.046	0.0164878
717.124	0.0163507
717.203	0.0161898
717.281	0.0163103
717.359	0.0163400
717.437	0.0162959
717.515	0.0164706
717.593	0.0164401
717.671	0.0163040
717.749	0.0162838
717.828	0.0163319
717.906	0.0163878
717.984	0.0164027
718.062	0.0163465
718.140	0.0162540
718.218	0.0162496
718.296	0.0162134
718.374	0.0162790
718.453	0.0163435
718.531	0.0162435
718.609	0.0163464
718.687	0.0162574
718.765	0.0162106
718.843	0.0163023
718.921	0.0163763
718.999	0.0162968
719.078	0.0163309
719.156	0.0163289
719.234	0.0163294
719.312	0.0163546
719.390	0.0164042
719.468	0.0162717
719.546	0.0161945
719.624	0.0163311
719.703	0.0161853
719.781	0.0163542
719.859	0.0162363
719.937	0.0163329
720.015	0.0162378
720.093	0.0163696
720.171	0.0163541
720.249	0.0163470
720.328	0.0163273
720.406	0.0162586
720.484	0.0162964
720.562	0.0162411
720.640	0.0161813
720.718	0.0163218
720.796	0.0163273
720.874	0.0162850
720.953	0.0163794
721.031	0.0163155
721.109	0.0163261
721.187	0.0163343
721.265	0.0163096
721.343	0.0163268
721.421	0.0163995
721.499	0.0164086
721.578	0.0164233
721.656	0.0163513
721.734	0.0163033
721.812	0.0163221
721.890	0.0164607
721.968	0.0164219
722.046	0.0162888
722.124	0.0163048
722.203	0.0164072
722.281	0.0163529
722.359	0.0163217
722.437	0.0164075
722.515	0.0162561
722.593	0.0164451
722.671	0.0162565
722.749	0.0163344
722.828	0.0163879
722.906	0.0163911
722.984	0.0163258
723.062	0.0163181
723.140	0.0163244
723.218	0.0163396
723.296	0.0164056
723.374	0.0164254
723.453	0.0163638
723.531	0.0163580
723.609	0.0163565
723.687	0.0162717
723.765	0.0163644
723.843	0.0163383
723.921	0.0162849
723.999	0.0164180
724.078	0.0162989
724.156	0.0162577
724.234	0.0163812
724.312	0.0163017
724.390	0.0164335
724.468	0.0164145
724.546	0.0162241
724.624	0.0162309
724.703	0.0162845
724.781	0.0164823
724.859	0.0162769
724.937	0.0162819
725.015	0.0163984
725.093	0.0163911
725.171	0.0163367
725.249	0.0162022
725.328	0.0163412
725.406	0.0164198
725.484	0.0162695
725.562	0.0164063
725.640	0.0164640
725.718	0.0164204
725.796	0.0163772
725.874	0.0163462
725.953	0.0161978
726.031	0.0164166
726.109	0.0163778
726.187	0.0163121
726.265	0.0164246
726.343	0.0163038
726.421	0.0163706
726.499	0.0162856
726.578	0.0163844
726.656	0.0164461
726.734	0.0163432
726.812	0.0164426
726.890	0.0164182
726.968	0.0163133
727.046	0.0164095
727.124	0.0162193
727.203	0.0164079
727.281	0.0164549
727.359	0.0164215
727.437	0.0162489
727.515	0.0164128
727.593	0.0164437
727.671	0.0163521
727.749	0.0164075
727.828	0.0165471
727.906	0.0163533
727.984	0.0163795
728.062	0.0165128
728.140	0.0164281
728.218	0.0163112
728.296	0.0164236
728.374	0.0164351
728.453	0.0163305
728.531	0.0163132
728.609	0.0164213
728.687	0.0164183
728.765	0.0163155
728.843	0.0163366
728.921	0.0163252
728.999	0.0163470
729.078	0.0164026
729.156	0.0163589
729.234	0.0163953
729.312	0.0163741
729.390	0.0163470
729.468	0.0163309
729.546	0.0164161
729.624	0.0162535
729.703	0.0162585
729.781	0.0163318
729.859	0.0164526
729.937	0.0164406
730.015	0.0161871
730.093	0.0163179
730.171	0.0163520
730.249	0.0163374
730.328	0.0163158
730.406	0.0163715
730.484	0.0162250
730.562	0.0163113
730.640	0.0164228
730.718	0.0164062
730.796	0.0162489
730.874	0.0162659
730.953	0.0164468
731.031	0.0164124
731.109	0.0162957
731.187	0.0163190
731.265	0.0162959
731.343	0.0162943
731.421	0.0163998
731.499	0.0163532
731.578	0.0164009
731.656	0.0163509
731.734	0.0163644
731.812	0.0162341
731.890	0.0163942
731.968	0.0164086
732.046	0.0164034
732.124	0.0163280
732.203	0.0163263
732.281	0.0162720
732.359	0.0162804
732.437	0.0162909
732.515	0.0164288
732.593	0.0163232
732.671	0.0163178
732.749	0.0164006
732.828	0.0163648
732.906	0.0164750
732.984	0.0163017
733.062	0.0162182
733.140	0.0162355
733.218	0.0163787
733.296	0.0161813
733.374	0.0163332
733.453	0.0162272
733.531	0.0163691
733.609	0.0161689
733.687	0.0163837
733.765	0.0162830
733.843	0.0161823
733.921	0.0162715
733.999	0.0163162
734.078	0.0162743
734.156	0.0161656
734.234	0.0162134
734.312	0.0163119
734.390	0.0165257
734.468	0.0163628
734.546	0.0162922
734.624	0.0162759
734.703	0.0162585
734.781	0.0163834
734.859	0.0163463
734.937	0.0163128
735.015	0.0162988
735.093	0.0163080
735.171	0.0163942
735.249	0.0162897
735.328	0.0164008
735.406	0.0163399
735.484	0.0162506
735.562	0.0163641
735.640	0.0162701
735.718	0.0164351
735.796	0.0163586
735.874	0.0164246
735.953	0.0163737
736.031	0.0162123
736.109	0.0163166
736.187	0.0162432
736.265	0.0163485
736.343	0.0163535
736.421	0.0162638
736.499	0.0163734
736.578	0.0163607
736.656	0.0162134
736.734	0.0162700
736.812	0.0164009
736.890	0.0162893
736.968	0.0163018
737.046	0.0163476
737.124	0.0162434
737.203	0.0162865
737.281	0.0163206
737.359	0.0163705
737.437	0.0161578
737.515	0.0162695
737.593	0.0162733
737.671	0.0163870
737.749	0.0162129
737.828	0.0160966
737.906	0.0161588
737.984	0.0161909
738.062	0.0162920
738.140	0.0161603
738.218	0.0162661
738.296	0.0162255
738.374	0.0161422
738.453	0.0162024
738.531	0.0163115
738.609	0.0163371
738.687	0.0163196
738.765	0.0163206
738.843	0.0162651
738.921	0.0163399
738.999	0.0163211
739.078	0.0164223
739.156	0.0162769
739.234	0.0164803
739.312	0.0164539
739.390	0.0162974
739.468	0.0163771
739.546	0.0166188
739.624	0.0165602
739.703	0.0164183
739.781	0.0166505
739.859	0.0165418
739.937	0.0164110
740.015	0.0165650
740.093	0.0165253
740.171	0.0165009
740.249	0.0163452
740.328	0.0164890
740.406	0.0165079
740.484	0.0164196
740.562	0.0162891
740.640	0.0163011
740.718	0.0163367
740.796	0.0161493
740.874	0.0160632
740.953	0.0159611
741.031	0.0160403
741.109	0.0158067
741.187	0.0157948
741.265	0.0157440
741.343	0.0154946
741.421	0.0155650
741.499	0.0156485
741.578	0.0154948
741.656	0.0156069
741.734	0.0158460
741.812	0.0157797
741.890	0.0158228
741.968	0.0158879
742.046	0.0160984
742.124	0.0162025
742.203	0.0163451
742.281	0.0164632
742.359	0.0164964
742.437	0.0166205
742.515	0.0167383
742.593	0.0167860
742.671	0.0168506
742.749	0.0166725
742.828	0.0168584
742.906	0.0167276
742.984	0.0169007
743.062	0.0168447
743.140	0.0169444
743.218	0.0169650
743.296	0.0169998
743.374	0.0170438
743.453	0.0169346
743.531	0.0170544
743.609	0.0170577
743.687	0.0171429
743.765	0.0170859
743.843	0.0171861
743.921	0.0171796
743.999	0.0170740
744.078	0.0169477
744.156	0.0167824
744.234	0.0166501
744.312	0.0165697
744.390	0.0163675
744.468	0.0161601
744.546	0.0160085
744.624	0.0157384
744.703	0.0156457
744.781	0.0153573
744.859	0.0153972
744.937	0.0150140
745.015	0.0148087
745.093	0.0146532
745.171	0.0145075
745.249	0.0143258
745.328	0.0139272
745.406	0.0137655
745.484	0.0136561
745.562	0.0136296
745.640	0.0138278
745.718	0.0141029
745.796	0.0145189
745.874	0.0151457
745.953	0.0157073
746.031	0.0165573
746.109	0.0172874
746.187	0.0180013
746.265	0.0188864
746.343	0.0195203
746.421	0.0199583
746.499	0.0202833
746.578	0.0203588
746.656	0.0203300
746.734	0.0198343
746.812	0.0192677
746.890	0.0185642
746.968	0.0177715
747.046	0.0169037
747.124	0.0159966
747.203	0.0151378
747.281	0.0144373
747.359	0.0136702
747.437	0.0130048
747.515	0.0127245
747.593	0.0126454
747.671	0.0127103
747.749	0.0129494
747.828	0.0135281
747.906	0.0140612
747.984	0.0147714
748.062	0.0156380
748.140	0.0165764
748.218	0.0172944
748.296	0.0181105
748.374	0.0189104
748.453	0.0196043
748.531	0.0202277
748.609	0.0206915
748.687	0.0209886
748.765	0.0211002
748.843	0.0210508
748.921	0.0210882
748.999	0.0207431
749.078	0.0202911
749.156	0.0198870
749.234	0.0191829
749.312	0.0184535
749.390	0.0175362
749.468	0.0164368
749.546	0.0156010
749.624	0.0144630
749.703	0.0132270
749.781	0.0121112
749.859	0.0111609
749.937	0.0100903
750.015	0.00937843
750.093	0.00889496
750.171	0.00849930
750.249	0.00837379
750.328	0.00854347
750.406	0.00899429
750.484	0.00947151
750.562	0.0104965
750.640	0.0114675
750.718	0.0126276
750.796	0.0137239
750.874	0.0151434
750.953	0.0163358
751.031	0.0176610
751.109	0.0187164
751.187	0.0197492
751.265	0.0207759
751.343	0.0214572
751.421	0.0222404
751.499	0.0225878
751.578	0.0228716
751.656	0.0231448
751.734	0.0231229
751.812	0.0227909
751.890	0.0225381
751.968	0.0221397
752.046	0.0217404
752.124	0.0212817
752.203	0.0205748
752.281	0.0202382
752.359	0.0200245
752.437	0.0196096
752.515	0.0192562
752.593	0.0190122
752.671	0.0187630
752.749	0.0183969
752.828	0.0179007
752.906	0.0171063
752.984	0.0163065
753.062	0.0153017
753.140	0.0139048
753.218	0.0129449
753.296	0.0115232
753.374	0.00999352
753.453	0.00886932
753.531	0.00767944
753.609	0.00694061
753.687	0.00655472
753.765	0.00627449
753.843	0.00665459
753.921	0.00726151
753.999	0.00838036
754.078	0.00946297
754.156	0.0108600
754.234	0.0125847
754.312	0.0143171
754.390	0.0159045
754.468	0.0174618
754.546	0.0190519
754.624	0.0205594
754.703	0.0217031
754.781	0.0226456
754.859	0.0234231
754.937	0.0238808
755.015	0.0240440
755.093	0.0238351
755.171	0.0235940
755.249	0.0232690
755.328	0.0226887
755.406	0.0220647
755.484	0.0214776
755.562	0.0207201
755.640	0.0202961
755.718	0.0194531
755.796	0.0188536
755.874	0.0180727
755.953	0.0173526
756.031	0.0163562
756.109	0.0153049
756.187	0.0143258
756.265	0.0131670
756.343	0.0119852
756.421	0.0107590
756.499	0.00975159
756.578	0.00883537
756.656	0.00813301
756.734	0.00762489
756.812	0.00760208
756.890	0.00798660
756.968	0.00875832
757.046	0.00973450
757.124	0.0112489
757.203	0.0128603
757.281	0.0148974
757.359	0.0168164
757.437	0.0187748
757.515	0.0207217
757.593	0.0221571
757.671	0.0234678
757.749	0.0246294
757.828	0.0255135
757.906	0.0260786
757.984	0.0261545
758.062	0.0259303
758.140	0.0254318
758.218	0.0245473
758.296	0.0234059
758.374	0.0220270
758.453	0.0202737
758.531	0.0188297
758.609	0.0172213
758.687	0.0155984
758.765	0.0139282
758.843	0.0124726
758.921	0.0109849
758.999	0.00980873
759.078	0.00896843
759.156	0.00816216
759.234	0.00774170
759.312	0.00753685
759.390	0.00750824
759.468	0.00755257
759.546	0.00804787
759.624	0.00877441
759.703	0.00932602
759.781	0.0103046
759.859	0.0112520
759.937	0.0123372
760.015	0.0136888
760.093	0.0149136
760.171	0.0160298
760.249	0.0170285
760.328	0.0183691
760.406	0.0193298
760.484	0.0203615
760.562	0.0212531
760.640	0.0220609
760.718	0.0225587
760.796	0.0229606
760.874	0.0231997
760.953	0.0235566
761.031	0.0236179
761.109	0.0236075
761.187	0.0233418
761.265	0.0227635
761.343	0.0223018
761.421	0.0216185
761.499	0.0209103
761.578	0.0199828
761.656	0.0190835
761.734	0.0181443
761.812	0.0173090
761.890	0.0164009
761.968	0.0155135
762.046	0.0147980
762.124	0.0138855
762.203	0.0131162
762.281	0.0125910
762.359	0.0119132
762.437	0.0112729
762.515	0.0111401
762.593	0.0106522
762.671	0.0102119
762.749	0.0102328
762.828	0.0102805
762.906	0.0103698
762.984	0.0106224
763.062	0.0110529
763.140	0.0115015
763.218	0.0122876
763.296	0.0132309
763.374	0.0137585
763.453	0.0146964
763.531	0.0155750
763.609	0.0164381
763.687	0.0172618
763.765	0.0180682
763.843	0.0186095
763.921	0.0192277
763.999	0.0197263
764.078	0.0201479
764.156	0.0203528
764.234	0.0203249
764.312	0.0202857
764.390	0.0201214
764.468	0.0199998
764.546	0.0197372
764.624	0.0194776
764.703	0.0188961
764.781	0.0186064
764.859	0.0182760
764.937	0.0176744
765.015	0.0172204
765.093	0.0167804
765.171	0.0163280
765.249	0.0159141
765.328	0.0156728
765.406	0.0151594
765.484	0.0150087
765.562	0.0148525
765.640	0.0147407
765.718	0.0146478
765.796	0.0149380
765.874	0.0151070
765.953	0.0153743
766.031	0.0153632
766.109	0.0157213
766.187	0.0159227
766.265	0.0159343
766.343	0.0161723
766.421	0.0164139
766.499	0.0166557
766.578	0.0166681
766.656	0.0166292
766.734	0.0165963
766.812	0.0167303
766.890	0.0166230
766.968	0.0165357
767.046	0.0165198
767.124	0.0162766
767.203	0.0162804
767.281	0.0163441
767.359	0.0161184
767.437	0.0161587
767.515	0.0161830
767.593	0.0159451
767.671	0.0161590
767.749	0.0161129
767.828	0.0163338
767.906	0.0162631
767.984	0.0162585
768.062	0.0165022
768.140	0.0166848
768.218	0.0166282
768.296	0.0167570
768.374	0.0167614
768.453	0.0166342
768.531	0.0165147
768.609	0.0161346
768.687	0.0159180
768.765	0.0156350
768.843	0.0155049
768.921	0.0152769
768.999	0.0150337
769.078	0.0149088
769.156	0.0147024
769.234	0.0145264
769.312	0.0146326
769.390	0.0145671
769.468	0.0147619
769.546	0.0150078
769.624	0.0151562
769.703	0.0153715
769.781	0.0156933
769.859	0.0159618
769.937	0.0161497
770.015	0.0164257
770.093	0.0165905
770.171	0.0167075
770.249	0.0169143
770.328	0.0171817
770.406	0.0174532
770.484	0.0174855
770.562	0.0175710
770.640	0.0178377
770.718	0.0181136
770.796	0.0181998
770.874	0.0182417
770.953	0.0184654
771.031	0.0185017
771.109	0.0184377
771.187	0.0183476
771.265	0.0181971
771.343	0.0180489
771.421	0.0178551
771.499	0.0173393
771.578	0.0170168
771.656	0.0166887
771.734	0.0162816
771.812	0.0158988
771.890	0.0155142
771.968	0.0153533
772.046	0.0150332
772.124	0.0148832
772.203	0.0147934
772.281	0.0148800
772.359	0.0148592
772.437	0.0147578
772.515	0.0148866
772.593	0.0149193
772.671	0.0150318
772.749	0.0151543
772.828	0.0152334
772.906	0.0154194
772.984	0.0153921
773.062	0.0156620
773.140	0.0157111
773.218	0.0157947
773.296	0.0160422
773.374	0.0161012
773.453	0.0161927
773.531	0.0164140
773.609	0.0165349
773.687	0.0167258
773.765	0.0168823
773.843	0.0169054
773.921	0.0169213
773.999	0.0171256
774.078	0.0171053
774.156	0.0172301
774.234	0.0171865
774.312	0.0170145
774.390	0.0171452
774.468	0.0170191
774.546	0.0168353
774.624	0.0167433
774.703	0.0166981
774.781	0.0165116
774.859	0.0162772
774.937	0.0161240
775.015	0.0162671
775.093	0.0159627
775.171	0.0158231
775.249	0.0158075
775.328	0.0156545
775.406	0.0154793
775.484	0.0156353
775.562	0.0154634
775.640	0.0154760
775.718	0.0155949
775.796	0.0156944
775.874	0.0158645
775.953	0.0159158
776.031	0.0162179
776.109	0.0164794
776.187	0.0167162
776.265	0.0169120
776.343	0.0170283
776.421	0.0172638
776.499	0.0174616
776.578	0.0175301
776.656	0.0176467
776.734	0.0177859
776.812	0.0179253
776.890	0.0177289
776.968	0.0177844
777.046	0.0177227
777.124	0.0177119
777.203	0.0174997
777.281	0.0174831
777.359	0.0172558
777.437	0.0171277
777.515	0.0169295
777.593	0.0167110
777.671	0.0164955
777.749	0.0162831
777.828	0.0160360
777.906	0.0158200
777.984	0.0154172
778.062	0.0152307
778.140	0.0151405
778.218	0.0148729
778.296	0.0147320
778.374	0.0145866
778.453	0.0145248
778.531	0.0145120
778.609	0.0146105
778.687	0.0147742
778.765	0.0148725
778.843	0.0149289
778.921	0.0151818
778.999	0.0154128
779.078	0.0156779
779.156	0.0157755
779.234	0.0160423
779.312	0.0161511
779.390	0.0163209
779.468	0.0164413
779.546	0.0166518
779.624	0.0168417
779.703	0.0167506
779.781	0.0169923
779.859	0.0170879
779.937	0.0170612
780.015	0.0172333
780.093	0.0173635
780.171	0.0172777
780.249	0.0172305
780.328	0.0171401
780.406	0.0171208
780.484	0.0170983
780.562	0.0167056
780.640	0.0166881
780.718	0.0164867
780.796	0.0163960
780.874	0.0161958
780.953	0.0160944
781.031	0.0160830
781.109	0.0159145
781.187	0.0160910
781.265	0.0159882
781.343	0.0159365
781.421	0.0160831
781.499	0.0160054
781.578	0.0162189
781.656	0.0163785
781.734	0.0166264
781.812	0.0167880
781.890	0.0168707
781.968	0.0168626
782.046	0.0171555
782.124	0.0171758
782.203	0.0172401
782.281	0.0172377
782.359	0.0172617
782.437	0.0172237
782.515	0.0172649
782.593	0.0170791
782.671	0.0170692
782.749	0.0168598
782.828	0.0165830
782.906	0.0165045
782.984	0.0161910
783.062	0.0162041
783.140	0.0159763
783.218	0.0156912
783.296	0.0154528
783.374	0.0153355
783.453	0.0153059
783.531	0.0151954
783.609	0.0150858
783.687	0.0149124
783.765	0.0151462
783.843	0.0151318
783.921	0.0150368
783.999	0.0150266
784.078	0.0151720
784.156	0.0152867
784.234	0.0153230
784.312	0.0153564
784.390	0.0155309
784.468	0.0156587
784.546	0.0160189
784.624	0.0159605
784.703	0.0161618
784.781	0.0164644
784.859	0.0166111
784.937	0.0167878
785.015	0.0169890
785.093	0.0171647
785.171	0.0172359
785.249	0.0174152
785.328	0.0175150
785.406	0.0174184
785.484	0.0174155
785.562	0.0173845
785.640	0.0174686
785.718	0.0172828
785.796	0.0172080
785.874	0.0170776
785.953	0.0170596
786.031	0.0169892
786.109	0.0166455
786.187	0.0165043
786.265	0.0163024
786.343	0.0161284
786.421	0.0160556
786.499	0.0158354
786.578	0.0157144
786.656	0.0156500
786.734	0.0155228
786.812	0.0153979
786.890	0.0153095
786.968	0.0152054
787.046	0.0153616
787.124	0.0155338
787.203	0.0153275
787.281	0.0154663
787.359	0.0156181
787.437	0.0158448
787.515	0.0158833
787.593	0.0159865
787.671	0.0161723
787.749	0.0162948
787.828	0.0164125
787.906	0.0165986
787.984	0.0167235
788.062	0.0166317
788.140	0.0167110
788.218	0.0167188
788.296	0.0167333
788.374	0.0167958
788.453	0.0167606
788.531	0.0167017
788.609	0.0167016
788.687	0.0167497
788.765	0.0166616
788.843	0.0165018
788.921	0.0166401
788.999	0.0166500
789.078	0.0166798
789.156	0.0167529
789.234	0.0167119
789.312	0.0166756
789.390	0.0166721
789.468	0.0166337
789.546	0.0166889
789.624	0.0165235
789.703	0.0166190
789.781	0.0166505
789.859	0.0165148
789.937	0.0162713
790.015	0.0161874
790.093	0.0161155
790.171	0.0160201
790.249	0.0160655
790.328	0.0158347
790.406	0.0157068
790.484	0.0157413
790.562	0.0156197
790.640	0.0157207
790.718	0.0157693
790.796	0.0157687
790.874	0.0158343
790.953	0.0159041
791.031	0.0158549
791.109	0.0159024
791.187	0.0160128
791.265	0.0161568
791.343	0.0161894
791.421	0.0163484
791.499	0.0164796
791.578	0.0165938
791.656	0.0165961
791.734	0.0165698
791.812	0.0165889
791.890	0.0166981
791.968	0.0166641
792.046	0.0167625
792.124	0.0167541
792.203	0.0166649
792.281	0.0166979
792.359	0.0165479
792.437	0.0164813
792.515	0.0165258
792.593	0.0165646
792.671	0.0164928
792.749	0.0164243
792.828	0.0162978
792.906	0.0162248
792.984	0.0162241
793.062	0.0159708
793.140	0.0160732
793.218	0.0160524
793.296	0.0160696
793.374	0.0159155
793.453	0.0160921
793.531	0.0161420
793.609	0.0160218
793.687	0.0162906
793.765	0.0161747
793.843	0.0164106
793.921	0.0165720
793.999	0.0167287
794.078	0.0167892
794.156	0.0169201
794.234	0.0171135
794.312	0.0171671
794.390	0.0170169
794.468	0.0171749
794.546	0.0170833
794.624	0.0170111
794.703	0.0170821
794.781	0.0170625
794.859	0.0169189
794.937	0.0166941
795.015	0.0166584
795.093	0.0164988
795.171	0.0165075
795.249	0.0163989
795.328	0.0162558
795.406	0.0161834
795.484	0.0160614
795.562	0.0158645
795.640	0.0156683
795.718	0.0155605
795.796	0.0153749
795.874	0.0154976
795.953	0.0153931
796.031	0.0154281
796.109	0.0154002
796.187	0.0155768
796.265	0.0155899
796.343	0.0156767
796.421	0.0158287
796.499	0.0157890
796.578	0.0157556
796.656	0.0160252
796.734	0.0161547
796.812	0.0161983
796.890	0.0163937
796.968	0.0164609
797.046	0.0165997
797.124	0.0165521
797.203	0.0166409
797.281	0.0167373
797.359	0.0169775
797.437	0.0169487
797.515	0.0169752
797.593	0.0170891
797.671	0.0170019
797.749	0.0169489
797.828	0.0169827
797.906	0.0169286
797.984	0.0167796
798.062	0.0165201
798.140	0.0166264
798.218	0.0166019
798.296	0.0164170
798.374	0.0163410
798.453	0.0160222
798.531	0.0159679
798.609	0.0159001
798.687	0.0159189
798.765	0.0158442
798.843	0.0155674
798.921	0.0157553
798.999	0.0158141
799.078	0.0157784
799.156	0.0159115
799.234	0.0159712
799.312	0.0159950
799.390	0.0161186
799.468	0.0163409
799.546	0.0163560
799.624	0.0163451
799.703	0.0164756
799.781	0.0167193
799.859	0.0168747
799.937	0.0168314
800.015	0.0170243
800.093	0.0169077
800.171	0.0170451
800.249	0.0170279
800.328	0.0171152
800.406	0.0169470
800.484	0.0170319
800.562	0.0169052
800.640	0.0167474
800.718	0.0166555
800.796	0.0166649
800.874	0.0164482
800.953	0.0164407
801.031	0.0164016
801.109	0.0163514
801.187	0.0162901
801.265	0.0162986
801.343	0.0162018
801.421	0.0162382
801.499	0.0160880
801.578	0.0161031
801.656	0.0160471
801.734	0.0158614
801.812	0.0158358
801.890	0.0158062
801.968	0.0158649
802.046	0.0156767
802.124	0.0155714
802.203	0.0155811
802.281	0.0155086
802.359	0.0155185
802.437	0.0154672
802.515	0.0154241
802.593	0.0154277
802.671	0.0155905
802.749	0.0157519
802.828	0.0158753
802.906	0.0157773
802.984	0.0160088
803.062	0.0162648
803.140	0.0164319
803.218	0.0163913
803.296	0.0165809
803.374	0.0168259
803.453	0.0169331
803.531	0.0169856
803.609	0.0171667
803.687	0.0171128
803.765	0.0170855
803.843	0.0171612
803.921	0.0171847
803.999	0.0169601
804.078	0.0169390
804.156	0.0169630
804.234	0.0168501
804.312	0.0166767
804.390	0.0164902
804.468	0.0165230
804.546	0.0162311
804.624	0.0161642
804.703	0.0162508
804.781	0.0161764
804.859	0.0159370
804.937	0.0160075
805.015	0.0160110
805.093	0.0160468
805.171	0.0159485
805.249	0.0160970
805.328	0.0161610
805.406	0.0162208
805.484	0.0163764
805.562	0.0163211
805.640	0.0164504
805.718	0.0165186
805.796	0.0165989
805.874	0.0166799
805.953	0.0166837
806.031	0.0165524
806.109	0.0165549
806.187	0.0164643
806.265	0.0164252
806.343	0.0164140
806.421	0.0165396
806.499	0.0163098
806.578	0.0161878
806.656	0.0162261
806.734	0.0161373
806.812	0.0162183
806.890	0.0162309
806.968	0.0161543
807.046	0.0161282
807.124	0.0161820
807.203	0.0162763
807.281	0.0162101
807.359	0.0163548
807.437	0.0162491
807.515	0.0163412
807.593	0.0161037
807.671	0.0163209
807.749	0.0164131
807.828	0.0160876
807.906	0.0162320
807.984	0.0163233
808.062	0.0161858
808.140	0.0161957
808.218	0.0163232
808.296	0.0163931
808.374	0.0163046
808.453	0.0164030
808.531	0.0163503
808.609	0.0162412
808.687	0.0164372
808.765	0.0164360
808.843	0.0163388
808.921	0.0165128
808.999	0.0165220
809.078	0.0164961
809.156	0.0166207
809.234	0.0166745
809.312	0.0166439
809.390	0.0164647
809.468	0.0165519
809.546	0.0166140
809.624	0.0163970
809.703	0.0165771
809.781	0.0164512
809.859	0.0163882
809.937	0.0162234
810.015	0.0160308
810.093	0.0160255
810.171	0.0160691
810.249	0.0161990
810.328	0.0161074
810.406	0.0161320
810.484	0.0161023
810.562	0.0161380
810.640	0.0162444
810.718	0.0163401
810.796	0.0163135
810.874	0.0163960
810.953	0.0165551
811.031	0.0164858
811.109	0.0167474
811.187	0.0167452
811.265	0.0167033
811.343	0.0166255
811.421	0.0167532
811.499	0.0166692
811.578	0.0167442
811.656	0.0166779
811.734	0.0166545
811.812	0.0165258
811.890	0.0166241
811.968	0.0165553
812.046	0.0166056
812.124	0.0165703
812.203	0.0165005
812.281	0.0163593
812.359	0.0162597
812.437	0.0162398
812.515	0.0162810
812.593	0.0162093
812.671	0.0161926
812.749	0.0160853
812.828	0.0161700
812.906	0.0161784
812.984	0.0162300
813.062	0.0161674
813.140	0.0160807
813.218	0.0161318
813.296	0.0160232
813.374	0.0161015
813.453	0.0161476
813.531	0.0160394
813.609	0.0162121
813.687	0.0161320
813.765	0.0163156
813.843	0.0164920
813.921	0.0163742
813.999	0.0163852
814.078	0.0162828
814.156	0.0166234
814.234	0.0166216
814.312	0.0167057
814.390	0.0167509
814.468	0.0168031
814.546	0.0168834
814.624	0.0168276
814.703	0.0166830
814.781	0.0167349
814.859	0.0166377
814.937	0.0166290
815.015	0.0167171
815.093	0.0167926
815.171	0.0166240
815.249	0.0163139
815.328	0.0162065
815.406	0.0163565
815.484	0.0162373
815.562	0.0162753
815.640	0.0161282
815.718	0.0161319
815.796	0.0161871
815.874	0.0159155
815.953	0.0159719
816.031	0.0160259
816.109	0.0160681
816.187	0.0159805
816.265	0.0160356
816.343	0.0160746
816.421	0.0161345
816.499	0.0161584
816.578	0.0163032
816.656	0.0162936
816.734	0.0162827
816.812	0.0164558
816.890	0.0164162
816.968	0.0164346
817.046	0.0165837
817.124	0.0164864
817.203	0.0164930
817.281	0.0164796
817.359	0.0165897
817.437	0.0165408
817.515	0.0164404
817.593	0.0165576
817.671	0.0163964
817.749	0.0164706
817.828	0.0163062
817.906	0.0163469
817.984	0.0163676
818.062	0.0161880
818.140	0.0161767
818.218	0.0162553
818.296	0.0163122
818.374	0.0162233
818.453	0.0162872
818.531	0.0162483
818.609	0.0164216
818.687	0.0163127
818.765	0.0162217
818.843	0.0162955
818.921	0.0164578
818.999	0.0162931
819.078	0.0161684
819.156	0.0163167
819.234	0.0162788
819.312	0.0162992
819.390	0.0163365
819.468	0.0163994
819.546	0.0163393
819.624	0.0164525
819.703	0.0164166
819.781	0.0165253
819.859	0.0166355
819.937	0.0167008
820.015	0.0166873
820.093	0.0164056
820.171	0.0166700
820.249	0.0167596
820.328	0.0166569
820.406	0.0166173
820.484	0.0166388
820.562	0.0167511
820.640	0.0166026
820.718	0.0165540
820.796	0.0164793
820.874	0.0163370
820.953	0.0163515
821.031	0.0162807
821.109	0.0161639
821.187	0.0161698
821.265	0.0161141
821.343	0.0159713
821.421	0.0159610
821.499	0.0161255
821.578	0.0160305
821.656	0.0159571
821.734	0.0159926
821.812	0.0160953
821.890	0.0160424
821.968	0.0159499
822.046	0.0160808
822.124	0.0160041
822.203	0.0161559
822.281	0.0162157
822.359	0.0161333
822.437	0.0161757
822.515	0.0161661
822.593	0.0161349
822.671	0.0162435
822.749	0.0163801
822.828	0.0163391
822.906	0.0163184
822.984	0.0164733
823.062	0.0164083
823.140	0.0163136
823.218	0.0163887
823.296	0.0164255
823.374	0.0163504
823.453	0.0164207
823.531	0.0163584
823.609	0.0165103
823.687	0.0165070
823.765	0.0164740
823.843	0.0165049
823.921	0.0164760
823.999	0.0164891
824.078	0.0163911
824.156	0.0163671
824.234	0.0164426
824.312	0.0162982
824.390	0.0162868
824.468	0.0163820
824.546	0.0162768
824.624	0.0161504
824.703	0.0160804
824.781	0.0162248
824.859	0.0161158
824.937	0.0162067
825.015	0.0162108
825.093	0.0163294
825.171	0.0161855
825.249	0.0160998
825.328	0.0162733
825.406	0.0162766
825.484	0.0163081
825.562	0.0163720
825.640	0.0163414
825.718	0.0163439
825.796	0.0164376
825.874	0.0163595
825.953	0.0164813
826.031	0.0165417
826.109	0.0165226
826.187	0.0165222
826.265	0.0165469
826.343	0.0164400
826.421	0.0164434
826.499	0.0164717
826.578	0.0162505
826.656	0.0161259
826.734	0.0161434
826.812	0.0161565
826.890	0.0161942
826.968	0.0160367
827.046	0.0159302
827.124	0.0160068
827.203	0.0159209
827.281	0.0160789
827.359	0.0161186
827.437	0.0159436
827.515	0.0160049
827.593	0.0161284
827.671	0.0160719
827.749	0.0160801
827.828	0.0161331
827.906	0.0161843
827.984	0.0161770
828.062	0.0163088
828.140	0.0164050
828.218	0.0164555
828.296	0.0164287
828.374	0.0164467
828.453	0.0163777
828.531	0.0164555
828.609	0.0165810
828.687	0.0164663
828.765	0.0164419
828.843	0.0163764
828.921	0.0163840
828.999	0.0163406
829.078	0.0164862
829.156	0.0163572
829.234	0.0162926
829.312	0.0163314
829.390	0.0161420
829.468	0.0162978
829.546	0.0162960
829.624	0.0161550
829.703	0.0162608
829.781	0.0162738
829.859	0.0161884
829.937	0.0163279
830.015	0.0162481
830.093	0.0162429
830.171	0.0164186
830.249	0.0165147
830.328	0.0164687
830.406	0.0164960
830.484	0.0164729
830.562	0.0164325
830.640	0.0165365
830.718	0.0165124
830.796	0.0167135
830.874	0.0167768
830.953	0.0165282
831.031	0.0164778
831.109	0.0165055
831.187	0.0166030
831.265	0.0164772
831.343	0.0163560
831.421	0.0163974
831.499	0.0163241
831.578	0.0163457
831.656	0.0162825
831.734	0.0161658
831.812	0.0162371
831.890	0.0162108
831.968	0.0162866
832.046	0.0162267
832.124	0.0160757
832.203	0.0161710
832.281	0.0164381
832.359	0.0161771
832.437	0.0161826
832.515	0.0162087
832.593	0.0161871
832.671	0.0161038
832.749	0.0161829
832.828	0.0162371
832.906	0.0161000
832.984	0.0160668
833.062	0.0160736
833.140	0.0161418
833.218	0.0160691
833.296	0.0161005
833.374	0.0160965
833.453	0.0162852
833.531	0.0163280
833.609	0.0162995
833.687	0.0163793
833.765	0.0164012
833.843	0.0164597
833.921	0.0164072
833.999	0.0165077
834.078	0.0165150
834.156	0.0164969
834.234	0.0165934
834.312	0.0165785
834.390	0.0166097
834.468	0.0166604
834.546	0.0164463
834.624	0.0164972
834.703	0.0165699
834.781	0.0164403
834.859	0.0162616
834.937	0.0163765
835.015	0.0163409
835.093	0.0162886
835.171	0.0161855
835.249	0.0162628
835.328	0.0162625
835.406	0.0163081
835.484	0.0161156
835.562	0.0163011
835.640	0.0162580
835.718	0.0161313
835.796	0.0161188
835.874	0.0162964
835.953	0.0160911
836.031	0.0161748
836.109	0.0163220
836.187	0.0162088
836.265	0.0163134
836.343	0.0163840
836.421	0.0165030
836.499	0.0164642
836.578	0.0163763
836.656	0.0163473
836.734	0.0164973
836.812	0.0163507
836.890	0.0164315
836.968	0.0164383
837.046	0.0165343
837.124	0.0164386
837.203	0.0163451
837.281	0.0163923
837.359	0.0163216
837.437	0.0161983
837.515	0.0164098
837.593	0.0164178
837.671	0.0162899
837.749	0.0163300
837.828	0.0163259
837.906	0.0163127
837.984	0.0163595
838.062	0.0163410
838.140	0.0163829
838.218	0.0164589
838.296	0.0163644
838.374	0.0162874
838.453	0.0162706
838.531	0.0164482
838.609	0.0164218
838.687	0.0162880
838.765	0.0164353
838.843	0.0164710
838.921	0.0162598
838.999	0.0162035
839.078	0.0162468
839.156	0.0162959
839.234	0.0163493
839.312	0.0164092
839.390	0.0163121
839.468	0.0163249
839.546	0.0163352
839.624	0.0164597
839.703	0.0164073
839.781	0.0163743
839.859	0.0163866
839.937	0.0164031
840.015	0.0163885
840.093	0.0165515
840.171	0.0164732
840.249	0.0165423
840.328	0.0165359
840.406	0.0165540
840.484	0.0165604
840.562	0.0164254
840.640	0.0164597
840.718	0.0162704
840.796	0.0162650
840.874	0.0162939
840.953	0.0162128
841.031	0.0162281
841.109	0.0163091
841.187	0.0161106
841.265	0.0161278
841.343	0.0162633
841.421	0.0162882
841.499	0.0161077
841.578	0.0162833
841.656	0.0160914
841.734	0.0160665
841.812	0.0159919
841.890	0.0160999
841.968	0.0162383
842.046	0.0162028
842.124	0.0161891
842.203	0.0162687
842.281	0.0161391
842.359	0.0161310
842.437	0.0162991
842.515	0.0162203
842.593	0.0162800
842.671	0.0163375
842.749	0.0165294
842.828	0.0166747
842.906	0.0165939
842.984	0.0164036
843.062	0.0163948
843.140	0.0164944
843.218	0.0165163
843.296	0.0165178
843.374	0.0164526
843.453	0.0164891
843.531	0.0164848
843.609	0.0164959
843.687	0.0163764
843.765	0.0163267
843.843	0.0162524
843.921	0.0162505
843.999	0.0161665
844.078	0.0161507
844.156	0.0160564
844.234	0.0161052
844.312	0.0159859
844.390	0.0160832
844.468	0.0160010
844.546	0.0161647
844.624	0.0160738
844.703	0.0162327
844.781	0.0163019
844.859	0.0162772
844.937	0.0164252
845.015	0.0164761
845.093	0.0166116
845.171	0.0166128
845.249	0.0166875
845.328	0.0166549
845.406	0.0167619
845.484	0.0167873
845.562	0.0168416
845.640	0.0168842
845.718	0.0169691
845.796	0.0168617
845.874	0.0168600
845.953	0.0167628
846.031	0.0165822
846.109	0.0167216
846.187	0.0166575
846.265	0.0164478
846.343	0.0163482
846.421	0.0163459
846.499	0.0162290
846.578	0.0159528
846.656	0.0159381
846.734	0.0159508
846.812	0.0157279
846.890	0.0155165
846.968	0.0154430
847.046	0.0152080
847.124	0.0152251
847.203	0.0152774
847.281	0.0153648
847.359	0.0152376
847.437	0.0153947
847.515	0.0155542
847.593	0.0155499
847.671	0.0154963
847.749	0.0157346
847.828	0.0160894
847.906	0.0162870
847.984	0.0163194
848.062	0.0166052
848.140	0.0167119
848.218	0.0168446
848.296	0.0171158
848.374	0.0171402
848.453	0.0173125
848.531	0.0173724
848.609	0.0172992
848.687	0.0174552
848.765	0.0175130
848.843	0.0172543
848.921	0.0173145
848.999	0.0174960
849.078	0.0173405
849.156	0.0169999
849.234	0.0170502
849.312	0.0168775
849.390	0.0167300
849.468	0.0165777
849.546	0.0163404
849.624	0.0162802
849.703	0.0160311
849.781	0.0158900
849.859	0.0157092
849.937	0.0155680
850.015	0.0154697
850.093	0.0152909
850.171	0.0153053
850.249	0.0152361
850.328	0.0153270
850.406	0.0152643
850.484	0.0153271
850.562	0.0154175
850.640	0.0155394
850.718	0.0154804
850.796	0.0158141
850.874	0.0157666
850.953	0.0160074
851.031	0.0162000
851.109	0.0163097
851.187	0.0163778
851.265	0.0164493
851.343	0.0166546
851.421	0.0167702
851.499	0.0169324
851.578	0.0170697
851.656	0.0170080
851.734	0.0169501
851.812	0.0169970
851.890	0.0169803
851.968	0.0170274
852.046	0.0170641
852.124	0.0168715
852.203	0.0167849
852.281	0.0167951
852.359	0.0168102
852.437	0.0165537
852.515	0.0165415
852.593	0.0164728
852.671	0.0163249
852.749	0.0162587
852.828	0.0160872
852.906	0.0159335
852.984	0.0160013
853.062	0.0158721
853.140	0.0158668
853.218	0.0156050
853.296	0.0159284
853.374	0.0157917
853.453	0.0158588
853.531	0.0158817
853.609	0.0157944
853.687	0.0158849
853.765	0.0161219
853.843	0.0161675
853.921	0.0162133
853.999	0.0162247
854.078	0.0162960
854.156	0.0162915
854.234	0.0163725
854.312	0.0167043
854.390	0.0165596
854.468	0.0165942
854.546	0.0166573
854.624	0.0166293
854.703	0.0168211
854.781	0.0167541
854.859	0.0167107
854.937	0.0165977
855.015	0.0165708
855.093	0.0166074
855.171	0.0166177
855.249	0.0162900
855.328	0.0162001
855.406	0.0163374
855.484	0.0163376
855.562	0.0163209
855.640	0.0161375
855.718	0.0162278
855.796	0.0161175
855.874	0.0159341
855.953	0.0160899
856.031	0.0161932
856.109	0.0160766
856.187	0.0160526
856.265	0.0161604
856.343	0.0160084
856.421	0.0160701
856.499	0.0161041
856.578	0.0159740
856.656	0.0160748
856.734	0.0160399
856.812	0.0161988
856.890	0.0161639
856.968	0.0163185
857.046	0.0161983
857.124	0.0163329
857.203	0.0164624
857.281	0.0164757
857.359	0.0163984
857.437	0.0165174
857.515	0.0166558
857.593	0.0166936
857.671	0.0166357
857.749	0.0168660
857.828	0.0168496
857.906	0.0168571
857.984	0.0170343
858.062	0.0168993
858.140	0.0168426
858.218	0.0168297
858.296	0.0167561
858.374	0.0168483
858.453	0.0166764
858.531	0.0165544
858.609	0.0164818
858.687	0.0165166
858.765	0.0163791
858.843	0.0163877
858.921	0.0163809
858.999	0.0162202
859.078	0.0162606
859.156	0.0162824
859.234	0.0161072
859.312	0.0160758
859.390	0.0160467
859.468	0.0160170
859.546	0.0159513
859.624	0.0159032
859.703	0.0158675
859.781	0.0158094
859.859	0.0158905
859.937	0.0159629
860.015	0.0159396
860.093	0.0159470
860.171	0.0159135
860.249	0.0159368
860.328	0.0159798
860.406	0.0159414
860.484	0.0160673
860.562	0.0162598
860.640	0.0162763
860.718	0.0161973
860.796	0.0164445
860.874	0.0164989
860.953	0.0165324
861.031	0.0166148
861.109	0.0168147
861.187	0.0167171
861.265	0.0166551
861.343	0.0167151
861.421	0.0168735
861.499	0.0167770
861.578	0.0167776
861.656	0.0167546
861.734	0.0168279
861.812	0.0167849
861.890	0.0165290
861.968	0.0166671
862.046	0.0165993
862.124	0.0166833
862.203	0.0165083
862.281	0.0166643
862.359	0.0164081
862.437	0.0164671
862.515	0.0163422
862.593	0.0165099
862.671	0.0163294
862.749	0.0163831
862.828	0.0162971
862.906	0.0160770
862.984	0.0161281
863.062	0.0161978
863.140	0.0162258
863.218	0.0160691
863.296	0.0160279
863.374	0.0161065
863.453	0.0161349
863.531	0.0161304
863.609	0.0160970
863.687	0.0161798
863.765	0.0161588
863.843	0.0161539
863.921	0.0161644
863.999	0.0162234
864.078	0.0161826
864.156	0.0160538
864.234	0.0162052
864.312	0.0162746
864.390	0.0162860
864.468	0.0163409
864.546	0.0162575
864.624	0.0161595
864.703	0.0161350
864.781	0.0163635
864.859	0.0163963
864.937	0.0164728
865.015	0.0164547
865.093	0.0163831
865.171	0.0164442
865.249	0.0163979
865.328	0.0161995
865.406	0.0163422
865.484	0.0163155
865.562	0.0163255
865.640	0.0162160
865.718	0.0163067
865.796	0.0163408
865.874	0.0162220
865.953	0.0161718
866.031	0.0162302
866.109	0.0162266
866.187	0.0162569
866.265	0.0162898
866.343	0.0162109
866.421	0.0161819
866.499	0.0161791
866.578	0.0161723
866.656	0.0163918
866.734	0.0164677
866.812	0.0163987
866.890	0.0164255
866.968	0.0166042
867.046	0.0165086
867.124	0.0164844
867.203	0.0167229
867.281	0.0167387
867.359	0.0166261
867.437	0.0166336
867.515	0.0166986
867.593	0.0167567
867.671	0.0167070
867.749	0.0167154
867.828	0.0166805
867.906	0.0165545
867.984	0.0166911
868.062	0.0165839
868.140	0.0165926
868.218	0.0166130
868.296	0.0165005
868.374	0.0164057
868.453	0.0163496
868.531	0.0163585
868.609	0.0163323
868.687	0.0163081
868.765	0.0162002
868.843	0.0161461
868.921	0.0160808
868.999	0.0160987
869.078	0.0160497
869.156	0.0160251
869.234	0.0160623
869.312	0.0159942
869.390	0.0159261
869.468	0.0159356
869.546	0.0160165
869.624	0.0161222
869.703	0.0161455
869.781	0.0160448
869.859	0.0161488
869.937	0.0163624
870.015	0.0163694
870.093	0.0161288
870.171	0.0162801
870.249	0.0163889
870.328	0.0163258
870.406	0.0162212
870.484	0.0161755
870.562	0.0163313
870.640	0.0163763
870.718	0.0163562
870.796	0.0162315
870.874	0.0160936
870.953	0.0160345
871.031	0.0160733
871.109	0.0160052
871.187	0.0160057
871.265	0.0161761
871.343	0.0162559
871.421	0.0162387
871.499	0.0161578
871.578	0.0161358
871.656	0.0162189
871.734	0.0161604
871.812	0.0163436
871.890	0.0165243
871.968	0.0164100
872.046	0.0165556
872.124	0.0165308
872.203	0.0165464
872.281	0.0165799
872.359	0.0165696
872.437	0.0165348
872.515	0.0167149
872.593	0.0166098
872.671	0.0165054
872.749	0.0165090
872.828	0.0165726
872.906	0.0165944
872.984	0.0165814
873.062	0.0165015
873.140	0.0165878
873.218	0.0165919
873.296	0.0166409
873.374	0.0164952
873.453	0.0163544
873.531	0.0164424
873.609	0.0163231
873.687	0.0163965
873.765	0.0164658
873.843	0.0162427
873.921	0.0162629
873.999	0.0162617
874.078	0.0162105
874.156	0.0161353
874.234	0.0160825
874.312	0.0159925
874.390	0.0160825
874.468	0.0160523
874.546	0.0159992
874.624	0.0160148
874.703	0.0161317
874.781	0.0160898
874.859	0.0160878
874.937	0.0160436
875.015	0.0159802
875.093	0.0161398
875.171	0.0162739
875.249	0.0162566
875.328	0.0161986
875.406	0.0161286
875.484	0.0162028
875.562	0.0162457
875.640	0.0161356
875.718	0.0163330
875.796	0.0163342
875.874	0.0163335
875.953	0.0164066
876.031	0.0163531
876.109	0.0164796
876.187	0.0165318
876.265	0.0165623
876.343	0.0166666
876.421	0.0166412
876.499	0.0164712
876.578	0.0166411
876.656	0.0165769
876.734	0.0166001
876.812	0.0165064
876.890	0.0165874
876.968	0.0164702
877.046	0.0163921
877.124	0.0162967
877.203	0.0163187
877.281	0.0162852
877.359	0.0161953
877.437	0.0161223
877.515	0.0159914
877.593	0.0160263
877.671	0.0162044
877.749	0.0160158
877.828	0.0160673
877.906	0.0160740
877.984	0.0162315
878.062	0.0161109
878.140	0.0162575
878.218	0.0163331
878.296	0.0162624
878.374	0.0162120
878.453	0.0163238
878.531	0.0164282
878.609	0.0164917
878.687	0.0165900
878.765	0.0164487
878.843	0.0165856
878.921	0.0166800
878.999	0.0166027
879.078	0.0165888
879.156	0.0165510
879.234	0.0166114
879.312	0.0165496
879.390	0.0167853
879.468	0.0165839
879.546	0.0165105
879.624	0.0166036
879.703	0.0163884
879.781	0.0163255
879.859	0.0163522
879.937	0.0162830
880.015	0.0162093
880.093	0.0163132
880.171	0.0161340
880.249	0.0159939
880.328	0.0160725
880.406	0.0159937
880.484	0.0159116
880.562	0.0158452
880.640	0.0161990
880.718	0.0158707
880.796	0.0158341
880.874	0.0160104
880.953	0.0159064
881.031	0.0160554
881.109	0.0161189
881.187	0.0162168
881.265	0.0159904
881.343	0.0161350
881.421	0.0160897
881.499	0.0162923
881.578	0.0163432
881.656	0.0163957
881.734	0.0163739
881.812	0.0164160
881.890	0.0164120
881.968	0.0164114
882.046	0.0165685
882.124	0.0165980
882.203	0.0166407
882.281	0.0165753
882.359	0.0166029
882.437	0.0166408
882.515	0.0165682
882.593	0.0166321
882.671	0.0167221
882.749	0.0165972
882.828	0.0165205
882.906	0.0164913
882.984	0.0166139
883.062	0.0164495
883.140	0.0164125
883.218	0.0163758
883.296	0.0163573
883.374	0.0165453
883.453	0.0162758
883.531	0.0163493
883.609	0.0163858
883.687	0.0163086
883.765	0.0161547
883.843	0.0162015
883.921	0.0162074
883.999	0.0162126
884.078	0.0160928
884.156	0.0161024
884.234	0.0161591
884.312	0.0160920
884.390	0.0160464
884.468	0.0161005
884.546	0.0161861
884.624	0.0162023
884.703	0.0163549
884.781	0.0163667
884.859	0.0163316
884.937	0.0162882
885.015	0.0163995
885.093	0.0164664
885.171	0.0164081
885.249	0.0163506
885.328	0.0164738
885.406	0.0164275
885.484	0.0165369
885.562	0.0165179
885.640	0.0165311
885.718	0.0165268
885.796	0.0165270
885.874	0.0165277
885.953	0.0164482
886.031	0.0164426
886.109	0.0163476
886.187	0.0164151
886.265	0.0164531
886.343	0.0164488
886.421	0.0163535
886.499	0.0163245
886.578	0.0162848
886.656	0.0162656
886.734	0.0164064
886.812	0.0163053
886.890	0.0163018
886.968	0.0162688
887.046	0.0163711
887.124	0.0162432
887.203	0.0162205
887.281	0.0161198
887.359	0.0162967
887.437	0.0163469
887.515	0.0161700
887.593	0.0162120
887.671	0.0162508
887.749	0.0163340
887.828	0.0163638
887.906	0.0163457
887.984	0.0163612
888.062	0.0162337
888.140	0.0163029
888.218	0.0163492
888.296	0.0163268
888.374	0.0163751
888.453	0.0163745
888.531	0.0162669
888.609	0.0163134
888.687	0.0163638
888.765	0.0163577
888.843	0.0163685
888.921	0.0162948
888.999	0.0163168
889.078	0.0163425
889.156	0.0163750
889.234	0.0163094
889.312	0.0164132
889.390	0.0163786
889.468	0.0162932
889.546	0.0162110
889.624	0.0162283
889.703	0.0163586
889.781	0.0163429
889.859	0.0164104
889.937	0.0162772
890.015	0.0163139
890.093	0.0163447
890.171	0.0163802
890.249	0.0164392
890.328	0.0164232
890.406	0.0165379
890.484	0.0162302
890.562	0.0163402
890.640	0.0162321
890.718	0.0165057
890.796	0.0165224
890.874	0.0163716
890.953	0.0163079
891.031	0.0163313
891.109	0.0164079
891.187	0.0163403
891.265	0.0164574
891.343	0.0162930
891.421	0.0162425
891.499	0.0163453
891.578	0.0163441
891.656	0.0161196
891.734	0.0161389
891.812	0.0162337
891.890	0.0162509
891.968	0.0161266
892.046	0.0160143
892.124	0.0162103
892.203	0.0162026
892.281	0.0162638
892.359	0.0162348
892.437	0.0161953
892.515	0.0160598
892.593	0.0162130
892.671	0.0162627
892.749	0.0162492
892.828	0.0162736
892.906	0.0162298
892.984	0.0163746
893.062	0.0163743
893.140	0.0163348
893.218	0.0163532
893.296	0.0163747
893.374	0.0163255
893.453	0.0163865
893.531	0.0165243
893.609	0.0163796
893.687	0.0163345
893.765	0.0165276
893.843	0.0164388
893.921	0.0165835
893.999	0.0163947
894.078	0.0163979
894.156	0.0165898
894.234	0.0165219
894.312	0.0164187
894.390	0.0164421
894.468	0.0162832
894.546	0.0163036
894.624	0.0163876
894.703	0.0163963
894.781	0.0162955
894.859	0.0162551
894.937	0.0162980
895.015	0.0162224
895.093	0.0161758
895.171	0.0161583
895.249	0.0161652
895.328	0.0160778
895.406	0.0159621
895.484	0.0160682
895.562	0.0160339
895.640	0.0161305
895.718	0.0160671
895.796	0.0160134
895.874	0.0161507
895.953	0.0162418
896.031	0.0161511
896.109	0.0162302
896.187	0.0162285
896.265	0.0161191
896.343	0.0164182
896.421	0.0163309
896.499	0.0163309
896.578	0.0164661
896.656	0.0164804
896.734	0.0164344
896.812	0.0163707
896.890	0.0165464
896.968	0.0165575
897.046	0.0164254
897.124	0.0164507
897.203	0.0165444
897.281	0.0164304
897.359	0.0165405
897.437	0.0163213
897.515	0.0163058
897.593	0.0162820
897.671	0.0163264
897.749	0.0163636
897.828	0.0162525
897.906	0.0163313
897.984	0.0163256
898.062	0.0164466
898.140	0.0162787
898.218	0.0162904
898.296	0.0162325
898.374	0.0163113
898.453	0.0163244
898.531	0.0161652
898.609	0.0164140
898.687	0.0164045
898.765	0.0163657
898.843	0.0163713
898.921	0.0164387
898.999	0.0162909
899.078	0.0161602
899.156	0.0163823
899.234	0.0164175
899.312	0.0164216
899.390	0.0164238
899.468	0.0164453
899.546	0.0164013
899.624	0.0163808
899.703	0.0163383
899.781	0.0162880
899.859	0.0162891
899.937	0.0161803
900.015	0.0162382
900.093	0.0161624
900.171	0.0162580
900.249	0.0162000
900.328	0.0161683
900.406	0.0161249
900.484	0.0160546
900.562	0.0161337
900.640	0.0161296
900.718	0.0162171
900.796	0.0161450
900.874	0.0160595
900.953	0.0162370
901.031	0.0162294
901.109	0.0162424
901.187	0.0162337
901.265	0.0162276
901.343	0.0162124
901.421	0.0162739
901.499	0.0164421
901.578	0.0163020
901.656	0.0164084
901.734	0.0164600
901.812	0.0164574
901.890	0.0165172
901.968	0.0165166
902.046	0.0164842
902.124	0.0165350
902.203	0.0164210
902.281	0.0164102
902.359	0.0163709
902.437	0.0163850
902.515	0.0163595
902.593	0.0163697
902.671	0.0162299
902.749	0.0163155
902.828	0.0162988
902.906	0.0162453
902.984	0.0161893
903.062	0.0162167
903.140	0.0163117
903.218	0.0161296
903.296	0.0160764
903.374	0.0161077
903.453	0.0161372
903.531	0.0161906
903.609	0.0161891
903.687	0.0161785
903.765	0.0160297
903.843	0.0160706
903.921	0.0162378
903.999	0.0162571
904.078	0.0162043
904.156	0.0162739
904.234	0.0163701
904.312	0.0163239
904.390	0.0163268
904.468	0.0164529
904.546	0.0163624
904.624	0.0164854
904.703	0.0164362
904.781	0.0164095
904.859	0.0163622
904.937	0.0164535
905.015	0.0165302
905.093	0.0163281
905.171	0.0164742
905.249	0.0163400
905.328	0.0164491
905.406	0.0163392
905.484	0.0162759
905.562	0.0163023
905.640	0.0162354
905.718	0.0161787
905.796	0.0162869
905.874	0.0160519
905.953	0.0160465
906.031	0.0162304
906.109	0.0161490
906.187	0.0162473
906.265	0.0163373
906.343	0.0160329
906.421	0.0162682
906.499	0.0162045
906.578	0.0163002
906.656	0.0161618
906.734	0.0162836
906.812	0.0163168
906.890	0.0163530
906.968	0.0164847
907.046	0.0164809
907.124	0.0164555
907.203	0.0165711
907.281	0.0164345
907.359	0.0164944
907.437	0.0164774
907.515	0.0164372
907.593	0.0163924
907.671	0.0164165
907.749	0.0164891
907.828	0.0164378
907.906	0.0164026
907.984	0.0164814
908.062	0.0163332
908.140	0.0162843
908.218	0.0164189
908.296	0.0162939
908.374	0.0165158
908.453	0.0163578
908.531	0.0163216
908.609	0.0164191
908.687	0.0163906
908.765	0.0163821
908.843	0.0162572
908.921	0.0163804
908.999	0.0163390
909.078	0.0162230
909.156	0.0163491
909.234	0.0163055
909.312	0.0162661
909.390	0.0161508
909.468	0.0161941
909.546	0.0163374
909.624	0.0162608
909.703	0.0163409
909.781	0.0163280
909.859	0.0162362
909.937	0.0162093
910.015	0.0163251
910.093	0.0164983
910.171	0.0164314
910.249	0.0162247
910.328	0.0163367
910.406	0.0163940
910.484	0.0164302
910.562	0.0164213
910.640	0.0164115
910.718	0.0164101
910.796	0.0163470
910.874	0.0165137
910.953	0.0163051
911.031	0.0163486
911.109	0.0164695
911.187	0.0163869
911.265	0.0164349
911.343	0.0162743
911.421	0.0164223
911.499	0.0162884
911.578	0.0163544
911.656	0.0162996
911.734	0.0162967
911.812	0.0161678
911.890	0.0161133
911.968	0.0161176
912.046	0.0162187
912.124	0.0162130
912.203	0.0162580
912.281	0.0163307
912.359	0.0162253
912.437	0.0162414
912.515	0.0161626
912.593	0.0162309
912.671	0.0163644
912.749	0.0163567
912.828	0.0163631
912.906	0.0163456
912.984	0.0163776
913.062	0.0164552
913.140	0.0163638
913.218	0.0164948
913.296	0.0165429
913.374	0.0164876
913.453	0.0165494
913.531	0.0165437
913.609	0.0165649
913.687	0.0163164
913.765	0.0164462
913.843	0.0163855
913.921	0.0163885
913.999	0.0163084
914.078	0.0164358
914.156	0.0162729
914.234	0.0163391
914.312	0.0162972
914.390	0.0162351
914.468	0.0164453
914.546	0.0162180
914.624	0.0163027
914.703	0.0163952
914.781	0.0161903
914.859	0.0163033
914.937	0.0162685
915.015	0.0162968
915.093	0.0163374
915.171	0.0162988
915.249	0.0162986
915.328	0.0162364
915.406	0.0163036
915.484	0.0164352
915.562	0.0164512
915.640	0.0161528
915.718	0.0163966
915.796	0.0164372
915.874	0.0163228
915.953	0.0163326
916.031	0.0163390
916.109	0.0163152
916.187	0.0163090
916.265	0.0163719
916.343	0.0162030
916.421	0.0162241
916.499	0.0162045
916.578	0.0163157
916.656	0.0163551
916.734	0.0164082
916.812	0.0163540
916.890	0.0165269
916.968	0.0161755
917.046	0.0163212
917.124	0.0162158
917.203	0.0162829
917.281	0.0162453
917.359	0.0162273
917.437	0.0162627
917.515	0.0164292
917.593	0.0163610
917.671	0.0162881
917.749	0.0162505
917.828	0.0162939
917.906	0.0162800
917.984	0.0163799
918.062	0.0162128
918.140	0.0162372
918.218	0.0162855
918.296	0.0162082
918.374	0.0162686
918.453	0.0162506
918.531	0.0162888
918.609	0.0164547
918.687	0.0163469
918.765	0.0163807
918.843	0.0162259
918.921	0.0162529
918.999	0.0162463
919.078	0.0164013
919.156	0.0163802
919.234	0.0164872
919.312	0.0164079
919.390	0.0164688
919.468	0.0163056
919.546	0.0162246
919.624	0.0161873
919.703	0.0162637
919.781	0.0163417
919.859	0.0162154
919.937	0.0161103
