06/10/2022	18:31:49	Ver.	4.1	UNKNOWN
Optical Delay	600.015094	Delta X		0.078125	Sweeps	1	Scan Rate	0/0
Coordinates	Axis 1	NaN	Axis 2	NaN	Axis 3	NaN	Axis 4	NaN	Axis 5	NaN	Axis 6	0.000000
TX Power	0.000000	RX Power	0.000000

600.015	0.0160081
600.093	0.0160183
600.171	0.0161710
600.249	0.0158695
600.328	0.0160927
600.406	0.0160186
600.484	0.0161120
600.562	0.0160424
600.640	0.0160015
600.718	0.0160855
600.796	0.0159674
600.874	0.0159978
600.953	0.0159615
601.031	0.0160146
601.109	0.0160533
601.187	0.0158965
601.265	0.0160381
601.343	0.0160177
601.421	0.0160231
601.499	0.0160648
601.578	0.0159731
601.656	0.0160101
601.734	0.0159760
601.812	0.0159322
601.890	0.0160793
601.968	0.0161445
602.046	0.0160314
602.124	0.0160583
602.203	0.0161044
602.281	0.0160337
602.359	0.0160270
602.437	0.0160435
602.515	0.0160838
602.593	0.0159563
602.671	0.0160145
602.749	0.0159615
602.828	0.0160587
602.906	0.0161609
602.984	0.0159766
603.062	0.0159462
603.140	0.0159972
603.218	0.0161080
603.296	0.0160490
603.374	0.0161033
603.453	0.0160070
603.531	0.0160408
603.609	0.0159795
603.687	0.0161025
603.765	0.0159723
603.843	0.0159687
603.921	0.0159790
603.999	0.0160825
604.078	0.0161858
604.156	0.0159283
604.234	0.0160445
604.312	0.0160332
604.390	0.0160153
604.468	0.0161309
604.546	0.0159750
604.624	0.0159995
604.703	0.0161265
604.781	0.0159515
604.859	0.0159634
604.937	0.0160153
605.015	0.0160619
605.093	0.0159885
605.171	0.0160522
605.249	0.0160052
605.328	0.0160015
605.406	0.0161112
605.484	0.0159690
605.562	0.0159602
605.640	0.0160642
605.718	0.0159989
605.796	0.0160648
605.874	0.0160171
605.953	0.0160854
606.031	0.0160406
606.109	0.0158833
606.187	0.0159752
606.265	0.0160023
606.343	0.0159769
606.421	0.0159544
606.499	0.0160773
606.578	0.0159802
606.656	0.0159156
606.734	0.0160359
606.812	0.0159750
606.890	0.0160754
606.968	0.0160004
607.046	0.0159280
607.124	0.0160863
607.203	0.0161116
607.281	0.0159394
607.359	0.0158708
607.437	0.0160396
607.515	0.0159444
607.593	0.0161321
607.671	0.0160464
607.749	0.0160326
607.828	0.0160873
607.906	0.0160934
607.984	0.0161024
608.062	0.0159976
608.140	0.0158639
608.218	0.0159205
608.296	0.0159917
608.374	0.0160081
608.453	0.0159933
608.531	0.0160139
608.609	0.0159447
608.687	0.0160323
608.765	0.0158847
608.843	0.0159473
608.921	0.0160558
608.999	0.0159581
609.078	0.0161592
609.156	0.0159184
609.234	0.0159821
609.312	0.0160036
609.390	0.0160329
609.468	0.0159595
609.546	0.0161770
609.624	0.0161407
609.703	0.0160815
609.781	0.0161044
609.859	0.0160281
609.937	0.0161485
610.015	0.0160642
610.093	0.0159083
610.171	0.0159769
610.249	0.0160262
610.328	0.0159479
610.406	0.0159097
610.484	0.0160952
610.562	0.0160796
610.640	0.0159638
610.718	0.0159902
610.796	0.0159729
610.874	0.0160323
610.953	0.0159084
611.031	0.0159853
611.109	0.0162919
611.187	0.0160061
611.265	0.0159875
611.343	0.0160529
611.421	0.0159608
611.499	0.0160039
611.578	0.0160452
611.656	0.0160585
611.734	0.0160182
611.812	0.0160703
611.890	0.0159155
611.968	0.0159501
612.046	0.0159780
612.124	0.0159273
612.203	0.0160644
612.281	0.0158874
612.359	0.0159192
612.437	0.0161125
612.515	0.0160961
612.593	0.0159772
612.671	0.0159185
612.749	0.0160235
612.828	0.0161386
612.906	0.0159749
612.984	0.0159225
613.062	0.0159769
613.140	0.0160766
613.218	0.0160704
613.296	0.0160005
613.374	0.0160400
613.453	0.0160336
613.531	0.0160679
613.609	0.0159599
613.687	0.0158852
613.765	0.0160009
613.843	0.0159792
613.921	0.0159823
613.999	0.0159443
614.078	0.0160127
614.156	0.0160365
614.234	0.0160006
614.312	0.0159563
614.390	0.0159203
614.468	0.0159396
614.546	0.0159892
614.624	0.0159444
614.703	0.0159732
614.781	0.0160609
614.859	0.0160181
614.937	0.0159665
615.015	0.0159678
615.093	0.0159578
615.171	0.0159523
615.249	0.0159001
615.328	0.0158857
615.406	0.0160551
615.484	0.0160681
615.562	0.0161242
615.640	0.0160341
615.718	0.0160390
615.796	0.0161018
615.874	0.0159835
615.953	0.0159784
616.031	0.0159837
616.109	0.0159471
616.187	0.0159815
616.265	0.0161273
616.343	0.0160178
616.421	0.0159372
616.499	0.0160965
616.578	0.0160403
616.656	0.0159694
616.734	0.0161604
616.812	0.0160432
616.890	0.0160640
616.968	0.0159058
617.046	0.0161164
617.124	0.0161320
617.203	0.0160595
617.281	0.0160544
617.359	0.0159913
617.437	0.0159928
617.515	0.0161420
617.593	0.0159368
617.671	0.0160600
617.749	0.0161860
617.828	0.0160468
617.906	0.0160395
617.984	0.0159444
618.062	0.0159940
618.140	0.0160129
618.218	0.0160020
618.296	0.0160265
618.374	0.0159815
618.453	0.0159776
618.531	0.0158605
618.609	0.0158566
618.687	0.0159875
618.765	0.0159148
618.843	0.0160228
618.921	0.0159706
618.999	0.0159626
619.078	0.0159530
619.156	0.0160378
619.234	0.0160501
619.312	0.0160564
619.390	0.0161139
619.468	0.0160649
619.546	0.0158849
619.624	0.0159225
619.703	0.0159586
619.781	0.0160048
619.859	0.0160889
619.937	0.0159383
620.015	0.0159944
620.093	0.0160768
620.171	0.0158752
620.249	0.0159172
620.328	0.0159256
620.406	0.0159801
620.484	0.0160783
620.562	0.0160963
620.640	0.0159227
620.718	0.0160007
620.796	0.0158669
620.874	0.0159625
620.953	0.0159793
621.031	0.0159305
621.109	0.0160841
621.187	0.0159750
621.265	0.0160655
621.343	0.0159672
621.421	0.0159258
621.499	0.0159679
621.578	0.0158928
621.656	0.0159984
621.734	0.0160702
621.812	0.0160859
621.890	0.0160883
621.968	0.0159665
622.046	0.0159347
622.124	0.0160769
622.203	0.0159401
622.281	0.0160755
622.359	0.0158784
622.437	0.0159232
622.515	0.0160630
622.593	0.0160128
622.671	0.0159935
622.749	0.0160107
622.828	0.0160593
622.906	0.0159357
622.984	0.0159034
623.062	0.0159476
623.140	0.0160156
623.218	0.0160026
623.296	0.0160272
623.374	0.0158749
623.453	0.0160110
623.531	0.0159454
623.609	0.0159595
623.687	0.0160100
623.765	0.0161027
623.843	0.0160490
623.921	0.0159872
623.999	0.0159972
624.078	0.0160035
624.156	0.0160645
624.234	0.0158905
624.312	0.0159287
624.390	0.0161082
624.468	0.0160123
624.546	0.0160677
624.624	0.0161430
624.703	0.0159751
624.781	0.0159992
624.859	0.0158696
624.937	0.0159810
625.015	0.0160362
625.093	0.0160500
625.171	0.0161224
625.249	0.0159341
625.328	0.0159814
625.406	0.0160480
625.484	0.0160049
625.562	0.0160239
625.640	0.0159350
625.718	0.0160016
625.796	0.0160117
625.874	0.0160190
625.953	0.0159335
626.031	0.0160208
626.109	0.0161607
626.187	0.0160894
626.265	0.0160278
626.343	0.0161919
626.421	0.0160449
626.499	0.0160313
626.578	0.0160799
626.656	0.0161620
626.734	0.0158181
626.812	0.0159637
626.890	0.0158871
626.968	0.0160555
627.046	0.0159042
627.124	0.0158971
627.203	0.0160637
627.281	0.0160445
627.359	0.0159274
627.437	0.0159947
627.515	0.0160005
627.593	0.0159505
627.671	0.0160980
627.749	0.0159992
627.828	0.0161279
627.906	0.0160106
627.984	0.0159550
628.062	0.0161446
628.140	0.0162460
628.218	0.0160296
628.296	0.0159682
628.374	0.0161153
628.453	0.0160962
628.531	0.0160157
628.609	0.0159721
628.687	0.0160293
628.765	0.0159789
628.843	0.0160583
628.921	0.0162428
628.999	0.0158167
629.078	0.0160167
629.156	0.0159765
629.234	0.0159977
629.312	0.0160265
629.390	0.0159012
629.468	0.0160616
629.546	0.0160647
629.624	0.0160212
629.703	0.0160057
629.781	0.0159077
629.859	0.0158908
629.937	0.0158373
630.015	0.0159093
630.093	0.0161631
630.171	0.0160513
630.249	0.0160850
630.328	0.0158698
630.406	0.0159962
630.484	0.0160045
630.562	0.0160095
630.640	0.0159509
630.718	0.0159090
630.796	0.0160487
630.874	0.0159390
630.953	0.0159267
631.031	0.0159735
631.109	0.0160410
631.187	0.0160773
631.265	0.0160216
631.343	0.0159530
631.421	0.0159938
631.499	0.0159318
631.578	0.0160503
631.656	0.0159564
631.734	0.0159893
631.812	0.0160202
631.890	0.0160727
631.968	0.0161242
632.046	0.0160710
632.124	0.0160965
632.203	0.0160355
632.281	0.0159739
632.359	0.0160561
632.437	0.0159897
632.515	0.0160405
632.593	0.0158843
632.671	0.0158687
632.749	0.0160130
632.828	0.0159759
632.906	0.0160171
632.984	0.0159338
633.062	0.0160765
633.140	0.0159866
633.218	0.0159496
633.296	0.0159357
633.374	0.0161053
633.453	0.0160136
633.531	0.0158997
633.609	0.0159988
633.687	0.0159713
633.765	0.0158488
633.843	0.0158245
633.921	0.0159277
633.999	0.0160488
634.078	0.0159668
634.156	0.0160097
634.234	0.0159805
634.312	0.0159197
634.390	0.0161333
634.468	0.0159839
634.546	0.0159604
634.624	0.0159147
634.703	0.0158597
634.781	0.0161082
634.859	0.0159806
634.937	0.0159790
635.015	0.0160137
635.093	0.0158097
635.171	0.0158646
635.249	0.0159370
635.328	0.0158640
635.406	0.0159057
635.484	0.0159463
635.562	0.0159451
635.640	0.0159061
635.718	0.0159214
635.796	0.0160203
635.874	0.0160573
635.953	0.0159430
636.031	0.0159612
636.109	0.0159435
636.187	0.0161516
636.265	0.0159478
636.343	0.0158751
636.421	0.0159666
636.499	0.0159808
636.578	0.0160705
636.656	0.0158892
636.734	0.0160273
636.812	0.0160269
636.890	0.0159584
636.968	0.0159502
637.046	0.0159624
637.124	0.0161214
637.203	0.0161166
637.281	0.0159761
637.359	0.0158617
637.437	0.0159257
637.515	0.0159856
637.593	0.0160184
637.671	0.0160294
637.749	0.0159058
637.828	0.0159840
637.906	0.0159985
637.984	0.0159079
638.062	0.0160343
638.140	0.0161013
638.218	0.0159516
638.296	0.0160423
638.374	0.0160131
638.453	0.0158865
638.531	0.0160246
638.609	0.0161089
638.687	0.0160616
638.765	0.0160705
638.843	0.0159507
638.921	0.0159492
638.999	0.0160444
639.078	0.0159955
639.156	0.0160723
639.234	0.0160600
639.312	0.0160387
639.390	0.0160651
639.468	0.0158372
639.546	0.0160709
639.624	0.0160655
639.703	0.0159698
639.781	0.0158066
639.859	0.0159758
639.937	0.0160776
640.015	0.0159802
640.093	0.0161555
640.171	0.0161049
640.249	0.0159724
640.328	0.0159749
640.406	0.0159385
640.484	0.0160182
640.562	0.0159042
640.640	0.0159849
640.718	0.0159187
640.796	0.0159396
640.874	0.0160155
640.953	0.0160343
641.031	0.0160461
641.109	0.0159552
641.187	0.0159654
641.265	0.0160295
641.343	0.0160174
641.421	0.0161361
641.499	0.0159198
641.578	0.0160588
641.656	0.0160741
641.734	0.0160872
641.812	0.0160804
641.890	0.0160931
641.968	0.0160283
642.046	0.0159467
642.124	0.0159422
642.203	0.0160732
642.281	0.0159924
642.359	0.0160664
642.437	0.0159986
642.515	0.0159792
642.593	0.0158859
642.671	0.0161372
642.749	0.0159528
642.828	0.0159435
642.906	0.0160049
642.984	0.0160074
643.062	0.0160031
643.140	0.0159482
643.218	0.0161282
643.296	0.0161766
643.374	0.0160614
643.453	0.0161085
643.531	0.0160358
643.609	0.0160553
643.687	0.0159853
643.765	0.0160164
643.843	0.0159743
643.921	0.0160485
643.999	0.0160257
644.078	0.0160451
644.156	0.0159398
644.234	0.0160329
644.312	0.0161488
644.390	0.0160077
644.468	0.0159766
644.546	0.0158858
644.624	0.0160358
644.703	0.0160239
644.781	0.0159456
644.859	0.0159862
644.937	0.0160468
645.015	0.0159266
645.093	0.0161993
645.171	0.0161883
645.249	0.0158992
645.328	0.0160901
645.406	0.0160487
645.484	0.0160077
645.562	0.0158799
645.640	0.0160822
645.718	0.0160501
645.796	0.0159354
645.874	0.0159127
645.953	0.0159420
646.031	0.0159509
646.109	0.0160905
646.187	0.0160473
646.265	0.0159248
646.343	0.0159815
646.421	0.0158315
646.499	0.0158643
646.578	0.0159885
646.656	0.0159802
646.734	0.0160731
646.812	0.0159731
646.890	0.0160286
646.968	0.0161404
647.046	0.0160284
647.124	0.0160684
647.203	0.0159806
647.281	0.0158370
647.359	0.0159618
647.437	0.0159751
647.515	0.0160742
647.593	0.0159613
647.671	0.0160271
647.749	0.0159695
647.828	0.0159250
647.906	0.0158562
647.984	0.0161283
648.062	0.0160534
648.140	0.0160455
648.218	0.0159635
648.296	0.0159019
648.374	0.0160536
648.453	0.0159152
648.531	0.0159714
648.609	0.0160418
648.687	0.0159253
648.765	0.0159798
648.843	0.0159677
648.921	0.0161616
648.999	0.0160258
649.078	0.0160780
649.156	0.0159674
649.234	0.0158600
649.312	0.0161183
649.390	0.0160042
649.468	0.0160441
649.546	0.0160959
649.624	0.0159393
649.703	0.0160151
649.781	0.0161811
649.859	0.0160262
649.937	0.0159589
650.015	0.0159949
650.093	0.0160382
650.171	0.0160120
650.249	0.0160484
650.328	0.0160939
650.406	0.0161064
650.484	0.0159622
650.562	0.0159786
650.640	0.0159944
650.718	0.0161593
650.796	0.0160913
650.874	0.0160001
650.953	0.0160609
651.031	0.0159777
651.109	0.0161474
651.187	0.0160298
651.265	0.0160078
651.343	0.0159100
651.421	0.0159352
651.499	0.0159503
651.578	0.0160864
651.656	0.0160543
651.734	0.0159294
651.812	0.0160171
651.890	0.0161235
651.968	0.0158744
652.046	0.0161275
652.124	0.0160493
652.203	0.0160255
652.281	0.0161667
652.359	0.0161015
652.437	0.0160023
652.515	0.0159577
652.593	0.0159661
652.671	0.0160407
652.749	0.0159772
652.828	0.0160678
652.906	0.0160175
652.984	0.0161334
653.062	0.0160805
653.140	0.0161347
653.218	0.0160773
653.296	0.0159298
653.374	0.0160068
653.453	0.0160529
653.531	0.0159866
653.609	0.0159785
653.687	0.0158928
653.765	0.0161034
653.843	0.0161235
653.921	0.0160837
653.999	0.0160431
654.078	0.0160088
654.156	0.0160404
654.234	0.0159869
654.312	0.0160677
654.390	0.0160709
654.468	0.0159695
654.546	0.0159435
654.624	0.0160569
654.703	0.0158590
654.781	0.0162026
654.859	0.0160683
654.937	0.0159428
655.015	0.0161076
655.093	0.0160476
655.171	0.0160358
655.249	0.0161544
655.328	0.0159470
655.406	0.0158454
655.484	0.0160012
655.562	0.0161217
655.640	0.0160815
655.718	0.0159076
655.796	0.0160213
655.874	0.0160478
655.953	0.0159194
656.031	0.0159789
656.109	0.0161055
656.187	0.0159193
656.265	0.0159636
656.343	0.0159003
656.421	0.0159941
656.499	0.0159586
656.578	0.0160409
656.656	0.0159476
656.734	0.0159167
656.812	0.0159479
656.890	0.0160848
656.968	0.0160432
657.046	0.0160519
657.124	0.0159623
657.203	0.0158774
657.281	0.0160970
657.359	0.0160332
657.437	0.0159327
657.515	0.0159306
657.593	0.0159125
657.671	0.0159315
657.749	0.0159816
657.828	0.0159029
657.906	0.0160209
657.984	0.0160180
658.062	0.0160065
658.140	0.0159737
658.218	0.0160604
658.296	0.0158020
658.374	0.0159803
658.453	0.0160147
658.531	0.0160918
658.609	0.0159721
658.687	0.0160256
658.765	0.0159669
658.843	0.0160007
658.921	0.0160530
658.999	0.0160326
659.078	0.0160877
659.156	0.0160217
659.234	0.0159754
659.312	0.0159625
659.390	0.0160110
659.468	0.0160899
659.546	0.0159824
659.624	0.0160676
659.703	0.0160887
659.781	0.0159600
659.859	0.0160400
659.937	0.0161106
660.015	0.0160656
660.093	0.0160202
660.171	0.0159534
660.249	0.0159179
660.328	0.0160513
660.406	0.0160387
660.484	0.0160291
660.562	0.0160580
660.640	0.0160374
660.718	0.0160969
660.796	0.0159737
660.874	0.0160190
660.953	0.0159616
661.031	0.0159344
661.109	0.0160208
661.187	0.0160232
661.265	0.0160859
661.343	0.0160962
661.421	0.0159290
661.499	0.0160728
661.578	0.0159651
661.656	0.0159498
661.734	0.0158614
661.812	0.0161438
661.890	0.0159525
661.968	0.0160275
662.046	0.0160822
662.124	0.0161208
662.203	0.0160065
662.281	0.0160072
662.359	0.0159438
662.437	0.0159850
662.515	0.0160352
662.593	0.0159050
662.671	0.0160354
662.749	0.0161596
662.828	0.0159050
662.906	0.0160371
662.984	0.0160180
663.062	0.0159313
663.140	0.0159308
663.218	0.0160160
663.296	0.0160118
663.374	0.0161375
663.453	0.0160491
663.531	0.0158997
663.609	0.0159616
663.687	0.0160069
663.765	0.0161034
663.843	0.0160119
663.921	0.0159999
663.999	0.0160069
664.078	0.0160307
664.156	0.0160092
664.234	0.0158898
664.312	0.0161250
664.390	0.0160801
664.468	0.0160486
664.546	0.0159682
664.624	0.0159591
664.703	0.0160105
664.781	0.0159293
664.859	0.0160367
664.937	0.0160016
665.015	0.0159754
665.093	0.0161053
665.171	0.0160855
665.249	0.0160479
665.328	0.0159904
665.406	0.0160974
665.484	0.0160728
665.562	0.0160487
665.640	0.0160358
665.718	0.0159145
665.796	0.0160309
665.874	0.0159432
665.953	0.0161054
666.031	0.0160415
666.109	0.0160077
666.187	0.0159323
666.265	0.0159928
666.343	0.0159660
666.421	0.0160477
666.499	0.0161541
666.578	0.0160543
666.656	0.0159603
666.734	0.0160461
666.812	0.0159914
666.890	0.0158618
666.968	0.0160182
667.046	0.0162196
667.124	0.0161185
667.203	0.0159431
667.281	0.0161897
667.359	0.0160693
667.437	0.0159753
667.515	0.0160389
667.593	0.0159769
667.671	0.0160389
667.749	0.0161262
667.828	0.0158427
667.906	0.0159671
667.984	0.0160696
668.062	0.0161125
668.140	0.0159232
668.218	0.0160216
668.296	0.0160100
668.374	0.0160311
668.453	0.0159740
668.531	0.0159597
668.609	0.0160355
668.687	0.0159814
668.765	0.0159407
668.843	0.0160511
668.921	0.0160281
668.999	0.0160892
669.078	0.0160351
669.156	0.0161468
669.234	0.0160635
669.312	0.0160275
669.390	0.0160230
669.468	0.0159509
669.546	0.0159212
669.624	0.0159497
669.703	0.0159881
669.781	0.0161571
669.859	0.0160581
669.937	0.0160260
670.015	0.0160527
670.093	0.0159784
670.171	0.0161347
670.249	0.0160845
670.328	0.0160317
670.406	0.0158693
670.484	0.0160402
670.562	0.0161414
670.640	0.0158722
670.718	0.0160235
670.796	0.0160369
670.874	0.0158950
670.953	0.0160251
671.031	0.0161027
671.109	0.0160672
671.187	0.0159731
671.265	0.0160719
671.343	0.0159458
671.421	0.0160419
671.499	0.0160313
671.578	0.0160212
671.656	0.0160422
671.734	0.0160148
671.812	0.0159229
671.890	0.0160703
671.968	0.0159550
672.046	0.0160146
672.124	0.0159443
672.203	0.0159821
672.281	0.0159779
672.359	0.0161052
672.437	0.0160403
672.515	0.0160139
672.593	0.0161135
672.671	0.0159528
672.749	0.0160916
672.828	0.0160206
672.906	0.0160262
672.984	0.0161289
673.062	0.0160938
673.140	0.0161333
673.218	0.0158883
673.296	0.0160416
673.374	0.0160882
673.453	0.0159765
673.531	0.0160536
673.609	0.0160999
673.687	0.0160008
673.765	0.0160806
673.843	0.0160786
673.921	0.0161333
673.999	0.0161100
674.078	0.0160007
674.156	0.0160837
674.234	0.0160500
674.312	0.0159295
674.390	0.0160488
674.468	0.0159955
674.546	0.0158520
674.624	0.0159579
674.703	0.0159245
674.781	0.0159834
674.859	0.0158371
674.937	0.0159368
675.015	0.0160604
675.093	0.0161004
675.171	0.0159821
675.249	0.0160374
675.328	0.0160454
675.406	0.0159200
675.484	0.0160440
675.562	0.0161532
675.640	0.0160203
675.718	0.0160911
675.796	0.0161095
675.874	0.0160296
675.953	0.0160181
676.031	0.0160188
676.109	0.0160137
676.187	0.0159200
676.265	0.0160471
676.343	0.0161005
676.421	0.0161585
676.499	0.0159856
676.578	0.0159499
676.656	0.0161578
676.734	0.0160327
676.812	0.0160200
676.890	0.0160352
676.968	0.0159268
677.046	0.0160246
677.124	0.0161279
677.203	0.0159422
677.281	0.0162309
677.359	0.0160604
677.437	0.0159381
677.515	0.0160007
677.593	0.0159741
677.671	0.0160476
677.749	0.0159400
677.828	0.0159897
677.906	0.0159978
677.984	0.0159882
678.062	0.0159208
678.140	0.0158855
678.218	0.0158949
678.296	0.0159872
678.374	0.0159883
678.453	0.0159369
678.531	0.0160698
678.609	0.0161244
678.687	0.0160765
678.765	0.0160207
678.843	0.0160729
678.921	0.0160716
678.999	0.0159306
679.078	0.0160105
679.156	0.0161577
679.234	0.0161589
679.312	0.0159142
679.390	0.0160281
679.468	0.0160522
679.546	0.0159709
679.624	0.0161231
679.703	0.0159502
679.781	0.0159497
679.859	0.0160265
679.937	0.0159509
680.015	0.0159845
680.093	0.0161061
680.171	0.0159721
680.249	0.0159689
680.328	0.0159134
680.406	0.0160757
680.484	0.0159307
680.562	0.0159431
680.640	0.0159387
680.718	0.0159503
680.796	0.0160016
680.874	0.0159910
680.953	0.0160178
681.031	0.0159499
681.109	0.0160442
681.187	0.0159038
681.265	0.0158365
681.343	0.0160548
681.421	0.0160048
681.499	0.0158785
681.578	0.0160614
681.656	0.0161028
681.734	0.0159661
681.812	0.0159532
681.890	0.0160007
681.968	0.0160543
682.046	0.0160437
682.124	0.0159904
682.203	0.0160913
682.281	0.0160764
682.359	0.0161646
682.437	0.0159496
682.515	0.0161473
682.593	0.0159725
682.671	0.0160597
682.749	0.0160791
682.828	0.0160384
682.906	0.0161457
682.984	0.0160864
683.062	0.0159915
683.140	0.0159644
683.218	0.0160173
683.296	0.0159429
683.374	0.0159293
683.453	0.0159689
683.531	0.0159563
683.609	0.0158901
683.687	0.0161518
683.765	0.0158995
683.843	0.0159081
683.921	0.0159013
683.999	0.0160282
684.078	0.0159427
684.156	0.0158683
684.234	0.0159571
684.312	0.0160509
684.390	0.0160430
684.468	0.0159698
684.546	0.0160838
684.624	0.0160221
684.703	0.0160990
684.781	0.0159160
684.859	0.0159518
684.937	0.0160909
685.015	0.0159330
685.093	0.0160333
685.171	0.0160909
685.249	0.0158950
685.328	0.0159884
685.406	0.0161173
685.484	0.0159818
685.562	0.0158929
685.640	0.0161350
685.718	0.0160209
685.796	0.0160092
685.874	0.0161853
685.953	0.0160612
686.031	0.0159724
686.109	0.0159456
686.187	0.0161108
686.265	0.0158829
686.343	0.0158051
686.421	0.0160745
686.499	0.0160822
686.578	0.0158477
686.656	0.0160213
686.734	0.0160609
686.812	0.0160645
686.890	0.0161310
686.968	0.0160259
687.046	0.0159222
687.124	0.0160224
687.203	0.0159945
687.281	0.0159266
687.359	0.0158752
687.437	0.0160445
687.515	0.0159148
687.593	0.0157791
687.671	0.0159890
687.749	0.0159874
687.828	0.0158668
687.906	0.0159914
687.984	0.0159559
688.062	0.0159888
688.140	0.0159086
688.218	0.0160210
688.296	0.0161665
688.374	0.0161095
688.453	0.0160294
688.531	0.0160574
688.609	0.0161314
688.687	0.0160139
688.765	0.0158861
688.843	0.0159549
688.921	0.0160030
688.999	0.0159806
689.078	0.0160423
689.156	0.0159979
689.234	0.0160831
689.312	0.0159441
689.390	0.0159782
689.468	0.0159396
689.546	0.0160596
689.624	0.0159512
689.703	0.0159780
689.781	0.0158770
689.859	0.0159885
689.937	0.0161395
690.015	0.0160225
690.093	0.0159342
690.171	0.0159319
690.249	0.0160066
690.328	0.0160102
690.406	0.0160806
690.484	0.0160784
690.562	0.0160249
690.640	0.0160117
690.718	0.0159828
690.796	0.0160652
690.874	0.0161382
690.953	0.0159211
691.031	0.0159589
691.109	0.0161565
691.187	0.0159514
691.265	0.0160070
691.343	0.0160699
691.421	0.0159782
691.499	0.0159893
691.578	0.0161618
691.656	0.0159632
691.734	0.0159611
691.812	0.0160453
691.890	0.0159698
691.968	0.0160664
692.046	0.0160368
692.124	0.0161022
692.203	0.0159501
692.281	0.0159225
692.359	0.0160738
692.437	0.0161930
692.515	0.0160384
692.593	0.0159856
692.671	0.0160421
692.749	0.0159982
692.828	0.0159898
692.906	0.0160104
692.984	0.0159772
693.062	0.0159348
693.140	0.0161384
693.218	0.0161124
693.296	0.0160285
693.374	0.0159437
693.453	0.0158881
693.531	0.0159483
693.609	0.0161333
693.687	0.0160277
693.765	0.0159986
693.843	0.0158152
693.921	0.0160543
693.999	0.0159895
694.078	0.0159010
694.156	0.0159937
694.234	0.0160008
694.312	0.0160269
694.390	0.0160265
694.468	0.0160848
694.546	0.0161799
694.624	0.0160879
694.703	0.0159943
694.781	0.0159439
694.859	0.0159563
694.937	0.0161468
695.015	0.0160458
695.093	0.0160996
695.171	0.0161372
695.249	0.0161323
695.328	0.0159306
695.406	0.0159235
695.484	0.0160238
695.562	0.0159314
695.640	0.0159714
695.718	0.0159515
695.796	0.0159164
695.874	0.0160720
695.953	0.0160311
696.031	0.0159636
696.109	0.0160216
696.187	0.0160220
696.265	0.0159503
696.343	0.0159490
696.421	0.0160995
696.499	0.0160349
696.578	0.0159808
696.656	0.0160947
696.734	0.0159762
696.812	0.0158880
696.890	0.0158343
696.968	0.0160387
697.046	0.0158842
697.124	0.0160007
697.203	0.0159472
697.281	0.0160005
697.359	0.0159470
697.437	0.0161337
697.515	0.0160155
697.593	0.0160412
697.671	0.0159265
697.749	0.0161752
697.828	0.0160432
697.906	0.0159743
697.984	0.0160018
698.062	0.0159933
698.140	0.0159404
698.218	0.0159370
698.296	0.0160295
698.374	0.0160098
698.453	0.0159646
698.531	0.0160049
698.609	0.0160516
698.687	0.0159706
698.765	0.0161388
698.843	0.0159240
698.921	0.0160093
698.999	0.0161425
699.078	0.0159319
699.156	0.0160432
699.234	0.0161259
699.312	0.0159069
699.390	0.0160168
699.468	0.0161396
699.546	0.0158913
699.624	0.0160333
699.703	0.0159866
699.781	0.0161510
699.859	0.0160028
699.937	0.0158626
700.015	0.0160011
700.093	0.0160095
700.171	0.0159954
700.249	0.0160945
700.328	0.0161082
700.406	0.0159512
700.484	0.0158990
700.562	0.0160886
700.640	0.0160561
700.718	0.0160430
700.796	0.0160937
700.874	0.0159753
700.953	0.0159134
701.031	0.0160752
701.109	0.0160048
701.187	0.0160847
701.265	0.0161034
701.343	0.0158369
701.421	0.0159336
701.499	0.0159775
701.578	0.0159280
701.656	0.0160658
701.734	0.0159909
701.812	0.0160059
701.890	0.0160404
701.968	0.0160438
702.046	0.0160149
702.124	0.0159367
702.203	0.0160102
702.281	0.0159097
702.359	0.0160426
702.437	0.0160649
702.515	0.0160725
702.593	0.0159721
702.671	0.0159129
702.749	0.0159344
702.828	0.0160534
702.906	0.0160642
702.984	0.0159293
703.062	0.0159892
703.140	0.0159567
703.218	0.0160220
703.296	0.0160123
703.374	0.0160387
703.453	0.0159180
703.531	0.0160338
703.609	0.0159464
703.687	0.0160578
703.765	0.0160696
703.843	0.0159731
703.921	0.0160564
703.999	0.0160828
704.078	0.0160188
704.156	0.0161729
704.234	0.0160051
704.312	0.0159480
704.390	0.0159104
704.468	0.0159919
704.546	0.0161028
704.624	0.0161287
704.703	0.0159898
704.781	0.0159081
704.859	0.0161222
704.937	0.0160076
705.015	0.0160173
705.093	0.0161861
705.171	0.0160567
705.249	0.0160310
705.328	0.0160683
705.406	0.0158643
705.484	0.0160774
705.562	0.0160825
705.640	0.0159652
705.718	0.0160336
705.796	0.0160411
705.874	0.0161209
705.953	0.0159975
706.031	0.0158709
706.109	0.0159151
706.187	0.0160548
706.265	0.0161821
706.343	0.0161149
706.421	0.0159004
706.499	0.0161776
706.578	0.0160570
706.656	0.0160933
706.734	0.0160823
706.812	0.0161558
706.890	0.0160848
706.968	0.0159077
707.046	0.0159946
707.124	0.0159476
707.203	0.0160619
707.281	0.0159897
707.359	0.0159505
707.437	0.0160675
707.515	0.0159334
707.593	0.0159634
707.671	0.0161045
707.749	0.0159207
707.828	0.0160569
707.906	0.0159953
707.984	0.0159560
708.062	0.0159711
708.140	0.0160856
708.218	0.0161146
708.296	0.0160088
708.374	0.0161280
708.453	0.0159721
708.531	0.0158807
708.609	0.0160688
708.687	0.0160402
708.765	0.0161194
708.843	0.0159784
708.921	0.0158991
708.999	0.0159525
709.078	0.0160543
709.156	0.0161132
709.234	0.0160905
709.312	0.0160762
709.390	0.0159146
709.468	0.0159205
709.546	0.0160687
709.624	0.0162252
709.703	0.0159617
709.781	0.0160681
709.859	0.0161393
709.937	0.0158765
710.015	0.0159842
710.093	0.0160683
710.171	0.0160603
710.249	0.0159097
710.328	0.0159480
710.406	0.0159714
710.484	0.0160743
710.562	0.0160312
710.640	0.0159875
710.718	0.0160554
710.796	0.0159461
710.874	0.0159795
710.953	0.0159578
711.031	0.0159792
711.109	0.0159147
711.187	0.0160061
711.265	0.0159159
711.343	0.0160347
711.421	0.0158566
711.499	0.0159776
711.578	0.0159704
711.656	0.0160450
711.734	0.0159062
711.812	0.0158569
711.890	0.0160339
711.968	0.0160980
712.046	0.0160020
712.124	0.0159889
712.203	0.0159199
712.281	0.0158323
712.359	0.0160396
712.437	0.0159741
712.515	0.0160390
712.593	0.0159693
712.671	0.0159473
712.749	0.0159785
712.828	0.0159144
712.906	0.0160337
712.984	0.0159703
713.062	0.0160174
713.140	0.0160223
713.218	0.0158486
713.296	0.0159544
713.374	0.0160185
713.453	0.0160772
713.531	0.0158749
713.609	0.0161016
713.687	0.0159975
713.765	0.0159557
713.843	0.0160121
713.921	0.0160824
713.999	0.0160835
714.078	0.0159813
714.156	0.0160194
714.234	0.0161060
714.312	0.0160506
714.390	0.0160618
714.468	0.0160819
714.546	0.0159171
714.624	0.0160645
714.703	0.0160603
714.781	0.0160089
714.859	0.0160919
714.937	0.0159450
715.015	0.0160396
715.093	0.0159824
715.171	0.0159833
715.249	0.0159229
715.328	0.0159618
715.406	0.0160404
715.484	0.0159087
715.562	0.0160300
715.640	0.0158352
715.718	0.0160257
715.796	0.0160027
715.874	0.0160703
715.953	0.0159745
716.031	0.0160621
716.109	0.0162041
716.187	0.0159893
716.265	0.0158769
716.343	0.0159444
716.421	0.0159258
716.499	0.0159464
716.578	0.0159864
716.656	0.0160125
716.734	0.0161354
716.812	0.0159831
716.890	0.0159305
716.968	0.0160117
717.046	0.0160006
717.124	0.0158305
717.203	0.0159136
717.281	0.0160012
717.359	0.0159327
717.437	0.0161161
717.515	0.0159891
717.593	0.0159618
717.671	0.0160675
717.749	0.0159831
717.828	0.0159173
717.906	0.0159243
717.984	0.0159820
718.062	0.0159658
718.140	0.0160051
718.218	0.0159866
718.296	0.0161079
718.374	0.0162157
718.453	0.0158792
718.531	0.0159859
718.609	0.0161306
718.687	0.0159362
718.765	0.0159924
718.843	0.0159290
718.921	0.0158958
718.999	0.0160744
719.078	0.0160094
719.156	0.0159065
719.234	0.0162006
719.312	0.0160339
719.390	0.0159364
719.468	0.0159924
719.546	0.0159699
719.624	0.0160855
719.703	0.0160542
719.781	0.0158752
719.859	0.0158250
719.937	0.0160168
720.015	0.0159728
720.093	0.0160784
720.171	0.0161655
720.249	0.0160897
720.328	0.0158959
720.406	0.0159853
720.484	0.0158547
720.562	0.0160358
720.640	0.0159080
720.718	0.0158952
720.796	0.0158962
720.874	0.0160637
720.953	0.0160706
721.031	0.0159932
721.109	0.0160187
721.187	0.0158617
721.265	0.0158927
721.343	0.0160330
721.421	0.0159495
721.499	0.0160867
721.578	0.0160912
721.656	0.0160201
721.734	0.0159842
721.812	0.0160864
721.890	0.0160625
721.968	0.0159516
722.046	0.0159981
722.124	0.0160508
722.203	0.0159289
722.281	0.0160004
722.359	0.0159338
722.437	0.0160878
722.515	0.0160003
722.593	0.0160094
722.671	0.0160533
722.749	0.0160877
722.828	0.0159963
722.906	0.0159222
722.984	0.0160504
723.062	0.0160036
723.140	0.0159393
723.218	0.0159544
723.296	0.0160873
723.374	0.0159660
723.453	0.0160339
723.531	0.0160596
723.609	0.0159848
723.687	0.0158817
723.765	0.0160714
723.843	0.0161964
723.921	0.0160110
723.999	0.0159588
724.078	0.0160525
724.156	0.0160152
724.234	0.0160973
724.312	0.0160728
724.390	0.0160595
724.468	0.0159840
724.546	0.0160231
724.624	0.0161999
724.703	0.0160963
724.781	0.0161150
724.859	0.0159119
724.937	0.0160098
725.015	0.0159965
725.093	0.0160674
725.171	0.0161696
725.249	0.0160145
725.328	0.0160562
725.406	0.0160512
725.484	0.0161286
725.562	0.0159418
725.640	0.0160122
725.718	0.0160397
725.796	0.0159489
725.874	0.0161302
725.953	0.0160515
726.031	0.0159645
726.109	0.0160574
726.187	0.0160722
726.265	0.0159632
726.343	0.0159704
726.421	0.0161222
726.499	0.0159068
726.578	0.0160950
726.656	0.0160660
726.734	0.0159613
726.812	0.0159193
726.890	0.0158822
726.968	0.0160220
727.046	0.0160078
727.124	0.0160055
727.203	0.0159812
727.281	0.0159534
727.359	0.0159794
727.437	0.0159591
727.515	0.0159161
727.593	0.0160178
727.671	0.0160420
727.749	0.0160165
727.828	0.0160519
727.906	0.0161044
727.984	0.0159634
728.062	0.0160642
728.140	0.0158517
728.218	0.0160223
728.296	0.0159752
728.374	0.0160506
728.453	0.0159966
728.531	0.0160614
728.609	0.0160267
728.687	0.0159849
728.765	0.0160780
728.843	0.0160379
728.921	0.0160898
728.999	0.0159340
729.078	0.0160118
729.156	0.0160184
729.234	0.0161171
729.312	0.0161292
729.390	0.0160226
729.468	0.0160048
729.546	0.0159102
729.624	0.0159942
729.703	0.0159367
729.781	0.0159647
729.859	0.0160062
729.937	0.0161364
730.015	0.0160416
730.093	0.0159889
730.171	0.0160422
730.249	0.0158770
730.328	0.0159675
730.406	0.0161868
730.484	0.0159866
730.562	0.0160309
730.640	0.0161204
730.718	0.0159141
730.796	0.0159623
730.874	0.0159715
730.953	0.0160001
731.031	0.0160854
731.109	0.0160302
731.187	0.0160783
731.265	0.0158740
731.343	0.0160760
731.421	0.0159050
731.499	0.0159292
731.578	0.0159972
731.656	0.0158770
731.734	0.0160568
731.812	0.0159709
731.890	0.0158866
731.968	0.0160428
732.046	0.0159320
732.124	0.0159942
732.203	0.0159010
732.281	0.0159481
732.359	0.0160164
732.437	0.0160781
732.515	0.0159724
732.593	0.0158373
732.671	0.0158791
732.749	0.0160670
732.828	0.0159428
732.906	0.0158975
732.984	0.0159516
733.062	0.0159908
733.140	0.0160243
733.218	0.0159625
733.296	0.0158810
733.374	0.0158955
733.453	0.0159877
733.531	0.0161672
733.609	0.0160632
733.687	0.0158649
733.765	0.0158602
733.843	0.0159689
733.921	0.0158582
733.999	0.0160091
734.078	0.0160663
734.156	0.0160049
734.234	0.0158911
734.312	0.0158843
734.390	0.0158076
734.468	0.0160058
734.546	0.0160394
734.624	0.0160181
734.703	0.0159909
734.781	0.0158006
734.859	0.0158270
734.937	0.0158748
735.015	0.0158659
735.093	0.0160056
735.171	0.0158996
735.249	0.0158148
735.328	0.0160272
735.406	0.0159172
735.484	0.0159599
735.562	0.0159644
735.640	0.0157569
735.718	0.0158489
735.796	0.0158694
735.874	0.0158875
735.953	0.0159875
736.031	0.0158996
736.109	0.0158702
736.187	0.0158826
736.265	0.0159383
736.343	0.0159184
736.421	0.0159674
736.499	0.0159871
736.578	0.0160110
736.656	0.0158235
736.734	0.0158948
736.812	0.0159045
736.890	0.0159560
736.968	0.0159515
737.046	0.0158162
737.124	0.0158984
737.203	0.0158823
737.281	0.0159341
737.359	0.0159018
737.437	0.0160288
737.515	0.0159170
737.593	0.0159579
737.671	0.0159358
737.749	0.0158472
737.828	0.0159035
737.906	0.0159508
737.984	0.0159355
738.062	0.0158995
738.140	0.0158679
738.218	0.0159917
738.296	0.0159643
738.374	0.0158980
738.453	0.0160104
738.531	0.0159477
738.609	0.0159393
738.687	0.0160999
738.765	0.0160005
738.843	0.0158865
738.921	0.0159461
738.999	0.0160222
739.078	0.0161546
739.156	0.0161217
739.234	0.0160315
739.312	0.0160429
739.390	0.0160992
739.468	0.0159650
739.546	0.0161398
739.624	0.0161989
739.703	0.0161108
739.781	0.0162019
739.859	0.0161211
739.937	0.0160642
740.015	0.0161580
740.093	0.0161631
740.171	0.0159949
740.249	0.0161343
740.328	0.0161345
740.406	0.0160325
740.484	0.0159040
740.562	0.0158140
740.640	0.0158087
740.718	0.0158079
740.796	0.0154586
740.874	0.0154684
740.953	0.0154206
741.031	0.0153986
741.109	0.0152704
741.187	0.0152095
741.265	0.0151340
741.343	0.0151808
741.421	0.0152657
741.499	0.0152327
741.578	0.0155756
741.656	0.0156117
741.734	0.0159586
741.812	0.0159957
741.890	0.0160473
741.968	0.0162408
742.046	0.0163441
742.124	0.0164299
742.203	0.0164845
742.281	0.0163685
742.359	0.0163326
742.437	0.0163470
742.515	0.0164113
742.593	0.0162363
742.671	0.0163025
742.749	0.0162518
742.828	0.0163029
742.906	0.0163164
742.984	0.0162898
743.062	0.0162862
743.140	0.0163486
743.218	0.0164490
743.296	0.0166974
743.374	0.0166820
743.453	0.0167953
743.531	0.0169025
743.609	0.0169237
743.687	0.0169092
743.765	0.0170746
743.843	0.0169476
743.921	0.0169681
743.999	0.0166996
744.078	0.0166346
744.156	0.0163534
744.234	0.0162029
744.312	0.0160456
744.390	0.0159678
744.468	0.0156735
744.546	0.0154267
744.624	0.0153571
744.703	0.0151127
744.781	0.0147144
744.859	0.0146259
744.937	0.0143401
745.015	0.0138870
745.093	0.0136940
745.171	0.0133210
745.249	0.0130003
745.328	0.0127633
745.406	0.0125545
745.484	0.0125215
745.562	0.0126076
745.640	0.0130499
745.718	0.0132909
745.796	0.0140903
745.874	0.0149200
745.953	0.0159190
746.031	0.0168665
746.109	0.0178379
746.187	0.0188465
746.265	0.0195988
746.343	0.0202805
746.421	0.0206886
746.499	0.0210023
746.578	0.0209550
746.656	0.0207663
746.734	0.0201656
746.812	0.0198277
746.890	0.0192995
746.968	0.0184980
747.046	0.0177612
747.124	0.0170059
747.203	0.0161042
747.281	0.0153635
747.359	0.0144575
747.437	0.0139008
747.515	0.0132884
747.593	0.0125882
747.671	0.0122015
747.749	0.0118688
747.828	0.0118548
747.906	0.0119669
747.984	0.0121230
748.062	0.0127148
748.140	0.0133546
748.218	0.0141811
748.296	0.0150003
748.374	0.0158460
748.453	0.0168021
748.531	0.0176410
748.609	0.0184597
748.687	0.0191042
748.765	0.0194830
748.843	0.0198042
748.921	0.0199189
748.999	0.0198844
749.078	0.0195930
749.156	0.0194070
749.234	0.0189888
749.312	0.0183247
749.390	0.0177704
749.468	0.0168622
749.546	0.0162223
749.624	0.0156173
749.703	0.0148018
749.781	0.0141585
749.859	0.0137883
749.937	0.0131510
750.015	0.0126800
750.093	0.0124390
750.171	0.0123180
750.249	0.0123347
750.328	0.0121658
750.406	0.0123057
750.484	0.0122826
750.562	0.0126870
750.640	0.0129359
750.718	0.0132885
750.796	0.0136766
750.874	0.0138406
750.953	0.0140185
751.031	0.0142693
751.109	0.0145258
751.187	0.0148799
751.265	0.0149705
751.343	0.0152575
751.421	0.0158508
751.499	0.0162071
751.578	0.0168358
751.656	0.0173720
751.734	0.0179599
751.812	0.0188329
751.890	0.0195329
751.968	0.0203919
752.046	0.0211469
752.124	0.0217439
752.203	0.0222627
752.281	0.0225662
752.359	0.0225175
752.437	0.0225445
752.515	0.0225032
752.593	0.0221371
752.671	0.0218350
752.749	0.0210825
752.828	0.0204533
752.906	0.0198573
752.984	0.0188830
753.062	0.0181583
753.140	0.0171236
753.218	0.0160124
753.296	0.0149888
753.374	0.0136789
753.453	0.0125015
753.531	0.0111837
753.609	0.00982307
753.687	0.00862663
753.765	0.00768829
753.843	0.00670486
753.921	0.00603546
753.999	0.00560181
754.078	0.00548119
754.156	0.00575981
754.234	0.00646202
754.312	0.00731140
754.390	0.00860130
754.468	0.0101949
754.546	0.0118457
754.624	0.0134400
754.703	0.0153154
754.781	0.0172024
754.859	0.0186678
754.937	0.0200481
755.015	0.0213270
755.093	0.0222541
755.171	0.0229594
755.249	0.0235980
755.328	0.0241235
755.406	0.0242400
755.484	0.0243134
755.562	0.0240758
755.640	0.0237202
755.718	0.0232986
755.796	0.0227164
755.874	0.0221931
755.953	0.0214112
756.031	0.0207023
756.109	0.0199592
756.187	0.0190428
756.265	0.0181751
756.343	0.0173396
756.421	0.0162894
756.499	0.0154527
756.578	0.0145546
756.656	0.0134167
756.734	0.0123833
756.812	0.0113422
756.890	0.0104536
756.968	0.00950027
757.046	0.00840019
757.124	0.00780716
757.203	0.00744949
757.281	0.00751228
757.359	0.00787178
757.437	0.00841927
757.515	0.00923134
757.593	0.0104244
757.671	0.0119022
757.749	0.0135402
757.828	0.0151879
757.906	0.0168375
757.984	0.0186205
758.062	0.0201698
758.140	0.0213189
758.218	0.0222374
758.296	0.0229602
758.374	0.0235248
758.453	0.0235239
758.531	0.0233916
758.609	0.0229443
758.687	0.0222892
758.765	0.0216006
758.843	0.0207095
758.921	0.0194802
758.999	0.0183776
759.078	0.0173308
759.156	0.0161352
759.234	0.0151751
759.312	0.0142973
759.390	0.0134581
759.468	0.0129006
759.546	0.0125280
759.624	0.0119185
759.703	0.0115145
759.781	0.0110819
759.859	0.0107004
759.937	0.0105286
760.015	0.0101762
760.093	0.0100045
760.171	0.0100257
760.249	0.0101742
760.328	0.0105344
760.406	0.0110897
760.484	0.0117657
760.562	0.0127037
760.640	0.0137366
760.718	0.0148308
760.796	0.0159414
760.874	0.0171333
760.953	0.0181535
761.031	0.0192499
761.109	0.0200243
761.187	0.0208070
761.265	0.0212279
761.343	0.0219202
761.421	0.0221285
761.499	0.0224355
761.578	0.0224773
761.656	0.0225758
761.734	0.0223899
761.812	0.0222032
761.890	0.0218845
761.968	0.0213827
762.046	0.0207970
762.124	0.0199878
762.203	0.0193475
762.281	0.0186105
762.359	0.0176529
762.437	0.0168367
762.515	0.0158399
762.593	0.0149606
762.671	0.0140879
762.749	0.0132914
762.828	0.0125026
762.906	0.0116259
762.984	0.0105442
763.062	0.00982117
763.140	0.00926483
763.218	0.00876495
763.296	0.00832497
763.374	0.00812874
763.453	0.00820770
763.531	0.00836777
763.609	0.00875755
763.687	0.00948631
763.765	0.0104341
763.843	0.0113527
763.921	0.0125339
763.999	0.0136887
764.078	0.0149422
764.156	0.0161688
764.234	0.0174055
764.312	0.0185831
764.390	0.0193875
764.468	0.0201089
764.546	0.0208167
764.624	0.0212446
764.703	0.0213937
764.781	0.0215302
764.859	0.0216151
764.937	0.0214870
765.015	0.0212167
765.093	0.0206515
765.171	0.0204285
765.249	0.0200297
765.328	0.0197166
765.406	0.0190462
765.484	0.0187260
765.562	0.0185052
765.640	0.0179625
765.718	0.0175761
765.796	0.0169553
765.874	0.0165961
765.953	0.0159991
766.031	0.0155470
766.109	0.0151462
766.187	0.0146527
766.265	0.0141772
766.343	0.0138361
766.421	0.0136842
766.499	0.0133617
766.578	0.0132903
766.656	0.0132085
766.734	0.0132609
766.812	0.0133154
766.890	0.0134369
766.968	0.0137745
767.046	0.0141431
767.124	0.0143382
767.203	0.0147678
767.281	0.0147918
767.359	0.0152763
767.437	0.0155476
767.515	0.0156284
767.593	0.0157262
767.671	0.0158974
767.749	0.0160615
767.828	0.0161356
767.906	0.0160995
767.984	0.0159495
768.062	0.0161023
768.140	0.0162914
768.218	0.0162854
768.296	0.0162996
768.374	0.0164304
768.453	0.0164607
768.531	0.0166688
768.609	0.0167399
768.687	0.0170035
768.765	0.0171103
768.843	0.0171057
768.921	0.0171679
768.999	0.0169276
769.078	0.0169836
769.156	0.0166142
769.234	0.0163184
769.312	0.0159573
769.390	0.0156185
769.468	0.0153149
769.546	0.0149017
769.624	0.0145647
769.703	0.0144394
769.781	0.0140759
769.859	0.0139529
769.937	0.0140118
770.015	0.0141276
770.093	0.0142870
770.171	0.0144964
770.249	0.0149558
770.328	0.0153143
770.406	0.0154991
770.484	0.0161818
770.562	0.0166027
770.640	0.0170859
770.718	0.0174480
770.796	0.0176559
770.874	0.0179810
770.953	0.0179787
771.031	0.0182181
771.109	0.0181756
771.187	0.0180890
771.265	0.0178606
771.343	0.0178027
771.421	0.0175267
771.499	0.0172968
771.578	0.0170259
771.656	0.0167952
771.734	0.0164880
771.812	0.0163079
771.890	0.0159840
771.968	0.0158781
772.046	0.0154681
772.124	0.0154889
772.203	0.0154928
772.281	0.0153783
772.359	0.0151286
772.437	0.0150765
772.515	0.0149556
772.593	0.0149956
772.671	0.0149192
772.749	0.0150678
772.828	0.0150813
772.906	0.0150465
772.984	0.0150415
773.062	0.0151739
773.140	0.0152621
773.218	0.0152927
773.296	0.0152991
773.374	0.0154214
773.453	0.0153829
773.531	0.0155052
773.609	0.0155936
773.687	0.0155019
773.765	0.0156057
773.843	0.0156808
773.921	0.0156666
773.999	0.0156761
774.078	0.0156066
774.156	0.0156959
774.234	0.0159263
774.312	0.0158652
774.390	0.0160747
774.468	0.0162757
774.546	0.0163507
774.624	0.0164310
774.703	0.0166595
774.781	0.0167361
774.859	0.0169305
774.937	0.0168508
775.015	0.0169375
775.093	0.0170974
775.171	0.0169028
775.249	0.0165154
775.328	0.0163693
775.406	0.0163089
775.484	0.0159245
775.562	0.0157002
775.640	0.0155934
775.718	0.0154900
775.796	0.0154932
775.874	0.0153854
775.953	0.0154286
776.031	0.0153077
776.109	0.0153661
776.187	0.0156099
776.265	0.0157413
776.343	0.0158115
776.421	0.0161523
776.499	0.0162536
776.578	0.0162328
776.656	0.0164713
776.734	0.0168310
776.812	0.0170541
776.890	0.0168960
776.968	0.0168477
777.046	0.0171995
777.124	0.0172409
777.203	0.0173940
777.281	0.0172443
777.359	0.0173009
777.437	0.0172103
777.515	0.0171336
777.593	0.0168376
777.671	0.0167384
777.749	0.0165778
777.828	0.0162234
777.906	0.0160273
777.984	0.0159023
778.062	0.0155977
778.140	0.0154571
778.218	0.0150813
778.296	0.0148859
778.374	0.0148326
778.453	0.0147620
778.531	0.0146460
778.609	0.0145245
778.687	0.0145220
778.765	0.0144315
778.843	0.0144475
778.921	0.0145899
778.999	0.0146548
779.078	0.0147221
779.156	0.0146844
779.234	0.0149754
779.312	0.0149194
779.390	0.0151070
779.468	0.0152982
779.546	0.0155707
779.624	0.0157376
779.703	0.0156793
779.781	0.0158453
779.859	0.0162052
779.937	0.0162408
780.015	0.0165710
780.093	0.0166739
780.171	0.0166907
780.249	0.0168092
780.328	0.0169930
780.406	0.0171114
780.484	0.0172392
780.562	0.0171088
780.640	0.0172770
780.718	0.0171612
780.796	0.0170992
780.874	0.0171498
780.953	0.0170574
781.031	0.0170290
781.109	0.0167365
781.187	0.0166584
781.265	0.0166229
781.343	0.0162669
781.421	0.0162836
781.499	0.0161407
781.578	0.0158990
781.656	0.0158189
781.734	0.0156734
781.812	0.0154726
781.890	0.0154864
781.968	0.0154043
782.046	0.0156235
782.124	0.0156763
782.203	0.0157568
782.281	0.0157736
782.359	0.0159969
782.437	0.0160069
782.515	0.0160751
782.593	0.0163364
782.671	0.0164228
782.749	0.0162534
782.828	0.0162365
782.906	0.0160762
782.984	0.0161237
783.062	0.0161359
783.140	0.0160387
783.218	0.0160278
783.296	0.0159274
783.374	0.0157391
783.453	0.0156774
783.531	0.0157716
783.609	0.0156203
783.687	0.0156569
783.765	0.0155938
783.843	0.0156093
783.921	0.0155163
783.999	0.0157306
784.078	0.0156893
784.156	0.0157237
784.234	0.0156425
784.312	0.0155809
784.390	0.0156605
784.468	0.0156714
784.546	0.0156745
784.624	0.0155553
784.703	0.0155121
784.781	0.0156861
784.859	0.0156174
784.937	0.0157926
785.015	0.0157473
785.093	0.0159480
785.171	0.0160247
785.249	0.0161092
785.328	0.0163554
785.406	0.0164211
785.484	0.0163981
785.562	0.0164758
785.640	0.0166149
785.718	0.0167721
785.796	0.0166486
785.874	0.0166447
785.953	0.0167443
786.031	0.0167833
786.109	0.0165056
786.187	0.0165113
786.265	0.0164365
786.343	0.0163204
786.421	0.0160521
786.499	0.0160963
786.578	0.0160030
786.656	0.0157021
786.734	0.0155408
786.812	0.0155389
786.890	0.0154497
786.968	0.0152876
787.046	0.0154135
787.124	0.0154776
787.203	0.0152986
787.281	0.0154163
787.359	0.0153983
787.437	0.0155113
787.515	0.0156873
787.593	0.0156267
787.671	0.0156870
787.749	0.0158050
787.828	0.0158627
787.906	0.0159139
787.984	0.0159248
788.062	0.0158458
788.140	0.0160300
788.218	0.0160415
788.296	0.0161001
788.374	0.0161653
788.453	0.0161988
788.531	0.0162675
788.609	0.0163627
788.687	0.0163309
788.765	0.0165335
788.843	0.0164610
788.921	0.0163495
788.999	0.0164955
789.078	0.0164521
789.156	0.0164497
789.234	0.0164831
789.312	0.0164836
789.390	0.0162690
789.468	0.0165372
789.546	0.0163222
789.624	0.0163379
789.703	0.0163468
789.781	0.0162707
789.859	0.0161715
789.937	0.0161640
790.015	0.0160829
790.093	0.0159444
790.171	0.0160162
790.249	0.0159528
790.328	0.0156878
790.406	0.0156929
790.484	0.0154297
790.562	0.0154905
790.640	0.0154478
790.718	0.0153293
790.796	0.0152662
790.874	0.0153082
790.953	0.0154578
791.031	0.0155130
791.109	0.0154319
791.187	0.0153347
791.265	0.0154417
791.343	0.0156911
791.421	0.0156244
791.499	0.0156198
791.578	0.0159138
791.656	0.0158556
791.734	0.0159266
791.812	0.0159852
791.890	0.0160445
791.968	0.0160811
792.046	0.0161668
792.124	0.0161785
792.203	0.0163413
792.281	0.0163063
792.359	0.0164184
792.437	0.0164867
792.515	0.0164807
792.593	0.0164742
792.671	0.0164642
792.749	0.0164192
792.828	0.0163577
792.906	0.0162588
792.984	0.0162617
793.062	0.0161995
793.140	0.0160038
793.218	0.0159442
793.296	0.0159048
793.374	0.0158327
793.453	0.0156370
793.531	0.0157925
793.609	0.0157207
793.687	0.0156144
793.765	0.0157359
793.843	0.0158083
793.921	0.0158107
793.999	0.0158211
794.078	0.0160413
794.156	0.0161002
794.234	0.0162225
794.312	0.0162406
794.390	0.0163036
794.468	0.0166614
794.546	0.0166677
794.624	0.0166444
794.703	0.0166559
794.781	0.0168890
794.859	0.0166797
794.937	0.0168052
795.015	0.0166970
795.093	0.0164476
795.171	0.0164402
795.249	0.0163153
795.328	0.0161781
795.406	0.0160298
795.484	0.0158971
795.562	0.0158771
795.640	0.0156633
795.718	0.0154581
795.796	0.0152685
795.874	0.0151950
795.953	0.0151309
796.031	0.0152590
796.109	0.0153001
796.187	0.0153055
796.265	0.0153121
796.343	0.0153484
796.421	0.0153257
796.499	0.0153603
796.578	0.0154417
796.656	0.0155799
796.734	0.0155779
796.812	0.0155968
796.890	0.0155965
796.968	0.0156327
797.046	0.0157948
797.124	0.0157304
797.203	0.0157573
797.281	0.0158960
797.359	0.0159309
797.437	0.0157655
797.515	0.0159492
797.593	0.0160405
797.671	0.0161848
797.749	0.0163210
797.828	0.0163354
797.906	0.0162668
797.984	0.0162303
798.062	0.0163221
798.140	0.0162230
798.218	0.0162309
798.296	0.0164095
798.374	0.0163047
798.453	0.0163709
798.531	0.0161976
798.609	0.0161335
798.687	0.0161727
798.765	0.0163326
798.843	0.0161863
798.921	0.0159563
798.999	0.0160983
799.078	0.0159668
799.156	0.0158423
799.234	0.0157447
799.312	0.0157854
799.390	0.0158838
799.468	0.0157685
799.546	0.0157997
799.624	0.0158761
799.703	0.0158492
799.781	0.0158003
799.859	0.0158638
799.937	0.0159924
800.015	0.0160796
800.093	0.0160899
800.171	0.0162338
800.249	0.0162415
800.328	0.0162077
800.406	0.0164467
800.484	0.0164278
800.562	0.0164284
800.640	0.0164223
800.718	0.0162160
800.796	0.0163644
800.874	0.0165205
800.953	0.0164322
801.031	0.0165724
801.109	0.0164445
801.187	0.0163639
801.265	0.0163515
801.343	0.0161982
801.421	0.0161433
801.499	0.0161469
801.578	0.0160676
801.656	0.0160133
801.734	0.0159337
801.812	0.0156960
801.890	0.0157473
801.968	0.0157763
802.046	0.0155479
802.124	0.0154655
802.203	0.0153241
802.281	0.0151779
802.359	0.0152674
802.437	0.0150954
802.515	0.0150890
802.593	0.0150354
802.671	0.0149316
802.749	0.0149727
802.828	0.0150127
802.906	0.0150328
802.984	0.0150967
803.062	0.0151356
803.140	0.0153065
803.218	0.0153028
803.296	0.0154844
803.374	0.0156810
803.453	0.0157985
803.531	0.0160501
803.609	0.0162279
803.687	0.0164052
803.765	0.0165085
803.843	0.0167106
803.921	0.0167207
803.999	0.0168616
804.078	0.0169422
804.156	0.0170404
804.234	0.0170573
804.312	0.0170341
804.390	0.0170474
804.468	0.0168984
804.546	0.0168489
804.624	0.0166859
804.703	0.0165776
804.781	0.0163261
804.859	0.0161707
804.937	0.0161631
805.015	0.0158508
805.093	0.0159377
805.171	0.0158562
805.249	0.0158437
805.328	0.0157942
805.406	0.0158118
805.484	0.0157526
805.562	0.0157561
805.640	0.0158907
805.718	0.0158982
805.796	0.0158242
805.874	0.0158247
805.953	0.0159833
806.031	0.0159859
806.109	0.0158439
806.187	0.0158273
806.265	0.0158082
806.343	0.0158027
806.421	0.0159065
806.499	0.0158148
806.578	0.0156557
806.656	0.0156127
806.734	0.0156516
806.812	0.0157343
806.890	0.0156131
806.968	0.0155087
807.046	0.0156401
807.124	0.0156479
807.203	0.0157979
807.281	0.0158862
807.359	0.0158829
807.437	0.0159439
807.515	0.0159843
807.593	0.0160394
807.671	0.0160726
807.749	0.0161237
807.828	0.0163358
807.906	0.0162672
807.984	0.0163428
808.062	0.0162145
808.140	0.0162184
808.218	0.0161949
808.296	0.0162679
808.374	0.0163454
808.453	0.0161093
808.531	0.0160810
808.609	0.0162192
808.687	0.0158568
808.765	0.0158937
808.843	0.0159099
808.921	0.0157587
808.999	0.0159368
809.078	0.0158987
809.156	0.0158500
809.234	0.0160385
809.312	0.0160113
809.390	0.0159725
809.468	0.0160534
809.546	0.0161141
809.624	0.0161458
809.703	0.0162100
809.781	0.0162422
809.859	0.0161923
809.937	0.0161082
810.015	0.0161069
810.093	0.0161819
810.171	0.0161134
810.249	0.0160155
810.328	0.0159570
810.406	0.0158718
810.484	0.0157758
810.562	0.0158748
810.640	0.0158614
810.718	0.0157647
810.796	0.0156244
810.874	0.0158041
810.953	0.0156638
811.031	0.0157777
811.109	0.0159281
811.187	0.0159997
811.265	0.0160609
811.343	0.0160558
811.421	0.0159663
811.499	0.0160665
811.578	0.0162414
811.656	0.0162482
811.734	0.0162887
811.812	0.0162728
811.890	0.0163799
811.968	0.0162978
812.046	0.0162566
812.124	0.0161829
812.203	0.0161816
812.281	0.0161311
812.359	0.0160642
812.437	0.0160347
812.515	0.0159356
812.593	0.0158739
812.671	0.0158398
812.749	0.0158546
812.828	0.0158746
812.906	0.0156653
812.984	0.0157580
813.062	0.0158292
813.140	0.0157081
813.218	0.0157040
813.296	0.0157027
813.374	0.0157249
813.453	0.0157233
813.531	0.0157764
813.609	0.0158110
813.687	0.0157051
813.765	0.0156950
813.843	0.0159030
813.921	0.0157990
813.999	0.0158074
814.078	0.0158831
814.156	0.0159547
814.234	0.0160287
814.312	0.0161258
814.390	0.0161456
814.468	0.0161343
814.546	0.0162965
814.624	0.0162701
814.703	0.0162411
814.781	0.0163196
814.859	0.0163773
814.937	0.0162749
815.015	0.0163673
815.093	0.0163828
815.171	0.0163615
815.249	0.0164886
815.328	0.0162645
815.406	0.0161810
815.484	0.0162624
815.562	0.0160806
815.640	0.0161329
815.718	0.0161196
815.796	0.0159345
815.874	0.0158894
815.953	0.0156004
816.031	0.0156722
816.109	0.0157398
816.187	0.0156197
816.265	0.0156295
816.343	0.0154036
816.421	0.0155441
816.499	0.0155799
816.578	0.0154953
816.656	0.0155528
816.734	0.0157491
816.812	0.0156342
816.890	0.0156237
816.968	0.0158985
817.046	0.0158372
817.124	0.0160103
817.203	0.0159491
817.281	0.0159866
817.359	0.0159495
817.437	0.0161794
817.515	0.0162187
817.593	0.0160905
817.671	0.0160960
817.749	0.0161682
817.828	0.0160542
817.906	0.0160631
817.984	0.0160361
818.062	0.0161588
818.140	0.0161103
818.218	0.0161983
818.296	0.0160390
818.374	0.0159692
818.453	0.0159659
818.531	0.0160281
818.609	0.0161024
818.687	0.0160719
818.765	0.0160110
818.843	0.0159249
818.921	0.0160973
818.999	0.0160149
819.078	0.0158926
819.156	0.0158415
819.234	0.0159185
819.312	0.0159665
819.390	0.0159073
819.468	0.0159910
819.546	0.0161121
819.624	0.0157695
819.703	0.0158385
819.781	0.0159312
819.859	0.0159547
819.937	0.0158228
820.015	0.0158051
820.093	0.0160027
820.171	0.0159461
820.249	0.0160316
820.328	0.0162035
820.406	0.0161047
820.484	0.0161052
820.562	0.0163113
820.640	0.0162045
820.718	0.0161839
820.796	0.0161274
820.874	0.0161132
820.953	0.0160975
821.031	0.0162181
821.109	0.0161848
821.187	0.0161619
821.265	0.0160595
821.343	0.0159471
821.421	0.0159252
821.499	0.0158767
821.578	0.0158241
821.656	0.0157214
821.734	0.0158358
821.812	0.0154448
821.890	0.0156556
821.968	0.0157971
822.046	0.0157961
822.124	0.0156293
822.203	0.0155814
822.281	0.0156522
822.359	0.0157639
822.437	0.0158092
822.515	0.0157490
822.593	0.0157130
822.671	0.0156594
822.749	0.0158038
822.828	0.0158785
822.906	0.0157415
822.984	0.0158850
823.062	0.0159525
823.140	0.0159348
823.218	0.0159814
823.296	0.0160068
823.374	0.0161833
823.453	0.0160133
823.531	0.0161234
823.609	0.0159566
823.687	0.0160989
823.765	0.0160632
823.843	0.0161329
823.921	0.0160180
823.999	0.0162170
824.078	0.0160744
824.156	0.0161864
824.234	0.0161651
824.312	0.0161076
824.390	0.0162934
824.468	0.0160838
824.546	0.0162266
824.624	0.0161419
824.703	0.0161218
824.781	0.0159486
824.859	0.0161549
824.937	0.0159988
825.015	0.0160430
825.093	0.0160205
825.171	0.0160059
825.249	0.0160207
825.328	0.0159663
825.406	0.0158945
825.484	0.0160528
825.562	0.0159266
825.640	0.0160416
825.718	0.0159020
825.796	0.0158804
825.874	0.0159650
825.953	0.0161135
826.031	0.0160543
826.109	0.0160110
826.187	0.0159820
826.265	0.0160474
826.343	0.0161415
826.421	0.0160596
826.499	0.0160979
826.578	0.0160494
826.656	0.0161159
826.734	0.0160055
826.812	0.0158506
826.890	0.0158125
826.968	0.0159007
827.046	0.0157381
827.124	0.0158816
827.203	0.0158670
827.281	0.0157859
827.359	0.0157895
827.437	0.0157789
827.515	0.0157602
827.593	0.0157904
827.671	0.0157294
827.749	0.0157468
827.828	0.0157592
827.906	0.0157775
827.984	0.0157970
828.062	0.0158606
828.140	0.0159364
828.218	0.0160955
828.296	0.0159690
828.374	0.0160013
828.453	0.0160725
828.531	0.0161251
828.609	0.0160065
828.687	0.0159813
828.765	0.0160155
828.843	0.0160602
828.921	0.0161543
828.999	0.0159971
829.078	0.0159344
829.156	0.0160731
829.234	0.0160898
829.312	0.0159404
829.390	0.0160278
829.468	0.0159528
829.546	0.0160808
829.624	0.0161290
829.703	0.0159906
829.781	0.0160789
829.859	0.0161715
829.937	0.0159621
830.015	0.0160089
830.093	0.0161662
830.171	0.0159761
830.249	0.0159422
830.328	0.0160922
830.406	0.0162464
830.484	0.0161398
830.562	0.0160627
830.640	0.0159644
830.718	0.0161075
830.796	0.0160815
830.874	0.0161832
830.953	0.0160868
831.031	0.0160733
831.109	0.0161621
831.187	0.0161764
831.265	0.0161426
831.343	0.0161247
831.421	0.0160178
831.499	0.0160081
831.578	0.0159663
831.656	0.0159950
831.734	0.0160845
831.812	0.0159385
831.890	0.0159088
831.968	0.0157285
832.046	0.0159385
832.124	0.0160389
832.203	0.0159998
832.281	0.0159953
832.359	0.0161217
832.437	0.0160806
832.515	0.0160370
832.593	0.0160719
832.671	0.0160337
832.749	0.0159959
832.828	0.0160391
832.906	0.0159797
832.984	0.0159000
833.062	0.0158479
833.140	0.0161051
833.218	0.0159415
833.296	0.0157355
833.374	0.0159052
833.453	0.0158048
833.531	0.0158772
833.609	0.0158202
833.687	0.0158752
833.765	0.0159290
833.843	0.0158720
833.921	0.0160002
833.999	0.0159380
834.078	0.0159896
834.156	0.0158669
834.234	0.0160702
834.312	0.0161160
834.390	0.0162394
834.468	0.0161867
834.546	0.0161880
834.624	0.0161997
834.703	0.0161114
834.781	0.0161902
834.859	0.0161388
834.937	0.0161422
835.015	0.0161310
835.093	0.0161108
835.171	0.0160167
835.249	0.0159698
835.328	0.0162879
835.406	0.0161031
835.484	0.0159342
835.562	0.0160610
835.640	0.0159650
835.718	0.0158947
835.796	0.0160074
835.874	0.0158678
835.953	0.0159471
836.031	0.0158611
836.109	0.0159398
836.187	0.0158379
836.265	0.0159152
836.343	0.0158605
836.421	0.0159372
836.499	0.0159943
836.578	0.0160368
836.656	0.0160845
836.734	0.0159198
836.812	0.0161497
836.890	0.0160834
836.968	0.0160329
837.046	0.0160129
837.124	0.0159786
837.203	0.0160991
837.281	0.0162192
837.359	0.0160812
837.437	0.0160448
837.515	0.0159786
837.593	0.0159993
837.671	0.0158871
837.749	0.0160742
837.828	0.0161500
837.906	0.0159415
837.984	0.0159631
838.062	0.0160227
838.140	0.0160153
838.218	0.0160463
838.296	0.0160938
838.374	0.0161368
838.453	0.0159729
838.531	0.0159626
838.609	0.0161119
838.687	0.0159878
838.765	0.0160105
838.843	0.0159488
838.921	0.0160004
838.999	0.0160853
839.078	0.0160519
839.156	0.0160863
839.234	0.0158870
839.312	0.0159677
839.390	0.0160208
839.468	0.0160345
839.546	0.0159570
839.624	0.0160721
839.703	0.0159519
839.781	0.0161185
839.859	0.0161243
839.937	0.0159586
840.015	0.0159841
840.093	0.0160125
840.171	0.0161961
840.249	0.0161134
840.328	0.0163392
840.406	0.0161462
840.484	0.0161422
840.562	0.0161842
840.640	0.0161303
840.718	0.0161625
840.796	0.0161570
840.874	0.0161206
840.953	0.0160220
841.031	0.0160287
841.109	0.0158632
841.187	0.0159315
841.265	0.0159095
841.343	0.0159188
841.421	0.0159763
841.499	0.0158592
841.578	0.0157658
841.656	0.0158138
841.734	0.0158490
841.812	0.0157560
841.890	0.0157748
841.968	0.0158734
842.046	0.0159275
842.124	0.0158366
842.203	0.0159026
842.281	0.0158631
842.359	0.0159431
842.437	0.0159311
842.515	0.0159211
842.593	0.0159287
842.671	0.0160000
842.749	0.0159976
842.828	0.0158831
842.906	0.0160225
842.984	0.0160359
843.062	0.0160133
843.140	0.0159603
843.218	0.0159379
843.296	0.0160641
843.374	0.0161542
843.453	0.0161450
843.531	0.0162711
843.609	0.0161482
843.687	0.0160505
843.765	0.0162294
843.843	0.0161379
843.921	0.0162212
843.999	0.0163262
844.078	0.0162251
844.156	0.0161398
844.234	0.0160111
844.312	0.0160787
844.390	0.0159112
844.468	0.0158971
844.546	0.0157513
844.624	0.0157396
844.703	0.0156585
844.781	0.0158396
844.859	0.0158042
844.937	0.0156587
845.015	0.0157526
845.093	0.0155856
845.171	0.0158160
845.249	0.0158324
845.328	0.0158459
845.406	0.0159644
845.484	0.0159052
845.562	0.0161248
845.640	0.0161633
845.718	0.0162904
845.796	0.0163035
845.874	0.0163477
845.953	0.0164184
846.031	0.0163387
846.109	0.0164818
846.187	0.0164496
846.265	0.0164130
846.343	0.0166331
846.421	0.0164627
846.499	0.0163403
846.578	0.0163051
846.656	0.0163198
846.734	0.0161748
846.812	0.0160201
846.890	0.0158313
846.968	0.0158622
847.046	0.0155558
847.124	0.0153077
847.203	0.0151846
847.281	0.0149654
847.359	0.0149739
847.437	0.0148642
847.515	0.0147624
847.593	0.0149658
847.671	0.0149765
847.749	0.0150449
847.828	0.0151405
847.906	0.0153217
847.984	0.0154104
848.062	0.0154173
848.140	0.0158781
848.218	0.0160591
848.296	0.0162247
848.374	0.0164825
848.453	0.0166180
848.531	0.0168753
848.609	0.0167072
848.687	0.0170901
848.765	0.0170843
848.843	0.0170599
848.921	0.0171133
848.999	0.0171249
849.078	0.0169605
849.156	0.0170359
849.234	0.0168942
849.312	0.0166990
849.390	0.0166430
849.468	0.0164274
849.546	0.0164689
849.624	0.0164296
849.703	0.0162160
849.781	0.0160943
849.859	0.0159232
849.937	0.0158527
850.015	0.0156841
850.093	0.0156407
850.171	0.0152856
850.249	0.0152126
850.328	0.0151871
850.406	0.0151025
850.484	0.0150677
850.562	0.0151145
850.640	0.0150071
850.718	0.0150645
850.796	0.0150538
850.874	0.0149937
850.953	0.0150964
851.031	0.0151767
851.109	0.0153659
851.187	0.0154360
851.265	0.0156052
851.343	0.0157060
851.421	0.0158813
851.499	0.0160343
851.578	0.0161718
851.656	0.0164451
851.734	0.0163895
851.812	0.0166111
851.890	0.0165919
851.968	0.0167288
852.046	0.0167329
852.124	0.0166533
852.203	0.0167371
852.281	0.0165977
852.359	0.0167014
852.437	0.0167438
852.515	0.0167408
852.593	0.0167187
852.671	0.0166405
852.749	0.0165842
852.828	0.0164440
852.906	0.0163179
852.984	0.0163193
853.062	0.0161691
853.140	0.0160380
853.218	0.0161059
853.296	0.0159946
853.374	0.0159736
853.453	0.0158044
853.531	0.0157124
853.609	0.0155640
853.687	0.0156804
853.765	0.0154935
853.843	0.0154427
853.921	0.0155596
853.999	0.0154674
854.078	0.0153368
854.156	0.0155239
854.234	0.0153895
854.312	0.0153876
854.390	0.0153805
854.468	0.0157059
854.546	0.0156184
854.624	0.0155918
854.703	0.0157700
854.781	0.0158670
854.859	0.0158476
854.937	0.0159439
855.015	0.0161388
855.093	0.0160889
855.171	0.0162602
855.249	0.0163174
855.328	0.0162790
855.406	0.0162698
855.484	0.0161935
855.562	0.0163224
855.640	0.0164544
855.718	0.0164499
855.796	0.0163710
855.874	0.0164204
855.953	0.0163377
856.031	0.0162727
856.109	0.0163002
856.187	0.0162963
856.265	0.0161427
856.343	0.0162159
856.421	0.0160851
856.499	0.0159846
856.578	0.0159274
856.656	0.0157943
856.734	0.0158508
856.812	0.0158887
856.890	0.0158826
856.968	0.0156166
857.046	0.0157488
857.124	0.0156610
857.203	0.0157433
857.281	0.0157677
857.359	0.0157832
857.437	0.0158385
857.515	0.0158826
857.593	0.0157866
857.671	0.0159199
857.749	0.0159807
857.828	0.0161263
857.906	0.0161973
857.984	0.0163013
858.062	0.0163953
858.140	0.0163371
858.218	0.0165082
858.296	0.0166782
858.374	0.0164751
858.453	0.0165284
858.531	0.0166815
858.609	0.0166036
858.687	0.0164673
858.765	0.0163408
858.843	0.0163206
858.921	0.0162386
858.999	0.0162130
859.078	0.0160329
859.156	0.0161420
859.234	0.0159216
859.312	0.0157875
859.390	0.0159675
859.468	0.0159351
859.546	0.0157561
859.624	0.0159037
859.703	0.0158002
859.781	0.0157133
859.859	0.0157833
859.937	0.0155624
860.015	0.0156611
860.093	0.0155617
860.171	0.0155076
860.249	0.0156178
860.328	0.0156210
860.406	0.0155676
860.484	0.0156532
860.562	0.0156422
860.640	0.0156804
860.718	0.0156059
860.796	0.0156922
860.874	0.0158336
860.953	0.0156699
861.031	0.0158228
861.109	0.0158643
861.187	0.0159784
861.265	0.0161760
861.343	0.0160606
861.421	0.0160958
861.499	0.0163486
861.578	0.0164424
861.656	0.0164729
861.734	0.0164824
861.812	0.0164920
861.890	0.0165866
861.968	0.0164568
862.046	0.0164568
862.124	0.0165862
862.203	0.0166103
862.281	0.0163828
862.359	0.0162681
862.437	0.0164412
862.515	0.0164772
862.593	0.0161917
862.671	0.0161710
862.749	0.0162154
862.828	0.0161703
862.906	0.0161694
862.984	0.0160953
863.062	0.0161065
863.140	0.0160177
863.218	0.0159897
863.296	0.0159022
863.374	0.0160291
863.453	0.0158652
863.531	0.0158908
863.609	0.0158883
863.687	0.0158592
863.765	0.0157917
863.843	0.0158247
863.921	0.0157965
863.999	0.0156721
864.078	0.0158062
864.156	0.0158553
864.234	0.0158054
864.312	0.0157576
864.390	0.0158194
864.468	0.0157598
864.546	0.0159158
864.624	0.0158897
864.703	0.0159018
864.781	0.0158842
864.859	0.0160109
864.937	0.0159904
865.015	0.0159949
865.093	0.0160126
865.171	0.0159272
865.249	0.0161269
865.328	0.0160164
865.406	0.0159755
865.484	0.0159408
865.562	0.0160101
865.640	0.0159904
865.718	0.0159524
865.796	0.0159250
865.874	0.0159456
865.953	0.0159665
866.031	0.0157379
866.109	0.0159428
866.187	0.0160722
866.265	0.0157829
866.343	0.0158888
866.421	0.0160068
866.499	0.0159626
866.578	0.0159348
866.656	0.0160862
866.734	0.0161205
866.812	0.0162455
866.890	0.0160674
866.968	0.0161340
867.046	0.0162637
867.124	0.0163342
867.203	0.0163791
867.281	0.0163725
867.359	0.0163750
867.437	0.0162536
867.515	0.0164437
867.593	0.0163949
867.671	0.0165108
867.749	0.0164063
867.828	0.0165065
867.906	0.0163759
867.984	0.0162252
868.062	0.0162943
868.140	0.0161558
868.218	0.0163355
868.296	0.0162513
868.374	0.0161470
868.453	0.0161227
868.531	0.0160963
868.609	0.0159194
868.687	0.0160425
868.765	0.0160273
868.843	0.0159483
868.921	0.0158645
868.999	0.0158560
869.078	0.0158993
869.156	0.0157681
869.234	0.0157864
869.312	0.0156474
869.390	0.0157420
869.468	0.0157157
869.546	0.0157408
869.624	0.0157600
869.703	0.0157442
869.781	0.0156652
869.859	0.0157084
869.937	0.0157323
870.015	0.0159183
870.093	0.0158933
870.171	0.0157440
870.249	0.0158007
870.328	0.0158166
870.406	0.0160712
870.484	0.0159131
870.562	0.0159252
870.640	0.0160124
870.718	0.0160017
870.796	0.0159885
870.874	0.0160429
870.953	0.0159821
871.031	0.0159846
871.109	0.0160332
871.187	0.0159827
871.265	0.0158678
871.343	0.0159031
871.421	0.0160606
871.499	0.0159772
871.578	0.0159450
871.656	0.0160405
871.734	0.0159740
871.812	0.0159760
871.890	0.0159386
871.968	0.0159637
872.046	0.0159076
872.124	0.0159886
872.203	0.0160670
872.281	0.0159791
872.359	0.0160922
872.437	0.0160459
872.515	0.0160564
872.593	0.0161089
872.671	0.0160990
872.749	0.0160065
872.828	0.0160282
872.906	0.0160107
872.984	0.0162139
873.062	0.0161709
873.140	0.0159688
873.218	0.0160958
873.296	0.0161411
873.374	0.0161956
873.453	0.0161651
873.531	0.0161372
873.609	0.0163256
873.687	0.0162834
873.765	0.0162373
873.843	0.0162524
873.921	0.0160966
873.999	0.0163046
874.078	0.0162862
874.156	0.0161770
874.234	0.0160168
874.312	0.0160514
874.390	0.0159018
874.468	0.0159940
874.546	0.0158475
874.624	0.0157565
874.703	0.0159882
874.781	0.0157867
874.859	0.0156683
874.937	0.0156857
875.015	0.0158173
875.093	0.0156969
875.171	0.0156886
875.249	0.0156516
875.328	0.0157538
875.406	0.0156462
875.484	0.0157355
875.562	0.0157471
875.640	0.0157536
875.718	0.0156453
875.796	0.0157843
875.874	0.0157703
875.953	0.0157736
876.031	0.0159100
876.109	0.0158762
876.187	0.0159806
876.265	0.0161875
876.343	0.0160482
876.421	0.0163029
876.499	0.0163033
876.578	0.0162836
876.656	0.0162105
876.734	0.0163795
876.812	0.0162387
876.890	0.0164053
876.968	0.0162010
877.046	0.0162096
877.124	0.0161965
877.203	0.0160231
877.281	0.0161533
877.359	0.0161427
877.437	0.0161847
877.515	0.0161210
877.593	0.0160380
877.671	0.0157952
877.749	0.0157430
877.828	0.0157777
877.906	0.0159666
877.984	0.0156223
878.062	0.0157079
878.140	0.0158371
878.218	0.0157761
878.296	0.0159824
878.374	0.0158557
878.453	0.0158364
878.531	0.0159067
878.609	0.0159979
878.687	0.0158052
878.765	0.0160265
878.843	0.0160539
878.921	0.0159672
878.999	0.0161314
879.078	0.0160892
879.156	0.0161755
879.234	0.0161581
879.312	0.0162667
879.390	0.0161608
879.468	0.0160802
879.546	0.0161566
879.624	0.0160500
879.703	0.0162714
879.781	0.0161305
879.859	0.0161185
879.937	0.0160983
880.015	0.0161257
880.093	0.0159261
880.171	0.0157999
880.249	0.0158994
880.328	0.0158656
880.406	0.0158759
880.484	0.0157901
880.562	0.0157272
880.640	0.0157180
880.718	0.0156857
880.796	0.0155941
880.874	0.0157307
880.953	0.0157848
881.031	0.0156081
881.109	0.0157700
881.187	0.0158822
881.265	0.0158154
881.343	0.0158606
881.421	0.0158775
881.499	0.0157881
881.578	0.0158809
881.656	0.0158952
881.734	0.0157582
881.812	0.0157446
881.890	0.0161454
881.968	0.0160725
882.046	0.0160401
882.124	0.0159724
882.203	0.0159810
882.281	0.0161135
882.359	0.0161578
882.437	0.0161272
882.515	0.0161356
882.593	0.0160991
882.671	0.0162416
882.749	0.0163350
882.828	0.0161880
882.906	0.0162408
882.984	0.0162702
883.062	0.0162300
883.140	0.0163134
883.218	0.0162947
883.296	0.0163329
883.374	0.0162900
883.453	0.0161515
883.531	0.0161876
883.609	0.0161456
883.687	0.0161286
883.765	0.0159999
883.843	0.0161391
883.921	0.0160966
883.999	0.0159571
884.078	0.0159863
884.156	0.0158380
884.234	0.0157838
884.312	0.0158504
884.390	0.0159417
884.468	0.0158478
884.546	0.0158667
884.624	0.0159799
884.703	0.0159765
884.781	0.0159927
884.859	0.0158187
884.937	0.0160112
885.015	0.0160323
885.093	0.0159604
885.171	0.0160370
885.249	0.0161084
885.328	0.0160781
885.406	0.0160976
885.484	0.0162043
885.562	0.0160828
885.640	0.0161700
885.718	0.0160807
885.796	0.0161403
885.874	0.0161898
885.953	0.0162212
886.031	0.0161733
886.109	0.0163328
886.187	0.0162608
886.265	0.0161610
886.343	0.0159635
886.421	0.0162157
886.499	0.0161761
886.578	0.0161930
886.656	0.0160909
886.734	0.0161170
886.812	0.0160104
886.890	0.0160685
886.968	0.0161092
887.046	0.0160450
887.124	0.0159809
887.203	0.0159795
887.281	0.0159995
887.359	0.0159402
887.437	0.0159189
887.515	0.0161195
887.593	0.0160555
887.671	0.0160482
887.749	0.0159580
887.828	0.0160103
887.906	0.0158595
887.984	0.0160426
888.062	0.0160416
888.140	0.0161149
888.218	0.0160120
888.296	0.0161040
888.374	0.0160495
888.453	0.0159661
888.531	0.0160802
888.609	0.0160802
888.687	0.0161343
888.765	0.0160580
888.843	0.0160155
888.921	0.0161064
888.999	0.0160711
889.078	0.0161966
889.156	0.0161427
889.234	0.0161865
889.312	0.0160789
889.390	0.0163615
889.468	0.0160810
889.546	0.0161488
889.624	0.0162613
889.703	0.0163351
889.781	0.0162600
889.859	0.0162534
889.937	0.0162315
890.015	0.0160445
890.093	0.0160874
890.171	0.0161886
890.249	0.0160899
890.328	0.0160645
890.406	0.0160271
890.484	0.0160101
890.562	0.0160003
890.640	0.0160391
890.718	0.0158529
890.796	0.0159179
890.874	0.0158813
890.953	0.0159115
891.031	0.0158536
891.109	0.0159900
891.187	0.0159119
891.265	0.0159191
891.343	0.0160895
891.421	0.0161337
891.499	0.0159414
891.578	0.0160795
891.656	0.0158733
891.734	0.0162079
891.812	0.0161115
891.890	0.0161026
891.968	0.0159900
892.046	0.0160136
892.124	0.0159898
892.203	0.0160839
892.281	0.0160360
892.359	0.0161398
892.437	0.0159543
892.515	0.0159468
892.593	0.0160033
892.671	0.0160314
892.749	0.0160388
892.828	0.0161080
892.906	0.0159978
892.984	0.0158094
893.062	0.0159830
893.140	0.0160146
893.218	0.0158749
893.296	0.0159522
893.374	0.0160648
893.453	0.0159351
893.531	0.0159089
893.609	0.0158664
893.687	0.0159557
893.765	0.0160694
893.843	0.0159669
893.921	0.0159851
893.999	0.0160423
894.078	0.0160611
894.156	0.0161987
894.234	0.0160741
894.312	0.0161813
894.390	0.0161027
894.468	0.0161558
894.546	0.0162492
894.624	0.0160928
894.703	0.0161747
894.781	0.0162767
894.859	0.0161694
894.937	0.0161527
895.015	0.0161240
895.093	0.0161211
895.171	0.0160426
895.249	0.0161984
895.328	0.0160418
895.406	0.0160261
895.484	0.0160200
895.562	0.0158688
895.640	0.0158597
895.718	0.0158708
895.796	0.0157733
895.874	0.0158815
895.953	0.0157934
896.031	0.0158897
896.109	0.0157213
896.187	0.0157322
896.265	0.0157440
896.343	0.0158718
896.421	0.0159052
896.499	0.0157848
896.578	0.0159193
896.656	0.0160078
896.734	0.0159370
896.812	0.0161174
896.890	0.0161504
896.968	0.0160532
897.046	0.0161450
897.124	0.0162624
897.203	0.0161868
897.281	0.0163411
897.359	0.0161503
897.437	0.0162198
897.515	0.0160543
897.593	0.0161392
897.671	0.0161804
897.749	0.0161041
897.828	0.0160722
897.906	0.0161382
897.984	0.0160747
898.062	0.0161032
898.140	0.0160062
898.218	0.0158930
898.296	0.0159741
898.374	0.0160143
898.453	0.0160384
898.531	0.0160487
898.609	0.0160452
898.687	0.0159274
898.765	0.0159322
898.843	0.0158686
898.921	0.0158882
898.999	0.0158113
899.078	0.0159556
899.156	0.0160272
899.234	0.0159732
899.312	0.0158765
899.390	0.0160046
899.468	0.0159962
899.546	0.0158970
899.624	0.0159652
899.703	0.0159717
899.781	0.0160784
899.859	0.0160517
899.937	0.0157696
900.015	0.0162322
900.093	0.0160139
900.171	0.0161041
900.249	0.0160616
900.328	0.0159765
900.406	0.0159618
900.484	0.0159435
900.562	0.0159414
900.640	0.0159272
900.718	0.0158341
900.796	0.0157901
900.874	0.0158597
900.953	0.0159239
901.031	0.0158295
901.109	0.0158405
901.187	0.0159103
901.265	0.0157609
901.343	0.0159392
901.421	0.0159743
901.499	0.0159718
901.578	0.0160244
901.656	0.0159972
901.734	0.0160193
901.812	0.0159643
901.890	0.0161254
901.968	0.0158768
902.046	0.0159673
902.124	0.0161504
902.203	0.0161855
902.281	0.0159709
902.359	0.0159624
902.437	0.0161556
902.515	0.0160979
902.593	0.0159933
902.671	0.0159575
902.749	0.0158942
902.828	0.0158916
902.906	0.0159578
902.984	0.0159077
903.062	0.0159631
903.140	0.0160194
903.218	0.0159487
903.296	0.0158883
903.374	0.0159016
903.453	0.0158305
903.531	0.0158814
903.609	0.0158636
903.687	0.0157855
903.765	0.0158092
903.843	0.0158341
903.921	0.0159252
903.999	0.0158676
904.078	0.0160130
904.156	0.0159438
904.234	0.0159454
904.312	0.0160609
904.390	0.0160760
904.468	0.0161169
904.546	0.0160362
904.624	0.0161109
904.703	0.0161123
904.781	0.0159573
904.859	0.0160188
904.937	0.0161659
905.015	0.0160918
905.093	0.0160976
905.171	0.0161493
905.249	0.0160378
905.328	0.0159001
905.406	0.0158630
905.484	0.0161019
905.562	0.0158948
905.640	0.0159109
905.718	0.0160588
905.796	0.0158906
905.874	0.0159124
905.953	0.0160069
906.031	0.0159053
906.109	0.0161081
906.187	0.0160755
906.265	0.0159907
906.343	0.0160474
906.421	0.0160094
906.499	0.0160481
906.578	0.0159938
906.656	0.0161713
906.734	0.0160320
906.812	0.0160411
906.890	0.0160802
906.968	0.0159421
907.046	0.0160464
907.124	0.0161515
907.203	0.0158743
907.281	0.0159621
907.359	0.0159837
907.437	0.0159786
907.515	0.0159373
907.593	0.0159742
907.671	0.0160094
907.749	0.0160672
907.828	0.0160468
907.906	0.0161234
907.984	0.0161308
908.062	0.0161147
908.140	0.0162227
908.218	0.0161665
908.296	0.0163604
908.374	0.0161725
908.453	0.0161584
908.531	0.0162100
908.609	0.0161743
908.687	0.0161749
908.765	0.0161338
908.843	0.0161387
908.921	0.0159904
908.999	0.0161083
909.078	0.0162309
909.156	0.0160728
909.234	0.0159778
909.312	0.0160426
909.390	0.0161544
909.468	0.0160857
909.546	0.0159225
909.624	0.0158582
909.703	0.0158508
909.781	0.0159081
909.859	0.0161639
909.937	0.0159152
910.015	0.0159047
910.093	0.0159983
910.171	0.0160140
910.249	0.0159295
910.328	0.0159707
910.406	0.0160313
910.484	0.0160293
910.562	0.0160040
910.640	0.0159716
910.718	0.0162622
910.796	0.0161329
910.874	0.0161526
910.953	0.0162321
911.031	0.0161024
911.109	0.0163343
911.187	0.0162302
911.265	0.0161976
911.343	0.0161854
911.421	0.0160989
911.499	0.0160203
911.578	0.0160349
911.656	0.0161502
911.734	0.0160030
911.812	0.0159660
911.890	0.0160673
911.968	0.0161404
912.046	0.0160704
912.124	0.0160433
912.203	0.0160133
912.281	0.0159888
912.359	0.0160070
912.437	0.0159144
912.515	0.0160378
912.593	0.0161023
912.671	0.0159808
912.749	0.0160077
912.828	0.0159913
912.906	0.0159923
912.984	0.0160950
913.062	0.0162282
913.140	0.0160852
913.218	0.0162853
913.296	0.0161456
913.374	0.0160122
913.453	0.0161290
913.531	0.0162350
913.609	0.0160921
913.687	0.0160930
913.765	0.0161778
913.843	0.0161031
913.921	0.0161598
913.999	0.0159348
914.078	0.0160679
914.156	0.0160945
914.234	0.0159965
914.312	0.0160222
914.390	0.0161819
914.468	0.0160487
914.546	0.0161894
914.624	0.0159253
914.703	0.0159734
914.781	0.0160683
914.859	0.0160101
914.937	0.0160365
915.015	0.0160045
915.093	0.0159566
915.171	0.0160852
915.249	0.0161198
915.328	0.0161069
915.406	0.0160533
915.484	0.0160741
915.562	0.0160559
915.640	0.0161593
915.718	0.0157762
915.796	0.0159835
915.874	0.0159906
915.953	0.0160237
916.031	0.0158980
916.109	0.0158943
916.187	0.0160220
916.265	0.0158664
916.343	0.0158398
916.421	0.0159232
916.499	0.0158798
916.578	0.0159861
916.656	0.0158438
916.734	0.0160343
916.812	0.0158657
916.890	0.0158367
916.968	0.0159200
917.046	0.0160172
917.124	0.0160316
917.203	0.0159686
917.281	0.0159328
917.359	0.0160485
917.437	0.0159731
917.515	0.0160029
917.593	0.0160143
917.671	0.0161003
917.749	0.0160769
917.828	0.0161698
917.906	0.0162169
917.984	0.0161425
918.062	0.0160735
918.140	0.0160842
918.218	0.0160137
918.296	0.0160363
918.374	0.0161052
918.453	0.0159737
918.531	0.0160151
918.609	0.0159740
918.687	0.0160423
918.765	0.0158731
918.843	0.0159641
918.921	0.0159830
918.999	0.0159230
919.078	0.0160709
919.156	0.0159379
919.234	0.0160005
919.312	0.0160335
919.390	0.0160739
919.468	0.0159046
919.546	0.0160524
919.624	0.0162598
919.703	0.0161251
919.781	0.0160872
919.859	0.0160815
919.937	0.0161126
