06/10/2022	18:33:39	Ver.	4.1	UNKNOWN
Optical Delay	600.015094	Delta X		0.078125	Sweeps	1	Scan Rate	0/0
Coordinates	Axis 1	NaN	Axis 2	NaN	Axis 3	NaN	Axis 4	NaN	Axis 5	NaN	Axis 6	0.000000
TX Power	0.000000	RX Power	0.000000

600.015	0.0163602
600.093	0.0164636
600.171	0.0163557
600.249	0.0163708
600.328	0.0163342
600.406	0.0163609
600.484	0.0163312
600.562	0.0163642
600.640	0.0164652
600.718	0.0163483
600.796	0.0163139
600.874	0.0163049
600.953	0.0163409
601.031	0.0164049
601.109	0.0164176
601.187	0.0164146
601.265	0.0163919
601.343	0.0162691
601.421	0.0163455
601.499	0.0163930
601.578	0.0163904
601.656	0.0164578
601.734	0.0163053
601.812	0.0162852
601.890	0.0164351
601.968	0.0164051
602.046	0.0164513
602.124	0.0164363
602.203	0.0163531
602.281	0.0163670
602.359	0.0163595
602.437	0.0163367
602.515	0.0162995
602.593	0.0163564
602.671	0.0165481
602.749	0.0164054
602.828	0.0163012
602.906	0.0163664
602.984	0.0163480
603.062	0.0163683
603.140	0.0162640
603.218	0.0163766
603.296	0.0163456
603.374	0.0164465
603.453	0.0163851
603.531	0.0163751
603.609	0.0163905
603.687	0.0164112
603.765	0.0164891
603.843	0.0164706
603.921	0.0163454
603.999	0.0164182
604.078	0.0163679
604.156	0.0163739
604.234	0.0162771
604.312	0.0163547
604.390	0.0163214
604.468	0.0165306
604.546	0.0163189
604.624	0.0164362
604.703	0.0163274
604.781	0.0164614
604.859	0.0163135
604.937	0.0164320
605.015	0.0163712
605.093	0.0162888
605.171	0.0164618
605.249	0.0163290
605.328	0.0164959
605.406	0.0164269
605.484	0.0163824
605.562	0.0164167
605.640	0.0164755
605.718	0.0162370
605.796	0.0161588
605.874	0.0164384
605.953	0.0164555
606.031	0.0163293
606.109	0.0162830
606.187	0.0164406
606.265	0.0163474
606.343	0.0164812
606.421	0.0163743
606.499	0.0163848
606.578	0.0164189
606.656	0.0163445
606.734	0.0163396
606.812	0.0163411
606.890	0.0163882
606.968	0.0166417
607.046	0.0163840
607.124	0.0164329
607.203	0.0164405
607.281	0.0162534
607.359	0.0162589
607.437	0.0164088
607.515	0.0162214
607.593	0.0164816
607.671	0.0163247
607.749	0.0163709
607.828	0.0163626
607.906	0.0163545
607.984	0.0163884
608.062	0.0163563
608.140	0.0163216
608.218	0.0165181
608.296	0.0163834
608.374	0.0163646
608.453	0.0164352
608.531	0.0164454
608.609	0.0163937
608.687	0.0163273
608.765	0.0163947
608.843	0.0162257
608.921	0.0163390
608.999	0.0165108
609.078	0.0163709
609.156	0.0164411
609.234	0.0163778
609.312	0.0164496
609.390	0.0164034
609.468	0.0165017
609.546	0.0163886
609.624	0.0164278
609.703	0.0163635
609.781	0.0163464
609.859	0.0164116
609.937	0.0164549
610.015	0.0163235
610.093	0.0164513
610.171	0.0163466
610.249	0.0163245
610.328	0.0163958
610.406	0.0164972
610.484	0.0164833
610.562	0.0164289
610.640	0.0163084
610.718	0.0162500
610.796	0.0163956
610.874	0.0164359
610.953	0.0164152
611.031	0.0164455
611.109	0.0162639
611.187	0.0163183
611.265	0.0163651
611.343	0.0163380
611.421	0.0163377
611.499	0.0164336
611.578	0.0162578
611.656	0.0163200
611.734	0.0163082
611.812	0.0164552
611.890	0.0163927
611.968	0.0164363
612.046	0.0163107
612.124	0.0163171
612.203	0.0164007
612.281	0.0163741
612.359	0.0162170
612.437	0.0161687
612.515	0.0163297
612.593	0.0163972
612.671	0.0163239
612.749	0.0162064
612.828	0.0163567
612.906	0.0163541
612.984	0.0163998
613.062	0.0162946
613.140	0.0164500
613.218	0.0162674
613.296	0.0163797
613.374	0.0163522
613.453	0.0163848
613.531	0.0163290
613.609	0.0163021
613.687	0.0163683
613.765	0.0163958
613.843	0.0164137
613.921	0.0163646
613.999	0.0163625
614.078	0.0164868
614.156	0.0163261
614.234	0.0163560
614.312	0.0163914
614.390	0.0164283
614.468	0.0161791
614.546	0.0162521
614.624	0.0163795
614.703	0.0162480
614.781	0.0163187
614.859	0.0163475
614.937	0.0165080
615.015	0.0162624
615.093	0.0164754
615.171	0.0163107
615.249	0.0162635
615.328	0.0164143
615.406	0.0163669
615.484	0.0163766
615.562	0.0163094
615.640	0.0163696
615.718	0.0165074
615.796	0.0163405
615.874	0.0163557
615.953	0.0164117
616.031	0.0162863
616.109	0.0163264
616.187	0.0163757
616.265	0.0165411
616.343	0.0164093
616.421	0.0163877
616.499	0.0164169
616.578	0.0163801
616.656	0.0164817
616.734	0.0163632
616.812	0.0163914
616.890	0.0163406
616.968	0.0163384
617.046	0.0163798
617.124	0.0163203
617.203	0.0164110
617.281	0.0163013
617.359	0.0164342
617.437	0.0164613
617.515	0.0162650
617.593	0.0163527
617.671	0.0164149
617.749	0.0164643
617.828	0.0164182
617.906	0.0164762
617.984	0.0163894
618.062	0.0163747
618.140	0.0164715
618.218	0.0164494
618.296	0.0163819
618.374	0.0163068
618.453	0.0164040
618.531	0.0164298
618.609	0.0163936
618.687	0.0162733
618.765	0.0164528
618.843	0.0166065
618.921	0.0163316
618.999	0.0163917
619.078	0.0164303
619.156	0.0163515
619.234	0.0163351
619.312	0.0163809
619.390	0.0164849
619.468	0.0163225
619.546	0.0162216
619.624	0.0163528
619.703	0.0163408
619.781	0.0163601
619.859	0.0164037
619.937	0.0162704
620.015	0.0163460
620.093	0.0164341
620.171	0.0163296
620.249	0.0162982
620.328	0.0163374
620.406	0.0165114
620.484	0.0163628
620.562	0.0163885
620.640	0.0161967
620.718	0.0163779
620.796	0.0164787
620.874	0.0164692
620.953	0.0165108
621.031	0.0163885
621.109	0.0164750
621.187	0.0163157
621.265	0.0163474
621.343	0.0164189
621.421	0.0164806
621.499	0.0163103
621.578	0.0162851
621.656	0.0164663
621.734	0.0164041
621.812	0.0163056
621.890	0.0163369
621.968	0.0164265
622.046	0.0165028
622.124	0.0163510
622.203	0.0164116
622.281	0.0163491
622.359	0.0164426
622.437	0.0162376
622.515	0.0163474
622.593	0.0163344
622.671	0.0163032
622.749	0.0165176
622.828	0.0162955
622.906	0.0163607
622.984	0.0164115
623.062	0.0164737
623.140	0.0163789
623.218	0.0164999
623.296	0.0164686
623.374	0.0164198
623.453	0.0163204
623.531	0.0163457
623.609	0.0163609
623.687	0.0164370
623.765	0.0164346
623.843	0.0164294
623.921	0.0164321
623.999	0.0163896
624.078	0.0163326
624.156	0.0163319
624.234	0.0164754
624.312	0.0163358
624.390	0.0164900
624.468	0.0163206
624.546	0.0164426
624.624	0.0163264
624.703	0.0163875
624.781	0.0164388
624.859	0.0164153
624.937	0.0163822
625.015	0.0164098
625.093	0.0162437
625.171	0.0164803
625.249	0.0165372
625.328	0.0165154
625.406	0.0163885
625.484	0.0162749
625.562	0.0164294
625.640	0.0165205
625.718	0.0164457
625.796	0.0163755
625.874	0.0163799
625.953	0.0163650
626.031	0.0163197
626.109	0.0163569
626.187	0.0164256
626.265	0.0164584
626.343	0.0163908
626.421	0.0162754
626.499	0.0163219
626.578	0.0164311
626.656	0.0163171
626.734	0.0163294
626.812	0.0163055
626.890	0.0163185
626.968	0.0164581
627.046	0.0164699
627.124	0.0164799
627.203	0.0163438
627.281	0.0163020
627.359	0.0164278
627.437	0.0163999
627.515	0.0164026
627.593	0.0164246
627.671	0.0163797
627.749	0.0163583
627.828	0.0165034
627.906	0.0164882
627.984	0.0164662
628.062	0.0163937
628.140	0.0163007
628.218	0.0162565
628.296	0.0163471
628.374	0.0163809
628.453	0.0163796
628.531	0.0163861
628.609	0.0164746
628.687	0.0163956
628.765	0.0164754
628.843	0.0163434
628.921	0.0164056
628.999	0.0165416
629.078	0.0163396
629.156	0.0163351
629.234	0.0164153
629.312	0.0164021
629.390	0.0164251
629.468	0.0163960
629.546	0.0164541
629.624	0.0164149
629.703	0.0163539
629.781	0.0163949
629.859	0.0163698
629.937	0.0162638
630.015	0.0163964
630.093	0.0165103
630.171	0.0162466
630.249	0.0163775
630.328	0.0164043
630.406	0.0163873
630.484	0.0163805
630.562	0.0165865
630.640	0.0164851
630.718	0.0163451
630.796	0.0163876
630.874	0.0163671
630.953	0.0164647
631.031	0.0164531
631.109	0.0164640
631.187	0.0164495
631.265	0.0164528
631.343	0.0163164
631.421	0.0163184
631.499	0.0164858
631.578	0.0163985
631.656	0.0163548
631.734	0.0163288
631.812	0.0163774
631.890	0.0164450
631.968	0.0164110
632.046	0.0164707
632.124	0.0163020
632.203	0.0164731
632.281	0.0165540
632.359	0.0162886
632.437	0.0164154
632.515	0.0164503
632.593	0.0163938
632.671	0.0164140
632.749	0.0163078
632.828	0.0164063
632.906	0.0164286
632.984	0.0163785
633.062	0.0163808
633.140	0.0164875
633.218	0.0164544
633.296	0.0164674
633.374	0.0164363
633.453	0.0164533
633.531	0.0164442
633.609	0.0165086
633.687	0.0164919
633.765	0.0164097
633.843	0.0164867
633.921	0.0166273
633.999	0.0164106
634.078	0.0163557
634.156	0.0164183
634.234	0.0164230
634.312	0.0164980
634.390	0.0162792
634.468	0.0164136
634.546	0.0163908
634.624	0.0164964
634.703	0.0163698
634.781	0.0163760
634.859	0.0164599
634.937	0.0165630
635.015	0.0164174
635.093	0.0164176
635.171	0.0164310
635.249	0.0163493
635.328	0.0163969
635.406	0.0164516
635.484	0.0165594
635.562	0.0164186
635.640	0.0164275
635.718	0.0164774
635.796	0.0164226
635.874	0.0164112
635.953	0.0164307
636.031	0.0164085
636.109	0.0163680
636.187	0.0164286
636.265	0.0165340
636.343	0.0164256
636.421	0.0164111
636.499	0.0164904
636.578	0.0163506
636.656	0.0163867
636.734	0.0163404
636.812	0.0164327
636.890	0.0164879
636.968	0.0164864
637.046	0.0162780
637.124	0.0164634
637.203	0.0165076
637.281	0.0163914
637.359	0.0164109
637.437	0.0165624
637.515	0.0164148
637.593	0.0164223
637.671	0.0164160
637.749	0.0163557
637.828	0.0163747
637.906	0.0163779
637.984	0.0164211
638.062	0.0164523
638.140	0.0164915
638.218	0.0164161
638.296	0.0164970
638.374	0.0163972
638.453	0.0163837
638.531	0.0164687
638.609	0.0163750
638.687	0.0163599
638.765	0.0164433
638.843	0.0163425
638.921	0.0164796
638.999	0.0165244
639.078	0.0163130
639.156	0.0164175
639.234	0.0165583
639.312	0.0163971
639.390	0.0163780
639.468	0.0164201
639.546	0.0164315
639.624	0.0164928
639.703	0.0163960
639.781	0.0163842
639.859	0.0163679
639.937	0.0163780
640.015	0.0164513
640.093	0.0164558
640.171	0.0163963
640.249	0.0162661
640.328	0.0164478
640.406	0.0165042
640.484	0.0165255
640.562	0.0163326
640.640	0.0164627
640.718	0.0166141
640.796	0.0165144
640.874	0.0164446
640.953	0.0164426
641.031	0.0163529
641.109	0.0164590
641.187	0.0164723
641.265	0.0163406
641.343	0.0164293
641.421	0.0163872
641.499	0.0164671
641.578	0.0164960
641.656	0.0162601
641.734	0.0164692
641.812	0.0165149
641.890	0.0163895
641.968	0.0165201
642.046	0.0164148
642.124	0.0163949
642.203	0.0165051
642.281	0.0164527
642.359	0.0164825
642.437	0.0164329
642.515	0.0164209
642.593	0.0165094
642.671	0.0165334
642.749	0.0163120
642.828	0.0165015
642.906	0.0163918
642.984	0.0163101
643.062	0.0163158
643.140	0.0164537
643.218	0.0165205
643.296	0.0164561
643.374	0.0162595
643.453	0.0163458
643.531	0.0164934
643.609	0.0164710
643.687	0.0163073
643.765	0.0163464
643.843	0.0163743
643.921	0.0163764
643.999	0.0163667
644.078	0.0163536
644.156	0.0162969
644.234	0.0164656
644.312	0.0165258
644.390	0.0164558
644.468	0.0164279
644.546	0.0163947
644.624	0.0162401
644.703	0.0162719
644.781	0.0163292
644.859	0.0164443
644.937	0.0164030
645.015	0.0163351
645.093	0.0163032
645.171	0.0164569
645.249	0.0162467
645.328	0.0163035
645.406	0.0164831
645.484	0.0164220
645.562	0.0164583
645.640	0.0163280
645.718	0.0164516
645.796	0.0163188
645.874	0.0165081
645.953	0.0163998
646.031	0.0162727
646.109	0.0163438
646.187	0.0164175
646.265	0.0165147
646.343	0.0163604
646.421	0.0164399
646.499	0.0165145
646.578	0.0164046
646.656	0.0164201
646.734	0.0163889
646.812	0.0163611
646.890	0.0164872
646.968	0.0166715
647.046	0.0164906
647.124	0.0163950
647.203	0.0164536
647.281	0.0164182
647.359	0.0164132
647.437	0.0162903
647.515	0.0164420
647.593	0.0164180
647.671	0.0163533
647.749	0.0163998
647.828	0.0164175
647.906	0.0164827
647.984	0.0164583
648.062	0.0163383
648.140	0.0163345
648.218	0.0163829
648.296	0.0163208
648.374	0.0162170
648.453	0.0163062
648.531	0.0164843
648.609	0.0164581
648.687	0.0164131
648.765	0.0164803
648.843	0.0164287
648.921	0.0163799
648.999	0.0165524
649.078	0.0164795
649.156	0.0163212
649.234	0.0164241
649.312	0.0162485
649.390	0.0164730
649.468	0.0164645
649.546	0.0162853
649.624	0.0163675
649.703	0.0163320
649.781	0.0163845
649.859	0.0165147
649.937	0.0164846
650.015	0.0164574
650.093	0.0164090
650.171	0.0163554
650.249	0.0163754
650.328	0.0164005
650.406	0.0162254
650.484	0.0163406
650.562	0.0164748
650.640	0.0165134
650.718	0.0163513
650.796	0.0164566
650.874	0.0164521
650.953	0.0163467
651.031	0.0163136
651.109	0.0163477
651.187	0.0164259
651.265	0.0163029
651.343	0.0163006
651.421	0.0163532
651.499	0.0163961
651.578	0.0162878
651.656	0.0162801
651.734	0.0163590
651.812	0.0162991
651.890	0.0164077
651.968	0.0163998
652.046	0.0163945
652.124	0.0164286
652.203	0.0163464
652.281	0.0163533
652.359	0.0165132
652.437	0.0163338
652.515	0.0163186
652.593	0.0163100
652.671	0.0163659
652.749	0.0165387
652.828	0.0163432
652.906	0.0163536
652.984	0.0163692
653.062	0.0164326
653.140	0.0164141
653.218	0.0163911
653.296	0.0164236
653.374	0.0163237
653.453	0.0163720
653.531	0.0162646
653.609	0.0162997
653.687	0.0163588
653.765	0.0163378
653.843	0.0164626
653.921	0.0162765
653.999	0.0163236
654.078	0.0163515
654.156	0.0162787
654.234	0.0163776
654.312	0.0163923
654.390	0.0163871
654.468	0.0165100
654.546	0.0165556
654.624	0.0162053
654.703	0.0163708
654.781	0.0165850
654.859	0.0164375
654.937	0.0164708
655.015	0.0164082
655.093	0.0163347
655.171	0.0164891
655.249	0.0163417
655.328	0.0164723
655.406	0.0163136
655.484	0.0163479
655.562	0.0164126
655.640	0.0163143
655.718	0.0163711
655.796	0.0164606
655.874	0.0164991
655.953	0.0164980
656.031	0.0164456
656.109	0.0163166
656.187	0.0163747
656.265	0.0164807
656.343	0.0163464
656.421	0.0164107
656.499	0.0164529
656.578	0.0165244
656.656	0.0164794
656.734	0.0164037
656.812	0.0163691
656.890	0.0163817
656.968	0.0163303
657.046	0.0163311
657.124	0.0163656
657.203	0.0164420
657.281	0.0164643
657.359	0.0163663
657.437	0.0165405
657.515	0.0162985
657.593	0.0163190
657.671	0.0163738
657.749	0.0165096
657.828	0.0163857
657.906	0.0163828
657.984	0.0164844
658.062	0.0164040
658.140	0.0163746
658.218	0.0163512
658.296	0.0164130
658.374	0.0164074
658.453	0.0163166
658.531	0.0163792
658.609	0.0164192
658.687	0.0164104
658.765	0.0164555
658.843	0.0163062
658.921	0.0163786
658.999	0.0162849
659.078	0.0164640
659.156	0.0163107
659.234	0.0163915
659.312	0.0164192
659.390	0.0163967
659.468	0.0163628
659.546	0.0164249
659.624	0.0164270
659.703	0.0164266
659.781	0.0164104
659.859	0.0164546
659.937	0.0163352
660.015	0.0163094
660.093	0.0164332
660.171	0.0164717
660.249	0.0163131
660.328	0.0162506
660.406	0.0162822
660.484	0.0162599
660.562	0.0163850
660.640	0.0163924
660.718	0.0164195
660.796	0.0163791
660.874	0.0164120
660.953	0.0163123
661.031	0.0163783
661.109	0.0162631
661.187	0.0165468
661.265	0.0161856
661.343	0.0163705
661.421	0.0164212
661.499	0.0162905
661.578	0.0163041
661.656	0.0164034
661.734	0.0164822
661.812	0.0163423
661.890	0.0164465
661.968	0.0163741
662.046	0.0163161
662.124	0.0163157
662.203	0.0163142
662.281	0.0164136
662.359	0.0164482
662.437	0.0163546
662.515	0.0162668
662.593	0.0162843
662.671	0.0162343
662.749	0.0163568
662.828	0.0163743
662.906	0.0164972
662.984	0.0164932
663.062	0.0164742
663.140	0.0164611
663.218	0.0163323
663.296	0.0164257
663.374	0.0163388
663.453	0.0165266
663.531	0.0163317
663.609	0.0163425
663.687	0.0163577
663.765	0.0164147
663.843	0.0164112
663.921	0.0163558
663.999	0.0164336
664.078	0.0162941
664.156	0.0163052
664.234	0.0163947
664.312	0.0162881
664.390	0.0163195
664.468	0.0162409
664.546	0.0164193
664.624	0.0164025
664.703	0.0163099
664.781	0.0162881
664.859	0.0163599
664.937	0.0163818
665.015	0.0164599
665.093	0.0163572
665.171	0.0163700
665.249	0.0163447
665.328	0.0163776
665.406	0.0163990
665.484	0.0163833
665.562	0.0163210
665.640	0.0164250
665.718	0.0165313
665.796	0.0163507
665.874	0.0163374
665.953	0.0165047
666.031	0.0164189
666.109	0.0165123
666.187	0.0164701
666.265	0.0163414
666.343	0.0164130
666.421	0.0164203
666.499	0.0164964
666.578	0.0163757
666.656	0.0163844
666.734	0.0164399
666.812	0.0162631
666.890	0.0163729
666.968	0.0162978
667.046	0.0164562
667.124	0.0163767
667.203	0.0162827
667.281	0.0163414
667.359	0.0165121
667.437	0.0165331
667.515	0.0164088
667.593	0.0162548
667.671	0.0163458
667.749	0.0165063
667.828	0.0163690
667.906	0.0164588
667.984	0.0164301
668.062	0.0164385
668.140	0.0161732
668.218	0.0163802
668.296	0.0164445
668.374	0.0164207
668.453	0.0164051
668.531	0.0163094
668.609	0.0164606
668.687	0.0164538
668.765	0.0163345
668.843	0.0163969
668.921	0.0164417
668.999	0.0163885
669.078	0.0163252
669.156	0.0162357
669.234	0.0164048
669.312	0.0164613
669.390	0.0162325
669.468	0.0163373
669.546	0.0164559
669.624	0.0164837
669.703	0.0164369
669.781	0.0163780
669.859	0.0162878
669.937	0.0164939
670.015	0.0164121
670.093	0.0163352
670.171	0.0163306
670.249	0.0163524
670.328	0.0163405
670.406	0.0164136
670.484	0.0164748
670.562	0.0163138
670.640	0.0163798
670.718	0.0163754
670.796	0.0163442
670.874	0.0163073
670.953	0.0163266
671.031	0.0164837
671.109	0.0165144
671.187	0.0163933
671.265	0.0164085
671.343	0.0163816
671.421	0.0164130
671.499	0.0164361
671.578	0.0163953
671.656	0.0164366
671.734	0.0163765
671.812	0.0165247
671.890	0.0164229
671.968	0.0165614
672.046	0.0163684
672.124	0.0165972
672.203	0.0163811
672.281	0.0164465
672.359	0.0164292
672.437	0.0164512
672.515	0.0163726
672.593	0.0163968
672.671	0.0163797
672.749	0.0163579
672.828	0.0164331
672.906	0.0163937
672.984	0.0163083
673.062	0.0165261
673.140	0.0163975
673.218	0.0162206
673.296	0.0163403
673.374	0.0163027
673.453	0.0164246
673.531	0.0163529
673.609	0.0164135
673.687	0.0164228
673.765	0.0163247
673.843	0.0162099
673.921	0.0164098
673.999	0.0163823
674.078	0.0162917
674.156	0.0163335
674.234	0.0165342
674.312	0.0165073
674.390	0.0164109
674.468	0.0163873
674.546	0.0163045
674.624	0.0164359
674.703	0.0165511
674.781	0.0165029
674.859	0.0164709
674.937	0.0164613
675.015	0.0164261
675.093	0.0164401
675.171	0.0164126
675.249	0.0163165
675.328	0.0164153
675.406	0.0163720
675.484	0.0164419
675.562	0.0162675
675.640	0.0163306
675.718	0.0162789
675.796	0.0164400
675.874	0.0164102
675.953	0.0164166
676.031	0.0164703
676.109	0.0163245
676.187	0.0164172
676.265	0.0163629
676.343	0.0163791
676.421	0.0163808
676.499	0.0162624
676.578	0.0164585
676.656	0.0163768
676.734	0.0164951
676.812	0.0163106
676.890	0.0162990
676.968	0.0163181
677.046	0.0163431
677.124	0.0164008
677.203	0.0163882
677.281	0.0163017
677.359	0.0163585
677.437	0.0164265
677.515	0.0164336
677.593	0.0161633
677.671	0.0162881
677.749	0.0165159
677.828	0.0163522
677.906	0.0165147
677.984	0.0166690
678.062	0.0163437
678.140	0.0163568
678.218	0.0163725
678.296	0.0162991
678.374	0.0163760
678.453	0.0163831
678.531	0.0164621
678.609	0.0162985
678.687	0.0163255
678.765	0.0163879
678.843	0.0165331
678.921	0.0163443
678.999	0.0163560
679.078	0.0163765
679.156	0.0163668
679.234	0.0165383
679.312	0.0164569
679.390	0.0163858
679.468	0.0163963
679.546	0.0163651
679.624	0.0163966
679.703	0.0162917
679.781	0.0164949
679.859	0.0164078
679.937	0.0164180
680.015	0.0163896
680.093	0.0163728
680.171	0.0163763
680.249	0.0164532
680.328	0.0163929
680.406	0.0164954
680.484	0.0164998
680.562	0.0164166
680.640	0.0163240
680.718	0.0163569
680.796	0.0163333
680.874	0.0163507
680.953	0.0164471
681.031	0.0164117
681.109	0.0164118
681.187	0.0163508
681.265	0.0163806
681.343	0.0163863
681.421	0.0165097
681.499	0.0164592
681.578	0.0164105
681.656	0.0163163
681.734	0.0163585
681.812	0.0164436
681.890	0.0162584
681.968	0.0164329
682.046	0.0164262
682.124	0.0164999
682.203	0.0165001
682.281	0.0165031
682.359	0.0164073
682.437	0.0163642
682.515	0.0163730
682.593	0.0165372
682.671	0.0164117
682.749	0.0165066
682.828	0.0165571
682.906	0.0164740
682.984	0.0164212
683.062	0.0165269
683.140	0.0162989
683.218	0.0163054
683.296	0.0164075
683.374	0.0163944
683.453	0.0164980
683.531	0.0164435
683.609	0.0163764
683.687	0.0163563
683.765	0.0163080
683.843	0.0162986
683.921	0.0164387
683.999	0.0162882
684.078	0.0163208
684.156	0.0163773
684.234	0.0163172
684.312	0.0162637
684.390	0.0163579
684.468	0.0163182
684.546	0.0163847
684.624	0.0163232
684.703	0.0164827
684.781	0.0164131
684.859	0.0162334
684.937	0.0162666
685.015	0.0162832
685.093	0.0164541
685.171	0.0163879
685.249	0.0163468
685.328	0.0164068
685.406	0.0164155
685.484	0.0163793
685.562	0.0164272
685.640	0.0164412
685.718	0.0163135
685.796	0.0164259
685.874	0.0163635
685.953	0.0163810
686.031	0.0165055
686.109	0.0165157
686.187	0.0163873
686.265	0.0164072
686.343	0.0164021
686.421	0.0164715
686.499	0.0163888
686.578	0.0165145
686.656	0.0163889
686.734	0.0163335
686.812	0.0164043
686.890	0.0163382
686.968	0.0164098
687.046	0.0164584
687.124	0.0164487
687.203	0.0163042
687.281	0.0163166
687.359	0.0163444
687.437	0.0164674
687.515	0.0162871
687.593	0.0164130
687.671	0.0164168
687.749	0.0164194
687.828	0.0164433
687.906	0.0163922
687.984	0.0164196
688.062	0.0163344
688.140	0.0164104
688.218	0.0164079
688.296	0.0164034
688.374	0.0163806
688.453	0.0164359
688.531	0.0163058
688.609	0.0164454
688.687	0.0164106
688.765	0.0163028
688.843	0.0164365
688.921	0.0163915
688.999	0.0165022
689.078	0.0162746
689.156	0.0163400
689.234	0.0164448
689.312	0.0163383
689.390	0.0163808
689.468	0.0164906
689.546	0.0164490
689.624	0.0164037
689.703	0.0163979
689.781	0.0163651
689.859	0.0163879
689.937	0.0165011
690.015	0.0164397
690.093	0.0163338
690.171	0.0164474
690.249	0.0164072
690.328	0.0163326
690.406	0.0165273
690.484	0.0164588
690.562	0.0163231
690.640	0.0163452
690.718	0.0165283
690.796	0.0164182
690.874	0.0164895
690.953	0.0165084
691.031	0.0162016
691.109	0.0164545
691.187	0.0164101
691.265	0.0162121
691.343	0.0163570
691.421	0.0163677
691.499	0.0164059
691.578	0.0163559
691.656	0.0162497
691.734	0.0163512
691.812	0.0164568
691.890	0.0163411
691.968	0.0164751
692.046	0.0164783
692.124	0.0164704
692.203	0.0163557
692.281	0.0164606
692.359	0.0163383
692.437	0.0164387
692.515	0.0163335
692.593	0.0164175
692.671	0.0163838
692.749	0.0164799
692.828	0.0164653
692.906	0.0163908
692.984	0.0164227
693.062	0.0165852
693.140	0.0163764
693.218	0.0163470
693.296	0.0164697
693.374	0.0165337
693.453	0.0164192
693.531	0.0163264
693.609	0.0164751
693.687	0.0163966
693.765	0.0164144
693.843	0.0163638
693.921	0.0163680
693.999	0.0164048
694.078	0.0163447
694.156	0.0162841
694.234	0.0164109
694.312	0.0163960
694.390	0.0164253
694.468	0.0164513
694.546	0.0164396
694.624	0.0163309
694.703	0.0163274
694.781	0.0164778
694.859	0.0162790
694.937	0.0163860
695.015	0.0164766
695.093	0.0163554
695.171	0.0164938
695.249	0.0163239
695.328	0.0164600
695.406	0.0164270
695.484	0.0163868
695.562	0.0163159
695.640	0.0164167
695.718	0.0163725
695.796	0.0163008
695.874	0.0163271
695.953	0.0162958
696.031	0.0163411
696.109	0.0164207
696.187	0.0164087
696.265	0.0164127
696.343	0.0163970
696.421	0.0164003
696.499	0.0164317
696.578	0.0163087
696.656	0.0163642
696.734	0.0164023
696.812	0.0163783
696.890	0.0165103
696.968	0.0163839
697.046	0.0165351
697.124	0.0164790
697.203	0.0162720
697.281	0.0163271
697.359	0.0163903
697.437	0.0162291
697.515	0.0164617
697.593	0.0164291
697.671	0.0163745
697.749	0.0163428
697.828	0.0162271
697.906	0.0164040
697.984	0.0163792
698.062	0.0164140
698.140	0.0163492
698.218	0.0163430
698.296	0.0164626
698.374	0.0164462
698.453	0.0164082
698.531	0.0164270
698.609	0.0163487
698.687	0.0163667
698.765	0.0163557
698.843	0.0163823
698.921	0.0164108
698.999	0.0164087
699.078	0.0163248
699.156	0.0164677
699.234	0.0163941
699.312	0.0163489
699.390	0.0162955
699.468	0.0163878
699.546	0.0164343
699.624	0.0163874
699.703	0.0164146
699.781	0.0164117
699.859	0.0163253
699.937	0.0163048
700.015	0.0164263
700.093	0.0163718
700.171	0.0164376
700.249	0.0163114
700.328	0.0165102
700.406	0.0163978
700.484	0.0165096
700.562	0.0165868
700.640	0.0164837
700.718	0.0164232
700.796	0.0164120
700.874	0.0164733
700.953	0.0164169
701.031	0.0163656
701.109	0.0163937
701.187	0.0165056
701.265	0.0165288
701.343	0.0163934
701.421	0.0163912
701.499	0.0165781
701.578	0.0163437
701.656	0.0163403
701.734	0.0164632
701.812	0.0164028
701.890	0.0164427
701.968	0.0165265
702.046	0.0163158
702.124	0.0164085
702.203	0.0164005
702.281	0.0163989
702.359	0.0164552
702.437	0.0163679
702.515	0.0163022
702.593	0.0163605
702.671	0.0164469
702.749	0.0164915
702.828	0.0163580
702.906	0.0163502
702.984	0.0164445
703.062	0.0164966
703.140	0.0164603
703.218	0.0163357
703.296	0.0164200
703.374	0.0165196
703.453	0.0163586
703.531	0.0164454
703.609	0.0164703
703.687	0.0164388
703.765	0.0163100
703.843	0.0163083
703.921	0.0163802
703.999	0.0163530
704.078	0.0163966
704.156	0.0163437
704.234	0.0165238
704.312	0.0165337
704.390	0.0164550
704.468	0.0164391
704.546	0.0163936
704.624	0.0163832
704.703	0.0164512
704.781	0.0163526
704.859	0.0164053
704.937	0.0163642
705.015	0.0164067
705.093	0.0163445
705.171	0.0165225
705.249	0.0164049
705.328	0.0162914
705.406	0.0163793
705.484	0.0163223
705.562	0.0162523
705.640	0.0164439
705.718	0.0162890
705.796	0.0163775
705.874	0.0164778
705.953	0.0165105
706.031	0.0163433
706.109	0.0163511
706.187	0.0162969
706.265	0.0164246
706.343	0.0163474
706.421	0.0163706
706.499	0.0162888
706.578	0.0164417
706.656	0.0163840
706.734	0.0163206
706.812	0.0163169
706.890	0.0162514
706.968	0.0163414
707.046	0.0163419
707.124	0.0163698
707.203	0.0164828
707.281	0.0163071
707.359	0.0164019
707.437	0.0164016
707.515	0.0163644
707.593	0.0162910
707.671	0.0164196
707.749	0.0163492
707.828	0.0162804
707.906	0.0161980
707.984	0.0163493
708.062	0.0163897
708.140	0.0163786
708.218	0.0163751
708.296	0.0163875
708.374	0.0163753
708.453	0.0163410
708.531	0.0164211
708.609	0.0164269
708.687	0.0165482
708.765	0.0165334
708.843	0.0163447
708.921	0.0162610
708.999	0.0163043
709.078	0.0163814
709.156	0.0162773
709.234	0.0163331
709.312	0.0164756
709.390	0.0163743
709.468	0.0162440
709.546	0.0162178
709.624	0.0163909
709.703	0.0164589
709.781	0.0163163
709.859	0.0162821
709.937	0.0162892
710.015	0.0164384
710.093	0.0164173
710.171	0.0163304
710.249	0.0163404
710.328	0.0163725
710.406	0.0164749
710.484	0.0163336
710.562	0.0163153
710.640	0.0164843
710.718	0.0163257
710.796	0.0162704
710.874	0.0164722
710.953	0.0164323
711.031	0.0162740
711.109	0.0165253
711.187	0.0163736
711.265	0.0163997
711.343	0.0163809
711.421	0.0164671
711.499	0.0164634
711.578	0.0165455
711.656	0.0163935
711.734	0.0162820
711.812	0.0164639
711.890	0.0162897
711.968	0.0163635
712.046	0.0163814
712.124	0.0163200
712.203	0.0162635
712.281	0.0163140
712.359	0.0164359
712.437	0.0163063
712.515	0.0163042
712.593	0.0162409
712.671	0.0163680
712.749	0.0164046
712.828	0.0163943
712.906	0.0162956
712.984	0.0163084
713.062	0.0164648
713.140	0.0163918
713.218	0.0163463
713.296	0.0164291
713.374	0.0163823
713.453	0.0164072
713.531	0.0163523
713.609	0.0162719
713.687	0.0163789
713.765	0.0165313
713.843	0.0165038
713.921	0.0163979
713.999	0.0163425
714.078	0.0163837
714.156	0.0164431
714.234	0.0164391
714.312	0.0163738
714.390	0.0163898
714.468	0.0163992
714.546	0.0163353
714.624	0.0163429
714.703	0.0164830
714.781	0.0162815
714.859	0.0164614
714.937	0.0164388
715.015	0.0164335
715.093	0.0163988
715.171	0.0163902
715.249	0.0163377
715.328	0.0163688
715.406	0.0164341
715.484	0.0164322
715.562	0.0164294
715.640	0.0164326
715.718	0.0162769
715.796	0.0162843
715.874	0.0165111
715.953	0.0164013
716.031	0.0163862
716.109	0.0164333
716.187	0.0164035
716.265	0.0162974
716.343	0.0165546
716.421	0.0164648
716.499	0.0163119
716.578	0.0162180
716.656	0.0163634
716.734	0.0163456
716.812	0.0162080
716.890	0.0163253
716.968	0.0162811
717.046	0.0163614
717.124	0.0162271
717.203	0.0163861
717.281	0.0162891
717.359	0.0162897
717.437	0.0164317
717.515	0.0163439
717.593	0.0162019
717.671	0.0162894
717.749	0.0163007
717.828	0.0163262
717.906	0.0162606
717.984	0.0162698
718.062	0.0163431
718.140	0.0164238
718.218	0.0164367
718.296	0.0164153
718.374	0.0162817
718.453	0.0162667
718.531	0.0162904
718.609	0.0162601
718.687	0.0163386
718.765	0.0161958
718.843	0.0163729
718.921	0.0162404
718.999	0.0163876
719.078	0.0164735
719.156	0.0162818
719.234	0.0163335
719.312	0.0163528
719.390	0.0164393
719.468	0.0164119
719.546	0.0163231
719.624	0.0163513
719.703	0.0164440
719.781	0.0164986
719.859	0.0163069
719.937	0.0164832
720.015	0.0163108
720.093	0.0163355
720.171	0.0164658
720.249	0.0165396
720.328	0.0164119
720.406	0.0163219
720.484	0.0163605
720.562	0.0164492
720.640	0.0163941
720.718	0.0163934
720.796	0.0162756
720.874	0.0162463
720.953	0.0163435
721.031	0.0164556
721.109	0.0162460
721.187	0.0163480
721.265	0.0163513
721.343	0.0164265
721.421	0.0164719
721.499	0.0163272
721.578	0.0163811
721.656	0.0163432
721.734	0.0164845
721.812	0.0162625
721.890	0.0163737
721.968	0.0164840
722.046	0.0164806
722.124	0.0165418
722.203	0.0163096
722.281	0.0164476
722.359	0.0164097
722.437	0.0163445
722.515	0.0164438
722.593	0.0165215
722.671	0.0162869
722.749	0.0164265
722.828	0.0163424
722.906	0.0163900
722.984	0.0164156
723.062	0.0163788
723.140	0.0163508
723.218	0.0163676
723.296	0.0164359
723.374	0.0164890
723.453	0.0164541
723.531	0.0164049
723.609	0.0164235
723.687	0.0163191
723.765	0.0164262
723.843	0.0164739
723.921	0.0163945
723.999	0.0162419
724.078	0.0163503
724.156	0.0164046
724.234	0.0164207
724.312	0.0164915
724.390	0.0163036
724.468	0.0163648
724.546	0.0164365
724.624	0.0162587
724.703	0.0163577
724.781	0.0164957
724.859	0.0163652
724.937	0.0164526
725.015	0.0164265
725.093	0.0162730
725.171	0.0163933
725.249	0.0163986
725.328	0.0164135
725.406	0.0163660
725.484	0.0163576
725.562	0.0165181
725.640	0.0163506
725.718	0.0163653
725.796	0.0164017
725.874	0.0163968
725.953	0.0163469
726.031	0.0163508
726.109	0.0163853
726.187	0.0164877
726.265	0.0164577
726.343	0.0164413
726.421	0.0165149
726.499	0.0163978
726.578	0.0164619
726.656	0.0164208
726.734	0.0162247
726.812	0.0165354
726.890	0.0164007
726.968	0.0162762
727.046	0.0163555
727.124	0.0163811
727.203	0.0164726
727.281	0.0164240
727.359	0.0166475
727.437	0.0164730
727.515	0.0164308
727.593	0.0162024
727.671	0.0164310
727.749	0.0164104
727.828	0.0163779
727.906	0.0163029
727.984	0.0163306
728.062	0.0164426
728.140	0.0164617
728.218	0.0164154
728.296	0.0164088
728.374	0.0164185
728.453	0.0163164
728.531	0.0161989
728.609	0.0162489
728.687	0.0163451
728.765	0.0164508
728.843	0.0163113
728.921	0.0163677
728.999	0.0163447
729.078	0.0162533
729.156	0.0164712
729.234	0.0164268
729.312	0.0164237
729.390	0.0164263
729.468	0.0164099
729.546	0.0163799
729.624	0.0162782
729.703	0.0162971
729.781	0.0164185
729.859	0.0162986
729.937	0.0163092
730.015	0.0164536
730.093	0.0164561
730.171	0.0163971
730.249	0.0162260
730.328	0.0163195
730.406	0.0165489
730.484	0.0163438
730.562	0.0162669
730.640	0.0163638
730.718	0.0163180
730.796	0.0164262
730.874	0.0164507
730.953	0.0164178
731.031	0.0162865
731.109	0.0163181
731.187	0.0163798
731.265	0.0163965
731.343	0.0164499
731.421	0.0164352
731.499	0.0163620
731.578	0.0164079
731.656	0.0163787
731.734	0.0164134
731.812	0.0162843
731.890	0.0162608
731.968	0.0163996
732.046	0.0163849
732.124	0.0164786
732.203	0.0163438
732.281	0.0163614
732.359	0.0163626
732.437	0.0163014
732.515	0.0163637
732.593	0.0162663
732.671	0.0163500
732.749	0.0162946
732.828	0.0162833
732.906	0.0164159
732.984	0.0163514
733.062	0.0164894
733.140	0.0162876
733.218	0.0162826
733.296	0.0163122
733.374	0.0163713
733.453	0.0164826
733.531	0.0162560
733.609	0.0163494
733.687	0.0163912
733.765	0.0164092
733.843	0.0163227
733.921	0.0162691
733.999	0.0164646
734.078	0.0162880
734.156	0.0163983
734.234	0.0163233
734.312	0.0162077
734.390	0.0164018
734.468	0.0163783
734.546	0.0165122
734.624	0.0164044
734.703	0.0163687
734.781	0.0163360
734.859	0.0164364
734.937	0.0163182
735.015	0.0162208
735.093	0.0163691
735.171	0.0163544
735.249	0.0162543
735.328	0.0164803
735.406	0.0163069
735.484	0.0164204
735.562	0.0163841
735.640	0.0164944
735.718	0.0162620
735.796	0.0162325
735.874	0.0164224
735.953	0.0163420
736.031	0.0163362
736.109	0.0162393
736.187	0.0161422
736.265	0.0163503
736.343	0.0164114
736.421	0.0162599
736.499	0.0163428
736.578	0.0162806
736.656	0.0162244
736.734	0.0162936
736.812	0.0163148
736.890	0.0163795
736.968	0.0163729
737.046	0.0163623
737.124	0.0163622
737.203	0.0163371
737.281	0.0164018
737.359	0.0164127
737.437	0.0164611
737.515	0.0163592
737.593	0.0163559
737.671	0.0163923
737.749	0.0165222
737.828	0.0164642
737.906	0.0164576
737.984	0.0165085
738.062	0.0164928
738.140	0.0165665
738.218	0.0166662
738.296	0.0166507
738.374	0.0165938
738.453	0.0164406
738.531	0.0163813
738.609	0.0167209
738.687	0.0164598
738.765	0.0163998
738.843	0.0164400
738.921	0.0165112
738.999	0.0163171
739.078	0.0162479
739.156	0.0163142
739.234	0.0163702
739.312	0.0163141
739.390	0.0162089
739.468	0.0162328
739.546	0.0159943
739.624	0.0158026
739.703	0.0158774
739.781	0.0156471
739.859	0.0157782
739.937	0.0157530
740.015	0.0155401
740.093	0.0156899
740.171	0.0157742
740.249	0.0158937
740.328	0.0161720
740.406	0.0161523
740.484	0.0164865
740.562	0.0165490
740.640	0.0167348
740.718	0.0168685
740.796	0.0169048
740.874	0.0169611
740.953	0.0169382
741.031	0.0169562
741.109	0.0168261
741.187	0.0168130
741.265	0.0165739
741.343	0.0167115
741.421	0.0166633
741.499	0.0163094
741.578	0.0163024
741.656	0.0163888
741.734	0.0164228
741.812	0.0164702
741.890	0.0163820
741.968	0.0165395
742.046	0.0166100
742.124	0.0166333
742.203	0.0167607
742.281	0.0170129
742.359	0.0169138
742.437	0.0169373
742.515	0.0170303
742.593	0.0171767
742.671	0.0171665
742.749	0.0170268
742.828	0.0167831
742.906	0.0167990
742.984	0.0167867
743.062	0.0167086
743.140	0.0166059
743.218	0.0164204
743.296	0.0163113
743.374	0.0162915
743.453	0.0160840
743.531	0.0157243
743.609	0.0155627
743.687	0.0153715
743.765	0.0150112
743.843	0.0145499
743.921	0.0141604
743.999	0.0139497
744.078	0.0136577
744.156	0.0135995
744.234	0.0137001
744.312	0.0138960
744.390	0.0142110
744.468	0.0146498
744.546	0.0152341
744.624	0.0158180
744.703	0.0167427
744.781	0.0172818
744.859	0.0178503
744.937	0.0184327
745.015	0.0188812
745.093	0.0189802
745.171	0.0189726
745.249	0.0188426
745.328	0.0185341
745.406	0.0181895
745.484	0.0180884
745.562	0.0176807
745.640	0.0174632
745.718	0.0171222
745.796	0.0168839
745.874	0.0166035
745.953	0.0164722
746.031	0.0162594
746.109	0.0159769
746.187	0.0158798
746.265	0.0156478
746.343	0.0156227
746.421	0.0154539
746.499	0.0154102
746.578	0.0157383
746.656	0.0158814
746.734	0.0160720
746.812	0.0165314
746.890	0.0167754
746.968	0.0170793
747.046	0.0171312
747.124	0.0173962
747.203	0.0175706
747.281	0.0176741
747.359	0.0177709
747.437	0.0177482
747.515	0.0177551
747.593	0.0176358
747.671	0.0171634
747.749	0.0170240
747.828	0.0167176
747.906	0.0161955
747.984	0.0160412
748.062	0.0153661
748.140	0.0149711
748.218	0.0143681
748.296	0.0139724
748.374	0.0136348
748.453	0.0133668
748.531	0.0133516
748.609	0.0134491
748.687	0.0137559
748.765	0.0140124
748.843	0.0145457
748.921	0.0148877
748.999	0.0154530
749.078	0.0158900
749.156	0.0164487
749.234	0.0169004
749.312	0.0174431
749.390	0.0177353
749.468	0.0178244
749.546	0.0179531
749.624	0.0179708
749.703	0.0177190
749.781	0.0175818
749.859	0.0171642
749.937	0.0166546
750.015	0.0166043
750.093	0.0163747
750.171	0.0157633
750.249	0.0155762
750.328	0.0154453
750.406	0.0154041
750.484	0.0154483
750.562	0.0157838
750.640	0.0161533
750.718	0.0167904
750.796	0.0174277
750.874	0.0180424
750.953	0.0186028
751.031	0.0194270
751.109	0.0200095
751.187	0.0205305
751.265	0.0209487
751.343	0.0211932
751.421	0.0212078
751.499	0.0210065
751.578	0.0208306
751.656	0.0202347
751.734	0.0195326
751.812	0.0185023
751.890	0.0175888
751.968	0.0163535
752.046	0.0153284
752.124	0.0140909
752.203	0.0129327
752.281	0.0120288
752.359	0.0112508
752.437	0.0105653
752.515	0.00990005
752.593	0.00951736
752.671	0.00957146
752.749	0.00956345
752.828	0.00949738
752.906	0.0100256
752.984	0.0104048
753.062	0.0111887
753.140	0.0119231
753.218	0.0128377
753.296	0.0137483
753.374	0.0147099
753.453	0.0159323
753.531	0.0171060
753.609	0.0181175
753.687	0.0191809
753.765	0.0204396
753.843	0.0214154
753.921	0.0220410
753.999	0.0228437
754.078	0.0233344
754.156	0.0236703
754.234	0.0238056
754.312	0.0237300
754.390	0.0232282
754.468	0.0227690
754.546	0.0220009
754.624	0.0212025
754.703	0.0202867
754.781	0.0192204
754.859	0.0181960
754.937	0.0173032
755.015	0.0164866
755.093	0.0155750
755.171	0.0148686
755.249	0.0144754
755.328	0.0139041
755.406	0.0135838
755.484	0.0133614
755.562	0.0128941
755.640	0.0127432
755.718	0.0124377
755.796	0.0121515
755.874	0.0118426
755.953	0.0117101
756.031	0.0115316
756.109	0.0114137
756.187	0.0114198
756.265	0.0116161
756.343	0.0117847
756.421	0.0120321
756.499	0.0124220
756.578	0.0130495
756.656	0.0135023
756.734	0.0142234
756.812	0.0150011
756.890	0.0156857
756.968	0.0163510
757.046	0.0173611
757.124	0.0181056
757.203	0.0189676
757.281	0.0197429
757.359	0.0204049
757.437	0.0206652
757.515	0.0211473
757.593	0.0213760
757.671	0.0213673
757.749	0.0213390
757.828	0.0211590
757.906	0.0206464
757.984	0.0203429
758.062	0.0198672
758.140	0.0194878
758.218	0.0191715
758.296	0.0190212
758.374	0.0187206
758.453	0.0184739
758.531	0.0183694
758.609	0.0181310
758.687	0.0178339
758.765	0.0176225
758.843	0.0172144
758.921	0.0168246
758.999	0.0163898
759.078	0.0159673
759.156	0.0156990
759.234	0.0152412
759.312	0.0146645
759.390	0.0141640
759.468	0.0137638
759.546	0.0130081
759.624	0.0125674
759.703	0.0120954
759.781	0.0114636
759.859	0.0109144
759.937	0.0105857
760.015	0.0102364
760.093	0.0101190
760.171	0.00998238
760.249	0.0102448
760.328	0.0105453
760.406	0.0108752
760.484	0.0115336
760.562	0.0124358
760.640	0.0131930
760.718	0.0140981
760.796	0.0152389
760.874	0.0161897
760.953	0.0172139
761.031	0.0182213
761.109	0.0192271
761.187	0.0202776
761.265	0.0211662
761.343	0.0218978
761.421	0.0223262
761.499	0.0226093
761.578	0.0229182
761.656	0.0230279
761.734	0.0227896
761.812	0.0226614
761.890	0.0224517
761.968	0.0221724
762.046	0.0218941
762.124	0.0216248
762.203	0.0212327
762.281	0.0208941
762.359	0.0205230
762.437	0.0200596
762.515	0.0195284
762.593	0.0189896
762.671	0.0183253
762.749	0.0176810
762.828	0.0170486
762.906	0.0163104
762.984	0.0155173
763.062	0.0144970
763.140	0.0135019
763.218	0.0125626
763.296	0.0114111
763.374	0.0101834
763.453	0.00935257
763.531	0.00828415
763.609	0.00762657
763.687	0.00712502
763.765	0.00657944
763.843	0.00667366
763.921	0.00689674
763.999	0.00743637
764.078	0.00798904
764.156	0.00921257
764.234	0.0104295
764.312	0.0117894
764.390	0.0133093
764.468	0.0148772
764.546	0.0165385
764.624	0.0178445
764.703	0.0194042
764.781	0.0208302
764.859	0.0217249
764.937	0.0225610
765.015	0.0233546
765.093	0.0237743
765.171	0.0240646
765.249	0.0241023
765.328	0.0239346
765.406	0.0236079
765.484	0.0231631
765.562	0.0227430
765.640	0.0221390
765.718	0.0214870
765.796	0.0208483
765.874	0.0203087
765.953	0.0197266
766.031	0.0190627
766.109	0.0186589
766.187	0.0180534
766.265	0.0173700
766.343	0.0168839
766.421	0.0162826
766.499	0.0157825
766.578	0.0153473
766.656	0.0147817
766.734	0.0143063
766.812	0.0137077
766.890	0.0129092
766.968	0.0125421
767.046	0.0119070
767.124	0.0111588
767.203	0.0108024
767.281	0.0102046
767.359	0.00995628
767.437	0.00955376
767.515	0.00937775
767.593	0.00935356
767.671	0.00965675
767.749	0.0101007
767.828	0.0107005
767.906	0.0113787
767.984	0.0123737
768.062	0.0135044
768.140	0.0145704
768.218	0.0155648
768.296	0.0167614
768.374	0.0178671
768.453	0.0190854
768.531	0.0201591
768.609	0.0211127
768.687	0.0221964
768.765	0.0231836
768.843	0.0238525
768.921	0.0243204
768.999	0.0244801
769.078	0.0248335
769.156	0.0246638
769.234	0.0242367
769.312	0.0236497
769.390	0.0228040
769.468	0.0217842
769.546	0.0207034
769.624	0.0197090
769.703	0.0185762
769.781	0.0171953
769.859	0.0161037
769.937	0.0149364
770.015	0.0138766
770.093	0.0131229
770.171	0.0121046
770.249	0.0114278
770.328	0.0110498
770.406	0.0106595
770.484	0.0103526
770.562	0.0102635
770.640	0.0103423
770.718	0.0105052
770.796	0.0107219
770.874	0.0109995
770.953	0.0111993
771.031	0.0115024
771.109	0.0118934
771.187	0.0121384
771.265	0.0124083
771.343	0.0129373
771.421	0.0135641
771.499	0.0140175
771.578	0.0145531
771.656	0.0152218
771.734	0.0159572
771.812	0.0166852
771.890	0.0174279
771.968	0.0183156
772.046	0.0189910
772.124	0.0196057
772.203	0.0204554
772.281	0.0211324
772.359	0.0216032
772.437	0.0221901
772.515	0.0224506
772.593	0.0227122
772.671	0.0227950
772.749	0.0226436
772.828	0.0224350
772.906	0.0222804
772.984	0.0216813
773.062	0.0213432
773.140	0.0208536
773.218	0.0201999
773.296	0.0195654
773.374	0.0189513
773.453	0.0182591
773.531	0.0176134
773.609	0.0166792
773.687	0.0158925
773.765	0.0151196
773.843	0.0143732
773.921	0.0136721
773.999	0.0129015
774.078	0.0121517
774.156	0.0117700
774.234	0.0111163
774.312	0.0107791
774.390	0.0104584
774.468	0.0104982
774.546	0.0103544
774.624	0.0103812
774.703	0.0107766
774.781	0.0109920
774.859	0.0112527
774.937	0.0119167
775.015	0.0126490
775.093	0.0131986
775.171	0.0140303
775.249	0.0148482
775.328	0.0155676
775.406	0.0163770
775.484	0.0171436
775.562	0.0177071
775.640	0.0181990
775.718	0.0188057
775.796	0.0193194
775.874	0.0195058
775.953	0.0198390
776.031	0.0199926
776.109	0.0201372
776.187	0.0202381
776.265	0.0201685
776.343	0.0201691
776.421	0.0199327
776.499	0.0198743
776.578	0.0195145
776.656	0.0192107
776.734	0.0188970
776.812	0.0185613
776.890	0.0184309
776.968	0.0180173
777.046	0.0177971
777.124	0.0176080
777.203	0.0173841
777.281	0.0171339
777.359	0.0170159
777.437	0.0165786
777.515	0.0163494
777.593	0.0160040
777.671	0.0155782
777.749	0.0151851
777.828	0.0149294
777.906	0.0145731
777.984	0.0142721
778.062	0.0139005
778.140	0.0135823
778.218	0.0134023
778.296	0.0132536
778.374	0.0131994
778.453	0.0131808
778.531	0.0130222
778.609	0.0132365
778.687	0.0135545
778.765	0.0137811
778.843	0.0143047
778.921	0.0145195
778.999	0.0150907
779.078	0.0156306
779.156	0.0162774
779.234	0.0165314
779.312	0.0173319
779.390	0.0179209
779.468	0.0183996
779.546	0.0185991
779.624	0.0190294
779.703	0.0193929
779.781	0.0195031
779.859	0.0196167
779.937	0.0195098
780.015	0.0193566
780.093	0.0193307
780.171	0.0188854
780.249	0.0185238
780.328	0.0180989
780.406	0.0178384
780.484	0.0173026
780.562	0.0169085
780.640	0.0165942
780.718	0.0161942
780.796	0.0159179
780.874	0.0155467
780.953	0.0153298
781.031	0.0151793
781.109	0.0151394
781.187	0.0151483
781.265	0.0150813
781.343	0.0151803
781.421	0.0151333
781.499	0.0150282
781.578	0.0151955
781.656	0.0152184
781.734	0.0151296
781.812	0.0151409
781.890	0.0151324
781.968	0.0150293
782.046	0.0150086
782.124	0.0147813
782.203	0.0148061
782.281	0.0148183
782.359	0.0148434
782.437	0.0148159
782.515	0.0149979
782.593	0.0149646
782.671	0.0150715
782.749	0.0155266
782.828	0.0156782
782.906	0.0159653
782.984	0.0166170
783.062	0.0168925
783.140	0.0173818
783.218	0.0176036
783.296	0.0180347
783.374	0.0184425
783.453	0.0187654
783.531	0.0192244
783.609	0.0192171
783.687	0.0192063
783.765	0.0192172
783.843	0.0190742
783.921	0.0189893
783.999	0.0187906
784.078	0.0183926
784.156	0.0181441
784.234	0.0177201
784.312	0.0173817
784.390	0.0170628
784.468	0.0168018
784.546	0.0165205
784.624	0.0162794
784.703	0.0160522
784.781	0.0159834
784.859	0.0157388
784.937	0.0157107
785.015	0.0156194
785.093	0.0155882
785.171	0.0154817
785.249	0.0152728
785.328	0.0154262
785.406	0.0152079
785.484	0.0151059
785.562	0.0150283
785.640	0.0149380
785.718	0.0147396
785.796	0.0146800
785.874	0.0146570
785.953	0.0146677
786.031	0.0146297
786.109	0.0147420
786.187	0.0146996
786.265	0.0148721
786.343	0.0150004
786.421	0.0151545
786.499	0.0153800
786.578	0.0157374
786.656	0.0158761
786.734	0.0158743
786.812	0.0162903
786.890	0.0165627
786.968	0.0169562
787.046	0.0171412
787.124	0.0174049
787.203	0.0177696
787.281	0.0179126
787.359	0.0180869
787.437	0.0182110
787.515	0.0181983
787.593	0.0183343
787.671	0.0184148
787.749	0.0184323
787.828	0.0179808
787.906	0.0178566
787.984	0.0177822
788.062	0.0175821
788.140	0.0174138
788.218	0.0170107
788.296	0.0169314
788.374	0.0165948
788.453	0.0162632
788.531	0.0160612
788.609	0.0159129
788.687	0.0157814
788.765	0.0156377
788.843	0.0153355
788.921	0.0153241
788.999	0.0152599
789.078	0.0152606
789.156	0.0153797
789.234	0.0155150
789.312	0.0155914
789.390	0.0157407
789.468	0.0158624
789.546	0.0159810
789.624	0.0161982
789.703	0.0162544
789.781	0.0162962
789.859	0.0164896
789.937	0.0165417
790.015	0.0165498
790.093	0.0165409
790.171	0.0167419
790.249	0.0168183
790.328	0.0167567
790.406	0.0167431
790.484	0.0167249
790.562	0.0167022
790.640	0.0168003
790.718	0.0167176
790.796	0.0167878
790.874	0.0168923
790.953	0.0168626
791.031	0.0168660
791.109	0.0169718
791.187	0.0170118
791.265	0.0166538
791.343	0.0167806
791.421	0.0167049
791.499	0.0165607
791.578	0.0163542
791.656	0.0162445
791.734	0.0161562
791.812	0.0160426
791.890	0.0160786
791.968	0.0161016
792.046	0.0160476
792.124	0.0159277
792.203	0.0159197
792.281	0.0160378
792.359	0.0161520
792.437	0.0161437
792.515	0.0160274
792.593	0.0159601
792.671	0.0160725
792.749	0.0159216
792.828	0.0159399
792.906	0.0159589
792.984	0.0158942
793.062	0.0158587
793.140	0.0157958
793.218	0.0157619
793.296	0.0158928
793.374	0.0156599
793.453	0.0158614
793.531	0.0158561
793.609	0.0160398
793.687	0.0160604
793.765	0.0162412
793.843	0.0164471
793.921	0.0164690
793.999	0.0167338
794.078	0.0169118
794.156	0.0168890
794.234	0.0170200
794.312	0.0172294
794.390	0.0172974
794.468	0.0173785
794.546	0.0173212
794.624	0.0173930
794.703	0.0174326
794.781	0.0171996
794.859	0.0172365
794.937	0.0174324
795.015	0.0172175
795.093	0.0168771
795.171	0.0167589
795.249	0.0167597
795.328	0.0166291
795.406	0.0166296
795.484	0.0163274
795.562	0.0161902
795.640	0.0161006
795.718	0.0162206
795.796	0.0162469
795.874	0.0159643
795.953	0.0161138
796.031	0.0160249
796.109	0.0159933
796.187	0.0159886
796.265	0.0161733
796.343	0.0160363
796.421	0.0160275
796.499	0.0161121
796.578	0.0159714
796.656	0.0158471
796.734	0.0160227
796.812	0.0159709
796.890	0.0161025
796.968	0.0158443
797.046	0.0159015
797.124	0.0159783
797.203	0.0159899
797.281	0.0161309
797.359	0.0161312
797.437	0.0159321
797.515	0.0160710
797.593	0.0162469
797.671	0.0161614
797.749	0.0161921
797.828	0.0163554
797.906	0.0162839
797.984	0.0163692
798.062	0.0165179
798.140	0.0165430
798.218	0.0166853
798.296	0.0166523
798.374	0.0168046
798.453	0.0166618
798.531	0.0166529
798.609	0.0165776
798.687	0.0167199
798.765	0.0166116
798.843	0.0164468
798.921	0.0164784
798.999	0.0164811
799.078	0.0164819
799.156	0.0163829
799.234	0.0165607
799.312	0.0165741
799.390	0.0165118
799.468	0.0164563
799.546	0.0165934
799.624	0.0165287
799.703	0.0165288
799.781	0.0164986
799.859	0.0164543
799.937	0.0163437
800.015	0.0164445
800.093	0.0163674
800.171	0.0164825
800.249	0.0163699
800.328	0.0161389
800.406	0.0163443
800.484	0.0162938
800.562	0.0160469
800.640	0.0159118
800.718	0.0159903
800.796	0.0157734
800.874	0.0158035
800.953	0.0157819
801.031	0.0158447
801.109	0.0158968
801.187	0.0160153
801.265	0.0161414
801.343	0.0162474
801.421	0.0161438
801.499	0.0164008
801.578	0.0165054
801.656	0.0166264
801.734	0.0168071
801.812	0.0168611
801.890	0.0169674
801.968	0.0170850
802.046	0.0172337
802.124	0.0170911
802.203	0.0171636
802.281	0.0170335
802.359	0.0170380
802.437	0.0170377
802.515	0.0169379
802.593	0.0168382
802.671	0.0166266
802.749	0.0165801
802.828	0.0167236
802.906	0.0165531
802.984	0.0163331
803.062	0.0163823
803.140	0.0163882
803.218	0.0161989
803.296	0.0161269
803.374	0.0161187
803.453	0.0159665
803.531	0.0159470
803.609	0.0160120
803.687	0.0158625
803.765	0.0158028
803.843	0.0160350
803.921	0.0159339
803.999	0.0160692
804.078	0.0164401
804.156	0.0163541
804.234	0.0162269
804.312	0.0164175
804.390	0.0164352
804.468	0.0165571
804.546	0.0165652
804.624	0.0166688
804.703	0.0166196
804.781	0.0167287
804.859	0.0167840
804.937	0.0166981
805.015	0.0167802
805.093	0.0166282
805.171	0.0166560
805.249	0.0165797
805.328	0.0163211
805.406	0.0163950
805.484	0.0162817
805.562	0.0161822
805.640	0.0160954
805.718	0.0159570
805.796	0.0159399
805.874	0.0158916
805.953	0.0158170
806.031	0.0158456
806.109	0.0157292
806.187	0.0158570
806.265	0.0158419
806.343	0.0158644
806.421	0.0160940
806.499	0.0161308
806.578	0.0161810
806.656	0.0162503
806.734	0.0164948
806.812	0.0165839
806.890	0.0167455
806.968	0.0168707
807.046	0.0169131
807.124	0.0168087
807.203	0.0169511
807.281	0.0171481
807.359	0.0170000
807.437	0.0169598
807.515	0.0169380
807.593	0.0169452
807.671	0.0169174
807.749	0.0168919
807.828	0.0169638
807.906	0.0168697
807.984	0.0168209
808.062	0.0167574
808.140	0.0168095
808.218	0.0167708
808.296	0.0165325
808.374	0.0167296
808.453	0.0167246
808.531	0.0167012
808.609	0.0166580
808.687	0.0166867
808.765	0.0166223
808.843	0.0165932
808.921	0.0167023
808.999	0.0164204
809.078	0.0162466
809.156	0.0164155
809.234	0.0163088
809.312	0.0162705
809.390	0.0161890
809.468	0.0159889
809.546	0.0159024
809.624	0.0159675
809.703	0.0159452
809.781	0.0158289
809.859	0.0157541
809.937	0.0158889
810.015	0.0158714
810.093	0.0160174
810.171	0.0159711
810.249	0.0161040
810.328	0.0161116
810.406	0.0160683
810.484	0.0163554
810.562	0.0163809
810.640	0.0165490
810.718	0.0164642
810.796	0.0166318
810.874	0.0166518
810.953	0.0166627
811.031	0.0166595
811.109	0.0166340
811.187	0.0165746
811.265	0.0165392
811.343	0.0165721
811.421	0.0166532
811.499	0.0164528
811.578	0.0163702
811.656	0.0164412
811.734	0.0163060
811.812	0.0163475
811.890	0.0161624
811.968	0.0161201
812.046	0.0161023
812.124	0.0160513
812.203	0.0161720
812.281	0.0162021
812.359	0.0161401
812.437	0.0161552
812.515	0.0161527
812.593	0.0162056
812.671	0.0163006
812.749	0.0164680
812.828	0.0163490
812.906	0.0163553
812.984	0.0165656
813.062	0.0165885
813.140	0.0166373
813.218	0.0166412
813.296	0.0166614
813.374	0.0167953
813.453	0.0167074
813.531	0.0167159
813.609	0.0168078
813.687	0.0168508
813.765	0.0167249
813.843	0.0167247
813.921	0.0168569
813.999	0.0169076
814.078	0.0167719
814.156	0.0169274
814.234	0.0169781
814.312	0.0169650
814.390	0.0167770
814.468	0.0168385
814.546	0.0169109
814.624	0.0168063
814.703	0.0167419
814.781	0.0167994
814.859	0.0166819
814.937	0.0165745
815.015	0.0163724
815.093	0.0165266
815.171	0.0163329
815.249	0.0163177
815.328	0.0160095
815.406	0.0161121
815.484	0.0160291
815.562	0.0158870
815.640	0.0159679
815.718	0.0159213
815.796	0.0159690
815.874	0.0158855
815.953	0.0160251
816.031	0.0159144
816.109	0.0159068
816.187	0.0160107
816.265	0.0160987
816.343	0.0160891
816.421	0.0160286
816.499	0.0160584
816.578	0.0160464
816.656	0.0162115
816.734	0.0160728
816.812	0.0160207
816.890	0.0159915
816.968	0.0160726
817.046	0.0160368
817.124	0.0160190
817.203	0.0160719
817.281	0.0161644
817.359	0.0162318
817.437	0.0162890
817.515	0.0163957
817.593	0.0162206
817.671	0.0163191
817.749	0.0164513
817.828	0.0164052
817.906	0.0165044
817.984	0.0166653
818.062	0.0167194
818.140	0.0167884
818.218	0.0168792
818.296	0.0169546
818.374	0.0169085
818.453	0.0169401
818.531	0.0168711
818.609	0.0171036
818.687	0.0170369
818.765	0.0171375
818.843	0.0169536
818.921	0.0169482
818.999	0.0167365
819.078	0.0167200
819.156	0.0167468
819.234	0.0166476
819.312	0.0165535
819.390	0.0164689
819.468	0.0163092
819.546	0.0161464
819.624	0.0161369
819.703	0.0161694
819.781	0.0161024
819.859	0.0160220
819.937	0.0160042
820.015	0.0158809
820.093	0.0160446
820.171	0.0159033
820.249	0.0158785
820.328	0.0159989
820.406	0.0158903
820.484	0.0159531
820.562	0.0159046
820.640	0.0159880
820.718	0.0160277
820.796	0.0160407
820.874	0.0160347
820.953	0.0162218
821.031	0.0162089
821.109	0.0163473
821.187	0.0160303
821.265	0.0161900
821.343	0.0162058
821.421	0.0162315
821.499	0.0162933
821.578	0.0162558
821.656	0.0164160
821.734	0.0163579
821.812	0.0164655
821.890	0.0165433
821.968	0.0165596
822.046	0.0166576
822.124	0.0168072
822.203	0.0166768
822.281	0.0165565
822.359	0.0167858
822.437	0.0167362
822.515	0.0166927
822.593	0.0168416
822.671	0.0168603
822.749	0.0166640
822.828	0.0165166
822.906	0.0164213
822.984	0.0165057
823.062	0.0164364
823.140	0.0163046
823.218	0.0162963
823.296	0.0162350
823.374	0.0161403
823.453	0.0160289
823.531	0.0159425
823.609	0.0160272
823.687	0.0159695
823.765	0.0159339
823.843	0.0160087
823.921	0.0160387
823.999	0.0160197
824.078	0.0160291
824.156	0.0160239
824.234	0.0162078
824.312	0.0161876
824.390	0.0163667
824.468	0.0162826
824.546	0.0163886
824.624	0.0163961
824.703	0.0165426
824.781	0.0167698
824.859	0.0167204
824.937	0.0166653
825.015	0.0167483
825.093	0.0165868
825.171	0.0166109
825.249	0.0166910
825.328	0.0165636
825.406	0.0165136
825.484	0.0166113
825.562	0.0166631
825.640	0.0164803
825.718	0.0163084
825.796	0.0165064
825.874	0.0164967
825.953	0.0165116
826.031	0.0163971
826.109	0.0164443
826.187	0.0166522
826.265	0.0164806
826.343	0.0164834
826.421	0.0165678
826.499	0.0166003
826.578	0.0166089
826.656	0.0164523
826.734	0.0165403
826.812	0.0164573
826.890	0.0163278
826.968	0.0163945
827.046	0.0163251
827.124	0.0162667
827.203	0.0161622
827.281	0.0161053
827.359	0.0161077
827.437	0.0161686
827.515	0.0161703
827.593	0.0160457
827.671	0.0160313
827.749	0.0160787
827.828	0.0161822
827.906	0.0161929
827.984	0.0163043
828.062	0.0162077
828.140	0.0162127
828.218	0.0164014
828.296	0.0164395
828.374	0.0163383
828.453	0.0165032
828.531	0.0164478
828.609	0.0166471
828.687	0.0164941
828.765	0.0164616
828.843	0.0163528
828.921	0.0162952
828.999	0.0163538
829.078	0.0162669
829.156	0.0162992
829.234	0.0163256
829.312	0.0163747
829.390	0.0163779
829.468	0.0163426
829.546	0.0162484
829.624	0.0162926
829.703	0.0163535
829.781	0.0162582
829.859	0.0164716
829.937	0.0164766
830.015	0.0164915
830.093	0.0166519
830.171	0.0165157
830.249	0.0165378
830.328	0.0165562
830.406	0.0165661
830.484	0.0164959
830.562	0.0165557
830.640	0.0165855
830.718	0.0164461
830.796	0.0163702
830.874	0.0163098
830.953	0.0162969
831.031	0.0164200
831.109	0.0163418
831.187	0.0162317
831.265	0.0161609
831.343	0.0162077
831.421	0.0162416
831.499	0.0160944
831.578	0.0161609
831.656	0.0163534
831.734	0.0161439
831.812	0.0161989
831.890	0.0162791
831.968	0.0162313
832.046	0.0163903
832.124	0.0165038
832.203	0.0164413
832.281	0.0164064
832.359	0.0165483
832.437	0.0166669
832.515	0.0166830
832.593	0.0165649
832.671	0.0165803
832.749	0.0166360
832.828	0.0165062
832.906	0.0164482
832.984	0.0164875
833.062	0.0166516
833.140	0.0165059
833.218	0.0165451
833.296	0.0165667
833.374	0.0165893
833.453	0.0165681
833.531	0.0165723
833.609	0.0164533
833.687	0.0164905
833.765	0.0164400
833.843	0.0165836
833.921	0.0163271
833.999	0.0164366
834.078	0.0165215
834.156	0.0164866
834.234	0.0163660
834.312	0.0162576
834.390	0.0163217
834.468	0.0163110
834.546	0.0162702
834.624	0.0162218
834.703	0.0162263
834.781	0.0162655
834.859	0.0162557
834.937	0.0160514
835.015	0.0160790
835.093	0.0161970
835.171	0.0162553
835.249	0.0162324
835.328	0.0161339
835.406	0.0162432
835.484	0.0161754
835.562	0.0162460
835.640	0.0163670
835.718	0.0162935
835.796	0.0164423
835.874	0.0165118
835.953	0.0164003
836.031	0.0163707
836.109	0.0165183
836.187	0.0166396
836.265	0.0166155
836.343	0.0165376
836.421	0.0165079
836.499	0.0164449
836.578	0.0165204
836.656	0.0165322
836.734	0.0163398
836.812	0.0165527
836.890	0.0164348
836.968	0.0164359
837.046	0.0164273
837.124	0.0163795
837.203	0.0163132
837.281	0.0162470
837.359	0.0162380
837.437	0.0162949
837.515	0.0162183
837.593	0.0163663
837.671	0.0164307
837.749	0.0164261
837.828	0.0164078
837.906	0.0163715
837.984	0.0163504
838.062	0.0164333
838.140	0.0162594
838.218	0.0163692
838.296	0.0164373
838.374	0.0164915
838.453	0.0164913
838.531	0.0163813
838.609	0.0165611
838.687	0.0164362
838.765	0.0164199
838.843	0.0164491
838.921	0.0165714
838.999	0.0164166
839.078	0.0165015
839.156	0.0165247
839.234	0.0164215
839.312	0.0164417
839.390	0.0166633
839.468	0.0165100
839.546	0.0163779
839.624	0.0163542
839.703	0.0163467
839.781	0.0165037
839.859	0.0163518
839.937	0.0163429
840.015	0.0164706
840.093	0.0164133
840.171	0.0163130
840.249	0.0164528
840.328	0.0163812
840.406	0.0164133
840.484	0.0164463
840.562	0.0163554
840.640	0.0165377
840.718	0.0165269
840.796	0.0165025
840.874	0.0165694
840.953	0.0166416
841.031	0.0165639
841.109	0.0164852
841.187	0.0165109
841.265	0.0165231
841.343	0.0164872
841.421	0.0164417
841.499	0.0162074
841.578	0.0164084
841.656	0.0162595
841.734	0.0164030
841.812	0.0162399
841.890	0.0162114
841.968	0.0160744
842.046	0.0160746
842.124	0.0160690
842.203	0.0160740
842.281	0.0161612
842.359	0.0163365
842.437	0.0163433
842.515	0.0162212
842.593	0.0160299
842.671	0.0164105
842.749	0.0162954
842.828	0.0163933
842.906	0.0163721
842.984	0.0161707
843.062	0.0163102
843.140	0.0163766
843.218	0.0162007
843.296	0.0163258
843.374	0.0162761
843.453	0.0163866
843.531	0.0163380
843.609	0.0162323
843.687	0.0162695
843.765	0.0163103
843.843	0.0162708
843.921	0.0163847
843.999	0.0164349
844.078	0.0164127
844.156	0.0163183
844.234	0.0164431
844.312	0.0162941
844.390	0.0164574
844.468	0.0165849
844.546	0.0163439
844.624	0.0166041
844.703	0.0165440
844.781	0.0165394
844.859	0.0166312
844.937	0.0166427
845.015	0.0165341
845.093	0.0166152
845.171	0.0167200
845.249	0.0166062
845.328	0.0165850
845.406	0.0164329
845.484	0.0164276
845.562	0.0163584
845.640	0.0163613
845.718	0.0162633
845.796	0.0161228
845.874	0.0160676
845.953	0.0160204
846.031	0.0159384
846.109	0.0159499
846.187	0.0160736
846.265	0.0159016
846.343	0.0159270
846.421	0.0159342
846.499	0.0161086
846.578	0.0161167
846.656	0.0162639
846.734	0.0162328
846.812	0.0163586
846.890	0.0163590
846.968	0.0164072
847.046	0.0164025
847.124	0.0165085
847.203	0.0165260
847.281	0.0164555
847.359	0.0166667
847.437	0.0166171
847.515	0.0165152
847.593	0.0166319
847.671	0.0167865
847.749	0.0166348
847.828	0.0165314
847.906	0.0166484
847.984	0.0168194
848.062	0.0165720
848.140	0.0165318
848.218	0.0166104
848.296	0.0167110
848.374	0.0166206
848.453	0.0165338
848.531	0.0165508
848.609	0.0166914
848.687	0.0165754
848.765	0.0165553
848.843	0.0162965
848.921	0.0162688
848.999	0.0161155
849.078	0.0160350
849.156	0.0160865
849.234	0.0159500
849.312	0.0158577
849.390	0.0157951
849.468	0.0155673
849.546	0.0155168
849.624	0.0155466
849.703	0.0156958
849.781	0.0155254
849.859	0.0156987
849.937	0.0157596
850.015	0.0157726
850.093	0.0160186
850.171	0.0161124
850.249	0.0161248
850.328	0.0163506
850.406	0.0166176
850.484	0.0166277
850.562	0.0168362
850.640	0.0166824
850.718	0.0168749
850.796	0.0168147
850.874	0.0168827
850.953	0.0170247
851.031	0.0169873
851.109	0.0170110
851.187	0.0169068
851.265	0.0169466
851.343	0.0168351
851.421	0.0168826
851.499	0.0168981
851.578	0.0168373
851.656	0.0167693
851.734	0.0167900
851.812	0.0167436
851.890	0.0167413
851.968	0.0164932
852.046	0.0164980
852.124	0.0164807
852.203	0.0164284
852.281	0.0163228
852.359	0.0162839
852.437	0.0160773
852.515	0.0159573
852.593	0.0158196
852.671	0.0158261
852.749	0.0154987
852.828	0.0154127
852.906	0.0155396
852.984	0.0155802
853.062	0.0154236
853.140	0.0154611
853.218	0.0154494
853.296	0.0155410
853.374	0.0155649
853.453	0.0157217
853.531	0.0157451
853.609	0.0158780
853.687	0.0161216
853.765	0.0162325
853.843	0.0163243
853.921	0.0163724
853.999	0.0167365
854.078	0.0168359
854.156	0.0167079
854.234	0.0168181
854.312	0.0169927
854.390	0.0169108
854.468	0.0170354
854.546	0.0169715
854.624	0.0171016
854.703	0.0170463
854.781	0.0171123
854.859	0.0172937
854.937	0.0171329
855.015	0.0170556
855.093	0.0170618
855.171	0.0169870
855.249	0.0168801
855.328	0.0169122
855.406	0.0166478
855.484	0.0165321
855.562	0.0162948
855.640	0.0163159
855.718	0.0162249
855.796	0.0160974
855.874	0.0162361
855.953	0.0159100
856.031	0.0158527
856.109	0.0157846
856.187	0.0156895
856.265	0.0157642
856.343	0.0157522
856.421	0.0156255
856.499	0.0155680
856.578	0.0155737
856.656	0.0156598
856.734	0.0156161
856.812	0.0157141
856.890	0.0157297
856.968	0.0157131
857.046	0.0158420
857.124	0.0158318
857.203	0.0158691
857.281	0.0158563
857.359	0.0158115
857.437	0.0159915
857.515	0.0161250
857.593	0.0161377
857.671	0.0160326
857.749	0.0164588
857.828	0.0164793
857.906	0.0165755
857.984	0.0167537
858.062	0.0169096
858.140	0.0170698
858.218	0.0171354
858.296	0.0172622
858.374	0.0174292
858.453	0.0173068
858.531	0.0175397
858.609	0.0176347
858.687	0.0175783
858.765	0.0176916
858.843	0.0175565
858.921	0.0174729
858.999	0.0174409
859.078	0.0173728
859.156	0.0172846
859.234	0.0170496
859.312	0.0169645
859.390	0.0168668
859.468	0.0168959
859.546	0.0165632
859.624	0.0164170
859.703	0.0161366
859.781	0.0160186
859.859	0.0158697
859.937	0.0156141
860.015	0.0156507
860.093	0.0155470
860.171	0.0153568
860.249	0.0152031
860.328	0.0151646
860.406	0.0151981
860.484	0.0152332
860.562	0.0151118
860.640	0.0152630
860.718	0.0153094
860.796	0.0155442
860.874	0.0156094
860.953	0.0156644
861.031	0.0158082
861.109	0.0159332
861.187	0.0159689
861.265	0.0160921
861.343	0.0163380
861.421	0.0164376
861.499	0.0164812
861.578	0.0166811
861.656	0.0167900
861.734	0.0168854
861.812	0.0168896
861.890	0.0170462
861.968	0.0170182
862.046	0.0170880
862.124	0.0171401
862.203	0.0172010
862.281	0.0171352
862.359	0.0170378
862.437	0.0171011
862.515	0.0171338
862.593	0.0170776
862.671	0.0169835
862.749	0.0169611
862.828	0.0168711
862.906	0.0168526
862.984	0.0166399
863.062	0.0166340
863.140	0.0165285
863.218	0.0164264
863.296	0.0163748
863.374	0.0162720
863.453	0.0161701
863.531	0.0161279
863.609	0.0160194
863.687	0.0160252
863.765	0.0157846
863.843	0.0157354
863.921	0.0158566
863.999	0.0158297
864.078	0.0156693
864.156	0.0157556
864.234	0.0157098
864.312	0.0156879
864.390	0.0157753
864.468	0.0156824
864.546	0.0157750
864.624	0.0157512
864.703	0.0158068
864.781	0.0158540
864.859	0.0158902
864.937	0.0159854
865.015	0.0161680
865.093	0.0162275
865.171	0.0161514
865.249	0.0162773
865.328	0.0165978
865.406	0.0165975
865.484	0.0167091
865.562	0.0167445
865.640	0.0169655
865.718	0.0168280
865.796	0.0168237
865.874	0.0170194
865.953	0.0170016
866.031	0.0170151
866.109	0.0172004
866.187	0.0171168
866.265	0.0171851
866.343	0.0171160
866.421	0.0169720
866.499	0.0168987
866.578	0.0169537
866.656	0.0168872
866.734	0.0167288
866.812	0.0167937
866.890	0.0165714
866.968	0.0164342
867.046	0.0161609
867.124	0.0161608
867.203	0.0161017
867.281	0.0160046
867.359	0.0157526
867.437	0.0157800
867.515	0.0157127
867.593	0.0157015
867.671	0.0156023
867.749	0.0154412
867.828	0.0155860
867.906	0.0156261
867.984	0.0155664
868.062	0.0154358
868.140	0.0157059
868.218	0.0157127
868.296	0.0156186
868.374	0.0159085
868.453	0.0158807
868.531	0.0158605
868.609	0.0162802
868.687	0.0162909
868.765	0.0162633
868.843	0.0161867
868.921	0.0164068
868.999	0.0166062
869.078	0.0165565
869.156	0.0167663
869.234	0.0168391
869.312	0.0168196
869.390	0.0167226
869.468	0.0168250
869.546	0.0169566
869.624	0.0169289
869.703	0.0170296
869.781	0.0171162
869.859	0.0171075
869.937	0.0168542
870.015	0.0170302
870.093	0.0170927
870.171	0.0169316
870.249	0.0170001
870.328	0.0168314
870.406	0.0168712
870.484	0.0167901
870.562	0.0167768
870.640	0.0165079
870.718	0.0165158
870.796	0.0163940
870.874	0.0162132
870.953	0.0161176
871.031	0.0160419
871.109	0.0160732
871.187	0.0157413
871.265	0.0157257
871.343	0.0156645
871.421	0.0155819
871.499	0.0156978
871.578	0.0155313
871.656	0.0155981
871.734	0.0156339
871.812	0.0153412
871.890	0.0156195
871.968	0.0157272
872.046	0.0158147
872.124	0.0157925
872.203	0.0158612
872.281	0.0159991
872.359	0.0161549
872.437	0.0160889
872.515	0.0161810
872.593	0.0163068
872.671	0.0164909
872.749	0.0165005
872.828	0.0165374
872.906	0.0166882
872.984	0.0168332
873.062	0.0169447
873.140	0.0169627
873.218	0.0168766
873.296	0.0170509
873.374	0.0169598
873.453	0.0171291
873.531	0.0170676
873.609	0.0170542
873.687	0.0169416
873.765	0.0169787
873.843	0.0167867
873.921	0.0167220
873.999	0.0167397
874.078	0.0165760
874.156	0.0165864
874.234	0.0164636
874.312	0.0165187
874.390	0.0164194
874.468	0.0163231
874.546	0.0161467
874.624	0.0161954
874.703	0.0161506
874.781	0.0160577
874.859	0.0161046
874.937	0.0160001
875.015	0.0159637
875.093	0.0161571
875.171	0.0161362
875.249	0.0160828
875.328	0.0160422
875.406	0.0161311
875.484	0.0162450
875.562	0.0161628
875.640	0.0162430
875.718	0.0159898
875.796	0.0161977
875.874	0.0161884
875.953	0.0162209
876.031	0.0161350
876.109	0.0162493
876.187	0.0162334
876.265	0.0161205
876.343	0.0161307
876.421	0.0163815
876.499	0.0163447
876.578	0.0162723
876.656	0.0164604
876.734	0.0163178
876.812	0.0164256
876.890	0.0163716
876.968	0.0163996
877.046	0.0164430
877.124	0.0163677
877.203	0.0164734
877.281	0.0164054
877.359	0.0164552
877.437	0.0164467
877.515	0.0164685
877.593	0.0164736
877.671	0.0164577
877.749	0.0164363
877.828	0.0165533
877.906	0.0165833
877.984	0.0164637
878.062	0.0164642
878.140	0.0164575
878.218	0.0164095
878.296	0.0163953
878.374	0.0164467
878.453	0.0164451
878.531	0.0163223
878.609	0.0162955
878.687	0.0164027
878.765	0.0163571
878.843	0.0162307
878.921	0.0164177
878.999	0.0162711
879.078	0.0162907
879.156	0.0164565
879.234	0.0161984
879.312	0.0162457
879.390	0.0162233
879.468	0.0162983
879.546	0.0164847
879.624	0.0163623
879.703	0.0163999
879.781	0.0163438
879.859	0.0162992
879.937	0.0164687
880.015	0.0165793
880.093	0.0165742
880.171	0.0163905
880.249	0.0166540
880.328	0.0165703
880.406	0.0164170
880.484	0.0165556
880.562	0.0163924
880.640	0.0165498
880.718	0.0165407
880.796	0.0163705
880.874	0.0163985
880.953	0.0164276
881.031	0.0163846
881.109	0.0163884
881.187	0.0164256
881.265	0.0162347
881.343	0.0163448
881.421	0.0162931
881.499	0.0162930
881.578	0.0163052
881.656	0.0163440
881.734	0.0163138
881.812	0.0163491
881.890	0.0162681
881.968	0.0161971
882.046	0.0163271
882.124	0.0164519
882.203	0.0164129
882.281	0.0163294
882.359	0.0164252
882.437	0.0164037
882.515	0.0165006
882.593	0.0163413
882.671	0.0164037
882.749	0.0163216
882.828	0.0163094
882.906	0.0162965
882.984	0.0163634
883.062	0.0163104
883.140	0.0164491
883.218	0.0163503
883.296	0.0163961
883.374	0.0163918
883.453	0.0163411
883.531	0.0162962
883.609	0.0163789
883.687	0.0164603
883.765	0.0164415
883.843	0.0164825
883.921	0.0165858
883.999	0.0165903
884.078	0.0165570
884.156	0.0164494
884.234	0.0165311
884.312	0.0166753
884.390	0.0165548
884.468	0.0165831
884.546	0.0166698
884.624	0.0166295
884.703	0.0163934
884.781	0.0165385
884.859	0.0165450
884.937	0.0165636
885.015	0.0165097
885.093	0.0163572
885.171	0.0163595
885.249	0.0162032
885.328	0.0163966
885.406	0.0162032
885.484	0.0163667
885.562	0.0163531
885.640	0.0162473
885.718	0.0163931
885.796	0.0163636
885.874	0.0162008
885.953	0.0162657
886.031	0.0161826
886.109	0.0163741
886.187	0.0164419
886.265	0.0164025
886.343	0.0163766
886.421	0.0165530
886.499	0.0165278
886.578	0.0165239
886.656	0.0165028
886.734	0.0165459
886.812	0.0165925
886.890	0.0164356
886.968	0.0164335
887.046	0.0164597
887.124	0.0163093
887.203	0.0163874
887.281	0.0163860
887.359	0.0164356
887.437	0.0161629
887.515	0.0162883
887.593	0.0164029
887.671	0.0164124
887.749	0.0163479
887.828	0.0163181
887.906	0.0162581
887.984	0.0163675
888.062	0.0161816
888.140	0.0164099
888.218	0.0162608
888.296	0.0163061
888.374	0.0163336
888.453	0.0163233
888.531	0.0163365
888.609	0.0162138
888.687	0.0161383
888.765	0.0163317
888.843	0.0161988
888.921	0.0162933
888.999	0.0161216
889.078	0.0162666
889.156	0.0161235
889.234	0.0163227
889.312	0.0162897
889.390	0.0162541
889.468	0.0164091
889.546	0.0164367
889.624	0.0163448
889.703	0.0163197
889.781	0.0164632
889.859	0.0167422
889.937	0.0165057
890.015	0.0165627
890.093	0.0166093
890.171	0.0164169
890.249	0.0166179
890.328	0.0165884
890.406	0.0165397
890.484	0.0165266
890.562	0.0163887
890.640	0.0165695
890.718	0.0165405
890.796	0.0163616
890.874	0.0163364
890.953	0.0164716
891.031	0.0163212
891.109	0.0165694
891.187	0.0164146
891.265	0.0164222
891.343	0.0163644
891.421	0.0163839
891.499	0.0163675
891.578	0.0163309
891.656	0.0163737
891.734	0.0163976
891.812	0.0164324
891.890	0.0163478
891.968	0.0163649
892.046	0.0163752
892.124	0.0164034
892.203	0.0162929
892.281	0.0162455
892.359	0.0163008
892.437	0.0162000
892.515	0.0161406
892.593	0.0162292
892.671	0.0163169
892.749	0.0161732
892.828	0.0161503
892.906	0.0160818
892.984	0.0162185
893.062	0.0162029
893.140	0.0163519
893.218	0.0162671
893.296	0.0162204
893.374	0.0163068
893.453	0.0161466
893.531	0.0163139
893.609	0.0162897
893.687	0.0163643
893.765	0.0164169
893.843	0.0162984
893.921	0.0162925
893.999	0.0162604
894.078	0.0164111
894.156	0.0163852
894.234	0.0162603
894.312	0.0164143
894.390	0.0164914
894.468	0.0164761
894.546	0.0164263
894.624	0.0165125
894.703	0.0165170
894.781	0.0164577
894.859	0.0163741
894.937	0.0164360
895.015	0.0164842
895.093	0.0164249
895.171	0.0165386
895.249	0.0163825
895.328	0.0164046
895.406	0.0164661
895.484	0.0163939
895.562	0.0164880
895.640	0.0165376
895.718	0.0164683
895.796	0.0163542
895.874	0.0162996
895.953	0.0162636
896.031	0.0163847
896.109	0.0163152
896.187	0.0163135
896.265	0.0162882
896.343	0.0161954
896.421	0.0163286
896.499	0.0162921
896.578	0.0160723
896.656	0.0160295
896.734	0.0162440
896.812	0.0163275
896.890	0.0162836
896.968	0.0162560
897.046	0.0162984
897.124	0.0163833
897.203	0.0164356
897.281	0.0163733
897.359	0.0163628
897.437	0.0164288
897.515	0.0164663
897.593	0.0163158
897.671	0.0163352
897.749	0.0164805
897.828	0.0165659
897.906	0.0164736
897.984	0.0165443
898.062	0.0164780
898.140	0.0164172
898.218	0.0164082
898.296	0.0165304
898.374	0.0164515
898.453	0.0164973
898.531	0.0164671
898.609	0.0165430
898.687	0.0165165
898.765	0.0163809
898.843	0.0164188
898.921	0.0165736
898.999	0.0165343
899.078	0.0164510
899.156	0.0164792
899.234	0.0166190
899.312	0.0164334
899.390	0.0165581
899.468	0.0164782
899.546	0.0164329
899.624	0.0163046
899.703	0.0162045
899.781	0.0163094
899.859	0.0162463
899.937	0.0161810
900.015	0.0162283
900.093	0.0162669
900.171	0.0159192
900.249	0.0161323
900.328	0.0161691
900.406	0.0160496
900.484	0.0160252
900.562	0.0161405
900.640	0.0161841
900.718	0.0161304
900.796	0.0163361
900.874	0.0163681
900.953	0.0162469
901.031	0.0163545
901.109	0.0164530
901.187	0.0163900
901.265	0.0164237
901.343	0.0164827
901.421	0.0164860
901.499	0.0164094
901.578	0.0164492
901.656	0.0165340
901.734	0.0165315
901.812	0.0164125
901.890	0.0164209
901.968	0.0165607
902.046	0.0166217
902.124	0.0164244
902.203	0.0164364
902.281	0.0163116
902.359	0.0163836
902.437	0.0162708
902.515	0.0164118
902.593	0.0162968
902.671	0.0162715
902.749	0.0162369
902.828	0.0163220
902.906	0.0162344
902.984	0.0163631
903.062	0.0165057
903.140	0.0161913
903.218	0.0162685
903.296	0.0163090
903.374	0.0164829
903.453	0.0164319
903.531	0.0162955
903.609	0.0163763
903.687	0.0163463
903.765	0.0163438
903.843	0.0163649
903.921	0.0164046
903.999	0.0163711
904.078	0.0162783
904.156	0.0165016
904.234	0.0165898
904.312	0.0164130
904.390	0.0163757
904.468	0.0163387
904.546	0.0164275
904.624	0.0164417
904.703	0.0165590
904.781	0.0163711
904.859	0.0163882
904.937	0.0164281
905.015	0.0165058
905.093	0.0164467
905.171	0.0165524
905.249	0.0166167
905.328	0.0165742
905.406	0.0165073
905.484	0.0166537
905.562	0.0164098
905.640	0.0165836
905.718	0.0166118
905.796	0.0165197
905.874	0.0165270
905.953	0.0164652
906.031	0.0162347
906.109	0.0164486
906.187	0.0163313
906.265	0.0163902
906.343	0.0163646
906.421	0.0162368
906.499	0.0162498
906.578	0.0161679
906.656	0.0163095
906.734	0.0162662
906.812	0.0163084
906.890	0.0160622
906.968	0.0161923
907.046	0.0163747
907.124	0.0161699
907.203	0.0163289
907.281	0.0161713
907.359	0.0161937
907.437	0.0162083
907.515	0.0162099
907.593	0.0162385
907.671	0.0162411
907.749	0.0164050
907.828	0.0163325
907.906	0.0161665
907.984	0.0161744
908.062	0.0163589
908.140	0.0162862
908.218	0.0163882
908.296	0.0163641
908.374	0.0164502
908.453	0.0163483
908.531	0.0164807
908.609	0.0163561
908.687	0.0163783
908.765	0.0164866
908.843	0.0163422
908.921	0.0165148
908.999	0.0165003
909.078	0.0164607
909.156	0.0165143
909.234	0.0164929
909.312	0.0165406
909.390	0.0164169
909.468	0.0165674
909.546	0.0164587
909.624	0.0164823
909.703	0.0165469
909.781	0.0165153
909.859	0.0164547
909.937	0.0166398
910.015	0.0166057
910.093	0.0165009
910.171	0.0164859
910.249	0.0166457
910.328	0.0165183
910.406	0.0165131
910.484	0.0165453
910.562	0.0164719
910.640	0.0165488
910.718	0.0165211
910.796	0.0165074
910.874	0.0164770
910.953	0.0164513
911.031	0.0164460
911.109	0.0163898
911.187	0.0163700
911.265	0.0163763
911.343	0.0162900
911.421	0.0163483
911.499	0.0162539
911.578	0.0162554
911.656	0.0163006
911.734	0.0162664
911.812	0.0162882
911.890	0.0163591
911.968	0.0164665
912.046	0.0162922
912.124	0.0162534
912.203	0.0161695
912.281	0.0163822
912.359	0.0162987
912.437	0.0163888
912.515	0.0165891
912.593	0.0162663
912.671	0.0163127
912.749	0.0164525
912.828	0.0163631
912.906	0.0162054
912.984	0.0161884
913.062	0.0162149
913.140	0.0161195
913.218	0.0162260
913.296	0.0162497
913.374	0.0161829
913.453	0.0161417
913.531	0.0161917
913.609	0.0161595
913.687	0.0160384
913.765	0.0160648
913.843	0.0163435
913.921	0.0161519
913.999	0.0161631
914.078	0.0161832
914.156	0.0162800
914.234	0.0163544
914.312	0.0162160
914.390	0.0164581
914.468	0.0164480
914.546	0.0164323
914.624	0.0165120
914.703	0.0165115
914.781	0.0165682
914.859	0.0164744
914.937	0.0165462
915.015	0.0165372
915.093	0.0166236
915.171	0.0165379
915.249	0.0164288
915.328	0.0164453
915.406	0.0165087
915.484	0.0165138
915.562	0.0165441
915.640	0.0164740
915.718	0.0164295
915.796	0.0164698
915.874	0.0164630
915.953	0.0164725
916.031	0.0165459
916.109	0.0163763
916.187	0.0163560
916.265	0.0163509
916.343	0.0163646
916.421	0.0165302
916.499	0.0163758
916.578	0.0163308
916.656	0.0163188
916.734	0.0163197
916.812	0.0164452
916.890	0.0163583
916.968	0.0163754
917.046	0.0163117
917.124	0.0162424
917.203	0.0163464
917.281	0.0163448
917.359	0.0162015
917.437	0.0162088
917.515	0.0161263
917.593	0.0161791
917.671	0.0162690
917.749	0.0162397
917.828	0.0161340
917.906	0.0161839
917.984	0.0162858
918.062	0.0161794
918.140	0.0162207
918.218	0.0162679
918.296	0.0164518
918.374	0.0161184
918.453	0.0162901
918.531	0.0161983
918.609	0.0161525
918.687	0.0162909
918.765	0.0162585
918.843	0.0162355
918.921	0.0163847
918.999	0.0163832
919.078	0.0163076
919.156	0.0162663
919.234	0.0162097
919.312	0.0163299
919.390	0.0162182
919.468	0.0163808
919.546	0.0163539
919.624	0.0162344
919.703	0.0163792
919.781	0.0163888
919.859	0.0162276
919.937	0.0163628
