06/10/2022	18:34:24	Ver.	4.1	UNKNOWN
Optical Delay	600.015094	Delta X		0.078125	Sweeps	1	Scan Rate	0/0
Coordinates	Axis 1	NaN	Axis 2	NaN	Axis 3	NaN	Axis 4	NaN	Axis 5	NaN	Axis 6	0.000000
TX Power	0.000000	RX Power	0.000000

600.015	0.0164964
600.093	0.0165147
600.171	0.0163541
600.249	0.0165895
600.328	0.0164487
600.406	0.0163766
600.484	0.0164452
600.562	0.0165630
600.640	0.0166235
600.718	0.0164634
600.796	0.0164391
600.874	0.0163653
600.953	0.0165064
601.031	0.0165735
601.109	0.0163776
601.187	0.0163585
601.265	0.0164644
601.343	0.0164966
601.421	0.0164680
601.499	0.0163758
601.578	0.0165746
601.656	0.0165437
601.734	0.0164159
601.812	0.0164372
601.890	0.0164570
601.968	0.0165454
602.046	0.0163778
602.124	0.0164167
602.203	0.0164468
602.281	0.0164886
602.359	0.0164650
602.437	0.0164834
602.515	0.0165952
602.593	0.0164871
602.671	0.0163922
602.749	0.0165401
602.828	0.0164343
602.906	0.0164133
602.984	0.0165582
603.062	0.0164342
603.140	0.0162757
603.218	0.0164177
603.296	0.0164844
603.374	0.0165704
603.453	0.0163851
603.531	0.0163840
603.609	0.0163943
603.687	0.0164642
603.765	0.0163814
603.843	0.0163501
603.921	0.0164096
603.999	0.0164793
604.078	0.0164523
604.156	0.0164604
604.234	0.0165534
604.312	0.0164167
604.390	0.0163827
604.468	0.0164388
604.546	0.0164954
604.624	0.0164223
604.703	0.0164022
604.781	0.0164913
604.859	0.0164063
604.937	0.0163276
605.015	0.0164030
605.093	0.0164562
605.171	0.0164143
605.249	0.0165758
605.328	0.0164352
605.406	0.0165073
605.484	0.0165015
605.562	0.0164958
605.640	0.0164769
605.718	0.0164085
605.796	0.0165102
605.874	0.0164736
605.953	0.0164755
606.031	0.0165119
606.109	0.0165371
606.187	0.0165792
606.265	0.0164079
606.343	0.0163575
606.421	0.0164287
606.499	0.0165482
606.578	0.0164830
606.656	0.0164180
606.734	0.0164444
606.812	0.0165213
606.890	0.0163151
606.968	0.0165799
607.046	0.0166200
607.124	0.0165611
607.203	0.0163636
607.281	0.0164456
607.359	0.0165692
607.437	0.0165007
607.515	0.0164134
607.593	0.0165009
607.671	0.0166090
607.749	0.0164793
607.828	0.0164359
607.906	0.0164052
607.984	0.0163873
608.062	0.0163892
608.140	0.0164182
608.218	0.0164850
608.296	0.0164275
608.374	0.0164549
608.453	0.0164273
608.531	0.0165726
608.609	0.0164510
608.687	0.0165164
608.765	0.0165776
608.843	0.0164703
608.921	0.0164853
608.999	0.0165067
609.078	0.0165192
609.156	0.0163641
609.234	0.0165969
609.312	0.0164048
609.390	0.0165468
609.468	0.0164420
609.546	0.0165002
609.624	0.0165153
609.703	0.0164712
609.781	0.0164865
609.859	0.0163514
609.937	0.0164839
610.015	0.0165412
610.093	0.0165829
610.171	0.0163658
610.249	0.0164417
610.328	0.0164379
610.406	0.0167361
610.484	0.0165048
610.562	0.0163781
610.640	0.0164427
610.718	0.0164532
610.796	0.0165194
610.874	0.0166104
610.953	0.0165637
611.031	0.0165427
611.109	0.0163706
611.187	0.0165705
611.265	0.0165257
611.343	0.0164716
611.421	0.0165479
611.499	0.0164438
611.578	0.0164654
611.656	0.0165633
611.734	0.0164367
611.812	0.0163230
611.890	0.0165138
611.968	0.0163770
612.046	0.0164985
612.124	0.0165343
612.203	0.0164804
612.281	0.0164494
612.359	0.0163310
612.437	0.0163558
612.515	0.0165228
612.593	0.0164123
612.671	0.0164033
612.749	0.0164004
612.828	0.0164587
612.906	0.0164774
612.984	0.0165124
613.062	0.0165057
613.140	0.0165744
613.218	0.0164524
613.296	0.0164431
613.374	0.0166037
613.453	0.0164806
613.531	0.0164758
613.609	0.0164811
613.687	0.0163865
613.765	0.0165846
613.843	0.0164563
613.921	0.0163483
613.999	0.0165343
614.078	0.0165411
614.156	0.0163938
614.234	0.0164898
614.312	0.0165118
614.390	0.0164079
614.468	0.0163729
614.546	0.0165210
614.624	0.0164891
614.703	0.0163223
614.781	0.0163157
614.859	0.0164443
614.937	0.0165707
615.015	0.0164890
615.093	0.0164327
615.171	0.0165788
615.249	0.0164147
615.328	0.0164970
615.406	0.0165953
615.484	0.0165380
615.562	0.0164642
615.640	0.0164275
615.718	0.0165604
615.796	0.0164091
615.874	0.0163255
615.953	0.0163523
616.031	0.0165203
616.109	0.0165337
616.187	0.0164676
616.265	0.0163906
616.343	0.0164648
616.421	0.0164648
616.499	0.0164495
616.578	0.0164599
616.656	0.0165564
616.734	0.0163847
616.812	0.0163998
616.890	0.0165797
616.968	0.0164774
617.046	0.0164455
617.124	0.0165038
617.203	0.0165379
617.281	0.0164227
617.359	0.0165347
617.437	0.0165134
617.515	0.0165295
617.593	0.0164857
617.671	0.0164644
617.749	0.0164240
617.828	0.0165540
617.906	0.0164276
617.984	0.0164477
618.062	0.0163940
618.140	0.0164654
618.218	0.0165540
618.296	0.0164577
618.374	0.0163204
618.453	0.0164874
618.531	0.0164817
618.609	0.0163283
618.687	0.0164365
618.765	0.0165289
618.843	0.0162708
618.921	0.0164426
618.999	0.0165775
619.078	0.0164782
619.156	0.0163476
619.234	0.0164075
619.312	0.0165813
619.390	0.0165405
619.468	0.0165188
619.546	0.0165501
619.624	0.0163549
619.703	0.0164869
619.781	0.0166304
619.859	0.0164378
619.937	0.0165586
620.015	0.0165614
620.093	0.0163874
620.171	0.0165094
620.249	0.0163676
620.328	0.0165037
620.406	0.0166810
620.484	0.0164951
620.562	0.0163832
620.640	0.0165089
620.718	0.0167069
620.796	0.0165470
620.874	0.0164886
620.953	0.0165318
621.031	0.0166150
621.109	0.0165967
621.187	0.0166332
621.265	0.0164983
621.343	0.0164685
621.421	0.0163376
621.499	0.0164854
621.578	0.0165224
621.656	0.0165691
621.734	0.0165269
621.812	0.0164521
621.890	0.0164182
621.968	0.0164709
622.046	0.0164642
622.124	0.0166077
622.203	0.0164661
622.281	0.0165121
622.359	0.0163953
622.437	0.0165684
622.515	0.0165042
622.593	0.0163976
622.671	0.0164802
622.749	0.0164335
622.828	0.0163686
622.906	0.0164859
622.984	0.0165565
623.062	0.0164925
623.140	0.0163999
623.218	0.0164119
623.296	0.0165451
623.374	0.0164974
623.453	0.0163921
623.531	0.0164212
623.609	0.0164284
623.687	0.0165708
623.765	0.0164561
623.843	0.0164224
623.921	0.0165216
623.999	0.0164545
624.078	0.0165125
624.156	0.0165278
624.234	0.0165134
624.312	0.0164326
624.390	0.0165995
624.468	0.0165968
624.546	0.0165218
624.624	0.0166528
624.703	0.0166078
624.781	0.0165836
624.859	0.0165404
624.937	0.0164287
625.015	0.0165254
625.093	0.0165226
625.171	0.0165103
625.249	0.0165555
625.328	0.0165166
625.406	0.0165572
625.484	0.0164570
625.562	0.0165701
625.640	0.0165195
625.718	0.0164984
625.796	0.0164995
625.874	0.0166338
625.953	0.0165142
626.031	0.0164699
626.109	0.0165219
626.187	0.0165931
626.265	0.0165388
626.343	0.0165128
626.421	0.0163989
626.499	0.0164189
626.578	0.0164624
626.656	0.0164951
626.734	0.0164675
626.812	0.0165609
626.890	0.0163941
626.968	0.0164342
627.046	0.0164233
627.124	0.0165041
627.203	0.0164495
627.281	0.0164605
627.359	0.0165005
627.437	0.0164632
627.515	0.0164114
627.593	0.0163425
627.671	0.0166142
627.749	0.0165147
627.828	0.0164391
627.906	0.0164776
627.984	0.0166939
628.062	0.0164831
628.140	0.0164157
628.218	0.0164718
628.296	0.0163984
628.374	0.0165565
628.453	0.0164892
628.531	0.0164530
628.609	0.0164915
628.687	0.0165121
628.765	0.0163490
628.843	0.0165063
628.921	0.0164867
628.999	0.0164919
629.078	0.0165526
629.156	0.0165206
629.234	0.0164730
629.312	0.0164063
629.390	0.0165073
629.468	0.0164384
629.546	0.0164674
629.624	0.0164778
629.703	0.0164844
629.781	0.0164118
629.859	0.0165327
629.937	0.0163042
630.015	0.0164186
630.093	0.0162920
630.171	0.0163633
630.249	0.0165890
630.328	0.0165063
630.406	0.0163409
630.484	0.0164140
630.562	0.0164391
630.640	0.0165495
630.718	0.0163335
630.796	0.0164641
630.874	0.0164990
630.953	0.0165015
631.031	0.0164436
631.109	0.0164647
631.187	0.0163972
631.265	0.0164955
631.343	0.0165034
631.421	0.0164589
631.499	0.0163211
631.578	0.0164662
631.656	0.0165247
631.734	0.0164981
631.812	0.0163673
631.890	0.0165883
631.968	0.0164177
632.046	0.0164449
632.124	0.0164824
632.203	0.0164226
632.281	0.0165114
632.359	0.0164621
632.437	0.0163940
632.515	0.0165044
632.593	0.0164725
632.671	0.0164867
632.749	0.0164037
632.828	0.0164460
632.906	0.0164887
632.984	0.0164752
633.062	0.0164346
633.140	0.0165364
633.218	0.0165096
633.296	0.0164836
633.374	0.0166077
633.453	0.0163943
633.531	0.0164387
633.609	0.0164648
633.687	0.0165105
633.765	0.0164212
633.843	0.0164604
633.921	0.0163575
633.999	0.0164823
634.078	0.0164437
634.156	0.0164755
634.234	0.0164832
634.312	0.0165314
634.390	0.0163975
634.468	0.0164362
634.546	0.0164436
634.624	0.0165394
634.703	0.0164188
634.781	0.0163912
634.859	0.0165194
634.937	0.0163654
635.015	0.0164541
635.093	0.0164735
635.171	0.0163620
635.249	0.0164305
635.328	0.0163840
635.406	0.0166019
635.484	0.0166918
635.562	0.0164662
635.640	0.0165710
635.718	0.0164703
635.796	0.0164123
635.874	0.0163793
635.953	0.0165232
636.031	0.0166127
636.109	0.0164913
636.187	0.0163787
636.265	0.0164149
636.343	0.0164918
636.421	0.0164318
636.499	0.0163814
636.578	0.0162968
636.656	0.0164349
636.734	0.0164762
636.812	0.0165043
636.890	0.0164108
636.968	0.0164573
637.046	0.0164314
637.124	0.0164584
637.203	0.0164189
637.281	0.0165422
637.359	0.0163778
637.437	0.0164558
637.515	0.0165186
637.593	0.0165098
637.671	0.0165292
637.749	0.0164342
637.828	0.0164806
637.906	0.0164792
637.984	0.0164504
638.062	0.0165379
638.140	0.0164352
638.218	0.0165128
638.296	0.0165953
638.374	0.0163896
638.453	0.0164075
638.531	0.0163955
638.609	0.0165332
638.687	0.0164778
638.765	0.0164895
638.843	0.0164627
638.921	0.0165297
638.999	0.0163441
639.078	0.0164584
639.156	0.0164452
639.234	0.0164101
639.312	0.0162840
639.390	0.0164321
639.468	0.0164307
639.546	0.0164025
639.624	0.0164137
639.703	0.0164252
639.781	0.0164683
639.859	0.0163583
639.937	0.0165842
640.015	0.0164468
640.093	0.0164594
640.171	0.0164805
640.249	0.0164174
640.328	0.0165559
640.406	0.0165228
640.484	0.0164528
640.562	0.0165334
640.640	0.0163992
640.718	0.0164359
640.796	0.0165559
640.874	0.0164432
640.953	0.0165016
641.031	0.0164455
641.109	0.0164328
641.187	0.0163953
641.265	0.0165308
641.343	0.0163264
641.421	0.0164693
641.499	0.0165779
641.578	0.0165281
641.656	0.0163773
641.734	0.0165301
641.812	0.0165663
641.890	0.0163876
641.968	0.0165199
642.046	0.0163997
642.124	0.0164451
642.203	0.0164519
642.281	0.0164832
642.359	0.0164723
642.437	0.0164692
642.515	0.0164121
642.593	0.0163887
642.671	0.0165351
642.749	0.0164955
642.828	0.0163910
642.906	0.0164652
642.984	0.0165892
643.062	0.0164476
643.140	0.0165171
643.218	0.0164094
643.296	0.0164360
643.374	0.0165380
643.453	0.0165003
643.531	0.0164510
643.609	0.0164838
643.687	0.0165250
643.765	0.0165005
643.843	0.0164778
643.921	0.0165237
643.999	0.0165884
644.078	0.0165966
644.156	0.0165674
644.234	0.0164387
644.312	0.0164834
644.390	0.0166353
644.468	0.0165979
644.546	0.0165158
644.624	0.0164889
644.703	0.0163645
644.781	0.0164460
644.859	0.0164415
644.937	0.0165530
645.015	0.0165231
645.093	0.0163358
645.171	0.0165807
645.249	0.0166104
645.328	0.0165126
645.406	0.0163662
645.484	0.0164972
645.562	0.0165541
645.640	0.0164965
645.718	0.0163873
645.796	0.0164568
645.874	0.0164581
645.953	0.0164516
646.031	0.0163720
646.109	0.0165327
646.187	0.0162952
646.265	0.0164343
646.343	0.0165714
646.421	0.0163755
646.499	0.0163916
646.578	0.0164616
646.656	0.0164420
646.734	0.0164959
646.812	0.0164861
646.890	0.0165269
646.968	0.0164299
647.046	0.0165564
647.124	0.0164629
647.203	0.0164069
647.281	0.0164286
647.359	0.0164552
647.437	0.0165192
647.515	0.0165266
647.593	0.0164829
647.671	0.0165374
647.749	0.0166180
647.828	0.0164301
647.906	0.0164252
647.984	0.0164860
648.062	0.0164002
648.140	0.0164768
648.218	0.0165097
648.296	0.0163260
648.374	0.0164461
648.453	0.0164956
648.531	0.0165796
648.609	0.0165295
648.687	0.0164191
648.765	0.0164106
648.843	0.0164693
648.921	0.0164465
648.999	0.0164355
649.078	0.0166226
649.156	0.0164326
649.234	0.0164972
649.312	0.0165170
649.390	0.0165369
649.468	0.0165555
649.546	0.0164789
649.624	0.0165680
649.703	0.0165104
649.781	0.0165103
649.859	0.0164980
649.937	0.0164296
650.015	0.0165110
650.093	0.0164391
650.171	0.0164693
650.249	0.0165565
650.328	0.0164684
650.406	0.0165338
650.484	0.0164794
650.562	0.0164639
650.640	0.0165740
650.718	0.0164989
650.796	0.0165600
650.874	0.0164271
650.953	0.0165927
651.031	0.0165529
651.109	0.0164922
651.187	0.0164800
651.265	0.0165108
651.343	0.0164307
651.421	0.0164727
651.499	0.0166373
651.578	0.0164602
651.656	0.0164797
651.734	0.0165518
651.812	0.0165588
651.890	0.0164765
651.968	0.0165479
652.046	0.0165343
652.124	0.0164765
652.203	0.0164192
652.281	0.0166154
652.359	0.0165777
652.437	0.0163692
652.515	0.0163428
652.593	0.0164177
652.671	0.0165024
652.749	0.0164989
652.828	0.0166552
652.906	0.0164864
652.984	0.0165932
653.062	0.0165298
653.140	0.0165390
653.218	0.0165921
653.296	0.0163613
653.374	0.0164420
653.453	0.0163113
653.531	0.0165151
653.609	0.0164935
653.687	0.0165216
653.765	0.0164378
653.843	0.0166467
653.921	0.0165012
653.999	0.0165339
654.078	0.0165242
654.156	0.0164320
654.234	0.0166293
654.312	0.0164712
654.390	0.0164522
654.468	0.0165527
654.546	0.0164951
654.624	0.0165350
654.703	0.0164156
654.781	0.0165100
654.859	0.0164978
654.937	0.0165380
655.015	0.0165196
655.093	0.0165189
655.171	0.0164584
655.249	0.0164387
655.328	0.0165464
655.406	0.0165247
655.484	0.0164611
655.562	0.0164913
655.640	0.0163879
655.718	0.0164790
655.796	0.0164968
655.874	0.0164857
655.953	0.0164722
656.031	0.0163915
656.109	0.0164967
656.187	0.0163483
656.265	0.0164794
656.343	0.0163813
656.421	0.0164531
656.499	0.0165397
656.578	0.0165476
656.656	0.0165557
656.734	0.0164182
656.812	0.0164360
656.890	0.0164961
656.968	0.0165134
657.046	0.0164474
657.124	0.0165273
657.203	0.0164278
657.281	0.0165390
657.359	0.0165525
657.437	0.0164581
657.515	0.0164310
657.593	0.0163606
657.671	0.0164283
657.749	0.0166306
657.828	0.0165138
657.906	0.0166223
657.984	0.0164148
658.062	0.0163634
658.140	0.0165486
658.218	0.0165344
658.296	0.0165441
658.374	0.0164320
658.453	0.0165435
658.531	0.0166076
658.609	0.0165727
658.687	0.0164247
658.765	0.0165129
658.843	0.0164413
658.921	0.0164516
658.999	0.0164909
659.078	0.0165940
659.156	0.0164999
659.234	0.0165689
659.312	0.0164342
659.390	0.0163875
659.468	0.0164331
659.546	0.0166265
659.624	0.0163658
659.703	0.0164529
659.781	0.0165374
659.859	0.0165596
659.937	0.0164561
660.015	0.0164414
660.093	0.0164183
660.171	0.0164222
660.249	0.0165478
660.328	0.0164473
660.406	0.0164126
660.484	0.0165524
660.562	0.0164775
660.640	0.0164506
660.718	0.0166673
660.796	0.0164448
660.874	0.0164117
660.953	0.0164059
661.031	0.0165195
661.109	0.0164576
661.187	0.0165302
661.265	0.0166695
661.343	0.0164470
661.421	0.0163486
661.499	0.0163983
661.578	0.0165186
661.656	0.0163263
661.734	0.0165206
661.812	0.0164610
661.890	0.0164480
661.968	0.0164769
662.046	0.0164894
662.124	0.0165781
662.203	0.0164587
662.281	0.0165773
662.359	0.0165575
662.437	0.0165797
662.515	0.0165794
662.593	0.0165113
662.671	0.0164013
662.749	0.0164829
662.828	0.0165517
662.906	0.0163559
662.984	0.0164840
663.062	0.0164895
663.140	0.0164571
663.218	0.0163979
663.296	0.0163629
663.374	0.0163074
663.453	0.0164140
663.531	0.0164343
663.609	0.0164995
663.687	0.0164510
663.765	0.0165429
663.843	0.0164127
663.921	0.0163672
663.999	0.0164392
664.078	0.0164754
664.156	0.0164235
664.234	0.0163721
664.312	0.0164947
664.390	0.0163689
664.468	0.0165124
664.546	0.0163953
664.624	0.0163741
664.703	0.0162961
664.781	0.0165327
664.859	0.0165267
664.937	0.0163981
665.015	0.0164619
665.093	0.0164427
665.171	0.0164020
665.249	0.0164454
665.328	0.0164977
665.406	0.0164004
665.484	0.0164818
665.562	0.0163869
665.640	0.0164220
665.718	0.0163904
665.796	0.0163866
665.874	0.0163557
665.953	0.0163332
666.031	0.0164195
666.109	0.0164450
666.187	0.0163950
666.265	0.0164697
666.343	0.0164166
666.421	0.0164438
666.499	0.0164700
666.578	0.0164125
666.656	0.0165421
666.734	0.0164514
666.812	0.0163014
666.890	0.0164559
666.968	0.0164816
667.046	0.0164481
667.124	0.0165443
667.203	0.0165411
667.281	0.0164742
667.359	0.0165025
667.437	0.0164567
667.515	0.0164551
667.593	0.0164660
667.671	0.0163543
667.749	0.0165267
667.828	0.0165440
667.906	0.0165469
667.984	0.0165478
668.062	0.0165554
668.140	0.0163509
668.218	0.0164732
668.296	0.0164826
668.374	0.0164865
668.453	0.0164471
668.531	0.0164933
668.609	0.0165388
668.687	0.0166169
668.765	0.0164568
668.843	0.0165274
668.921	0.0164910
668.999	0.0165748
669.078	0.0165542
669.156	0.0164920
669.234	0.0163777
669.312	0.0165601
669.390	0.0165237
669.468	0.0166178
669.546	0.0165186
669.624	0.0164128
669.703	0.0164758
669.781	0.0164705
669.859	0.0165203
669.937	0.0164749
670.015	0.0164938
670.093	0.0164638
670.171	0.0164877
670.249	0.0163679
670.328	0.0164769
670.406	0.0165418
670.484	0.0164790
670.562	0.0163610
670.640	0.0164632
670.718	0.0165259
670.796	0.0164574
670.874	0.0163831
670.953	0.0164956
671.031	0.0164590
671.109	0.0164404
671.187	0.0165123
671.265	0.0165689
671.343	0.0164532
671.421	0.0164692
671.499	0.0164598
671.578	0.0165180
671.656	0.0163710
671.734	0.0164767
671.812	0.0164333
671.890	0.0165762
671.968	0.0164822
672.046	0.0164621
672.124	0.0164931
672.203	0.0165714
672.281	0.0164465
672.359	0.0165513
672.437	0.0164132
672.515	0.0164728
672.593	0.0163966
672.671	0.0165489
672.749	0.0165017
672.828	0.0163903
672.906	0.0165609
672.984	0.0165367
673.062	0.0163879
673.140	0.0164071
673.218	0.0165192
673.296	0.0164619
673.374	0.0164487
673.453	0.0164973
673.531	0.0163935
673.609	0.0165076
673.687	0.0164672
673.765	0.0164496
673.843	0.0165805
673.921	0.0164976
673.999	0.0164634
674.078	0.0165423
674.156	0.0164471
674.234	0.0163885
674.312	0.0165955
674.390	0.0165002
674.468	0.0164922
674.546	0.0165244
674.624	0.0165274
674.703	0.0166400
674.781	0.0164722
674.859	0.0165224
674.937	0.0165565
675.015	0.0164540
675.093	0.0164736
675.171	0.0165559
675.249	0.0164391
675.328	0.0164815
675.406	0.0165250
675.484	0.0165692
675.562	0.0166094
675.640	0.0165008
675.718	0.0165009
675.796	0.0164725
675.874	0.0165753
675.953	0.0166325
676.031	0.0165725
676.109	0.0165871
676.187	0.0165195
676.265	0.0165031
676.343	0.0164025
676.421	0.0163541
676.499	0.0165582
676.578	0.0165697
676.656	0.0165334
676.734	0.0165466
676.812	0.0164301
676.890	0.0164836
676.968	0.0164688
677.046	0.0165007
677.124	0.0163438
677.203	0.0164973
677.281	0.0164799
677.359	0.0165028
677.437	0.0165771
677.515	0.0165036
677.593	0.0164557
677.671	0.0166528
677.749	0.0164510
677.828	0.0164121
677.906	0.0164813
677.984	0.0164786
678.062	0.0165797
678.140	0.0164145
678.218	0.0164466
678.296	0.0164475
678.374	0.0164061
678.453	0.0164890
678.531	0.0164876
678.609	0.0165366
678.687	0.0165479
678.765	0.0166529
678.843	0.0164693
678.921	0.0164755
678.999	0.0165749
679.078	0.0164511
679.156	0.0165382
679.234	0.0165936
679.312	0.0165102
679.390	0.0165408
679.468	0.0164819
679.546	0.0164579
679.624	0.0165179
679.703	0.0164893
679.781	0.0165673
679.859	0.0165557
679.937	0.0164831
680.015	0.0164679
680.093	0.0163586
680.171	0.0165650
680.249	0.0164877
680.328	0.0165623
680.406	0.0164552
680.484	0.0164369
680.562	0.0164535
680.640	0.0165812
680.718	0.0165749
680.796	0.0165202
680.874	0.0165090
680.953	0.0164326
681.031	0.0165399
681.109	0.0163557
681.187	0.0164695
681.265	0.0165639
681.343	0.0163933
681.421	0.0164314
681.499	0.0164221
681.578	0.0164748
681.656	0.0163836
681.734	0.0165643
681.812	0.0165765
681.890	0.0164678
681.968	0.0165931
682.046	0.0164897
682.124	0.0164268
682.203	0.0164679
682.281	0.0164689
682.359	0.0164619
682.437	0.0165395
682.515	0.0165018
682.593	0.0163117
682.671	0.0164817
682.749	0.0165847
682.828	0.0165199
682.906	0.0165055
682.984	0.0165366
683.062	0.0165038
683.140	0.0164470
683.218	0.0163534
683.296	0.0164761
683.374	0.0165758
683.453	0.0165267
683.531	0.0165364
683.609	0.0164390
683.687	0.0165067
683.765	0.0164452
683.843	0.0162964
683.921	0.0164587
683.999	0.0164208
684.078	0.0165592
684.156	0.0165170
684.234	0.0165134
684.312	0.0164498
684.390	0.0163530
684.468	0.0165749
684.546	0.0165467
684.624	0.0164810
684.703	0.0164825
684.781	0.0164446
684.859	0.0164396
684.937	0.0163931
685.015	0.0163670
685.093	0.0164446
685.171	0.0165334
685.249	0.0164689
685.328	0.0165002
685.406	0.0164224
685.484	0.0166302
685.562	0.0164040
685.640	0.0163741
685.718	0.0163818
685.796	0.0166424
685.874	0.0165646
685.953	0.0164423
686.031	0.0164648
686.109	0.0165075
686.187	0.0165123
686.265	0.0165201
686.343	0.0165611
686.421	0.0166103
686.499	0.0164645
686.578	0.0165811
686.656	0.0165649
686.734	0.0165003
686.812	0.0166460
686.890	0.0167120
686.968	0.0165239
687.046	0.0164398
687.124	0.0164772
687.203	0.0165955
687.281	0.0166109
687.359	0.0164095
687.437	0.0165646
687.515	0.0164856
687.593	0.0166580
687.671	0.0165022
687.749	0.0167280
687.828	0.0165604
687.906	0.0164257
687.984	0.0164365
688.062	0.0164105
688.140	0.0164071
688.218	0.0164754
688.296	0.0165774
688.374	0.0164615
688.453	0.0165311
688.531	0.0164957
688.609	0.0165521
688.687	0.0164682
688.765	0.0164783
688.843	0.0163619
688.921	0.0164395
688.999	0.0165308
689.078	0.0164005
689.156	0.0163976
689.234	0.0165300
689.312	0.0166283
689.390	0.0165066
689.468	0.0163652
689.546	0.0164459
689.624	0.0164100
689.703	0.0164584
689.781	0.0165053
689.859	0.0163896
689.937	0.0163908
690.015	0.0163953
690.093	0.0165035
690.171	0.0165781
690.249	0.0164999
690.328	0.0164224
690.406	0.0164622
690.484	0.0163483
690.562	0.0165509
690.640	0.0165865
690.718	0.0164504
690.796	0.0165102
690.874	0.0164350
690.953	0.0164585
691.031	0.0165772
691.109	0.0164912
691.187	0.0164001
691.265	0.0164479
691.343	0.0164806
691.421	0.0164037
691.499	0.0164471
691.578	0.0165145
691.656	0.0165125
691.734	0.0163866
691.812	0.0165883
691.890	0.0163876
691.968	0.0164426
692.046	0.0164323
692.124	0.0164161
692.203	0.0164505
692.281	0.0164095
692.359	0.0163499
692.437	0.0164365
692.515	0.0164434
692.593	0.0163455
692.671	0.0163457
692.749	0.0163737
692.828	0.0165971
692.906	0.0166029
692.984	0.0164131
693.062	0.0163726
693.140	0.0164787
693.218	0.0164852
693.296	0.0164704
693.374	0.0165102
693.453	0.0165534
693.531	0.0164254
693.609	0.0164572
693.687	0.0164074
693.765	0.0164674
693.843	0.0164706
693.921	0.0165586
693.999	0.0163783
694.078	0.0164624
694.156	0.0165618
694.234	0.0165109
694.312	0.0165005
694.390	0.0165825
694.468	0.0165174
694.546	0.0165400
694.624	0.0164744
694.703	0.0163735
694.781	0.0164692
694.859	0.0166193
694.937	0.0166282
695.015	0.0164339
695.093	0.0165397
695.171	0.0166213
695.249	0.0166676
695.328	0.0166694
695.406	0.0165299
695.484	0.0165343
695.562	0.0165717
695.640	0.0166358
695.718	0.0164954
695.796	0.0165219
695.874	0.0164941
695.953	0.0163955
696.031	0.0165209
696.109	0.0165173
696.187	0.0165026
696.265	0.0164137
696.343	0.0164782
696.421	0.0165945
696.499	0.0163699
696.578	0.0164717
696.656	0.0164719
696.734	0.0164428
696.812	0.0163937
696.890	0.0164240
696.968	0.0165429
697.046	0.0166009
697.124	0.0166569
697.203	0.0164809
697.281	0.0163685
697.359	0.0164961
697.437	0.0165307
697.515	0.0164165
697.593	0.0164069
697.671	0.0164840
697.749	0.0164853
697.828	0.0164300
697.906	0.0164823
697.984	0.0164072
698.062	0.0165733
698.140	0.0166023
698.218	0.0164690
698.296	0.0165214
698.374	0.0164552
698.453	0.0165195
698.531	0.0165038
698.609	0.0164010
698.687	0.0164422
698.765	0.0165549
698.843	0.0166592
698.921	0.0165359
698.999	0.0163951
699.078	0.0164972
699.156	0.0165934
699.234	0.0165148
699.312	0.0164471
699.390	0.0165696
699.468	0.0165251
699.546	0.0166284
699.624	0.0165596
699.703	0.0164549
699.781	0.0164787
699.859	0.0165358
699.937	0.0166959
700.015	0.0163968
700.093	0.0166327
700.171	0.0166330
700.249	0.0164226
700.328	0.0166026
700.406	0.0163924
700.484	0.0164808
700.562	0.0165891
700.640	0.0164980
700.718	0.0163750
700.796	0.0163931
700.874	0.0164665
700.953	0.0164938
701.031	0.0165966
701.109	0.0163222
701.187	0.0164931
701.265	0.0163612
701.343	0.0165261
701.421	0.0164198
701.499	0.0164915
701.578	0.0165395
701.656	0.0164500
701.734	0.0164423
701.812	0.0165459
701.890	0.0165491
701.968	0.0166073
702.046	0.0165609
702.124	0.0164479
702.203	0.0165298
702.281	0.0164191
702.359	0.0162724
702.437	0.0165746
702.515	0.0164407
702.593	0.0165051
702.671	0.0163852
702.749	0.0164522
702.828	0.0164618
702.906	0.0165311
702.984	0.0165153
703.062	0.0164966
703.140	0.0164156
703.218	0.0166793
703.296	0.0165608
703.374	0.0165333
703.453	0.0164144
703.531	0.0164478
703.609	0.0165189
703.687	0.0164853
703.765	0.0164198
703.843	0.0165068
703.921	0.0165910
703.999	0.0164720
704.078	0.0164593
704.156	0.0165091
704.234	0.0164568
704.312	0.0164373
704.390	0.0164221
704.468	0.0165041
704.546	0.0164790
704.624	0.0166102
704.703	0.0165132
704.781	0.0164510
704.859	0.0164064
704.937	0.0164632
705.015	0.0165060
705.093	0.0165674
705.171	0.0166457
705.249	0.0165646
705.328	0.0164585
705.406	0.0165305
705.484	0.0165247
705.562	0.0165191
705.640	0.0165969
705.718	0.0164549
705.796	0.0164304
705.874	0.0164505
705.953	0.0164839
706.031	0.0165327
706.109	0.0164700
706.187	0.0163658
706.265	0.0165503
706.343	0.0166344
706.421	0.0165379
706.499	0.0165247
706.578	0.0165703
706.656	0.0165402
706.734	0.0164831
706.812	0.0164255
706.890	0.0164997
706.968	0.0165580
707.046	0.0165021
707.124	0.0163959
707.203	0.0164287
707.281	0.0165445
707.359	0.0164865
707.437	0.0164484
707.515	0.0164509
707.593	0.0165098
707.671	0.0166130
707.749	0.0165169
707.828	0.0163512
707.906	0.0165112
707.984	0.0164921
708.062	0.0164876
708.140	0.0164593
708.218	0.0165054
708.296	0.0165240
708.374	0.0164148
708.453	0.0165614
708.531	0.0165633
708.609	0.0165143
708.687	0.0165290
708.765	0.0166155
708.843	0.0165080
708.921	0.0164287
708.999	0.0164461
709.078	0.0164171
709.156	0.0164143
709.234	0.0165305
709.312	0.0165387
709.390	0.0165151
709.468	0.0165108
709.546	0.0165336
709.624	0.0163398
709.703	0.0164968
709.781	0.0165529
709.859	0.0164206
709.937	0.0164498
710.015	0.0164974
710.093	0.0165537
710.171	0.0164161
710.249	0.0163617
710.328	0.0165724
710.406	0.0164772
710.484	0.0165114
710.562	0.0166628
710.640	0.0165141
710.718	0.0164676
710.796	0.0164803
710.874	0.0164529
710.953	0.0165453
711.031	0.0164629
711.109	0.0165734
711.187	0.0163135
711.265	0.0163834
711.343	0.0164610
711.421	0.0163644
711.499	0.0165353
711.578	0.0165455
711.656	0.0164289
711.734	0.0163807
711.812	0.0164344
711.890	0.0164561
711.968	0.0164670
712.046	0.0165355
712.124	0.0164663
712.203	0.0163419
712.281	0.0165802
712.359	0.0166531
712.437	0.0164198
712.515	0.0165034
712.593	0.0165553
712.671	0.0164269
712.749	0.0163351
712.828	0.0164443
712.906	0.0163814
712.984	0.0164818
713.062	0.0165343
713.140	0.0163007
713.218	0.0164601
713.296	0.0165182
713.374	0.0164248
713.453	0.0166017
713.531	0.0166026
713.609	0.0165030
713.687	0.0164278
713.765	0.0163774
713.843	0.0165581
713.921	0.0164296
713.999	0.0164886
714.078	0.0164867
714.156	0.0163355
714.234	0.0165524
714.312	0.0165644
714.390	0.0164040
714.468	0.0164948
714.546	0.0164717
714.624	0.0166298
714.703	0.0164918
714.781	0.0164741
714.859	0.0165801
714.937	0.0165223
715.015	0.0165255
715.093	0.0163964
715.171	0.0164822
715.249	0.0165379
715.328	0.0164494
715.406	0.0165746
715.484	0.0165011
715.562	0.0163903
715.640	0.0165358
715.718	0.0163737
715.796	0.0164960
715.874	0.0164668
715.953	0.0164526
716.031	0.0164555
716.109	0.0163920
716.187	0.0163707
716.265	0.0165150
716.343	0.0165721
716.421	0.0165324
716.499	0.0164462
716.578	0.0165427
716.656	0.0164737
716.734	0.0163979
716.812	0.0165612
716.890	0.0165068
716.968	0.0163108
717.046	0.0165438
717.124	0.0165037
717.203	0.0165605
717.281	0.0164650
717.359	0.0165468
717.437	0.0163213
717.515	0.0164944
717.593	0.0163934
717.671	0.0164245
717.749	0.0164752
717.828	0.0165195
717.906	0.0164320
717.984	0.0164547
718.062	0.0164557
718.140	0.0165631
718.218	0.0165124
718.296	0.0163847
718.374	0.0165846
718.453	0.0166377
718.531	0.0164694
718.609	0.0165309
718.687	0.0165365
718.765	0.0164893
718.843	0.0165228
718.921	0.0165044
718.999	0.0165282
719.078	0.0164095
719.156	0.0164775
719.234	0.0163402
719.312	0.0164394
719.390	0.0164354
719.468	0.0165589
719.546	0.0165466
719.624	0.0165078
719.703	0.0166455
719.781	0.0166325
719.859	0.0166290
719.937	0.0162693
720.015	0.0163060
720.093	0.0164352
720.171	0.0165025
720.249	0.0164887
720.328	0.0164671
720.406	0.0165431
720.484	0.0166826
720.562	0.0165550
720.640	0.0165113
720.718	0.0164063
720.796	0.0165079
720.874	0.0163115
720.953	0.0164146
721.031	0.0165279
721.109	0.0164098
721.187	0.0164291
721.265	0.0165981
721.343	0.0164651
721.421	0.0165663
721.499	0.0165329
721.578	0.0164258
721.656	0.0164680
721.734	0.0164619
721.812	0.0164558
721.890	0.0165391
721.968	0.0164980
722.046	0.0165844
722.124	0.0163824
722.203	0.0163944
722.281	0.0165884
722.359	0.0164718
722.437	0.0165298
722.515	0.0165806
722.593	0.0165127
722.671	0.0164635
722.749	0.0165765
722.828	0.0164137
722.906	0.0164475
722.984	0.0166571
723.062	0.0164844
723.140	0.0164976
723.218	0.0164915
723.296	0.0165584
723.374	0.0164341
723.453	0.0166558
723.531	0.0164914
723.609	0.0165317
723.687	0.0165064
723.765	0.0166255
723.843	0.0165919
723.921	0.0164754
723.999	0.0165287
724.078	0.0164359
724.156	0.0165337
724.234	0.0165963
724.312	0.0164412
724.390	0.0165590
724.468	0.0164678
724.546	0.0164830
724.624	0.0164915
724.703	0.0166743
724.781	0.0165229
724.859	0.0164071
724.937	0.0164844
725.015	0.0166314
725.093	0.0165319
725.171	0.0165634
725.249	0.0166270
725.328	0.0165254
725.406	0.0164535
725.484	0.0165425
725.562	0.0165455
725.640	0.0166213
725.718	0.0164777
725.796	0.0165741
725.874	0.0165899
725.953	0.0165221
726.031	0.0164528
726.109	0.0164224
726.187	0.0165417
726.265	0.0165900
726.343	0.0164923
726.421	0.0164440
726.499	0.0166385
726.578	0.0165923
726.656	0.0165717
726.734	0.0165293
726.812	0.0164986
726.890	0.0165089
726.968	0.0164685
727.046	0.0164523
727.124	0.0164732
727.203	0.0166196
727.281	0.0165714
727.359	0.0164008
727.437	0.0164482
727.515	0.0163757
727.593	0.0164704
727.671	0.0165788
727.749	0.0165669
727.828	0.0164246
727.906	0.0165467
727.984	0.0167061
728.062	0.0166061
728.140	0.0164211
728.218	0.0164999
728.296	0.0165202
728.374	0.0165482
728.453	0.0165125
728.531	0.0164954
728.609	0.0165743
728.687	0.0164905
728.765	0.0163104
728.843	0.0164308
728.921	0.0164690
728.999	0.0163721
729.078	0.0163666
729.156	0.0165363
729.234	0.0165009
729.312	0.0164812
729.390	0.0163848
729.468	0.0163163
729.546	0.0165756
729.624	0.0165168
729.703	0.0165385
729.781	0.0164598
729.859	0.0164226
729.937	0.0164562
730.015	0.0165477
730.093	0.0164603
730.171	0.0165240
730.249	0.0163555
730.328	0.0163899
730.406	0.0166214
730.484	0.0164885
730.562	0.0164255
730.640	0.0163413
730.718	0.0164559
730.796	0.0164629
730.874	0.0166133
730.953	0.0164420
731.031	0.0164764
731.109	0.0165464
731.187	0.0165678
731.265	0.0165115
731.343	0.0164717
731.421	0.0164546
731.499	0.0164338
731.578	0.0164784
731.656	0.0164616
731.734	0.0164021
731.812	0.0163313
731.890	0.0165879
731.968	0.0164729
732.046	0.0164343
732.124	0.0164497
732.203	0.0163206
732.281	0.0163273
732.359	0.0165758
732.437	0.0165020
732.515	0.0164906
732.593	0.0166237
732.671	0.0164867
732.749	0.0164059
732.828	0.0163500
732.906	0.0164915
732.984	0.0163854
733.062	0.0164310
733.140	0.0164350
733.218	0.0165770
733.296	0.0164577
733.374	0.0164174
733.453	0.0165070
733.531	0.0165763
733.609	0.0165189
733.687	0.0164449
733.765	0.0165224
733.843	0.0166286
733.921	0.0166220
733.999	0.0163238
734.078	0.0164285
734.156	0.0164475
734.234	0.0164419
734.312	0.0165408
734.390	0.0164932
734.468	0.0165504
734.546	0.0166046
734.624	0.0164944
734.703	0.0164133
734.781	0.0164556
734.859	0.0164985
734.937	0.0165288
735.015	0.0164326
735.093	0.0163488
735.171	0.0165561
735.249	0.0164634
735.328	0.0164938
735.406	0.0164285
735.484	0.0165170
735.562	0.0164230
735.640	0.0163257
735.718	0.0165147
735.796	0.0164132
735.874	0.0163926
735.953	0.0163606
736.031	0.0163537
736.109	0.0164386
736.187	0.0164822
736.265	0.0165102
736.343	0.0164265
736.421	0.0165052
736.499	0.0166291
736.578	0.0165318
736.656	0.0165298
736.734	0.0165314
736.812	0.0165276
736.890	0.0165533
736.968	0.0165610
737.046	0.0165705
737.124	0.0165034
737.203	0.0166043
737.281	0.0166498
737.359	0.0166232
737.437	0.0166333
737.515	0.0166726
737.593	0.0166308
737.671	0.0166866
737.749	0.0165038
737.828	0.0165475
737.906	0.0164101
737.984	0.0164579
738.062	0.0165887
738.140	0.0164401
738.218	0.0164835
738.296	0.0166326
738.374	0.0163155
738.453	0.0161987
738.531	0.0163640
738.609	0.0163113
738.687	0.0161935
738.765	0.0160927
738.843	0.0158824
738.921	0.0158752
738.999	0.0157943
739.078	0.0157413
739.156	0.0157748
739.234	0.0157512
739.312	0.0158356
739.390	0.0159885
739.468	0.0160661
739.546	0.0163530
739.624	0.0165471
739.703	0.0165472
739.781	0.0168091
739.859	0.0169546
739.937	0.0170584
740.015	0.0170080
740.093	0.0170979
740.171	0.0170789
740.249	0.0168509
740.328	0.0169019
740.406	0.0169038
740.484	0.0165785
740.562	0.0165410
740.640	0.0163815
740.718	0.0164236
740.796	0.0164806
740.874	0.0163655
740.953	0.0163529
741.031	0.0163779
741.109	0.0164065
741.187	0.0164693
741.265	0.0167292
741.343	0.0168068
741.421	0.0169766
741.499	0.0170863
741.578	0.0170202
741.656	0.0172134
741.734	0.0170609
741.812	0.0172454
741.890	0.0171308
741.968	0.0171731
742.046	0.0169932
742.124	0.0169916
742.203	0.0168880
742.281	0.0167330
742.359	0.0166494
742.437	0.0166164
742.515	0.0165917
742.593	0.0162903
742.671	0.0161046
742.749	0.0159801
742.828	0.0157350
742.906	0.0154784
742.984	0.0151665
743.062	0.0146673
743.140	0.0145304
743.218	0.0141621
743.296	0.0140918
743.374	0.0139706
743.453	0.0141974
743.531	0.0142833
743.609	0.0145686
743.687	0.0151860
743.765	0.0156721
743.843	0.0162264
743.921	0.0169095
743.999	0.0173705
744.078	0.0179623
744.156	0.0183430
744.234	0.0183788
744.312	0.0183276
744.390	0.0185953
744.468	0.0183330
744.546	0.0181015
744.624	0.0180491
744.703	0.0176460
744.781	0.0174270
744.859	0.0171938
744.937	0.0172161
745.015	0.0171738
745.093	0.0168462
745.171	0.0168101
745.249	0.0165609
745.328	0.0165211
745.406	0.0164995
745.484	0.0163159
745.562	0.0161794
745.640	0.0162050
745.718	0.0161549
745.796	0.0161492
745.874	0.0161266
745.953	0.0163720
746.031	0.0166640
746.109	0.0167197
746.187	0.0168901
746.265	0.0170217
746.343	0.0171382
746.421	0.0169809
746.499	0.0171384
746.578	0.0172815
746.656	0.0169421
746.734	0.0169034
746.812	0.0168755
746.890	0.0166037
746.968	0.0161996
747.046	0.0160376
747.124	0.0156086
747.203	0.0154377
747.281	0.0149187
747.359	0.0146722
747.437	0.0142652
747.515	0.0141898
747.593	0.0141634
747.671	0.0140707
747.749	0.0143884
747.828	0.0146961
747.906	0.0149943
747.984	0.0154930
748.062	0.0161440
748.140	0.0166211
748.218	0.0169022
748.296	0.0175635
748.374	0.0180000
748.453	0.0186250
748.531	0.0187565
748.609	0.0189259
748.687	0.0190972
748.765	0.0189024
748.843	0.0187325
748.921	0.0183113
748.999	0.0178645
749.078	0.0172941
749.156	0.0166018
749.234	0.0160044
749.312	0.0154252
749.390	0.0147401
749.468	0.0142331
749.546	0.0139066
749.624	0.0137815
749.703	0.0138406
749.781	0.0140231
749.859	0.0142732
749.937	0.0149767
750.015	0.0156184
750.093	0.0160946
750.171	0.0167361
750.249	0.0174536
750.328	0.0180906
750.406	0.0182383
750.484	0.0188096
750.562	0.0191386
750.640	0.0193285
750.718	0.0192155
750.796	0.0192008
750.874	0.0192235
750.953	0.0191936
751.031	0.0188579
751.109	0.0185908
751.187	0.0182171
751.265	0.0179105
751.343	0.0174054
751.421	0.0169544
751.499	0.0165327
751.578	0.0161107
751.656	0.0157528
751.734	0.0156121
751.812	0.0156054
751.890	0.0154765
751.968	0.0154140
752.046	0.0154665
752.124	0.0155809
752.203	0.0155430
752.281	0.0156545
752.359	0.0154988
752.437	0.0153580
752.515	0.0150853
752.593	0.0149808
752.671	0.0147567
752.749	0.0146053
752.828	0.0144575
752.906	0.0144518
752.984	0.0141544
753.062	0.0141109
753.140	0.0141759
753.218	0.0139227
753.296	0.0140721
753.374	0.0139331
753.453	0.0139378
753.531	0.0141496
753.609	0.0142764
753.687	0.0145911
753.765	0.0148199
753.843	0.0152741
753.921	0.0156338
753.999	0.0161736
754.078	0.0167994
754.156	0.0174115
754.234	0.0180998
754.312	0.0188604
754.390	0.0193060
754.468	0.0200859
754.546	0.0205909
754.624	0.0212797
754.703	0.0215791
754.781	0.0217245
754.859	0.0221381
754.937	0.0222231
755.015	0.0222102
755.093	0.0220554
755.171	0.0217375
755.249	0.0211903
755.328	0.0209039
755.406	0.0201772
755.484	0.0194968
755.562	0.0187061
755.640	0.0180840
755.718	0.0173066
755.796	0.0165202
755.874	0.0155924
755.953	0.0147513
756.031	0.0139516
756.109	0.0132006
756.187	0.0123529
756.265	0.0115853
756.343	0.0109019
756.421	0.0103658
756.499	0.00999825
756.578	0.00964661
756.656	0.00936256
756.734	0.00925209
756.812	0.00927483
756.890	0.00929497
756.968	0.00942566
757.046	0.00979591
757.124	0.0104025
757.203	0.0110089
757.281	0.0120074
757.359	0.0129674
757.437	0.0140264
757.515	0.0154222
757.593	0.0168559
757.671	0.0180802
757.749	0.0196375
757.828	0.0207805
757.906	0.0219925
757.984	0.0228714
758.062	0.0235251
758.140	0.0240808
758.218	0.0245084
758.296	0.0244894
758.374	0.0242073
758.453	0.0240874
758.531	0.0237339
758.609	0.0230341
758.687	0.0223399
758.765	0.0216692
758.843	0.0208607
758.921	0.0199770
758.999	0.0190694
759.078	0.0182150
759.156	0.0175058
759.234	0.0167780
759.312	0.0160458
759.390	0.0156306
759.468	0.0150430
759.546	0.0148354
759.624	0.0145748
759.703	0.0144530
759.781	0.0142706
759.859	0.0140881
759.937	0.0138471
760.015	0.0137038
760.093	0.0134783
760.171	0.0130815
760.249	0.0126003
760.328	0.0123335
760.406	0.0119269
760.484	0.0116553
760.562	0.0113730
760.640	0.0112521
760.718	0.0113950
760.796	0.0114068
760.874	0.0116704
760.953	0.0119794
761.031	0.0123788
761.109	0.0127339
761.187	0.0133652
761.265	0.0139903
761.343	0.0144709
761.421	0.0151450
761.499	0.0158566
761.578	0.0164571
761.656	0.0169888
761.734	0.0177919
761.812	0.0186173
761.890	0.0192721
761.968	0.0199967
762.046	0.0206314
762.124	0.0210700
762.203	0.0213081
762.281	0.0215349
762.359	0.0218671
762.437	0.0219098
762.515	0.0218448
762.593	0.0215672
762.671	0.0213205
762.749	0.0212517
762.828	0.0208626
762.906	0.0206133
762.984	0.0202631
763.062	0.0198914
763.140	0.0195024
763.218	0.0192896
763.296	0.0189529
763.374	0.0186465
763.453	0.0184019
763.531	0.0180849
763.609	0.0176542
763.687	0.0170296
763.765	0.0166530
763.843	0.0161221
763.921	0.0155177
763.999	0.0147251
764.078	0.0139632
764.156	0.0131279
764.234	0.0123144
764.312	0.0115527
764.390	0.0109225
764.468	0.0103948
764.546	0.00959717
764.624	0.00935173
764.703	0.00904793
764.781	0.00901276
764.859	0.00914139
764.937	0.00943794
765.015	0.00971489
765.093	0.0103410
765.171	0.0110723
765.249	0.0119279
765.328	0.0129140
765.406	0.0139790
765.484	0.0150535
765.562	0.0159368
765.640	0.0168726
765.718	0.0179911
765.796	0.0189639
765.874	0.0198033
765.953	0.0206200
766.031	0.0211620
766.109	0.0218050
766.187	0.0221535
766.265	0.0226191
766.343	0.0228024
766.421	0.0226914
766.499	0.0226022
766.578	0.0226446
766.656	0.0224421
766.734	0.0222969
766.812	0.0218486
766.890	0.0215759
766.968	0.0212319
767.046	0.0208516
767.124	0.0203639
767.203	0.0198418
767.281	0.0193572
767.359	0.0187412
767.437	0.0180927
767.515	0.0173802
767.593	0.0167159
767.671	0.0157628
767.749	0.0149561
767.828	0.0141838
767.906	0.0133424
767.984	0.0127222
768.062	0.0120061
768.140	0.0113254
768.218	0.0107979
768.296	0.0101607
768.374	0.00969582
768.453	0.00961662
768.531	0.00953819
768.609	0.00939346
768.687	0.00977768
768.765	0.00991020
768.843	0.0101442
768.921	0.0108776
768.999	0.0115779
769.078	0.0123457
769.156	0.0132463
769.234	0.0140858
769.312	0.0151852
769.390	0.0160736
769.468	0.0172095
769.546	0.0184256
769.624	0.0192400
769.703	0.0203669
769.781	0.0213096
769.859	0.0222667
769.937	0.0228362
770.015	0.0233303
770.093	0.0236720
770.171	0.0237440
770.249	0.0237042
770.328	0.0234931
770.406	0.0231666
770.484	0.0225333
770.562	0.0217462
770.640	0.0211392
770.718	0.0201266
770.796	0.0193569
770.874	0.0183445
770.953	0.0174091
771.031	0.0166337
771.109	0.0158450
771.187	0.0150287
771.265	0.0142540
771.343	0.0136094
771.421	0.0131905
771.499	0.0126208
771.578	0.0124445
771.656	0.0120008
771.734	0.0120804
771.812	0.0120796
771.890	0.0122025
771.968	0.0122443
772.046	0.0122367
772.124	0.0124571
772.203	0.0125201
772.281	0.0128195
772.359	0.0127450
772.437	0.0129720
772.515	0.0130837
772.593	0.0130841
772.671	0.0133969
772.749	0.0136731
772.828	0.0138304
772.906	0.0143029
772.984	0.0148264
773.062	0.0152446
773.140	0.0159607
773.218	0.0165705
773.296	0.0174956
773.374	0.0182233
773.453	0.0189548
773.531	0.0197459
773.609	0.0205132
773.687	0.0213476
773.765	0.0218650
773.843	0.0224843
773.921	0.0230353
773.999	0.0234074
774.078	0.0236132
774.156	0.0236575
774.234	0.0235664
774.312	0.0231178
774.390	0.0227201
774.468	0.0219907
774.546	0.0212196
774.624	0.0200361
774.703	0.0190900
774.781	0.0179707
774.859	0.0168126
774.937	0.0154745
775.015	0.0143059
775.093	0.0134702
775.171	0.0124471
775.249	0.0116786
775.328	0.0107865
775.406	0.0102390
775.484	0.00993027
775.562	0.00976952
775.640	0.00963509
775.718	0.00973465
775.796	0.0101505
775.874	0.0104520
775.953	0.0111150
776.031	0.0118360
776.109	0.0124673
776.187	0.0132336
776.265	0.0140031
776.343	0.0145592
776.421	0.0153178
776.499	0.0159097
776.578	0.0164080
776.656	0.0167743
776.734	0.0171342
776.812	0.0173550
776.890	0.0177407
776.968	0.0180445
777.046	0.0182101
777.124	0.0182761
777.203	0.0182576
777.281	0.0185698
777.359	0.0186047
777.437	0.0188143
777.515	0.0190568
777.593	0.0191808
777.671	0.0195566
777.749	0.0196481
777.828	0.0198362
777.906	0.0200803
777.984	0.0203049
778.062	0.0204134
778.140	0.0203210
778.218	0.0202802
778.296	0.0202092
778.374	0.0200289
778.453	0.0198323
778.531	0.0194308
778.609	0.0189217
778.687	0.0184596
778.765	0.0179990
778.843	0.0174092
778.921	0.0166913
778.999	0.0160920
779.078	0.0153884
779.156	0.0147179
779.234	0.0141167
779.312	0.0136192
779.390	0.0133121
779.468	0.0128059
779.546	0.0125253
779.624	0.0124683
779.703	0.0123777
779.781	0.0124158
779.859	0.0126929
779.937	0.0128493
780.015	0.0132664
780.093	0.0137640
780.171	0.0141727
780.249	0.0146850
780.328	0.0151994
780.406	0.0157092
780.484	0.0161987
780.562	0.0167503
780.640	0.0168282
780.718	0.0171489
780.796	0.0172892
780.874	0.0176450
780.953	0.0176891
781.031	0.0175650
781.109	0.0176393
781.187	0.0176633
781.265	0.0176103
781.343	0.0175702
781.421	0.0175427
781.499	0.0174796
781.578	0.0173322
781.656	0.0172726
781.734	0.0174265
781.812	0.0174463
781.890	0.0175404
781.968	0.0177299
782.046	0.0175872
782.124	0.0177137
782.203	0.0176857
782.281	0.0177029
782.359	0.0176682
782.437	0.0178217
782.515	0.0177285
782.593	0.0176594
782.671	0.0173956
782.749	0.0170821
782.828	0.0169467
782.906	0.0167273
782.984	0.0164870
783.062	0.0161301
783.140	0.0156850
783.218	0.0155996
783.296	0.0152603
783.374	0.0150440
783.453	0.0147945
783.531	0.0145172
783.609	0.0144097
783.687	0.0144005
783.765	0.0145879
783.843	0.0145934
783.921	0.0150788
783.999	0.0151807
784.078	0.0153025
784.156	0.0157812
784.234	0.0162140
784.312	0.0164423
784.390	0.0169308
784.468	0.0173245
784.546	0.0176761
784.624	0.0177048
784.703	0.0181007
784.781	0.0181383
784.859	0.0181904
784.937	0.0183321
785.015	0.0183720
785.093	0.0181825
785.171	0.0180599
785.249	0.0180163
785.328	0.0178561
785.406	0.0176730
785.484	0.0174609
785.562	0.0172482
785.640	0.0171055
785.718	0.0167772
785.796	0.0165074
785.874	0.0163518
785.953	0.0161308
786.031	0.0158393
786.109	0.0156669
786.187	0.0156487
786.265	0.0156535
786.343	0.0155232
786.421	0.0154629
786.499	0.0152035
786.578	0.0152505
786.656	0.0153176
786.734	0.0153390
786.812	0.0153819
786.890	0.0153030
786.968	0.0155655
787.046	0.0155274
787.124	0.0155119
787.203	0.0156968
787.281	0.0157527
787.359	0.0158629
787.437	0.0160238
787.515	0.0159226
787.593	0.0159896
787.671	0.0159895
787.749	0.0160507
787.828	0.0160486
787.906	0.0160436
787.984	0.0161127
788.062	0.0162601
788.140	0.0164750
788.218	0.0164677
788.296	0.0166853
788.374	0.0170171
788.453	0.0171036
788.531	0.0172846
788.609	0.0175986
788.687	0.0177969
788.765	0.0178245
788.843	0.0180857
788.921	0.0180881
788.999	0.0180890
789.078	0.0181367
789.156	0.0180100
789.234	0.0179984
789.312	0.0179537
789.390	0.0176730
789.468	0.0175434
789.546	0.0172993
789.624	0.0171799
789.703	0.0168970
789.781	0.0165947
789.859	0.0163824
789.937	0.0161221
790.015	0.0161880
790.093	0.0159676
790.171	0.0158015
790.249	0.0156135
790.328	0.0155678
790.406	0.0154008
790.484	0.0154199
790.562	0.0153913
790.640	0.0154015
790.718	0.0153323
790.796	0.0154514
790.874	0.0155806
790.953	0.0158227
791.031	0.0158210
791.109	0.0159191
791.187	0.0158906
791.265	0.0162373
791.343	0.0161174
791.421	0.0160712
791.499	0.0161826
791.578	0.0161760
791.656	0.0162056
791.734	0.0162901
791.812	0.0163599
791.890	0.0165191
791.968	0.0163445
792.046	0.0164429
792.124	0.0164421
792.203	0.0165630
792.281	0.0165979
792.359	0.0168255
792.437	0.0166348
792.515	0.0167482
792.593	0.0167511
792.671	0.0168125
792.749	0.0168079
792.828	0.0168682
792.906	0.0167963
792.984	0.0167235
793.062	0.0166825
793.140	0.0167584
793.218	0.0167590
793.296	0.0165964
793.374	0.0166177
793.453	0.0165652
793.531	0.0164097
793.609	0.0163825
793.687	0.0163876
793.765	0.0162852
793.843	0.0162234
793.921	0.0161968
793.999	0.0162864
794.078	0.0163342
794.156	0.0162100
794.234	0.0162772
794.312	0.0163390
794.390	0.0163240
794.468	0.0164745
794.546	0.0164135
794.624	0.0164814
794.703	0.0166174
794.781	0.0166112
794.859	0.0167682
794.937	0.0168172
795.015	0.0167999
795.093	0.0168571
795.171	0.0167386
795.249	0.0167464
795.328	0.0167429
795.406	0.0166291
795.484	0.0165682
795.562	0.0165053
795.640	0.0165226
795.718	0.0162329
795.796	0.0162825
795.874	0.0164304
795.953	0.0162605
796.031	0.0162504
796.109	0.0163384
796.187	0.0163249
796.265	0.0161558
796.343	0.0162720
796.421	0.0162785
796.499	0.0163648
796.578	0.0164515
796.656	0.0164371
796.734	0.0164566
796.812	0.0164066
796.890	0.0164588
796.968	0.0164858
797.046	0.0165417
797.124	0.0165247
797.203	0.0163697
797.281	0.0163777
797.359	0.0163607
797.437	0.0162835
797.515	0.0161202
797.593	0.0161636
797.671	0.0162437
797.749	0.0162195
797.828	0.0163207
797.906	0.0164426
797.984	0.0163729
798.062	0.0165850
798.140	0.0165533
798.218	0.0167451
798.296	0.0166451
798.374	0.0166525
798.453	0.0168023
798.531	0.0167268
798.609	0.0166031
798.687	0.0166286
798.765	0.0166068
798.843	0.0166193
798.921	0.0164928
798.999	0.0165951
799.078	0.0165262
799.156	0.0164319
799.234	0.0165427
799.312	0.0164944
799.390	0.0165621
799.468	0.0165555
799.546	0.0164639
799.624	0.0165119
799.703	0.0164480
799.781	0.0165318
799.859	0.0164262
799.937	0.0164793
800.015	0.0164761
800.093	0.0164750
800.171	0.0165469
800.249	0.0164208
800.328	0.0164980
800.406	0.0163577
800.484	0.0163146
800.562	0.0162257
800.640	0.0163637
800.718	0.0162040
800.796	0.0161410
800.874	0.0162135
800.953	0.0160402
801.031	0.0160253
801.109	0.0162289
801.187	0.0161733
801.265	0.0161172
801.343	0.0162341
801.421	0.0162434
801.499	0.0163181
801.578	0.0163110
801.656	0.0164878
801.734	0.0165008
801.812	0.0165808
801.890	0.0167750
801.968	0.0168816
802.046	0.0168411
802.124	0.0170636
802.203	0.0169933
802.281	0.0169759
802.359	0.0172116
802.437	0.0171098
802.515	0.0172438
802.593	0.0170749
802.671	0.0170705
802.749	0.0169582
802.828	0.0170282
802.906	0.0170194
802.984	0.0169679
803.062	0.0168189
803.140	0.0168900
803.218	0.0168391
803.296	0.0168192
803.374	0.0168211
803.453	0.0167494
803.531	0.0166222
803.609	0.0168090
803.687	0.0165981
803.765	0.0165653
803.843	0.0166614
803.921	0.0166711
803.999	0.0164963
804.078	0.0163769
804.156	0.0163644
804.234	0.0162006
804.312	0.0161870
804.390	0.0161743
804.468	0.0159750
804.546	0.0159364
804.624	0.0159850
804.703	0.0159020
804.781	0.0158410
804.859	0.0158921
804.937	0.0159135
805.015	0.0159827
805.093	0.0159924
805.171	0.0160086
805.249	0.0160228
805.328	0.0160114
805.406	0.0162627
805.484	0.0162681
805.562	0.0163148
805.640	0.0164282
805.718	0.0165905
805.796	0.0164855
805.874	0.0165971
805.953	0.0168856
806.031	0.0169234
806.109	0.0166183
806.187	0.0167500
806.265	0.0167204
806.343	0.0167086
806.421	0.0166108
806.499	0.0164802
806.578	0.0165384
806.656	0.0163699
806.734	0.0164027
806.812	0.0164809
806.890	0.0163458
806.968	0.0163813
807.046	0.0164658
807.124	0.0163910
807.203	0.0166103
807.281	0.0166037
807.359	0.0166989
807.437	0.0167974
807.515	0.0167856
807.593	0.0168339
807.671	0.0170078
807.749	0.0170152
807.828	0.0171008
807.906	0.0171280
807.984	0.0171668
808.062	0.0171059
808.140	0.0169738
808.218	0.0169465
808.296	0.0170209
808.374	0.0169749
808.453	0.0168498
808.531	0.0168256
808.609	0.0168446
808.687	0.0167074
808.765	0.0166707
808.843	0.0166090
808.921	0.0164815
808.999	0.0164233
809.078	0.0164065
809.156	0.0163499
809.234	0.0162722
809.312	0.0163366
809.390	0.0162791
809.468	0.0163324
809.546	0.0162879
809.624	0.0160904
809.703	0.0161357
809.781	0.0162097
809.859	0.0161635
809.937	0.0161108
810.015	0.0160639
810.093	0.0161813
810.171	0.0161124
810.249	0.0161185
810.328	0.0160277
810.406	0.0161333
810.484	0.0161749
810.562	0.0162904
810.640	0.0160862
810.718	0.0162566
810.796	0.0163065
810.874	0.0164483
810.953	0.0164687
811.031	0.0165490
811.109	0.0165288
811.187	0.0165810
811.265	0.0166820
811.343	0.0166838
811.421	0.0167825
811.499	0.0168306
811.578	0.0167651
811.656	0.0166325
811.734	0.0166589
811.812	0.0167789
811.890	0.0167994
811.968	0.0165913
812.046	0.0165317
812.124	0.0166647
812.203	0.0165672
812.281	0.0165047
812.359	0.0163348
812.437	0.0163319
812.515	0.0163347
812.593	0.0162796
812.671	0.0162695
812.749	0.0162618
812.828	0.0161955
812.906	0.0162749
812.984	0.0161707
813.062	0.0161995
813.140	0.0161330
813.218	0.0161851
813.296	0.0162252
813.374	0.0163271
813.453	0.0164053
813.531	0.0163229
813.609	0.0164538
813.687	0.0164521
813.765	0.0165583
813.843	0.0166600
813.921	0.0165429
813.999	0.0168245
814.078	0.0168773
814.156	0.0169069
814.234	0.0169345
814.312	0.0170309
814.390	0.0171385
814.468	0.0171897
814.546	0.0172081
814.624	0.0171751
814.703	0.0172519
814.781	0.0169614
814.859	0.0172198
814.937	0.0171602
815.015	0.0171689
815.093	0.0169995
815.171	0.0168813
815.249	0.0168186
815.328	0.0165958
815.406	0.0168208
815.484	0.0166870
815.562	0.0165798
815.640	0.0164720
815.718	0.0163180
815.796	0.0162864
815.874	0.0160456
815.953	0.0160481
816.031	0.0161108
816.109	0.0161243
816.187	0.0159598
816.265	0.0160509
816.343	0.0160438
816.421	0.0160516
816.499	0.0159056
816.578	0.0160528
816.656	0.0158723
816.734	0.0159562
816.812	0.0160055
816.890	0.0158405
816.968	0.0160722
817.046	0.0159921
817.124	0.0159544
817.203	0.0160331
817.281	0.0160444
817.359	0.0160924
817.437	0.0161115
817.515	0.0162695
817.593	0.0162407
817.671	0.0162930
817.749	0.0163333
817.828	0.0163985
817.906	0.0166500
817.984	0.0165115
818.062	0.0164997
818.140	0.0166431
818.218	0.0167243
818.296	0.0168595
818.374	0.0166758
818.453	0.0167262
818.531	0.0168666
818.609	0.0168052
818.687	0.0167426
818.765	0.0168432
818.843	0.0167467
818.921	0.0167876
818.999	0.0168954
819.078	0.0166875
819.156	0.0168107
819.234	0.0167674
819.312	0.0168204
819.390	0.0167217
819.468	0.0166570
819.546	0.0167577
819.624	0.0168149
819.703	0.0168315
819.781	0.0165947
819.859	0.0167828
819.937	0.0168575
820.015	0.0167307
820.093	0.0165181
820.171	0.0165127
820.249	0.0165403
820.328	0.0162939
820.406	0.0163829
820.484	0.0161873
820.562	0.0160515
820.640	0.0162949
820.718	0.0160640
820.796	0.0161251
820.874	0.0159859
820.953	0.0159705
821.031	0.0161038
821.109	0.0159207
821.187	0.0160515
821.265	0.0159423
821.343	0.0160098
821.421	0.0161872
821.499	0.0161501
821.578	0.0162270
821.656	0.0161584
821.734	0.0163797
821.812	0.0163457
821.890	0.0162556
821.968	0.0164318
822.046	0.0164863
822.124	0.0165166
822.203	0.0166141
822.281	0.0167081
822.359	0.0166069
822.437	0.0166297
822.515	0.0167173
822.593	0.0165824
822.671	0.0166796
822.749	0.0166785
822.828	0.0165679
822.906	0.0166776
822.984	0.0167851
823.062	0.0165812
823.140	0.0166811
823.218	0.0167702
823.296	0.0165585
823.374	0.0165282
823.453	0.0167340
823.531	0.0166909
823.609	0.0165522
823.687	0.0165082
823.765	0.0164647
823.843	0.0165261
823.921	0.0164343
823.999	0.0163160
824.078	0.0164058
824.156	0.0162551
824.234	0.0161062
824.312	0.0160677
824.390	0.0159540
824.468	0.0159113
824.546	0.0160093
824.624	0.0160981
824.703	0.0159904
824.781	0.0159374
824.859	0.0160507
824.937	0.0161457
825.015	0.0160436
825.093	0.0162780
825.171	0.0162849
825.249	0.0164913
825.328	0.0163388
825.406	0.0164880
825.484	0.0166272
825.562	0.0167036
825.640	0.0168185
825.718	0.0169296
825.796	0.0168929
825.874	0.0169193
825.953	0.0169389
826.031	0.0169344
826.109	0.0169702
826.187	0.0170409
826.265	0.0168700
826.343	0.0169684
826.421	0.0168428
826.499	0.0168576
826.578	0.0167481
826.656	0.0167540
826.734	0.0167627
826.812	0.0165947
826.890	0.0166061
826.968	0.0166020
827.046	0.0166364
827.124	0.0166009
827.203	0.0164227
827.281	0.0165829
827.359	0.0164465
827.437	0.0164783
827.515	0.0163647
827.593	0.0164941
827.671	0.0163556
827.749	0.0163400
827.828	0.0164388
827.906	0.0163855
827.984	0.0163091
828.062	0.0164004
828.140	0.0163814
828.218	0.0162720
828.296	0.0162462
828.374	0.0161797
828.453	0.0162563
828.531	0.0162313
828.609	0.0163709
828.687	0.0164268
828.765	0.0162629
828.843	0.0163247
828.921	0.0164822
828.999	0.0163419
829.078	0.0163861
829.156	0.0164787
829.234	0.0165616
829.312	0.0164889
829.390	0.0165331
829.468	0.0165785
829.546	0.0165857
829.624	0.0166158
829.703	0.0165440
829.781	0.0165993
829.859	0.0166142
829.937	0.0166650
830.015	0.0165595
830.093	0.0165801
830.171	0.0166939
830.249	0.0166436
830.328	0.0166795
830.406	0.0164611
830.484	0.0164506
830.562	0.0165829
830.640	0.0163924
830.718	0.0165505
830.796	0.0164169
830.874	0.0164692
830.953	0.0163204
831.031	0.0163444
831.109	0.0165947
831.187	0.0165838
831.265	0.0164120
831.343	0.0165885
831.421	0.0165440
831.499	0.0165340
831.578	0.0166137
831.656	0.0165399
831.734	0.0165878
831.812	0.0165736
831.890	0.0164616
831.968	0.0165911
832.046	0.0163735
832.124	0.0164978
832.203	0.0165063
832.281	0.0164465
832.359	0.0165074
832.437	0.0164307
832.515	0.0164110
832.593	0.0163912
832.671	0.0164288
832.749	0.0164162
832.828	0.0164813
832.906	0.0164500
832.984	0.0164352
833.062	0.0165409
833.140	0.0166121
833.218	0.0165613
833.296	0.0166286
833.374	0.0167529
833.453	0.0166703
833.531	0.0165685
833.609	0.0167754
833.687	0.0166984
833.765	0.0167175
833.843	0.0168243
833.921	0.0165034
833.999	0.0165802
834.078	0.0166906
834.156	0.0165694
834.234	0.0164647
834.312	0.0163422
834.390	0.0163757
834.468	0.0164322
834.546	0.0163268
834.624	0.0162964
834.703	0.0163498
834.781	0.0163226
834.859	0.0163279
834.937	0.0161790
835.015	0.0161975
835.093	0.0163043
835.171	0.0164150
835.249	0.0165071
835.328	0.0165353
835.406	0.0164448
835.484	0.0163742
835.562	0.0165885
835.640	0.0165111
835.718	0.0164955
835.796	0.0165310
835.874	0.0165476
835.953	0.0164284
836.031	0.0166404
836.109	0.0163953
836.187	0.0165273
836.265	0.0165163
836.343	0.0164239
836.421	0.0163995
836.499	0.0164325
836.578	0.0164101
836.656	0.0164501
836.734	0.0164464
836.812	0.0164146
836.890	0.0164280
836.968	0.0163490
837.046	0.0163902
837.124	0.0164162
837.203	0.0165485
837.281	0.0165645
837.359	0.0165827
837.437	0.0166490
837.515	0.0165096
837.593	0.0166672
837.671	0.0166711
837.749	0.0165627
837.828	0.0167863
837.906	0.0167439
837.984	0.0167569
838.062	0.0165199
838.140	0.0166811
838.218	0.0165585
838.296	0.0165646
838.374	0.0165588
838.453	0.0164349
838.531	0.0163310
838.609	0.0164725
838.687	0.0162542
838.765	0.0162833
838.843	0.0163129
838.921	0.0161902
838.999	0.0162401
839.078	0.0165085
839.156	0.0164044
839.234	0.0162719
839.312	0.0163911
839.390	0.0164878
839.468	0.0164416
839.546	0.0164481
839.624	0.0165289
839.703	0.0166522
839.781	0.0165630
839.859	0.0165019
839.937	0.0165156
840.015	0.0164967
840.093	0.0165118
840.171	0.0165343
840.249	0.0163653
840.328	0.0165181
840.406	0.0164460
840.484	0.0164426
840.562	0.0164279
840.640	0.0163447
840.718	0.0164325
840.796	0.0163924
840.874	0.0163174
840.953	0.0164063
841.031	0.0163183
841.109	0.0165039
841.187	0.0164802
841.265	0.0165250
841.343	0.0166322
841.421	0.0166452
841.499	0.0166659
841.578	0.0166492
841.656	0.0167354
841.734	0.0167634
841.812	0.0165794
841.890	0.0166143
841.968	0.0166906
842.046	0.0166918
842.124	0.0165022
842.203	0.0165168
842.281	0.0165028
842.359	0.0166363
842.437	0.0166624
842.515	0.0164559
842.593	0.0163673
842.671	0.0164441
842.749	0.0164331
842.828	0.0163511
842.906	0.0162962
842.984	0.0164523
843.062	0.0163362
843.140	0.0163654
843.218	0.0163892
843.296	0.0163629
843.374	0.0162437
843.453	0.0162572
843.531	0.0162907
843.609	0.0163722
843.687	0.0162884
843.765	0.0162698
843.843	0.0162840
843.921	0.0163539
843.999	0.0163499
844.078	0.0163773
844.156	0.0164709
844.234	0.0165195
844.312	0.0164805
844.390	0.0164635
844.468	0.0164440
844.546	0.0166322
844.624	0.0165865
844.703	0.0165936
844.781	0.0165981
844.859	0.0165016
844.937	0.0164705
845.015	0.0164268
845.093	0.0164313
845.171	0.0165094
845.249	0.0165836
845.328	0.0164562
845.406	0.0164951
845.484	0.0164972
845.562	0.0165546
845.640	0.0164873
845.718	0.0165484
845.796	0.0166309
845.874	0.0164964
845.953	0.0165114
846.031	0.0166695
846.109	0.0167180
846.187	0.0166489
846.265	0.0165118
846.343	0.0165549
846.421	0.0165852
846.499	0.0165166
846.578	0.0164285
846.656	0.0163723
846.734	0.0164863
846.812	0.0165269
846.890	0.0164340
846.968	0.0164126
847.046	0.0165031
847.124	0.0164497
847.203	0.0164339
847.281	0.0165491
847.359	0.0165495
847.437	0.0165862
847.515	0.0163612
847.593	0.0165472
847.671	0.0165133
847.749	0.0165412
847.828	0.0165766
847.906	0.0166176
847.984	0.0166438
848.062	0.0167258
848.140	0.0166872
848.218	0.0166840
848.296	0.0166328
848.374	0.0168700
848.453	0.0167003
848.531	0.0167094
848.609	0.0166544
848.687	0.0167056
848.765	0.0165097
848.843	0.0165935
848.921	0.0165446
848.999	0.0163933
849.078	0.0164816
849.156	0.0164252
849.234	0.0164755
849.312	0.0164082
849.390	0.0164702
849.468	0.0163817
849.546	0.0162833
849.624	0.0162213
849.703	0.0160738
849.781	0.0160450
849.859	0.0160757
849.937	0.0159862
850.015	0.0158466
850.093	0.0158692
850.171	0.0158616
850.249	0.0157548
850.328	0.0158435
850.406	0.0159354
850.484	0.0159235
850.562	0.0158730
850.640	0.0161610
850.718	0.0160088
850.796	0.0161330
850.874	0.0162926
850.953	0.0164771
851.031	0.0165703
851.109	0.0168159
851.187	0.0166633
851.265	0.0168667
851.343	0.0170753
851.421	0.0170827
851.499	0.0173693
851.578	0.0173750
851.656	0.0173830
851.734	0.0173184
851.812	0.0173045
851.890	0.0175200
851.968	0.0173137
852.046	0.0173193
852.124	0.0171618
852.203	0.0170078
852.281	0.0168124
852.359	0.0168111
852.437	0.0168731
852.515	0.0167120
852.593	0.0164923
852.671	0.0164544
852.749	0.0163765
852.828	0.0161868
852.906	0.0161442
852.984	0.0161937
853.062	0.0161487
853.140	0.0159837
853.218	0.0160181
853.296	0.0159831
853.374	0.0157848
853.453	0.0157363
853.531	0.0157541
853.609	0.0157809
853.687	0.0156972
853.765	0.0158138
853.843	0.0157760
853.921	0.0159127
853.999	0.0160193
854.078	0.0161770
854.156	0.0161483
854.234	0.0163966
854.312	0.0163438
854.390	0.0164240
854.468	0.0165340
854.546	0.0167362
854.624	0.0166786
854.703	0.0167393
854.781	0.0168015
854.859	0.0169138
854.937	0.0169805
855.015	0.0170264
855.093	0.0170718
855.171	0.0170744
855.249	0.0170558
855.328	0.0171653
855.406	0.0170910
855.484	0.0171594
855.562	0.0171773
855.640	0.0171288
855.718	0.0172298
855.796	0.0170290
855.874	0.0169201
855.953	0.0168491
856.031	0.0167906
856.109	0.0167442
856.187	0.0166668
856.265	0.0166586
856.343	0.0165359
856.421	0.0164857
856.499	0.0162520
856.578	0.0162586
856.656	0.0160527
856.734	0.0158168
856.812	0.0158017
856.890	0.0158772
856.968	0.0157294
857.046	0.0154475
857.124	0.0156119
857.203	0.0155908
857.281	0.0155832
857.359	0.0155966
857.437	0.0157635
857.515	0.0158289
857.593	0.0158352
857.671	0.0158885
857.749	0.0158232
857.828	0.0160866
857.906	0.0161660
857.984	0.0164118
858.062	0.0163509
858.140	0.0164817
858.218	0.0165111
858.296	0.0165918
858.374	0.0165704
858.453	0.0167931
858.531	0.0168313
858.609	0.0169059
858.687	0.0170110
858.765	0.0171062
858.843	0.0173074
858.921	0.0172179
858.999	0.0173791
859.078	0.0173647
859.156	0.0174395
859.234	0.0175409
859.312	0.0175921
859.390	0.0174958
859.468	0.0173978
859.546	0.0173145
859.624	0.0173172
859.703	0.0170898
859.781	0.0170315
859.859	0.0169938
859.937	0.0167062
860.015	0.0165386
860.093	0.0165009
860.171	0.0165436
860.249	0.0163783
860.328	0.0163277
860.406	0.0161507
860.484	0.0161366
860.562	0.0160447
860.640	0.0159177
860.718	0.0157903
860.796	0.0158902
860.874	0.0157330
860.953	0.0156917
861.031	0.0157903
861.109	0.0156409
861.187	0.0155803
861.265	0.0155743
861.343	0.0156393
861.421	0.0155798
861.499	0.0157074
861.578	0.0157243
861.656	0.0155167
861.734	0.0157002
861.812	0.0156987
861.890	0.0160033
861.968	0.0158839
862.046	0.0160181
862.124	0.0161266
862.203	0.0163557
862.281	0.0163502
862.359	0.0165721
862.437	0.0165997
862.515	0.0170263
862.593	0.0169800
862.671	0.0171289
862.749	0.0173372
862.828	0.0173273
862.906	0.0174402
862.984	0.0175033
863.062	0.0174730
863.140	0.0176252
863.218	0.0174891
863.296	0.0174412
863.374	0.0176129
863.453	0.0176283
863.531	0.0173137
863.609	0.0173062
863.687	0.0172601
863.765	0.0170582
863.843	0.0170080
863.921	0.0167591
863.999	0.0165363
864.078	0.0164058
864.156	0.0163616
864.234	0.0160371
864.312	0.0160366
864.390	0.0159377
864.468	0.0157426
864.546	0.0156721
864.624	0.0157426
864.703	0.0156940
864.781	0.0155345
864.859	0.0155392
864.937	0.0156810
865.015	0.0156664
865.093	0.0155415
865.171	0.0156228
865.249	0.0156395
865.328	0.0157413
865.406	0.0157131
865.484	0.0159225
865.562	0.0159394
865.640	0.0160737
865.718	0.0161087
865.796	0.0162197
865.874	0.0161692
865.953	0.0163892
866.031	0.0164276
866.109	0.0165853
866.187	0.0167155
866.265	0.0166492
866.343	0.0168932
866.421	0.0168582
866.499	0.0170543
866.578	0.0171428
866.656	0.0172315
866.734	0.0172213
866.812	0.0171351
866.890	0.0172000
866.968	0.0171433
867.046	0.0172312
867.124	0.0172292
867.203	0.0171418
867.281	0.0172305
867.359	0.0170838
867.437	0.0168835
867.515	0.0169875
867.593	0.0168774
867.671	0.0168320
867.749	0.0167604
867.828	0.0165943
867.906	0.0164362
867.984	0.0164788
868.062	0.0164751
868.140	0.0163905
868.218	0.0163552
868.296	0.0161935
868.374	0.0160342
868.453	0.0159728
868.531	0.0160047
868.609	0.0158873
868.687	0.0157952
868.765	0.0157781
868.843	0.0156578
868.921	0.0155548
868.999	0.0156776
869.078	0.0157719
869.156	0.0157659
869.234	0.0157755
869.312	0.0159738
869.390	0.0158967
869.468	0.0159680
869.546	0.0161768
869.624	0.0162500
869.703	0.0163828
869.781	0.0165886
869.859	0.0166695
869.937	0.0165661
870.015	0.0166893
870.093	0.0168269
870.171	0.0169511
870.249	0.0169504
870.328	0.0169556
870.406	0.0170221
870.484	0.0171011
870.562	0.0170107
870.640	0.0170664
870.718	0.0169952
870.796	0.0168693
870.874	0.0170438
870.953	0.0168997
871.031	0.0168285
871.109	0.0168806
871.187	0.0168992
871.265	0.0166795
871.343	0.0166857
871.421	0.0167846
871.499	0.0165407
871.578	0.0165433
871.656	0.0164330
871.734	0.0163797
871.812	0.0163865
871.890	0.0164119
871.968	0.0161685
872.046	0.0161519
872.124	0.0160831
872.203	0.0159985
872.281	0.0160311
872.359	0.0160365
872.437	0.0160876
872.515	0.0160680
872.593	0.0159071
872.671	0.0159513
872.749	0.0159116
872.828	0.0159911
872.906	0.0159959
872.984	0.0159423
873.062	0.0158430
873.140	0.0160775
873.218	0.0161484
873.296	0.0161679
873.374	0.0162337
873.453	0.0162106
873.531	0.0163640
873.609	0.0163882
873.687	0.0163773
873.765	0.0164895
873.843	0.0166286
873.921	0.0167814
873.999	0.0168408
874.078	0.0168851
874.156	0.0168511
874.234	0.0170117
874.312	0.0171749
874.390	0.0171328
874.468	0.0171921
874.546	0.0173075
874.624	0.0171275
874.703	0.0170683
874.781	0.0170333
874.859	0.0171193
874.937	0.0169778
875.015	0.0167433
875.093	0.0167711
875.171	0.0166933
875.249	0.0167534
875.328	0.0165941
875.406	0.0165057
875.484	0.0163647
875.562	0.0164003
875.640	0.0161475
875.718	0.0161736
875.796	0.0161737
875.874	0.0162573
875.953	0.0161601
876.031	0.0161722
876.109	0.0161330
876.187	0.0162276
876.265	0.0161807
876.343	0.0162605
876.421	0.0161829
876.499	0.0161833
876.578	0.0161637
876.656	0.0163001
876.734	0.0162547
876.812	0.0162872
876.890	0.0161666
876.968	0.0163738
877.046	0.0164791
877.124	0.0164018
877.203	0.0164110
877.281	0.0163631
877.359	0.0164875
877.437	0.0163089
877.515	0.0164032
877.593	0.0164561
877.671	0.0165198
877.749	0.0166299
877.828	0.0164358
877.906	0.0166212
877.984	0.0166391
878.062	0.0165233
878.140	0.0168282
878.218	0.0167045
878.296	0.0165681
878.374	0.0167269
878.453	0.0168391
878.531	0.0167046
878.609	0.0167794
878.687	0.0167940
878.765	0.0168498
878.843	0.0168550
878.921	0.0169432
878.999	0.0168251
879.078	0.0166250
879.156	0.0168412
879.234	0.0168134
879.312	0.0167969
879.390	0.0167445
879.468	0.0166757
879.546	0.0166402
879.624	0.0165924
879.703	0.0165596
879.781	0.0164405
879.859	0.0165228
879.937	0.0165287
880.015	0.0164830
880.093	0.0164006
880.171	0.0163354
880.249	0.0164165
880.328	0.0163901
880.406	0.0163306
880.484	0.0163435
880.562	0.0163424
880.640	0.0162963
880.718	0.0163637
880.796	0.0164951
880.874	0.0165956
880.953	0.0165432
881.031	0.0165305
881.109	0.0165087
881.187	0.0163803
881.265	0.0164098
881.343	0.0164679
881.421	0.0163995
881.499	0.0165257
881.578	0.0165559
881.656	0.0165318
881.734	0.0165681
881.812	0.0165180
881.890	0.0164987
881.968	0.0164662
882.046	0.0162156
882.124	0.0163327
882.203	0.0164124
882.281	0.0163818
882.359	0.0164670
882.437	0.0164502
882.515	0.0164087
882.593	0.0164865
882.671	0.0164850
882.749	0.0163535
882.828	0.0165791
882.906	0.0165410
882.984	0.0165019
883.062	0.0165453
883.140	0.0165968
883.218	0.0164639
883.296	0.0165197
883.374	0.0164256
883.453	0.0163913
883.531	0.0164639
883.609	0.0163293
883.687	0.0163956
883.765	0.0164829
883.843	0.0164762
883.921	0.0163946
883.999	0.0164185
884.078	0.0163235
884.156	0.0164074
884.234	0.0164621
884.312	0.0164093
884.390	0.0164268
884.468	0.0165144
884.546	0.0164194
884.624	0.0165824
884.703	0.0165418
884.781	0.0166669
884.859	0.0166811
884.937	0.0166359
885.015	0.0166309
885.093	0.0165631
885.171	0.0167198
885.249	0.0167365
885.328	0.0166228
885.406	0.0165813
885.484	0.0166035
885.562	0.0168216
885.640	0.0166058
885.718	0.0167835
885.796	0.0166434
885.874	0.0167102
885.953	0.0167250
886.031	0.0164823
886.109	0.0164538
886.187	0.0166171
886.265	0.0165837
886.343	0.0164601
886.421	0.0164396
886.499	0.0165335
886.578	0.0165990
886.656	0.0165163
886.734	0.0166620
886.812	0.0165208
886.890	0.0165154
886.968	0.0165506
887.046	0.0165675
887.124	0.0165926
887.203	0.0165928
887.281	0.0164723
887.359	0.0164285
887.437	0.0164801
887.515	0.0163676
887.593	0.0164520
887.671	0.0163363
887.749	0.0162569
887.828	0.0164543
887.906	0.0163715
887.984	0.0163380
888.062	0.0162265
888.140	0.0163340
888.218	0.0163033
888.296	0.0164707
888.374	0.0163550
888.453	0.0163583
888.531	0.0163736
888.609	0.0164764
888.687	0.0164414
888.765	0.0163844
888.843	0.0165559
888.921	0.0164700
888.999	0.0166367
889.078	0.0165228
889.156	0.0164600
889.234	0.0164780
889.312	0.0165638
889.390	0.0165290
889.468	0.0165065
889.546	0.0163153
889.624	0.0164859
889.703	0.0164830
889.781	0.0163798
889.859	0.0163989
889.937	0.0162331
890.015	0.0164025
890.093	0.0163253
890.171	0.0161888
890.249	0.0164095
890.328	0.0163678
890.406	0.0164362
890.484	0.0165617
890.562	0.0165394
890.640	0.0164487
890.718	0.0166125
890.796	0.0165474
890.874	0.0166275
890.953	0.0166465
891.031	0.0167177
891.109	0.0167253
891.187	0.0167039
891.265	0.0166900
891.343	0.0166544
891.421	0.0166003
891.499	0.0167220
891.578	0.0166338
891.656	0.0167113
891.734	0.0165920
891.812	0.0166422
891.890	0.0165419
891.968	0.0166444
892.046	0.0165865
892.124	0.0166814
892.203	0.0166039
892.281	0.0164924
892.359	0.0167293
892.437	0.0164820
892.515	0.0164976
892.593	0.0164236
892.671	0.0164983
892.749	0.0164027
892.828	0.0163314
892.906	0.0163346
892.984	0.0163793
893.062	0.0161751
893.140	0.0163122
893.218	0.0162766
893.296	0.0160963
893.374	0.0161526
893.453	0.0162699
893.531	0.0162346
893.609	0.0163120
893.687	0.0161471
893.765	0.0162593
893.843	0.0162440
893.921	0.0161552
893.999	0.0159882
894.078	0.0159743
894.156	0.0163275
894.234	0.0162151
894.312	0.0162861
894.390	0.0162181
894.468	0.0162794
894.546	0.0163888
894.624	0.0163653
894.703	0.0165228
894.781	0.0165274
894.859	0.0164722
894.937	0.0166806
895.015	0.0166282
895.093	0.0167627
895.171	0.0167965
895.249	0.0168056
895.328	0.0168147
895.406	0.0168153
895.484	0.0168604
895.562	0.0168814
895.640	0.0168034
895.718	0.0168417
895.796	0.0168101
895.874	0.0168744
895.953	0.0167487
896.031	0.0167584
896.109	0.0167587
896.187	0.0168358
896.265	0.0166674
896.343	0.0166963
896.421	0.0165759
896.499	0.0165708
896.578	0.0165663
896.656	0.0165347
896.734	0.0166553
896.812	0.0164301
896.890	0.0162961
896.968	0.0164323
897.046	0.0162361
897.124	0.0162551
897.203	0.0163072
897.281	0.0162399
897.359	0.0163277
897.437	0.0161221
897.515	0.0160831
897.593	0.0160613
897.671	0.0161395
897.749	0.0161499
897.828	0.0162078
897.906	0.0161539
897.984	0.0162379
898.062	0.0161805
898.140	0.0162730
898.218	0.0163525
898.296	0.0164548
898.374	0.0165431
898.453	0.0164413
898.531	0.0164550
898.609	0.0165035
898.687	0.0166579
898.765	0.0165881
898.843	0.0167064
898.921	0.0166453
898.999	0.0166923
899.078	0.0167350
899.156	0.0168090
899.234	0.0168156
899.312	0.0168196
899.390	0.0167852
899.468	0.0168245
899.546	0.0167520
899.624	0.0167420
899.703	0.0167691
899.781	0.0167683
899.859	0.0167659
899.937	0.0167261
900.015	0.0168867
900.093	0.0169302
900.171	0.0167438
900.249	0.0165623
900.328	0.0167237
900.406	0.0165433
900.484	0.0164727
900.562	0.0164558
900.640	0.0163330
900.718	0.0163328
900.796	0.0161990
900.874	0.0163420
900.953	0.0161792
901.031	0.0160104
901.109	0.0162369
901.187	0.0162135
901.265	0.0162163
901.343	0.0159889
901.421	0.0160678
901.499	0.0161279
901.578	0.0160780
901.656	0.0160594
901.734	0.0161022
901.812	0.0162103
901.890	0.0162284
901.968	0.0162348
902.046	0.0161809
902.124	0.0163966
902.203	0.0164566
902.281	0.0162775
902.359	0.0164101
902.437	0.0164639
902.515	0.0165272
902.593	0.0165224
902.671	0.0164416
902.749	0.0165333
902.828	0.0166324
902.906	0.0165783
902.984	0.0166854
903.062	0.0166289
903.140	0.0166165
903.218	0.0167290
903.296	0.0166531
903.374	0.0166741
903.453	0.0166965
903.531	0.0165306
903.609	0.0167440
903.687	0.0167847
903.765	0.0166470
903.843	0.0166235
903.921	0.0167228
903.999	0.0165910
904.078	0.0166721
904.156	0.0167659
904.234	0.0165987
904.312	0.0165225
904.390	0.0165705
904.468	0.0165741
904.546	0.0165769
904.624	0.0166968
904.703	0.0165742
904.781	0.0166426
904.859	0.0164724
904.937	0.0166018
905.015	0.0166218
905.093	0.0165198
905.171	0.0165218
905.249	0.0165067
905.328	0.0164193
905.406	0.0164617
905.484	0.0164807
905.562	0.0164645
905.640	0.0163255
905.718	0.0162901
905.796	0.0163887
905.874	0.0162993
905.953	0.0164595
906.031	0.0164577
906.109	0.0163611
906.187	0.0163624
906.265	0.0164145
906.343	0.0164333
906.421	0.0163626
906.499	0.0165605
906.578	0.0165065
906.656	0.0164723
906.734	0.0164587
906.812	0.0164375
906.890	0.0165346
906.968	0.0166418
907.046	0.0166462
907.124	0.0165837
907.203	0.0165408
907.281	0.0165154
907.359	0.0165321
907.437	0.0165099
907.515	0.0165644
907.593	0.0166489
907.671	0.0163966
907.749	0.0164433
907.828	0.0164382
907.906	0.0164674
907.984	0.0165051
908.062	0.0164556
908.140	0.0164249
908.218	0.0164194
908.296	0.0162747
908.374	0.0163507
908.453	0.0163685
908.531	0.0164312
908.609	0.0163363
908.687	0.0164063
908.765	0.0163548
908.843	0.0163622
908.921	0.0163281
908.999	0.0164347
909.078	0.0163626
909.156	0.0163915
909.234	0.0163751
909.312	0.0163945
909.390	0.0166635
909.468	0.0164829
909.546	0.0165054
909.624	0.0165401
909.703	0.0164158
909.781	0.0164410
909.859	0.0167041
909.937	0.0166774
910.015	0.0167389
910.093	0.0165785
910.171	0.0166219
910.249	0.0166886
910.328	0.0166473
910.406	0.0167146
910.484	0.0167156
910.562	0.0166126
910.640	0.0166251
910.718	0.0166802
910.796	0.0166504
910.874	0.0167296
910.953	0.0167272
911.031	0.0167372
911.109	0.0165289
911.187	0.0166848
911.265	0.0166074
911.343	0.0166202
911.421	0.0166759
911.499	0.0166701
911.578	0.0167020
911.656	0.0166108
911.734	0.0165913
911.812	0.0166418
911.890	0.0165449
911.968	0.0163766
912.046	0.0164321
912.124	0.0163832
912.203	0.0163506
912.281	0.0163754
912.359	0.0163663
912.437	0.0163414
912.515	0.0164083
912.593	0.0163124
912.671	0.0162648
912.749	0.0163181
912.828	0.0162686
912.906	0.0162296
912.984	0.0164101
913.062	0.0161957
913.140	0.0162044
913.218	0.0162479
913.296	0.0163363
913.374	0.0162238
913.453	0.0163644
913.531	0.0162489
913.609	0.0163914
913.687	0.0163544
913.765	0.0163406
913.843	0.0163174
913.921	0.0163484
913.999	0.0163358
914.078	0.0164086
914.156	0.0163387
914.234	0.0164853
914.312	0.0163991
914.390	0.0163739
914.468	0.0165806
914.546	0.0163609
914.624	0.0163540
914.703	0.0164173
914.781	0.0164886
914.859	0.0165884
914.937	0.0164767
915.015	0.0163834
915.093	0.0165111
915.171	0.0165573
915.249	0.0165121
915.328	0.0164483
915.406	0.0166245
915.484	0.0166552
915.562	0.0166663
915.640	0.0167334
915.718	0.0166905
915.796	0.0167529
915.874	0.0167451
915.953	0.0166778
916.031	0.0167049
916.109	0.0166837
916.187	0.0165712
916.265	0.0165103
916.343	0.0165347
916.421	0.0166201
916.499	0.0167417
916.578	0.0166409
916.656	0.0166225
916.734	0.0167189
916.812	0.0164870
916.890	0.0166026
916.968	0.0166146
917.046	0.0164576
917.124	0.0164509
917.203	0.0164555
917.281	0.0164438
917.359	0.0165882
917.437	0.0162727
917.515	0.0162549
917.593	0.0164272
917.671	0.0163891
917.749	0.0162825
917.828	0.0163042
917.906	0.0164480
917.984	0.0163395
918.062	0.0164391
918.140	0.0163388
918.218	0.0162629
918.296	0.0164793
918.374	0.0164966
918.453	0.0166408
918.531	0.0165012
918.609	0.0164248
918.687	0.0165620
918.765	0.0165273
918.843	0.0166161
918.921	0.0165258
918.999	0.0165161
919.078	0.0164049
919.156	0.0165627
919.234	0.0165396
919.312	0.0164543
919.390	0.0165056
919.468	0.0164919
919.546	0.0164862
919.624	0.0163976
919.703	0.0163002
919.781	0.0164042
919.859	0.0163933
919.937	0.0162862
