06/10/2022	18:35:59	Ver.	4.1	UNKNOWN
Optical Delay	600.015094	Delta X		0.078125	Sweeps	1	Scan Rate	0/0
Coordinates	Axis 1	NaN	Axis 2	NaN	Axis 3	NaN	Axis 4	NaN	Axis 5	NaN	Axis 6	0.000000
TX Power	0.000000	RX Power	0.000000

600.015	0.0160789
600.093	0.0160652
600.171	0.0161393
600.249	0.0161359
600.328	0.0160364
600.406	0.0160458
600.484	0.0162443
600.562	0.0159975
600.640	0.0160181
600.718	0.0160594
600.796	0.0160260
600.874	0.0160800
600.953	0.0162090
601.031	0.0161285
601.109	0.0160563
601.187	0.0160006
601.265	0.0160268
601.343	0.0162556
601.421	0.0161717
601.499	0.0160191
601.578	0.0160943
601.656	0.0162659
601.734	0.0161950
601.812	0.0160216
601.890	0.0159800
601.968	0.0160909
602.046	0.0160242
602.124	0.0159872
602.203	0.0161184
602.281	0.0160767
602.359	0.0161334
602.437	0.0159971
602.515	0.0160283
602.593	0.0162093
602.671	0.0160549
602.749	0.0160126
602.828	0.0161744
602.906	0.0159282
602.984	0.0160987
603.062	0.0160733
603.140	0.0161272
603.218	0.0162320
603.296	0.0160432
603.374	0.0161123
603.453	0.0161572
603.531	0.0159154
603.609	0.0160039
603.687	0.0161769
603.765	0.0160398
603.843	0.0159763
603.921	0.0159475
603.999	0.0161863
604.078	0.0161229
604.156	0.0160072
604.234	0.0161497
604.312	0.0162283
604.390	0.0160220
604.468	0.0159613
604.546	0.0160377
604.624	0.0161014
604.703	0.0161982
604.781	0.0162062
604.859	0.0161552
604.937	0.0161627
605.015	0.0161259
605.093	0.0161332
605.171	0.0160973
605.249	0.0160180
605.328	0.0161420
605.406	0.0162048
605.484	0.0161719
605.562	0.0159718
605.640	0.0159677
605.718	0.0161212
605.796	0.0160976
605.874	0.0160432
605.953	0.0160725
606.031	0.0161282
606.109	0.0161160
606.187	0.0160623
606.265	0.0159547
606.343	0.0160099
606.421	0.0160828
606.499	0.0160805
606.578	0.0160862
606.656	0.0159116
606.734	0.0161497
606.812	0.0162395
606.890	0.0160883
606.968	0.0159959
607.046	0.0161192
607.124	0.0160859
607.203	0.0161591
607.281	0.0160024
607.359	0.0161203
607.437	0.0160225
607.515	0.0161619
607.593	0.0160194
607.671	0.0160545
607.749	0.0160641
607.828	0.0160494
607.906	0.0160817
607.984	0.0161109
608.062	0.0161393
608.140	0.0160425
608.218	0.0160492
608.296	0.0160213
608.374	0.0161209
608.453	0.0160674
608.531	0.0161764
608.609	0.0162581
608.687	0.0161349
608.765	0.0161546
608.843	0.0161293
608.921	0.0160917
608.999	0.0161880
609.078	0.0161090
609.156	0.0160726
609.234	0.0162779
609.312	0.0162166
609.390	0.0160202
609.468	0.0160175
609.546	0.0160973
609.624	0.0161906
609.703	0.0162341
609.781	0.0160474
609.859	0.0161992
609.937	0.0161188
610.015	0.0160403
610.093	0.0160818
610.171	0.0162101
610.249	0.0160939
610.328	0.0160966
610.406	0.0161282
610.484	0.0161322
610.562	0.0160870
610.640	0.0160449
610.718	0.0161004
610.796	0.0161326
610.874	0.0162625
610.953	0.0161467
611.031	0.0160118
611.109	0.0161384
611.187	0.0161327
611.265	0.0159935
611.343	0.0159948
611.421	0.0162396
611.499	0.0161784
611.578	0.0161111
611.656	0.0161765
611.734	0.0161055
611.812	0.0161295
611.890	0.0161366
611.968	0.0161650
612.046	0.0160634
612.124	0.0160511
612.203	0.0160042
612.281	0.0161330
612.359	0.0161515
612.437	0.0160043
612.515	0.0160456
612.593	0.0160954
612.671	0.0160874
612.749	0.0160690
612.828	0.0160529
612.906	0.0162116
612.984	0.0160190
613.062	0.0160905
613.140	0.0160920
613.218	0.0160428
613.296	0.0160931
613.374	0.0161092
613.453	0.0161569
613.531	0.0160277
613.609	0.0161742
613.687	0.0160568
613.765	0.0160388
613.843	0.0160292
613.921	0.0160228
613.999	0.0161374
614.078	0.0161139
614.156	0.0162052
614.234	0.0160616
614.312	0.0161436
614.390	0.0160700
614.468	0.0161777
614.546	0.0160496
614.624	0.0162167
614.703	0.0161021
614.781	0.0160226
614.859	0.0160910
614.937	0.0161701
615.015	0.0160544
615.093	0.0160275
615.171	0.0161826
615.249	0.0161256
615.328	0.0160427
615.406	0.0160637
615.484	0.0161413
615.562	0.0162740
615.640	0.0160529
615.718	0.0161227
615.796	0.0161501
615.874	0.0161887
615.953	0.0161095
616.031	0.0160699
616.109	0.0159138
616.187	0.0160438
616.265	0.0160258
616.343	0.0161653
616.421	0.0162543
616.499	0.0160935
616.578	0.0161098
616.656	0.0161573
616.734	0.0162696
616.812	0.0160892
616.890	0.0160444
616.968	0.0160565
617.046	0.0160383
617.124	0.0160793
617.203	0.0160808
617.281	0.0160983
617.359	0.0160378
617.437	0.0160198
617.515	0.0161007
617.593	0.0160619
617.671	0.0161503
617.749	0.0161265
617.828	0.0160788
617.906	0.0161760
617.984	0.0160010
618.062	0.0160719
618.140	0.0160841
618.218	0.0160355
618.296	0.0161176
618.374	0.0161430
618.453	0.0160248
618.531	0.0160041
618.609	0.0161679
618.687	0.0161994
618.765	0.0161375
618.843	0.0160707
618.921	0.0161047
618.999	0.0161635
619.078	0.0160576
619.156	0.0161948
619.234	0.0159792
619.312	0.0162470
619.390	0.0160451
619.468	0.0162092
619.546	0.0160496
619.624	0.0160921
619.703	0.0160953
619.781	0.0161320
619.859	0.0160436
619.937	0.0161938
620.015	0.0160399
620.093	0.0160960
620.171	0.0162380
620.249	0.0160526
620.328	0.0159486
620.406	0.0160652
620.484	0.0161471
620.562	0.0161240
620.640	0.0160720
620.718	0.0161510
620.796	0.0161580
620.874	0.0160909
620.953	0.0161948
621.031	0.0160756
621.109	0.0160469
621.187	0.0161236
621.265	0.0161864
621.343	0.0160386
621.421	0.0159210
621.499	0.0161484
621.578	0.0161409
621.656	0.0160000
621.734	0.0162637
621.812	0.0161053
621.890	0.0160346
621.968	0.0160042
622.046	0.0160984
622.124	0.0160083
622.203	0.0161910
622.281	0.0161098
622.359	0.0160669
622.437	0.0161734
622.515	0.0161346
622.593	0.0160870
622.671	0.0160596
622.749	0.0160477
622.828	0.0161182
622.906	0.0161773
622.984	0.0160915
623.062	0.0160377
623.140	0.0160973
623.218	0.0161593
623.296	0.0161116
623.374	0.0162035
623.453	0.0162664
623.531	0.0160744
623.609	0.0161613
623.687	0.0161662
623.765	0.0160101
623.843	0.0160875
623.921	0.0161484
623.999	0.0160225
624.078	0.0161050
624.156	0.0160419
624.234	0.0160963
624.312	0.0160400
624.390	0.0160503
624.468	0.0161971
624.546	0.0161615
624.624	0.0161828
624.703	0.0161006
624.781	0.0161100
624.859	0.0161400
624.937	0.0160928
625.015	0.0160980
625.093	0.0159459
625.171	0.0160517
625.249	0.0161792
625.328	0.0159553
625.406	0.0161722
625.484	0.0160946
625.562	0.0161827
625.640	0.0158707
625.718	0.0161029
625.796	0.0162273
625.874	0.0159862
625.953	0.0160702
626.031	0.0160682
626.109	0.0161172
626.187	0.0161819
626.265	0.0161613
626.343	0.0161213
626.421	0.0160785
626.499	0.0161972
626.578	0.0160722
626.656	0.0161003
626.734	0.0160426
626.812	0.0160895
626.890	0.0160659
626.968	0.0161005
627.046	0.0161701
627.124	0.0161069
627.203	0.0160053
627.281	0.0160351
627.359	0.0160569
627.437	0.0159460
627.515	0.0160214
627.593	0.0160623
627.671	0.0160670
627.749	0.0161024
627.828	0.0161285
627.906	0.0162318
627.984	0.0160361
628.062	0.0161377
628.140	0.0160968
628.218	0.0161775
628.296	0.0160693
628.374	0.0162223
628.453	0.0161251
628.531	0.0161462
628.609	0.0162536
628.687	0.0160883
628.765	0.0161266
628.843	0.0160958
628.921	0.0160081
628.999	0.0161313
629.078	0.0160768
629.156	0.0160883
629.234	0.0160831
629.312	0.0160402
629.390	0.0160809
629.468	0.0160067
629.546	0.0161053
629.624	0.0161153
629.703	0.0161431
629.781	0.0159855
629.859	0.0160161
629.937	0.0162118
630.015	0.0160798
630.093	0.0160448
630.171	0.0160558
630.249	0.0160385
630.328	0.0160072
630.406	0.0160782
630.484	0.0161626
630.562	0.0160035
630.640	0.0161043
630.718	0.0159779
630.796	0.0160815
630.874	0.0160397
630.953	0.0162512
631.031	0.0160576
631.109	0.0160847
631.187	0.0161172
631.265	0.0162011
631.343	0.0160679
631.421	0.0159904
631.499	0.0162122
631.578	0.0161768
631.656	0.0161787
631.734	0.0160696
631.812	0.0161121
631.890	0.0161450
631.968	0.0161085
632.046	0.0161280
632.124	0.0161536
632.203	0.0162993
632.281	0.0161244
632.359	0.0160537
632.437	0.0161356
632.515	0.0162415
632.593	0.0161340
632.671	0.0161200
632.749	0.0161047
632.828	0.0161282
632.906	0.0162417
632.984	0.0161369
633.062	0.0159682
633.140	0.0161375
633.218	0.0161478
633.296	0.0160293
633.374	0.0161521
633.453	0.0161319
633.531	0.0160706
633.609	0.0161657
633.687	0.0160907
633.765	0.0160078
633.843	0.0160841
633.921	0.0160710
633.999	0.0161560
634.078	0.0159460
634.156	0.0159969
634.234	0.0161469
634.312	0.0161269
634.390	0.0160645
634.468	0.0159658
634.546	0.0160912
634.624	0.0161736
634.703	0.0160825
634.781	0.0161555
634.859	0.0160764
634.937	0.0160930
635.015	0.0160498
635.093	0.0159467
635.171	0.0160889
635.249	0.0161472
635.328	0.0160485
635.406	0.0159917
635.484	0.0160263
635.562	0.0160497
635.640	0.0161680
635.718	0.0160857
635.796	0.0161398
635.874	0.0161732
635.953	0.0161021
636.031	0.0159618
636.109	0.0160796
636.187	0.0160719
636.265	0.0161211
636.343	0.0161276
636.421	0.0161105
636.499	0.0160603
636.578	0.0160220
636.656	0.0160329
636.734	0.0161231
636.812	0.0160184
636.890	0.0160251
636.968	0.0161747
637.046	0.0162436
637.124	0.0160534
637.203	0.0161034
637.281	0.0160319
637.359	0.0160974
637.437	0.0161662
637.515	0.0160673
637.593	0.0160155
637.671	0.0161205
637.749	0.0162495
637.828	0.0158844
637.906	0.0160677
637.984	0.0161603
638.062	0.0160638
638.140	0.0161890
638.218	0.0159841
638.296	0.0159527
638.374	0.0159882
638.453	0.0161619
638.531	0.0161476
638.609	0.0160050
638.687	0.0160566
638.765	0.0160847
638.843	0.0161574
638.921	0.0160324
638.999	0.0160395
639.078	0.0161845
639.156	0.0160489
639.234	0.0160100
639.312	0.0160954
639.390	0.0161916
639.468	0.0161270
639.546	0.0160612
639.624	0.0159373
639.703	0.0160035
639.781	0.0161033
639.859	0.0162277
639.937	0.0161596
640.015	0.0161071
640.093	0.0161545
640.171	0.0160780
640.249	0.0160626
640.328	0.0160400
640.406	0.0159995
640.484	0.0159128
640.562	0.0161912
640.640	0.0161497
640.718	0.0160214
640.796	0.0160702
640.874	0.0159972
640.953	0.0162219
641.031	0.0160751
641.109	0.0161054
641.187	0.0160516
641.265	0.0161152
641.343	0.0161890
641.421	0.0160148
641.499	0.0159478
641.578	0.0160162
641.656	0.0161149
641.734	0.0161512
641.812	0.0161346
641.890	0.0162067
641.968	0.0161392
642.046	0.0160829
642.124	0.0161610
642.203	0.0161411
642.281	0.0159559
642.359	0.0160629
642.437	0.0161282
642.515	0.0160422
642.593	0.0159705
642.671	0.0161565
642.749	0.0160915
642.828	0.0161662
642.906	0.0160006
642.984	0.0160564
643.062	0.0162277
643.140	0.0162087
643.218	0.0160767
643.296	0.0161416
643.374	0.0161638
643.453	0.0161418
643.531	0.0160148
643.609	0.0161131
643.687	0.0160825
643.765	0.0161446
643.843	0.0161037
643.921	0.0160532
643.999	0.0160567
644.078	0.0161172
644.156	0.0162199
644.234	0.0161410
644.312	0.0161687
644.390	0.0160802
644.468	0.0161859
644.546	0.0160745
644.624	0.0158777
644.703	0.0159686
644.781	0.0161255
644.859	0.0160902
644.937	0.0159625
645.015	0.0161562
645.093	0.0160886
645.171	0.0160786
645.249	0.0160627
645.328	0.0160879
645.406	0.0161034
645.484	0.0159995
645.562	0.0160707
645.640	0.0160804
645.718	0.0160246
645.796	0.0160486
645.874	0.0160600
645.953	0.0161786
646.031	0.0160433
646.109	0.0160682
646.187	0.0160945
646.265	0.0161317
646.343	0.0161225
646.421	0.0161932
646.499	0.0160905
646.578	0.0160085
646.656	0.0161194
646.734	0.0160374
646.812	0.0161605
646.890	0.0161237
646.968	0.0160564
647.046	0.0160873
647.124	0.0160802
647.203	0.0161062
647.281	0.0161211
647.359	0.0160684
647.437	0.0162200
647.515	0.0161134
647.593	0.0160693
647.671	0.0160732
647.749	0.0161013
647.828	0.0162015
647.906	0.0161891
647.984	0.0159544
648.062	0.0160647
648.140	0.0162220
648.218	0.0161098
648.296	0.0159547
648.374	0.0159860
648.453	0.0161108
648.531	0.0160400
648.609	0.0160930
648.687	0.0161322
648.765	0.0160824
648.843	0.0161182
648.921	0.0160942
648.999	0.0159943
649.078	0.0160717
649.156	0.0160892
649.234	0.0161199
649.312	0.0160886
649.390	0.0159631
649.468	0.0161503
649.546	0.0161432
649.624	0.0160294
649.703	0.0160940
649.781	0.0161468
649.859	0.0160880
649.937	0.0160010
650.015	0.0162229
650.093	0.0161302
650.171	0.0160747
650.249	0.0160087
650.328	0.0159599
650.406	0.0160560
650.484	0.0161320
650.562	0.0161273
650.640	0.0160931
650.718	0.0160561
650.796	0.0161692
650.874	0.0161623
650.953	0.0161068
651.031	0.0159952
651.109	0.0160419
651.187	0.0161839
651.265	0.0159577
651.343	0.0160973
651.421	0.0160958
651.499	0.0158239
651.578	0.0162056
651.656	0.0160583
651.734	0.0160442
651.812	0.0161305
651.890	0.0160906
651.968	0.0161728
652.046	0.0161449
652.124	0.0160920
652.203	0.0161345
652.281	0.0162291
652.359	0.0160076
652.437	0.0159512
652.515	0.0160074
652.593	0.0162132
652.671	0.0161349
652.749	0.0160574
652.828	0.0161424
652.906	0.0159850
652.984	0.0160265
653.062	0.0160215
653.140	0.0160812
653.218	0.0162157
653.296	0.0161127
653.374	0.0160926
653.453	0.0160552
653.531	0.0160989
653.609	0.0161111
653.687	0.0161761
653.765	0.0159880
653.843	0.0159406
653.921	0.0161320
653.999	0.0161314
654.078	0.0160814
654.156	0.0160788
654.234	0.0160192
654.312	0.0160030
654.390	0.0160981
654.468	0.0161421
654.546	0.0162080
654.624	0.0161030
654.703	0.0160969
654.781	0.0160397
654.859	0.0161329
654.937	0.0161581
655.015	0.0160731
655.093	0.0161624
655.171	0.0160816
655.249	0.0160200
655.328	0.0162006
655.406	0.0161408
655.484	0.0161153
655.562	0.0160905
655.640	0.0160785
655.718	0.0160908
655.796	0.0160674
655.874	0.0161429
655.953	0.0162361
656.031	0.0161080
656.109	0.0160195
656.187	0.0161783
656.265	0.0159728
656.343	0.0161227
656.421	0.0161649
656.499	0.0162142
656.578	0.0160722
656.656	0.0161354
656.734	0.0160957
656.812	0.0161411
656.890	0.0161250
656.968	0.0161182
657.046	0.0162151
657.124	0.0161298
657.203	0.0161325
657.281	0.0159532
657.359	0.0161991
657.437	0.0162424
657.515	0.0162265
657.593	0.0161576
657.671	0.0159528
657.749	0.0161105
657.828	0.0161716
657.906	0.0160993
657.984	0.0160239
658.062	0.0160814
658.140	0.0160953
658.218	0.0161964
658.296	0.0162296
658.374	0.0161016
658.453	0.0161580
658.531	0.0161416
658.609	0.0162053
658.687	0.0160809
658.765	0.0161774
658.843	0.0160925
658.921	0.0160754
658.999	0.0160603
659.078	0.0161094
659.156	0.0160255
659.234	0.0160369
659.312	0.0160552
659.390	0.0159802
659.468	0.0161548
659.546	0.0162228
659.624	0.0162254
659.703	0.0160979
659.781	0.0161335
659.859	0.0160817
659.937	0.0161508
660.015	0.0160743
660.093	0.0160904
660.171	0.0160325
660.249	0.0161218
660.328	0.0161700
660.406	0.0160730
660.484	0.0161112
660.562	0.0160488
660.640	0.0161395
660.718	0.0161861
660.796	0.0161861
660.874	0.0162067
660.953	0.0160785
661.031	0.0160664
661.109	0.0160725
661.187	0.0161516
661.265	0.0160519
661.343	0.0161714
661.421	0.0162040
661.499	0.0161053
661.578	0.0160270
661.656	0.0162444
661.734	0.0159293
661.812	0.0160803
661.890	0.0161454
661.968	0.0161402
662.046	0.0162605
662.124	0.0161066
662.203	0.0160957
662.281	0.0160682
662.359	0.0161089
662.437	0.0160600
662.515	0.0161689
662.593	0.0161079
662.671	0.0161272
662.749	0.0161219
662.828	0.0160206
662.906	0.0160667
662.984	0.0160063
663.062	0.0160921
663.140	0.0160178
663.218	0.0161063
663.296	0.0162500
663.374	0.0161411
663.453	0.0160414
663.531	0.0161897
663.609	0.0162564
663.687	0.0162065
663.765	0.0161115
663.843	0.0160521
663.921	0.0160724
663.999	0.0160957
664.078	0.0162146
664.156	0.0161208
664.234	0.0160233
664.312	0.0161333
664.390	0.0161710
664.468	0.0161028
664.546	0.0161228
664.624	0.0161133
664.703	0.0160382
664.781	0.0160566
664.859	0.0160181
664.937	0.0160242
665.015	0.0160360
665.093	0.0160306
665.171	0.0160490
665.249	0.0161136
665.328	0.0160738
665.406	0.0161160
665.484	0.0161920
665.562	0.0161719
665.640	0.0160635
665.718	0.0161279
665.796	0.0160294
665.874	0.0161945
665.953	0.0162949
666.031	0.0161588
666.109	0.0161442
666.187	0.0160748
666.265	0.0162000
666.343	0.0162014
666.421	0.0161627
666.499	0.0161213
666.578	0.0161502
666.656	0.0161380
666.734	0.0161641
666.812	0.0160950
666.890	0.0160038
666.968	0.0160572
667.046	0.0161309
667.124	0.0162084
667.203	0.0160976
667.281	0.0161607
667.359	0.0161157
667.437	0.0161713
667.515	0.0161631
667.593	0.0161385
667.671	0.0161372
667.749	0.0162919
667.828	0.0161961
667.906	0.0160349
667.984	0.0160323
668.062	0.0160797
668.140	0.0160769
668.218	0.0161017
668.296	0.0159093
668.374	0.0160470
668.453	0.0162309
668.531	0.0162787
668.609	0.0160256
668.687	0.0159763
668.765	0.0160978
668.843	0.0160711
668.921	0.0161260
668.999	0.0160867
669.078	0.0160635
669.156	0.0161513
669.234	0.0161587
669.312	0.0161654
669.390	0.0161037
669.468	0.0161671
669.546	0.0161980
669.624	0.0161303
669.703	0.0161543
669.781	0.0161237
669.859	0.0160787
669.937	0.0160606
670.015	0.0160738
670.093	0.0161074
670.171	0.0158835
670.249	0.0161555
670.328	0.0160870
670.406	0.0161262
670.484	0.0161756
670.562	0.0160847
670.640	0.0159963
670.718	0.0160456
670.796	0.0160968
670.874	0.0160924
670.953	0.0160696
671.031	0.0160558
671.109	0.0161005
671.187	0.0161216
671.265	0.0161655
671.343	0.0161013
671.421	0.0160521
671.499	0.0161206
671.578	0.0161716
671.656	0.0160137
671.734	0.0160328
671.812	0.0160765
671.890	0.0161966
671.968	0.0162200
672.046	0.0161023
672.124	0.0160887
672.203	0.0161019
672.281	0.0160161
672.359	0.0160163
672.437	0.0160540
672.515	0.0160845
672.593	0.0161964
672.671	0.0162511
672.749	0.0161260
672.828	0.0161264
672.906	0.0161306
672.984	0.0161629
673.062	0.0161673
673.140	0.0160869
673.218	0.0161914
673.296	0.0160188
673.374	0.0162019
673.453	0.0160023
673.531	0.0161171
673.609	0.0160641
673.687	0.0161813
673.765	0.0161801
673.843	0.0161050
673.921	0.0161226
673.999	0.0161383
674.078	0.0161238
674.156	0.0160673
674.234	0.0161623
674.312	0.0160040
674.390	0.0161779
674.468	0.0161180
674.546	0.0161884
674.624	0.0162400
674.703	0.0162621
674.781	0.0161026
674.859	0.0161491
674.937	0.0161172
675.015	0.0162811
675.093	0.0160780
675.171	0.0160876
675.249	0.0160246
675.328	0.0159845
675.406	0.0161217
675.484	0.0162023
675.562	0.0161818
675.640	0.0161081
675.718	0.0160439
675.796	0.0161407
675.874	0.0161237
675.953	0.0161336
676.031	0.0161471
676.109	0.0162082
676.187	0.0161421
676.265	0.0161886
676.343	0.0160465
676.421	0.0161679
676.499	0.0161340
676.578	0.0160155
676.656	0.0159861
676.734	0.0162216
676.812	0.0161785
676.890	0.0160488
676.968	0.0161194
677.046	0.0161746
677.124	0.0161190
677.203	0.0162599
677.281	0.0162212
677.359	0.0160767
677.437	0.0162024
677.515	0.0161760
677.593	0.0162381
677.671	0.0161146
677.749	0.0161825
677.828	0.0162049
677.906	0.0160923
677.984	0.0161015
678.062	0.0162395
678.140	0.0160635
678.218	0.0160842
678.296	0.0163059
678.374	0.0161140
678.453	0.0161290
678.531	0.0161687
678.609	0.0161657
678.687	0.0161076
678.765	0.0161206
678.843	0.0161347
678.921	0.0159411
678.999	0.0160534
679.078	0.0162126
679.156	0.0160973
679.234	0.0161207
679.312	0.0161717
679.390	0.0160458
679.468	0.0160338
679.546	0.0160423
679.624	0.0161676
679.703	0.0161536
679.781	0.0161252
679.859	0.0161957
679.937	0.0162112
680.015	0.0161699
680.093	0.0161855
680.171	0.0162527
680.249	0.0161641
680.328	0.0160000
680.406	0.0162042
680.484	0.0161897
680.562	0.0162029
680.640	0.0161487
680.718	0.0161726
680.796	0.0161681
680.874	0.0162710
680.953	0.0161873
681.031	0.0160807
681.109	0.0160949
681.187	0.0160069
681.265	0.0162942
681.343	0.0161794
681.421	0.0161035
681.499	0.0159809
681.578	0.0161482
681.656	0.0161823
681.734	0.0160378
681.812	0.0162064
681.890	0.0161675
681.968	0.0159899
682.046	0.0161649
682.124	0.0161560
682.203	0.0161654
682.281	0.0161407
682.359	0.0160849
682.437	0.0160088
682.515	0.0161604
682.593	0.0160347
682.671	0.0161175
682.749	0.0162244
682.828	0.0161303
682.906	0.0161224
682.984	0.0159904
683.062	0.0160264
683.140	0.0160437
683.218	0.0160667
683.296	0.0161319
683.374	0.0160120
683.453	0.0159061
683.531	0.0160303
683.609	0.0161463
683.687	0.0159993
683.765	0.0161343
683.843	0.0161823
683.921	0.0162484
683.999	0.0161092
684.078	0.0161375
684.156	0.0160532
684.234	0.0160986
684.312	0.0160793
684.390	0.0160207
684.468	0.0160746
684.546	0.0161362
684.624	0.0161821
684.703	0.0162083
684.781	0.0160944
684.859	0.0161504
684.937	0.0161287
685.015	0.0161615
685.093	0.0161509
685.171	0.0161539
685.249	0.0160669
685.328	0.0159587
685.406	0.0161564
685.484	0.0161111
685.562	0.0160414
685.640	0.0162171
685.718	0.0160460
685.796	0.0161669
685.874	0.0161074
685.953	0.0161069
686.031	0.0159721
686.109	0.0159170
686.187	0.0160243
686.265	0.0162156
686.343	0.0161418
686.421	0.0160527
686.499	0.0160439
686.578	0.0161477
686.656	0.0159813
686.734	0.0161361
686.812	0.0162052
686.890	0.0161056
686.968	0.0160280
687.046	0.0161688
687.124	0.0162917
687.203	0.0161763
687.281	0.0160774
687.359	0.0162004
687.437	0.0161916
687.515	0.0161169
687.593	0.0162409
687.671	0.0161967
687.749	0.0161208
687.828	0.0160977
687.906	0.0161115
687.984	0.0161941
688.062	0.0162170
688.140	0.0161075
688.218	0.0161944
688.296	0.0161449
688.374	0.0162191
688.453	0.0161584
688.531	0.0161088
688.609	0.0161234
688.687	0.0161288
688.765	0.0161486
688.843	0.0160947
688.921	0.0162213
688.999	0.0161662
689.078	0.0161301
689.156	0.0160455
689.234	0.0160408
689.312	0.0162734
689.390	0.0162601
689.468	0.0160355
689.546	0.0161750
689.624	0.0161363
689.703	0.0161977
689.781	0.0161063
689.859	0.0160783
689.937	0.0160968
690.015	0.0161878
690.093	0.0161385
690.171	0.0160299
690.249	0.0159786
690.328	0.0160894
690.406	0.0160519
690.484	0.0160455
690.562	0.0160324
690.640	0.0160571
690.718	0.0161853
690.796	0.0161057
690.874	0.0160500
690.953	0.0162752
691.031	0.0161557
691.109	0.0161264
691.187	0.0159638
691.265	0.0161753
691.343	0.0160657
691.421	0.0160448
691.499	0.0161687
691.578	0.0162044
691.656	0.0161942
691.734	0.0161019
691.812	0.0161552
691.890	0.0160590
691.968	0.0160515
692.046	0.0160410
692.124	0.0160071
692.203	0.0161127
692.281	0.0160229
692.359	0.0162141
692.437	0.0161536
692.515	0.0160989
692.593	0.0160767
692.671	0.0160815
692.749	0.0160439
692.828	0.0161102
692.906	0.0159991
692.984	0.0161538
693.062	0.0161217
693.140	0.0161515
693.218	0.0161093
693.296	0.0162267
693.374	0.0161781
693.453	0.0161754
693.531	0.0161774
693.609	0.0161984
693.687	0.0161570
693.765	0.0161494
693.843	0.0161827
693.921	0.0161888
693.999	0.0160750
694.078	0.0161414
694.156	0.0162177
694.234	0.0160443
694.312	0.0161799
694.390	0.0162216
694.468	0.0162392
694.546	0.0159946
694.624	0.0161028
694.703	0.0161561
694.781	0.0161539
694.859	0.0161432
694.937	0.0159818
695.015	0.0160697
695.093	0.0161658
695.171	0.0160613
695.249	0.0161370
695.328	0.0160455
695.406	0.0160436
695.484	0.0161070
695.562	0.0161613
695.640	0.0160869
695.718	0.0160223
695.796	0.0161784
695.874	0.0159919
695.953	0.0160751
696.031	0.0160299
696.109	0.0159879
696.187	0.0160901
696.265	0.0160371
696.343	0.0161979
696.421	0.0159863
696.499	0.0160179
696.578	0.0161718
696.656	0.0161657
696.734	0.0161252
696.812	0.0160744
696.890	0.0160014
696.968	0.0160374
697.046	0.0161773
697.124	0.0162617
697.203	0.0161627
697.281	0.0159898
697.359	0.0160504
697.437	0.0161650
697.515	0.0159971
697.593	0.0161185
697.671	0.0162309
697.749	0.0160609
697.828	0.0162361
697.906	0.0161018
697.984	0.0160916
698.062	0.0161426
698.140	0.0161799
698.218	0.0159593
698.296	0.0161730
698.374	0.0161501
698.453	0.0161945
698.531	0.0160897
698.609	0.0161459
698.687	0.0161153
698.765	0.0162052
698.843	0.0160861
698.921	0.0162276
698.999	0.0161070
699.078	0.0161262
699.156	0.0160659
699.234	0.0161306
699.312	0.0160886
699.390	0.0161915
699.468	0.0161478
699.546	0.0160915
699.624	0.0160982
699.703	0.0161367
699.781	0.0161252
699.859	0.0159799
699.937	0.0161639
700.015	0.0161064
700.093	0.0160764
700.171	0.0160455
700.249	0.0159941
700.328	0.0161657
700.406	0.0160967
700.484	0.0160985
700.562	0.0160651
700.640	0.0161765
700.718	0.0161656
700.796	0.0160372
700.874	0.0161806
700.953	0.0160656
701.031	0.0161507
701.109	0.0161177
701.187	0.0160705
701.265	0.0161330
701.343	0.0161404
701.421	0.0160884
701.499	0.0160674
701.578	0.0160879
701.656	0.0161093
701.734	0.0161481
701.812	0.0159493
701.890	0.0161312
701.968	0.0161895
702.046	0.0160824
702.124	0.0161528
702.203	0.0161226
702.281	0.0162340
702.359	0.0159989
702.437	0.0162048
702.515	0.0161255
702.593	0.0160899
702.671	0.0161311
702.749	0.0160548
702.828	0.0160750
702.906	0.0160118
702.984	0.0162515
703.062	0.0161336
703.140	0.0159309
703.218	0.0159412
703.296	0.0160536
703.374	0.0160130
703.453	0.0160398
703.531	0.0160342
703.609	0.0159386
703.687	0.0160941
703.765	0.0160797
703.843	0.0161235
703.921	0.0161311
703.999	0.0160278
704.078	0.0161797
704.156	0.0161079
704.234	0.0161201
704.312	0.0161772
704.390	0.0160818
704.468	0.0160781
704.546	0.0161250
704.624	0.0160363
704.703	0.0160042
704.781	0.0162540
704.859	0.0160240
704.937	0.0161455
705.015	0.0160528
705.093	0.0161582
705.171	0.0161752
705.249	0.0159864
705.328	0.0160902
705.406	0.0162263
705.484	0.0160541
705.562	0.0161246
705.640	0.0161790
705.718	0.0160967
705.796	0.0161768
705.874	0.0161779
705.953	0.0160693
706.031	0.0161040
706.109	0.0162329
706.187	0.0160913
706.265	0.0161064
706.343	0.0160541
706.421	0.0160239
706.499	0.0161041
706.578	0.0159890
706.656	0.0161841
706.734	0.0163090
706.812	0.0160711
706.890	0.0161150
706.968	0.0162324
707.046	0.0161127
707.124	0.0161786
707.203	0.0160608
707.281	0.0162466
707.359	0.0160728
707.437	0.0159782
707.515	0.0160998
707.593	0.0160857
707.671	0.0162025
707.749	0.0160757
707.828	0.0160912
707.906	0.0160481
707.984	0.0159778
708.062	0.0160735
708.140	0.0160947
708.218	0.0160374
708.296	0.0161192
708.374	0.0160274
708.453	0.0159929
708.531	0.0160652
708.609	0.0160208
708.687	0.0160601
708.765	0.0160783
708.843	0.0159910
708.921	0.0160690
708.999	0.0160928
709.078	0.0161285
709.156	0.0161819
709.234	0.0160547
709.312	0.0160259
709.390	0.0162350
709.468	0.0160452
709.546	0.0161323
709.624	0.0161685
709.703	0.0160751
709.781	0.0159895
709.859	0.0160749
709.937	0.0161883
710.015	0.0162444
710.093	0.0160732
710.171	0.0160722
710.249	0.0160658
710.328	0.0161804
710.406	0.0162154
710.484	0.0160753
710.562	0.0159999
710.640	0.0160580
710.718	0.0161076
710.796	0.0160715
710.874	0.0159566
710.953	0.0161360
711.031	0.0162071
711.109	0.0159691
711.187	0.0161433
711.265	0.0161551
711.343	0.0160840
711.421	0.0162377
711.499	0.0162250
711.578	0.0160280
711.656	0.0160477
711.734	0.0162151
711.812	0.0161655
711.890	0.0160870
711.968	0.0160899
712.046	0.0160861
712.124	0.0161326
712.203	0.0160354
712.281	0.0161226
712.359	0.0161239
712.437	0.0161382
712.515	0.0160659
712.593	0.0160523
712.671	0.0160487
712.749	0.0160145
712.828	0.0160904
712.906	0.0161813
712.984	0.0160577
713.062	0.0160559
713.140	0.0160720
713.218	0.0159986
713.296	0.0161766
713.374	0.0161051
713.453	0.0159884
713.531	0.0160748
713.609	0.0159553
713.687	0.0160767
713.765	0.0160053
713.843	0.0159740
713.921	0.0158772
713.999	0.0161185
714.078	0.0160989
714.156	0.0161377
714.234	0.0161613
714.312	0.0159175
714.390	0.0160468
714.468	0.0161134
714.546	0.0160970
714.624	0.0160277
714.703	0.0160339
714.781	0.0160467
714.859	0.0160552
714.937	0.0161251
715.015	0.0160854
715.093	0.0160896
715.171	0.0160493
715.249	0.0160777
715.328	0.0161658
715.406	0.0161600
715.484	0.0161329
715.562	0.0160651
715.640	0.0160714
715.718	0.0160821
715.796	0.0160799
715.874	0.0160645
715.953	0.0160611
716.031	0.0161385
716.109	0.0161187
716.187	0.0161208
716.265	0.0161117
716.343	0.0160774
716.421	0.0162643
716.499	0.0161031
716.578	0.0161432
716.656	0.0161714
716.734	0.0161921
716.812	0.0162513
716.890	0.0160398
716.968	0.0160670
717.046	0.0160900
717.124	0.0160068
717.203	0.0161291
717.281	0.0160973
717.359	0.0161201
717.437	0.0161239
717.515	0.0161874
717.593	0.0160441
717.671	0.0161651
717.749	0.0160406
717.828	0.0160769
717.906	0.0160023
717.984	0.0159668
718.062	0.0162384
718.140	0.0162257
718.218	0.0160690
718.296	0.0159915
718.374	0.0160222
718.453	0.0160983
718.531	0.0160506
718.609	0.0160732
718.687	0.0161978
718.765	0.0161835
718.843	0.0161719
718.921	0.0161625
718.999	0.0161926
719.078	0.0161520
719.156	0.0161119
719.234	0.0161594
719.312	0.0161158
719.390	0.0160599
719.468	0.0161089
719.546	0.0160896
719.624	0.0160725
719.703	0.0160869
719.781	0.0160162
719.859	0.0161108
719.937	0.0160504
720.015	0.0160155
720.093	0.0161164
720.171	0.0160506
720.249	0.0161552
720.328	0.0161774
720.406	0.0160707
720.484	0.0161625
720.562	0.0160442
720.640	0.0160563
720.718	0.0160606
720.796	0.0160737
720.874	0.0162507
720.953	0.0163393
721.031	0.0161945
721.109	0.0161932
721.187	0.0160819
721.265	0.0160289
721.343	0.0162054
721.421	0.0161752
721.499	0.0160263
721.578	0.0161687
721.656	0.0161214
721.734	0.0160322
721.812	0.0160487
721.890	0.0160704
721.968	0.0161983
722.046	0.0161549
722.124	0.0161462
722.203	0.0161013
722.281	0.0159995
722.359	0.0161421
722.437	0.0161322
722.515	0.0160130
722.593	0.0161113
722.671	0.0160906
722.749	0.0161755
722.828	0.0161857
722.906	0.0160768
722.984	0.0160422
723.062	0.0160955
723.140	0.0160840
723.218	0.0161131
723.296	0.0162456
723.374	0.0160315
723.453	0.0162309
723.531	0.0162043
723.609	0.0161433
723.687	0.0161497
723.765	0.0160870
723.843	0.0160889
723.921	0.0161462
723.999	0.0162159
724.078	0.0161080
724.156	0.0160057
724.234	0.0159091
724.312	0.0161842
724.390	0.0160658
724.468	0.0161237
724.546	0.0162094
724.624	0.0159916
724.703	0.0159995
724.781	0.0160870
724.859	0.0161270
724.937	0.0161988
725.015	0.0161179
725.093	0.0160494
725.171	0.0160541
725.249	0.0161993
725.328	0.0161630
725.406	0.0161139
725.484	0.0161153
725.562	0.0160767
725.640	0.0161323
725.718	0.0161630
725.796	0.0161295
725.874	0.0161652
725.953	0.0161364
726.031	0.0160979
726.109	0.0162125
726.187	0.0159801
726.265	0.0160809
726.343	0.0162260
726.421	0.0161045
726.499	0.0161483
726.578	0.0162318
726.656	0.0160984
726.734	0.0160162
726.812	0.0163123
726.890	0.0161847
726.968	0.0161304
727.046	0.0160834
727.124	0.0162073
727.203	0.0160959
727.281	0.0159698
727.359	0.0161668
727.437	0.0160532
727.515	0.0161024
727.593	0.0160216
727.671	0.0161060
727.749	0.0161597
727.828	0.0160584
727.906	0.0159904
727.984	0.0160220
728.062	0.0161742
728.140	0.0162975
728.218	0.0160876
728.296	0.0161341
728.374	0.0160891
728.453	0.0160947
728.531	0.0160944
728.609	0.0160543
728.687	0.0161423
728.765	0.0162431
728.843	0.0160535
728.921	0.0160611
728.999	0.0160596
729.078	0.0162135
729.156	0.0161415
729.234	0.0161099
729.312	0.0161580
729.390	0.0161279
729.468	0.0160474
729.546	0.0162029
729.624	0.0162146
729.703	0.0160101
729.781	0.0161484
729.859	0.0160421
729.937	0.0160413
730.015	0.0159275
730.093	0.0160576
730.171	0.0160521
730.249	0.0160323
730.328	0.0161590
730.406	0.0159711
730.484	0.0160324
730.562	0.0160436
730.640	0.0159991
730.718	0.0160905
730.796	0.0161433
730.874	0.0160233
730.953	0.0160845
731.031	0.0161601
731.109	0.0160849
731.187	0.0161861
731.265	0.0161234
731.343	0.0161795
731.421	0.0160904
731.499	0.0161512
731.578	0.0161484
731.656	0.0161744
731.734	0.0161846
731.812	0.0162238
731.890	0.0160060
731.968	0.0161145
732.046	0.0160020
732.124	0.0160888
732.203	0.0160349
732.281	0.0161078
732.359	0.0160778
732.437	0.0160279
732.515	0.0161185
732.593	0.0160809
732.671	0.0160677
732.749	0.0160230
732.828	0.0161755
732.906	0.0161949
732.984	0.0159708
733.062	0.0160419
733.140	0.0162322
733.218	0.0160693
733.296	0.0160601
733.374	0.0161321
733.453	0.0160599
733.531	0.0161880
733.609	0.0160800
733.687	0.0160529
733.765	0.0161462
733.843	0.0160893
733.921	0.0158794
733.999	0.0160269
734.078	0.0161643
734.156	0.0160180
734.234	0.0160857
734.312	0.0160340
734.390	0.0161191
734.468	0.0161653
734.546	0.0160732
734.624	0.0160416
734.703	0.0161174
734.781	0.0161285
734.859	0.0161131
734.937	0.0161771
735.015	0.0161333
735.093	0.0160770
735.171	0.0161735
735.249	0.0162526
735.328	0.0161462
735.406	0.0161575
735.484	0.0162288
735.562	0.0161443
735.640	0.0162642
735.718	0.0163045
735.796	0.0163040
735.874	0.0163077
735.953	0.0162683
736.031	0.0163072
736.109	0.0163010
736.187	0.0163013
736.265	0.0162482
736.343	0.0161409
736.421	0.0162132
736.499	0.0161228
736.578	0.0161270
736.656	0.0159975
736.734	0.0161096
736.812	0.0160452
736.890	0.0157307
736.968	0.0158694
737.046	0.0158643
737.124	0.0158113
737.203	0.0156674
737.281	0.0156054
737.359	0.0155083
737.437	0.0155489
737.515	0.0155044
737.593	0.0154068
737.671	0.0155382
737.749	0.0158771
737.828	0.0157728
737.906	0.0158595
737.984	0.0160632
738.062	0.0163037
738.140	0.0164268
738.218	0.0165755
738.296	0.0168069
738.374	0.0166832
738.453	0.0166976
738.531	0.0167673
738.609	0.0167442
738.687	0.0167814
738.765	0.0166576
738.843	0.0165165
738.921	0.0164075
738.999	0.0162931
739.078	0.0161345
739.156	0.0159889
739.234	0.0159113
739.312	0.0158926
739.390	0.0159179
739.468	0.0157990
739.546	0.0157629
739.624	0.0160001
739.703	0.0161620
739.781	0.0161957
739.859	0.0161891
739.937	0.0165154
740.015	0.0165625
740.093	0.0166312
740.171	0.0165081
740.249	0.0166683
740.328	0.0166944
740.406	0.0167326
740.484	0.0167997
740.562	0.0166489
740.640	0.0165370
740.718	0.0163189
740.796	0.0163715
740.874	0.0162515
740.953	0.0159688
741.031	0.0161558
741.109	0.0158438
741.187	0.0155835
741.265	0.0154184
741.343	0.0151971
741.421	0.0148677
741.499	0.0146817
741.578	0.0145950
741.656	0.0143400
741.734	0.0142429
741.812	0.0142927
741.890	0.0143087
741.968	0.0145026
742.046	0.0148075
742.124	0.0153622
742.203	0.0157726
742.281	0.0162660
742.359	0.0166922
742.437	0.0171745
742.515	0.0175504
742.593	0.0177600
742.671	0.0177824
742.749	0.0178766
742.828	0.0178185
742.906	0.0178246
742.984	0.0175312
743.062	0.0173246
743.140	0.0171625
743.218	0.0170000
743.296	0.0168378
743.374	0.0165903
743.453	0.0163247
743.531	0.0163494
743.609	0.0159565
743.687	0.0157651
743.765	0.0156599
743.843	0.0154695
743.921	0.0152335
743.999	0.0151441
744.078	0.0151958
744.156	0.0150133
744.234	0.0151975
744.312	0.0154785
744.390	0.0155632
744.468	0.0159393
744.546	0.0163520
744.624	0.0164857
744.703	0.0167721
744.781	0.0169097
744.859	0.0172329
744.937	0.0174165
745.015	0.0174702
745.093	0.0174146
745.171	0.0173363
745.249	0.0173734
745.328	0.0171496
745.406	0.0167323
745.484	0.0162547
745.562	0.0160400
745.640	0.0156629
745.718	0.0153015
745.796	0.0146661
745.874	0.0146152
745.953	0.0144283
746.031	0.0141573
746.109	0.0143069
746.187	0.0143831
746.265	0.0145686
746.343	0.0147400
746.421	0.0151110
746.499	0.0154026
746.578	0.0157464
746.656	0.0162271
746.734	0.0164780
746.812	0.0167429
746.890	0.0169671
746.968	0.0171549
747.046	0.0173891
747.124	0.0174000
747.203	0.0172448
747.281	0.0170939
747.359	0.0169504
747.437	0.0166144
747.515	0.0161720
747.593	0.0156528
747.671	0.0152316
747.749	0.0148143
747.828	0.0144404
747.906	0.0142693
747.984	0.0140910
748.062	0.0140120
748.140	0.0143102
748.218	0.0146660
748.296	0.0152773
748.374	0.0155665
748.453	0.0160999
748.531	0.0168540
748.609	0.0175054
748.687	0.0180652
748.765	0.0183764
748.843	0.0186707
748.921	0.0188068
748.999	0.0190720
749.078	0.0190660
749.156	0.0189369
749.234	0.0187534
749.312	0.0183991
749.390	0.0179576
749.468	0.0176561
749.546	0.0170805
749.624	0.0167623
749.703	0.0163746
749.781	0.0157352
749.859	0.0155223
749.937	0.0151174
750.015	0.0148817
750.093	0.0146788
750.171	0.0144203
750.249	0.0144046
750.328	0.0143534
750.406	0.0141956
750.484	0.0141399
750.562	0.0141436
750.640	0.0141367
750.718	0.0141151
750.796	0.0142201
750.874	0.0141479
750.953	0.0144647
751.031	0.0147934
751.109	0.0149701
751.187	0.0151016
751.265	0.0153970
751.343	0.0158209
751.421	0.0162173
751.499	0.0164033
751.578	0.0166413
751.656	0.0167914
751.734	0.0168618
751.812	0.0171478
751.890	0.0173035
751.968	0.0172573
752.046	0.0172749
752.124	0.0171380
752.203	0.0170931
752.281	0.0172240
752.359	0.0170807
752.437	0.0170207
752.515	0.0169355
752.593	0.0166991
752.671	0.0167065
752.749	0.0164880
752.828	0.0163980
752.906	0.0163358
752.984	0.0162466
753.062	0.0164073
753.140	0.0164364
753.218	0.0165164
753.296	0.0166975
753.374	0.0168268
753.453	0.0167934
753.531	0.0169453
753.609	0.0168925
753.687	0.0167580
753.765	0.0166811
753.843	0.0165025
753.921	0.0163078
753.999	0.0159876
754.078	0.0158424
754.156	0.0156918
754.234	0.0154034
754.312	0.0153712
754.390	0.0150676
754.468	0.0148956
754.546	0.0148968
754.624	0.0147462
754.703	0.0149474
754.781	0.0148026
754.859	0.0147146
754.937	0.0146872
755.015	0.0147955
755.093	0.0148009
755.171	0.0149200
755.249	0.0149236
755.328	0.0151479
755.406	0.0152818
755.484	0.0155517
755.562	0.0158359
755.640	0.0160475
755.718	0.0164425
755.796	0.0169238
755.874	0.0171989
755.953	0.0175898
756.031	0.0178403
756.109	0.0179911
756.187	0.0181619
756.265	0.0180381
756.343	0.0181575
756.421	0.0180255
756.499	0.0180033
756.578	0.0177922
756.656	0.0175719
756.734	0.0174387
756.812	0.0171104
756.890	0.0169614
756.968	0.0168930
757.046	0.0166423
757.124	0.0163532
757.203	0.0164829
757.281	0.0162783
757.359	0.0159095
757.437	0.0159898
757.515	0.0158988
757.593	0.0156725
757.671	0.0156480
757.749	0.0154298
757.828	0.0153017
757.906	0.0151871
757.984	0.0148102
758.062	0.0146664
758.140	0.0144714
758.218	0.0142912
758.296	0.0140231
758.374	0.0136266
758.453	0.0134268
758.531	0.0131354
758.609	0.0130206
758.687	0.0129210
758.765	0.0128953
758.843	0.0130618
758.921	0.0129693
758.999	0.0134181
759.078	0.0137458
759.156	0.0143870
759.234	0.0149749
759.312	0.0157004
759.390	0.0164194
759.468	0.0173068
759.546	0.0179829
759.624	0.0187464
759.703	0.0196126
759.781	0.0202773
759.859	0.0207861
759.937	0.0212025
760.015	0.0213733
760.093	0.0217274
760.171	0.0216824
760.249	0.0216053
760.328	0.0212635
760.406	0.0208183
760.484	0.0204631
760.562	0.0200018
760.640	0.0192289
760.718	0.0188863
760.796	0.0182922
760.874	0.0174812
760.953	0.0168958
761.031	0.0162862
761.109	0.0156099
761.187	0.0148721
761.265	0.0142704
761.343	0.0136366
761.421	0.0132128
761.499	0.0126796
761.578	0.0123090
761.656	0.0121926
761.734	0.0119042
761.812	0.0116764
761.890	0.0116460
761.968	0.0116031
762.046	0.0113351
762.124	0.0114906
762.203	0.0114239
762.281	0.0112795
762.359	0.0112283
762.437	0.0114278
762.515	0.0116307
762.593	0.0116902
762.671	0.0119846
762.749	0.0125094
762.828	0.0130013
762.906	0.0137294
762.984	0.0145519
763.062	0.0154179
763.140	0.0161075
763.218	0.0170098
763.296	0.0179450
763.374	0.0187099
763.453	0.0195199
763.531	0.0204249
763.609	0.0213179
763.687	0.0218298
763.765	0.0224229
763.843	0.0229277
763.921	0.0232023
763.999	0.0235382
764.078	0.0234988
764.156	0.0231979
764.234	0.0224615
764.312	0.0218716
764.390	0.0210286
764.468	0.0200268
764.546	0.0189047
764.624	0.0178941
764.703	0.0168935
764.781	0.0163008
764.859	0.0155422
764.937	0.0149930
765.015	0.0147675
765.093	0.0143963
765.171	0.0142882
765.249	0.0142976
765.328	0.0144390
765.406	0.0144067
765.484	0.0143711
765.562	0.0144767
765.640	0.0145801
765.718	0.0143787
765.796	0.0144950
765.874	0.0141811
765.953	0.0140050
766.031	0.0137491
766.109	0.0135049
766.187	0.0133805
766.265	0.0129219
766.343	0.0125667
766.421	0.0122702
766.499	0.0119522
766.578	0.0115657
766.656	0.0114149
766.734	0.0110314
766.812	0.0108877
766.890	0.0110237
766.968	0.0110458
767.046	0.0114301
767.124	0.0120356
767.203	0.0128273
767.281	0.0136517
767.359	0.0145278
767.437	0.0156749
767.515	0.0166228
767.593	0.0173648
767.671	0.0184542
767.749	0.0191064
767.828	0.0197434
767.906	0.0202937
767.984	0.0205180
768.062	0.0209803
768.140	0.0212077
768.218	0.0213566
768.296	0.0216428
768.374	0.0214856
768.453	0.0216332
768.531	0.0214274
768.609	0.0212457
768.687	0.0207126
768.765	0.0203140
768.843	0.0196117
768.921	0.0191484
768.999	0.0184010
769.078	0.0178732
769.156	0.0172496
769.234	0.0168087
769.312	0.0163437
769.390	0.0158403
769.468	0.0156214
769.546	0.0152212
769.624	0.0150233
769.703	0.0149833
769.781	0.0149395
769.859	0.0148151
769.937	0.0149208
770.015	0.0150389
770.093	0.0150061
770.171	0.0150832
770.249	0.0151368
770.328	0.0151317
770.406	0.0150684
770.484	0.0151967
770.562	0.0149854
770.640	0.0147308
770.718	0.0144434
770.796	0.0141412
770.874	0.0139095
770.953	0.0134162
771.031	0.0130161
771.109	0.0127216
771.187	0.0124053
771.265	0.0119366
771.343	0.0114214
771.421	0.0114111
771.499	0.0112714
771.578	0.0111598
771.656	0.0114093
771.734	0.0116893
771.812	0.0121558
771.890	0.0127287
771.968	0.0134338
772.046	0.0141904
772.124	0.0150034
772.203	0.0159752
772.281	0.0167554
772.359	0.0174677
772.437	0.0181753
772.515	0.0188961
772.593	0.0194489
772.671	0.0199342
772.749	0.0204179
772.828	0.0206374
772.906	0.0208595
772.984	0.0209995
773.062	0.0210687
773.140	0.0211609
773.218	0.0210934
773.296	0.0209998
773.374	0.0206606
773.453	0.0206865
773.531	0.0202840
773.609	0.0200227
773.687	0.0197000
773.765	0.0194820
773.843	0.0191759
773.921	0.0188490
773.999	0.0185012
774.078	0.0180018
774.156	0.0175821
774.234	0.0170377
774.312	0.0165282
774.390	0.0161192
774.468	0.0157778
774.546	0.0150520
774.624	0.0146635
774.703	0.0142171
774.781	0.0138548
774.859	0.0134119
774.937	0.0128185
775.015	0.0125621
775.093	0.0121762
775.171	0.0117248
775.249	0.0115350
775.328	0.0111703
775.406	0.0109288
775.484	0.0105840
775.562	0.0107557
775.640	0.0108778
775.718	0.0110065
775.796	0.0110464
775.874	0.0113506
775.953	0.0118304
776.031	0.0123962
776.109	0.0129088
776.187	0.0137445
776.265	0.0142358
776.343	0.0151100
776.421	0.0159767
776.499	0.0169445
776.578	0.0178025
776.656	0.0185619
776.734	0.0193089
776.812	0.0201009
776.890	0.0206512
776.968	0.0211185
777.046	0.0212467
777.124	0.0215502
777.203	0.0216106
777.281	0.0214445
777.359	0.0210365
777.437	0.0208191
777.515	0.0203699
777.593	0.0197999
777.671	0.0191505
777.749	0.0186048
777.828	0.0182597
777.906	0.0176703
777.984	0.0172318
778.062	0.0168458
778.140	0.0165104
778.218	0.0162566
778.296	0.0160913
778.374	0.0157961
778.453	0.0158763
778.531	0.0154689
778.609	0.0153975
778.687	0.0152978
778.765	0.0151518
778.843	0.0149474
778.921	0.0147566
778.999	0.0145292
779.078	0.0144173
779.156	0.0140899
779.234	0.0139050
779.312	0.0138335
779.390	0.0135672
779.468	0.0133575
779.546	0.0133679
779.624	0.0132570
779.703	0.0133350
779.781	0.0134632
779.859	0.0134060
779.937	0.0135680
780.015	0.0136086
780.093	0.0136096
780.171	0.0138316
780.249	0.0140484
780.328	0.0142448
780.406	0.0145507
780.484	0.0148602
780.562	0.0151455
780.640	0.0154365
780.718	0.0158798
780.796	0.0165899
780.874	0.0169064
780.953	0.0174656
781.031	0.0181508
781.109	0.0184995
781.187	0.0190742
781.265	0.0196541
781.343	0.0199406
781.421	0.0201100
781.499	0.0204191
781.578	0.0205897
781.656	0.0206755
781.734	0.0206211
781.812	0.0204417
781.890	0.0201918
781.968	0.0196672
782.046	0.0190965
782.124	0.0185883
782.203	0.0179397
782.281	0.0173283
782.359	0.0165569
782.437	0.0159171
782.515	0.0153265
782.593	0.0148262
782.671	0.0142513
782.749	0.0138141
782.828	0.0135832
782.906	0.0132897
782.984	0.0130565
783.062	0.0129279
783.140	0.0128478
783.218	0.0128477
783.296	0.0129229
783.374	0.0131281
783.453	0.0131523
783.531	0.0133092
783.609	0.0135752
783.687	0.0137942
783.765	0.0139435
783.843	0.0141837
783.921	0.0143755
783.999	0.0144084
784.078	0.0147292
784.156	0.0150864
784.234	0.0153529
784.312	0.0154523
784.390	0.0155042
784.468	0.0157655
784.546	0.0160427
784.624	0.0161675
784.703	0.0160823
784.781	0.0162653
784.859	0.0165040
784.937	0.0166038
785.015	0.0168466
785.093	0.0169478
785.171	0.0172780
785.249	0.0174712
785.328	0.0178790
785.406	0.0181841
785.484	0.0185240
785.562	0.0189060
785.640	0.0190639
785.718	0.0191410
785.796	0.0192995
785.874	0.0194202
785.953	0.0193121
786.031	0.0194443
786.109	0.0193891
786.187	0.0192580
786.265	0.0191222
786.343	0.0187933
786.421	0.0184891
786.499	0.0179816
786.578	0.0174474
786.656	0.0170160
786.734	0.0164880
786.812	0.0159769
786.890	0.0154195
786.968	0.0148373
787.046	0.0143031
787.124	0.0138616
787.203	0.0134195
787.281	0.0129610
787.359	0.0127450
787.437	0.0125822
787.515	0.0126530
787.593	0.0125617
787.671	0.0126694
787.749	0.0130261
787.828	0.0132543
787.906	0.0135195
787.984	0.0139017
788.062	0.0141684
788.140	0.0143911
788.218	0.0147849
788.296	0.0151076
788.374	0.0153311
788.453	0.0155354
788.531	0.0159026
788.609	0.0159615
788.687	0.0162528
788.765	0.0165648
788.843	0.0165429
788.921	0.0167548
788.999	0.0170531
789.078	0.0167448
789.156	0.0168620
789.234	0.0169418
789.312	0.0168721
789.390	0.0167272
789.468	0.0166940
789.546	0.0166770
789.624	0.0166711
789.703	0.0167078
789.781	0.0168006
789.859	0.0167676
789.937	0.0168050
790.015	0.0170522
790.093	0.0171151
790.171	0.0171096
790.249	0.0170971
790.328	0.0171648
790.406	0.0172771
790.484	0.0173083
790.562	0.0175291
790.640	0.0174737
790.718	0.0175999
790.796	0.0174692
790.874	0.0174765
790.953	0.0174751
791.031	0.0174360
791.109	0.0171451
791.187	0.0170525
791.265	0.0167740
791.343	0.0166453
791.421	0.0163659
791.499	0.0162294
791.578	0.0158893
791.656	0.0156819
791.734	0.0155210
791.812	0.0150728
791.890	0.0148573
791.968	0.0148299
792.046	0.0146357
792.124	0.0145304
792.203	0.0144954
792.281	0.0144730
792.359	0.0146494
792.437	0.0148192
792.515	0.0148129
792.593	0.0149448
792.671	0.0152511
792.749	0.0153796
792.828	0.0155280
792.906	0.0159488
792.984	0.0160719
793.062	0.0161507
793.140	0.0162524
793.218	0.0163048
793.296	0.0163706
793.374	0.0165920
793.453	0.0165166
793.531	0.0163993
793.609	0.0165002
793.687	0.0163029
793.765	0.0161205
793.843	0.0161342
793.921	0.0158566
793.999	0.0158439
794.078	0.0157531
794.156	0.0156631
794.234	0.0155128
794.312	0.0153921
794.390	0.0154302
794.468	0.0155342
794.546	0.0154844
794.624	0.0153965
794.703	0.0156708
794.781	0.0155806
794.859	0.0157043
794.937	0.0159804
795.015	0.0157916
795.093	0.0160006
795.171	0.0163996
795.249	0.0164715
795.328	0.0166089
795.406	0.0166947
795.484	0.0168764
795.562	0.0170422
795.640	0.0171133
795.718	0.0170084
795.796	0.0171090
795.874	0.0170171
795.953	0.0170506
796.031	0.0169864
796.109	0.0168325
796.187	0.0168335
796.265	0.0166965
796.343	0.0164702
796.421	0.0162822
796.499	0.0161121
796.578	0.0160406
796.656	0.0158260
796.734	0.0156850
796.812	0.0156454
796.890	0.0155560
796.968	0.0155687
797.046	0.0153927
797.124	0.0155861
797.203	0.0155856
797.281	0.0155906
797.359	0.0157261
797.437	0.0158392
797.515	0.0157797
797.593	0.0161425
797.671	0.0160285
797.749	0.0162067
797.828	0.0163017
797.906	0.0163683
797.984	0.0163639
798.062	0.0163470
798.140	0.0162921
798.218	0.0162749
798.296	0.0161308
798.374	0.0160568
798.453	0.0160859
798.531	0.0159882
798.609	0.0158630
798.687	0.0159001
798.765	0.0159181
798.843	0.0157830
798.921	0.0157085
798.999	0.0156692
799.078	0.0159003
799.156	0.0156752
799.234	0.0154737
799.312	0.0156744
799.390	0.0156413
799.468	0.0156310
799.546	0.0155190
799.624	0.0156906
799.703	0.0156766
799.781	0.0159077
799.859	0.0157951
799.937	0.0158271
800.015	0.0159447
800.093	0.0161106
800.171	0.0161037
800.249	0.0161947
800.328	0.0163126
800.406	0.0163152
800.484	0.0165112
800.562	0.0165693
800.640	0.0165731
800.718	0.0165553
800.796	0.0163005
800.874	0.0163042
800.953	0.0162455
801.031	0.0161246
801.109	0.0160777
801.187	0.0160870
801.265	0.0159208
801.343	0.0159333
801.421	0.0158805
801.499	0.0158519
801.578	0.0159240
801.656	0.0159197
801.734	0.0160544
801.812	0.0160672
801.890	0.0160796
801.968	0.0161530
802.046	0.0162994
802.124	0.0163141
802.203	0.0165324
802.281	0.0165491
802.359	0.0166818
802.437	0.0166097
802.515	0.0163877
802.593	0.0164483
802.671	0.0163590
802.749	0.0164753
802.828	0.0163582
802.906	0.0162581
802.984	0.0160849
803.062	0.0161427
803.140	0.0161401
803.218	0.0161445
803.296	0.0162697
803.374	0.0162066
803.453	0.0162487
803.531	0.0162993
803.609	0.0164370
803.687	0.0163419
803.765	0.0163039
803.843	0.0162751
803.921	0.0162770
803.999	0.0162258
804.078	0.0161721
804.156	0.0161366
804.234	0.0158858
804.312	0.0160381
804.390	0.0159194
804.468	0.0157995
804.546	0.0158524
804.624	0.0156420
804.703	0.0155933
804.781	0.0156525
804.859	0.0156321
804.937	0.0156797
805.015	0.0157294
805.093	0.0157829
805.171	0.0157288
805.249	0.0157954
805.328	0.0158620
805.406	0.0156763
805.484	0.0158524
805.562	0.0159388
805.640	0.0160281
805.718	0.0160175
805.796	0.0160116
805.874	0.0159857
805.953	0.0159802
806.031	0.0159354
806.109	0.0161491
806.187	0.0162066
806.265	0.0161361
806.343	0.0161786
806.421	0.0161582
806.499	0.0162763
806.578	0.0162818
806.656	0.0163284
806.734	0.0163954
806.812	0.0163636
806.890	0.0163160
806.968	0.0162228
807.046	0.0163136
807.124	0.0163272
807.203	0.0162803
807.281	0.0163438
807.359	0.0161945
807.437	0.0160779
807.515	0.0162078
807.593	0.0161789
807.671	0.0161597
807.749	0.0161216
807.828	0.0159562
807.906	0.0161072
807.984	0.0159175
808.062	0.0160141
808.140	0.0160312
808.218	0.0162231
808.296	0.0162276
808.374	0.0162440
808.453	0.0162102
808.531	0.0162265
808.609	0.0161907
808.687	0.0161655
808.765	0.0161540
808.843	0.0162431
808.921	0.0162403
808.999	0.0163104
809.078	0.0163111
809.156	0.0161951
809.234	0.0164772
809.312	0.0163551
809.390	0.0163384
809.468	0.0165058
809.546	0.0166168
809.624	0.0164411
809.703	0.0165097
809.781	0.0164310
809.859	0.0163875
809.937	0.0163880
810.015	0.0163357
810.093	0.0162264
810.171	0.0161980
810.249	0.0161015
810.328	0.0160919
810.406	0.0160130
810.484	0.0158163
810.562	0.0156933
810.640	0.0156825
810.718	0.0156525
810.796	0.0156017
810.874	0.0156714
810.953	0.0158035
811.031	0.0157902
811.109	0.0159776
811.187	0.0159535
811.265	0.0159942
811.343	0.0159093
811.421	0.0158955
811.499	0.0159949
811.578	0.0161624
811.656	0.0161091
811.734	0.0160345
811.812	0.0160726
811.890	0.0160389
811.968	0.0162260
812.046	0.0160931
812.124	0.0161510
812.203	0.0160718
812.281	0.0160370
812.359	0.0160415
812.437	0.0159903
812.515	0.0161094
812.593	0.0160442
812.671	0.0160911
812.749	0.0161115
812.828	0.0160532
812.906	0.0160292
812.984	0.0161578
813.062	0.0161355
813.140	0.0161360
813.218	0.0160781
813.296	0.0159806
813.374	0.0160624
813.453	0.0161819
813.531	0.0161380
813.609	0.0161201
813.687	0.0161684
813.765	0.0161253
813.843	0.0162358
813.921	0.0160938
813.999	0.0161365
814.078	0.0160716
814.156	0.0159761
814.234	0.0160957
814.312	0.0160532
814.390	0.0160489
814.468	0.0160300
814.546	0.0160563
814.624	0.0159461
814.703	0.0159245
814.781	0.0158241
814.859	0.0159925
814.937	0.0161500
815.015	0.0159349
815.093	0.0158747
815.171	0.0159455
815.249	0.0160963
815.328	0.0161996
815.406	0.0161656
815.484	0.0163026
815.562	0.0163427
815.640	0.0162940
815.718	0.0163137
815.796	0.0162890
815.874	0.0164661
815.953	0.0163005
816.031	0.0161996
816.109	0.0162544
816.187	0.0162414
816.265	0.0162829
816.343	0.0163339
816.421	0.0161538
816.499	0.0161880
816.578	0.0161683
816.656	0.0162313
816.734	0.0162225
816.812	0.0161648
816.890	0.0161502
816.968	0.0162003
817.046	0.0163322
817.124	0.0162474
817.203	0.0161174
817.281	0.0160315
817.359	0.0161585
817.437	0.0161565
817.515	0.0161041
817.593	0.0161504
817.671	0.0161132
817.749	0.0160403
817.828	0.0162264
817.906	0.0159467
817.984	0.0158797
818.062	0.0158696
818.140	0.0158881
818.218	0.0158962
818.296	0.0157365
818.374	0.0157630
818.453	0.0158601
818.531	0.0159040
818.609	0.0157899
818.687	0.0157348
818.765	0.0157552
818.843	0.0157181
818.921	0.0156988
818.999	0.0157562
819.078	0.0158310
819.156	0.0157325
819.234	0.0157836
819.312	0.0158205
819.390	0.0159253
819.468	0.0159073
819.546	0.0158134
819.624	0.0159538
819.703	0.0160783
819.781	0.0159492
819.859	0.0160838
819.937	0.0161086
820.015	0.0161888
820.093	0.0160941
820.171	0.0161858
820.249	0.0161681
820.328	0.0161887
820.406	0.0161575
820.484	0.0161917
820.562	0.0161703
820.640	0.0162521
820.718	0.0162709
820.796	0.0161141
820.874	0.0162298
820.953	0.0162834
821.031	0.0161953
821.109	0.0162354
821.187	0.0161454
821.265	0.0162101
821.343	0.0164117
821.421	0.0163692
821.499	0.0163985
821.578	0.0164754
821.656	0.0165643
821.734	0.0164968
821.812	0.0165688
821.890	0.0166214
821.968	0.0167056
822.046	0.0165919
822.124	0.0166090
822.203	0.0165745
822.281	0.0164242
822.359	0.0163948
822.437	0.0161872
822.515	0.0161977
822.593	0.0162816
822.671	0.0161622
822.749	0.0159943
822.828	0.0159560
822.906	0.0157837
822.984	0.0158401
823.062	0.0157294
823.140	0.0154892
823.218	0.0156348
823.296	0.0156329
823.374	0.0155163
823.453	0.0155893
823.531	0.0155453
823.609	0.0156129
823.687	0.0156697
823.765	0.0156982
823.843	0.0158330
823.921	0.0156774
823.999	0.0157175
824.078	0.0156273
824.156	0.0158335
824.234	0.0158441
824.312	0.0159447
824.390	0.0159872
824.468	0.0159045
824.546	0.0158353
824.624	0.0159058
824.703	0.0160379
824.781	0.0160262
824.859	0.0159636
824.937	0.0160883
825.015	0.0159917
825.093	0.0161367
825.171	0.0161295
825.249	0.0161786
825.328	0.0162592
825.406	0.0163818
825.484	0.0163541
825.562	0.0162709
825.640	0.0163317
825.718	0.0164817
825.796	0.0165177
825.874	0.0163008
825.953	0.0163655
826.031	0.0162756
826.109	0.0163031
826.187	0.0162965
826.265	0.0161730
826.343	0.0161147
826.421	0.0161781
826.499	0.0161004
826.578	0.0161349
826.656	0.0161012
826.734	0.0161717
826.812	0.0160676
826.890	0.0160777
826.968	0.0161593
827.046	0.0161252
827.124	0.0160838
827.203	0.0160629
827.281	0.0161198
827.359	0.0161012
827.437	0.0161551
827.515	0.0160725
827.593	0.0160964
827.671	0.0161641
827.749	0.0160253
827.828	0.0161436
827.906	0.0160530
827.984	0.0161211
828.062	0.0160962
828.140	0.0160883
828.218	0.0161665
828.296	0.0161116
828.374	0.0161155
828.453	0.0160628
828.531	0.0160991
828.609	0.0160815
828.687	0.0162386
828.765	0.0163151
828.843	0.0161550
828.921	0.0161535
828.999	0.0162054
829.078	0.0162272
829.156	0.0161994
829.234	0.0163059
829.312	0.0161490
829.390	0.0161983
829.468	0.0162418
829.546	0.0162840
829.624	0.0161790
829.703	0.0161432
829.781	0.0161430
829.859	0.0162724
829.937	0.0159665
830.015	0.0160480
830.093	0.0158395
830.171	0.0158514
830.249	0.0158624
830.328	0.0157497
830.406	0.0157896
830.484	0.0157789
830.562	0.0157424
830.640	0.0158657
830.718	0.0158202
830.796	0.0157242
830.874	0.0159870
830.953	0.0158891
831.031	0.0158885
831.109	0.0159570
831.187	0.0160510
831.265	0.0160308
831.343	0.0160649
831.421	0.0161209
831.499	0.0160912
831.578	0.0162711
831.656	0.0161333
831.734	0.0162091
831.812	0.0160229
831.890	0.0161552
831.968	0.0160760
832.046	0.0160414
832.124	0.0161617
832.203	0.0159644
832.281	0.0159332
832.359	0.0159161
832.437	0.0160113
832.515	0.0159677
832.593	0.0160294
832.671	0.0159267
832.749	0.0159933
832.828	0.0160816
832.906	0.0159353
832.984	0.0158965
833.062	0.0160525
833.140	0.0161973
833.218	0.0161659
833.296	0.0162025
833.374	0.0164033
833.453	0.0163773
833.531	0.0164458
833.609	0.0163828
833.687	0.0164943
833.765	0.0164611
833.843	0.0165690
833.921	0.0165836
833.999	0.0164609
834.078	0.0164481
834.156	0.0164577
834.234	0.0166205
834.312	0.0164564
834.390	0.0163836
834.468	0.0163598
834.546	0.0161903
834.624	0.0161530
834.703	0.0161541
834.781	0.0160625
834.859	0.0161391
834.937	0.0160274
835.015	0.0160334
835.093	0.0158826
835.171	0.0159427
835.249	0.0159325
835.328	0.0158898
835.406	0.0158950
835.484	0.0157254
835.562	0.0157087
835.640	0.0159492
835.718	0.0158334
835.796	0.0159150
835.874	0.0158982
835.953	0.0158285
836.031	0.0158194
836.109	0.0156115
836.187	0.0158156
836.265	0.0157677
836.343	0.0158549
836.421	0.0158808
836.499	0.0157274
836.578	0.0157028
836.656	0.0158555
836.734	0.0158282
836.812	0.0157851
836.890	0.0156641
836.968	0.0160126
837.046	0.0159403
837.124	0.0159527
837.203	0.0160157
837.281	0.0161988
837.359	0.0161200
837.437	0.0162402
837.515	0.0161589
837.593	0.0163331
837.671	0.0163997
837.749	0.0164967
837.828	0.0165062
837.906	0.0164831
837.984	0.0162162
838.062	0.0165723
838.140	0.0164991
838.218	0.0164951
838.296	0.0165240
838.374	0.0164023
838.453	0.0164781
838.531	0.0164561
838.609	0.0163443
838.687	0.0163025
838.765	0.0161958
838.843	0.0161697
838.921	0.0161560
838.999	0.0162119
839.078	0.0161905
839.156	0.0160700
839.234	0.0160857
839.312	0.0160275
839.390	0.0161882
839.468	0.0161488
839.546	0.0160241
839.624	0.0159954
839.703	0.0161198
839.781	0.0159795
839.859	0.0161682
839.937	0.0160148
840.015	0.0160160
840.093	0.0160580
840.171	0.0159155
840.249	0.0157817
840.328	0.0158841
840.406	0.0158555
840.484	0.0157967
840.562	0.0157909
840.640	0.0158437
840.718	0.0158578
840.796	0.0158112
840.874	0.0158613
840.953	0.0159357
841.031	0.0158717
841.109	0.0159136
841.187	0.0158902
841.265	0.0159611
841.343	0.0159785
841.421	0.0159637
841.499	0.0159820
841.578	0.0162135
841.656	0.0161764
841.734	0.0161126
841.812	0.0160664
841.890	0.0161412
841.968	0.0162279
842.046	0.0163336
842.124	0.0162730
842.203	0.0164148
842.281	0.0164171
842.359	0.0164034
842.437	0.0164085
842.515	0.0163770
842.593	0.0162795
842.671	0.0165332
842.749	0.0163736
842.828	0.0162861
842.906	0.0163976
842.984	0.0163326
843.062	0.0162132
843.140	0.0162328
843.218	0.0162082
843.296	0.0160978
843.374	0.0160995
843.453	0.0160400
843.531	0.0159824
843.609	0.0161409
843.687	0.0161138
843.765	0.0160471
843.843	0.0161015
843.921	0.0160166
843.999	0.0159010
844.078	0.0160386
844.156	0.0159845
844.234	0.0159562
844.312	0.0160130
844.390	0.0159091
844.468	0.0159809
844.546	0.0160259
844.624	0.0159116
844.703	0.0160017
844.781	0.0160429
844.859	0.0160581
844.937	0.0160538
845.015	0.0160049
845.093	0.0160217
845.171	0.0160842
845.249	0.0159540
845.328	0.0159596
845.406	0.0160220
845.484	0.0159047
845.562	0.0157944
845.640	0.0157901
845.718	0.0160608
845.796	0.0160893
845.874	0.0162157
845.953	0.0160904
846.031	0.0161403
846.109	0.0161950
846.187	0.0161283
846.265	0.0163358
846.343	0.0163669
846.421	0.0163548
846.499	0.0163896
846.578	0.0162295
846.656	0.0162858
846.734	0.0164313
846.812	0.0163568
846.890	0.0162662
846.968	0.0163087
847.046	0.0162750
847.124	0.0162245
847.203	0.0162595
847.281	0.0162557
847.359	0.0161185
847.437	0.0160617
847.515	0.0161106
847.593	0.0160143
847.671	0.0159338
847.749	0.0160028
847.828	0.0160383
847.906	0.0160191
847.984	0.0160512
848.062	0.0159640
848.140	0.0160548
848.218	0.0159721
848.296	0.0159003
848.374	0.0159229
848.453	0.0158599
848.531	0.0158142
848.609	0.0158615
848.687	0.0158652
848.765	0.0158070
848.843	0.0158026
848.921	0.0157274
848.999	0.0157966
849.078	0.0157323
849.156	0.0158669
849.234	0.0159295
849.312	0.0158646
849.390	0.0157971
849.468	0.0159515
849.546	0.0159687
849.624	0.0160611
849.703	0.0161878
849.781	0.0161758
849.859	0.0161613
849.937	0.0160837
850.015	0.0161837
850.093	0.0163552
850.171	0.0162693
850.249	0.0163291
850.328	0.0162406
850.406	0.0161942
850.484	0.0162326
850.562	0.0163418
850.640	0.0162166
850.718	0.0161393
850.796	0.0160392
850.874	0.0161684
850.953	0.0159870
851.031	0.0159355
851.109	0.0159821
851.187	0.0158715
851.265	0.0158523
851.343	0.0158035
851.421	0.0158051
851.499	0.0159061
851.578	0.0159235
851.656	0.0159292
851.734	0.0158740
851.812	0.0159908
851.890	0.0159856
851.968	0.0160996
852.046	0.0160755
852.124	0.0160567
852.203	0.0162584
852.281	0.0161251
852.359	0.0163053
852.437	0.0162621
852.515	0.0162329
852.593	0.0161800
852.671	0.0163361
852.749	0.0163248
852.828	0.0162784
852.906	0.0162671
852.984	0.0161848
853.062	0.0161885
853.140	0.0163023
853.218	0.0162183
853.296	0.0162067
853.374	0.0162424
853.453	0.0160916
853.531	0.0159167
853.609	0.0159859
853.687	0.0158827
853.765	0.0159576
853.843	0.0160464
853.921	0.0159238
853.999	0.0160265
854.078	0.0160530
854.156	0.0158187
854.234	0.0160709
854.312	0.0159356
854.390	0.0159062
854.468	0.0158494
854.546	0.0158910
854.624	0.0158614
854.703	0.0160216
854.781	0.0159107
854.859	0.0157844
854.937	0.0155772
855.015	0.0156433
855.093	0.0157022
855.171	0.0155540
855.249	0.0154823
855.328	0.0155979
855.406	0.0156097
855.484	0.0155360
855.562	0.0156070
855.640	0.0157097
855.718	0.0156042
855.796	0.0157464
855.874	0.0158587
855.953	0.0158671
856.031	0.0160557
856.109	0.0161343
856.187	0.0160040
856.265	0.0162447
856.343	0.0163736
856.421	0.0165662
856.499	0.0167330
856.578	0.0168146
856.656	0.0168014
856.734	0.0168245
856.812	0.0167939
856.890	0.0168141
856.968	0.0168264
857.046	0.0168474
857.124	0.0169545
857.203	0.0167832
857.281	0.0166098
857.359	0.0167274
857.437	0.0166525
857.515	0.0164712
857.593	0.0164140
857.671	0.0162782
857.749	0.0161594
857.828	0.0161965
857.906	0.0159881
857.984	0.0158923
858.062	0.0158434
858.140	0.0157063
858.218	0.0156474
858.296	0.0155634
858.374	0.0153924
858.453	0.0152831
858.531	0.0152618
858.609	0.0152148
858.687	0.0151398
858.765	0.0150197
858.843	0.0148908
858.921	0.0149950
858.999	0.0150299
859.078	0.0151355
859.156	0.0149330
859.234	0.0151452
859.312	0.0152998
859.390	0.0152361
859.468	0.0154323
859.546	0.0155567
859.624	0.0156854
859.703	0.0157220
859.781	0.0159964
859.859	0.0161258
859.937	0.0161073
860.015	0.0165016
860.093	0.0165070
860.171	0.0166636
860.249	0.0169021
860.328	0.0169505
860.406	0.0170107
860.484	0.0171682
860.562	0.0172053
860.640	0.0171798
860.718	0.0173401
860.796	0.0173034
860.874	0.0171674
860.953	0.0173112
861.031	0.0171648
861.109	0.0171851
861.187	0.0170838
861.265	0.0167672
861.343	0.0167290
861.421	0.0166982
861.499	0.0165796
861.578	0.0166185
861.656	0.0165115
861.734	0.0162422
861.812	0.0162293
861.890	0.0161189
861.968	0.0159274
862.046	0.0159068
862.124	0.0158637
862.203	0.0156783
862.281	0.0156261
862.359	0.0156084
862.437	0.0154699
862.515	0.0154031
862.593	0.0152270
862.671	0.0152386
862.749	0.0153315
862.828	0.0151580
862.906	0.0148857
862.984	0.0149410
863.062	0.0149538
863.140	0.0149212
863.218	0.0148322
863.296	0.0147957
863.374	0.0148837
863.453	0.0149676
863.531	0.0149627
863.609	0.0151687
863.687	0.0153362
863.765	0.0153876
863.843	0.0155444
863.921	0.0156820
863.999	0.0159348
864.078	0.0161215
864.156	0.0162629
864.234	0.0163798
864.312	0.0165175
864.390	0.0167902
864.468	0.0169470
864.546	0.0170320
864.624	0.0170951
864.703	0.0170332
864.781	0.0171719
864.859	0.0172598
864.937	0.0173472
865.015	0.0170934
865.093	0.0172066
865.171	0.0171677
865.249	0.0170798
865.328	0.0169861
865.406	0.0167799
865.484	0.0168064
865.562	0.0166581
865.640	0.0164787
865.718	0.0163477
865.796	0.0163782
865.874	0.0163096
865.953	0.0162443
866.031	0.0161971
866.109	0.0159605
866.187	0.0158775
866.265	0.0159940
866.343	0.0157715
866.421	0.0158414
866.499	0.0158122
866.578	0.0157311
866.656	0.0157085
866.734	0.0157878
866.812	0.0156165
866.890	0.0154972
866.968	0.0157139
867.046	0.0155244
867.124	0.0155575
867.203	0.0154092
867.281	0.0154655
867.359	0.0155199
867.437	0.0153892
867.515	0.0155853
867.593	0.0155136
867.671	0.0154088
867.749	0.0153542
867.828	0.0154451
867.906	0.0154939
867.984	0.0155839
868.062	0.0157323
868.140	0.0156107
868.218	0.0157659
868.296	0.0158994
868.374	0.0159823
868.453	0.0160124
868.531	0.0161489
868.609	0.0162186
868.687	0.0162061
868.765	0.0161582
868.843	0.0163964
868.921	0.0165124
868.999	0.0165993
869.078	0.0164938
869.156	0.0163370
869.234	0.0163810
869.312	0.0164491
869.390	0.0164326
869.468	0.0165731
869.546	0.0165530
869.624	0.0166663
869.703	0.0165977
869.781	0.0166312
869.859	0.0165530
869.937	0.0165539
870.015	0.0166805
870.093	0.0166996
870.171	0.0165260
870.249	0.0165128
870.328	0.0165469
870.406	0.0164258
870.484	0.0164098
870.562	0.0163952
870.640	0.0164411
870.718	0.0161786
870.796	0.0161008
870.874	0.0162550
870.953	0.0161060
871.031	0.0159108
871.109	0.0159776
871.187	0.0157610
871.265	0.0156463
871.343	0.0156468
871.421	0.0157144
871.499	0.0157240
871.578	0.0155352
871.656	0.0155570
871.734	0.0155476
871.812	0.0154664
871.890	0.0156226
871.968	0.0154776
872.046	0.0155527
872.124	0.0153556
872.203	0.0154978
872.281	0.0154721
872.359	0.0153325
872.437	0.0154545
872.515	0.0155511
872.593	0.0155102
872.671	0.0156129
872.749	0.0158123
872.828	0.0157605
872.906	0.0158618
872.984	0.0159929
873.062	0.0159501
873.140	0.0161863
873.218	0.0162221
873.296	0.0162764
873.374	0.0163147
873.453	0.0164410
873.531	0.0164134
873.609	0.0165529
873.687	0.0165556
873.765	0.0166071
873.843	0.0164516
873.921	0.0166747
873.999	0.0166530
874.078	0.0164971
874.156	0.0163549
874.234	0.0163665
874.312	0.0162679
874.390	0.0162651
874.468	0.0163351
874.546	0.0160874
874.624	0.0160946
874.703	0.0160452
874.781	0.0160120
874.859	0.0159900
874.937	0.0160244
875.015	0.0160062
875.093	0.0160239
875.171	0.0161071
875.249	0.0161250
875.328	0.0159883
875.406	0.0160290
875.484	0.0161091
875.562	0.0161952
875.640	0.0160760
875.718	0.0158702
875.796	0.0159623
875.874	0.0160796
875.953	0.0159535
876.031	0.0159457
876.109	0.0159141
876.187	0.0159542
876.265	0.0159276
876.343	0.0158099
876.421	0.0158699
876.499	0.0159806
876.578	0.0158590
876.656	0.0158737
876.734	0.0158701
876.812	0.0157804
876.890	0.0157999
876.968	0.0158611
877.046	0.0158607
877.124	0.0158391
877.203	0.0158003
877.281	0.0158411
877.359	0.0159077
877.437	0.0159602
877.515	0.0161246
877.593	0.0162274
877.671	0.0162434
877.749	0.0161363
877.828	0.0162260
877.906	0.0162783
877.984	0.0162529
878.062	0.0163756
878.140	0.0164959
878.218	0.0164964
878.296	0.0165341
878.374	0.0164055
878.453	0.0163920
878.531	0.0164142
878.609	0.0163113
878.687	0.0161957
878.765	0.0160759
878.843	0.0162790
878.921	0.0160654
878.999	0.0160085
879.078	0.0160018
879.156	0.0159619
879.234	0.0159133
879.312	0.0158995
879.390	0.0160159
879.468	0.0158804
879.546	0.0158200
879.624	0.0157348
879.703	0.0158559
879.781	0.0157453
879.859	0.0158990
879.937	0.0159273
880.015	0.0158379
880.093	0.0159248
880.171	0.0161905
880.249	0.0160026
880.328	0.0158541
880.406	0.0158543
880.484	0.0159329
880.562	0.0159711
880.640	0.0160017
880.718	0.0160122
880.796	0.0159841
880.874	0.0161980
880.953	0.0161333
881.031	0.0161472
881.109	0.0162331
881.187	0.0161752
881.265	0.0162210
881.343	0.0163744
881.421	0.0163736
881.499	0.0163432
881.578	0.0163431
881.656	0.0163587
881.734	0.0162051
881.812	0.0161821
881.890	0.0162020
881.968	0.0163297
882.046	0.0164108
882.124	0.0162302
882.203	0.0161705
882.281	0.0162606
882.359	0.0161880
882.437	0.0162704
882.515	0.0162045
882.593	0.0160861
882.671	0.0160677
882.749	0.0162171
882.828	0.0159996
882.906	0.0160490
882.984	0.0163000
883.062	0.0161816
883.140	0.0161093
883.218	0.0162438
883.296	0.0162065
883.374	0.0162296
883.453	0.0160159
883.531	0.0159584
883.609	0.0160191
883.687	0.0160000
883.765	0.0158962
883.843	0.0159086
883.921	0.0158923
883.999	0.0158867
884.078	0.0158784
884.156	0.0160153
884.234	0.0158792
884.312	0.0159174
884.390	0.0159319
884.468	0.0160381
884.546	0.0159832
884.624	0.0159504
884.703	0.0160118
884.781	0.0160721
884.859	0.0161226
884.937	0.0161310
885.015	0.0159645
885.093	0.0159892
885.171	0.0160687
885.249	0.0161389
885.328	0.0161150
885.406	0.0161535
885.484	0.0161752
885.562	0.0162327
885.640	0.0162994
885.718	0.0161456
885.796	0.0161819
885.874	0.0162050
885.953	0.0162252
886.031	0.0161858
886.109	0.0161564
886.187	0.0162943
886.265	0.0164262
886.343	0.0163200
886.421	0.0162900
886.499	0.0161835
886.578	0.0161984
886.656	0.0162084
886.734	0.0163010
886.812	0.0163333
886.890	0.0162282
886.968	0.0161951
887.046	0.0161378
887.124	0.0160765
887.203	0.0162994
887.281	0.0162361
887.359	0.0160551
887.437	0.0161392
887.515	0.0160696
887.593	0.0160831
887.671	0.0161114
887.749	0.0160511
887.828	0.0163051
887.906	0.0161697
887.984	0.0160360
888.062	0.0160947
888.140	0.0161522
888.218	0.0161727
888.296	0.0160368
888.374	0.0160249
888.453	0.0161507
888.531	0.0160889
888.609	0.0161432
888.687	0.0159052
888.765	0.0160225
888.843	0.0160668
888.921	0.0160156
888.999	0.0160574
889.078	0.0160709
889.156	0.0160597
889.234	0.0161014
889.312	0.0158276
889.390	0.0159628
889.468	0.0161112
889.546	0.0159846
889.624	0.0159839
889.703	0.0159673
889.781	0.0158929
889.859	0.0160359
889.937	0.0158817
890.015	0.0159260
890.093	0.0158567
890.171	0.0160036
890.249	0.0160071
890.328	0.0160825
890.406	0.0159978
890.484	0.0160550
890.562	0.0160806
890.640	0.0160507
890.718	0.0160394
890.796	0.0162125
890.874	0.0162299
890.953	0.0161205
891.031	0.0158596
891.109	0.0159134
891.187	0.0158722
891.265	0.0158927
891.343	0.0158652
891.421	0.0159876
891.499	0.0158575
891.578	0.0158819
891.656	0.0159443
891.734	0.0158826
891.812	0.0157323
891.890	0.0159262
891.968	0.0160220
892.046	0.0160813
892.124	0.0159212
892.203	0.0161073
892.281	0.0161823
892.359	0.0161061
892.437	0.0160614
892.515	0.0163595
892.593	0.0163902
892.671	0.0163255
892.749	0.0162180
892.828	0.0162508
892.906	0.0162824
892.984	0.0162961
893.062	0.0162889
893.140	0.0161237
893.218	0.0161279
893.296	0.0162296
893.374	0.0161958
893.453	0.0161050
893.531	0.0162716
893.609	0.0162193
893.687	0.0159791
893.765	0.0161282
893.843	0.0160271
893.921	0.0161525
893.999	0.0161349
894.078	0.0160892
894.156	0.0160632
894.234	0.0159499
894.312	0.0160621
894.390	0.0161043
894.468	0.0160240
894.546	0.0159824
894.624	0.0160723
894.703	0.0159866
894.781	0.0159251
894.859	0.0159653
894.937	0.0159988
895.015	0.0159486
895.093	0.0159695
895.171	0.0160025
895.249	0.0158482
895.328	0.0158835
895.406	0.0159220
895.484	0.0160220
895.562	0.0160126
895.640	0.0159357
895.718	0.0159340
895.796	0.0159657
895.874	0.0160597
895.953	0.0162255
896.031	0.0160123
896.109	0.0159473
896.187	0.0160428
896.265	0.0161289
896.343	0.0160928
896.421	0.0160596
896.499	0.0158894
896.578	0.0159301
896.656	0.0159184
896.734	0.0159401
896.812	0.0160100
896.890	0.0160284
896.968	0.0158822
897.046	0.0160506
897.124	0.0159979
897.203	0.0159810
897.281	0.0161534
897.359	0.0161132
897.437	0.0161244
897.515	0.0161195
897.593	0.0161532
897.671	0.0161172
897.749	0.0161416
897.828	0.0161304
897.906	0.0161278
897.984	0.0162535
898.062	0.0161222
898.140	0.0162300
898.218	0.0161768
898.296	0.0161520
898.374	0.0161364
898.453	0.0161153
898.531	0.0162616
898.609	0.0162142
898.687	0.0161086
898.765	0.0160460
898.843	0.0160870
898.921	0.0160585
898.999	0.0159296
899.078	0.0161288
899.156	0.0160859
899.234	0.0158527
899.312	0.0159486
899.390	0.0158563
899.468	0.0159191
899.546	0.0158727
899.624	0.0159874
899.703	0.0160186
899.781	0.0161090
899.859	0.0160211
899.937	0.0160708
900.015	0.0160372
900.093	0.0161046
900.171	0.0161805
900.249	0.0161562
900.328	0.0161622
900.406	0.0162339
900.484	0.0162434
900.562	0.0161287
900.640	0.0161875
900.718	0.0162465
900.796	0.0162033
900.874	0.0161450
900.953	0.0161244
901.031	0.0160224
901.109	0.0160603
901.187	0.0160381
901.265	0.0159438
901.343	0.0159219
901.421	0.0160793
901.499	0.0159575
901.578	0.0160518
901.656	0.0159497
901.734	0.0160258
901.812	0.0159859
901.890	0.0161656
901.968	0.0163029
902.046	0.0163140
902.124	0.0162839
902.203	0.0162527
902.281	0.0161927
902.359	0.0161797
902.437	0.0162122
902.515	0.0163285
902.593	0.0162885
902.671	0.0161888
902.749	0.0163749
902.828	0.0163168
902.906	0.0162698
902.984	0.0163123
903.062	0.0162040
903.140	0.0161491
903.218	0.0162127
903.296	0.0161138
903.374	0.0160252
903.453	0.0160402
903.531	0.0161961
903.609	0.0160742
903.687	0.0159222
903.765	0.0158141
903.843	0.0159101
903.921	0.0160246
903.999	0.0159317
904.078	0.0158411
904.156	0.0159243
904.234	0.0159521
904.312	0.0159557
904.390	0.0159087
904.468	0.0160032
904.546	0.0160864
904.624	0.0160341
904.703	0.0158923
904.781	0.0159769
904.859	0.0159976
904.937	0.0159679
905.015	0.0159924
905.093	0.0161137
905.171	0.0161187
905.249	0.0159475
905.328	0.0160187
905.406	0.0160783
905.484	0.0161819
905.562	0.0160725
905.640	0.0161396
905.718	0.0161668
905.796	0.0162254
905.874	0.0160576
905.953	0.0162804
906.031	0.0162469
906.109	0.0162710
906.187	0.0165064
906.265	0.0165150
906.343	0.0165512
906.421	0.0163613
906.499	0.0163589
906.578	0.0164087
906.656	0.0163973
906.734	0.0164577
906.812	0.0163209
906.890	0.0163531
906.968	0.0162131
907.046	0.0163895
907.124	0.0163577
907.203	0.0162469
907.281	0.0161772
907.359	0.0162587
907.437	0.0161663
907.515	0.0161787
907.593	0.0159943
907.671	0.0159453
907.749	0.0159421
907.828	0.0159589
907.906	0.0158865
907.984	0.0158426
908.062	0.0158114
908.140	0.0159284
908.218	0.0159753
908.296	0.0158662
908.374	0.0158816
908.453	0.0158859
908.531	0.0159232
908.609	0.0160438
908.687	0.0160564
908.765	0.0158295
908.843	0.0159361
908.921	0.0160439
908.999	0.0160087
909.078	0.0160818
909.156	0.0160122
909.234	0.0160876
909.312	0.0160895
909.390	0.0161327
909.468	0.0161189
909.546	0.0161721
909.624	0.0161504
909.703	0.0163338
909.781	0.0162323
909.859	0.0163486
909.937	0.0161428
910.015	0.0162608
910.093	0.0161390
910.171	0.0162469
910.249	0.0161221
910.328	0.0162277
910.406	0.0162928
910.484	0.0161615
910.562	0.0162575
910.640	0.0161995
910.718	0.0161507
910.796	0.0160942
910.874	0.0160358
910.953	0.0160821
911.031	0.0161522
911.109	0.0161865
911.187	0.0161670
911.265	0.0162199
911.343	0.0160860
911.421	0.0159906
911.499	0.0161410
911.578	0.0160706
911.656	0.0161033
911.734	0.0160276
911.812	0.0159710
911.890	0.0162434
911.968	0.0161168
912.046	0.0160870
912.124	0.0159023
912.203	0.0161214
912.281	0.0161639
912.359	0.0161062
912.437	0.0161311
912.515	0.0160565
912.593	0.0162901
912.671	0.0161654
912.749	0.0160736
912.828	0.0161031
912.906	0.0160960
912.984	0.0161526
913.062	0.0160448
913.140	0.0160981
913.218	0.0160798
913.296	0.0159773
913.374	0.0160033
913.453	0.0160175
913.531	0.0162389
913.609	0.0161324
913.687	0.0162414
913.765	0.0160618
913.843	0.0162610
913.921	0.0160947
913.999	0.0161358
914.078	0.0161116
914.156	0.0161533
914.234	0.0161654
914.312	0.0162059
914.390	0.0162031
914.468	0.0162031
914.546	0.0161043
914.624	0.0161325
914.703	0.0162537
914.781	0.0162673
914.859	0.0162746
914.937	0.0161901
915.015	0.0162591
915.093	0.0161509
915.171	0.0160029
915.249	0.0162029
915.328	0.0161378
915.406	0.0159659
915.484	0.0160358
915.562	0.0160117
915.640	0.0159816
915.718	0.0159194
915.796	0.0158986
915.874	0.0159052
915.953	0.0158070
916.031	0.0160320
916.109	0.0159480
916.187	0.0159573
916.265	0.0159692
916.343	0.0159155
916.421	0.0159167
916.499	0.0160029
916.578	0.0158960
916.656	0.0160309
916.734	0.0159662
916.812	0.0159698
916.890	0.0159495
916.968	0.0159956
917.046	0.0160529
917.124	0.0159566
917.203	0.0159536
917.281	0.0159575
917.359	0.0159950
917.437	0.0160660
917.515	0.0160223
917.593	0.0161277
917.671	0.0160996
917.749	0.0160421
917.828	0.0160841
917.906	0.0161713
917.984	0.0160789
918.062	0.0161685
918.140	0.0163519
918.218	0.0162122
918.296	0.0162180
918.374	0.0163113
918.453	0.0163067
918.531	0.0162511
918.609	0.0163327
918.687	0.0164684
918.765	0.0163846
918.843	0.0165829
918.921	0.0165086
918.999	0.0164419
919.078	0.0163885
919.156	0.0163269
919.234	0.0163332
919.312	0.0164187
919.390	0.0164707
919.468	0.0162559
919.546	0.0163434
919.624	0.0161494
919.703	0.0163187
919.781	0.0161816
919.859	0.0160524
919.937	0.0161411
