06/10/2022	18:39:54	Ver.	4.1	UNKNOWN
Optical Delay	600.015094	Delta X		0.078125	Sweeps	1	Scan Rate	0/0
Coordinates	Axis 1	NaN	Axis 2	NaN	Axis 3	NaN	Axis 4	NaN	Axis 5	NaN	Axis 6	0.000000
TX Power	0.000000	RX Power	0.000000

600.015	0.0164761
600.093	0.0163545
600.171	0.0166056
600.249	0.0165385
600.328	0.0164806
600.406	0.0165225
600.484	0.0165404
600.562	0.0164410
600.640	0.0165828
600.718	0.0165042
600.796	0.0164435
600.874	0.0164793
600.953	0.0164401
601.031	0.0164894
601.109	0.0164686
601.187	0.0165162
601.265	0.0165447
601.343	0.0165805
601.421	0.0165990
601.499	0.0164464
601.578	0.0163966
601.656	0.0164867
601.734	0.0164938
601.812	0.0165667
601.890	0.0166354
601.968	0.0164635
602.046	0.0164458
602.124	0.0164694
602.203	0.0163708
602.281	0.0165261
602.359	0.0165137
602.437	0.0164447
602.515	0.0164719
602.593	0.0165570
602.671	0.0165150
602.749	0.0163938
602.828	0.0164526
602.906	0.0165260
602.984	0.0165370
603.062	0.0163531
603.140	0.0164735
603.218	0.0166480
603.296	0.0164531
603.374	0.0164563
603.453	0.0164491
603.531	0.0163717
603.609	0.0162959
603.687	0.0165365
603.765	0.0165208
603.843	0.0165891
603.921	0.0165020
603.999	0.0165626
604.078	0.0163577
604.156	0.0163620
604.234	0.0165362
604.312	0.0164322
604.390	0.0165280
604.468	0.0164097
604.546	0.0165448
604.624	0.0166315
604.703	0.0164825
604.781	0.0164450
604.859	0.0164841
604.937	0.0166002
605.015	0.0164967
605.093	0.0165477
605.171	0.0164523
605.249	0.0163148
605.328	0.0165407
605.406	0.0166325
605.484	0.0164809
605.562	0.0164946
605.640	0.0164937
605.718	0.0165302
605.796	0.0165478
605.874	0.0165720
605.953	0.0163777
606.031	0.0164534
606.109	0.0165904
606.187	0.0164838
606.265	0.0164738
606.343	0.0164946
606.421	0.0165014
606.499	0.0164780
606.578	0.0164668
606.656	0.0166178
606.734	0.0163509
606.812	0.0165984
606.890	0.0165774
606.968	0.0165456
607.046	0.0164790
607.124	0.0165179
607.203	0.0165125
607.281	0.0164874
607.359	0.0164960
607.437	0.0165865
607.515	0.0164394
607.593	0.0164417
607.671	0.0164549
607.749	0.0164141
607.828	0.0165026
607.906	0.0164310
607.984	0.0165623
608.062	0.0164408
608.140	0.0164802
608.218	0.0165598
608.296	0.0164500
608.374	0.0164485
608.453	0.0165827
608.531	0.0165614
608.609	0.0165337
608.687	0.0165662
608.765	0.0165298
608.843	0.0165456
608.921	0.0165408
608.999	0.0165743
609.078	0.0166224
609.156	0.0165284
609.234	0.0164545
609.312	0.0165403
609.390	0.0165242
609.468	0.0165311
609.546	0.0165935
609.624	0.0164407
609.703	0.0165782
609.781	0.0164914
609.859	0.0165728
609.937	0.0163895
610.015	0.0164037
610.093	0.0165370
610.171	0.0164954
610.249	0.0165349
610.328	0.0165865
610.406	0.0164338
610.484	0.0164522
610.562	0.0165058
610.640	0.0164367
610.718	0.0164141
610.796	0.0165642
610.874	0.0165071
610.953	0.0165849
611.031	0.0164524
611.109	0.0163936
611.187	0.0165707
611.265	0.0165384
611.343	0.0166019
611.421	0.0164371
611.499	0.0164441
611.578	0.0165395
611.656	0.0165570
611.734	0.0164458
611.812	0.0165599
611.890	0.0166463
611.968	0.0165289
612.046	0.0166664
612.124	0.0164959
612.203	0.0164091
612.281	0.0164550
612.359	0.0165339
612.437	0.0164477
612.515	0.0164804
612.593	0.0165107
612.671	0.0164510
612.749	0.0164725
612.828	0.0164811
612.906	0.0164609
612.984	0.0164650
613.062	0.0164520
613.140	0.0164125
613.218	0.0165054
613.296	0.0164703
613.374	0.0165547
613.453	0.0164265
613.531	0.0165440
613.609	0.0165273
613.687	0.0164680
613.765	0.0164073
613.843	0.0166572
613.921	0.0165303
613.999	0.0165373
614.078	0.0166457
614.156	0.0165675
614.234	0.0165349
614.312	0.0165083
614.390	0.0163280
614.468	0.0164947
614.546	0.0165850
614.624	0.0165655
614.703	0.0165199
614.781	0.0165954
614.859	0.0164569
614.937	0.0164801
615.015	0.0164893
615.093	0.0166068
615.171	0.0165215
615.249	0.0164233
615.328	0.0165788
615.406	0.0164629
615.484	0.0165172
615.562	0.0164983
615.640	0.0165164
615.718	0.0165492
615.796	0.0164366
615.874	0.0164594
615.953	0.0164503
616.031	0.0164528
616.109	0.0165869
616.187	0.0165231
616.265	0.0163364
616.343	0.0163733
616.421	0.0164997
616.499	0.0164867
616.578	0.0165770
616.656	0.0165821
616.734	0.0165897
616.812	0.0164436
616.890	0.0164540
616.968	0.0165030
617.046	0.0165440
617.124	0.0163621
617.203	0.0165292
617.281	0.0166882
617.359	0.0164413
617.437	0.0165559
617.515	0.0165385
617.593	0.0164517
617.671	0.0165146
617.749	0.0165417
617.828	0.0164900
617.906	0.0165144
617.984	0.0165996
618.062	0.0165672
618.140	0.0164913
618.218	0.0165194
618.296	0.0166373
618.374	0.0165205
618.453	0.0164284
618.531	0.0165327
618.609	0.0164998
618.687	0.0165165
618.765	0.0165907
618.843	0.0164652
618.921	0.0166090
618.999	0.0164982
619.078	0.0165559
619.156	0.0165321
619.234	0.0165305
619.312	0.0167262
619.390	0.0165457
619.468	0.0165085
619.546	0.0165298
619.624	0.0163817
619.703	0.0165206
619.781	0.0164359
619.859	0.0165031
619.937	0.0164398
620.015	0.0165766
620.093	0.0165920
620.171	0.0164122
620.249	0.0164566
620.328	0.0164859
620.406	0.0164764
620.484	0.0165296
620.562	0.0164308
620.640	0.0165194
620.718	0.0165716
620.796	0.0165959
620.874	0.0164935
620.953	0.0165298
621.031	0.0165242
621.109	0.0164722
621.187	0.0165731
621.265	0.0164240
621.343	0.0164428
621.421	0.0165675
621.499	0.0164378
621.578	0.0164966
621.656	0.0164866
621.734	0.0164551
621.812	0.0164887
621.890	0.0164683
621.968	0.0166173
622.046	0.0165787
622.124	0.0164166
622.203	0.0163723
622.281	0.0164910
622.359	0.0165527
622.437	0.0165182
622.515	0.0164165
622.593	0.0164824
622.671	0.0164600
622.749	0.0166248
622.828	0.0164638
622.906	0.0164268
622.984	0.0164011
623.062	0.0164835
623.140	0.0164236
623.218	0.0164408
623.296	0.0165875
623.374	0.0165381
623.453	0.0165958
623.531	0.0163931
623.609	0.0165485
623.687	0.0165073
623.765	0.0165430
623.843	0.0164275
623.921	0.0164429
623.999	0.0165560
624.078	0.0164244
624.156	0.0166361
624.234	0.0165485
624.312	0.0164469
624.390	0.0164652
624.468	0.0164835
624.546	0.0164471
624.624	0.0166006
624.703	0.0165180
624.781	0.0165019
624.859	0.0164719
624.937	0.0165315
625.015	0.0166218
625.093	0.0165893
625.171	0.0165384
625.249	0.0166171
625.328	0.0165498
625.406	0.0165411
625.484	0.0164669
625.562	0.0165844
625.640	0.0165569
625.718	0.0165366
625.796	0.0166666
625.874	0.0166013
625.953	0.0165798
626.031	0.0166415
626.109	0.0164775
626.187	0.0165523
626.265	0.0165786
626.343	0.0165150
626.421	0.0164848
626.499	0.0164751
626.578	0.0165164
626.656	0.0165108
626.734	0.0164684
626.812	0.0165326
626.890	0.0165339
626.968	0.0165540
627.046	0.0163951
627.124	0.0165829
627.203	0.0164761
627.281	0.0165221
627.359	0.0164252
627.437	0.0165183
627.515	0.0164513
627.593	0.0165849
627.671	0.0165847
627.749	0.0166218
627.828	0.0163474
627.906	0.0163622
627.984	0.0165818
628.062	0.0163857
628.140	0.0163832
628.218	0.0164981
628.296	0.0164972
628.374	0.0164491
628.453	0.0163994
628.531	0.0165045
628.609	0.0164040
628.687	0.0164741
628.765	0.0164580
628.843	0.0165104
628.921	0.0164169
628.999	0.0165533
629.078	0.0165810
629.156	0.0164919
629.234	0.0164851
629.312	0.0165328
629.390	0.0166379
629.468	0.0164906
629.546	0.0164887
629.624	0.0164991
629.703	0.0164330
629.781	0.0166611
629.859	0.0165713
629.937	0.0164872
630.015	0.0165385
630.093	0.0163628
630.171	0.0165318
630.249	0.0166216
630.328	0.0164581
630.406	0.0164468
630.484	0.0163824
630.562	0.0164178
630.640	0.0165157
630.718	0.0165445
630.796	0.0163769
630.874	0.0163973
630.953	0.0165163
631.031	0.0165763
631.109	0.0165897
631.187	0.0164937
631.265	0.0163750
631.343	0.0164693
631.421	0.0164275
631.499	0.0163862
631.578	0.0165417
631.656	0.0166108
631.734	0.0165185
631.812	0.0164783
631.890	0.0164199
631.968	0.0164723
632.046	0.0163644
632.124	0.0165793
632.203	0.0164481
632.281	0.0164201
632.359	0.0165376
632.437	0.0164220
632.515	0.0165750
632.593	0.0164081
632.671	0.0163946
632.749	0.0165425
632.828	0.0165103
632.906	0.0164932
632.984	0.0164423
633.062	0.0164755
633.140	0.0165141
633.218	0.0164551
633.296	0.0166132
633.374	0.0164444
633.453	0.0165185
633.531	0.0164393
633.609	0.0165905
633.687	0.0165169
633.765	0.0166022
633.843	0.0164977
633.921	0.0165910
633.999	0.0166047
634.078	0.0166536
634.156	0.0164349
634.234	0.0163892
634.312	0.0164993
634.390	0.0166026
634.468	0.0163827
634.546	0.0164041
634.624	0.0165508
634.703	0.0166000
634.781	0.0166222
634.859	0.0165694
634.937	0.0165607
635.015	0.0164072
635.093	0.0166151
635.171	0.0165564
635.249	0.0165313
635.328	0.0164822
635.406	0.0165296
635.484	0.0165176
635.562	0.0164919
635.640	0.0165114
635.718	0.0164551
635.796	0.0166266
635.874	0.0165958
635.953	0.0165369
636.031	0.0164093
636.109	0.0165559
636.187	0.0164415
636.265	0.0164917
636.343	0.0163340
636.421	0.0164520
636.499	0.0164023
636.578	0.0164387
636.656	0.0165185
636.734	0.0165955
636.812	0.0166333
636.890	0.0165699
636.968	0.0165922
637.046	0.0165845
637.124	0.0164900
637.203	0.0164406
637.281	0.0165406
637.359	0.0165639
637.437	0.0165617
637.515	0.0164243
637.593	0.0165438
637.671	0.0164211
637.749	0.0165849
637.828	0.0164681
637.906	0.0165411
637.984	0.0165321
638.062	0.0165985
638.140	0.0164394
638.218	0.0164730
638.296	0.0164732
638.374	0.0166225
638.453	0.0164919
638.531	0.0164456
638.609	0.0163879
638.687	0.0163857
638.765	0.0163701
638.843	0.0165690
638.921	0.0164972
638.999	0.0164464
639.078	0.0164359
639.156	0.0165781
639.234	0.0165264
639.312	0.0166015
639.390	0.0165420
639.468	0.0165210
639.546	0.0164806
639.624	0.0165501
639.703	0.0164836
639.781	0.0164871
639.859	0.0166102
639.937	0.0164915
640.015	0.0164333
640.093	0.0164772
640.171	0.0165092
640.249	0.0164873
640.328	0.0164560
640.406	0.0163409
640.484	0.0166148
640.562	0.0165324
640.640	0.0165556
640.718	0.0164106
640.796	0.0164571
640.874	0.0164072
640.953	0.0165352
641.031	0.0164561
641.109	0.0164258
641.187	0.0166175
641.265	0.0165392
641.343	0.0163964
641.421	0.0165339
641.499	0.0163754
641.578	0.0164314
641.656	0.0164291
641.734	0.0166132
641.812	0.0163873
641.890	0.0165886
641.968	0.0165852
642.046	0.0165844
642.124	0.0164256
642.203	0.0165208
642.281	0.0165260
642.359	0.0164023
642.437	0.0164939
642.515	0.0163615
642.593	0.0164229
642.671	0.0164906
642.749	0.0165367
642.828	0.0166096
642.906	0.0166167
642.984	0.0164600
643.062	0.0165174
643.140	0.0163857
643.218	0.0164164
643.296	0.0165111
643.374	0.0165906
643.453	0.0165186
643.531	0.0165918
643.609	0.0164686
643.687	0.0164635
643.765	0.0164221
643.843	0.0165131
643.921	0.0164457
643.999	0.0164675
644.078	0.0165141
644.156	0.0165673
644.234	0.0163499
644.312	0.0164019
644.390	0.0165460
644.468	0.0166210
644.546	0.0165643
644.624	0.0163727
644.703	0.0163572
644.781	0.0164590
644.859	0.0164922
644.937	0.0165589
645.015	0.0164302
645.093	0.0164837
645.171	0.0165866
645.249	0.0165410
645.328	0.0165314
645.406	0.0164789
645.484	0.0163963
645.562	0.0165659
645.640	0.0163656
645.718	0.0165622
645.796	0.0165758
645.874	0.0165204
645.953	0.0163886
646.031	0.0164832
646.109	0.0167119
646.187	0.0166131
646.265	0.0164570
646.343	0.0164890
646.421	0.0165188
646.499	0.0166044
646.578	0.0165479
646.656	0.0164788
646.734	0.0165675
646.812	0.0165516
646.890	0.0164448
646.968	0.0165166
647.046	0.0164654
647.124	0.0165205
647.203	0.0165812
647.281	0.0164512
647.359	0.0164631
647.437	0.0164362
647.515	0.0166982
647.593	0.0164806
647.671	0.0165271
647.749	0.0165354
647.828	0.0165199
647.906	0.0164525
647.984	0.0164773
648.062	0.0164871
648.140	0.0164687
648.218	0.0164503
648.296	0.0165089
648.374	0.0165415
648.453	0.0164984
648.531	0.0164887
648.609	0.0165151
648.687	0.0164907
648.765	0.0165050
648.843	0.0166444
648.921	0.0164400
648.999	0.0163987
649.078	0.0164760
649.156	0.0166733
649.234	0.0163676
649.312	0.0164465
649.390	0.0165747
649.468	0.0163915
649.546	0.0162964
649.624	0.0164122
649.703	0.0166724
649.781	0.0163437
649.859	0.0164934
649.937	0.0164240
650.015	0.0164345
650.093	0.0165034
650.171	0.0164348
650.249	0.0165348
650.328	0.0163496
650.406	0.0164639
650.484	0.0164536
650.562	0.0164090
650.640	0.0164162
650.718	0.0165072
650.796	0.0165418
650.874	0.0165499
650.953	0.0164405
651.031	0.0164536
651.109	0.0164060
651.187	0.0163756
651.265	0.0163401
651.343	0.0164402
651.421	0.0164233
651.499	0.0164180
651.578	0.0165018
651.656	0.0164955
651.734	0.0163262
651.812	0.0163518
651.890	0.0164893
651.968	0.0166309
652.046	0.0163732
652.124	0.0164040
652.203	0.0164127
652.281	0.0165143
652.359	0.0164135
652.437	0.0164710
652.515	0.0164377
652.593	0.0164930
652.671	0.0164523
652.749	0.0164989
652.828	0.0164565
652.906	0.0165014
652.984	0.0165403
653.062	0.0164253
653.140	0.0164732
653.218	0.0164034
653.296	0.0164716
653.374	0.0165334
653.453	0.0164841
653.531	0.0166479
653.609	0.0164539
653.687	0.0164278
653.765	0.0165784
653.843	0.0165533
653.921	0.0165035
653.999	0.0164927
654.078	0.0163569
654.156	0.0163857
654.234	0.0165743
654.312	0.0164472
654.390	0.0165350
654.468	0.0164040
654.546	0.0164442
654.624	0.0164713
654.703	0.0163784
654.781	0.0163629
654.859	0.0165146
654.937	0.0165187
655.015	0.0165924
655.093	0.0165029
655.171	0.0165958
655.249	0.0163927
655.328	0.0166306
655.406	0.0164977
655.484	0.0163889
655.562	0.0164153
655.640	0.0165791
655.718	0.0165430
655.796	0.0165387
655.874	0.0163809
655.953	0.0165353
656.031	0.0164462
656.109	0.0166121
656.187	0.0165226
656.265	0.0163748
656.343	0.0164386
656.421	0.0164686
656.499	0.0165069
656.578	0.0165039
656.656	0.0164985
656.734	0.0165308
656.812	0.0166112
656.890	0.0164539
656.968	0.0165353
657.046	0.0164024
657.124	0.0164885
657.203	0.0163921
657.281	0.0163927
657.359	0.0165576
657.437	0.0165203
657.515	0.0164927
657.593	0.0166181
657.671	0.0164059
657.749	0.0165810
657.828	0.0165321
657.906	0.0164769
657.984	0.0165305
658.062	0.0164810
658.140	0.0164706
658.218	0.0165136
658.296	0.0164741
658.374	0.0164005
658.453	0.0165716
658.531	0.0165008
658.609	0.0163027
658.687	0.0165035
658.765	0.0164622
658.843	0.0164666
658.921	0.0165221
658.999	0.0163451
659.078	0.0162991
659.156	0.0165126
659.234	0.0165711
659.312	0.0164874
659.390	0.0164282
659.468	0.0166151
659.546	0.0164066
659.624	0.0164348
659.703	0.0165309
659.781	0.0164336
659.859	0.0164380
659.937	0.0165756
660.015	0.0164561
660.093	0.0164693
660.171	0.0164210
660.249	0.0166229
660.328	0.0163780
660.406	0.0164679
660.484	0.0165791
660.562	0.0164449
660.640	0.0164950
660.718	0.0166100
660.796	0.0164991
660.874	0.0164500
660.953	0.0164405
661.031	0.0165043
661.109	0.0164236
661.187	0.0164342
661.265	0.0164528
661.343	0.0165513
661.421	0.0165331
661.499	0.0164290
661.578	0.0164661
661.656	0.0164624
661.734	0.0164599
661.812	0.0165324
661.890	0.0164630
661.968	0.0165421
662.046	0.0165995
662.124	0.0164127
662.203	0.0165614
662.281	0.0165169
662.359	0.0165435
662.437	0.0163487
662.515	0.0165472
662.593	0.0164934
662.671	0.0164899
662.749	0.0165378
662.828	0.0164664
662.906	0.0164902
662.984	0.0164417
663.062	0.0164611
663.140	0.0163921
663.218	0.0165152
663.296	0.0164806
663.374	0.0164995
663.453	0.0165862
663.531	0.0164005
663.609	0.0163883
663.687	0.0164657
663.765	0.0166412
663.843	0.0164596
663.921	0.0164973
663.999	0.0165539
664.078	0.0164318
664.156	0.0164996
664.234	0.0165420
664.312	0.0166077
664.390	0.0165039
664.468	0.0165279
664.546	0.0164314
664.624	0.0164965
664.703	0.0165292
664.781	0.0164760
664.859	0.0165498
664.937	0.0165637
665.015	0.0165583
665.093	0.0164521
665.171	0.0165035
665.249	0.0164793
665.328	0.0163618
665.406	0.0165311
665.484	0.0165068
665.562	0.0166158
665.640	0.0165228
665.718	0.0164265
665.796	0.0166010
665.874	0.0166360
665.953	0.0165015
666.031	0.0165346
666.109	0.0165029
666.187	0.0165468
666.265	0.0165549
666.343	0.0165466
666.421	0.0165285
666.499	0.0164467
666.578	0.0165742
666.656	0.0164671
666.734	0.0164818
666.812	0.0165101
666.890	0.0166032
666.968	0.0165982
667.046	0.0166296
667.124	0.0164317
667.203	0.0164251
667.281	0.0165479
667.359	0.0164765
667.437	0.0165223
667.515	0.0165896
667.593	0.0165620
667.671	0.0164798
667.749	0.0165052
667.828	0.0165488
667.906	0.0165255
667.984	0.0166027
668.062	0.0163391
668.140	0.0165485
668.218	0.0165552
668.296	0.0164571
668.374	0.0165863
668.453	0.0164845
668.531	0.0164375
668.609	0.0165732
668.687	0.0164044
668.765	0.0165519
668.843	0.0165958
668.921	0.0166241
668.999	0.0165160
669.078	0.0163227
669.156	0.0164410
669.234	0.0165980
669.312	0.0164666
669.390	0.0165433
669.468	0.0165034
669.546	0.0165577
669.624	0.0166908
669.703	0.0165627
669.781	0.0164925
669.859	0.0164896
669.937	0.0165234
670.015	0.0166302
670.093	0.0165994
670.171	0.0166199
670.249	0.0164653
670.328	0.0164558
670.406	0.0166041
670.484	0.0164978
670.562	0.0164231
670.640	0.0164957
670.718	0.0164230
670.796	0.0163924
670.874	0.0164803
670.953	0.0162845
671.031	0.0165024
671.109	0.0164935
671.187	0.0165452
671.265	0.0163401
671.343	0.0166120
671.421	0.0164960
671.499	0.0165531
671.578	0.0164981
671.656	0.0165429
671.734	0.0164739
671.812	0.0163866
671.890	0.0164930
671.968	0.0164964
672.046	0.0165782
672.124	0.0164474
672.203	0.0164449
672.281	0.0165084
672.359	0.0164974
672.437	0.0166156
672.515	0.0165504
672.593	0.0164056
672.671	0.0165364
672.749	0.0164481
672.828	0.0163255
672.906	0.0163448
672.984	0.0165154
673.062	0.0165555
673.140	0.0165340
673.218	0.0164369
673.296	0.0164010
673.374	0.0164949
673.453	0.0165911
673.531	0.0165158
673.609	0.0163445
673.687	0.0163390
673.765	0.0163869
673.843	0.0165703
673.921	0.0165281
673.999	0.0166255
674.078	0.0165436
674.156	0.0166776
674.234	0.0165909
674.312	0.0165763
674.390	0.0166251
674.468	0.0165223
674.546	0.0165437
674.624	0.0166226
674.703	0.0164188
674.781	0.0165343
674.859	0.0164192
674.937	0.0165839
675.015	0.0163812
675.093	0.0163796
675.171	0.0165126
675.249	0.0164601
675.328	0.0166166
675.406	0.0165769
675.484	0.0165599
675.562	0.0164472
675.640	0.0165604
675.718	0.0164088
675.796	0.0164977
675.874	0.0165958
675.953	0.0164996
676.031	0.0165118
676.109	0.0163956
676.187	0.0164626
676.265	0.0165744
676.343	0.0164799
676.421	0.0165037
676.499	0.0164581
676.578	0.0165043
676.656	0.0164748
676.734	0.0165122
676.812	0.0164983
676.890	0.0166501
676.968	0.0164787
677.046	0.0164718
677.124	0.0164377
677.203	0.0163914
677.281	0.0166266
677.359	0.0165240
677.437	0.0165687
677.515	0.0164396
677.593	0.0165331
677.671	0.0165687
677.749	0.0165135
677.828	0.0164768
677.906	0.0165481
677.984	0.0165599
678.062	0.0165974
678.140	0.0166508
678.218	0.0166463
678.296	0.0164280
678.374	0.0164411
678.453	0.0164574
678.531	0.0165331
678.609	0.0164090
678.687	0.0165578
678.765	0.0164523
678.843	0.0166070
678.921	0.0166120
678.999	0.0164969
679.078	0.0165843
679.156	0.0164871
679.234	0.0165784
679.312	0.0164962
679.390	0.0164507
679.468	0.0164573
679.546	0.0164658
679.624	0.0164318
679.703	0.0165362
679.781	0.0165784
679.859	0.0163821
679.937	0.0163973
680.015	0.0164785
680.093	0.0164165
680.171	0.0165432
680.249	0.0164803
680.328	0.0165132
680.406	0.0165229
680.484	0.0164649
680.562	0.0165073
680.640	0.0164785
680.718	0.0163113
680.796	0.0165520
680.874	0.0164710
680.953	0.0165245
681.031	0.0164279
681.109	0.0164575
681.187	0.0165926
681.265	0.0164855
681.343	0.0165192
681.421	0.0165733
681.499	0.0163560
681.578	0.0164409
681.656	0.0165011
681.734	0.0165469
681.812	0.0164880
681.890	0.0163721
681.968	0.0165695
682.046	0.0164429
682.124	0.0165887
682.203	0.0164001
682.281	0.0164593
682.359	0.0163789
682.437	0.0165633
682.515	0.0166566
682.593	0.0165306
682.671	0.0164802
682.749	0.0165371
682.828	0.0165213
682.906	0.0165965
682.984	0.0165200
683.062	0.0164633
683.140	0.0165781
683.218	0.0165077
683.296	0.0166990
683.374	0.0165395
683.453	0.0164706
683.531	0.0165589
683.609	0.0164811
683.687	0.0165421
683.765	0.0165435
683.843	0.0165214
683.921	0.0165055
683.999	0.0164404
684.078	0.0165112
684.156	0.0165609
684.234	0.0164368
684.312	0.0164426
684.390	0.0165828
684.468	0.0165074
684.546	0.0165415
684.624	0.0164715
684.703	0.0164478
684.781	0.0165213
684.859	0.0165130
684.937	0.0165232
685.015	0.0165005
685.093	0.0166209
685.171	0.0164696
685.249	0.0166125
685.328	0.0165056
685.406	0.0166487
685.484	0.0165533
685.562	0.0164591
685.640	0.0164729
685.718	0.0165636
685.796	0.0164519
685.874	0.0164321
685.953	0.0164189
686.031	0.0165048
686.109	0.0166155
686.187	0.0164977
686.265	0.0165646
686.343	0.0166095
686.421	0.0165441
686.499	0.0166116
686.578	0.0166637
686.656	0.0164991
686.734	0.0166564
686.812	0.0166447
686.890	0.0164954
686.968	0.0165086
687.046	0.0164353
687.124	0.0165398
687.203	0.0165453
687.281	0.0166250
687.359	0.0166546
687.437	0.0164028
687.515	0.0165120
687.593	0.0166692
687.671	0.0166135
687.749	0.0165962
687.828	0.0165965
687.906	0.0166518
687.984	0.0166244
688.062	0.0164964
688.140	0.0166203
688.218	0.0165634
688.296	0.0165396
688.374	0.0166240
688.453	0.0165563
688.531	0.0166211
688.609	0.0165569
688.687	0.0165514
688.765	0.0165759
688.843	0.0166270
688.921	0.0165521
688.999	0.0165366
689.078	0.0165499
689.156	0.0165721
689.234	0.0166561
689.312	0.0166022
689.390	0.0165520
689.468	0.0165462
689.546	0.0164397
689.624	0.0165302
689.703	0.0164568
689.781	0.0165932
689.859	0.0164539
689.937	0.0165616
690.015	0.0165836
690.093	0.0165800
690.171	0.0166489
690.249	0.0164512
690.328	0.0165765
690.406	0.0165208
690.484	0.0164707
690.562	0.0163750
690.640	0.0165073
690.718	0.0165900
690.796	0.0165234
690.874	0.0166402
690.953	0.0165759
691.031	0.0165854
691.109	0.0165702
691.187	0.0165225
691.265	0.0165603
691.343	0.0165973
691.421	0.0165485
691.499	0.0166041
691.578	0.0165488
691.656	0.0165798
691.734	0.0165588
691.812	0.0165543
691.890	0.0165078
691.968	0.0165122
692.046	0.0164628
692.124	0.0164761
692.203	0.0164226
692.281	0.0164860
692.359	0.0164087
692.437	0.0163136
692.515	0.0165090
692.593	0.0165779
692.671	0.0164614
692.749	0.0164645
692.828	0.0166557
692.906	0.0164137
692.984	0.0164674
693.062	0.0165446
693.140	0.0164988
693.218	0.0164887
693.296	0.0165598
693.374	0.0164137
693.453	0.0164763
693.531	0.0164914
693.609	0.0165224
693.687	0.0164904
693.765	0.0163718
693.843	0.0166081
693.921	0.0165244
693.999	0.0165107
694.078	0.0164079
694.156	0.0164903
694.234	0.0164902
694.312	0.0164100
694.390	0.0165033
694.468	0.0164716
694.546	0.0164760
694.624	0.0164462
694.703	0.0164150
694.781	0.0165810
694.859	0.0165202
694.937	0.0165303
695.015	0.0165025
695.093	0.0165011
695.171	0.0164511
695.249	0.0165147
695.328	0.0164480
695.406	0.0165211
695.484	0.0162871
695.562	0.0164640
695.640	0.0166245
695.718	0.0163697
695.796	0.0164548
695.874	0.0164920
695.953	0.0164371
696.031	0.0165762
696.109	0.0163631
696.187	0.0164627
696.265	0.0165788
696.343	0.0164606
696.421	0.0165302
696.499	0.0164588
696.578	0.0164743
696.656	0.0165013
696.734	0.0164605
696.812	0.0164997
696.890	0.0166017
696.968	0.0165579
697.046	0.0165469
697.124	0.0165604
697.203	0.0164997
697.281	0.0165599
697.359	0.0165887
697.437	0.0164449
697.515	0.0165861
697.593	0.0165282
697.671	0.0165866
697.749	0.0164999
697.828	0.0164869
697.906	0.0164623
697.984	0.0163691
698.062	0.0166277
698.140	0.0165601
698.218	0.0164455
698.296	0.0164002
698.374	0.0164902
698.453	0.0166071
698.531	0.0165251
698.609	0.0164600
698.687	0.0164555
698.765	0.0165966
698.843	0.0165887
698.921	0.0164279
698.999	0.0164661
699.078	0.0165252
699.156	0.0164987
699.234	0.0165036
699.312	0.0163079
699.390	0.0163528
699.468	0.0165932
699.546	0.0164273
699.624	0.0163351
699.703	0.0164363
699.781	0.0164900
699.859	0.0163503
699.937	0.0164124
700.015	0.0164241
700.093	0.0164939
700.171	0.0164391
700.249	0.0164544
700.328	0.0163754
700.406	0.0164768
700.484	0.0164728
700.562	0.0165513
700.640	0.0165031
700.718	0.0164900
700.796	0.0166283
700.874	0.0164471
700.953	0.0164956
701.031	0.0164137
701.109	0.0164820
701.187	0.0164972
701.265	0.0165765
701.343	0.0165269
701.421	0.0165553
701.499	0.0165323
701.578	0.0163729
701.656	0.0164389
701.734	0.0163932
701.812	0.0164645
701.890	0.0165660
701.968	0.0164893
702.046	0.0165787
702.124	0.0164929
702.203	0.0165426
702.281	0.0164667
702.359	0.0164632
702.437	0.0166841
702.515	0.0165172
702.593	0.0164452
702.671	0.0165826
702.749	0.0165316
702.828	0.0164517
702.906	0.0165331
702.984	0.0163789
703.062	0.0165847
703.140	0.0165889
703.218	0.0164217
703.296	0.0165665
703.374	0.0164454
703.453	0.0164280
703.531	0.0166271
703.609	0.0164590
703.687	0.0164539
703.765	0.0164970
703.843	0.0165593
703.921	0.0163976
703.999	0.0163988
704.078	0.0165601
704.156	0.0164465
704.234	0.0164285
704.312	0.0165212
704.390	0.0165218
704.468	0.0164283
704.546	0.0164544
704.624	0.0164204
704.703	0.0165581
704.781	0.0165172
704.859	0.0164652
704.937	0.0165194
705.015	0.0165125
705.093	0.0166123
705.171	0.0165400
705.249	0.0164546
705.328	0.0164973
705.406	0.0165749
705.484	0.0165457
705.562	0.0165499
705.640	0.0165099
705.718	0.0164990
705.796	0.0166630
705.874	0.0164088
705.953	0.0163553
706.031	0.0164981
706.109	0.0165649
706.187	0.0165340
706.265	0.0164928
706.343	0.0165635
706.421	0.0165832
706.499	0.0165353
706.578	0.0165553
706.656	0.0165651
706.734	0.0165849
706.812	0.0165864
706.890	0.0163486
706.968	0.0164822
707.046	0.0165622
707.124	0.0167351
707.203	0.0164380
707.281	0.0164606
707.359	0.0165047
707.437	0.0165438
707.515	0.0165900
707.593	0.0164807
707.671	0.0166862
707.749	0.0164160
707.828	0.0166046
707.906	0.0164429
707.984	0.0165327
708.062	0.0165536
708.140	0.0165501
708.218	0.0165299
708.296	0.0164401
708.374	0.0166071
708.453	0.0166650
708.531	0.0166331
708.609	0.0165392
708.687	0.0163417
708.765	0.0165621
708.843	0.0164945
708.921	0.0166643
708.999	0.0165706
709.078	0.0164442
709.156	0.0164509
709.234	0.0165126
709.312	0.0165555
709.390	0.0165323
709.468	0.0164429
709.546	0.0166270
709.624	0.0164876
709.703	0.0165913
709.781	0.0163309
709.859	0.0164554
709.937	0.0166339
710.015	0.0163998
710.093	0.0164135
710.171	0.0163866
710.249	0.0163758
710.328	0.0164702
710.406	0.0165809
710.484	0.0165251
710.562	0.0164690
710.640	0.0164561
710.718	0.0165392
710.796	0.0166117
710.874	0.0164484
710.953	0.0164842
711.031	0.0165334
711.109	0.0165490
711.187	0.0164481
711.265	0.0165465
711.343	0.0165488
711.421	0.0164644
711.499	0.0165757
711.578	0.0164768
711.656	0.0164887
711.734	0.0164628
711.812	0.0164369
711.890	0.0164716
711.968	0.0165659
712.046	0.0165341
712.124	0.0165276
712.203	0.0163975
712.281	0.0164214
712.359	0.0164407
712.437	0.0166044
712.515	0.0164659
712.593	0.0165397
712.671	0.0165617
712.749	0.0164506
712.828	0.0164699
712.906	0.0165834
712.984	0.0164205
713.062	0.0165524
713.140	0.0165071
713.218	0.0164817
713.296	0.0164417
713.374	0.0164043
713.453	0.0165205
713.531	0.0166805
713.609	0.0166299
713.687	0.0165375
713.765	0.0166227
713.843	0.0164285
713.921	0.0166195
713.999	0.0165427
714.078	0.0164244
714.156	0.0163295
714.234	0.0165055
714.312	0.0165733
714.390	0.0165965
714.468	0.0163656
714.546	0.0165014
714.624	0.0165395
714.703	0.0165066
714.781	0.0166708
714.859	0.0165122
714.937	0.0165266
715.015	0.0165056
715.093	0.0165536
715.171	0.0165997
715.249	0.0164280
715.328	0.0164704
715.406	0.0164267
715.484	0.0164589
715.562	0.0165652
715.640	0.0163603
715.718	0.0165504
715.796	0.0164148
715.874	0.0164199
715.953	0.0165031
716.031	0.0164848
716.109	0.0165348
716.187	0.0163983
716.265	0.0165313
716.343	0.0165826
716.421	0.0165154
716.499	0.0164821
716.578	0.0165551
716.656	0.0164195
716.734	0.0164680
716.812	0.0163824
716.890	0.0165084
716.968	0.0164987
717.046	0.0163921
717.124	0.0164481
717.203	0.0164587
717.281	0.0164116
717.359	0.0163853
717.437	0.0164780
717.515	0.0167274
717.593	0.0164851
717.671	0.0164645
717.749	0.0165105
717.828	0.0163692
717.906	0.0165237
717.984	0.0163702
718.062	0.0165237
718.140	0.0166446
718.218	0.0163145
718.296	0.0164444
718.374	0.0165040
718.453	0.0165852
718.531	0.0165717
718.609	0.0164497
718.687	0.0165810
718.765	0.0165309
718.843	0.0165383
718.921	0.0165376
718.999	0.0164664
719.078	0.0164131
719.156	0.0165111
719.234	0.0164400
719.312	0.0164506
719.390	0.0164603
719.468	0.0165465
719.546	0.0164240
719.624	0.0164478
719.703	0.0165377
719.781	0.0164699
719.859	0.0164679
719.937	0.0164200
720.015	0.0163982
720.093	0.0164951
720.171	0.0164806
720.249	0.0164419
720.328	0.0165212
720.406	0.0165757
720.484	0.0164688
720.562	0.0165612
720.640	0.0164526
720.718	0.0163840
720.796	0.0164748
720.874	0.0164823
720.953	0.0163847
721.031	0.0165235
721.109	0.0165433
721.187	0.0164307
721.265	0.0164708
721.343	0.0163377
721.421	0.0164584
721.499	0.0165800
721.578	0.0163867
721.656	0.0164529
721.734	0.0165393
721.812	0.0165605
721.890	0.0165907
721.968	0.0165444
722.046	0.0165208
722.124	0.0164100
722.203	0.0165437
722.281	0.0163927
722.359	0.0164231
722.437	0.0165650
722.515	0.0163776
722.593	0.0164227
722.671	0.0164430
722.749	0.0163778
722.828	0.0165366
722.906	0.0164506
722.984	0.0165748
723.062	0.0164442
723.140	0.0165418
723.218	0.0166706
723.296	0.0165553
723.374	0.0165075
723.453	0.0164721
723.531	0.0166215
723.609	0.0165297
723.687	0.0166092
723.765	0.0165459
723.843	0.0164137
723.921	0.0165392
723.999	0.0164903
724.078	0.0164075
724.156	0.0165366
724.234	0.0166045
724.312	0.0165158
724.390	0.0166360
724.468	0.0164968
724.546	0.0164928
724.624	0.0166325
724.703	0.0164011
724.781	0.0166226
724.859	0.0164749
724.937	0.0165047
725.015	0.0165135
725.093	0.0165436
725.171	0.0165648
725.249	0.0166146
725.328	0.0164700
725.406	0.0164593
725.484	0.0165115
725.562	0.0166176
725.640	0.0165902
725.718	0.0165049
725.796	0.0164328
725.874	0.0164927
725.953	0.0165585
726.031	0.0164574
726.109	0.0166110
726.187	0.0165273
726.265	0.0165702
726.343	0.0164587
726.421	0.0165041
726.499	0.0164531
726.578	0.0165480
726.656	0.0164689
726.734	0.0166058
726.812	0.0165994
726.890	0.0165147
726.968	0.0165563
727.046	0.0164678
727.124	0.0165656
727.203	0.0165902
727.281	0.0165428
727.359	0.0165547
727.437	0.0165752
727.515	0.0164657
727.593	0.0165427
727.671	0.0164997
727.749	0.0165318
727.828	0.0164989
727.906	0.0164821
727.984	0.0163975
728.062	0.0164218
728.140	0.0166109
728.218	0.0164266
728.296	0.0165372
728.374	0.0165687
728.453	0.0165311
728.531	0.0165038
728.609	0.0165394
728.687	0.0165117
728.765	0.0164996
728.843	0.0164920
728.921	0.0165957
728.999	0.0164839
729.078	0.0164641
729.156	0.0164754
729.234	0.0165840
729.312	0.0164900
729.390	0.0163963
729.468	0.0164268
729.546	0.0163827
729.624	0.0164433
729.703	0.0166038
729.781	0.0164041
729.859	0.0164974
729.937	0.0165672
730.015	0.0165024
730.093	0.0165103
730.171	0.0165334
730.249	0.0165545
730.328	0.0167152
730.406	0.0167820
730.484	0.0167006
730.562	0.0167551
730.640	0.0167531
730.718	0.0167475
730.796	0.0167660
730.874	0.0166361
730.953	0.0166862
731.031	0.0165428
731.109	0.0166151
731.187	0.0166756
731.265	0.0165971
731.343	0.0166011
731.421	0.0165625
731.499	0.0164952
731.578	0.0164074
731.656	0.0164164
731.734	0.0162585
731.812	0.0161483
731.890	0.0161375
731.968	0.0160616
732.046	0.0160118
732.124	0.0158500
732.203	0.0159583
732.281	0.0158746
732.359	0.0157932
732.437	0.0159498
732.515	0.0160246
732.593	0.0161870
732.671	0.0162672
732.749	0.0162634
732.828	0.0165897
732.906	0.0169066
732.984	0.0168835
733.062	0.0173520
733.140	0.0172601
733.218	0.0170465
733.296	0.0172458
733.374	0.0172739
733.453	0.0172471
733.531	0.0170953
733.609	0.0171468
733.687	0.0169553
733.765	0.0167563
733.843	0.0166729
733.921	0.0166574
733.999	0.0164078
734.078	0.0162807
734.156	0.0162361
734.234	0.0161947
734.312	0.0162060
734.390	0.0162604
734.468	0.0163159
734.546	0.0163323
734.624	0.0164350
734.703	0.0165951
734.781	0.0166074
734.859	0.0166851
734.937	0.0167824
735.015	0.0170300
735.093	0.0170645
735.171	0.0170763
735.249	0.0170500
735.328	0.0168875
735.406	0.0169164
735.484	0.0168776
735.562	0.0167481
735.640	0.0165614
735.718	0.0164002
735.796	0.0162804
735.874	0.0162304
735.953	0.0159429
736.031	0.0158891
736.109	0.0157307
736.187	0.0155237
736.265	0.0154251
736.343	0.0154346
736.421	0.0153857
736.499	0.0151323
736.578	0.0151540
736.656	0.0154070
736.734	0.0154016
736.812	0.0156776
736.890	0.0158035
736.968	0.0161253
737.046	0.0164890
737.124	0.0167178
737.203	0.0170527
737.281	0.0171023
737.359	0.0175574
737.437	0.0175666
737.515	0.0177244
737.593	0.0179562
737.671	0.0178809
737.749	0.0178739
737.828	0.0178475
737.906	0.0176245
737.984	0.0175590
738.062	0.0173994
738.140	0.0173603
738.218	0.0171299
738.296	0.0169547
738.374	0.0165249
738.453	0.0163470
738.531	0.0162128
738.609	0.0159409
738.687	0.0154980
738.765	0.0155133
738.843	0.0151306
738.921	0.0150079
738.999	0.0152028
739.078	0.0152435
739.156	0.0151949
739.234	0.0155912
739.312	0.0157825
739.390	0.0160127
739.468	0.0162894
739.546	0.0164703
739.624	0.0167615
739.703	0.0170727
739.781	0.0174029
739.859	0.0174862
739.937	0.0176176
740.015	0.0174625
740.093	0.0175317
740.171	0.0176046
740.249	0.0173515
740.328	0.0172612
740.406	0.0170755
740.484	0.0170555
740.562	0.0170513
740.640	0.0165577
740.718	0.0165940
740.796	0.0164906
740.874	0.0164552
740.953	0.0162220
741.031	0.0162844
741.109	0.0163686
741.187	0.0163386
741.265	0.0162982
741.343	0.0163240
741.421	0.0164035
741.499	0.0164663
741.578	0.0163728
741.656	0.0164211
741.734	0.0162853
741.812	0.0163794
741.890	0.0163541
741.968	0.0161969
742.046	0.0159891
742.124	0.0159500
742.203	0.0155205
742.281	0.0152475
742.359	0.0152979
742.437	0.0149492
742.515	0.0148548
742.593	0.0146474
742.671	0.0147063
742.749	0.0146807
742.828	0.0150900
742.906	0.0152776
742.984	0.0156390
743.062	0.0159785
743.140	0.0165101
743.218	0.0169762
743.296	0.0175958
743.374	0.0179903
743.453	0.0184216
743.531	0.0188210
743.609	0.0189762
743.687	0.0190730
743.765	0.0191882
743.843	0.0190256
743.921	0.0187820
743.999	0.0184620
744.078	0.0181359
744.156	0.0177193
744.234	0.0172911
744.312	0.0171466
744.390	0.0167608
744.468	0.0163737
744.546	0.0161272
744.624	0.0160551
744.703	0.0158588
744.781	0.0158925
744.859	0.0157789
744.937	0.0158701
745.015	0.0158657
745.093	0.0158116
745.171	0.0158208
745.249	0.0158170
745.328	0.0158929
745.406	0.0158422
745.484	0.0157828
745.562	0.0155128
745.640	0.0154497
745.718	0.0155842
745.796	0.0155405
745.874	0.0153964
745.953	0.0155040
746.031	0.0155283
746.109	0.0155666
746.187	0.0156316
746.265	0.0158910
746.343	0.0158765
746.421	0.0160131
746.499	0.0162682
746.578	0.0163663
746.656	0.0162797
746.734	0.0165510
746.812	0.0166283
746.890	0.0166111
746.968	0.0166958
747.046	0.0168134
747.124	0.0168699
747.203	0.0167992
747.281	0.0167777
747.359	0.0168248
747.437	0.0168295
747.515	0.0168198
747.593	0.0168181
747.671	0.0168655
747.749	0.0169141
747.828	0.0168792
747.906	0.0168569
747.984	0.0169534
748.062	0.0168489
748.140	0.0169067
748.218	0.0169498
748.296	0.0170587
748.374	0.0170744
748.453	0.0171250
748.531	0.0171137
748.609	0.0171929
748.687	0.0174026
748.765	0.0173038
748.843	0.0172564
748.921	0.0170791
748.999	0.0171436
749.078	0.0169745
749.156	0.0167971
749.234	0.0166320
749.312	0.0166074
749.390	0.0166736
749.468	0.0163810
749.546	0.0163075
749.624	0.0163870
749.703	0.0160255
749.781	0.0159714
749.859	0.0159648
749.937	0.0158441
750.015	0.0156850
750.093	0.0156230
750.171	0.0156923
750.249	0.0156558
750.328	0.0156641
750.406	0.0157775
750.484	0.0158272
750.562	0.0157983
750.640	0.0159264
750.718	0.0161267
750.796	0.0163305
750.874	0.0162251
750.953	0.0163619
751.031	0.0165788
751.109	0.0165247
751.187	0.0165619
751.265	0.0166393
751.343	0.0167449
751.421	0.0165613
751.499	0.0167498
751.578	0.0165278
751.656	0.0167338
751.734	0.0165140
751.812	0.0164996
751.890	0.0166687
751.968	0.0166493
752.046	0.0165993
752.124	0.0165368
752.203	0.0166810
752.281	0.0165547
752.359	0.0165231
752.437	0.0164931
752.515	0.0164178
752.593	0.0163525
752.671	0.0162470
752.749	0.0163530
752.828	0.0163381
752.906	0.0161836
752.984	0.0162352
753.062	0.0163718
753.140	0.0163823
753.218	0.0165977
753.296	0.0167458
753.374	0.0168434
753.453	0.0171266
753.531	0.0172365
753.609	0.0173917
753.687	0.0174392
753.765	0.0178564
753.843	0.0178085
753.921	0.0177088
753.999	0.0176662
754.078	0.0177625
754.156	0.0175725
754.234	0.0172951
754.312	0.0171435
754.390	0.0167702
754.468	0.0165363
754.546	0.0161809
754.624	0.0160921
754.703	0.0158721
754.781	0.0156847
754.859	0.0155386
754.937	0.0153663
755.015	0.0153162
755.093	0.0153217
755.171	0.0152534
755.249	0.0153851
755.328	0.0154014
755.406	0.0156182
755.484	0.0156311
755.562	0.0158874
755.640	0.0160741
755.718	0.0163265
755.796	0.0164338
755.874	0.0166725
755.953	0.0167769
756.031	0.0167352
756.109	0.0168229
756.187	0.0168597
756.265	0.0167167
756.343	0.0165582
756.421	0.0166231
756.499	0.0163272
756.578	0.0162472
756.656	0.0161358
756.734	0.0162006
756.812	0.0160016
756.890	0.0161439
756.968	0.0160550
757.046	0.0161216
757.124	0.0161839
757.203	0.0161883
757.281	0.0162942
757.359	0.0163126
757.437	0.0163933
757.515	0.0163223
757.593	0.0165145
757.671	0.0169044
757.749	0.0170156
757.828	0.0171460
757.906	0.0174863
757.984	0.0178618
758.062	0.0179910
758.140	0.0182419
758.218	0.0183716
758.296	0.0184481
758.374	0.0183222
758.453	0.0183589
758.531	0.0181653
758.609	0.0178281
758.687	0.0179001
758.765	0.0176186
758.843	0.0171030
758.921	0.0166634
758.999	0.0163867
759.078	0.0160048
759.156	0.0156281
759.234	0.0154856
759.312	0.0151045
759.390	0.0147933
759.468	0.0146558
759.546	0.0146087
759.624	0.0144022
759.703	0.0145083
759.781	0.0146523
759.859	0.0146638
759.937	0.0148872
760.015	0.0152329
760.093	0.0155746
760.171	0.0158052
760.249	0.0161015
760.328	0.0164423
760.406	0.0166696
760.484	0.0168632
760.562	0.0169397
760.640	0.0170145
760.718	0.0170739
760.796	0.0171111
760.874	0.0169173
760.953	0.0164842
761.031	0.0163911
761.109	0.0161862
761.187	0.0162407
761.265	0.0161095
761.343	0.0159904
761.421	0.0159194
761.499	0.0158441
761.578	0.0162474
761.656	0.0162202
761.734	0.0166782
761.812	0.0168692
761.890	0.0168955
761.968	0.0174529
762.046	0.0174760
762.124	0.0176678
762.203	0.0180224
762.281	0.0180446
762.359	0.0183144
762.437	0.0183755
762.515	0.0184119
762.593	0.0181627
762.671	0.0180705
762.749	0.0179279
762.828	0.0176502
762.906	0.0175175
762.984	0.0171182
763.062	0.0166474
763.140	0.0164483
763.218	0.0160879
763.296	0.0156556
763.374	0.0154398
763.453	0.0153185
763.531	0.0151611
763.609	0.0150650
763.687	0.0152554
763.765	0.0154361
763.843	0.0155034
763.921	0.0156975
763.999	0.0159914
764.078	0.0161913
764.156	0.0162521
764.234	0.0165327
764.312	0.0165274
764.390	0.0165415
764.468	0.0164343
764.546	0.0162375
764.624	0.0162152
764.703	0.0158981
764.781	0.0156860
764.859	0.0153873
764.937	0.0151173
765.015	0.0148603
765.093	0.0145581
765.171	0.0147121
765.249	0.0147402
765.328	0.0148559
765.406	0.0150696
765.484	0.0153397
765.562	0.0157215
765.640	0.0160810
765.718	0.0165186
765.796	0.0169521
765.874	0.0171416
765.953	0.0172379
766.031	0.0174840
766.109	0.0176208
766.187	0.0178343
766.265	0.0178316
766.343	0.0177995
766.421	0.0176894
766.499	0.0175114
766.578	0.0173645
766.656	0.0172784
766.734	0.0171838
766.812	0.0171749
766.890	0.0172533
766.968	0.0174225
767.046	0.0175450
767.124	0.0176999
767.203	0.0178244
767.281	0.0181009
767.359	0.0184114
767.437	0.0183071
767.515	0.0185027
767.593	0.0183831
767.671	0.0184477
767.749	0.0181431
767.828	0.0178373
767.906	0.0175417
767.984	0.0171722
768.062	0.0169245
768.140	0.0164999
768.218	0.0161211
768.296	0.0159550
768.374	0.0155647
768.453	0.0152464
768.531	0.0148135
768.609	0.0146179
768.687	0.0144805
768.765	0.0143941
768.843	0.0144099
768.921	0.0143237
768.999	0.0142664
769.078	0.0143248
769.156	0.0146322
769.234	0.0145084
769.312	0.0144405
769.390	0.0144721
769.468	0.0145884
769.546	0.0144899
769.624	0.0145792
769.703	0.0147285
769.781	0.0145671
769.859	0.0148720
769.937	0.0148331
770.015	0.0151482
770.093	0.0153577
770.171	0.0157814
770.249	0.0162595
770.328	0.0166641
770.406	0.0169811
770.484	0.0173728
770.562	0.0177348
770.640	0.0180966
770.718	0.0181699
770.796	0.0182861
770.874	0.0183938
770.953	0.0183762
771.031	0.0183430
771.109	0.0183276
771.187	0.0181296
771.265	0.0180674
771.343	0.0181885
771.421	0.0180190
771.499	0.0178064
771.578	0.0179456
771.656	0.0179263
771.734	0.0178452
771.812	0.0178781
771.890	0.0178075
771.968	0.0178294
772.046	0.0178553
772.124	0.0179315
772.203	0.0178460
772.281	0.0176931
772.359	0.0176344
772.437	0.0173647
772.515	0.0174706
772.593	0.0175620
772.671	0.0173464
772.749	0.0173941
772.828	0.0174226
772.906	0.0175196
772.984	0.0173169
773.062	0.0174257
773.140	0.0174060
773.218	0.0172600
773.296	0.0169344
773.374	0.0166312
773.453	0.0165498
773.531	0.0161404
773.609	0.0157740
773.687	0.0151894
773.765	0.0147455
773.843	0.0142770
773.921	0.0136883
773.999	0.0130791
774.078	0.0127100
774.156	0.0123157
774.234	0.0119560
774.312	0.0117817
774.390	0.0116562
774.468	0.0116728
774.546	0.0119712
774.624	0.0122443
774.703	0.0125752
774.781	0.0129775
774.859	0.0136510
774.937	0.0141611
775.015	0.0148286
775.093	0.0151101
775.171	0.0156763
775.249	0.0160589
775.328	0.0166581
775.406	0.0170354
775.484	0.0174239
775.562	0.0179673
775.640	0.0184228
775.718	0.0189497
775.796	0.0193072
775.874	0.0198440
775.953	0.0201868
776.031	0.0203959
776.109	0.0206992
776.187	0.0208773
776.265	0.0208216
776.343	0.0210275
776.421	0.0211057
776.499	0.0207599
776.578	0.0205853
776.656	0.0203465
776.734	0.0201949
776.812	0.0199961
776.890	0.0195846
776.968	0.0191628
777.046	0.0189165
777.124	0.0188176
777.203	0.0183969
777.281	0.0180544
777.359	0.0177754
777.437	0.0173386
777.515	0.0170667
777.593	0.0168014
777.671	0.0163650
777.749	0.0160582
777.828	0.0156673
777.906	0.0151543
777.984	0.0148756
778.062	0.0146690
778.140	0.0145284
778.218	0.0140487
778.296	0.0139224
778.374	0.0137205
778.453	0.0135345
778.531	0.0135273
778.609	0.0134598
778.687	0.0134521
778.765	0.0132407
778.843	0.0132419
778.921	0.0130685
778.999	0.0131256
779.078	0.0131223
779.156	0.0130807
779.234	0.0130849
779.312	0.0130607
779.390	0.0130984
779.468	0.0132832
779.546	0.0136109
779.624	0.0136080
779.703	0.0138667
779.781	0.0140968
779.859	0.0145159
779.937	0.0147808
780.015	0.0153455
780.093	0.0158375
780.171	0.0164735
780.249	0.0169688
780.328	0.0174955
780.406	0.0178844
780.484	0.0183700
780.562	0.0189980
780.640	0.0194205
780.718	0.0197260
780.796	0.0198703
780.874	0.0202599
780.953	0.0204196
781.031	0.0205599
781.109	0.0206006
781.187	0.0206073
781.265	0.0206218
781.343	0.0205408
781.421	0.0203928
781.499	0.0202731
781.578	0.0199747
781.656	0.0197720
781.734	0.0195130
781.812	0.0192033
781.890	0.0189442
781.968	0.0184752
782.046	0.0182650
782.124	0.0177721
782.203	0.0174852
782.281	0.0173141
782.359	0.0169193
782.437	0.0163981
782.515	0.0162106
782.593	0.0159544
782.671	0.0157815
782.749	0.0154737
782.828	0.0151907
782.906	0.0148767
782.984	0.0149936
783.062	0.0147947
783.140	0.0147594
783.218	0.0146790
783.296	0.0145121
783.374	0.0146786
783.453	0.0145128
783.531	0.0145062
783.609	0.0145937
783.687	0.0146322
783.765	0.0147330
783.843	0.0145877
783.921	0.0147814
783.999	0.0146815
784.078	0.0146951
784.156	0.0147461
784.234	0.0146650
784.312	0.0146323
784.390	0.0144332
784.468	0.0143874
784.546	0.0142253
784.624	0.0140405
784.703	0.0140630
784.781	0.0138981
784.859	0.0141147
784.937	0.0140810
785.015	0.0140694
785.093	0.0142661
785.171	0.0146471
785.249	0.0147390
785.328	0.0152412
785.406	0.0157207
785.484	0.0160693
785.562	0.0165221
785.640	0.0171305
785.718	0.0176911
785.796	0.0179976
785.874	0.0186548
785.953	0.0192508
786.031	0.0196499
786.109	0.0200938
786.187	0.0204105
786.265	0.0205057
786.343	0.0207795
786.421	0.0207311
786.499	0.0206233
786.578	0.0204279
786.656	0.0202979
786.734	0.0200334
786.812	0.0198049
786.890	0.0193502
786.968	0.0189016
787.046	0.0184631
787.124	0.0180490
787.203	0.0177851
787.281	0.0173045
787.359	0.0168774
787.437	0.0166693
787.515	0.0164910
787.593	0.0161694
787.671	0.0161840
787.749	0.0160483
787.828	0.0161652
787.906	0.0160703
787.984	0.0160782
788.062	0.0160062
788.140	0.0161623
788.218	0.0161958
788.296	0.0161061
788.374	0.0159596
788.453	0.0159352
788.531	0.0160034
788.609	0.0155285
788.687	0.0154147
788.765	0.0152492
788.843	0.0148807
788.921	0.0146304
788.999	0.0143401
789.078	0.0140410
789.156	0.0140659
789.234	0.0140604
789.312	0.0139103
789.390	0.0139706
789.468	0.0141802
789.546	0.0141840
789.624	0.0144250
789.703	0.0146932
789.781	0.0150385
789.859	0.0151295
789.937	0.0154269
790.015	0.0155515
790.093	0.0155821
790.171	0.0155611
790.249	0.0157184
790.328	0.0160039
790.406	0.0159676
790.484	0.0158868
790.562	0.0161284
790.640	0.0161773
790.718	0.0162292
790.796	0.0163412
790.874	0.0164962
790.953	0.0166374
791.031	0.0168056
791.109	0.0169835
791.187	0.0170269
791.265	0.0172345
791.343	0.0175346
791.421	0.0176602
791.499	0.0177944
791.578	0.0178973
791.656	0.0182315
791.734	0.0182682
791.812	0.0182931
791.890	0.0184943
791.968	0.0185094
792.046	0.0185149
792.124	0.0186793
792.203	0.0186348
792.281	0.0185399
792.359	0.0186204
792.437	0.0186743
792.515	0.0185513
792.593	0.0184823
792.671	0.0183784
792.749	0.0182964
792.828	0.0182276
792.906	0.0182476
792.984	0.0178133
793.062	0.0177824
793.140	0.0176341
793.218	0.0174015
793.296	0.0170570
793.374	0.0168375
793.453	0.0165821
793.531	0.0163373
793.609	0.0160461
793.687	0.0160240
793.765	0.0157752
793.843	0.0157411
793.921	0.0156754
793.999	0.0156974
794.078	0.0154834
794.156	0.0153463
794.234	0.0152171
794.312	0.0151141
794.390	0.0149657
794.468	0.0149191
794.546	0.0149134
794.624	0.0148354
794.703	0.0147427
794.781	0.0146932
794.859	0.0146439
794.937	0.0147166
795.015	0.0145696
795.093	0.0145496
795.171	0.0146945
795.249	0.0145415
795.328	0.0145795
795.406	0.0145646
795.484	0.0145407
795.562	0.0147289
795.640	0.0147791
795.718	0.0149356
795.796	0.0149414
795.874	0.0151577
795.953	0.0155740
796.031	0.0158183
796.109	0.0157602
796.187	0.0161999
796.265	0.0164017
796.343	0.0167256
796.421	0.0168414
796.499	0.0171507
796.578	0.0174329
796.656	0.0176040
796.734	0.0178463
796.812	0.0179297
796.890	0.0181762
796.968	0.0182824
797.046	0.0182881
797.124	0.0183137
797.203	0.0184208
797.281	0.0183253
797.359	0.0183730
797.437	0.0183391
797.515	0.0183092
797.593	0.0182755
797.671	0.0184203
797.749	0.0182145
797.828	0.0181718
797.906	0.0182435
797.984	0.0181757
798.062	0.0180432
798.140	0.0181434
798.218	0.0178815
798.296	0.0178481
798.374	0.0176847
798.453	0.0177048
798.531	0.0176376
798.609	0.0173590
798.687	0.0172462
798.765	0.0169443
798.843	0.0168581
798.921	0.0164606
798.999	0.0162430
799.078	0.0160992
799.156	0.0158176
799.234	0.0155685
799.312	0.0154022
799.390	0.0152390
799.468	0.0151895
799.546	0.0149537
799.624	0.0147276
799.703	0.0147646
799.781	0.0147137
799.859	0.0145654
799.937	0.0145541
800.015	0.0146490
800.093	0.0146421
800.171	0.0147836
800.249	0.0148987
800.328	0.0148897
800.406	0.0150645
800.484	0.0150864
800.562	0.0153151
800.640	0.0153717
800.718	0.0155987
800.796	0.0156867
800.874	0.0158331
800.953	0.0160565
801.031	0.0162186
801.109	0.0162749
801.187	0.0163379
801.265	0.0163708
801.343	0.0166306
801.421	0.0166750
801.499	0.0168965
801.578	0.0169366
801.656	0.0170377
801.734	0.0171252
801.812	0.0171828
801.890	0.0174433
801.968	0.0175672
802.046	0.0175156
802.124	0.0176242
802.203	0.0176860
802.281	0.0178120
802.359	0.0179494
802.437	0.0179559
802.515	0.0178054
802.593	0.0179483
802.671	0.0178783
802.749	0.0177379
802.828	0.0177636
802.906	0.0175999
802.984	0.0174020
803.062	0.0173790
803.140	0.0172106
803.218	0.0172263
803.296	0.0170612
803.374	0.0168433
803.453	0.0168595
803.531	0.0167987
803.609	0.0167751
803.687	0.0165064
803.765	0.0165535
803.843	0.0164482
803.921	0.0162939
803.999	0.0161776
804.078	0.0161492
804.156	0.0161202
804.234	0.0161522
804.312	0.0162272
804.390	0.0159917
804.468	0.0160018
804.546	0.0159174
804.624	0.0160071
804.703	0.0157809
804.781	0.0159635
804.859	0.0160577
804.937	0.0160213
805.015	0.0159521
805.093	0.0161986
805.171	0.0160210
805.249	0.0161855
805.328	0.0160863
805.406	0.0160992
805.484	0.0162505
805.562	0.0163232
805.640	0.0164085
805.718	0.0164199
805.796	0.0164484
805.874	0.0163700
805.953	0.0164468
806.031	0.0165348
806.109	0.0165520
806.187	0.0163927
806.265	0.0165731
806.343	0.0164442
806.421	0.0164116
806.499	0.0163440
806.578	0.0162978
806.656	0.0164032
806.734	0.0163217
806.812	0.0162602
806.890	0.0164575
806.968	0.0164251
807.046	0.0165305
807.124	0.0166238
807.203	0.0167854
807.281	0.0168542
807.359	0.0168740
807.437	0.0169715
807.515	0.0171754
807.593	0.0170270
807.671	0.0171567
807.749	0.0172265
807.828	0.0173880
807.906	0.0174813
807.984	0.0173643
808.062	0.0174217
808.140	0.0175379
808.218	0.0174033
808.296	0.0173286
808.374	0.0172416
808.453	0.0171636
808.531	0.0169875
808.609	0.0168539
808.687	0.0167022
808.765	0.0166734
808.843	0.0166129
808.921	0.0163020
808.999	0.0162611
809.078	0.0162557
809.156	0.0162834
809.234	0.0160826
809.312	0.0158778
809.390	0.0157044
809.468	0.0158723
809.546	0.0157854
809.624	0.0157465
809.703	0.0155648
809.781	0.0156819
809.859	0.0156853
809.937	0.0157106
810.015	0.0156178
810.093	0.0157312
810.171	0.0158227
810.249	0.0160468
810.328	0.0160296
810.406	0.0161826
810.484	0.0162103
810.562	0.0162812
810.640	0.0165236
810.718	0.0165522
810.796	0.0168250
810.874	0.0169905
810.953	0.0171629
811.031	0.0171707
811.109	0.0174020
811.187	0.0172334
811.265	0.0174765
811.343	0.0173259
811.421	0.0175196
811.499	0.0173418
811.578	0.0173576
811.656	0.0173731
811.734	0.0170289
811.812	0.0170403
811.890	0.0169283
811.968	0.0168238
812.046	0.0167279
812.124	0.0166331
812.203	0.0164719
812.281	0.0165044
812.359	0.0164174
812.437	0.0164734
812.515	0.0161958
812.593	0.0161969
812.671	0.0162167
812.749	0.0163392
812.828	0.0163620
812.906	0.0164124
812.984	0.0164789
813.062	0.0165899
813.140	0.0167475
813.218	0.0166429
813.296	0.0167243
813.374	0.0167616
813.453	0.0168218
813.531	0.0169668
813.609	0.0168270
813.687	0.0167521
813.765	0.0166904
813.843	0.0166861
813.921	0.0166020
813.999	0.0164390
814.078	0.0163663
814.156	0.0162473
814.234	0.0161704
814.312	0.0159782
814.390	0.0158466
814.468	0.0158238
814.546	0.0156937
814.624	0.0155618
814.703	0.0157359
814.781	0.0155622
814.859	0.0155485
814.937	0.0155099
815.015	0.0154934
815.093	0.0156626
815.171	0.0155542
815.249	0.0156920
815.328	0.0158447
815.406	0.0158630
815.484	0.0159157
815.562	0.0159250
815.640	0.0159943
815.718	0.0161419
815.796	0.0162940
815.874	0.0165966
815.953	0.0166281
816.031	0.0165263
816.109	0.0168328
816.187	0.0169583
816.265	0.0170335
816.343	0.0171069
816.421	0.0172916
816.499	0.0173809
816.578	0.0175237
816.656	0.0176074
816.734	0.0175821
816.812	0.0176576
816.890	0.0177850
816.968	0.0177110
817.046	0.0176141
817.124	0.0176337
817.203	0.0176154
817.281	0.0175076
817.359	0.0174409
817.437	0.0172734
817.515	0.0171410
817.593	0.0171277
817.671	0.0169365
817.749	0.0167237
817.828	0.0165350
817.906	0.0163754
817.984	0.0162845
818.062	0.0161728
818.140	0.0161707
818.218	0.0158888
818.296	0.0160694
818.374	0.0161050
818.453	0.0161489
818.531	0.0160826
818.609	0.0161343
818.687	0.0161451
818.765	0.0162641
818.843	0.0163946
818.921	0.0161742
818.999	0.0164949
819.078	0.0165033
819.156	0.0164127
819.234	0.0164596
819.312	0.0164053
819.390	0.0165155
819.468	0.0164269
819.546	0.0163081
819.624	0.0164073
819.703	0.0161721
819.781	0.0160531
819.859	0.0160403
819.937	0.0158861
820.015	0.0157787
820.093	0.0157678
820.171	0.0157123
820.249	0.0155693
820.328	0.0156604
820.406	0.0155197
820.484	0.0155672
820.562	0.0156779
820.640	0.0158203
820.718	0.0160347
820.796	0.0160803
820.874	0.0162516
820.953	0.0162370
821.031	0.0164472
821.109	0.0165857
821.187	0.0166005
821.265	0.0167593
821.343	0.0166001
821.421	0.0167484
821.499	0.0169238
821.578	0.0168730
821.656	0.0171346
821.734	0.0169266
821.812	0.0168790
821.890	0.0170068
821.968	0.0169969
822.046	0.0169001
822.124	0.0170107
822.203	0.0169290
822.281	0.0168712
822.359	0.0170506
822.437	0.0171120
822.515	0.0170060
822.593	0.0170012
822.671	0.0170458
822.749	0.0169311
822.828	0.0168793
822.906	0.0169390
822.984	0.0169192
823.062	0.0170844
823.140	0.0168713
823.218	0.0168588
823.296	0.0166947
823.374	0.0167592
823.453	0.0166023
823.531	0.0165511
823.609	0.0165294
823.687	0.0164193
823.765	0.0165112
823.843	0.0166055
823.921	0.0163429
823.999	0.0164782
824.078	0.0166237
824.156	0.0167429
824.234	0.0167533
824.312	0.0165530
824.390	0.0167664
824.468	0.0167831
824.546	0.0167055
824.624	0.0168507
824.703	0.0168314
824.781	0.0167857
824.859	0.0165795
824.937	0.0165997
825.015	0.0165253
825.093	0.0163771
825.171	0.0163382
825.249	0.0161822
825.328	0.0160426
825.406	0.0161018
825.484	0.0158091
825.562	0.0157164
825.640	0.0159217
825.718	0.0157716
825.796	0.0157781
825.874	0.0158175
825.953	0.0158418
826.031	0.0158046
826.109	0.0159689
826.187	0.0160931
826.265	0.0160726
826.343	0.0161600
826.421	0.0161758
826.499	0.0163347
826.578	0.0162955
826.656	0.0164748
826.734	0.0165334
826.812	0.0165809
826.890	0.0165722
826.968	0.0167306
827.046	0.0168867
827.124	0.0167606
827.203	0.0168469
827.281	0.0165627
827.359	0.0167182
827.437	0.0166634
827.515	0.0167083
827.593	0.0166677
827.671	0.0166039
827.749	0.0166839
827.828	0.0167377
827.906	0.0165925
827.984	0.0164638
828.062	0.0167433
828.140	0.0167641
828.218	0.0167932
828.296	0.0167551
828.374	0.0168167
828.453	0.0168591
828.531	0.0169848
828.609	0.0169453
828.687	0.0169687
828.765	0.0169942
828.843	0.0168659
828.921	0.0169480
828.999	0.0169586
829.078	0.0169110
829.156	0.0169324
829.234	0.0168321
829.312	0.0168147
829.390	0.0168879
829.468	0.0169437
829.546	0.0168206
829.624	0.0169756
829.703	0.0168087
829.781	0.0169534
829.859	0.0169677
829.937	0.0169774
830.015	0.0169228
830.093	0.0169145
830.171	0.0169175
830.249	0.0168042
830.328	0.0167249
830.406	0.0167761
830.484	0.0166277
830.562	0.0166064
830.640	0.0165125
830.718	0.0163599
830.796	0.0162492
830.874	0.0161123
830.953	0.0159823
831.031	0.0158952
831.109	0.0157936
831.187	0.0157652
831.265	0.0156673
831.343	0.0156650
831.421	0.0155197
831.499	0.0157126
831.578	0.0157153
831.656	0.0157294
831.734	0.0156313
831.812	0.0158379
831.890	0.0161279
831.968	0.0161419
832.046	0.0161066
832.124	0.0161350
832.203	0.0162424
832.281	0.0163129
832.359	0.0162798
832.437	0.0163511
832.515	0.0165319
832.593	0.0163737
832.671	0.0163539
832.749	0.0164409
832.828	0.0165227
832.906	0.0164739
832.984	0.0166218
833.062	0.0166326
833.140	0.0166954
833.218	0.0167323
833.296	0.0166882
833.374	0.0168018
833.453	0.0168726
833.531	0.0170409
833.609	0.0168878
833.687	0.0169817
833.765	0.0170596
833.843	0.0169931
833.921	0.0170103
833.999	0.0167998
834.078	0.0168452
834.156	0.0168305
834.234	0.0167345
834.312	0.0167513
834.390	0.0166070
834.468	0.0166890
834.546	0.0165894
834.624	0.0166911
834.703	0.0167692
834.781	0.0167155
834.859	0.0166135
834.937	0.0165730
835.015	0.0165897
835.093	0.0167847
835.171	0.0166953
835.249	0.0166577
835.328	0.0166408
835.406	0.0166864
835.484	0.0166538
835.562	0.0166540
835.640	0.0166915
835.718	0.0166338
835.796	0.0165206
835.874	0.0166195
835.953	0.0166761
836.031	0.0164872
836.109	0.0164754
836.187	0.0164847
836.265	0.0164017
836.343	0.0163567
836.421	0.0163654
836.499	0.0162555
836.578	0.0163285
836.656	0.0162579
836.734	0.0162977
836.812	0.0163022
836.890	0.0162462
836.968	0.0162616
837.046	0.0163248
837.124	0.0161682
837.203	0.0162484
837.281	0.0162409
837.359	0.0162849
837.437	0.0163829
837.515	0.0161415
837.593	0.0162833
837.671	0.0162383
837.749	0.0162279
837.828	0.0164645
837.906	0.0164572
837.984	0.0164394
838.062	0.0164494
838.140	0.0162878
838.218	0.0164815
838.296	0.0163395
838.374	0.0163935
838.453	0.0163705
838.531	0.0161646
838.609	0.0161407
838.687	0.0161993
838.765	0.0161602
838.843	0.0161931
838.921	0.0163040
838.999	0.0162994
839.078	0.0163210
839.156	0.0162431
839.234	0.0164837
839.312	0.0164404
839.390	0.0164081
839.468	0.0164340
839.546	0.0165042
839.624	0.0164630
839.703	0.0164322
839.781	0.0164127
839.859	0.0165117
839.937	0.0165214
840.015	0.0163290
840.093	0.0163995
840.171	0.0164581
840.249	0.0163905
840.328	0.0164516
840.406	0.0163775
840.484	0.0164039
840.562	0.0165823
840.640	0.0166085
840.718	0.0166082
840.796	0.0167500
840.874	0.0167672
840.953	0.0167104
841.031	0.0168097
841.109	0.0168630
841.187	0.0168529
841.265	0.0169713
841.343	0.0168669
841.421	0.0169147
841.499	0.0170043
841.578	0.0168472
841.656	0.0168638
841.734	0.0168829
841.812	0.0168987
841.890	0.0168048
841.968	0.0167197
842.046	0.0167857
842.124	0.0168314
842.203	0.0167629
842.281	0.0166818
842.359	0.0166896
842.437	0.0167480
842.515	0.0166325
842.593	0.0164397
842.671	0.0164989
842.749	0.0164075
842.828	0.0162638
842.906	0.0162827
842.984	0.0162849
843.062	0.0161611
843.140	0.0161349
843.218	0.0162251
843.296	0.0162429
843.374	0.0158601
843.453	0.0159898
843.531	0.0160523
843.609	0.0161243
843.687	0.0161937
843.765	0.0162242
843.843	0.0163898
843.921	0.0162064
843.999	0.0160429
844.078	0.0163398
844.156	0.0163211
844.234	0.0164777
844.312	0.0164098
844.390	0.0162653
844.468	0.0164236
844.546	0.0163188
844.624	0.0163129
844.703	0.0162175
844.781	0.0163924
844.859	0.0163670
844.937	0.0163062
845.015	0.0163799
845.093	0.0164603
845.171	0.0164436
845.249	0.0164909
845.328	0.0164211
845.406	0.0165684
845.484	0.0167311
845.562	0.0166872
845.640	0.0167059
845.718	0.0166219
845.796	0.0166393
845.874	0.0168307
845.953	0.0168400
846.031	0.0168797
846.109	0.0169171
846.187	0.0169109
846.265	0.0169128
846.343	0.0169527
846.421	0.0168914
846.499	0.0168775
846.578	0.0169933
846.656	0.0170437
846.734	0.0168495
846.812	0.0169434
846.890	0.0168002
846.968	0.0166972
847.046	0.0166765
847.124	0.0166757
847.203	0.0166012
847.281	0.0166035
847.359	0.0164512
847.437	0.0163303
847.515	0.0164071
847.593	0.0163467
847.671	0.0162993
847.749	0.0162360
847.828	0.0162906
847.906	0.0162910
847.984	0.0161732
848.062	0.0159682
848.140	0.0163033
848.218	0.0162844
848.296	0.0161716
848.374	0.0161903
848.453	0.0161291
848.531	0.0161910
848.609	0.0162363
848.687	0.0161559
848.765	0.0162280
848.843	0.0162408
848.921	0.0162911
848.999	0.0162325
849.078	0.0162989
849.156	0.0163947
849.234	0.0165375
849.312	0.0164679
849.390	0.0164009
849.468	0.0165672
849.546	0.0166416
849.624	0.0167501
849.703	0.0165919
849.781	0.0167266
849.859	0.0166757
849.937	0.0166251
850.015	0.0166354
850.093	0.0166034
850.171	0.0167986
850.249	0.0168081
850.328	0.0166476
850.406	0.0166900
850.484	0.0167073
850.562	0.0166198
850.640	0.0166057
850.718	0.0166283
850.796	0.0166389
850.874	0.0166527
850.953	0.0166877
851.031	0.0165928
851.109	0.0165821
851.187	0.0165946
851.265	0.0166145
851.343	0.0167687
851.421	0.0166219
851.499	0.0167754
851.578	0.0168151
851.656	0.0169159
851.734	0.0168768
851.812	0.0169245
851.890	0.0167737
851.968	0.0168227
852.046	0.0167411
852.124	0.0167561
852.203	0.0168055
852.281	0.0166724
852.359	0.0166113
852.437	0.0168048
852.515	0.0166737
852.593	0.0165651
852.671	0.0165406
852.749	0.0163868
852.828	0.0163187
852.906	0.0163836
852.984	0.0162788
853.062	0.0161536
853.140	0.0162409
853.218	0.0162094
853.296	0.0160419
853.374	0.0160199
853.453	0.0159045
853.531	0.0158878
853.609	0.0161491
853.687	0.0160345
853.765	0.0158863
853.843	0.0160030
853.921	0.0159407
853.999	0.0159388
854.078	0.0160711
854.156	0.0162485
854.234	0.0162788
854.312	0.0165230
854.390	0.0164927
854.468	0.0164243
854.546	0.0165345
854.624	0.0167414
854.703	0.0168004
854.781	0.0167368
854.859	0.0168820
854.937	0.0169923
855.015	0.0169899
855.093	0.0172318
855.171	0.0171806
855.249	0.0171186
855.328	0.0171704
855.406	0.0171521
855.484	0.0171858
855.562	0.0170366
855.640	0.0169151
855.718	0.0169322
855.796	0.0168339
855.874	0.0167986
855.953	0.0166890
856.031	0.0166174
856.109	0.0164940
856.187	0.0164620
856.265	0.0165193
856.343	0.0163230
856.421	0.0163671
856.499	0.0162634
856.578	0.0165391
856.656	0.0164316
856.734	0.0164792
856.812	0.0163850
856.890	0.0166165
856.968	0.0165183
857.046	0.0165440
857.124	0.0165852
857.203	0.0164738
857.281	0.0165236
857.359	0.0165977
857.437	0.0165375
857.515	0.0163954
857.593	0.0162895
857.671	0.0162943
857.749	0.0163390
857.828	0.0160991
857.906	0.0161148
857.984	0.0162335
858.062	0.0160365
858.140	0.0161103
858.218	0.0160610
858.296	0.0158939
858.374	0.0160160
858.453	0.0161770
858.531	0.0160612
858.609	0.0160766
858.687	0.0160170
858.765	0.0161885
858.843	0.0163959
858.921	0.0163224
858.999	0.0165617
859.078	0.0165887
859.156	0.0166333
859.234	0.0166100
859.312	0.0168087
859.390	0.0167058
859.468	0.0168401
859.546	0.0167934
859.624	0.0167966
859.703	0.0167770
859.781	0.0168491
859.859	0.0168423
859.937	0.0166731
860.015	0.0168889
860.093	0.0166317
860.171	0.0167793
860.249	0.0167350
860.328	0.0167217
860.406	0.0166580
860.484	0.0166749
860.562	0.0166711
860.640	0.0165238
860.718	0.0166469
860.796	0.0164857
860.874	0.0166202
860.953	0.0164780
861.031	0.0167339
861.109	0.0166578
861.187	0.0165910
861.265	0.0165392
861.343	0.0164153
861.421	0.0165559
861.499	0.0163564
861.578	0.0164577
861.656	0.0164027
861.734	0.0162743
861.812	0.0163068
861.890	0.0161203
861.968	0.0163724
862.046	0.0164185
862.124	0.0161494
862.203	0.0162388
862.281	0.0164378
862.359	0.0164468
862.437	0.0163882
862.515	0.0165482
862.593	0.0165823
862.671	0.0166803
862.749	0.0166907
862.828	0.0167448
862.906	0.0168056
862.984	0.0168961
863.062	0.0168181
863.140	0.0170263
863.218	0.0170245
863.296	0.0170090
863.374	0.0168770
863.453	0.0168729
863.531	0.0169006
863.609	0.0168047
863.687	0.0166926
863.765	0.0165447
863.843	0.0164281
863.921	0.0164426
863.999	0.0162017
864.078	0.0161980
864.156	0.0161194
864.234	0.0161946
864.312	0.0161774
864.390	0.0159993
864.468	0.0161826
864.546	0.0161563
864.624	0.0160587
864.703	0.0160842
864.781	0.0161353
864.859	0.0161819
864.937	0.0161999
865.015	0.0161754
865.093	0.0162617
865.171	0.0162499
865.249	0.0162140
865.328	0.0164761
865.406	0.0163959
865.484	0.0163400
865.562	0.0163269
865.640	0.0162646
865.718	0.0163382
865.796	0.0163479
865.874	0.0162836
865.953	0.0164201
866.031	0.0164301
866.109	0.0164471
866.187	0.0163944
866.265	0.0164292
866.343	0.0165643
866.421	0.0166508
866.499	0.0165855
866.578	0.0166367
866.656	0.0165731
866.734	0.0167149
866.812	0.0167000
866.890	0.0165976
866.968	0.0167600
867.046	0.0167918
867.124	0.0167394
867.203	0.0167716
867.281	0.0168310
867.359	0.0168025
867.437	0.0168351
867.515	0.0169342
867.593	0.0169220
867.671	0.0167655
867.749	0.0170351
867.828	0.0168527
867.906	0.0169577
867.984	0.0169484
868.062	0.0169912
868.140	0.0168838
868.218	0.0168256
868.296	0.0167046
868.374	0.0167004
868.453	0.0166846
868.531	0.0166581
868.609	0.0165084
868.687	0.0166508
868.765	0.0165438
868.843	0.0165897
868.921	0.0164278
868.999	0.0163974
869.078	0.0165331
869.156	0.0165427
869.234	0.0164581
869.312	0.0164083
869.390	0.0164648
869.468	0.0164189
869.546	0.0164234
869.624	0.0164276
869.703	0.0165443
869.781	0.0164865
869.859	0.0164117
869.937	0.0164249
870.015	0.0164262
870.093	0.0163982
870.171	0.0163850
870.249	0.0162141
870.328	0.0161774
870.406	0.0162474
870.484	0.0162165
870.562	0.0161314
870.640	0.0161275
870.718	0.0161009
870.796	0.0160271
870.874	0.0160950
870.953	0.0161505
871.031	0.0161369
871.109	0.0160302
871.187	0.0160336
871.265	0.0162045
871.343	0.0162070
871.421	0.0159603
871.499	0.0160313
871.578	0.0160742
871.656	0.0162284
871.734	0.0162793
871.812	0.0161848
871.890	0.0163758
871.968	0.0165007
872.046	0.0165681
872.124	0.0164919
872.203	0.0166879
872.281	0.0167265
872.359	0.0167267
872.437	0.0168326
872.515	0.0170302
872.593	0.0171013
872.671	0.0171078
872.749	0.0171279
872.828	0.0172978
872.906	0.0172610
872.984	0.0172971
873.062	0.0173003
873.140	0.0172456
873.218	0.0173505
873.296	0.0172695
873.374	0.0173271
873.453	0.0170555
873.531	0.0170959
873.609	0.0170199
873.687	0.0171439
873.765	0.0169978
873.843	0.0170148
873.921	0.0167805
873.999	0.0167829
874.078	0.0166630
874.156	0.0168194
874.234	0.0167244
874.312	0.0166238
874.390	0.0164451
874.468	0.0165980
874.546	0.0163597
874.624	0.0163552
874.703	0.0163995
874.781	0.0162447
874.859	0.0161841
874.937	0.0161629
875.015	0.0159785
875.093	0.0160427
875.171	0.0159167
875.249	0.0158476
875.328	0.0159615
875.406	0.0157981
875.484	0.0156853
875.562	0.0158569
875.640	0.0156981
875.718	0.0156383
875.796	0.0157085
875.874	0.0158873
875.953	0.0159701
876.031	0.0159547
876.109	0.0160224
876.187	0.0161108
876.265	0.0160126
876.343	0.0161008
876.421	0.0161996
876.499	0.0163976
876.578	0.0163336
876.656	0.0164076
876.734	0.0164050
876.812	0.0165108
876.890	0.0164498
876.968	0.0165308
877.046	0.0168243
877.124	0.0167829
877.203	0.0167111
877.281	0.0168201
877.359	0.0168697
877.437	0.0170816
877.515	0.0170882
877.593	0.0170631
877.671	0.0169199
877.749	0.0170187
877.828	0.0171565
877.906	0.0171535
877.984	0.0173034
878.062	0.0171177
878.140	0.0172207
878.218	0.0171978
878.296	0.0170714
878.374	0.0170205
878.453	0.0170126
878.531	0.0169605
878.609	0.0169035
878.687	0.0169520
878.765	0.0169767
878.843	0.0168298
878.921	0.0168077
878.999	0.0167751
879.078	0.0166322
879.156	0.0167321
879.234	0.0165974
879.312	0.0166737
879.390	0.0165355
879.468	0.0165829
879.546	0.0166763
879.624	0.0165546
879.703	0.0163949
879.781	0.0165176
879.859	0.0164382
879.937	0.0163735
880.015	0.0162709
880.093	0.0163448
880.171	0.0160921
880.249	0.0161220
880.328	0.0161050
880.406	0.0159138
880.484	0.0158638
880.562	0.0157724
880.640	0.0157697
880.718	0.0159499
880.796	0.0159090
880.874	0.0158631
880.953	0.0159466
881.031	0.0159309
881.109	0.0158423
881.187	0.0158498
881.265	0.0158537
881.343	0.0159823
881.421	0.0158825
881.499	0.0159602
881.578	0.0161520
881.656	0.0161800
881.734	0.0162241
881.812	0.0163469
881.890	0.0163065
881.968	0.0165377
882.046	0.0165804
882.124	0.0166151
882.203	0.0166823
882.281	0.0167282
882.359	0.0167858
882.437	0.0168978
882.515	0.0169106
882.593	0.0170522
882.671	0.0169956
882.749	0.0171525
882.828	0.0171112
882.906	0.0171487
882.984	0.0170779
883.062	0.0172264
883.140	0.0173023
883.218	0.0171997
883.296	0.0171319
883.374	0.0171281
883.453	0.0172573
883.531	0.0170617
883.609	0.0170441
883.687	0.0170257
883.765	0.0169711
883.843	0.0169794
883.921	0.0168452
883.999	0.0168857
884.078	0.0167400
884.156	0.0166452
884.234	0.0165397
884.312	0.0164190
884.390	0.0164671
884.468	0.0163327
884.546	0.0161871
884.624	0.0163510
884.703	0.0162511
884.781	0.0162154
884.859	0.0162113
884.937	0.0161610
885.015	0.0162080
885.093	0.0162939
885.171	0.0163541
885.249	0.0162321
885.328	0.0161356
885.406	0.0162000
885.484	0.0163542
885.562	0.0163091
885.640	0.0163795
885.718	0.0164312
885.796	0.0164170
885.874	0.0163960
885.953	0.0163149
886.031	0.0161951
886.109	0.0160985
886.187	0.0161369
886.265	0.0159924
886.343	0.0160016
886.421	0.0160130
886.499	0.0159558
886.578	0.0160384
886.656	0.0159545
886.734	0.0158857
886.812	0.0159079
886.890	0.0158694
886.968	0.0161625
887.046	0.0160699
887.124	0.0161209
887.203	0.0162814
887.281	0.0164174
887.359	0.0164368
887.437	0.0166504
887.515	0.0167582
887.593	0.0167669
887.671	0.0168533
887.749	0.0169315
887.828	0.0168962
887.906	0.0169285
887.984	0.0170538
888.062	0.0170812
888.140	0.0172253
888.218	0.0173339
888.296	0.0171500
888.374	0.0172305
888.453	0.0170883
888.531	0.0171701
888.609	0.0172112
888.687	0.0172334
888.765	0.0170576
888.843	0.0172444
888.921	0.0171825
888.999	0.0170393
889.078	0.0169022
889.156	0.0169189
889.234	0.0169483
889.312	0.0168636
889.390	0.0168757
889.468	0.0166706
889.546	0.0165913
889.624	0.0165350
889.703	0.0164526
889.781	0.0163817
889.859	0.0164474
889.937	0.0165192
890.015	0.0162806
890.093	0.0162553
890.171	0.0161906
890.249	0.0163248
890.328	0.0162589
890.406	0.0161221
890.484	0.0161652
890.562	0.0160920
890.640	0.0160946
890.718	0.0161083
890.796	0.0161100
890.874	0.0160049
890.953	0.0159875
891.031	0.0161220
891.109	0.0160191
891.187	0.0160179
891.265	0.0161005
891.343	0.0162092
891.421	0.0160783
891.499	0.0159042
891.578	0.0159991
891.656	0.0161224
891.734	0.0159710
891.812	0.0161121
891.890	0.0159918
891.968	0.0161253
892.046	0.0161678
892.124	0.0160973
892.203	0.0162078
892.281	0.0162402
892.359	0.0163383
892.437	0.0163588
892.515	0.0164439
892.593	0.0164071
892.671	0.0164640
892.749	0.0165823
892.828	0.0165456
892.906	0.0167542
892.984	0.0167136
893.062	0.0167619
893.140	0.0168516
893.218	0.0169069
893.296	0.0168729
893.374	0.0170817
893.453	0.0170711
893.531	0.0170345
893.609	0.0170746
893.687	0.0169412
893.765	0.0170701
893.843	0.0170102
893.921	0.0170296
893.999	0.0170872
894.078	0.0169923
894.156	0.0170698
894.234	0.0169881
894.312	0.0170652
894.390	0.0170715
894.468	0.0169861
894.546	0.0168253
894.624	0.0168707
894.703	0.0168559
894.781	0.0167599
894.859	0.0168259
894.937	0.0166606
895.015	0.0166509
895.093	0.0166690
895.171	0.0164760
895.249	0.0164113
895.328	0.0164745
895.406	0.0165223
895.484	0.0164957
895.562	0.0163219
895.640	0.0162741
895.718	0.0164401
895.796	0.0163999
895.874	0.0164296
895.953	0.0164011
896.031	0.0162335
896.109	0.0162670
896.187	0.0163568
896.265	0.0163156
896.343	0.0163473
896.421	0.0162149
896.499	0.0162190
896.578	0.0161227
896.656	0.0161974
896.734	0.0160789
896.812	0.0161813
896.890	0.0160497
896.968	0.0159991
897.046	0.0161602
897.124	0.0161504
897.203	0.0161618
897.281	0.0160487
897.359	0.0161427
897.437	0.0159336
897.515	0.0161036
897.593	0.0160936
897.671	0.0161053
897.749	0.0162327
897.828	0.0162078
897.906	0.0163432
897.984	0.0163055
898.062	0.0163683
898.140	0.0165739
898.218	0.0166437
898.296	0.0165798
898.374	0.0167620
898.453	0.0166930
898.531	0.0167802
898.609	0.0167944
898.687	0.0168296
898.765	0.0169624
898.843	0.0170702
898.921	0.0168451
898.999	0.0169018
899.078	0.0170966
899.156	0.0169883
899.234	0.0168851
899.312	0.0168147
899.390	0.0168831
899.468	0.0169901
899.546	0.0169268
899.624	0.0168198
899.703	0.0168736
899.781	0.0168803
899.859	0.0168116
899.937	0.0168835
900.015	0.0167236
900.093	0.0164467
900.171	0.0165680
900.249	0.0166018
900.328	0.0165070
900.406	0.0166010
900.484	0.0164053
900.562	0.0164677
900.640	0.0164606
900.718	0.0162984
900.796	0.0164267
900.874	0.0164517
900.953	0.0164829
901.031	0.0163982
901.109	0.0163134
901.187	0.0162763
901.265	0.0164407
901.343	0.0164325
901.421	0.0164271
901.499	0.0162883
901.578	0.0161932
901.656	0.0162907
901.734	0.0160989
901.812	0.0161859
901.890	0.0160900
901.968	0.0160980
902.046	0.0160823
902.124	0.0162164
902.203	0.0162502
902.281	0.0162118
902.359	0.0161336
902.437	0.0161818
902.515	0.0164974
902.593	0.0163020
902.671	0.0163814
902.749	0.0164059
902.828	0.0164328
902.906	0.0164951
902.984	0.0166703
903.062	0.0165430
903.140	0.0164832
903.218	0.0167079
903.296	0.0167440
903.374	0.0165979
903.453	0.0166731
903.531	0.0167181
903.609	0.0165931
903.687	0.0166702
903.765	0.0168021
903.843	0.0168389
903.921	0.0167096
903.999	0.0167169
904.078	0.0168222
904.156	0.0167998
904.234	0.0167814
904.312	0.0167793
904.390	0.0167724
904.468	0.0167696
904.546	0.0167734
904.624	0.0168800
904.703	0.0166547
904.781	0.0168237
904.859	0.0166995
904.937	0.0168069
905.015	0.0167845
905.093	0.0166840
905.171	0.0166493
905.249	0.0167980
905.328	0.0166488
905.406	0.0166180
905.484	0.0166061
905.562	0.0164983
905.640	0.0163162
905.718	0.0164764
905.796	0.0163725
905.874	0.0162648
905.953	0.0162546
906.031	0.0161115
906.109	0.0161146
906.187	0.0161896
906.265	0.0159882
906.343	0.0161018
906.421	0.0161500
906.499	0.0160118
906.578	0.0161427
906.656	0.0160939
906.734	0.0161086
906.812	0.0162048
906.890	0.0163652
906.968	0.0163519
907.046	0.0162133
907.124	0.0164211
907.203	0.0164625
907.281	0.0164627
907.359	0.0164845
907.437	0.0164557
907.515	0.0166410
907.593	0.0165005
907.671	0.0164797
907.749	0.0166154
907.828	0.0166989
907.906	0.0165601
907.984	0.0165011
908.062	0.0164140
908.140	0.0164908
908.218	0.0165686
908.296	0.0166930
908.374	0.0166991
908.453	0.0166537
908.531	0.0165359
908.609	0.0166837
908.687	0.0167973
908.765	0.0167160
908.843	0.0167010
908.921	0.0166365
908.999	0.0167848
909.078	0.0166749
909.156	0.0167667
909.234	0.0165952
909.312	0.0168193
909.390	0.0167474
909.468	0.0166935
909.546	0.0167133
909.624	0.0165145
909.703	0.0166975
909.781	0.0167118
909.859	0.0165470
909.937	0.0165688
910.015	0.0165169
910.093	0.0164877
910.171	0.0164912
910.249	0.0163086
910.328	0.0164153
910.406	0.0162554
910.484	0.0163631
910.562	0.0163042
910.640	0.0162589
910.718	0.0162578
910.796	0.0162750
910.874	0.0163784
910.953	0.0163551
911.031	0.0162284
911.109	0.0163142
911.187	0.0162655
911.265	0.0162681
911.343	0.0162521
911.421	0.0163142
911.499	0.0162772
911.578	0.0162583
911.656	0.0161139
911.734	0.0163274
911.812	0.0162028
911.890	0.0162251
911.968	0.0162611
912.046	0.0163197
912.124	0.0163899
912.203	0.0163110
912.281	0.0164263
912.359	0.0164618
912.437	0.0163153
912.515	0.0163821
912.593	0.0164874
912.671	0.0164191
912.749	0.0165052
912.828	0.0166086
912.906	0.0165460
912.984	0.0165125
913.062	0.0165534
913.140	0.0166571
913.218	0.0167365
913.296	0.0168941
913.374	0.0168258
913.453	0.0167788
913.531	0.0167545
913.609	0.0168299
913.687	0.0171081
913.765	0.0170702
913.843	0.0169946
913.921	0.0170506
913.999	0.0170235
914.078	0.0169564
914.156	0.0169721
914.234	0.0169416
914.312	0.0168127
914.390	0.0168742
914.468	0.0168247
914.546	0.0167002
914.624	0.0166377
914.703	0.0165628
914.781	0.0165471
914.859	0.0165285
914.937	0.0165049
915.015	0.0164780
915.093	0.0164390
915.171	0.0162870
915.249	0.0162318
915.328	0.0162889
915.406	0.0163708
915.484	0.0163342
915.562	0.0163097
915.640	0.0163044
915.718	0.0162350
915.796	0.0163261
915.874	0.0163005
915.953	0.0163274
916.031	0.0161575
916.109	0.0161404
916.187	0.0162565
916.265	0.0161530
916.343	0.0163289
916.421	0.0163438
916.499	0.0163304
916.578	0.0161924
916.656	0.0161895
916.734	0.0159945
916.812	0.0163348
916.890	0.0163559
916.968	0.0162585
917.046	0.0162161
917.124	0.0161281
917.203	0.0162172
917.281	0.0164088
917.359	0.0162689
917.437	0.0163377
917.515	0.0164524
917.593	0.0163063
917.671	0.0163885
917.749	0.0164944
917.828	0.0163926
917.906	0.0163721
917.984	0.0165294
918.062	0.0165244
918.140	0.0164078
918.218	0.0165806
918.296	0.0165891
918.374	0.0165355
918.453	0.0166131
918.531	0.0166465
918.609	0.0167705
918.687	0.0168390
918.765	0.0168249
918.843	0.0169395
918.921	0.0170193
918.999	0.0169472
919.078	0.0169559
919.156	0.0169720
919.234	0.0170989
919.312	0.0169920
919.390	0.0168999
919.468	0.0170968
919.546	0.0170235
919.624	0.0169917
919.703	0.0169305
919.781	0.0169733
919.859	0.0169011
919.937	0.0169218
