06/10/2022	18:42:24	Ver.	4.1	UNKNOWN
Optical Delay	600.015094	Delta X		0.078125	Sweeps	1	Scan Rate	0/0
Coordinates	Axis 1	NaN	Axis 2	NaN	Axis 3	NaN	Axis 4	NaN	Axis 5	NaN	Axis 6	0.000000
TX Power	0.000000	RX Power	0.000000

600.015	0.0162135
600.093	0.0161471
600.171	0.0163733
600.249	0.0162147
600.328	0.0162381
600.406	0.0162871
600.484	0.0162856
600.562	0.0162706
600.640	0.0161391
600.718	0.0162092
600.796	0.0162903
600.874	0.0164469
600.953	0.0163272
601.031	0.0161194
601.109	0.0161780
601.187	0.0162498
601.265	0.0161907
601.343	0.0162748
601.421	0.0161532
601.499	0.0162582
601.578	0.0162516
601.656	0.0163087
601.734	0.0162325
601.812	0.0163558
601.890	0.0162176
601.968	0.0163279
602.046	0.0163709
602.124	0.0162812
602.203	0.0162292
602.281	0.0163187
602.359	0.0162953
602.437	0.0162630
602.515	0.0161649
602.593	0.0161529
602.671	0.0161508
602.749	0.0163782
602.828	0.0162829
602.906	0.0162051
602.984	0.0162135
603.062	0.0163161
603.140	0.0163607
603.218	0.0161768
603.296	0.0162029
603.374	0.0162453
603.453	0.0161664
603.531	0.0162611
603.609	0.0162383
603.687	0.0161893
603.765	0.0162697
603.843	0.0162428
603.921	0.0162148
603.999	0.0162196
604.078	0.0162168
604.156	0.0162025
604.234	0.0162168
604.312	0.0163100
604.390	0.0162753
604.468	0.0162874
604.546	0.0162346
604.624	0.0161056
604.703	0.0162586
604.781	0.0162948
604.859	0.0161403
604.937	0.0162536
605.015	0.0164292
605.093	0.0162593
605.171	0.0162756
605.249	0.0161818
605.328	0.0162013
605.406	0.0162387
605.484	0.0162285
605.562	0.0162686
605.640	0.0161956
605.718	0.0163588
605.796	0.0163432
605.874	0.0162627
605.953	0.0162733
606.031	0.0162749
606.109	0.0163003
606.187	0.0162508
606.265	0.0162820
606.343	0.0162103
606.421	0.0161514
606.499	0.0161959
606.578	0.0162122
606.656	0.0163219
606.734	0.0163048
606.812	0.0161515
606.890	0.0163140
606.968	0.0162595
607.046	0.0161739
607.124	0.0162296
607.203	0.0162860
607.281	0.0162656
607.359	0.0162186
607.437	0.0162753
607.515	0.0162820
607.593	0.0162798
607.671	0.0161995
607.749	0.0162531
607.828	0.0162228
607.906	0.0162804
607.984	0.0162589
608.062	0.0162413
608.140	0.0162653
608.218	0.0161623
608.296	0.0162915
608.374	0.0162690
608.453	0.0162799
608.531	0.0163081
608.609	0.0162785
608.687	0.0162874
608.765	0.0162910
608.843	0.0161543
608.921	0.0161262
608.999	0.0162289
609.078	0.0162326
609.156	0.0162770
609.234	0.0163495
609.312	0.0162475
609.390	0.0161461
609.468	0.0162283
609.546	0.0163608
609.624	0.0162389
609.703	0.0161742
609.781	0.0163274
609.859	0.0162089
609.937	0.0163651
610.015	0.0162978
610.093	0.0162795
610.171	0.0163330
610.249	0.0161453
610.328	0.0161948
610.406	0.0161375
610.484	0.0163641
610.562	0.0162817
610.640	0.0162325
610.718	0.0162030
610.796	0.0163075
610.874	0.0162863
610.953	0.0163805
611.031	0.0162296
611.109	0.0162373
611.187	0.0163121
611.265	0.0162574
611.343	0.0161819
611.421	0.0161057
611.499	0.0162139
611.578	0.0161511
611.656	0.0162445
611.734	0.0162903
611.812	0.0163607
611.890	0.0162542
611.968	0.0161962
612.046	0.0163074
612.124	0.0163146
612.203	0.0162704
612.281	0.0162349
612.359	0.0162701
612.437	0.0162478
612.515	0.0162156
612.593	0.0162486
612.671	0.0162383
612.749	0.0162218
612.828	0.0161519
612.906	0.0162836
612.984	0.0162678
613.062	0.0161477
613.140	0.0163168
613.218	0.0162069
613.296	0.0162869
613.374	0.0162690
613.453	0.0162041
613.531	0.0162363
613.609	0.0162482
613.687	0.0161239
613.765	0.0161958
613.843	0.0162195
613.921	0.0162452
613.999	0.0162453
614.078	0.0161732
614.156	0.0162782
614.234	0.0162835
614.312	0.0162312
614.390	0.0161901
614.468	0.0162462
614.546	0.0163789
614.624	0.0162377
614.703	0.0162861
614.781	0.0161694
614.859	0.0161216
614.937	0.0163529
615.015	0.0163198
615.093	0.0162096
615.171	0.0162058
615.249	0.0162927
615.328	0.0162905
615.406	0.0162129
615.484	0.0162193
615.562	0.0161570
615.640	0.0161536
615.718	0.0163563
615.796	0.0162656
615.874	0.0162324
615.953	0.0163161
616.031	0.0162414
616.109	0.0162764
616.187	0.0162617
616.265	0.0161338
616.343	0.0163786
616.421	0.0163556
616.499	0.0162089
616.578	0.0162041
616.656	0.0163234
616.734	0.0162146
616.812	0.0162779
616.890	0.0162581
616.968	0.0161337
617.046	0.0161663
617.124	0.0162633
617.203	0.0161752
617.281	0.0162225
617.359	0.0161993
617.437	0.0161524
617.515	0.0161912
617.593	0.0162705
617.671	0.0161588
617.749	0.0162433
617.828	0.0161205
617.906	0.0162067
617.984	0.0161861
618.062	0.0161846
618.140	0.0162374
618.218	0.0161752
618.296	0.0162257
618.374	0.0162295
618.453	0.0161436
618.531	0.0162645
618.609	0.0162062
618.687	0.0162080
618.765	0.0162759
618.843	0.0162179
618.921	0.0161953
618.999	0.0163496
619.078	0.0162613
619.156	0.0161577
619.234	0.0161794
619.312	0.0163147
619.390	0.0163625
619.468	0.0161160
619.546	0.0163005
619.624	0.0163383
619.703	0.0161391
619.781	0.0162242
619.859	0.0162051
619.937	0.0162571
620.015	0.0162905
620.093	0.0162417
620.171	0.0161919
620.249	0.0163798
620.328	0.0162050
620.406	0.0162364
620.484	0.0162060
620.562	0.0161801
620.640	0.0161945
620.718	0.0161879
620.796	0.0163288
620.874	0.0161399
620.953	0.0163134
621.031	0.0163200
621.109	0.0161616
621.187	0.0161664
621.265	0.0161407
621.343	0.0161993
621.421	0.0163248
621.499	0.0161764
621.578	0.0162992
621.656	0.0162470
621.734	0.0162189
621.812	0.0162148
621.890	0.0161716
621.968	0.0163419
622.046	0.0163129
622.124	0.0163300
622.203	0.0163477
622.281	0.0161855
622.359	0.0162348
622.437	0.0162860
622.515	0.0162199
622.593	0.0163081
622.671	0.0161953
622.749	0.0163326
622.828	0.0162360
622.906	0.0162542
622.984	0.0162485
623.062	0.0161047
623.140	0.0161428
623.218	0.0163758
623.296	0.0163271
623.374	0.0161545
623.453	0.0161356
623.531	0.0161946
623.609	0.0162794
623.687	0.0161755
623.765	0.0161408
623.843	0.0162849
623.921	0.0162719
623.999	0.0161875
624.078	0.0161465
624.156	0.0162512
624.234	0.0162756
624.312	0.0163869
624.390	0.0162817
624.468	0.0162019
624.546	0.0162946
624.624	0.0161549
624.703	0.0161749
624.781	0.0162640
624.859	0.0162202
624.937	0.0161899
625.015	0.0163229
625.093	0.0163143
625.171	0.0162969
625.249	0.0163322
625.328	0.0162573
625.406	0.0162189
625.484	0.0161888
625.562	0.0162164
625.640	0.0162254
625.718	0.0161198
625.796	0.0162981
625.874	0.0162966
625.953	0.0161791
626.031	0.0161887
626.109	0.0163047
626.187	0.0163563
626.265	0.0162930
626.343	0.0163330
626.421	0.0161890
626.499	0.0162669
626.578	0.0161436
626.656	0.0163173
626.734	0.0162789
626.812	0.0162642
626.890	0.0164108
626.968	0.0162093
627.046	0.0160804
627.124	0.0161375
627.203	0.0162676
627.281	0.0161760
627.359	0.0162456
627.437	0.0163003
627.515	0.0161267
627.593	0.0161769
627.671	0.0162243
627.749	0.0163354
627.828	0.0162141
627.906	0.0163699
627.984	0.0164066
628.062	0.0162732
628.140	0.0162795
628.218	0.0161568
628.296	0.0161393
628.374	0.0162049
628.453	0.0162795
628.531	0.0162694
628.609	0.0162939
628.687	0.0162008
628.765	0.0162347
628.843	0.0162341
628.921	0.0162697
628.999	0.0163566
629.078	0.0162621
629.156	0.0162133
629.234	0.0163613
629.312	0.0163416
629.390	0.0163200
629.468	0.0160999
629.546	0.0161994
629.624	0.0162190
629.703	0.0161957
629.781	0.0163729
629.859	0.0163098
629.937	0.0162303
630.015	0.0161781
630.093	0.0161700
630.171	0.0163094
630.249	0.0162754
630.328	0.0161351
630.406	0.0162932
630.484	0.0163219
630.562	0.0162564
630.640	0.0163126
630.718	0.0162533
630.796	0.0161633
630.874	0.0162319
630.953	0.0161614
631.031	0.0162015
631.109	0.0162495
631.187	0.0162638
631.265	0.0164233
631.343	0.0162281
631.421	0.0161977
631.499	0.0162803
631.578	0.0162907
631.656	0.0163586
631.734	0.0163860
631.812	0.0162991
631.890	0.0161949
631.968	0.0161760
632.046	0.0161700
632.124	0.0162053
632.203	0.0163242
632.281	0.0162717
632.359	0.0163621
632.437	0.0162426
632.515	0.0161636
632.593	0.0162336
632.671	0.0161971
632.749	0.0161612
632.828	0.0163204
632.906	0.0163737
632.984	0.0162148
633.062	0.0163016
633.140	0.0161774
633.218	0.0163966
633.296	0.0162770
633.374	0.0161460
633.453	0.0161944
633.531	0.0163311
633.609	0.0162490
633.687	0.0162427
633.765	0.0162138
633.843	0.0162537
633.921	0.0162666
633.999	0.0162391
634.078	0.0162010
634.156	0.0161671
634.234	0.0162652
634.312	0.0162862
634.390	0.0161784
634.468	0.0163032
634.546	0.0163342
634.624	0.0162321
634.703	0.0161681
634.781	0.0161021
634.859	0.0162240
634.937	0.0162196
635.015	0.0162168
635.093	0.0160732
635.171	0.0160733
635.249	0.0163011
635.328	0.0161841
635.406	0.0162838
635.484	0.0162563
635.562	0.0161984
635.640	0.0162384
635.718	0.0162391
635.796	0.0161919
635.874	0.0162526
635.953	0.0163461
636.031	0.0162249
636.109	0.0160811
636.187	0.0163905
636.265	0.0162817
636.343	0.0162229
636.421	0.0162536
636.499	0.0161777
636.578	0.0161935
636.656	0.0162804
636.734	0.0161617
636.812	0.0160979
636.890	0.0163313
636.968	0.0162181
637.046	0.0161828
637.124	0.0163017
637.203	0.0162528
637.281	0.0162380
637.359	0.0161764
637.437	0.0162482
637.515	0.0162755
637.593	0.0162962
637.671	0.0163076
637.749	0.0162714
637.828	0.0161152
637.906	0.0163500
637.984	0.0163889
638.062	0.0160270
638.140	0.0160655
638.218	0.0162254
638.296	0.0163092
638.374	0.0162881
638.453	0.0162767
638.531	0.0163203
638.609	0.0162440
638.687	0.0161878
638.765	0.0163799
638.843	0.0163412
638.921	0.0163402
638.999	0.0162415
639.078	0.0161777
639.156	0.0162900
639.234	0.0162670
639.312	0.0162191
639.390	0.0162889
639.468	0.0161163
639.546	0.0161578
639.624	0.0163746
639.703	0.0162994
639.781	0.0162414
639.859	0.0163619
639.937	0.0162915
640.015	0.0161343
640.093	0.0161833
640.171	0.0162920
640.249	0.0163334
640.328	0.0161398
640.406	0.0162130
640.484	0.0162514
640.562	0.0161282
640.640	0.0161745
640.718	0.0162104
640.796	0.0160679
640.874	0.0163142
640.953	0.0163158
641.031	0.0163042
641.109	0.0162345
641.187	0.0162657
641.265	0.0160563
641.343	0.0161352
641.421	0.0163190
641.499	0.0162732
641.578	0.0162119
641.656	0.0163028
641.734	0.0161860
641.812	0.0163077
641.890	0.0162814
641.968	0.0162079
642.046	0.0162551
642.124	0.0162222
642.203	0.0163264
642.281	0.0163311
642.359	0.0162712
642.437	0.0162635
642.515	0.0162548
642.593	0.0162817
642.671	0.0162603
642.749	0.0162891
642.828	0.0162284
642.906	0.0162612
642.984	0.0162705
643.062	0.0162635
643.140	0.0162241
643.218	0.0162520
643.296	0.0162327
643.374	0.0161734
643.453	0.0162843
643.531	0.0162679
643.609	0.0162829
643.687	0.0163882
643.765	0.0161611
643.843	0.0163053
643.921	0.0162846
643.999	0.0162315
644.078	0.0161829
644.156	0.0162505
644.234	0.0163181
644.312	0.0163894
644.390	0.0161892
644.468	0.0161978
644.546	0.0162485
644.624	0.0163335
644.703	0.0160828
644.781	0.0162239
644.859	0.0161835
644.937	0.0163039
645.015	0.0162622
645.093	0.0164397
645.171	0.0162717
645.249	0.0162830
645.328	0.0163130
645.406	0.0162493
645.484	0.0163305
645.562	0.0163478
645.640	0.0162140
645.718	0.0161719
645.796	0.0162940
645.874	0.0162873
645.953	0.0162991
646.031	0.0163202
646.109	0.0163210
646.187	0.0161726
646.265	0.0162811
646.343	0.0162646
646.421	0.0163241
646.499	0.0162307
646.578	0.0162122
646.656	0.0162266
646.734	0.0164116
646.812	0.0162796
646.890	0.0163210
646.968	0.0162160
647.046	0.0161848
647.124	0.0162469
647.203	0.0164161
647.281	0.0162735
647.359	0.0162965
647.437	0.0163822
647.515	0.0162437
647.593	0.0162236
647.671	0.0164356
647.749	0.0164085
647.828	0.0163580
647.906	0.0163189
647.984	0.0163521
648.062	0.0164632
648.140	0.0163752
648.218	0.0161660
648.296	0.0162422
648.374	0.0163631
648.453	0.0162232
648.531	0.0163905
648.609	0.0164828
648.687	0.0163129
648.765	0.0163889
648.843	0.0162463
648.921	0.0161817
648.999	0.0163334
649.078	0.0162991
649.156	0.0163822
649.234	0.0163309
649.312	0.0162885
649.390	0.0163258
649.468	0.0163426
649.546	0.0163716
649.624	0.0163609
649.703	0.0161855
649.781	0.0162008
649.859	0.0162624
649.937	0.0163091
650.015	0.0161789
650.093	0.0162694
650.171	0.0161819
650.249	0.0161040
650.328	0.0162709
650.406	0.0162087
650.484	0.0162143
650.562	0.0162463
650.640	0.0162575
650.718	0.0161674
650.796	0.0162551
650.874	0.0162981
650.953	0.0163275
651.031	0.0162915
651.109	0.0162679
651.187	0.0162183
651.265	0.0161899
651.343	0.0161755
651.421	0.0162658
651.499	0.0162726
651.578	0.0160819
651.656	0.0160863
651.734	0.0161492
651.812	0.0160992
651.890	0.0161912
651.968	0.0162231
652.046	0.0161698
652.124	0.0162151
652.203	0.0160612
652.281	0.0160841
652.359	0.0161575
652.437	0.0161256
652.515	0.0160143
652.593	0.0161674
652.671	0.0161642
652.749	0.0161853
652.828	0.0162099
652.906	0.0162081
652.984	0.0160841
653.062	0.0162634
653.140	0.0161819
653.218	0.0162436
653.296	0.0161778
653.374	0.0161134
653.453	0.0162976
653.531	0.0162456
653.609	0.0161005
653.687	0.0162345
653.765	0.0162566
653.843	0.0161655
653.921	0.0162151
653.999	0.0160590
654.078	0.0162015
654.156	0.0162910
654.234	0.0162214
654.312	0.0162413
654.390	0.0162651
654.468	0.0163232
654.546	0.0162260
654.624	0.0161057
654.703	0.0163461
654.781	0.0162946
654.859	0.0160830
654.937	0.0161240
655.015	0.0162852
655.093	0.0163685
655.171	0.0162653
655.249	0.0161861
655.328	0.0161302
655.406	0.0161435
655.484	0.0161455
655.562	0.0162392
655.640	0.0161063
655.718	0.0161668
655.796	0.0162112
655.874	0.0161393
655.953	0.0161271
656.031	0.0162796
656.109	0.0162614
656.187	0.0160020
656.265	0.0160696
656.343	0.0162119
656.421	0.0162344
656.499	0.0161902
656.578	0.0161153
656.656	0.0162281
656.734	0.0161723
656.812	0.0162353
656.890	0.0161338
656.968	0.0162627
657.046	0.0162265
657.124	0.0162059
657.203	0.0161465
657.281	0.0161611
657.359	0.0160003
657.437	0.0162794
657.515	0.0161854
657.593	0.0161190
657.671	0.0160978
657.749	0.0161192
657.828	0.0162038
657.906	0.0162220
657.984	0.0161588
658.062	0.0161158
658.140	0.0161024
658.218	0.0161794
658.296	0.0161375
658.374	0.0161366
658.453	0.0161401
658.531	0.0162147
658.609	0.0160419
658.687	0.0161598
658.765	0.0161133
658.843	0.0162299
658.921	0.0162146
658.999	0.0160741
659.078	0.0161471
659.156	0.0162016
659.234	0.0162477
659.312	0.0160748
659.390	0.0162519
659.468	0.0162202
659.546	0.0161239
659.624	0.0162696
659.703	0.0161329
659.781	0.0161817
659.859	0.0160979
659.937	0.0161168
660.015	0.0162836
660.093	0.0162901
660.171	0.0162519
660.249	0.0161221
660.328	0.0162115
660.406	0.0163034
660.484	0.0161994
660.562	0.0162109
660.640	0.0162445
660.718	0.0162692
660.796	0.0162785
660.874	0.0161964
660.953	0.0161632
661.031	0.0161568
661.109	0.0162781
661.187	0.0162451
661.265	0.0162632
661.343	0.0161861
661.421	0.0163800
661.499	0.0162522
661.578	0.0162750
661.656	0.0162463
661.734	0.0163846
661.812	0.0163379
661.890	0.0162537
661.968	0.0161825
662.046	0.0163444
662.124	0.0163928
662.203	0.0162357
662.281	0.0161198
662.359	0.0163425
662.437	0.0164697
662.515	0.0161588
662.593	0.0162620
662.671	0.0162381
662.749	0.0164004
662.828	0.0164043
662.906	0.0164128
662.984	0.0162962
663.062	0.0161629
663.140	0.0164267
663.218	0.0162910
663.296	0.0163568
663.374	0.0163010
663.453	0.0164383
663.531	0.0163081
663.609	0.0162418
663.687	0.0163323
663.765	0.0161788
663.843	0.0161883
663.921	0.0163181
663.999	0.0163155
664.078	0.0161878
664.156	0.0162431
664.234	0.0163451
664.312	0.0163052
664.390	0.0162823
664.468	0.0163318
664.546	0.0163225
664.624	0.0162709
664.703	0.0163446
664.781	0.0164169
664.859	0.0163818
664.937	0.0164162
665.015	0.0163119
665.093	0.0162248
665.171	0.0163686
665.249	0.0162222
665.328	0.0163107
665.406	0.0162503
665.484	0.0163660
665.562	0.0163741
665.640	0.0164133
665.718	0.0161700
665.796	0.0162851
665.874	0.0162624
665.953	0.0162549
666.031	0.0162480
666.109	0.0162532
666.187	0.0162958
666.265	0.0163059
666.343	0.0161942
666.421	0.0161195
666.499	0.0161755
666.578	0.0162074
666.656	0.0160969
666.734	0.0162176
666.812	0.0162727
666.890	0.0161826
666.968	0.0163876
667.046	0.0161597
667.124	0.0162552
667.203	0.0163019
667.281	0.0162212
667.359	0.0161224
667.437	0.0162496
667.515	0.0161402
667.593	0.0161359
667.671	0.0163280
667.749	0.0162294
667.828	0.0163126
667.906	0.0161260
667.984	0.0162833
668.062	0.0163224
668.140	0.0162109
668.218	0.0163427
668.296	0.0162693
668.374	0.0162559
668.453	0.0163121
668.531	0.0163718
668.609	0.0161172
668.687	0.0161078
668.765	0.0161997
668.843	0.0162440
668.921	0.0161442
668.999	0.0161800
669.078	0.0161822
669.156	0.0161997
669.234	0.0161627
669.312	0.0163057
669.390	0.0163280
669.468	0.0163627
669.546	0.0161678
669.624	0.0161907
669.703	0.0163598
669.781	0.0161501
669.859	0.0162098
669.937	0.0160398
670.015	0.0162674
670.093	0.0162060
670.171	0.0162366
670.249	0.0163236
670.328	0.0162291
670.406	0.0162080
670.484	0.0161098
670.562	0.0161799
670.640	0.0163222
670.718	0.0161169
670.796	0.0162042
670.874	0.0161847
670.953	0.0162579
671.031	0.0162345
671.109	0.0161177
671.187	0.0162502
671.265	0.0162344
671.343	0.0161430
671.421	0.0160053
671.499	0.0162931
671.578	0.0161620
671.656	0.0161974
671.734	0.0161673
671.812	0.0161850
671.890	0.0162317
671.968	0.0162409
672.046	0.0162364
672.124	0.0163049
672.203	0.0162880
672.281	0.0161979
672.359	0.0162555
672.437	0.0160429
672.515	0.0160652
672.593	0.0161359
672.671	0.0161665
672.749	0.0161861
672.828	0.0162202
672.906	0.0161810
672.984	0.0162023
673.062	0.0162626
673.140	0.0161234
673.218	0.0161610
673.296	0.0162176
673.374	0.0163449
673.453	0.0161781
673.531	0.0161726
673.609	0.0161563
673.687	0.0162063
673.765	0.0160389
673.843	0.0161140
673.921	0.0163141
673.999	0.0162975
674.078	0.0162392
674.156	0.0162418
674.234	0.0162859
674.312	0.0160364
674.390	0.0160746
674.468	0.0160648
674.546	0.0162353
674.624	0.0163255
674.703	0.0162167
674.781	0.0161696
674.859	0.0161066
674.937	0.0162255
675.015	0.0162196
675.093	0.0162488
675.171	0.0162304
675.249	0.0162373
675.328	0.0160847
675.406	0.0162344
675.484	0.0161916
675.562	0.0160124
675.640	0.0160497
675.718	0.0161719
675.796	0.0162990
675.874	0.0161124
675.953	0.0160992
676.031	0.0161757
676.109	0.0161839
676.187	0.0162889
676.265	0.0161753
676.343	0.0162885
676.421	0.0162240
676.499	0.0161739
676.578	0.0160635
676.656	0.0160740
676.734	0.0161626
676.812	0.0161565
676.890	0.0161336
676.968	0.0162263
677.046	0.0161288
677.124	0.0162749
677.203	0.0161896
677.281	0.0161459
677.359	0.0161205
677.437	0.0161612
677.515	0.0160860
677.593	0.0161601
677.671	0.0161964
677.749	0.0161686
677.828	0.0161879
677.906	0.0162170
677.984	0.0162172
678.062	0.0162270
678.140	0.0162855
678.218	0.0162326
678.296	0.0161599
678.374	0.0160868
678.453	0.0161700
678.531	0.0161027
678.609	0.0161477
678.687	0.0161322
678.765	0.0161621
678.843	0.0161784
678.921	0.0160477
678.999	0.0160886
679.078	0.0164058
679.156	0.0162088
679.234	0.0161960
679.312	0.0160814
679.390	0.0162515
679.468	0.0161230
679.546	0.0160280
679.624	0.0161899
679.703	0.0162563
679.781	0.0161868
679.859	0.0161960
679.937	0.0162106
680.015	0.0160884
680.093	0.0161530
680.171	0.0161521
680.249	0.0162276
680.328	0.0161983
680.406	0.0161800
680.484	0.0162002
680.562	0.0162099
680.640	0.0161749
680.718	0.0161984
680.796	0.0160457
680.874	0.0161124
680.953	0.0162091
681.031	0.0161977
681.109	0.0161927
681.187	0.0163028
681.265	0.0162527
681.343	0.0161853
681.421	0.0161185
681.499	0.0161516
681.578	0.0162929
681.656	0.0161002
681.734	0.0161938
681.812	0.0162767
681.890	0.0162654
681.968	0.0162912
682.046	0.0161369
682.124	0.0161830
682.203	0.0162428
682.281	0.0161989
682.359	0.0163248
682.437	0.0161315
682.515	0.0161951
682.593	0.0163998
682.671	0.0162268
682.749	0.0162789
682.828	0.0162756
682.906	0.0162047
682.984	0.0161755
683.062	0.0163381
683.140	0.0161565
683.218	0.0161710
683.296	0.0162727
683.374	0.0162930
683.453	0.0163898
683.531	0.0163516
683.609	0.0161521
683.687	0.0160413
683.765	0.0163447
683.843	0.0162548
683.921	0.0162450
683.999	0.0163026
684.078	0.0162767
684.156	0.0162366
684.234	0.0162226
684.312	0.0162938
684.390	0.0164251
684.468	0.0162684
684.546	0.0163277
684.624	0.0164167
684.703	0.0163634
684.781	0.0162534
684.859	0.0161604
684.937	0.0162720
685.015	0.0162415
685.093	0.0163700
685.171	0.0162024
685.249	0.0162551
685.328	0.0163018
685.406	0.0163173
685.484	0.0162145
685.562	0.0162560
685.640	0.0161938
685.718	0.0162101
685.796	0.0162683
685.874	0.0162636
685.953	0.0162190
686.031	0.0163410
686.109	0.0162929
686.187	0.0162643
686.265	0.0163305
686.343	0.0161317
686.421	0.0161693
686.499	0.0161377
686.578	0.0163386
686.656	0.0161978
686.734	0.0163410
686.812	0.0161883
686.890	0.0161252
686.968	0.0162382
687.046	0.0162149
687.124	0.0162373
687.203	0.0162769
687.281	0.0162276
687.359	0.0162093
687.437	0.0163719
687.515	0.0161144
687.593	0.0161910
687.671	0.0161516
687.749	0.0162200
687.828	0.0163204
687.906	0.0162854
687.984	0.0162905
688.062	0.0161060
688.140	0.0163063
688.218	0.0162746
688.296	0.0162849
688.374	0.0162953
688.453	0.0161854
688.531	0.0162277
688.609	0.0162888
688.687	0.0161816
688.765	0.0163528
688.843	0.0162373
688.921	0.0162189
688.999	0.0162003
689.078	0.0162727
689.156	0.0163932
689.234	0.0162552
689.312	0.0162167
689.390	0.0162034
689.468	0.0162616
689.546	0.0162396
689.624	0.0161857
689.703	0.0161010
689.781	0.0163516
689.859	0.0163194
689.937	0.0162305
690.015	0.0161315
690.093	0.0162229
690.171	0.0163220
690.249	0.0163840
690.328	0.0162330
690.406	0.0161954
690.484	0.0161282
690.562	0.0160546
690.640	0.0163109
690.718	0.0162743
690.796	0.0161497
690.874	0.0162540
690.953	0.0162096
691.031	0.0162565
691.109	0.0162782
691.187	0.0161657
691.265	0.0161946
691.343	0.0163119
691.421	0.0163313
691.499	0.0163154
691.578	0.0162551
691.656	0.0162489
691.734	0.0162372
691.812	0.0161353
691.890	0.0162466
691.968	0.0162200
692.046	0.0161473
692.124	0.0162731
692.203	0.0163319
692.281	0.0162042
692.359	0.0162121
692.437	0.0162283
692.515	0.0162479
692.593	0.0162373
692.671	0.0161861
692.749	0.0161862
692.828	0.0163005
692.906	0.0162828
692.984	0.0162228
693.062	0.0164040
693.140	0.0163844
693.218	0.0161485
693.296	0.0163091
693.374	0.0162475
693.453	0.0161897
693.531	0.0163492
693.609	0.0161607
693.687	0.0162127
693.765	0.0162302
693.843	0.0162140
693.921	0.0162051
693.999	0.0162201
694.078	0.0163255
694.156	0.0161364
694.234	0.0162894
694.312	0.0162801
694.390	0.0161701
694.468	0.0161416
694.546	0.0162318
694.624	0.0163396
694.703	0.0160902
694.781	0.0163088
694.859	0.0163288
694.937	0.0161890
695.015	0.0163605
695.093	0.0161984
695.171	0.0161934
695.249	0.0163128
695.328	0.0162759
695.406	0.0162317
695.484	0.0162576
695.562	0.0161983
695.640	0.0161619
695.718	0.0161800
695.796	0.0162286
695.874	0.0160461
695.953	0.0162182
696.031	0.0162486
696.109	0.0163029
696.187	0.0162724
696.265	0.0162863
696.343	0.0162119
696.421	0.0162215
696.499	0.0162517
696.578	0.0161750
696.656	0.0162532
696.734	0.0162959
696.812	0.0162405
696.890	0.0163314
696.968	0.0163041
697.046	0.0162858
697.124	0.0162736
697.203	0.0162447
697.281	0.0162431
697.359	0.0162603
697.437	0.0162168
697.515	0.0162381
697.593	0.0161873
697.671	0.0162958
697.749	0.0161208
697.828	0.0161593
697.906	0.0162193
697.984	0.0161781
698.062	0.0162272
698.140	0.0161821
698.218	0.0160810
698.296	0.0162376
698.374	0.0162720
698.453	0.0161336
698.531	0.0162378
698.609	0.0160975
698.687	0.0161951
698.765	0.0161278
698.843	0.0161334
698.921	0.0163569
698.999	0.0162695
699.078	0.0161678
699.156	0.0162789
699.234	0.0161656
699.312	0.0161972
699.390	0.0161926
699.468	0.0161477
699.546	0.0162289
699.624	0.0162051
699.703	0.0162741
699.781	0.0161577
699.859	0.0161793
699.937	0.0159827
700.015	0.0161918
700.093	0.0162283
700.171	0.0162304
700.249	0.0161678
700.328	0.0163142
700.406	0.0162481
700.484	0.0163053
700.562	0.0162603
700.640	0.0161790
700.718	0.0162405
700.796	0.0161981
700.874	0.0162579
700.953	0.0162801
701.031	0.0161598
701.109	0.0163211
701.187	0.0163761
701.265	0.0161881
701.343	0.0160980
701.421	0.0162497
701.499	0.0162785
701.578	0.0162434
701.656	0.0161094
701.734	0.0162940
701.812	0.0162002
701.890	0.0160950
701.968	0.0162688
702.046	0.0160813
702.124	0.0162717
702.203	0.0162333
702.281	0.0161326
702.359	0.0161805
702.437	0.0162670
702.515	0.0161208
702.593	0.0161104
702.671	0.0160957
702.749	0.0162380
702.828	0.0162857
702.906	0.0162589
702.984	0.0161248
703.062	0.0162663
703.140	0.0161617
703.218	0.0162331
703.296	0.0161957
703.374	0.0161801
703.453	0.0162530
703.531	0.0162426
703.609	0.0161588
703.687	0.0161711
703.765	0.0161893
703.843	0.0162911
703.921	0.0160536
703.999	0.0161243
704.078	0.0162702
704.156	0.0161649
704.234	0.0162857
704.312	0.0162498
704.390	0.0161746
704.468	0.0161736
704.546	0.0160373
704.624	0.0162215
704.703	0.0162685
704.781	0.0161971
704.859	0.0161681
704.937	0.0161511
705.015	0.0161378
705.093	0.0162498
705.171	0.0162363
705.249	0.0162463
705.328	0.0161935
705.406	0.0162007
705.484	0.0160948
705.562	0.0162238
705.640	0.0164116
705.718	0.0162985
705.796	0.0162202
705.874	0.0163300
705.953	0.0161590
706.031	0.0161894
706.109	0.0161548
706.187	0.0162973
706.265	0.0162062
706.343	0.0162552
706.421	0.0163018
706.499	0.0163268
706.578	0.0163129
706.656	0.0161748
706.734	0.0162469
706.812	0.0162762
706.890	0.0160814
706.968	0.0162144
707.046	0.0161188
707.124	0.0161878
707.203	0.0162567
707.281	0.0162630
707.359	0.0162375
707.437	0.0161476
707.515	0.0162416
707.593	0.0162980
707.671	0.0162766
707.749	0.0163104
707.828	0.0162539
707.906	0.0163270
707.984	0.0163007
708.062	0.0162905
708.140	0.0163160
708.218	0.0162209
708.296	0.0162997
708.374	0.0163509
708.453	0.0162450
708.531	0.0163042
708.609	0.0161279
708.687	0.0161812
708.765	0.0161989
708.843	0.0162982
708.921	0.0163106
708.999	0.0162832
709.078	0.0161319
709.156	0.0161579
709.234	0.0163346
709.312	0.0163219
709.390	0.0162200
709.468	0.0163446
709.546	0.0163229
709.624	0.0162443
709.703	0.0161829
709.781	0.0162596
709.859	0.0163147
709.937	0.0163005
710.015	0.0163053
710.093	0.0163326
710.171	0.0162383
710.249	0.0162240
710.328	0.0162870
710.406	0.0163261
710.484	0.0161680
710.562	0.0162687
710.640	0.0162036
710.718	0.0163930
710.796	0.0162096
710.874	0.0163023
710.953	0.0162374
711.031	0.0162437
711.109	0.0162184
711.187	0.0161914
711.265	0.0162505
711.343	0.0162642
711.421	0.0163368
711.499	0.0162588
711.578	0.0161710
711.656	0.0160516
711.734	0.0162778
711.812	0.0162852
711.890	0.0162431
711.968	0.0162060
712.046	0.0162414
712.124	0.0163029
712.203	0.0162306
712.281	0.0162717
712.359	0.0161211
712.437	0.0162505
712.515	0.0161629
712.593	0.0162531
712.671	0.0163789
712.749	0.0163587
712.828	0.0161436
712.906	0.0161970
712.984	0.0162721
713.062	0.0162033
713.140	0.0162429
713.218	0.0161069
713.296	0.0161340
713.374	0.0162077
713.453	0.0163045
713.531	0.0161209
713.609	0.0161867
713.687	0.0162482
713.765	0.0161543
713.843	0.0163556
713.921	0.0162461
713.999	0.0161878
714.078	0.0162209
714.156	0.0161430
714.234	0.0163736
714.312	0.0164362
714.390	0.0161119
714.468	0.0163194
714.546	0.0163789
714.624	0.0162423
714.703	0.0163145
714.781	0.0162040
714.859	0.0162015
714.937	0.0162735
715.015	0.0162234
715.093	0.0162290
715.171	0.0161755
715.249	0.0161343
715.328	0.0162594
715.406	0.0163694
715.484	0.0163086
715.562	0.0164051
715.640	0.0163143
715.718	0.0163352
715.796	0.0163387
715.874	0.0162030
715.953	0.0162066
716.031	0.0162939
716.109	0.0162379
716.187	0.0161318
716.265	0.0161208
716.343	0.0161536
716.421	0.0163348
716.499	0.0162589
716.578	0.0161929
716.656	0.0162092
716.734	0.0162393
716.812	0.0162547
716.890	0.0162511
716.968	0.0161725
717.046	0.0161481
717.124	0.0161865
717.203	0.0161684
717.281	0.0162545
717.359	0.0162870
717.437	0.0162332
717.515	0.0161314
717.593	0.0161276
717.671	0.0161655
717.749	0.0162680
717.828	0.0162306
717.906	0.0162485
717.984	0.0163129
718.062	0.0161135
718.140	0.0161832
718.218	0.0163298
718.296	0.0161848
718.374	0.0162907
718.453	0.0162471
718.531	0.0163017
718.609	0.0162199
718.687	0.0163805
718.765	0.0163913
718.843	0.0162187
718.921	0.0160551
718.999	0.0161584
719.078	0.0162000
719.156	0.0162233
719.234	0.0162586
719.312	0.0163103
719.390	0.0163068
719.468	0.0161074
719.546	0.0161223
719.624	0.0162154
719.703	0.0162401
719.781	0.0161956
719.859	0.0162212
719.937	0.0161966
720.015	0.0161649
720.093	0.0163302
720.171	0.0161275
720.249	0.0161210
720.328	0.0162153
720.406	0.0161692
720.484	0.0161657
720.562	0.0162471
720.640	0.0161897
720.718	0.0162759
720.796	0.0162198
720.874	0.0162080
720.953	0.0162866
721.031	0.0162129
721.109	0.0162025
721.187	0.0162437
721.265	0.0162640
721.343	0.0162307
721.421	0.0162615
721.499	0.0162760
721.578	0.0163168
721.656	0.0160715
721.734	0.0161098
721.812	0.0162678
721.890	0.0163463
721.968	0.0162283
722.046	0.0161150
722.124	0.0162868
722.203	0.0162802
722.281	0.0161358
722.359	0.0160855
722.437	0.0161679
722.515	0.0161706
722.593	0.0161916
722.671	0.0162463
722.749	0.0162364
722.828	0.0163158
722.906	0.0161795
722.984	0.0161627
723.062	0.0162843
723.140	0.0161420
723.218	0.0161161
723.296	0.0161084
723.374	0.0161496
723.453	0.0161895
723.531	0.0161887
723.609	0.0162857
723.687	0.0163277
723.765	0.0161799
723.843	0.0161694
723.921	0.0161422
723.999	0.0163515
724.078	0.0163058
724.156	0.0162217
724.234	0.0161774
724.312	0.0162146
724.390	0.0161875
724.468	0.0162881
724.546	0.0161977
724.624	0.0160709
724.703	0.0160945
724.781	0.0162222
724.859	0.0162186
724.937	0.0163697
725.015	0.0162241
725.093	0.0161472
725.171	0.0161733
725.249	0.0160984
725.328	0.0160838
725.406	0.0160361
725.484	0.0161270
725.562	0.0160490
725.640	0.0161210
725.718	0.0160863
725.796	0.0162054
725.874	0.0161772
725.953	0.0162933
726.031	0.0164284
726.109	0.0164275
726.187	0.0165255
726.265	0.0166431
726.343	0.0164050
726.421	0.0164811
726.499	0.0167776
726.578	0.0167705
726.656	0.0167501
726.734	0.0167847
726.812	0.0168224
726.890	0.0167165
726.968	0.0165260
727.046	0.0164793
727.124	0.0166318
727.203	0.0165090
727.281	0.0164361
727.359	0.0162524
727.437	0.0162151
727.515	0.0162144
727.593	0.0159194
727.671	0.0159545
727.749	0.0157853
727.828	0.0155885
727.906	0.0154967
727.984	0.0152515
728.062	0.0151174
728.140	0.0152042
728.218	0.0151450
728.296	0.0152089
728.374	0.0151733
728.453	0.0152242
728.531	0.0154945
728.609	0.0159147
728.687	0.0161088
728.765	0.0163091
728.843	0.0165238
728.921	0.0167694
728.999	0.0170776
729.078	0.0172607
729.156	0.0173757
729.234	0.0173094
729.312	0.0173229
729.390	0.0172092
729.468	0.0170744
729.546	0.0169584
729.624	0.0168356
729.703	0.0166882
729.781	0.0165354
729.859	0.0162819
729.937	0.0161745
730.015	0.0160119
730.093	0.0160426
730.171	0.0161282
730.249	0.0161046
730.328	0.0161897
730.406	0.0162653
730.484	0.0162394
730.562	0.0164649
730.640	0.0166174
730.718	0.0167894
730.796	0.0171868
730.874	0.0171394
730.953	0.0174049
731.031	0.0173534
731.109	0.0175042
731.187	0.0173421
731.265	0.0173643
731.343	0.0171468
731.421	0.0167849
731.499	0.0166129
731.578	0.0162659
731.656	0.0159425
731.734	0.0155122
731.812	0.0151234
731.890	0.0148436
731.968	0.0145621
732.046	0.0144162
732.124	0.0143523
732.203	0.0142995
732.281	0.0142117
732.359	0.0142289
732.437	0.0141774
732.515	0.0143234
732.593	0.0144598
732.671	0.0144604
732.749	0.0147969
732.828	0.0149049
732.906	0.0152184
732.984	0.0154598
733.062	0.0155592
733.140	0.0159143
733.218	0.0162234
733.296	0.0164671
733.374	0.0169738
733.453	0.0171916
733.531	0.0177052
733.609	0.0181006
733.687	0.0184441
733.765	0.0186666
733.843	0.0188214
733.921	0.0188370
733.999	0.0189745
734.078	0.0187843
734.156	0.0186792
734.234	0.0184151
734.312	0.0180943
734.390	0.0177647
734.468	0.0173824
734.546	0.0171729
734.624	0.0168143
734.703	0.0165168
734.781	0.0159931
734.859	0.0156980
734.937	0.0154208
735.015	0.0152239
735.093	0.0150959
735.171	0.0149014
735.249	0.0148287
735.328	0.0146918
735.406	0.0147586
735.484	0.0150216
735.562	0.0152574
735.640	0.0154561
735.718	0.0157564
735.796	0.0161224
735.874	0.0162093
735.953	0.0163251
736.031	0.0163433
736.109	0.0164551
736.187	0.0162894
736.265	0.0163960
736.343	0.0160964
736.421	0.0160178
736.499	0.0159319
736.578	0.0159098
736.656	0.0159608
736.734	0.0158743
736.812	0.0158217
736.890	0.0157950
736.968	0.0157535
737.046	0.0157153
737.124	0.0156320
737.203	0.0156984
737.281	0.0157200
737.359	0.0158109
737.437	0.0157662
737.515	0.0158595
737.593	0.0160006
737.671	0.0158645
737.749	0.0157764
737.828	0.0158318
737.906	0.0156925
737.984	0.0156619
738.062	0.0156585
738.140	0.0157203
738.218	0.0156839
738.296	0.0157198
738.374	0.0158156
738.453	0.0159750
738.531	0.0158155
738.609	0.0161874
738.687	0.0162477
738.765	0.0164492
738.843	0.0167063
738.921	0.0170799
738.999	0.0174999
739.078	0.0179379
739.156	0.0185351
739.234	0.0188835
739.312	0.0192592
739.390	0.0194133
739.468	0.0195741
739.546	0.0195951
739.624	0.0194095
739.703	0.0190324
739.781	0.0184769
739.859	0.0179510
739.937	0.0171446
740.015	0.0162828
740.093	0.0156644
740.171	0.0150518
740.249	0.0144728
740.328	0.0141064
740.406	0.0139058
740.484	0.0137283
740.562	0.0137905
740.640	0.0140176
740.718	0.0142599
740.796	0.0146915
740.874	0.0148815
740.953	0.0150777
741.031	0.0153022
741.109	0.0155878
741.187	0.0157314
741.265	0.0157414
741.343	0.0157735
741.421	0.0158546
741.499	0.0157256
741.578	0.0156274
741.656	0.0157648
741.734	0.0155697
741.812	0.0157179
741.890	0.0156561
741.968	0.0155672
742.046	0.0156824
742.124	0.0159384
742.203	0.0160944
742.281	0.0161205
742.359	0.0164569
742.437	0.0166640
742.515	0.0164972
742.593	0.0165311
742.671	0.0165859
742.749	0.0164744
742.828	0.0163937
742.906	0.0164447
742.984	0.0163573
743.062	0.0162778
743.140	0.0162241
743.218	0.0162656
743.296	0.0161880
743.374	0.0162209
743.453	0.0164034
743.531	0.0165781
743.609	0.0165756
743.687	0.0168664
743.765	0.0171680
743.843	0.0174004
743.921	0.0175595
743.999	0.0176778
744.078	0.0179070
744.156	0.0181636
744.234	0.0180660
744.312	0.0181937
744.390	0.0181374
744.468	0.0178276
744.546	0.0177378
744.624	0.0173849
744.703	0.0170574
744.781	0.0166273
744.859	0.0162147
744.937	0.0158969
745.015	0.0157468
745.093	0.0154910
745.171	0.0150944
745.249	0.0149074
745.328	0.0148840
745.406	0.0149651
745.484	0.0148898
745.562	0.0148816
745.640	0.0149355
745.718	0.0150871
745.796	0.0149493
745.874	0.0150303
745.953	0.0149407
746.031	0.0149081
746.109	0.0149471
746.187	0.0149667
746.265	0.0152702
746.343	0.0153378
746.421	0.0152538
746.499	0.0155666
746.578	0.0156886
746.656	0.0158176
746.734	0.0160077
746.812	0.0160288
746.890	0.0162727
746.968	0.0162529
747.046	0.0163279
747.124	0.0163301
747.203	0.0165183
747.281	0.0166912
747.359	0.0167584
747.437	0.0166895
747.515	0.0167504
747.593	0.0168565
747.671	0.0167509
747.749	0.0167565
747.828	0.0168407
747.906	0.0168533
747.984	0.0169084
748.062	0.0169330
748.140	0.0169807
748.218	0.0170110
748.296	0.0170251
748.374	0.0170522
748.453	0.0171092
748.531	0.0170557
748.609	0.0169518
748.687	0.0168861
748.765	0.0167270
748.843	0.0167289
748.921	0.0165081
748.999	0.0163566
749.078	0.0162685
749.156	0.0162099
749.234	0.0161977
749.312	0.0161234
749.390	0.0160549
749.468	0.0160067
749.546	0.0160339
749.624	0.0160881
749.703	0.0162608
749.781	0.0162041
749.859	0.0163594
749.937	0.0163690
750.015	0.0163538
750.093	0.0163272
750.171	0.0162352
750.249	0.0159862
750.328	0.0159155
750.406	0.0158554
750.484	0.0157184
750.562	0.0155732
750.640	0.0153925
750.718	0.0153775
750.796	0.0153326
750.874	0.0152200
750.953	0.0150606
751.031	0.0153150
751.109	0.0153249
751.187	0.0155147
751.265	0.0155557
751.343	0.0156703
751.421	0.0157982
751.499	0.0159026
751.578	0.0161105
751.656	0.0162543
751.734	0.0163915
751.812	0.0162434
751.890	0.0164216
751.968	0.0163417
752.046	0.0163200
752.124	0.0163023
752.203	0.0161966
752.281	0.0162535
752.359	0.0162222
752.437	0.0164063
752.515	0.0164014
752.593	0.0164162
752.671	0.0165085
752.749	0.0166673
752.828	0.0167405
752.906	0.0169229
752.984	0.0169231
753.062	0.0168406
753.140	0.0170306
753.218	0.0170329
753.296	0.0169221
753.374	0.0169455
753.453	0.0169130
753.531	0.0167181
753.609	0.0164778
753.687	0.0164005
753.765	0.0163342
753.843	0.0162298
753.921	0.0161364
753.999	0.0161079
754.078	0.0161264
754.156	0.0162199
754.234	0.0162856
754.312	0.0164619
754.390	0.0165479
754.468	0.0166315
754.546	0.0167208
754.624	0.0167204
754.703	0.0165520
754.781	0.0166907
754.859	0.0164446
754.937	0.0162827
755.015	0.0160491
755.093	0.0158872
755.171	0.0157841
755.249	0.0156288
755.328	0.0155154
755.406	0.0153073
755.484	0.0151539
755.562	0.0152641
755.640	0.0152881
755.718	0.0154035
755.796	0.0155255
755.874	0.0156851
755.953	0.0157367
756.031	0.0159353
756.109	0.0160382
756.187	0.0160782
756.265	0.0161681
756.343	0.0162821
756.421	0.0161047
756.499	0.0159710
756.578	0.0161115
756.656	0.0161402
756.734	0.0159810
756.812	0.0160366
756.890	0.0159384
756.968	0.0159345
757.046	0.0158231
757.124	0.0157513
757.203	0.0156403
757.281	0.0159468
757.359	0.0161357
757.437	0.0159794
757.515	0.0160237
757.593	0.0161945
757.671	0.0163229
757.749	0.0165961
757.828	0.0168185
757.906	0.0168712
757.984	0.0171144
758.062	0.0173268
758.140	0.0173386
758.218	0.0174336
758.296	0.0174970
758.374	0.0174787
758.453	0.0174757
758.531	0.0173805
758.609	0.0171892
758.687	0.0170435
758.765	0.0167834
758.843	0.0165578
758.921	0.0163563
758.999	0.0161187
759.078	0.0158790
759.156	0.0157345
759.234	0.0156098
759.312	0.0154408
759.390	0.0154504
759.468	0.0153864
759.546	0.0152653
759.624	0.0154677
759.703	0.0155685
759.781	0.0155668
759.859	0.0158458
759.937	0.0157561
760.015	0.0158700
760.093	0.0158658
760.171	0.0160136
760.249	0.0158445
760.328	0.0158253
760.406	0.0159766
760.484	0.0159965
760.562	0.0159902
760.640	0.0158936
760.718	0.0161662
760.796	0.0161635
760.874	0.0162051
760.953	0.0162981
761.031	0.0162395
761.109	0.0163281
761.187	0.0165113
761.265	0.0164629
761.343	0.0163885
761.421	0.0163617
761.499	0.0162862
761.578	0.0164725
761.656	0.0162253
761.734	0.0160940
761.812	0.0159056
761.890	0.0158743
761.968	0.0159357
762.046	0.0159322
762.124	0.0158760
762.203	0.0157368
762.281	0.0157481
762.359	0.0157707
762.437	0.0156720
762.515	0.0157139
762.593	0.0157204
762.671	0.0157799
762.749	0.0159132
762.828	0.0160601
762.906	0.0162439
762.984	0.0163871
763.062	0.0166898
763.140	0.0168381
763.218	0.0170654
763.296	0.0175135
763.374	0.0176495
763.453	0.0177097
763.531	0.0180547
763.609	0.0179342
763.687	0.0179137
763.765	0.0179030
763.843	0.0177187
763.921	0.0172979
763.999	0.0171809
764.078	0.0169595
764.156	0.0167335
764.234	0.0164254
764.312	0.0161018
764.390	0.0159370
764.468	0.0156965
764.546	0.0154553
764.624	0.0153768
764.703	0.0150155
764.781	0.0148880
764.859	0.0145396
764.937	0.0142558
765.015	0.0142674
765.093	0.0143896
765.171	0.0142599
765.249	0.0141952
765.328	0.0142496
765.406	0.0144106
765.484	0.0144897
765.562	0.0148591
765.640	0.0150185
765.718	0.0151234
765.796	0.0155077
765.874	0.0156945
765.953	0.0159943
766.031	0.0162565
766.109	0.0166148
766.187	0.0166431
766.265	0.0169154
766.343	0.0170776
766.421	0.0173271
766.499	0.0174257
766.578	0.0175269
766.656	0.0174821
766.734	0.0175140
766.812	0.0174413
766.890	0.0174693
766.968	0.0172213
767.046	0.0173040
767.124	0.0171832
767.203	0.0171512
767.281	0.0168797
767.359	0.0167129
767.437	0.0166244
767.515	0.0165424
767.593	0.0164859
767.671	0.0164660
767.749	0.0164029
767.828	0.0162316
767.906	0.0162433
767.984	0.0165580
768.062	0.0164114
768.140	0.0164805
768.218	0.0167905
768.296	0.0169437
768.374	0.0169769
768.453	0.0169568
768.531	0.0171053
768.609	0.0172014
768.687	0.0169495
768.765	0.0167648
768.843	0.0167106
768.921	0.0166695
768.999	0.0164317
769.078	0.0162163
769.156	0.0161011
769.234	0.0158194
769.312	0.0157088
769.390	0.0155360
769.468	0.0151608
769.546	0.0150747
769.624	0.0148506
769.703	0.0146377
769.781	0.0144011
769.859	0.0145407
769.937	0.0147203
770.015	0.0148989
770.093	0.0148705
770.171	0.0150670
770.249	0.0150319
770.328	0.0153649
770.406	0.0156280
770.484	0.0156703
770.562	0.0158076
770.640	0.0159174
770.718	0.0160567
770.796	0.0161038
770.874	0.0162116
770.953	0.0162531
771.031	0.0163832
771.109	0.0163176
771.187	0.0164050
771.265	0.0163323
771.343	0.0162463
771.421	0.0163442
771.499	0.0162902
771.578	0.0160721
771.656	0.0162290
771.734	0.0161670
771.812	0.0162151
771.890	0.0165074
771.968	0.0165077
772.046	0.0167672
772.124	0.0167297
772.203	0.0170579
772.281	0.0172334
772.359	0.0173853
772.437	0.0175052
772.515	0.0176605
772.593	0.0177411
772.671	0.0178696
772.749	0.0178300
772.828	0.0178333
772.906	0.0178207
772.984	0.0177426
773.062	0.0175536
773.140	0.0174145
773.218	0.0174052
773.296	0.0170810
773.374	0.0169510
773.453	0.0167955
773.531	0.0166248
773.609	0.0166280
773.687	0.0165125
773.765	0.0162769
773.843	0.0161906
773.921	0.0159943
773.999	0.0159128
774.078	0.0159322
774.156	0.0158396
774.234	0.0157344
774.312	0.0156372
774.390	0.0156572
774.468	0.0156071
774.546	0.0155843
774.624	0.0153357
774.703	0.0151656
774.781	0.0149821
774.859	0.0149844
774.937	0.0148138
775.015	0.0143420
775.093	0.0142056
775.171	0.0141026
775.249	0.0139851
775.328	0.0139688
775.406	0.0138688
775.484	0.0138013
775.562	0.0140179
775.640	0.0141589
775.718	0.0143689
775.796	0.0146056
775.874	0.0149811
775.953	0.0152791
776.031	0.0155302
776.109	0.0158481
776.187	0.0162363
776.265	0.0166195
776.343	0.0169525
776.421	0.0171149
776.499	0.0172223
776.578	0.0174555
776.656	0.0176696
776.734	0.0177971
776.812	0.0177948
776.890	0.0179224
776.968	0.0179922
777.046	0.0179780
777.124	0.0177975
777.203	0.0178533
777.281	0.0178335
777.359	0.0176736
777.437	0.0178820
777.515	0.0179746
777.593	0.0178617
777.671	0.0176753
777.749	0.0178194
777.828	0.0179493
777.906	0.0178805
777.984	0.0178642
778.062	0.0178786
778.140	0.0176743
778.218	0.0174351
778.296	0.0174054
778.374	0.0171428
778.453	0.0169013
778.531	0.0169064
778.609	0.0166612
778.687	0.0163636
778.765	0.0162327
778.843	0.0160397
778.921	0.0157360
778.999	0.0157166
779.078	0.0154311
779.156	0.0151582
779.234	0.0150257
779.312	0.0149117
779.390	0.0147642
779.468	0.0147752
779.546	0.0146654
779.624	0.0146405
779.703	0.0145772
779.781	0.0147366
779.859	0.0145266
779.937	0.0146825
780.015	0.0147379
780.093	0.0148118
780.171	0.0148318
780.249	0.0147514
780.328	0.0148599
780.406	0.0147535
780.484	0.0148202
780.562	0.0148339
780.640	0.0148339
780.718	0.0148066
780.796	0.0147289
780.874	0.0148540
780.953	0.0148422
781.031	0.0149677
781.109	0.0150676
781.187	0.0151525
781.265	0.0152279
781.343	0.0154092
781.421	0.0156394
781.499	0.0160218
781.578	0.0161933
781.656	0.0164017
781.734	0.0166931
781.812	0.0170122
781.890	0.0171960
781.968	0.0172958
782.046	0.0175135
782.124	0.0176118
782.203	0.0177331
782.281	0.0177402
782.359	0.0179533
782.437	0.0179166
782.515	0.0179583
782.593	0.0180472
782.671	0.0180962
782.749	0.0182710
782.828	0.0182011
782.906	0.0182394
782.984	0.0182311
783.062	0.0183041
783.140	0.0182095
783.218	0.0181719
783.296	0.0181656
783.374	0.0180190
783.453	0.0178280
783.531	0.0176083
783.609	0.0174042
783.687	0.0172506
783.765	0.0169813
783.843	0.0166867
783.921	0.0166539
783.999	0.0164700
784.078	0.0160115
784.156	0.0160056
784.234	0.0158766
784.312	0.0157544
784.390	0.0154360
784.468	0.0155125
784.546	0.0155339
784.624	0.0155535
784.703	0.0155891
784.781	0.0155724
784.859	0.0155980
784.937	0.0156389
785.015	0.0154936
785.093	0.0155599
785.171	0.0154256
785.249	0.0151579
785.328	0.0148259
785.406	0.0146812
785.484	0.0144447
785.562	0.0141879
785.640	0.0138057
785.718	0.0135050
785.796	0.0133074
785.874	0.0132727
785.953	0.0132220
786.031	0.0131112
786.109	0.0132427
786.187	0.0132585
786.265	0.0134599
786.343	0.0138477
786.421	0.0139346
786.499	0.0141691
786.578	0.0146009
786.656	0.0148528
786.734	0.0150405
786.812	0.0153790
786.890	0.0157427
786.968	0.0161363
787.046	0.0164415
787.124	0.0166898
787.203	0.0170084
787.281	0.0174638
787.359	0.0177503
787.437	0.0179059
787.515	0.0181551
787.593	0.0184713
787.671	0.0185276
787.749	0.0186373
787.828	0.0189794
787.906	0.0189997
787.984	0.0192005
788.062	0.0192632
788.140	0.0193326
788.218	0.0193494
788.296	0.0193526
788.374	0.0192599
788.453	0.0191068
788.531	0.0191409
788.609	0.0190726
788.687	0.0188303
788.765	0.0187073
788.843	0.0184627
788.921	0.0181252
788.999	0.0179536
789.078	0.0177296
789.156	0.0174696
789.234	0.0171118
789.312	0.0170139
789.390	0.0167287
789.468	0.0162461
789.546	0.0160661
789.624	0.0158074
789.703	0.0156125
789.781	0.0152386
789.859	0.0149261
789.937	0.0147912
790.015	0.0145042
790.093	0.0143048
790.171	0.0141991
790.249	0.0140730
790.328	0.0139503
790.406	0.0137569
790.484	0.0136766
790.562	0.0138441
790.640	0.0138065
790.718	0.0138895
790.796	0.0139391
790.874	0.0141531
790.953	0.0141486
791.031	0.0140578
791.109	0.0141955
791.187	0.0143974
791.265	0.0142115
791.343	0.0141920
791.421	0.0142775
791.499	0.0142103
791.578	0.0142931
791.656	0.0142520
791.734	0.0142760
791.812	0.0143532
791.890	0.0144096
791.968	0.0144044
792.046	0.0146452
792.124	0.0148044
792.203	0.0150479
792.281	0.0153590
792.359	0.0158324
792.437	0.0163129
792.515	0.0167807
792.593	0.0172875
792.671	0.0177128
792.749	0.0180669
792.828	0.0184749
792.906	0.0189294
792.984	0.0192181
793.062	0.0194427
793.140	0.0198913
793.218	0.0197395
793.296	0.0198428
793.374	0.0200332
793.453	0.0197958
793.531	0.0196638
793.609	0.0196639
793.687	0.0195076
793.765	0.0192130
793.843	0.0189380
793.921	0.0187646
793.999	0.0186129
794.078	0.0182236
794.156	0.0180553
794.234	0.0176704
794.312	0.0174302
794.390	0.0173396
794.468	0.0167097
794.546	0.0165030
794.624	0.0163879
794.703	0.0160440
794.781	0.0158531
794.859	0.0156050
794.937	0.0153373
795.015	0.0151348
795.093	0.0150769
795.171	0.0147697
795.249	0.0145900
795.328	0.0146162
795.406	0.0143412
795.484	0.0141651
795.562	0.0142628
795.640	0.0142992
795.718	0.0142513
795.796	0.0142301
795.874	0.0140794
795.953	0.0142062
796.031	0.0142588
796.109	0.0144291
796.187	0.0143241
796.265	0.0144260
796.343	0.0146547
796.421	0.0147125
796.499	0.0148816
796.578	0.0149779
796.656	0.0149813
796.734	0.0151588
796.812	0.0153841
796.890	0.0154816
796.968	0.0156129
797.046	0.0156680
797.124	0.0155788
797.203	0.0156749
797.281	0.0157536
797.359	0.0156513
797.437	0.0156202
797.515	0.0154215
797.593	0.0153800
797.671	0.0153320
797.749	0.0152317
797.828	0.0152262
797.906	0.0153741
797.984	0.0152921
798.062	0.0153256
798.140	0.0157582
798.218	0.0159107
798.296	0.0162135
798.374	0.0164950
798.453	0.0168935
798.531	0.0172595
798.609	0.0176676
798.687	0.0179597
798.765	0.0181728
798.843	0.0184869
798.921	0.0187436
798.999	0.0189809
799.078	0.0189799
799.156	0.0190433
799.234	0.0193161
799.312	0.0190874
799.390	0.0190381
799.468	0.0189365
799.546	0.0187627
799.624	0.0186848
799.703	0.0182367
799.781	0.0182690
799.859	0.0179194
799.937	0.0177059
800.015	0.0174520
800.093	0.0171616
800.171	0.0168850
800.249	0.0166334
800.328	0.0163087
800.406	0.0161982
800.484	0.0158694
800.562	0.0155409
800.640	0.0153873
800.718	0.0152461
800.796	0.0149648
800.874	0.0150910
800.953	0.0149298
801.031	0.0148352
801.109	0.0146596
801.187	0.0147585
801.265	0.0146629
801.343	0.0146323
801.421	0.0146528
801.499	0.0145764
801.578	0.0145101
801.656	0.0146082
801.734	0.0146488
801.812	0.0146942
801.890	0.0147661
801.968	0.0149191
802.046	0.0148080
802.124	0.0150156
802.203	0.0152145
802.281	0.0152014
802.359	0.0152334
802.437	0.0154412
802.515	0.0155308
802.593	0.0157732
802.671	0.0156086
802.749	0.0157587
802.828	0.0157121
802.906	0.0159383
802.984	0.0159550
803.062	0.0161352
803.140	0.0162575
803.218	0.0159368
803.296	0.0160246
803.374	0.0158931
803.453	0.0160268
803.531	0.0159239
803.609	0.0159919
803.687	0.0159425
803.765	0.0160000
803.843	0.0159580
803.921	0.0160281
803.999	0.0160618
804.078	0.0161446
804.156	0.0165380
804.234	0.0166627
804.312	0.0167640
804.390	0.0170339
804.468	0.0172050
804.546	0.0172630
804.624	0.0174097
804.703	0.0175001
804.781	0.0176672
804.859	0.0177735
804.937	0.0179455
805.015	0.0180217
805.093	0.0178960
805.171	0.0180821
805.249	0.0180699
805.328	0.0179581
805.406	0.0180063
805.484	0.0178870
805.562	0.0179917
805.640	0.0177358
805.718	0.0175826
805.796	0.0173394
805.874	0.0173117
805.953	0.0171960
806.031	0.0168317
806.109	0.0168009
806.187	0.0166338
806.265	0.0163360
806.343	0.0161813
806.421	0.0157398
806.499	0.0155906
806.578	0.0155736
806.656	0.0153012
806.734	0.0153212
806.812	0.0151830
806.890	0.0150985
806.968	0.0150203
807.046	0.0149791
807.124	0.0150720
807.203	0.0148812
807.281	0.0148972
807.359	0.0149187
807.437	0.0148437
807.515	0.0148289
807.593	0.0148257
807.671	0.0149622
807.749	0.0151054
807.828	0.0151974
807.906	0.0153067
807.984	0.0152586
808.062	0.0155293
808.140	0.0154935
808.218	0.0157235
808.296	0.0158035
808.374	0.0158717
808.453	0.0161012
808.531	0.0161022
808.609	0.0159492
808.687	0.0161361
808.765	0.0161324
808.843	0.0160854
808.921	0.0161894
808.999	0.0160621
809.078	0.0160869
809.156	0.0160055
809.234	0.0160089
809.312	0.0159590
809.390	0.0157340
809.468	0.0157868
809.546	0.0158408
809.624	0.0158559
809.703	0.0159267
809.781	0.0160627
809.859	0.0161319
809.937	0.0161648
810.015	0.0162078
810.093	0.0164606
810.171	0.0164810
810.249	0.0165831
810.328	0.0167623
810.406	0.0170235
810.484	0.0169393
810.562	0.0170490
810.640	0.0170635
810.718	0.0173980
810.796	0.0173712
810.874	0.0173909
810.953	0.0173535
811.031	0.0175354
811.109	0.0176960
811.187	0.0175481
811.265	0.0175703
811.343	0.0178712
811.421	0.0176958
811.499	0.0176692
811.578	0.0175761
811.656	0.0175793
811.734	0.0176118
811.812	0.0173195
811.890	0.0171759
811.968	0.0171832
812.046	0.0170055
812.124	0.0166290
812.203	0.0165598
812.281	0.0162598
812.359	0.0160448
812.437	0.0159650
812.515	0.0157131
812.593	0.0155020
812.671	0.0153970
812.749	0.0153436
812.828	0.0152492
812.906	0.0149762
812.984	0.0150999
813.062	0.0148218
813.140	0.0148586
813.218	0.0148662
813.296	0.0149937
813.374	0.0149361
813.453	0.0149445
813.531	0.0150013
813.609	0.0152066
813.687	0.0153596
813.765	0.0154552
813.843	0.0155295
813.921	0.0157184
813.999	0.0156673
814.078	0.0157167
814.156	0.0158059
814.234	0.0158555
814.312	0.0159192
814.390	0.0160643
814.468	0.0159695
814.546	0.0161007
814.624	0.0161580
814.703	0.0161565
814.781	0.0161846
814.859	0.0161819
814.937	0.0161816
815.015	0.0160431
815.093	0.0160816
815.171	0.0160189
815.249	0.0160346
815.328	0.0161837
815.406	0.0162211
815.484	0.0161802
815.562	0.0162657
815.640	0.0162760
815.718	0.0165771
815.796	0.0164371
815.874	0.0164423
815.953	0.0164609
816.031	0.0167454
816.109	0.0166066
816.187	0.0166627
816.265	0.0164785
816.343	0.0166419
816.421	0.0166125
816.499	0.0167567
816.578	0.0167295
816.656	0.0167737
816.734	0.0166308
816.812	0.0166718
816.890	0.0166108
816.968	0.0166303
817.046	0.0166833
817.124	0.0167424
817.203	0.0166465
817.281	0.0167426
817.359	0.0169280
817.437	0.0169861
817.515	0.0171240
817.593	0.0170539
817.671	0.0171411
817.749	0.0171066
817.828	0.0171188
817.906	0.0171477
817.984	0.0171496
818.062	0.0170006
818.140	0.0169930
818.218	0.0167426
818.296	0.0166358
818.374	0.0166000
818.453	0.0164620
818.531	0.0161732
818.609	0.0160242
818.687	0.0159972
818.765	0.0158366
818.843	0.0156032
818.921	0.0154396
818.999	0.0153352
819.078	0.0152675
819.156	0.0149757
819.234	0.0149707
819.312	0.0150089
819.390	0.0148339
819.468	0.0149522
819.546	0.0150387
819.624	0.0150480
819.703	0.0151338
819.781	0.0153423
819.859	0.0155051
819.937	0.0155452
820.015	0.0156860
820.093	0.0157297
820.171	0.0158187
820.249	0.0158449
820.328	0.0160308
820.406	0.0161401
820.484	0.0162082
820.562	0.0162262
820.640	0.0162334
820.718	0.0162016
820.796	0.0162740
820.874	0.0163047
820.953	0.0164182
821.031	0.0163178
821.109	0.0163616
821.187	0.0164971
821.265	0.0165910
821.343	0.0165429
821.421	0.0166026
821.499	0.0165453
821.578	0.0165980
821.656	0.0166753
821.734	0.0166975
821.812	0.0166241
821.890	0.0167136
821.968	0.0166795
822.046	0.0166357
822.124	0.0164520
822.203	0.0164111
822.281	0.0164277
822.359	0.0161954
822.437	0.0161610
822.515	0.0160261
822.593	0.0159686
822.671	0.0159986
822.749	0.0158931
822.828	0.0159544
822.906	0.0161572
822.984	0.0160076
823.062	0.0161616
823.140	0.0163433
823.218	0.0162862
823.296	0.0165080
823.374	0.0166463
823.453	0.0167004
823.531	0.0168299
823.609	0.0170516
823.687	0.0169917
823.765	0.0171028
823.843	0.0170014
823.921	0.0171122
823.999	0.0172469
824.078	0.0171677
824.156	0.0171297
824.234	0.0170497
824.312	0.0169652
824.390	0.0169021
824.468	0.0166894
824.546	0.0165234
824.624	0.0163883
824.703	0.0163319
824.781	0.0161538
824.859	0.0161995
824.937	0.0159007
825.015	0.0158485
825.093	0.0156962
825.171	0.0153725
825.249	0.0154137
825.328	0.0154543
825.406	0.0154757
825.484	0.0154753
825.562	0.0154375
825.640	0.0154191
825.718	0.0155543
825.796	0.0155702
825.874	0.0155830
825.953	0.0157021
826.031	0.0157196
826.109	0.0157866
826.187	0.0158978
826.265	0.0159626
826.343	0.0160867
826.421	0.0159473
826.499	0.0160473
826.578	0.0162457
826.656	0.0162297
826.734	0.0161704
826.812	0.0163371
826.890	0.0163500
826.968	0.0163029
827.046	0.0164036
827.124	0.0164050
827.203	0.0163593
827.281	0.0164201
827.359	0.0165009
827.437	0.0165210
827.515	0.0164805
827.593	0.0166188
827.671	0.0166718
827.749	0.0165594
827.828	0.0167831
827.906	0.0166281
827.984	0.0166511
828.062	0.0164605
828.140	0.0163950
828.218	0.0163233
828.296	0.0163405
828.374	0.0162694
828.453	0.0160695
828.531	0.0161055
828.609	0.0159749
828.687	0.0158389
828.765	0.0158465
828.843	0.0159021
828.921	0.0160215
828.999	0.0160311
829.078	0.0160580
829.156	0.0162460
829.234	0.0162339
829.312	0.0164230
829.390	0.0164600
829.468	0.0166404
829.546	0.0167896
829.624	0.0167298
829.703	0.0169284
829.781	0.0169714
829.859	0.0169204
829.937	0.0167052
830.015	0.0167879
830.093	0.0167749
830.171	0.0167793
830.249	0.0167434
830.328	0.0165739
830.406	0.0165710
830.484	0.0165385
830.562	0.0164067
830.640	0.0163847
830.718	0.0162419
830.796	0.0163988
830.874	0.0162717
830.953	0.0159857
831.031	0.0160885
831.109	0.0161229
831.187	0.0157935
831.265	0.0158133
831.343	0.0157608
831.421	0.0159840
831.499	0.0157645
831.578	0.0157135
831.656	0.0158804
831.734	0.0159318
831.812	0.0158230
831.890	0.0159906
831.968	0.0159189
832.046	0.0159422
832.124	0.0159847
832.203	0.0158067
832.281	0.0160339
832.359	0.0161747
832.437	0.0160759
832.515	0.0159734
832.593	0.0160518
832.671	0.0160541
832.749	0.0160757
832.828	0.0161160
832.906	0.0161526
832.984	0.0160159
833.062	0.0162452
833.140	0.0163880
833.218	0.0162579
833.296	0.0164339
833.374	0.0165044
833.453	0.0164743
833.531	0.0166126
833.609	0.0166331
833.687	0.0164771
833.765	0.0166840
833.843	0.0165079
833.921	0.0164697
833.999	0.0163684
834.078	0.0161663
834.156	0.0163049
834.234	0.0161374
834.312	0.0160610
834.390	0.0160123
834.468	0.0158592
834.546	0.0158477
834.624	0.0157717
834.703	0.0157051
834.781	0.0158949
834.859	0.0159174
834.937	0.0158890
835.015	0.0160941
835.093	0.0159898
835.171	0.0161060
835.249	0.0161069
835.328	0.0162132
835.406	0.0163181
835.484	0.0165868
835.562	0.0163497
835.640	0.0164371
835.718	0.0164506
835.796	0.0165797
835.874	0.0165531
835.953	0.0163641
836.031	0.0164896
836.109	0.0164072
836.187	0.0163855
836.265	0.0165174
836.343	0.0165662
836.421	0.0165034
836.499	0.0165803
836.578	0.0165569
836.656	0.0166058
836.734	0.0165718
836.812	0.0166663
836.890	0.0165692
836.968	0.0165214
837.046	0.0165936
837.124	0.0165900
837.203	0.0164011
837.281	0.0165044
837.359	0.0164018
837.437	0.0163351
837.515	0.0163940
837.593	0.0162470
837.671	0.0162907
837.749	0.0162077
837.828	0.0161696
837.906	0.0160257
837.984	0.0161632
838.062	0.0160706
838.140	0.0160100
838.218	0.0161080
838.296	0.0160112
838.374	0.0160397
838.453	0.0158347
838.531	0.0159261
838.609	0.0159706
838.687	0.0158734
838.765	0.0158452
838.843	0.0159199
838.921	0.0159013
838.999	0.0159795
839.078	0.0159830
839.156	0.0160090
839.234	0.0159660
839.312	0.0159669
839.390	0.0158765
839.468	0.0158850
839.546	0.0159921
839.624	0.0159120
839.703	0.0160699
839.781	0.0159794
839.859	0.0160402
839.937	0.0159285
840.015	0.0158568
840.093	0.0159402
840.171	0.0159587
840.249	0.0160452
840.328	0.0161646
840.406	0.0162588
840.484	0.0161552
840.562	0.0163418
840.640	0.0164521
840.718	0.0164248
840.796	0.0165768
840.874	0.0166618
840.953	0.0166161
841.031	0.0165945
841.109	0.0167126
841.187	0.0166457
841.265	0.0168310
841.343	0.0169168
841.421	0.0168018
841.499	0.0167035
841.578	0.0165955
841.656	0.0165540
841.734	0.0166040
841.812	0.0165900
841.890	0.0164581
841.968	0.0164249
842.046	0.0163678
842.124	0.0161574
842.203	0.0160830
842.281	0.0161353
842.359	0.0162512
842.437	0.0160338
842.515	0.0161781
842.593	0.0161033
842.671	0.0159904
842.749	0.0161089
842.828	0.0159987
842.906	0.0159377
842.984	0.0160073
843.062	0.0160709
843.140	0.0160178
843.218	0.0162099
843.296	0.0162068
843.374	0.0161486
843.453	0.0163052
843.531	0.0161954
843.609	0.0164061
843.687	0.0162843
843.765	0.0164210
843.843	0.0165403
843.921	0.0162834
843.999	0.0162094
844.078	0.0163309
844.156	0.0162476
844.234	0.0162057
844.312	0.0163020
844.390	0.0161475
844.468	0.0163590
844.546	0.0163589
844.624	0.0163566
844.703	0.0164406
844.781	0.0164510
844.859	0.0164610
844.937	0.0164983
845.015	0.0164325
845.093	0.0162917
845.171	0.0163432
845.249	0.0164142
845.328	0.0162926
845.406	0.0161149
845.484	0.0160652
845.562	0.0160616
845.640	0.0159772
845.718	0.0159519
845.796	0.0158630
845.874	0.0159604
845.953	0.0158889
846.031	0.0159159
846.109	0.0157723
846.187	0.0159125
846.265	0.0160631
846.343	0.0160464
846.421	0.0162245
846.499	0.0163038
846.578	0.0163268
846.656	0.0163451
846.734	0.0164185
846.812	0.0164623
846.890	0.0166243
846.968	0.0165814
847.046	0.0165670
847.124	0.0167619
847.203	0.0166193
847.281	0.0165560
847.359	0.0164742
847.437	0.0165319
847.515	0.0164461
847.593	0.0164523
847.671	0.0164254
847.749	0.0161835
847.828	0.0161103
847.906	0.0162466
847.984	0.0161977
848.062	0.0160841
848.140	0.0160366
848.218	0.0161356
848.296	0.0161723
848.374	0.0160766
848.453	0.0162285
848.531	0.0161839
848.609	0.0163188
848.687	0.0163129
848.765	0.0161234
848.843	0.0160562
848.921	0.0162077
848.999	0.0162769
849.078	0.0161217
849.156	0.0160523
849.234	0.0160532
849.312	0.0161115
849.390	0.0162755
849.468	0.0160864
849.546	0.0161247
849.624	0.0160604
849.703	0.0163502
849.781	0.0163287
849.859	0.0162759
849.937	0.0163216
850.015	0.0163734
850.093	0.0164388
850.171	0.0166235
850.249	0.0166692
850.328	0.0165332
850.406	0.0167054
850.484	0.0168351
850.562	0.0168146
850.640	0.0167377
850.718	0.0166820
850.796	0.0167038
850.874	0.0165430
850.953	0.0167168
851.031	0.0165693
851.109	0.0163680
851.187	0.0163948
851.265	0.0164152
851.343	0.0162450
851.421	0.0161727
851.499	0.0161336
851.578	0.0159767
851.656	0.0160156
851.734	0.0159943
851.812	0.0160009
851.890	0.0159969
851.968	0.0157677
852.046	0.0160743
852.124	0.0160249
852.203	0.0159300
852.281	0.0159578
852.359	0.0161360
852.437	0.0162791
852.515	0.0162045
852.593	0.0162917
852.671	0.0163169
852.749	0.0162479
852.828	0.0165107
852.906	0.0164782
852.984	0.0163936
853.062	0.0164536
853.140	0.0164400
853.218	0.0162568
853.296	0.0163144
853.374	0.0162941
853.453	0.0161353
853.531	0.0161024
853.609	0.0160820
853.687	0.0159628
853.765	0.0159419
853.843	0.0158921
853.921	0.0160800
853.999	0.0159361
854.078	0.0160146
854.156	0.0160462
854.234	0.0158646
854.312	0.0159853
854.390	0.0161193
854.468	0.0161531
854.546	0.0162708
854.624	0.0162012
854.703	0.0162092
854.781	0.0163332
854.859	0.0163615
854.937	0.0163739
855.015	0.0163072
855.093	0.0163156
855.171	0.0162994
855.249	0.0163948
855.328	0.0166152
855.406	0.0165173
855.484	0.0165327
855.562	0.0164922
855.640	0.0165430
855.718	0.0164227
855.796	0.0164729
855.874	0.0165868
855.953	0.0165163
856.031	0.0166046
856.109	0.0165473
856.187	0.0164808
856.265	0.0165341
856.343	0.0166618
856.421	0.0166756
856.499	0.0166824
856.578	0.0164851
856.656	0.0163789
856.734	0.0163697
856.812	0.0162767
856.890	0.0162517
856.968	0.0160690
857.046	0.0160371
857.124	0.0159549
857.203	0.0158798
857.281	0.0159078
857.359	0.0158171
857.437	0.0157673
857.515	0.0156693
857.593	0.0156332
857.671	0.0157323
857.749	0.0159208
857.828	0.0157172
857.906	0.0158935
857.984	0.0159307
858.062	0.0159577
858.140	0.0161778
858.218	0.0161490
858.296	0.0160082
858.374	0.0161255
858.453	0.0162508
858.531	0.0162411
858.609	0.0164804
858.687	0.0165153
858.765	0.0164989
858.843	0.0166275
858.921	0.0165822
858.999	0.0166014
859.078	0.0164919
859.156	0.0165942
859.234	0.0167218
859.312	0.0166264
859.390	0.0166142
859.468	0.0165221
859.546	0.0163187
859.624	0.0162714
859.703	0.0162566
859.781	0.0161104
859.859	0.0160075
859.937	0.0161017
860.015	0.0160509
860.093	0.0159411
860.171	0.0158070
860.249	0.0158705
860.328	0.0159285
860.406	0.0159264
860.484	0.0159491
860.562	0.0158718
860.640	0.0160967
860.718	0.0159728
860.796	0.0159199
860.874	0.0159740
860.953	0.0161612
861.031	0.0162158
861.109	0.0160480
861.187	0.0161920
861.265	0.0159701
861.343	0.0160780
861.421	0.0161983
861.499	0.0161822
861.578	0.0162195
861.656	0.0160725
861.734	0.0161485
861.812	0.0162381
861.890	0.0163683
861.968	0.0164968
862.046	0.0163427
862.124	0.0164599
862.203	0.0166124
862.281	0.0165818
862.359	0.0165072
862.437	0.0165696
862.515	0.0165033
862.593	0.0165942
862.671	0.0165125
862.749	0.0164612
862.828	0.0163734
862.906	0.0163519
862.984	0.0163045
863.062	0.0161021
863.140	0.0163377
863.218	0.0162222
863.296	0.0161996
863.374	0.0163521
863.453	0.0162531
863.531	0.0163764
863.609	0.0163935
863.687	0.0162873
863.765	0.0163805
863.843	0.0162732
863.921	0.0163661
863.999	0.0163110
864.078	0.0162763
864.156	0.0163277
864.234	0.0161869
864.312	0.0161694
864.390	0.0161510
864.468	0.0162155
864.546	0.0160209
864.624	0.0160002
864.703	0.0159570
864.781	0.0160345
864.859	0.0159496
864.937	0.0159261
865.015	0.0158920
865.093	0.0159235
865.171	0.0159384
865.249	0.0159589
865.328	0.0160935
865.406	0.0161613
865.484	0.0159587
865.562	0.0157827
865.640	0.0159574
865.718	0.0160238
865.796	0.0160950
865.874	0.0161069
865.953	0.0160102
866.031	0.0160364
866.109	0.0159405
866.187	0.0160761
866.265	0.0161530
866.343	0.0160750
866.421	0.0161411
866.499	0.0161002
866.578	0.0160807
866.656	0.0161406
866.734	0.0161140
866.812	0.0161008
866.890	0.0162553
866.968	0.0162009
867.046	0.0161527
867.124	0.0161237
867.203	0.0160425
867.281	0.0161634
867.359	0.0161740
867.437	0.0161502
867.515	0.0162646
867.593	0.0162194
867.671	0.0162759
867.749	0.0163757
867.828	0.0163364
867.906	0.0163756
867.984	0.0164365
868.062	0.0165006
868.140	0.0164237
868.218	0.0165585
868.296	0.0164728
868.374	0.0165795
868.453	0.0166418
868.531	0.0164999
868.609	0.0166178
868.687	0.0165031
868.765	0.0164098
868.843	0.0163394
868.921	0.0163570
868.999	0.0163660
869.078	0.0164441
869.156	0.0162720
869.234	0.0162531
869.312	0.0161674
869.390	0.0162830
869.468	0.0162767
869.546	0.0162990
869.624	0.0163143
869.703	0.0164220
869.781	0.0163340
869.859	0.0165613
869.937	0.0164439
870.015	0.0163619
870.093	0.0164283
870.171	0.0164299
870.249	0.0163744
870.328	0.0163580
870.406	0.0163058
870.484	0.0163114
870.562	0.0162293
870.640	0.0163266
870.718	0.0161269
870.796	0.0160429
870.874	0.0162003
870.953	0.0159673
871.031	0.0159832
871.109	0.0160098
871.187	0.0159113
871.265	0.0157376
871.343	0.0157141
871.421	0.0155509
871.499	0.0156387
871.578	0.0157642
871.656	0.0156960
871.734	0.0155380
871.812	0.0154536
871.890	0.0156209
871.968	0.0156708
872.046	0.0155688
872.124	0.0157525
872.203	0.0158831
872.281	0.0157944
872.359	0.0159065
872.437	0.0158608
872.515	0.0159879
872.593	0.0160905
872.671	0.0160417
872.749	0.0163454
872.828	0.0163396
872.906	0.0162656
872.984	0.0164528
873.062	0.0165353
873.140	0.0166921
873.218	0.0164832
873.296	0.0165131
873.374	0.0166325
873.453	0.0168216
873.531	0.0167573
873.609	0.0168082
873.687	0.0168667
873.765	0.0167808
873.843	0.0169254
873.921	0.0169492
873.999	0.0167798
874.078	0.0169482
874.156	0.0168634
874.234	0.0167946
874.312	0.0168595
874.390	0.0166946
874.468	0.0167548
874.546	0.0166475
874.624	0.0165958
874.703	0.0165742
874.781	0.0163148
874.859	0.0162303
874.937	0.0163412
875.015	0.0163520
875.093	0.0161138
875.171	0.0161668
875.249	0.0162534
875.328	0.0160307
875.406	0.0161238
875.484	0.0161755
875.562	0.0161172
875.640	0.0159861
875.718	0.0161383
875.796	0.0161484
875.874	0.0159641
875.953	0.0160182
876.031	0.0159351
876.109	0.0159490
876.187	0.0159396
876.265	0.0158395
876.343	0.0157858
876.421	0.0157314
876.499	0.0156214
876.578	0.0155723
876.656	0.0156637
876.734	0.0155441
876.812	0.0156824
876.890	0.0156136
876.968	0.0156041
877.046	0.0157973
877.124	0.0158383
877.203	0.0159959
877.281	0.0159018
877.359	0.0159092
877.437	0.0160177
877.515	0.0159737
877.593	0.0160620
877.671	0.0160580
877.749	0.0161834
877.828	0.0161080
877.906	0.0161359
877.984	0.0160190
878.062	0.0161485
878.140	0.0161598
878.218	0.0162254
878.296	0.0162639
878.374	0.0162251
878.453	0.0162521
878.531	0.0162408
878.609	0.0163671
878.687	0.0163802
878.765	0.0165776
878.843	0.0165685
878.921	0.0165666
878.999	0.0165630
879.078	0.0166210
879.156	0.0167403
879.234	0.0165875
879.312	0.0167380
879.390	0.0167324
879.468	0.0167941
879.546	0.0167541
879.624	0.0168319
879.703	0.0167668
879.781	0.0168201
879.859	0.0168921
879.937	0.0167105
880.015	0.0167072
880.093	0.0167853
880.171	0.0169193
880.249	0.0166653
880.328	0.0166771
880.406	0.0165917
880.484	0.0165070
880.562	0.0164423
880.640	0.0162709
880.718	0.0162231
880.796	0.0162372
880.874	0.0162852
880.953	0.0161910
881.031	0.0161479
881.109	0.0160849
881.187	0.0161322
881.265	0.0160223
881.343	0.0159389
881.421	0.0159081
881.499	0.0158984
881.578	0.0158793
881.656	0.0157853
881.734	0.0158723
881.812	0.0157395
881.890	0.0157739
881.968	0.0157687
882.046	0.0156306
882.124	0.0156711
882.203	0.0155226
882.281	0.0155888
882.359	0.0155872
882.437	0.0154711
882.515	0.0156119
882.593	0.0156927
882.671	0.0155672
882.749	0.0155698
882.828	0.0156104
882.906	0.0157992
882.984	0.0157345
883.062	0.0157394
883.140	0.0159482
883.218	0.0159832
883.296	0.0160374
883.374	0.0160960
883.453	0.0164069
883.531	0.0162785
883.609	0.0163828
883.687	0.0163371
883.765	0.0164604
883.843	0.0164714
883.921	0.0166645
883.999	0.0166203
884.078	0.0166029
884.156	0.0167552
884.234	0.0166537
884.312	0.0166798
884.390	0.0167661
884.468	0.0167062
884.546	0.0167643
884.624	0.0168304
884.703	0.0167866
884.781	0.0167495
884.859	0.0168304
884.937	0.0168285
885.015	0.0168735
885.093	0.0168173
885.171	0.0167928
885.249	0.0167604
885.328	0.0167666
885.406	0.0166238
885.484	0.0164748
885.562	0.0166748
885.640	0.0166038
885.718	0.0165578
885.796	0.0164613
885.874	0.0164553
885.953	0.0164616
886.031	0.0163972
886.109	0.0162572
886.187	0.0160536
886.265	0.0162006
886.343	0.0163329
886.421	0.0161789
886.499	0.0161016
886.578	0.0161190
886.656	0.0160677
886.734	0.0160421
886.812	0.0159278
886.890	0.0158958
886.968	0.0158727
887.046	0.0158105
887.124	0.0158048
887.203	0.0158783
887.281	0.0158028
887.359	0.0157633
887.437	0.0157096
887.515	0.0157849
887.593	0.0156702
887.671	0.0156592
887.749	0.0156853
887.828	0.0156928
887.906	0.0157993
887.984	0.0157742
888.062	0.0157901
888.140	0.0158365
888.218	0.0158167
888.296	0.0157652
888.374	0.0157566
888.453	0.0158481
888.531	0.0159314
888.609	0.0160555
888.687	0.0159281
888.765	0.0161263
888.843	0.0160074
888.921	0.0160226
888.999	0.0162981
889.078	0.0162330
889.156	0.0163567
889.234	0.0164316
889.312	0.0164977
889.390	0.0166767
889.468	0.0166850
889.546	0.0167104
889.624	0.0167914
889.703	0.0168454
889.781	0.0169398
889.859	0.0168168
889.937	0.0169369
890.015	0.0169301
890.093	0.0169206
890.171	0.0168495
890.249	0.0167995
890.328	0.0167359
890.406	0.0166888
890.484	0.0167332
890.562	0.0166149
890.640	0.0166506
890.718	0.0165933
890.796	0.0165628
890.874	0.0163834
890.953	0.0163656
891.031	0.0164847
891.109	0.0164307
891.187	0.0163054
891.265	0.0164442
891.343	0.0162568
891.421	0.0161519
891.499	0.0162331
891.578	0.0161395
891.656	0.0161459
891.734	0.0160946
891.812	0.0159312
891.890	0.0159659
891.968	0.0159556
892.046	0.0158379
892.124	0.0158353
892.203	0.0159230
892.281	0.0157462
892.359	0.0157506
892.437	0.0157657
892.515	0.0158105
892.593	0.0158163
892.671	0.0157255
892.749	0.0158162
892.828	0.0157854
892.906	0.0156981
892.984	0.0158286
893.062	0.0158099
893.140	0.0157422
893.218	0.0157476
893.296	0.0158366
893.374	0.0157928
893.453	0.0157077
893.531	0.0158494
893.609	0.0159941
893.687	0.0158931
893.765	0.0158817
893.843	0.0159476
893.921	0.0158707
893.999	0.0160908
894.078	0.0161102
894.156	0.0161391
894.234	0.0161136
894.312	0.0161720
894.390	0.0162402
894.468	0.0163985
894.546	0.0161794
894.624	0.0163464
894.703	0.0164368
894.781	0.0164102
894.859	0.0164782
894.937	0.0163617
895.015	0.0165010
895.093	0.0164922
895.171	0.0164843
895.249	0.0165678
895.328	0.0165508
895.406	0.0164616
895.484	0.0165941
895.562	0.0166677
895.640	0.0165829
895.718	0.0166077
895.796	0.0165388
895.874	0.0164713
895.953	0.0166624
896.031	0.0165189
896.109	0.0164664
896.187	0.0165757
896.265	0.0166256
896.343	0.0165439
896.421	0.0164299
896.499	0.0163106
896.578	0.0164114
896.656	0.0163175
896.734	0.0162378
896.812	0.0161351
896.890	0.0160625
896.968	0.0161065
897.046	0.0159676
897.124	0.0160207
897.203	0.0160544
897.281	0.0160294
897.359	0.0159375
897.437	0.0158040
897.515	0.0159299
897.593	0.0158886
897.671	0.0159662
897.749	0.0158050
897.828	0.0158615
897.906	0.0158862
897.984	0.0159115
898.062	0.0158994
898.140	0.0159512
898.218	0.0159029
898.296	0.0158141
898.374	0.0159524
898.453	0.0159763
898.531	0.0159963
898.609	0.0159398
898.687	0.0161101
898.765	0.0160705
898.843	0.0161279
898.921	0.0161385
898.999	0.0161930
899.078	0.0162284
899.156	0.0162860
899.234	0.0162333
899.312	0.0161866
899.390	0.0162441
899.468	0.0162812
899.546	0.0163610
899.624	0.0162260
899.703	0.0162955
899.781	0.0163152
899.859	0.0162241
899.937	0.0162368
900.015	0.0165070
900.093	0.0163724
900.171	0.0163001
900.249	0.0162814
900.328	0.0164832
900.406	0.0162882
900.484	0.0164400
900.562	0.0164381
900.640	0.0164986
900.718	0.0163564
900.796	0.0163499
900.874	0.0165624
900.953	0.0166279
901.031	0.0165495
901.109	0.0164925
901.187	0.0163586
901.265	0.0164854
901.343	0.0164428
901.421	0.0164249
901.499	0.0163462
901.578	0.0164729
901.656	0.0162071
901.734	0.0163285
901.812	0.0164885
901.890	0.0162491
901.968	0.0162641
902.046	0.0162341
902.124	0.0164538
902.203	0.0162431
902.281	0.0163414
902.359	0.0164834
902.437	0.0161951
902.515	0.0164822
902.593	0.0162788
902.671	0.0161360
902.749	0.0162358
902.828	0.0162937
902.906	0.0162846
902.984	0.0161848
903.062	0.0161604
903.140	0.0161593
903.218	0.0160191
903.296	0.0162140
903.374	0.0160061
903.453	0.0160223
903.531	0.0161494
903.609	0.0160487
903.687	0.0160036
903.765	0.0160825
903.843	0.0160486
903.921	0.0159429
903.999	0.0159010
904.078	0.0161351
904.156	0.0162047
904.234	0.0163349
904.312	0.0161567
904.390	0.0160837
904.468	0.0162084
904.546	0.0163206
904.624	0.0163133
904.703	0.0163336
904.781	0.0164834
904.859	0.0162802
904.937	0.0164066
905.015	0.0164320
905.093	0.0163696
905.171	0.0163785
905.249	0.0163918
905.328	0.0165234
905.406	0.0164630
905.484	0.0164899
905.562	0.0163091
905.640	0.0162971
905.718	0.0163933
905.796	0.0162325
905.874	0.0162523
905.953	0.0161992
906.031	0.0161226
906.109	0.0161829
906.187	0.0161735
906.265	0.0160436
906.343	0.0163247
906.421	0.0162788
906.499	0.0162148
906.578	0.0160557
906.656	0.0162013
906.734	0.0162638
906.812	0.0162675
906.890	0.0162064
906.968	0.0162466
907.046	0.0161694
907.124	0.0162225
907.203	0.0161890
907.281	0.0160593
907.359	0.0162126
907.437	0.0161803
907.515	0.0162015
907.593	0.0162945
907.671	0.0161539
907.749	0.0160883
907.828	0.0162866
907.906	0.0162961
907.984	0.0162617
908.062	0.0161493
908.140	0.0162277
908.218	0.0161883
908.296	0.0163310
908.374	0.0162514
908.453	0.0163329
908.531	0.0162746
908.609	0.0163620
908.687	0.0162780
908.765	0.0163397
908.843	0.0163291
908.921	0.0164225
908.999	0.0163559
909.078	0.0162918
909.156	0.0163378
909.234	0.0163206
909.312	0.0161984
909.390	0.0162573
909.468	0.0163075
909.546	0.0163039
909.624	0.0162045
909.703	0.0162325
909.781	0.0163149
909.859	0.0161874
909.937	0.0161404
910.015	0.0161443
910.093	0.0160608
910.171	0.0161580
910.249	0.0161477
910.328	0.0161035
910.406	0.0160242
910.484	0.0161711
910.562	0.0162011
910.640	0.0159969
910.718	0.0159959
910.796	0.0161571
910.874	0.0160624
910.953	0.0160017
911.031	0.0160678
911.109	0.0160252
911.187	0.0162140
911.265	0.0161902
911.343	0.0162212
911.421	0.0162675
911.499	0.0162892
911.578	0.0162938
911.656	0.0163389
911.734	0.0162884
911.812	0.0163509
911.890	0.0163934
911.968	0.0163824
912.046	0.0162781
912.124	0.0162458
912.203	0.0162453
912.281	0.0162637
912.359	0.0162903
912.437	0.0161008
912.515	0.0161885
912.593	0.0162939
912.671	0.0162402
912.749	0.0163010
912.828	0.0163369
912.906	0.0162745
912.984	0.0161317
913.062	0.0162753
913.140	0.0161121
913.218	0.0161469
913.296	0.0161442
913.374	0.0161224
913.453	0.0160970
913.531	0.0161262
913.609	0.0162507
913.687	0.0160919
913.765	0.0160112
913.843	0.0162085
913.921	0.0162237
913.999	0.0162000
914.078	0.0163796
914.156	0.0163760
914.234	0.0164169
914.312	0.0162619
914.390	0.0164009
914.468	0.0164053
914.546	0.0164753
914.624	0.0165469
914.703	0.0164175
914.781	0.0162995
914.859	0.0165135
914.937	0.0165266
915.015	0.0165393
915.093	0.0163927
915.171	0.0163562
915.249	0.0164704
915.328	0.0164401
915.406	0.0164435
915.484	0.0163579
915.562	0.0162590
915.640	0.0162524
915.718	0.0163081
915.796	0.0162625
915.874	0.0161820
915.953	0.0162006
916.031	0.0163084
916.109	0.0161260
916.187	0.0160553
916.265	0.0160961
916.343	0.0161106
916.421	0.0160357
916.499	0.0161212
916.578	0.0159111
916.656	0.0160186
916.734	0.0159310
916.812	0.0160391
916.890	0.0160825
916.968	0.0159704
917.046	0.0160667
917.124	0.0161514
917.203	0.0161034
917.281	0.0161733
917.359	0.0161706
917.437	0.0161500
917.515	0.0161276
917.593	0.0160941
917.671	0.0159910
917.749	0.0161753
917.828	0.0160520
917.906	0.0162475
917.984	0.0161208
918.062	0.0161656
918.140	0.0160984
918.218	0.0161473
918.296	0.0161673
918.374	0.0160600
918.453	0.0162458
918.531	0.0163780
918.609	0.0161713
918.687	0.0161306
918.765	0.0161609
918.843	0.0161107
918.921	0.0161329
918.999	0.0162527
919.078	0.0163719
919.156	0.0162486
919.234	0.0162038
919.312	0.0162389
919.390	0.0162646
919.468	0.0161542
919.546	0.0162103
919.624	0.0162580
919.703	0.0163152
919.781	0.0162710
919.859	0.0162440
919.937	0.0164014
