06/10/2022	18:42:40	Ver.	4.1	UNKNOWN
Optical Delay	600.015094	Delta X		0.078125	Sweeps	1	Scan Rate	0/0
Coordinates	Axis 1	NaN	Axis 2	NaN	Axis 3	NaN	Axis 4	NaN	Axis 5	NaN	Axis 6	0.000000
TX Power	0.000000	RX Power	0.000000

600.015	0.0164545
600.093	0.0165289
600.171	0.0165161
600.249	0.0164137
600.328	0.0164499
600.406	0.0165981
600.484	0.0163879
600.562	0.0164306
600.640	0.0164291
600.718	0.0164455
600.796	0.0163024
600.874	0.0164465
600.953	0.0165868
601.031	0.0164774
601.109	0.0166000
601.187	0.0165968
601.265	0.0166078
601.343	0.0163778
601.421	0.0164464
601.499	0.0163901
601.578	0.0165295
601.656	0.0164699
601.734	0.0165799
601.812	0.0163247
601.890	0.0164588
601.968	0.0165983
602.046	0.0165207
602.124	0.0164440
602.203	0.0164717
602.281	0.0165581
602.359	0.0164931
602.437	0.0165063
602.515	0.0165115
602.593	0.0164697
602.671	0.0165084
602.749	0.0163805
602.828	0.0163664
602.906	0.0164108
602.984	0.0164773
603.062	0.0165032
603.140	0.0164675
603.218	0.0163605
603.296	0.0164780
603.374	0.0165485
603.453	0.0163673
603.531	0.0164470
603.609	0.0166100
603.687	0.0164513
603.765	0.0164408
603.843	0.0163762
603.921	0.0163765
603.999	0.0165280
604.078	0.0164922
604.156	0.0164507
604.234	0.0164735
604.312	0.0165354
604.390	0.0164806
604.468	0.0165083
604.546	0.0164177
604.624	0.0164946
604.703	0.0165388
604.781	0.0164034
604.859	0.0165565
604.937	0.0164625
605.015	0.0165290
605.093	0.0164221
605.171	0.0164534
605.249	0.0165531
605.328	0.0165223
605.406	0.0164568
605.484	0.0165137
605.562	0.0165193
605.640	0.0164774
605.718	0.0163684
605.796	0.0163998
605.874	0.0164545
605.953	0.0164796
606.031	0.0165528
606.109	0.0164178
606.187	0.0164423
606.265	0.0165770
606.343	0.0166425
606.421	0.0164519
606.499	0.0164118
606.578	0.0164783
606.656	0.0163954
606.734	0.0164774
606.812	0.0165673
606.890	0.0164909
606.968	0.0165000
607.046	0.0164869
607.124	0.0165639
607.203	0.0164536
607.281	0.0164330
607.359	0.0164329
607.437	0.0164504
607.515	0.0163189
607.593	0.0164493
607.671	0.0164991
607.749	0.0164580
607.828	0.0164993
607.906	0.0163489
607.984	0.0164587
608.062	0.0165413
608.140	0.0164933
608.218	0.0165188
608.296	0.0165091
608.374	0.0165298
608.453	0.0163699
608.531	0.0165047
608.609	0.0165237
608.687	0.0164202
608.765	0.0163605
608.843	0.0165599
608.921	0.0164871
608.999	0.0164575
609.078	0.0165095
609.156	0.0164632
609.234	0.0166016
609.312	0.0164437
609.390	0.0163979
609.468	0.0165028
609.546	0.0164102
609.624	0.0163902
609.703	0.0163798
609.781	0.0164669
609.859	0.0164000
609.937	0.0164285
610.015	0.0163609
610.093	0.0164359
610.171	0.0165823
610.249	0.0165494
610.328	0.0164700
610.406	0.0164480
610.484	0.0164188
610.562	0.0163800
610.640	0.0164388
610.718	0.0163600
610.796	0.0164751
610.874	0.0163389
610.953	0.0164894
611.031	0.0164516
611.109	0.0165558
611.187	0.0165321
611.265	0.0164017
611.343	0.0164650
611.421	0.0164637
611.499	0.0165295
611.578	0.0163987
611.656	0.0162800
611.734	0.0163730
611.812	0.0165139
611.890	0.0164854
611.968	0.0164847
612.046	0.0163908
612.124	0.0165054
612.203	0.0165606
612.281	0.0163299
612.359	0.0163838
612.437	0.0163446
612.515	0.0164700
612.593	0.0165717
612.671	0.0164876
612.749	0.0163106
612.828	0.0164524
612.906	0.0164507
612.984	0.0164712
613.062	0.0164719
613.140	0.0164446
613.218	0.0163767
613.296	0.0164970
613.374	0.0165041
613.453	0.0164326
613.531	0.0164204
613.609	0.0165311
613.687	0.0164442
613.765	0.0165855
613.843	0.0165652
613.921	0.0165403
613.999	0.0164570
614.078	0.0164632
614.156	0.0164796
614.234	0.0165192
614.312	0.0164664
614.390	0.0165481
614.468	0.0164390
614.546	0.0165268
614.624	0.0164389
614.703	0.0163910
614.781	0.0164918
614.859	0.0165234
614.937	0.0165055
615.015	0.0164364
615.093	0.0164924
615.171	0.0165588
615.249	0.0165485
615.328	0.0163282
615.406	0.0164635
615.484	0.0165216
615.562	0.0163239
615.640	0.0165208
615.718	0.0164580
615.796	0.0164280
615.874	0.0165937
615.953	0.0163957
616.031	0.0163972
616.109	0.0163392
616.187	0.0164638
616.265	0.0164812
616.343	0.0165203
616.421	0.0164735
616.499	0.0165421
616.578	0.0164904
616.656	0.0164397
616.734	0.0163738
616.812	0.0165382
616.890	0.0164492
616.968	0.0164008
617.046	0.0165016
617.124	0.0164984
617.203	0.0164564
617.281	0.0163452
617.359	0.0165682
617.437	0.0163950
617.515	0.0164554
617.593	0.0164501
617.671	0.0164430
617.749	0.0163696
617.828	0.0165406
617.906	0.0165471
617.984	0.0163994
618.062	0.0163635
618.140	0.0163980
618.218	0.0164512
618.296	0.0163856
618.374	0.0163993
618.453	0.0165328
618.531	0.0163924
618.609	0.0164320
618.687	0.0164822
618.765	0.0163892
618.843	0.0164951
618.921	0.0165955
618.999	0.0165509
619.078	0.0164318
619.156	0.0164945
619.234	0.0165379
619.312	0.0164449
619.390	0.0164478
619.468	0.0165310
619.546	0.0165429
619.624	0.0162930
619.703	0.0165325
619.781	0.0165283
619.859	0.0163538
619.937	0.0164672
620.015	0.0164594
620.093	0.0164291
620.171	0.0165697
620.249	0.0163292
620.328	0.0163975
620.406	0.0164973
620.484	0.0165137
620.562	0.0164173
620.640	0.0162794
620.718	0.0164455
620.796	0.0164775
620.874	0.0165067
620.953	0.0163318
621.031	0.0164480
621.109	0.0165370
621.187	0.0164579
621.265	0.0165120
621.343	0.0165128
621.421	0.0164397
621.499	0.0164391
621.578	0.0164297
621.656	0.0164085
621.734	0.0163805
621.812	0.0163947
621.890	0.0164351
621.968	0.0163970
622.046	0.0163686
622.124	0.0163536
622.203	0.0164963
622.281	0.0165459
622.359	0.0163744
622.437	0.0164164
622.515	0.0163835
622.593	0.0163869
622.671	0.0165627
622.749	0.0164563
622.828	0.0163168
622.906	0.0163577
622.984	0.0164163
623.062	0.0163428
623.140	0.0165529
623.218	0.0164595
623.296	0.0163929
623.374	0.0165926
623.453	0.0164207
623.531	0.0164775
623.609	0.0164707
623.687	0.0163349
623.765	0.0164096
623.843	0.0164173
623.921	0.0164423
623.999	0.0163738
624.078	0.0164845
624.156	0.0164235
624.234	0.0164216
624.312	0.0164354
624.390	0.0164761
624.468	0.0164545
624.546	0.0163911
624.624	0.0164504
624.703	0.0165293
624.781	0.0165193
624.859	0.0164137
624.937	0.0164266
625.015	0.0164767
625.093	0.0163049
625.171	0.0164883
625.249	0.0165006
625.328	0.0165264
625.406	0.0165508
625.484	0.0165042
625.562	0.0164886
625.640	0.0163484
625.718	0.0164487
625.796	0.0163272
625.874	0.0163413
625.953	0.0164820
626.031	0.0164513
626.109	0.0164964
626.187	0.0165808
626.265	0.0164176
626.343	0.0163714
626.421	0.0164524
626.499	0.0163801
626.578	0.0163938
626.656	0.0164468
626.734	0.0164426
626.812	0.0164561
626.890	0.0164990
626.968	0.0163646
627.046	0.0164289
627.124	0.0164671
627.203	0.0163886
627.281	0.0163258
627.359	0.0163217
627.437	0.0163366
627.515	0.0164409
627.593	0.0164596
627.671	0.0163372
627.749	0.0164375
627.828	0.0165091
627.906	0.0163759
627.984	0.0163034
628.062	0.0163902
628.140	0.0164399
628.218	0.0163666
628.296	0.0163981
628.374	0.0164771
628.453	0.0164380
628.531	0.0164165
628.609	0.0163901
628.687	0.0164674
628.765	0.0164895
628.843	0.0164506
628.921	0.0164949
628.999	0.0164082
629.078	0.0165348
629.156	0.0163836
629.234	0.0163869
629.312	0.0163923
629.390	0.0163466
629.468	0.0165174
629.546	0.0164209
629.624	0.0164659
629.703	0.0163795
629.781	0.0165026
629.859	0.0163329
629.937	0.0165364
630.015	0.0164597
630.093	0.0163802
630.171	0.0164831
630.249	0.0164189
630.328	0.0165437
630.406	0.0164394
630.484	0.0163409
630.562	0.0164870
630.640	0.0165911
630.718	0.0165243
630.796	0.0164126
630.874	0.0165829
630.953	0.0164652
631.031	0.0164881
631.109	0.0165264
631.187	0.0163503
631.265	0.0164714
631.343	0.0164740
631.421	0.0164472
631.499	0.0163927
631.578	0.0165572
631.656	0.0163425
631.734	0.0164043
631.812	0.0163998
631.890	0.0164592
631.968	0.0164700
632.046	0.0165239
632.124	0.0165651
632.203	0.0164737
632.281	0.0164851
632.359	0.0164942
632.437	0.0164942
632.515	0.0165132
632.593	0.0163899
632.671	0.0164732
632.749	0.0166277
632.828	0.0163963
632.906	0.0164411
632.984	0.0163410
633.062	0.0164458
633.140	0.0164284
633.218	0.0163351
633.296	0.0163777
633.374	0.0165495
633.453	0.0164796
633.531	0.0165067
633.609	0.0164297
633.687	0.0164491
633.765	0.0164759
633.843	0.0164536
633.921	0.0164428
633.999	0.0164645
634.078	0.0164629
634.156	0.0165869
634.234	0.0164756
634.312	0.0164159
634.390	0.0163298
634.468	0.0164358
634.546	0.0164274
634.624	0.0164388
634.703	0.0165069
634.781	0.0164298
634.859	0.0164342
634.937	0.0165054
635.015	0.0165146
635.093	0.0164912
635.171	0.0164745
635.249	0.0163683
635.328	0.0165193
635.406	0.0164593
635.484	0.0164874
635.562	0.0164442
635.640	0.0165200
635.718	0.0164493
635.796	0.0164559
635.874	0.0164477
635.953	0.0164268
636.031	0.0164416
636.109	0.0165190
636.187	0.0164771
636.265	0.0164431
636.343	0.0165377
636.421	0.0164594
636.499	0.0165330
636.578	0.0165076
636.656	0.0164506
636.734	0.0165653
636.812	0.0164162
636.890	0.0164304
636.968	0.0164825
637.046	0.0164851
637.124	0.0165772
637.203	0.0164634
637.281	0.0165189
637.359	0.0165432
637.437	0.0164496
637.515	0.0164454
637.593	0.0164442
637.671	0.0165789
637.749	0.0165451
637.828	0.0164497
637.906	0.0164959
637.984	0.0164423
638.062	0.0163505
638.140	0.0164709
638.218	0.0165432
638.296	0.0165065
638.374	0.0164789
638.453	0.0163897
638.531	0.0164716
638.609	0.0164976
638.687	0.0163270
638.765	0.0165137
638.843	0.0165127
638.921	0.0165294
638.999	0.0164520
639.078	0.0166027
639.156	0.0164885
639.234	0.0163461
639.312	0.0165118
639.390	0.0164809
639.468	0.0166355
639.546	0.0164676
639.624	0.0165866
639.703	0.0164407
639.781	0.0164703
639.859	0.0165890
639.937	0.0163742
640.015	0.0165033
640.093	0.0165372
640.171	0.0164835
640.249	0.0165903
640.328	0.0165337
640.406	0.0163644
640.484	0.0165223
640.562	0.0166389
640.640	0.0164075
640.718	0.0165458
640.796	0.0165286
640.874	0.0166547
640.953	0.0165394
641.031	0.0164626
641.109	0.0165544
641.187	0.0165739
641.265	0.0165176
641.343	0.0164552
641.421	0.0164560
641.499	0.0165370
641.578	0.0163930
641.656	0.0164209
641.734	0.0164302
641.812	0.0165065
641.890	0.0164307
641.968	0.0165807
642.046	0.0164843
642.124	0.0164161
642.203	0.0166208
642.281	0.0164833
642.359	0.0164698
642.437	0.0164001
642.515	0.0164303
642.593	0.0163844
642.671	0.0164283
642.749	0.0164292
642.828	0.0164568
642.906	0.0165017
642.984	0.0165326
643.062	0.0164363
643.140	0.0165982
643.218	0.0164745
643.296	0.0163692
643.374	0.0166046
643.453	0.0164353
643.531	0.0163958
643.609	0.0165485
643.687	0.0164310
643.765	0.0164920
643.843	0.0164948
643.921	0.0166871
643.999	0.0164348
644.078	0.0164781
644.156	0.0165660
644.234	0.0164983
644.312	0.0166869
644.390	0.0166267
644.468	0.0166362
644.546	0.0166262
644.624	0.0165298
644.703	0.0166080
644.781	0.0164964
644.859	0.0165439
644.937	0.0165606
645.015	0.0165918
645.093	0.0165715
645.171	0.0163775
645.249	0.0164377
645.328	0.0165398
645.406	0.0164749
645.484	0.0162961
645.562	0.0165603
645.640	0.0165319
645.718	0.0165267
645.796	0.0164413
645.874	0.0164355
645.953	0.0164104
646.031	0.0166311
646.109	0.0163819
646.187	0.0164639
646.265	0.0164027
646.343	0.0164280
646.421	0.0164169
646.499	0.0165357
646.578	0.0163733
646.656	0.0163868
646.734	0.0165314
646.812	0.0164635
646.890	0.0164653
646.968	0.0164175
647.046	0.0165157
647.124	0.0165001
647.203	0.0165528
647.281	0.0165590
647.359	0.0163783
647.437	0.0163323
647.515	0.0164437
647.593	0.0165513
647.671	0.0163638
647.749	0.0164797
647.828	0.0164268
647.906	0.0163966
647.984	0.0163227
648.062	0.0163574
648.140	0.0165174
648.218	0.0164367
648.296	0.0164725
648.374	0.0164346
648.453	0.0163844
648.531	0.0164906
648.609	0.0163429
648.687	0.0164122
648.765	0.0165060
648.843	0.0164899
648.921	0.0163857
648.999	0.0164004
649.078	0.0164458
649.156	0.0163914
649.234	0.0163525
649.312	0.0165337
649.390	0.0164473
649.468	0.0164050
649.546	0.0166079
649.624	0.0164965
649.703	0.0163758
649.781	0.0163725
649.859	0.0162299
649.937	0.0163638
650.015	0.0165032
650.093	0.0164059
650.171	0.0163537
650.249	0.0164214
650.328	0.0164588
650.406	0.0165829
650.484	0.0163898
650.562	0.0164892
650.640	0.0162920
650.718	0.0164219
650.796	0.0163535
650.874	0.0163958
650.953	0.0165465
651.031	0.0164791
651.109	0.0164471
651.187	0.0164521
651.265	0.0163501
651.343	0.0163787
651.421	0.0165131
651.499	0.0164430
651.578	0.0163177
651.656	0.0163844
651.734	0.0164458
651.812	0.0165840
651.890	0.0163293
651.968	0.0165157
652.046	0.0163549
652.124	0.0164349
652.203	0.0165638
652.281	0.0162968
652.359	0.0162605
652.437	0.0164587
652.515	0.0164520
652.593	0.0164015
652.671	0.0163236
652.749	0.0164618
652.828	0.0164616
652.906	0.0163717
652.984	0.0164131
653.062	0.0164864
653.140	0.0162679
653.218	0.0163361
653.296	0.0164849
653.374	0.0165170
653.453	0.0164106
653.531	0.0164038
653.609	0.0164301
653.687	0.0163805
653.765	0.0164787
653.843	0.0163604
653.921	0.0163992
653.999	0.0164451
654.078	0.0164968
654.156	0.0164483
654.234	0.0163564
654.312	0.0163473
654.390	0.0163573
654.468	0.0164082
654.546	0.0163728
654.624	0.0163673
654.703	0.0164580
654.781	0.0163009
654.859	0.0163917
654.937	0.0162803
655.015	0.0163303
655.093	0.0164504
655.171	0.0164094
655.249	0.0163908
655.328	0.0163680
655.406	0.0164665
655.484	0.0163778
655.562	0.0164213
655.640	0.0163123
655.718	0.0163957
655.796	0.0164017
655.874	0.0162865
655.953	0.0164462
656.031	0.0164850
656.109	0.0164726
656.187	0.0163730
656.265	0.0164201
656.343	0.0162917
656.421	0.0164056
656.499	0.0164029
656.578	0.0164368
656.656	0.0163940
656.734	0.0165302
656.812	0.0164944
656.890	0.0163742
656.968	0.0164801
657.046	0.0165587
657.124	0.0164968
657.203	0.0164297
657.281	0.0164723
657.359	0.0164139
657.437	0.0166168
657.515	0.0164859
657.593	0.0164610
657.671	0.0163141
657.749	0.0165328
657.828	0.0164123
657.906	0.0163261
657.984	0.0165615
658.062	0.0164951
658.140	0.0165285
658.218	0.0164777
658.296	0.0165255
658.374	0.0165829
658.453	0.0165063
658.531	0.0165601
658.609	0.0164742
658.687	0.0166248
658.765	0.0164164
658.843	0.0165038
658.921	0.0164481
658.999	0.0165205
659.078	0.0165452
659.156	0.0165506
659.234	0.0165615
659.312	0.0164982
659.390	0.0164960
659.468	0.0165878
659.546	0.0166692
659.624	0.0165298
659.703	0.0166003
659.781	0.0164621
659.859	0.0166187
659.937	0.0167558
660.015	0.0165237
660.093	0.0164997
660.171	0.0165589
660.249	0.0165218
660.328	0.0165193
660.406	0.0164112
660.484	0.0165280
660.562	0.0165421
660.640	0.0165583
660.718	0.0164422
660.796	0.0165709
660.874	0.0164478
660.953	0.0163716
661.031	0.0165366
661.109	0.0164060
661.187	0.0165170
661.265	0.0165092
661.343	0.0164978
661.421	0.0165308
661.499	0.0165498
661.578	0.0165144
661.656	0.0165372
661.734	0.0164470
661.812	0.0164342
661.890	0.0164853
661.968	0.0164315
662.046	0.0166051
662.124	0.0165355
662.203	0.0164649
662.281	0.0166113
662.359	0.0165123
662.437	0.0165430
662.515	0.0165073
662.593	0.0165234
662.671	0.0164396
662.749	0.0166026
662.828	0.0165486
662.906	0.0165486
662.984	0.0164732
663.062	0.0163831
663.140	0.0164832
663.218	0.0164580
663.296	0.0164840
663.374	0.0164297
663.453	0.0164569
663.531	0.0165744
663.609	0.0164742
663.687	0.0166312
663.765	0.0164560
663.843	0.0164111
663.921	0.0163935
663.999	0.0164668
664.078	0.0165590
664.156	0.0165247
664.234	0.0164217
664.312	0.0164055
664.390	0.0163974
664.468	0.0165755
664.546	0.0165481
664.624	0.0164518
664.703	0.0163962
664.781	0.0165344
664.859	0.0165273
664.937	0.0164611
665.015	0.0163485
665.093	0.0164671
665.171	0.0165498
665.249	0.0165322
665.328	0.0165919
665.406	0.0163741
665.484	0.0165439
665.562	0.0164569
665.640	0.0164773
665.718	0.0165879
665.796	0.0164290
665.874	0.0164706
665.953	0.0164072
666.031	0.0164932
666.109	0.0164715
666.187	0.0165265
666.265	0.0163309
666.343	0.0165459
666.421	0.0165076
666.499	0.0165325
666.578	0.0164035
666.656	0.0163946
666.734	0.0164766
666.812	0.0165056
666.890	0.0164809
666.968	0.0164882
667.046	0.0164519
667.124	0.0164004
667.203	0.0164268
667.281	0.0163537
667.359	0.0164487
667.437	0.0164801
667.515	0.0164300
667.593	0.0164854
667.671	0.0165345
667.749	0.0165883
667.828	0.0164803
667.906	0.0164584
667.984	0.0164612
668.062	0.0163924
668.140	0.0163704
668.218	0.0164515
668.296	0.0164487
668.374	0.0164742
668.453	0.0164316
668.531	0.0165334
668.609	0.0164254
668.687	0.0164997
668.765	0.0163757
668.843	0.0164749
668.921	0.0165017
668.999	0.0164423
669.078	0.0164506
669.156	0.0165095
669.234	0.0164693
669.312	0.0165400
669.390	0.0166225
669.468	0.0164891
669.546	0.0164484
669.624	0.0163524
669.703	0.0162952
669.781	0.0164364
669.859	0.0163235
669.937	0.0164263
670.015	0.0164297
670.093	0.0164356
670.171	0.0163616
670.249	0.0165063
670.328	0.0163812
670.406	0.0163662
670.484	0.0163534
670.562	0.0163950
670.640	0.0163897
670.718	0.0164173
670.796	0.0163860
670.874	0.0164409
670.953	0.0165189
671.031	0.0161972
671.109	0.0163205
671.187	0.0164172
671.265	0.0163139
671.343	0.0163988
671.421	0.0163325
671.499	0.0164503
671.578	0.0164698
671.656	0.0163950
671.734	0.0163499
671.812	0.0164225
671.890	0.0163971
671.968	0.0164173
672.046	0.0164172
672.124	0.0163136
672.203	0.0163862
672.281	0.0163868
672.359	0.0163438
672.437	0.0164001
672.515	0.0163208
672.593	0.0163427
672.671	0.0163526
672.749	0.0164280
672.828	0.0164220
672.906	0.0164675
672.984	0.0163289
673.062	0.0164581
673.140	0.0163898
673.218	0.0163289
673.296	0.0164386
673.374	0.0164532
673.453	0.0164373
673.531	0.0165053
673.609	0.0162880
673.687	0.0163898
673.765	0.0163464
673.843	0.0163785
673.921	0.0163779
673.999	0.0163382
674.078	0.0163187
674.156	0.0164314
674.234	0.0164117
674.312	0.0163601
674.390	0.0163223
674.468	0.0164569
674.546	0.0163421
674.624	0.0164391
674.703	0.0163748
674.781	0.0164858
674.859	0.0164182
674.937	0.0161948
675.015	0.0161958
675.093	0.0163409
675.171	0.0163666
675.249	0.0162454
675.328	0.0164532
675.406	0.0164119
675.484	0.0163510
675.562	0.0164275
675.640	0.0164634
675.718	0.0164584
675.796	0.0163911
675.874	0.0163898
675.953	0.0163953
676.031	0.0163226
676.109	0.0164088
676.187	0.0164544
676.265	0.0163386
676.343	0.0165524
676.421	0.0164623
676.499	0.0162898
676.578	0.0163530
676.656	0.0162865
676.734	0.0164780
676.812	0.0163464
676.890	0.0163807
676.968	0.0162402
677.046	0.0163564
677.124	0.0164764
677.203	0.0164480
677.281	0.0164502
677.359	0.0165551
677.437	0.0165216
677.515	0.0164697
677.593	0.0163027
677.671	0.0164397
677.749	0.0164602
677.828	0.0163350
677.906	0.0164445
677.984	0.0165221
678.062	0.0163248
678.140	0.0162994
678.218	0.0164417
678.296	0.0164616
678.374	0.0164742
678.453	0.0164422
678.531	0.0163132
678.609	0.0163019
678.687	0.0163401
678.765	0.0164842
678.843	0.0163512
678.921	0.0164792
678.999	0.0164910
679.078	0.0164130
679.156	0.0165365
679.234	0.0163241
679.312	0.0164254
679.390	0.0164753
679.468	0.0164410
679.546	0.0165290
679.624	0.0164502
679.703	0.0163840
679.781	0.0165765
679.859	0.0164175
679.937	0.0164206
680.015	0.0165047
680.093	0.0164851
680.171	0.0165865
680.249	0.0164829
680.328	0.0164792
680.406	0.0164544
680.484	0.0164178
680.562	0.0163407
680.640	0.0164253
680.718	0.0163693
680.796	0.0165874
680.874	0.0166074
680.953	0.0163298
681.031	0.0164795
681.109	0.0164713
681.187	0.0166227
681.265	0.0164259
681.343	0.0164735
681.421	0.0164758
681.499	0.0164990
681.578	0.0165329
681.656	0.0164352
681.734	0.0165495
681.812	0.0165291
681.890	0.0164527
681.968	0.0163670
682.046	0.0164521
682.124	0.0166443
682.203	0.0163963
682.281	0.0164519
682.359	0.0165259
682.437	0.0164230
682.515	0.0165015
682.593	0.0164733
682.671	0.0165036
682.749	0.0164118
682.828	0.0164719
682.906	0.0164701
682.984	0.0165500
683.062	0.0164164
683.140	0.0164900
683.218	0.0165405
683.296	0.0164245
683.374	0.0164244
683.453	0.0165452
683.531	0.0164310
683.609	0.0165453
683.687	0.0165575
683.765	0.0164977
683.843	0.0164621
683.921	0.0165535
683.999	0.0165567
684.078	0.0163847
684.156	0.0163927
684.234	0.0165527
684.312	0.0165031
684.390	0.0163801
684.468	0.0165439
684.546	0.0165026
684.624	0.0164393
684.703	0.0165275
684.781	0.0163930
684.859	0.0162540
684.937	0.0164585
685.015	0.0164600
685.093	0.0164427
685.171	0.0164206
685.249	0.0164300
685.328	0.0163877
685.406	0.0165228
685.484	0.0164916
685.562	0.0164223
685.640	0.0163135
685.718	0.0163535
685.796	0.0165128
685.874	0.0164752
685.953	0.0164561
686.031	0.0163314
686.109	0.0163745
686.187	0.0164365
686.265	0.0164877
686.343	0.0163145
686.421	0.0164384
686.499	0.0164258
686.578	0.0164006
686.656	0.0162636
686.734	0.0164378
686.812	0.0164497
686.890	0.0164658
686.968	0.0165145
687.046	0.0164558
687.124	0.0164021
687.203	0.0165868
687.281	0.0165040
687.359	0.0165356
687.437	0.0164748
687.515	0.0165398
687.593	0.0165532
687.671	0.0164796
687.749	0.0164376
687.828	0.0165331
687.906	0.0164149
687.984	0.0164235
688.062	0.0164213
688.140	0.0165468
688.218	0.0163509
688.296	0.0164619
688.374	0.0165170
688.453	0.0164250
688.531	0.0164356
688.609	0.0164317
688.687	0.0164956
688.765	0.0164708
688.843	0.0163806
688.921	0.0164450
688.999	0.0164018
689.078	0.0164170
689.156	0.0164479
689.234	0.0164887
689.312	0.0164564
689.390	0.0165455
689.468	0.0164290
689.546	0.0164316
689.624	0.0163206
689.703	0.0165015
689.781	0.0164631
689.859	0.0164879
689.937	0.0165524
690.015	0.0165199
690.093	0.0165321
690.171	0.0163965
690.249	0.0164251
690.328	0.0163987
690.406	0.0163932
690.484	0.0163786
690.562	0.0165794
690.640	0.0165816
690.718	0.0164426
690.796	0.0164560
690.874	0.0165496
690.953	0.0164065
691.031	0.0164812
691.109	0.0165322
691.187	0.0162550
691.265	0.0164200
691.343	0.0164975
691.421	0.0165333
691.499	0.0164351
691.578	0.0164117
691.656	0.0164182
691.734	0.0164537
691.812	0.0164277
691.890	0.0165034
691.968	0.0164642
692.046	0.0164495
692.124	0.0164220
692.203	0.0163467
692.281	0.0165726
692.359	0.0164669
692.437	0.0164130
692.515	0.0165002
692.593	0.0164454
692.671	0.0165371
692.749	0.0165241
692.828	0.0164793
692.906	0.0164571
692.984	0.0165058
693.062	0.0164024
693.140	0.0163950
693.218	0.0164320
693.296	0.0164610
693.374	0.0165937
693.453	0.0164368
693.531	0.0163757
693.609	0.0164194
693.687	0.0163907
693.765	0.0164429
693.843	0.0165338
693.921	0.0164796
693.999	0.0164026
694.078	0.0164703
694.156	0.0165326
694.234	0.0164560
694.312	0.0162703
694.390	0.0164136
694.468	0.0164252
694.546	0.0165378
694.624	0.0163092
694.703	0.0165851
694.781	0.0164430
694.859	0.0165095
694.937	0.0164391
695.015	0.0163712
695.093	0.0163667
695.171	0.0164513
695.249	0.0166094
695.328	0.0165707
695.406	0.0163647
695.484	0.0164323
695.562	0.0164532
695.640	0.0163407
695.718	0.0163181
695.796	0.0164404
695.874	0.0164573
695.953	0.0165820
696.031	0.0165470
696.109	0.0163484
696.187	0.0164263
696.265	0.0165498
696.343	0.0164472
696.421	0.0164944
696.499	0.0164175
696.578	0.0163334
696.656	0.0163737
696.734	0.0163789
696.812	0.0164281
696.890	0.0163405
696.968	0.0163815
697.046	0.0163536
697.124	0.0164301
697.203	0.0164339
697.281	0.0165330
697.359	0.0164964
697.437	0.0164359
697.515	0.0164403
697.593	0.0164066
697.671	0.0163972
697.749	0.0164243
697.828	0.0164661
697.906	0.0163967
697.984	0.0163970
698.062	0.0165162
698.140	0.0164584
698.218	0.0165379
698.296	0.0165402
698.374	0.0164596
698.453	0.0165379
698.531	0.0164034
698.609	0.0164120
698.687	0.0164011
698.765	0.0163136
698.843	0.0163567
698.921	0.0164843
698.999	0.0162572
699.078	0.0164994
699.156	0.0164176
699.234	0.0164554
699.312	0.0163115
699.390	0.0163361
699.468	0.0164299
699.546	0.0164603
699.624	0.0163567
699.703	0.0163328
699.781	0.0163375
699.859	0.0163209
699.937	0.0165807
700.015	0.0163200
700.093	0.0165409
700.171	0.0163769
700.249	0.0164392
700.328	0.0164807
700.406	0.0165463
700.484	0.0163857
700.562	0.0164298
700.640	0.0165020
700.718	0.0164613
700.796	0.0164494
700.874	0.0163959
700.953	0.0162926
701.031	0.0164906
701.109	0.0162671
701.187	0.0163580
701.265	0.0166105
701.343	0.0164065
701.421	0.0162302
701.499	0.0163782
701.578	0.0163458
701.656	0.0163541
701.734	0.0164747
701.812	0.0163586
701.890	0.0164066
701.968	0.0163802
702.046	0.0164205
702.124	0.0165105
702.203	0.0163844
702.281	0.0165275
702.359	0.0164680
702.437	0.0164428
702.515	0.0164609
702.593	0.0164088
702.671	0.0165584
702.749	0.0165746
702.828	0.0164465
702.906	0.0162840
702.984	0.0163873
703.062	0.0167023
703.140	0.0164243
703.218	0.0165142
703.296	0.0164945
703.374	0.0164137
703.453	0.0164130
703.531	0.0166035
703.609	0.0163268
703.687	0.0164668
703.765	0.0164644
703.843	0.0164213
703.921	0.0163485
703.999	0.0164531
704.078	0.0165160
704.156	0.0164503
704.234	0.0163756
704.312	0.0164845
704.390	0.0164565
704.468	0.0163821
704.546	0.0164803
704.624	0.0163555
704.703	0.0164220
704.781	0.0165643
704.859	0.0165485
704.937	0.0165144
705.015	0.0164179
705.093	0.0166290
705.171	0.0164037
705.249	0.0165120
705.328	0.0165142
705.406	0.0164100
705.484	0.0164369
705.562	0.0165486
705.640	0.0164284
705.718	0.0165283
705.796	0.0164006
705.874	0.0165605
705.953	0.0165012
706.031	0.0164009
706.109	0.0164789
706.187	0.0165469
706.265	0.0164090
706.343	0.0164708
706.421	0.0164027
706.499	0.0165150
706.578	0.0164026
706.656	0.0165099
706.734	0.0164880
706.812	0.0164628
706.890	0.0163167
706.968	0.0165083
707.046	0.0164803
707.124	0.0164150
707.203	0.0165308
707.281	0.0166099
707.359	0.0165608
707.437	0.0164182
707.515	0.0164154
707.593	0.0164587
707.671	0.0165320
707.749	0.0164787
707.828	0.0165958
707.906	0.0163390
707.984	0.0165379
708.062	0.0164052
708.140	0.0164925
708.218	0.0163979
708.296	0.0164850
708.374	0.0164524
708.453	0.0164580
708.531	0.0164158
708.609	0.0166299
708.687	0.0165487
708.765	0.0164203
708.843	0.0164252
708.921	0.0165790
708.999	0.0164827
709.078	0.0164467
709.156	0.0163789
709.234	0.0164618
709.312	0.0164322
709.390	0.0164156
709.468	0.0165381
709.546	0.0164236
709.624	0.0164645
709.703	0.0164630
709.781	0.0165579
709.859	0.0164662
709.937	0.0164412
710.015	0.0163930
710.093	0.0164539
710.171	0.0164642
710.249	0.0164346
710.328	0.0165204
710.406	0.0163656
710.484	0.0164208
710.562	0.0165260
710.640	0.0165649
710.718	0.0164685
710.796	0.0164320
710.874	0.0164994
710.953	0.0165530
711.031	0.0163876
711.109	0.0164885
711.187	0.0165531
711.265	0.0165408
711.343	0.0164352
711.421	0.0163570
711.499	0.0164352
711.578	0.0165070
711.656	0.0164764
711.734	0.0166553
711.812	0.0165455
711.890	0.0164148
711.968	0.0161623
712.046	0.0163175
712.124	0.0165276
712.203	0.0166026
712.281	0.0164803
712.359	0.0164673
712.437	0.0164608
712.515	0.0164793
712.593	0.0165634
712.671	0.0165313
712.749	0.0164346
712.828	0.0164658
712.906	0.0165477
712.984	0.0164402
713.062	0.0166443
713.140	0.0165997
713.218	0.0165273
713.296	0.0165368
713.374	0.0165308
713.453	0.0165398
713.531	0.0164350
713.609	0.0164220
713.687	0.0164992
713.765	0.0164857
713.843	0.0165640
713.921	0.0165994
713.999	0.0164671
714.078	0.0164462
714.156	0.0164944
714.234	0.0164249
714.312	0.0165747
714.390	0.0165797
714.468	0.0164310
714.546	0.0163097
714.624	0.0163915
714.703	0.0165282
714.781	0.0165030
714.859	0.0164196
714.937	0.0163947
715.015	0.0163845
715.093	0.0165067
715.171	0.0164477
715.249	0.0163110
715.328	0.0163548
715.406	0.0165341
715.484	0.0164478
715.562	0.0164971
715.640	0.0164201
715.718	0.0163673
715.796	0.0164646
715.874	0.0164378
715.953	0.0164362
716.031	0.0164095
716.109	0.0164565
716.187	0.0164294
716.265	0.0164996
716.343	0.0165005
716.421	0.0163499
716.499	0.0164874
716.578	0.0164981
716.656	0.0163816
716.734	0.0164767
716.812	0.0164951
716.890	0.0164254
716.968	0.0164658
717.046	0.0165382
717.124	0.0165959
717.203	0.0164720
717.281	0.0165952
717.359	0.0164137
717.437	0.0163931
717.515	0.0163964
717.593	0.0165091
717.671	0.0165756
717.749	0.0164800
717.828	0.0164741
717.906	0.0163698
717.984	0.0163985
718.062	0.0165108
718.140	0.0165164
718.218	0.0164899
718.296	0.0163634
718.374	0.0164917
718.453	0.0164324
718.531	0.0163713
718.609	0.0164186
718.687	0.0165177
718.765	0.0165916
718.843	0.0165742
718.921	0.0165250
718.999	0.0164500
719.078	0.0165055
719.156	0.0165950
719.234	0.0164961
719.312	0.0164529
719.390	0.0164146
719.468	0.0165804
719.546	0.0165903
719.624	0.0164766
719.703	0.0165367
719.781	0.0164231
719.859	0.0164603
719.937	0.0164272
720.015	0.0165556
720.093	0.0164077
720.171	0.0166071
720.249	0.0165356
720.328	0.0165431
720.406	0.0163518
720.484	0.0164851
720.562	0.0164327
720.640	0.0163995
720.718	0.0165138
720.796	0.0166160
720.874	0.0165305
720.953	0.0164063
721.031	0.0164275
721.109	0.0165099
721.187	0.0164289
721.265	0.0166827
721.343	0.0163625
721.421	0.0165154
721.499	0.0164676
721.578	0.0164957
721.656	0.0165156
721.734	0.0164095
721.812	0.0164297
721.890	0.0164120
721.968	0.0164819
722.046	0.0164729
722.124	0.0163680
722.203	0.0164929
722.281	0.0165130
722.359	0.0164770
722.437	0.0163746
722.515	0.0165102
722.593	0.0164619
722.671	0.0165430
722.749	0.0163649
722.828	0.0163959
722.906	0.0164004
722.984	0.0164209
723.062	0.0164743
723.140	0.0165176
723.218	0.0164101
723.296	0.0163608
723.374	0.0165159
723.453	0.0164616
723.531	0.0163744
723.609	0.0165057
723.687	0.0164619
723.765	0.0164194
723.843	0.0164966
723.921	0.0165112
723.999	0.0163665
724.078	0.0164442
724.156	0.0162406
724.234	0.0164095
724.312	0.0163644
724.390	0.0164634
724.468	0.0163481
724.546	0.0164354
724.624	0.0163868
724.703	0.0163734
724.781	0.0161916
724.859	0.0163178
724.937	0.0163011
725.015	0.0164080
725.093	0.0164317
725.171	0.0163074
725.249	0.0164288
725.328	0.0165005
725.406	0.0166330
725.484	0.0165539
725.562	0.0166763
725.640	0.0167311
725.718	0.0166792
725.796	0.0168483
725.874	0.0168962
725.953	0.0168144
726.031	0.0167668
726.109	0.0168301
726.187	0.0168700
726.265	0.0169298
726.343	0.0168939
726.421	0.0168672
726.499	0.0167001
726.578	0.0168105
726.656	0.0166091
726.734	0.0166206
726.812	0.0165733
726.890	0.0164151
726.968	0.0162845
727.046	0.0160638
727.124	0.0157943
727.203	0.0157030
727.281	0.0156718
727.359	0.0155388
727.437	0.0153380
727.515	0.0154745
727.593	0.0153417
727.671	0.0155114
727.749	0.0155073
727.828	0.0154939
727.906	0.0156973
727.984	0.0159512
728.062	0.0162836
728.140	0.0165816
728.218	0.0168187
728.296	0.0170583
728.374	0.0172634
728.453	0.0173829
728.531	0.0174140
728.609	0.0174792
728.687	0.0174609
728.765	0.0173957
728.843	0.0173648
728.921	0.0170683
728.999	0.0170929
729.078	0.0168665
729.156	0.0168062
729.234	0.0165110
729.312	0.0164071
729.390	0.0162679
729.468	0.0162790
729.546	0.0162889
729.624	0.0162697
729.703	0.0161153
729.781	0.0163013
729.859	0.0163734
729.937	0.0165931
730.015	0.0167923
730.093	0.0170413
730.171	0.0170971
730.249	0.0174031
730.328	0.0174613
730.406	0.0175840
730.484	0.0174751
730.562	0.0174583
730.640	0.0176066
730.718	0.0172302
730.796	0.0170206
730.874	0.0167542
730.953	0.0165852
731.031	0.0161311
731.109	0.0158128
731.187	0.0153596
731.265	0.0151832
731.343	0.0148599
731.421	0.0147024
731.499	0.0147822
731.578	0.0146484
731.656	0.0146293
731.734	0.0144982
731.812	0.0143465
731.890	0.0146587
731.968	0.0147639
732.046	0.0148563
732.124	0.0150097
732.203	0.0149825
732.281	0.0153669
732.359	0.0157350
732.437	0.0157291
732.515	0.0158901
732.593	0.0164149
732.671	0.0166248
732.749	0.0171068
732.828	0.0175307
732.906	0.0178629
732.984	0.0182764
733.062	0.0184479
733.140	0.0188329
733.218	0.0188661
733.296	0.0190685
733.374	0.0190285
733.453	0.0189794
733.531	0.0187033
733.609	0.0186085
733.687	0.0181542
733.765	0.0180503
733.843	0.0176898
733.921	0.0171790
733.999	0.0168462
734.078	0.0166922
734.156	0.0164270
734.234	0.0161090
734.312	0.0156612
734.390	0.0155390
734.468	0.0151188
734.546	0.0149606
734.624	0.0150588
734.703	0.0150877
734.781	0.0150191
734.859	0.0152786
734.937	0.0154176
735.015	0.0156732
735.093	0.0159118
735.171	0.0162411
735.249	0.0164001
735.328	0.0167407
735.406	0.0167596
735.484	0.0167399
735.562	0.0168109
735.640	0.0166857
735.718	0.0167710
735.796	0.0166410
735.874	0.0163855
735.953	0.0163914
736.031	0.0165048
736.109	0.0165151
736.187	0.0162954
736.265	0.0161900
736.343	0.0161524
736.421	0.0161336
736.499	0.0160014
736.578	0.0158659
736.656	0.0157154
736.734	0.0158363
736.812	0.0158764
736.890	0.0158604
736.968	0.0158512
737.046	0.0157623
737.124	0.0156591
737.203	0.0157796
737.281	0.0157343
737.359	0.0156446
737.437	0.0155678
737.515	0.0157092
737.593	0.0157577
737.671	0.0157442
737.749	0.0159721
737.828	0.0161027
737.906	0.0162166
737.984	0.0162936
738.062	0.0164982
738.140	0.0167922
738.218	0.0171823
738.296	0.0176073
738.374	0.0178261
738.453	0.0183496
738.531	0.0187077
738.609	0.0191014
738.687	0.0195574
738.765	0.0198164
738.843	0.0199338
738.921	0.0198122
738.999	0.0195301
739.078	0.0192891
739.156	0.0186903
739.234	0.0181124
739.312	0.0174371
739.390	0.0165383
739.468	0.0159285
739.546	0.0154499
739.624	0.0147221
739.703	0.0143310
739.781	0.0141313
739.859	0.0139861
739.937	0.0141147
740.015	0.0143232
740.093	0.0144492
740.171	0.0148396
740.249	0.0150914
740.328	0.0153558
740.406	0.0156223
740.484	0.0155952
740.562	0.0158714
740.640	0.0160402
740.718	0.0158916
740.796	0.0159855
740.874	0.0159828
740.953	0.0160593
741.031	0.0159473
741.109	0.0158398
741.187	0.0158231
741.265	0.0158580
741.343	0.0159389
741.421	0.0160120
741.499	0.0160528
741.578	0.0163156
741.656	0.0164382
741.734	0.0165977
741.812	0.0166000
741.890	0.0166570
741.968	0.0168282
742.046	0.0167973
742.124	0.0167131
742.203	0.0166541
742.281	0.0166924
742.359	0.0165104
742.437	0.0165730
742.515	0.0166080
742.593	0.0162811
742.671	0.0162462
742.749	0.0164946
742.828	0.0163913
742.906	0.0166563
742.984	0.0167171
743.062	0.0170904
743.140	0.0172523
743.218	0.0175427
743.296	0.0177316
743.374	0.0178107
743.453	0.0180964
743.531	0.0182704
743.609	0.0182916
743.687	0.0184055
743.765	0.0181728
743.843	0.0181051
743.921	0.0180827
743.999	0.0177206
744.078	0.0173112
744.156	0.0169755
744.234	0.0165652
744.312	0.0163311
744.390	0.0159997
744.468	0.0157196
744.546	0.0154426
744.624	0.0152456
744.703	0.0153822
744.781	0.0151830
744.859	0.0149858
744.937	0.0152590
745.015	0.0152789
745.093	0.0151158
745.171	0.0151860
745.249	0.0154123
745.328	0.0152859
745.406	0.0153530
745.484	0.0155851
745.562	0.0155874
745.640	0.0157285
745.718	0.0157454
745.796	0.0159416
745.874	0.0160387
745.953	0.0161669
746.031	0.0163100
746.109	0.0164022
746.187	0.0164005
746.265	0.0164273
746.343	0.0165652
746.421	0.0167168
746.499	0.0167387
746.578	0.0165904
746.656	0.0167458
746.734	0.0165910
746.812	0.0167827
746.890	0.0166801
746.968	0.0169166
747.046	0.0168537
747.124	0.0168482
747.203	0.0168982
747.281	0.0170644
747.359	0.0171882
747.437	0.0172649
747.515	0.0171520
747.593	0.0175487
747.671	0.0175432
747.749	0.0176006
747.828	0.0176583
747.906	0.0175263
747.984	0.0174180
748.062	0.0172837
748.140	0.0171670
748.218	0.0169992
748.296	0.0168382
748.374	0.0165656
748.453	0.0166119
748.531	0.0165759
748.609	0.0162623
748.687	0.0161983
748.765	0.0161700
748.843	0.0161280
748.921	0.0160954
748.999	0.0161684
749.078	0.0162440
749.156	0.0164748
749.234	0.0163779
749.312	0.0164488
749.390	0.0165826
749.468	0.0164494
749.546	0.0164394
749.624	0.0164417
749.703	0.0162968
749.781	0.0162774
749.859	0.0161203
749.937	0.0158912
750.015	0.0157005
750.093	0.0155517
750.171	0.0155460
750.249	0.0153603
750.328	0.0154424
750.406	0.0154916
750.484	0.0155711
750.562	0.0156267
750.640	0.0156153
750.718	0.0158936
750.796	0.0159188
750.874	0.0161207
750.953	0.0162234
751.031	0.0164972
751.109	0.0164071
751.187	0.0164105
751.265	0.0164589
751.343	0.0166219
751.421	0.0165831
751.499	0.0165192
751.578	0.0164787
751.656	0.0165069
751.734	0.0165034
751.812	0.0163628
751.890	0.0165626
751.968	0.0166402
752.046	0.0167558
752.124	0.0167674
752.203	0.0168586
752.281	0.0169880
752.359	0.0168787
752.437	0.0171143
752.515	0.0172432
752.593	0.0172794
752.671	0.0173089
752.749	0.0174363
752.828	0.0173430
752.906	0.0172754
752.984	0.0168428
753.062	0.0166978
753.140	0.0165495
753.218	0.0164423
753.296	0.0162456
753.374	0.0161909
753.453	0.0162627
753.531	0.0160790
753.609	0.0161829
753.687	0.0161602
753.765	0.0163374
753.843	0.0166376
753.921	0.0166049
753.999	0.0166850
754.078	0.0167735
754.156	0.0167923
754.234	0.0168755
754.312	0.0168633
754.390	0.0168378
754.468	0.0167306
754.546	0.0165002
754.624	0.0164206
754.703	0.0162208
754.781	0.0160654
754.859	0.0158204
754.937	0.0157510
755.015	0.0155614
755.093	0.0155271
755.171	0.0155346
755.249	0.0156680
755.328	0.0157148
755.406	0.0156485
755.484	0.0158145
755.562	0.0160023
755.640	0.0161237
755.718	0.0164005
755.796	0.0164572
755.874	0.0165659
755.953	0.0166516
756.031	0.0167622
756.109	0.0165826
756.187	0.0166753
756.265	0.0167902
756.343	0.0166727
756.421	0.0165752
756.499	0.0164841
756.578	0.0164083
756.656	0.0165691
756.734	0.0163966
756.812	0.0165836
756.890	0.0163437
756.968	0.0163699
757.046	0.0163652
757.124	0.0164706
757.203	0.0164351
757.281	0.0165688
757.359	0.0165329
757.437	0.0164675
757.515	0.0167565
757.593	0.0166813
757.671	0.0167094
757.749	0.0169714
757.828	0.0167862
757.906	0.0168968
757.984	0.0170344
758.062	0.0170399
758.140	0.0171160
758.218	0.0170998
758.296	0.0170560
758.374	0.0171062
758.453	0.0169913
758.531	0.0170755
758.609	0.0169306
758.687	0.0168737
758.765	0.0166972
758.843	0.0167843
758.921	0.0167314
758.999	0.0166481
759.078	0.0164106
759.156	0.0163281
759.234	0.0162029
759.312	0.0160310
759.390	0.0159051
759.468	0.0160091
759.546	0.0158632
759.624	0.0157320
759.703	0.0155711
759.781	0.0155926
759.859	0.0157171
759.937	0.0158286
760.015	0.0157378
760.093	0.0157645
760.171	0.0157892
760.249	0.0158813
760.328	0.0158569
760.406	0.0160500
760.484	0.0160387
760.562	0.0162792
760.640	0.0162551
760.718	0.0164114
760.796	0.0165483
760.874	0.0166605
760.953	0.0168762
761.031	0.0169285
761.109	0.0169070
761.187	0.0169955
761.265	0.0170710
761.343	0.0171180
761.421	0.0170697
761.499	0.0170943
761.578	0.0170775
761.656	0.0169221
761.734	0.0168284
761.812	0.0166899
761.890	0.0165383
761.968	0.0165688
762.046	0.0163321
762.124	0.0161514
762.203	0.0161582
762.281	0.0160866
762.359	0.0159210
762.437	0.0159396
762.515	0.0159868
762.593	0.0159417
762.671	0.0160130
762.749	0.0162000
762.828	0.0161987
762.906	0.0163480
762.984	0.0164871
763.062	0.0166740
763.140	0.0169751
763.218	0.0170786
763.296	0.0171899
763.374	0.0174364
763.453	0.0174609
763.531	0.0176750
763.609	0.0177271
763.687	0.0175925
763.765	0.0175603
763.843	0.0174473
763.921	0.0174581
763.999	0.0173300
764.078	0.0171002
764.156	0.0169280
764.234	0.0167664
764.312	0.0165040
764.390	0.0164269
764.468	0.0162663
764.546	0.0161195
764.624	0.0158736
764.703	0.0157759
764.781	0.0154751
764.859	0.0154173
764.937	0.0152859
765.015	0.0149327
765.093	0.0147610
765.171	0.0146172
765.249	0.0145759
765.328	0.0146161
765.406	0.0143046
765.484	0.0145233
765.562	0.0145185
765.640	0.0147836
765.718	0.0149330
765.796	0.0151031
765.874	0.0155165
765.953	0.0159943
766.031	0.0162577
766.109	0.0165915
766.187	0.0169096
766.265	0.0172102
766.343	0.0175205
766.421	0.0180033
766.499	0.0180642
766.578	0.0180833
766.656	0.0182529
766.734	0.0182233
766.812	0.0181739
766.890	0.0180447
766.968	0.0180078
767.046	0.0180304
767.124	0.0177983
767.203	0.0175562
767.281	0.0175611
767.359	0.0172959
767.437	0.0170969
767.515	0.0170927
767.593	0.0167896
767.671	0.0166418
767.749	0.0165674
767.828	0.0163886
767.906	0.0163014
767.984	0.0163650
768.062	0.0163857
768.140	0.0162814
768.218	0.0165083
768.296	0.0164906
768.374	0.0166704
768.453	0.0166884
768.531	0.0166311
768.609	0.0165618
768.687	0.0167168
768.765	0.0165461
768.843	0.0163817
768.921	0.0163531
768.999	0.0161463
769.078	0.0161191
769.156	0.0160847
769.234	0.0159742
769.312	0.0159134
769.390	0.0159000
769.468	0.0157182
769.546	0.0155850
769.624	0.0154266
769.703	0.0154176
769.781	0.0152804
769.859	0.0152214
769.937	0.0150859
770.015	0.0152206
770.093	0.0151933
770.171	0.0154536
770.249	0.0154874
770.328	0.0156149
770.406	0.0156293
770.484	0.0157621
770.562	0.0159318
770.640	0.0161096
770.718	0.0162223
770.796	0.0163931
770.874	0.0165948
770.953	0.0166437
771.031	0.0167994
771.109	0.0170381
771.187	0.0170674
771.265	0.0171625
771.343	0.0171558
771.421	0.0173441
771.499	0.0172762
771.578	0.0171794
771.656	0.0171879
771.734	0.0171938
771.812	0.0170729
771.890	0.0168740
771.968	0.0169263
772.046	0.0169564
772.124	0.0169228
772.203	0.0170679
772.281	0.0171629
772.359	0.0172231
772.437	0.0172408
772.515	0.0174684
772.593	0.0174560
772.671	0.0175672
772.749	0.0174716
772.828	0.0174663
772.906	0.0174754
772.984	0.0173824
773.062	0.0173725
773.140	0.0172586
773.218	0.0170917
773.296	0.0169367
773.374	0.0168173
773.453	0.0165136
773.531	0.0164442
773.609	0.0161043
773.687	0.0160915
773.765	0.0159778
773.843	0.0157841
773.921	0.0158556
773.999	0.0157985
774.078	0.0157282
774.156	0.0158625
774.234	0.0157423
774.312	0.0158384
774.390	0.0158081
774.468	0.0159134
774.546	0.0159486
774.624	0.0159335
774.703	0.0158533
774.781	0.0159318
774.859	0.0158078
774.937	0.0156358
775.015	0.0153977
775.093	0.0152065
775.171	0.0150416
775.249	0.0148785
775.328	0.0148331
775.406	0.0146613
775.484	0.0145755
775.562	0.0146348
775.640	0.0145377
775.718	0.0145862
775.796	0.0147400
775.874	0.0148813
775.953	0.0150959
776.031	0.0153109
776.109	0.0155986
776.187	0.0160120
776.265	0.0163701
776.343	0.0166175
776.421	0.0168600
776.499	0.0172765
776.578	0.0174454
776.656	0.0176707
776.734	0.0179223
776.812	0.0180579
776.890	0.0182519
776.968	0.0183501
777.046	0.0184287
777.124	0.0187041
777.203	0.0184908
777.281	0.0184493
777.359	0.0186430
777.437	0.0185016
777.515	0.0183800
777.593	0.0183614
777.671	0.0181538
777.749	0.0179987
777.828	0.0178915
777.906	0.0177853
777.984	0.0176326
778.062	0.0172783
778.140	0.0171262
778.218	0.0171342
778.296	0.0167165
778.374	0.0167667
778.453	0.0166801
778.531	0.0165886
778.609	0.0163519
778.687	0.0162328
778.765	0.0161877
778.843	0.0160103
778.921	0.0160690
778.999	0.0161300
779.078	0.0157852
779.156	0.0157131
779.234	0.0157204
779.312	0.0155540
779.390	0.0153500
779.468	0.0152928
779.546	0.0152940
779.624	0.0152639
779.703	0.0153043
779.781	0.0150304
779.859	0.0149915
779.937	0.0147879
780.015	0.0147391
780.093	0.0148138
780.171	0.0148859
780.249	0.0147176
780.328	0.0148457
780.406	0.0148653
780.484	0.0149365
780.562	0.0151028
780.640	0.0150499
780.718	0.0150681
780.796	0.0152441
780.874	0.0153075
780.953	0.0155476
781.031	0.0157150
781.109	0.0159460
781.187	0.0160525
781.265	0.0160738
781.343	0.0162119
781.421	0.0163963
781.499	0.0165190
781.578	0.0167217
781.656	0.0168443
781.734	0.0170026
781.812	0.0171629
781.890	0.0174151
781.968	0.0175773
782.046	0.0178893
782.124	0.0178134
782.203	0.0180151
782.281	0.0180975
782.359	0.0181409
782.437	0.0182080
782.515	0.0183987
782.593	0.0183411
782.671	0.0182985
782.749	0.0182742
782.828	0.0182992
782.906	0.0181534
782.984	0.0178744
783.062	0.0178417
783.140	0.0177895
783.218	0.0177432
783.296	0.0177039
783.374	0.0176310
783.453	0.0176080
783.531	0.0175130
783.609	0.0173409
783.687	0.0172810
783.765	0.0173247
783.843	0.0169995
783.921	0.0167625
783.999	0.0166388
784.078	0.0164028
784.156	0.0161382
784.234	0.0159480
784.312	0.0157877
784.390	0.0156085
784.468	0.0155064
784.546	0.0153336
784.624	0.0154650
784.703	0.0152406
784.781	0.0154115
784.859	0.0153851
784.937	0.0154216
785.015	0.0155268
785.093	0.0158061
785.171	0.0157675
785.249	0.0156779
785.328	0.0157754
785.406	0.0157618
785.484	0.0156502
785.562	0.0155546
785.640	0.0151250
785.718	0.0149120
785.796	0.0147404
785.874	0.0144861
785.953	0.0141041
786.031	0.0140401
786.109	0.0139331
786.187	0.0138454
786.265	0.0137968
786.343	0.0138447
786.421	0.0140457
786.499	0.0143309
786.578	0.0146523
786.656	0.0149937
786.734	0.0151584
786.812	0.0155314
786.890	0.0159937
786.968	0.0163103
787.046	0.0167558
787.124	0.0172171
787.203	0.0176783
787.281	0.0178929
787.359	0.0180486
787.437	0.0183011
787.515	0.0184706
787.593	0.0187663
787.671	0.0188706
787.749	0.0187849
787.828	0.0189502
787.906	0.0188877
787.984	0.0188902
788.062	0.0188860
788.140	0.0189550
788.218	0.0190278
788.296	0.0190555
788.374	0.0187705
788.453	0.0188741
788.531	0.0189510
788.609	0.0187278
788.687	0.0187162
788.765	0.0184885
788.843	0.0183059
788.921	0.0182665
788.999	0.0181374
789.078	0.0179497
789.156	0.0176630
789.234	0.0174648
789.312	0.0173180
789.390	0.0170406
789.468	0.0169131
789.546	0.0166696
789.624	0.0163705
789.703	0.0161450
789.781	0.0161006
789.859	0.0157940
789.937	0.0156978
790.015	0.0155029
790.093	0.0150665
790.171	0.0149450
790.249	0.0146421
790.328	0.0145430
790.406	0.0144968
790.484	0.0142283
790.562	0.0140335
790.640	0.0139040
790.718	0.0139022
790.796	0.0139360
790.874	0.0138707
790.953	0.0140439
791.031	0.0141537
791.109	0.0141625
791.187	0.0143084
791.265	0.0145806
791.343	0.0144838
791.421	0.0147224
791.499	0.0147875
791.578	0.0146830
791.656	0.0146583
791.734	0.0147055
791.812	0.0148854
791.890	0.0149025
791.968	0.0150946
792.046	0.0149286
792.124	0.0151409
792.203	0.0153329
792.281	0.0155199
792.359	0.0157721
792.437	0.0160569
792.515	0.0165289
792.593	0.0168674
792.671	0.0172662
792.749	0.0178078
792.828	0.0182073
792.906	0.0186575
792.984	0.0191306
793.062	0.0195687
793.140	0.0198194
793.218	0.0201263
793.296	0.0201622
793.374	0.0203146
793.453	0.0202919
793.531	0.0201628
793.609	0.0199060
793.687	0.0196484
793.765	0.0193916
793.843	0.0191108
793.921	0.0189527
793.999	0.0185599
794.078	0.0183237
794.156	0.0179225
794.234	0.0177706
794.312	0.0175512
794.390	0.0171165
794.468	0.0168546
794.546	0.0167667
794.624	0.0164238
794.703	0.0163951
794.781	0.0161476
794.859	0.0160916
794.937	0.0158510
795.015	0.0156495
795.093	0.0155153
795.171	0.0154053
795.249	0.0152415
795.328	0.0150521
795.406	0.0150048
795.484	0.0148206
795.562	0.0146275
795.640	0.0145970
795.718	0.0143794
795.796	0.0144512
795.874	0.0143140
795.953	0.0142888
796.031	0.0144693
796.109	0.0145854
796.187	0.0147565
796.265	0.0148274
796.343	0.0148071
796.421	0.0151316
796.499	0.0152453
796.578	0.0153776
796.656	0.0153969
796.734	0.0154581
796.812	0.0155270
796.890	0.0155079
796.968	0.0156174
797.046	0.0154841
797.124	0.0156653
797.203	0.0157220
797.281	0.0158694
797.359	0.0156760
797.437	0.0158218
797.515	0.0157649
797.593	0.0157085
797.671	0.0155768
797.749	0.0155868
797.828	0.0157259
797.906	0.0156741
797.984	0.0155650
798.062	0.0157711
798.140	0.0160147
798.218	0.0162028
798.296	0.0163400
798.374	0.0167840
798.453	0.0168912
798.531	0.0175137
798.609	0.0176609
798.687	0.0180958
798.765	0.0185123
798.843	0.0186877
798.921	0.0190266
798.999	0.0193269
799.078	0.0193458
799.156	0.0195151
799.234	0.0196137
799.312	0.0196120
799.390	0.0195715
799.468	0.0194903
799.546	0.0190875
799.624	0.0190427
799.703	0.0187854
799.781	0.0184375
799.859	0.0181899
799.937	0.0179353
800.015	0.0175790
800.093	0.0171880
800.171	0.0170410
800.249	0.0167564
800.328	0.0164725
800.406	0.0161854
800.484	0.0160294
800.562	0.0157803
800.640	0.0158657
800.718	0.0157359
800.796	0.0155503
800.874	0.0154058
800.953	0.0153229
801.031	0.0152197
801.109	0.0149875
801.187	0.0149683
801.265	0.0150541
801.343	0.0147232
801.421	0.0147162
801.499	0.0146640
801.578	0.0148016
801.656	0.0145862
801.734	0.0146275
801.812	0.0148117
801.890	0.0149307
801.968	0.0150600
802.046	0.0150899
802.124	0.0153044
802.203	0.0154982
802.281	0.0157290
802.359	0.0156159
802.437	0.0156570
802.515	0.0157504
802.593	0.0159245
802.671	0.0159354
802.749	0.0159548
802.828	0.0159334
802.906	0.0160397
802.984	0.0161723
803.062	0.0160633
803.140	0.0158659
803.218	0.0159463
803.296	0.0159121
803.374	0.0159705
803.453	0.0160045
803.531	0.0160232
803.609	0.0159586
803.687	0.0160352
803.765	0.0161805
803.843	0.0162221
803.921	0.0163019
803.999	0.0163960
804.078	0.0165638
804.156	0.0169209
804.234	0.0170322
804.312	0.0169981
804.390	0.0174110
804.468	0.0174752
804.546	0.0176324
804.624	0.0180231
804.703	0.0180524
804.781	0.0181948
804.859	0.0182684
804.937	0.0183611
805.015	0.0183826
805.093	0.0185587
805.171	0.0185914
805.249	0.0185313
805.328	0.0184496
805.406	0.0183260
805.484	0.0182713
805.562	0.0182333
805.640	0.0180126
805.718	0.0179446
805.796	0.0177605
805.874	0.0174551
805.953	0.0174004
806.031	0.0170987
806.109	0.0167590
806.187	0.0165246
806.265	0.0163284
806.343	0.0162708
806.421	0.0159289
806.499	0.0156962
806.578	0.0155717
806.656	0.0154055
806.734	0.0154236
806.812	0.0152267
806.890	0.0151102
806.968	0.0150837
807.046	0.0150356
807.124	0.0149785
807.203	0.0149641
807.281	0.0150350
807.359	0.0150151
807.437	0.0148914
807.515	0.0150451
807.593	0.0151895
807.671	0.0151957
807.749	0.0152135
807.828	0.0153228
807.906	0.0155088
807.984	0.0155920
808.062	0.0156075
808.140	0.0158945
808.218	0.0159286
808.296	0.0160442
808.374	0.0160139
808.453	0.0161669
808.531	0.0161922
808.609	0.0163764
808.687	0.0164311
808.765	0.0163389
808.843	0.0163956
808.921	0.0163328
808.999	0.0164920
809.078	0.0164237
809.156	0.0163354
809.234	0.0160708
809.312	0.0162491
809.390	0.0161188
809.468	0.0161897
809.546	0.0161549
809.624	0.0162858
809.703	0.0162880
809.781	0.0162383
809.859	0.0162634
809.937	0.0163966
810.015	0.0165753
810.093	0.0166251
810.171	0.0168648
810.249	0.0169785
810.328	0.0170474
810.406	0.0170669
810.484	0.0172435
810.562	0.0173291
810.640	0.0173278
810.718	0.0175562
810.796	0.0176240
810.874	0.0176622
810.953	0.0177988
811.031	0.0178947
811.109	0.0179311
811.187	0.0177916
811.265	0.0179192
811.343	0.0179853
811.421	0.0179364
811.499	0.0179840
811.578	0.0179887
811.656	0.0177378
811.734	0.0177801
811.812	0.0175861
811.890	0.0173418
811.968	0.0171548
812.046	0.0170071
812.124	0.0167504
812.203	0.0165586
812.281	0.0162276
812.359	0.0160250
812.437	0.0160447
812.515	0.0156844
812.593	0.0154105
812.671	0.0152364
812.749	0.0152029
812.828	0.0152954
812.906	0.0150969
812.984	0.0150417
813.062	0.0150550
813.140	0.0150664
813.218	0.0152312
813.296	0.0153064
813.374	0.0152034
813.453	0.0151585
813.531	0.0151768
813.609	0.0153928
813.687	0.0154704
813.765	0.0155488
813.843	0.0158063
813.921	0.0158753
813.999	0.0159962
814.078	0.0159665
814.156	0.0161241
814.234	0.0161852
814.312	0.0162018
814.390	0.0163762
814.468	0.0165025
814.546	0.0164920
814.624	0.0166006
814.703	0.0165839
814.781	0.0165889
814.859	0.0165142
814.937	0.0166062
815.015	0.0166149
815.093	0.0166351
815.171	0.0165541
815.249	0.0164996
815.328	0.0165518
815.406	0.0164001
815.484	0.0164240
815.562	0.0164795
815.640	0.0164755
815.718	0.0163417
815.796	0.0164585
815.874	0.0165030
815.953	0.0164501
816.031	0.0165440
816.109	0.0164861
816.187	0.0166120
816.265	0.0167936
816.343	0.0168385
816.421	0.0165903
816.499	0.0168341
816.578	0.0169088
816.656	0.0170290
816.734	0.0169493
816.812	0.0168494
816.890	0.0170274
816.968	0.0170274
817.046	0.0171245
817.124	0.0170406
817.203	0.0173326
817.281	0.0174025
817.359	0.0173924
817.437	0.0175407
817.515	0.0175069
817.593	0.0176591
817.671	0.0175564
817.749	0.0175786
817.828	0.0175972
817.906	0.0175180
817.984	0.0174829
818.062	0.0174321
818.140	0.0171850
818.218	0.0170798
818.296	0.0168126
818.374	0.0168252
818.453	0.0164574
818.531	0.0163512
818.609	0.0161303
818.687	0.0159223
818.765	0.0158251
818.843	0.0155429
818.921	0.0154752
818.999	0.0152524
819.078	0.0153910
819.156	0.0153275
819.234	0.0152374
819.312	0.0152647
819.390	0.0151708
819.468	0.0152464
819.546	0.0153477
819.624	0.0153809
819.703	0.0155793
819.781	0.0157953
819.859	0.0157251
819.937	0.0158562
820.015	0.0159391
820.093	0.0159457
820.171	0.0163023
820.249	0.0163177
820.328	0.0165166
820.406	0.0164416
820.484	0.0166026
820.562	0.0165777
820.640	0.0165788
820.718	0.0166456
820.796	0.0168562
820.874	0.0166576
820.953	0.0166640
821.031	0.0166994
821.109	0.0166158
821.187	0.0165862
821.265	0.0166848
821.343	0.0167183
821.421	0.0166639
821.499	0.0165081
821.578	0.0166986
821.656	0.0167380
821.734	0.0166334
821.812	0.0166982
821.890	0.0166704
821.968	0.0166412
822.046	0.0165843
822.124	0.0165065
822.203	0.0165098
822.281	0.0165190
822.359	0.0164802
822.437	0.0163982
822.515	0.0163824
822.593	0.0164559
822.671	0.0165367
822.749	0.0163982
822.828	0.0164278
822.906	0.0166031
822.984	0.0165903
823.062	0.0166727
823.140	0.0169164
823.218	0.0169530
823.296	0.0171291
823.374	0.0172207
823.453	0.0173320
823.531	0.0173180
823.609	0.0174469
823.687	0.0174147
823.765	0.0176074
823.843	0.0176909
823.921	0.0175621
823.999	0.0175347
824.078	0.0175441
824.156	0.0173808
824.234	0.0173011
824.312	0.0171131
824.390	0.0168632
824.468	0.0167848
824.546	0.0167146
824.624	0.0164159
824.703	0.0163121
824.781	0.0161867
824.859	0.0161180
824.937	0.0157344
825.015	0.0156573
825.093	0.0156358
825.171	0.0156314
825.249	0.0155150
825.328	0.0153113
825.406	0.0154411
825.484	0.0154813
825.562	0.0154607
825.640	0.0154055
825.718	0.0156238
825.796	0.0156725
825.874	0.0158064
825.953	0.0159354
826.031	0.0160193
826.109	0.0162215
826.187	0.0163001
826.265	0.0161878
826.343	0.0164471
826.421	0.0165508
826.499	0.0166225
826.578	0.0165056
826.656	0.0164994
826.734	0.0165573
826.812	0.0165170
826.890	0.0166297
826.968	0.0166235
827.046	0.0166084
827.124	0.0166257
827.203	0.0165981
827.281	0.0166360
827.359	0.0167345
827.437	0.0165676
827.515	0.0166102
827.593	0.0165044
827.671	0.0164884
827.749	0.0164922
827.828	0.0167231
827.906	0.0166049
827.984	0.0166166
828.062	0.0165064
828.140	0.0165453
828.218	0.0163997
828.296	0.0165466
828.374	0.0164727
828.453	0.0164366
828.531	0.0162257
828.609	0.0163123
828.687	0.0163133
828.765	0.0162392
828.843	0.0164223
828.921	0.0164152
828.999	0.0163100
829.078	0.0164496
829.156	0.0164333
829.234	0.0165977
829.312	0.0165714
829.390	0.0169432
829.468	0.0169092
829.546	0.0168162
829.624	0.0169734
829.703	0.0172957
829.781	0.0172886
829.859	0.0171468
829.937	0.0171274
830.015	0.0170631
830.093	0.0171091
830.171	0.0169775
830.249	0.0169150
830.328	0.0168323
830.406	0.0166645
830.484	0.0166425
830.562	0.0164322
830.640	0.0163796
830.718	0.0164120
830.796	0.0163644
830.874	0.0162643
830.953	0.0161262
831.031	0.0162118
831.109	0.0160033
831.187	0.0160989
831.265	0.0158971
831.343	0.0158600
831.421	0.0158458
831.499	0.0157243
831.578	0.0157627
831.656	0.0157000
831.734	0.0158456
831.812	0.0158521
831.890	0.0158269
831.968	0.0158822
832.046	0.0159698
832.124	0.0161465
832.203	0.0162673
832.281	0.0162587
832.359	0.0164429
832.437	0.0165248
832.515	0.0165987
832.593	0.0166180
832.671	0.0166476
832.749	0.0167799
832.828	0.0169376
832.906	0.0169652
832.984	0.0167342
833.062	0.0168190
833.140	0.0168414
833.218	0.0166223
833.296	0.0167515
833.374	0.0167915
833.453	0.0164255
833.531	0.0165083
833.609	0.0162737
833.687	0.0164577
833.765	0.0163822
833.843	0.0162384
833.921	0.0162930
833.999	0.0162609
834.078	0.0163016
834.156	0.0161805
834.234	0.0161333
834.312	0.0162073
834.390	0.0159486
834.468	0.0160765
834.546	0.0160794
834.624	0.0161234
834.703	0.0161708
834.781	0.0161794
834.859	0.0162247
834.937	0.0162553
835.015	0.0162928
835.093	0.0163804
835.171	0.0164175
835.249	0.0165221
835.328	0.0168693
835.406	0.0168217
835.484	0.0169032
835.562	0.0168497
835.640	0.0169451
835.718	0.0170707
835.796	0.0171060
835.874	0.0169764
835.953	0.0170702
836.031	0.0170962
836.109	0.0171618
836.187	0.0169712
836.265	0.0169827
836.343	0.0170375
836.421	0.0168832
836.499	0.0169469
836.578	0.0167401
836.656	0.0166187
836.734	0.0166190
836.812	0.0165105
836.890	0.0165740
836.968	0.0165115
837.046	0.0163935
837.124	0.0164554
837.203	0.0161842
837.281	0.0163093
837.359	0.0162560
837.437	0.0163241
837.515	0.0163493
837.593	0.0162497
837.671	0.0162732
837.749	0.0160725
837.828	0.0161695
837.906	0.0161799
837.984	0.0162080
838.062	0.0162701
838.140	0.0163216
838.218	0.0162331
838.296	0.0162762
838.374	0.0163510
838.453	0.0163838
838.531	0.0164657
838.609	0.0162514
838.687	0.0161077
838.765	0.0161153
838.843	0.0161389
838.921	0.0161507
838.999	0.0161042
839.078	0.0159080
839.156	0.0160944
839.234	0.0158601
839.312	0.0159100
839.390	0.0160287
839.468	0.0161499
839.546	0.0161506
839.624	0.0162900
839.703	0.0161832
839.781	0.0162174
839.859	0.0163387
839.937	0.0164920
840.015	0.0166145
840.093	0.0166174
840.171	0.0165778
840.249	0.0166531
840.328	0.0167640
840.406	0.0168054
840.484	0.0168195
840.562	0.0169680
840.640	0.0168642
840.718	0.0168269
840.796	0.0169681
840.874	0.0169849
840.953	0.0169910
841.031	0.0170576
841.109	0.0169366
841.187	0.0169353
841.265	0.0170032
841.343	0.0168378
841.421	0.0168439
841.499	0.0167905
841.578	0.0168295
841.656	0.0167645
841.734	0.0166569
841.812	0.0165380
841.890	0.0164913
841.968	0.0163565
842.046	0.0162578
842.124	0.0163437
842.203	0.0163523
842.281	0.0162595
842.359	0.0161884
842.437	0.0161675
842.515	0.0161577
842.593	0.0163622
842.671	0.0162436
842.749	0.0162253
842.828	0.0164497
842.906	0.0163888
842.984	0.0163324
843.062	0.0163204
843.140	0.0163428
843.218	0.0162862
843.296	0.0161734
843.374	0.0163602
843.453	0.0162267
843.531	0.0162710
843.609	0.0163350
843.687	0.0163863
843.765	0.0163872
843.843	0.0164388
843.921	0.0165331
843.999	0.0166463
844.078	0.0167317
844.156	0.0165897
844.234	0.0165799
844.312	0.0167835
844.390	0.0168300
844.468	0.0168747
844.546	0.0165539
844.624	0.0166321
844.703	0.0168613
844.781	0.0165991
844.859	0.0166069
844.937	0.0167587
845.015	0.0165295
845.093	0.0166808
845.171	0.0164709
845.249	0.0165133
845.328	0.0163194
845.406	0.0164522
845.484	0.0164554
845.562	0.0163689
845.640	0.0162019
845.718	0.0161503
845.796	0.0163142
845.874	0.0161530
845.953	0.0162434
846.031	0.0160521
846.109	0.0161723
846.187	0.0162376
846.265	0.0161964
846.343	0.0161929
846.421	0.0163563
846.499	0.0163943
846.578	0.0165454
846.656	0.0165815
846.734	0.0166527
846.812	0.0165852
846.890	0.0167860
846.968	0.0169366
847.046	0.0167687
847.124	0.0169254
847.203	0.0169443
847.281	0.0168281
847.359	0.0168971
847.437	0.0167062
847.515	0.0168189
847.593	0.0166938
847.671	0.0167188
847.749	0.0167445
847.828	0.0166447
847.906	0.0165819
847.984	0.0164185
848.062	0.0162957
848.140	0.0164384
848.218	0.0162391
848.296	0.0161624
848.374	0.0161658
848.453	0.0161866
848.531	0.0161088
848.609	0.0161613
848.687	0.0160610
848.765	0.0160748
848.843	0.0161204
848.921	0.0163000
848.999	0.0161067
849.078	0.0162035
849.156	0.0162075
849.234	0.0163196
849.312	0.0164288
849.390	0.0163875
849.468	0.0163612
849.546	0.0165414
849.624	0.0166267
849.703	0.0167243
849.781	0.0167498
849.859	0.0167023
849.937	0.0167495
850.015	0.0168085
850.093	0.0168185
850.171	0.0168519
850.249	0.0168870
850.328	0.0167838
850.406	0.0167278
850.484	0.0169484
850.562	0.0168523
850.640	0.0168768
850.718	0.0167812
850.796	0.0168568
850.874	0.0169054
850.953	0.0167902
851.031	0.0168453
851.109	0.0168121
851.187	0.0168620
851.265	0.0166428
851.343	0.0165502
851.421	0.0164952
851.499	0.0164548
851.578	0.0162431
851.656	0.0161432
851.734	0.0159934
851.812	0.0159900
851.890	0.0160063
851.968	0.0159267
852.046	0.0158972
852.124	0.0157878
852.203	0.0157954
852.281	0.0158408
852.359	0.0159793
852.437	0.0159207
852.515	0.0159216
852.593	0.0161419
852.671	0.0161708
852.749	0.0162877
852.828	0.0162559
852.906	0.0164023
852.984	0.0165388
853.062	0.0166572
853.140	0.0166788
853.218	0.0165718
853.296	0.0165512
853.374	0.0167028
853.453	0.0165797
853.531	0.0164492
853.609	0.0165161
853.687	0.0166326
853.765	0.0165606
853.843	0.0165083
853.921	0.0165079
853.999	0.0165824
854.078	0.0164214
854.156	0.0164920
854.234	0.0165988
854.312	0.0165324
854.390	0.0163090
854.468	0.0164631
854.546	0.0164650
854.624	0.0164439
854.703	0.0164716
854.781	0.0165446
854.859	0.0164833
854.937	0.0165166
855.015	0.0166071
855.093	0.0166677
855.171	0.0165269
855.249	0.0165172
855.328	0.0164535
855.406	0.0164496
855.484	0.0166489
855.562	0.0164886
855.640	0.0164928
855.718	0.0166779
855.796	0.0166226
855.874	0.0165089
855.953	0.0164986
856.031	0.0167186
856.109	0.0166074
856.187	0.0165649
856.265	0.0165676
856.343	0.0165588
856.421	0.0165557
856.499	0.0165448
856.578	0.0165482
856.656	0.0165538
856.734	0.0165456
856.812	0.0164532
856.890	0.0165066
856.968	0.0166071
857.046	0.0164674
857.124	0.0165297
857.203	0.0163993
857.281	0.0163148
857.359	0.0164198
857.437	0.0162492
857.515	0.0163900
857.593	0.0164019
857.671	0.0162269
857.749	0.0164041
857.828	0.0164511
857.906	0.0162213
857.984	0.0164948
858.062	0.0164515
858.140	0.0165154
858.218	0.0166199
858.296	0.0166039
858.374	0.0165174
858.453	0.0167012
858.531	0.0167090
858.609	0.0166319
858.687	0.0165814
858.765	0.0165557
858.843	0.0165274
858.921	0.0164563
858.999	0.0164068
859.078	0.0164119
859.156	0.0164591
859.234	0.0163985
859.312	0.0163937
859.390	0.0164185
859.468	0.0164011
859.546	0.0163477
859.624	0.0162653
859.703	0.0163297
859.781	0.0163808
859.859	0.0163113
859.937	0.0164851
860.015	0.0163944
860.093	0.0162352
860.171	0.0163628
860.249	0.0162957
860.328	0.0162442
860.406	0.0163806
860.484	0.0163392
860.562	0.0161821
860.640	0.0162861
860.718	0.0162454
860.796	0.0161967
860.874	0.0161677
860.953	0.0162379
861.031	0.0162742
861.109	0.0161606
861.187	0.0164113
861.265	0.0165150
861.343	0.0165434
861.421	0.0163542
861.499	0.0165959
861.578	0.0166711
861.656	0.0165967
861.734	0.0167213
861.812	0.0168215
861.890	0.0166283
861.968	0.0167197
862.046	0.0167294
862.124	0.0166200
862.203	0.0166057
862.281	0.0165400
862.359	0.0166325
862.437	0.0165865
862.515	0.0166235
862.593	0.0166339
862.671	0.0167203
862.749	0.0167391
862.828	0.0166188
862.906	0.0166389
862.984	0.0166795
863.062	0.0168620
863.140	0.0166467
863.218	0.0166708
863.296	0.0167368
863.374	0.0166344
863.453	0.0166026
863.531	0.0165440
863.609	0.0164692
863.687	0.0164453
863.765	0.0164460
863.843	0.0164283
863.921	0.0164026
863.999	0.0164046
864.078	0.0162856
864.156	0.0162917
864.234	0.0164118
864.312	0.0164211
864.390	0.0162873
864.468	0.0164227
864.546	0.0163627
864.624	0.0163226
864.703	0.0163422
864.781	0.0161997
864.859	0.0162390
864.937	0.0162440
865.015	0.0163150
865.093	0.0162793
865.171	0.0164637
865.249	0.0164561
865.328	0.0163039
865.406	0.0163616
865.484	0.0164325
865.562	0.0164328
865.640	0.0165195
865.718	0.0165247
865.796	0.0165363
865.874	0.0165180
865.953	0.0163229
866.031	0.0164771
866.109	0.0166927
866.187	0.0163523
866.265	0.0162379
866.343	0.0161832
866.421	0.0163534
866.499	0.0161962
866.578	0.0161259
866.656	0.0161209
866.734	0.0161044
866.812	0.0162206
866.890	0.0161861
866.968	0.0161538
867.046	0.0161304
867.124	0.0161775
867.203	0.0163761
867.281	0.0163130
867.359	0.0164133
867.437	0.0164597
867.515	0.0164486
867.593	0.0165328
867.671	0.0164753
867.749	0.0165228
867.828	0.0166375
867.906	0.0166065
867.984	0.0165767
868.062	0.0166760
868.140	0.0166805
868.218	0.0167838
868.296	0.0167310
868.374	0.0166853
868.453	0.0168183
868.531	0.0167272
868.609	0.0168602
868.687	0.0168137
868.765	0.0169275
868.843	0.0170195
868.921	0.0168867
868.999	0.0168983
869.078	0.0169158
869.156	0.0168179
869.234	0.0168082
869.312	0.0166972
869.390	0.0167094
869.468	0.0165767
869.546	0.0166331
869.624	0.0167175
869.703	0.0164960
869.781	0.0165090
869.859	0.0166342
869.937	0.0165160
870.015	0.0166299
870.093	0.0165582
870.171	0.0164703
870.249	0.0165513
870.328	0.0164627
870.406	0.0164207
870.484	0.0163758
870.562	0.0162169
870.640	0.0162433
870.718	0.0160282
870.796	0.0162298
870.874	0.0160387
870.953	0.0159872
871.031	0.0159760
871.109	0.0159030
871.187	0.0160161
871.265	0.0159415
871.343	0.0160303
871.421	0.0159196
871.499	0.0159248
871.578	0.0160014
871.656	0.0162141
871.734	0.0160802
871.812	0.0162303
871.890	0.0161156
871.968	0.0160180
872.046	0.0161509
872.124	0.0162233
872.203	0.0161993
872.281	0.0162448
872.359	0.0161688
872.437	0.0163408
872.515	0.0161864
872.593	0.0163667
872.671	0.0163358
872.749	0.0162383
872.828	0.0163006
872.906	0.0164246
872.984	0.0165020
873.062	0.0164281
873.140	0.0166082
873.218	0.0168082
873.296	0.0169738
873.374	0.0169778
873.453	0.0169338
873.531	0.0169258
873.609	0.0170599
873.687	0.0170428
873.765	0.0170324
873.843	0.0170909
873.921	0.0171511
873.999	0.0170235
874.078	0.0169881
874.156	0.0169898
874.234	0.0170432
874.312	0.0169950
874.390	0.0167877
874.468	0.0167632
874.546	0.0167535
874.624	0.0167756
874.703	0.0167167
874.781	0.0165845
874.859	0.0166368
874.937	0.0165263
875.015	0.0164597
875.093	0.0164648
875.171	0.0165337
875.249	0.0164884
875.328	0.0163763
875.406	0.0163168
875.484	0.0161890
875.562	0.0161906
875.640	0.0163001
875.718	0.0162180
875.796	0.0162986
875.874	0.0160692
875.953	0.0162627
876.031	0.0161739
876.109	0.0161399
876.187	0.0161587
876.265	0.0161454
876.343	0.0160686
876.421	0.0161535
876.499	0.0161791
876.578	0.0161790
876.656	0.0160106
876.734	0.0160155
876.812	0.0160320
876.890	0.0160177
876.968	0.0159824
877.046	0.0160018
877.124	0.0161911
877.203	0.0160094
877.281	0.0161188
877.359	0.0161224
877.437	0.0160512
877.515	0.0160880
877.593	0.0161804
877.671	0.0161696
877.749	0.0162904
877.828	0.0163374
877.906	0.0161076
877.984	0.0162790
878.062	0.0164175
878.140	0.0164557
878.218	0.0164056
878.296	0.0163457
878.374	0.0163543
878.453	0.0164705
878.531	0.0166321
878.609	0.0165949
878.687	0.0165965
878.765	0.0165639
878.843	0.0165650
878.921	0.0166563
878.999	0.0168201
879.078	0.0167037
879.156	0.0169900
879.234	0.0170178
879.312	0.0170217
879.390	0.0169615
879.468	0.0170030
879.546	0.0169460
879.624	0.0171329
879.703	0.0169314
879.781	0.0169395
879.859	0.0169582
879.937	0.0169836
880.015	0.0170303
880.093	0.0169266
880.171	0.0168790
880.249	0.0168616
880.328	0.0166933
880.406	0.0167990
880.484	0.0167663
880.562	0.0166731
880.640	0.0166190
880.718	0.0167026
880.796	0.0165206
880.874	0.0164884
880.953	0.0164676
881.031	0.0164178
881.109	0.0161929
881.187	0.0163092
881.265	0.0160462
881.343	0.0159789
881.421	0.0162440
881.499	0.0160201
881.578	0.0159480
881.656	0.0159865
881.734	0.0158472
881.812	0.0159467
881.890	0.0158330
881.968	0.0158055
882.046	0.0158105
882.124	0.0158189
882.203	0.0159148
882.281	0.0159255
882.359	0.0158833
882.437	0.0159801
882.515	0.0158282
882.593	0.0160365
882.671	0.0158696
882.749	0.0158122
882.828	0.0159148
882.906	0.0159690
882.984	0.0159864
883.062	0.0161599
883.140	0.0161723
883.218	0.0162079
883.296	0.0162771
883.374	0.0163274
883.453	0.0164475
883.531	0.0165166
883.609	0.0164677
883.687	0.0166292
883.765	0.0167277
883.843	0.0168752
883.921	0.0167556
883.999	0.0168089
884.078	0.0170319
884.156	0.0169767
884.234	0.0168339
884.312	0.0169324
884.390	0.0170110
884.468	0.0170603
884.546	0.0169551
884.624	0.0170582
884.703	0.0169939
884.781	0.0169337
884.859	0.0168783
884.937	0.0169334
885.015	0.0168979
885.093	0.0168446
885.171	0.0166927
885.249	0.0168134
885.328	0.0168722
885.406	0.0166738
885.484	0.0166784
885.562	0.0166714
885.640	0.0165860
885.718	0.0166479
885.796	0.0165811
885.874	0.0166350
885.953	0.0164657
886.031	0.0165800
886.109	0.0164569
886.187	0.0166898
886.265	0.0164130
886.343	0.0164374
886.421	0.0164040
886.499	0.0164008
886.578	0.0163485
886.656	0.0163061
886.734	0.0161719
886.812	0.0163181
886.890	0.0163378
886.968	0.0161844
887.046	0.0161375
887.124	0.0160351
887.203	0.0161058
887.281	0.0161014
887.359	0.0160542
887.437	0.0160969
887.515	0.0160033
887.593	0.0159149
887.671	0.0160591
887.749	0.0160464
887.828	0.0160146
887.906	0.0160985
887.984	0.0159061
888.062	0.0159682
888.140	0.0159657
888.218	0.0160128
888.296	0.0160226
888.374	0.0160094
888.453	0.0160064
888.531	0.0161462
888.609	0.0161728
888.687	0.0162583
888.765	0.0161484
888.843	0.0162865
888.921	0.0163768
888.999	0.0163336
889.078	0.0163396
889.156	0.0164456
889.234	0.0165182
889.312	0.0165359
889.390	0.0166275
889.468	0.0167063
889.546	0.0167649
889.624	0.0167116
889.703	0.0169068
889.781	0.0169578
889.859	0.0169376
889.937	0.0169860
890.015	0.0171209
890.093	0.0170009
890.171	0.0169906
890.249	0.0170242
890.328	0.0168625
890.406	0.0170056
890.484	0.0168788
890.562	0.0168105
890.640	0.0168248
890.718	0.0167501
890.796	0.0166504
890.874	0.0168307
890.953	0.0167220
891.031	0.0165745
891.109	0.0165216
891.187	0.0164697
891.265	0.0163734
891.343	0.0165035
891.421	0.0163896
891.499	0.0163087
891.578	0.0163388
891.656	0.0161917
891.734	0.0161601
891.812	0.0161015
891.890	0.0161900
891.968	0.0161876
892.046	0.0160466
892.124	0.0159384
892.203	0.0159930
892.281	0.0160215
892.359	0.0159650
892.437	0.0161102
892.515	0.0161708
892.593	0.0160916
892.671	0.0161417
892.749	0.0159555
892.828	0.0160101
892.906	0.0163194
892.984	0.0160434
893.062	0.0161442
893.140	0.0163047
893.218	0.0162840
893.296	0.0162659
893.374	0.0161870
893.453	0.0163390
893.531	0.0164109
893.609	0.0163418
893.687	0.0163099
893.765	0.0163474
893.843	0.0163393
893.921	0.0163683
893.999	0.0164281
894.078	0.0163892
894.156	0.0163103
894.234	0.0163324
894.312	0.0164173
894.390	0.0162743
894.468	0.0163351
894.546	0.0164271
894.624	0.0164294
894.703	0.0164262
894.781	0.0164281
894.859	0.0166216
894.937	0.0165411
895.015	0.0165544
895.093	0.0166325
895.171	0.0165899
895.249	0.0166980
895.328	0.0166867
895.406	0.0167836
895.484	0.0167736
895.562	0.0166923
895.640	0.0167908
895.718	0.0168937
895.796	0.0168655
895.874	0.0168245
895.953	0.0168292
896.031	0.0168798
896.109	0.0167552
896.187	0.0167463
896.265	0.0168810
896.343	0.0166985
896.421	0.0166224
896.499	0.0165875
896.578	0.0165553
896.656	0.0165077
896.734	0.0164231
896.812	0.0162952
896.890	0.0162778
896.968	0.0164449
897.046	0.0160606
897.124	0.0160763
897.203	0.0162656
897.281	0.0160606
897.359	0.0159380
897.437	0.0160919
897.515	0.0160087
897.593	0.0159400
897.671	0.0159075
897.749	0.0158755
897.828	0.0159613
897.906	0.0159058
897.984	0.0160275
898.062	0.0160419
898.140	0.0161781
898.218	0.0161267
898.296	0.0160664
898.374	0.0160762
898.453	0.0163042
898.531	0.0163007
898.609	0.0162547
898.687	0.0163415
898.765	0.0163840
898.843	0.0164983
898.921	0.0162997
898.999	0.0163837
899.078	0.0165007
899.156	0.0165115
899.234	0.0165545
899.312	0.0166811
899.390	0.0165864
899.468	0.0166737
899.546	0.0166515
899.624	0.0165140
899.703	0.0165790
899.781	0.0165683
899.859	0.0165853
899.937	0.0166933
900.015	0.0164665
900.093	0.0165405
900.171	0.0166782
900.249	0.0166406
900.328	0.0165643
900.406	0.0166058
900.484	0.0165359
900.562	0.0165723
900.640	0.0166721
900.718	0.0166254
900.796	0.0166763
900.874	0.0166158
900.953	0.0165871
901.031	0.0165373
901.109	0.0166291
901.187	0.0166553
901.265	0.0166444
901.343	0.0166186
901.421	0.0165916
901.499	0.0166376
901.578	0.0166724
901.656	0.0166179
901.734	0.0166573
901.812	0.0166699
901.890	0.0166076
901.968	0.0166134
902.046	0.0165296
902.124	0.0166074
902.203	0.0165943
902.281	0.0166146
902.359	0.0165907
902.437	0.0165231
902.515	0.0164423
902.593	0.0165474
902.671	0.0165395
902.749	0.0163943
902.828	0.0162965
902.906	0.0163132
902.984	0.0162264
903.062	0.0162537
903.140	0.0161514
903.218	0.0162400
903.296	0.0162891
903.374	0.0162279
903.453	0.0161887
903.531	0.0163207
903.609	0.0162422
903.687	0.0161819
903.765	0.0161438
903.843	0.0160693
903.921	0.0162422
903.999	0.0163309
904.078	0.0162904
904.156	0.0164134
904.234	0.0163355
904.312	0.0164618
904.390	0.0163967
904.468	0.0164844
904.546	0.0164815
904.624	0.0164838
904.703	0.0165018
904.781	0.0163576
904.859	0.0163627
904.937	0.0164759
905.015	0.0165229
905.093	0.0163842
905.171	0.0164717
905.249	0.0164073
905.328	0.0164457
905.406	0.0164567
905.484	0.0164922
905.562	0.0164691
905.640	0.0165127
905.718	0.0163586
905.796	0.0165389
905.874	0.0166423
905.953	0.0164395
906.031	0.0165733
906.109	0.0165742
906.187	0.0164314
906.265	0.0166220
906.343	0.0164633
906.421	0.0164531
906.499	0.0165829
906.578	0.0166660
906.656	0.0164799
906.734	0.0165315
906.812	0.0166192
906.890	0.0166387
906.968	0.0166189
907.046	0.0166386
907.124	0.0166083
907.203	0.0165489
907.281	0.0165267
907.359	0.0165917
907.437	0.0166375
907.515	0.0164606
907.593	0.0163560
907.671	0.0164021
907.749	0.0164709
907.828	0.0164713
907.906	0.0164000
907.984	0.0164069
908.062	0.0164811
908.140	0.0164508
908.218	0.0165370
908.296	0.0165176
908.374	0.0164429
908.453	0.0163853
908.531	0.0164597
908.609	0.0164109
908.687	0.0165015
908.765	0.0165209
908.843	0.0165847
908.921	0.0163842
908.999	0.0165082
909.078	0.0164768
909.156	0.0164757
909.234	0.0165390
909.312	0.0165615
909.390	0.0165073
909.468	0.0163416
909.546	0.0162724
909.624	0.0163946
909.703	0.0163078
909.781	0.0164198
909.859	0.0163136
909.937	0.0161249
910.015	0.0161497
910.093	0.0162693
910.171	0.0161974
910.249	0.0162153
910.328	0.0163923
910.406	0.0163223
910.484	0.0163268
910.562	0.0164474
910.640	0.0164352
910.718	0.0162819
910.796	0.0163654
910.874	0.0165297
910.953	0.0165481
911.031	0.0164655
911.109	0.0165923
911.187	0.0165844
911.265	0.0164911
911.343	0.0165904
911.421	0.0166988
911.499	0.0166299
911.578	0.0166788
911.656	0.0166868
911.734	0.0167194
911.812	0.0165773
911.890	0.0167340
911.968	0.0167410
912.046	0.0166701
912.124	0.0167472
912.203	0.0166723
912.281	0.0166271
912.359	0.0166201
912.437	0.0165473
912.515	0.0164999
912.593	0.0164874
912.671	0.0164172
912.749	0.0162652
912.828	0.0164281
912.906	0.0163548
912.984	0.0164218
913.062	0.0163374
913.140	0.0163004
913.218	0.0163319
913.296	0.0163869
913.374	0.0163888
913.453	0.0164170
913.531	0.0164922
913.609	0.0163554
913.687	0.0163846
913.765	0.0164066
913.843	0.0163660
913.921	0.0165898
913.999	0.0165078
914.078	0.0165392
914.156	0.0165593
914.234	0.0165573
914.312	0.0164831
914.390	0.0165784
914.468	0.0167638
914.546	0.0165782
914.624	0.0166787
914.703	0.0167147
914.781	0.0165585
914.859	0.0164999
914.937	0.0166132
915.015	0.0166978
915.093	0.0165422
915.171	0.0165252
915.249	0.0164878
915.328	0.0164407
915.406	0.0165273
915.484	0.0163438
915.562	0.0162503
915.640	0.0163471
915.718	0.0163824
915.796	0.0162563
915.874	0.0163354
915.953	0.0163027
916.031	0.0161655
916.109	0.0161451
916.187	0.0162488
916.265	0.0162267
916.343	0.0163664
916.421	0.0161541
916.499	0.0162033
916.578	0.0162656
916.656	0.0163637
916.734	0.0163868
916.812	0.0164787
916.890	0.0164503
916.968	0.0163869
917.046	0.0164159
917.124	0.0163842
917.203	0.0164137
917.281	0.0164589
917.359	0.0164260
917.437	0.0164238
917.515	0.0164747
917.593	0.0162901
917.671	0.0164819
917.749	0.0165397
917.828	0.0165445
917.906	0.0165206
917.984	0.0165378
918.062	0.0165141
918.140	0.0165495
918.218	0.0166611
918.296	0.0165059
918.374	0.0165736
918.453	0.0165151
918.531	0.0164821
918.609	0.0164767
918.687	0.0164412
918.765	0.0164551
918.843	0.0163145
918.921	0.0163326
918.999	0.0163980
919.078	0.0163435
919.156	0.0163090
919.234	0.0164552
919.312	0.0164468
919.390	0.0164867
919.468	0.0165741
919.546	0.0165644
919.624	0.0165924
919.703	0.0165960
919.781	0.0164751
919.859	0.0165013
919.937	0.0166077
