06/10/2022	18:46:20	Ver.	4.1	UNKNOWN
Optical Delay	600.015094	Delta X		0.078125	Sweeps	1	Scan Rate	0/0
Coordinates	Axis 1	NaN	Axis 2	NaN	Axis 3	NaN	Axis 4	NaN	Axis 5	NaN	Axis 6	0.000000
TX Power	0.000000	RX Power	0.000000

600.015	0.0162167
600.093	0.0161306
600.171	0.0161820
600.249	0.0161533
600.328	0.0162289
600.406	0.0161888
600.484	0.0161900
600.562	0.0161868
600.640	0.0161146
600.718	0.0162077
600.796	0.0162437
600.874	0.0161964
600.953	0.0162558
601.031	0.0162327
601.109	0.0161443
601.187	0.0160245
601.265	0.0161629
601.343	0.0162341
601.421	0.0161324
601.499	0.0163062
601.578	0.0162067
601.656	0.0161283
601.734	0.0163026
601.812	0.0163448
601.890	0.0160189
601.968	0.0161138
602.046	0.0163087
602.124	0.0161871
602.203	0.0162942
602.281	0.0162455
602.359	0.0161094
602.437	0.0161434
602.515	0.0162401
602.593	0.0161185
602.671	0.0161620
602.749	0.0161603
602.828	0.0161478
602.906	0.0160657
602.984	0.0161775
603.062	0.0160399
603.140	0.0161611
603.218	0.0160904
603.296	0.0160931
603.374	0.0160336
603.453	0.0163197
603.531	0.0162424
603.609	0.0160962
603.687	0.0160837
603.765	0.0161913
603.843	0.0161485
603.921	0.0163821
603.999	0.0162103
604.078	0.0163136
604.156	0.0161495
604.234	0.0161283
604.312	0.0161580
604.390	0.0161856
604.468	0.0161669
604.546	0.0161430
604.624	0.0162743
604.703	0.0162246
604.781	0.0162634
604.859	0.0161313
604.937	0.0160949
605.015	0.0161930
605.093	0.0162784
605.171	0.0162117
605.249	0.0162946
605.328	0.0162960
605.406	0.0162393
605.484	0.0162253
605.562	0.0162740
605.640	0.0162380
605.718	0.0162019
605.796	0.0161956
605.874	0.0162453
605.953	0.0161746
606.031	0.0161738
606.109	0.0163196
606.187	0.0161260
606.265	0.0161153
606.343	0.0162611
606.421	0.0162387
606.499	0.0160673
606.578	0.0161892
606.656	0.0163613
606.734	0.0162742
606.812	0.0162296
606.890	0.0162099
606.968	0.0162350
607.046	0.0162257
607.124	0.0162743
607.203	0.0163828
607.281	0.0163079
607.359	0.0161304
607.437	0.0161665
607.515	0.0163301
607.593	0.0161520
607.671	0.0161974
607.749	0.0162135
607.828	0.0162061
607.906	0.0161686
607.984	0.0163174
608.062	0.0161744
608.140	0.0163147
608.218	0.0162601
608.296	0.0160857
608.374	0.0161182
608.453	0.0161745
608.531	0.0160236
608.609	0.0161984
608.687	0.0162310
608.765	0.0162629
608.843	0.0160960
608.921	0.0161828
608.999	0.0163084
609.078	0.0162050
609.156	0.0159988
609.234	0.0160912
609.312	0.0161417
609.390	0.0160841
609.468	0.0163035
609.546	0.0163326
609.624	0.0160818
609.703	0.0162775
609.781	0.0162003
609.859	0.0162288
609.937	0.0161578
610.015	0.0162832
610.093	0.0161333
610.171	0.0161560
610.249	0.0162626
610.328	0.0162277
610.406	0.0162314
610.484	0.0162648
610.562	0.0161945
610.640	0.0160458
610.718	0.0161814
610.796	0.0162029
610.874	0.0163033
610.953	0.0162825
611.031	0.0163223
611.109	0.0161732
611.187	0.0162009
611.265	0.0161253
611.343	0.0162790
611.421	0.0162068
611.499	0.0161736
611.578	0.0161859
611.656	0.0162441
611.734	0.0162861
611.812	0.0162177
611.890	0.0161654
611.968	0.0161781
612.046	0.0162151
612.124	0.0161952
612.203	0.0163266
612.281	0.0162592
612.359	0.0161695
612.437	0.0162659
612.515	0.0162138
612.593	0.0162597
612.671	0.0162360
612.749	0.0164371
612.828	0.0161830
612.906	0.0162030
612.984	0.0161713
613.062	0.0161972
613.140	0.0160990
613.218	0.0162497
613.296	0.0163568
613.374	0.0161797
613.453	0.0161929
613.531	0.0162315
613.609	0.0163701
613.687	0.0161722
613.765	0.0162495
613.843	0.0161759
613.921	0.0161629
613.999	0.0162006
614.078	0.0161987
614.156	0.0162736
614.234	0.0162235
614.312	0.0160459
614.390	0.0160331
614.468	0.0163622
614.546	0.0162712
614.624	0.0161434
614.703	0.0161501
614.781	0.0163302
614.859	0.0163509
614.937	0.0162311
615.015	0.0162648
615.093	0.0162366
615.171	0.0161681
615.249	0.0162489
615.328	0.0162960
615.406	0.0163287
615.484	0.0161916
615.562	0.0161510
615.640	0.0163411
615.718	0.0160670
615.796	0.0162234
615.874	0.0161652
615.953	0.0162015
616.031	0.0162493
616.109	0.0161947
616.187	0.0161322
616.265	0.0163060
616.343	0.0162077
616.421	0.0162733
616.499	0.0161150
616.578	0.0163115
616.656	0.0162344
616.734	0.0161742
616.812	0.0162383
616.890	0.0162296
616.968	0.0162665
617.046	0.0161256
617.124	0.0163497
617.203	0.0162553
617.281	0.0161569
617.359	0.0162169
617.437	0.0162605
617.515	0.0162905
617.593	0.0162998
617.671	0.0162736
617.749	0.0163272
617.828	0.0162070
617.906	0.0161991
617.984	0.0161508
618.062	0.0164070
618.140	0.0163935
618.218	0.0161304
618.296	0.0162170
618.374	0.0164086
618.453	0.0164289
618.531	0.0162006
618.609	0.0162015
618.687	0.0162823
618.765	0.0162254
618.843	0.0162262
618.921	0.0163284
618.999	0.0163518
619.078	0.0162730
619.156	0.0163560
619.234	0.0162805
619.312	0.0160954
619.390	0.0162697
619.468	0.0163094
619.546	0.0162655
619.624	0.0161808
619.703	0.0162283
619.781	0.0161694
619.859	0.0161282
619.937	0.0162534
620.015	0.0162220
620.093	0.0162389
620.171	0.0161891
620.249	0.0162431
620.328	0.0164179
620.406	0.0162172
620.484	0.0161153
620.562	0.0161585
620.640	0.0162440
620.718	0.0163432
620.796	0.0162736
620.874	0.0161633
620.953	0.0163253
621.031	0.0162612
621.109	0.0163002
621.187	0.0163063
621.265	0.0162249
621.343	0.0160952
621.421	0.0161369
621.499	0.0162828
621.578	0.0161839
621.656	0.0161910
621.734	0.0161128
621.812	0.0161350
621.890	0.0161555
621.968	0.0163453
622.046	0.0161501
622.124	0.0160962
622.203	0.0161184
622.281	0.0161344
622.359	0.0161416
622.437	0.0161849
622.515	0.0161242
622.593	0.0161890
622.671	0.0162345
622.749	0.0161920
622.828	0.0162131
622.906	0.0161179
622.984	0.0161829
623.062	0.0162541
623.140	0.0160870
623.218	0.0160892
623.296	0.0161372
623.374	0.0160823
623.453	0.0162024
623.531	0.0161327
623.609	0.0161160
623.687	0.0161327
623.765	0.0161749
623.843	0.0160760
623.921	0.0161224
623.999	0.0162416
624.078	0.0161440
624.156	0.0161850
624.234	0.0161166
624.312	0.0161359
624.390	0.0162006
624.468	0.0162077
624.546	0.0161791
624.624	0.0160829
624.703	0.0160624
624.781	0.0161899
624.859	0.0162123
624.937	0.0162943
625.015	0.0162422
625.093	0.0161934
625.171	0.0162307
625.249	0.0161240
625.328	0.0160828
625.406	0.0162030
625.484	0.0161407
625.562	0.0161797
625.640	0.0163656
625.718	0.0161763
625.796	0.0161736
625.874	0.0161617
625.953	0.0163278
626.031	0.0161219
626.109	0.0162013
626.187	0.0161992
626.265	0.0162524
626.343	0.0160853
626.421	0.0161847
626.499	0.0161110
626.578	0.0161832
626.656	0.0161028
626.734	0.0161941
626.812	0.0161171
626.890	0.0161316
626.968	0.0161433
627.046	0.0160999
627.124	0.0161409
627.203	0.0162237
627.281	0.0161828
627.359	0.0161337
627.437	0.0160590
627.515	0.0161928
627.593	0.0161057
627.671	0.0159860
627.749	0.0162178
627.828	0.0163177
627.906	0.0161321
627.984	0.0161366
628.062	0.0161841
628.140	0.0159957
628.218	0.0161607
628.296	0.0162537
628.374	0.0162272
628.453	0.0161253
628.531	0.0160424
628.609	0.0161291
628.687	0.0162051
628.765	0.0162130
628.843	0.0162368
628.921	0.0162178
628.999	0.0161802
629.078	0.0161904
629.156	0.0161746
629.234	0.0160106
629.312	0.0161818
629.390	0.0162164
629.468	0.0160707
629.546	0.0160895
629.624	0.0161552
629.703	0.0162346
629.781	0.0161674
629.859	0.0160587
629.937	0.0161774
630.015	0.0162806
630.093	0.0160308
630.171	0.0159441
630.249	0.0161945
630.328	0.0163372
630.406	0.0161718
630.484	0.0161581
630.562	0.0161434
630.640	0.0161375
630.718	0.0162721
630.796	0.0162643
630.874	0.0161005
630.953	0.0162979
631.031	0.0161491
631.109	0.0162611
631.187	0.0160881
631.265	0.0162225
631.343	0.0162281
631.421	0.0162237
631.499	0.0163359
631.578	0.0162776
631.656	0.0162053
631.734	0.0162051
631.812	0.0162430
631.890	0.0162821
631.968	0.0162021
632.046	0.0161729
632.124	0.0162505
632.203	0.0162160
632.281	0.0161279
632.359	0.0163023
632.437	0.0162099
632.515	0.0163306
632.593	0.0162912
632.671	0.0161272
632.749	0.0163345
632.828	0.0163473
632.906	0.0161959
632.984	0.0162524
633.062	0.0162708
633.140	0.0162652
633.218	0.0162685
633.296	0.0162981
633.374	0.0162762
633.453	0.0162456
633.531	0.0164782
633.609	0.0163008
633.687	0.0162409
633.765	0.0163095
633.843	0.0162823
633.921	0.0162339
633.999	0.0164757
634.078	0.0164055
634.156	0.0162804
634.234	0.0163948
634.312	0.0163851
634.390	0.0162827
634.468	0.0163094
634.546	0.0163503
634.624	0.0164302
634.703	0.0164327
634.781	0.0162659
634.859	0.0163387
634.937	0.0163228
635.015	0.0162621
635.093	0.0163411
635.171	0.0162784
635.249	0.0163541
635.328	0.0163638
635.406	0.0162595
635.484	0.0163927
635.562	0.0162614
635.640	0.0163302
635.718	0.0162684
635.796	0.0162704
635.874	0.0162695
635.953	0.0162949
636.031	0.0161804
636.109	0.0162714
636.187	0.0162437
636.265	0.0162958
636.343	0.0162431
636.421	0.0161605
636.499	0.0163557
636.578	0.0162109
636.656	0.0163210
636.734	0.0162777
636.812	0.0163364
636.890	0.0162836
636.968	0.0162050
637.046	0.0162320
637.124	0.0162430
637.203	0.0162037
637.281	0.0161864
637.359	0.0162179
637.437	0.0161762
637.515	0.0161494
637.593	0.0162471
637.671	0.0162802
637.749	0.0163998
637.828	0.0161955
637.906	0.0161172
637.984	0.0162376
638.062	0.0162137
638.140	0.0163327
638.218	0.0161347
638.296	0.0161261
638.374	0.0163133
638.453	0.0161580
638.531	0.0162540
638.609	0.0162366
638.687	0.0162901
638.765	0.0161308
638.843	0.0161028
638.921	0.0163721
638.999	0.0162801
639.078	0.0163512
639.156	0.0162040
639.234	0.0163453
639.312	0.0162833
639.390	0.0162883
639.468	0.0162823
639.546	0.0162232
639.624	0.0162412
639.703	0.0161691
639.781	0.0163076
639.859	0.0162289
639.937	0.0162404
640.015	0.0163515
640.093	0.0161845
640.171	0.0161571
640.249	0.0162346
640.328	0.0161965
640.406	0.0162107
640.484	0.0162183
640.562	0.0163242
640.640	0.0162119
640.718	0.0163626
640.796	0.0163749
640.874	0.0162920
640.953	0.0163287
641.031	0.0163034
641.109	0.0163049
641.187	0.0161964
641.265	0.0162582
641.343	0.0161962
641.421	0.0163978
641.499	0.0161770
641.578	0.0161732
641.656	0.0163034
641.734	0.0161961
641.812	0.0163348
641.890	0.0161509
641.968	0.0162004
642.046	0.0162200
642.124	0.0163604
642.203	0.0163328
642.281	0.0162560
642.359	0.0163008
642.437	0.0163657
642.515	0.0162644
642.593	0.0161452
642.671	0.0161990
642.749	0.0161945
642.828	0.0162018
642.906	0.0161717
642.984	0.0163662
643.062	0.0162604
643.140	0.0160767
643.218	0.0160654
643.296	0.0160668
643.374	0.0162758
643.453	0.0162151
643.531	0.0160403
643.609	0.0160999
643.687	0.0162202
643.765	0.0162135
643.843	0.0162509
643.921	0.0161398
643.999	0.0162317
644.078	0.0163125
644.156	0.0161301
644.234	0.0160519
644.312	0.0161775
644.390	0.0161479
644.468	0.0160947
644.546	0.0161529
644.624	0.0161868
644.703	0.0161937
644.781	0.0162112
644.859	0.0161679
644.937	0.0160847
645.015	0.0162410
645.093	0.0161197
645.171	0.0160637
645.249	0.0161162
645.328	0.0162973
645.406	0.0161688
645.484	0.0160601
645.562	0.0159771
645.640	0.0162292
645.718	0.0162439
645.796	0.0161786
645.874	0.0160382
645.953	0.0161517
646.031	0.0161877
646.109	0.0160696
646.187	0.0160593
646.265	0.0161805
646.343	0.0161595
646.421	0.0161231
646.499	0.0163008
646.578	0.0161360
646.656	0.0160739
646.734	0.0162280
646.812	0.0160706
646.890	0.0161530
646.968	0.0161614
647.046	0.0161559
647.124	0.0161493
647.203	0.0160819
647.281	0.0160595
647.359	0.0161330
647.437	0.0161945
647.515	0.0160648
647.593	0.0160892
647.671	0.0161056
647.749	0.0161895
647.828	0.0161646
647.906	0.0161767
647.984	0.0163614
648.062	0.0161089
648.140	0.0160416
648.218	0.0160685
648.296	0.0160467
648.374	0.0161240
648.453	0.0163293
648.531	0.0162402
648.609	0.0161427
648.687	0.0160337
648.765	0.0161279
648.843	0.0162279
648.921	0.0161006
648.999	0.0161121
649.078	0.0161364
649.156	0.0162051
649.234	0.0161276
649.312	0.0161832
649.390	0.0161533
649.468	0.0160240
649.546	0.0160085
649.624	0.0162472
649.703	0.0163889
649.781	0.0160547
649.859	0.0161411
649.937	0.0161710
650.015	0.0161540
650.093	0.0161111
650.171	0.0161861
650.249	0.0161787
650.328	0.0161200
650.406	0.0161342
650.484	0.0161969
650.562	0.0161520
650.640	0.0162593
650.718	0.0163118
650.796	0.0161819
650.874	0.0160351
650.953	0.0160965
651.031	0.0161808
651.109	0.0161285
651.187	0.0161901
651.265	0.0161483
651.343	0.0161533
651.421	0.0161768
651.499	0.0160225
651.578	0.0160213
651.656	0.0162137
651.734	0.0161670
651.812	0.0161287
651.890	0.0160615
651.968	0.0161794
652.046	0.0161871
652.124	0.0162997
652.203	0.0161456
652.281	0.0161245
652.359	0.0161362
652.437	0.0161864
652.515	0.0162513
652.593	0.0160966
652.671	0.0161735
652.749	0.0162084
652.828	0.0162012
652.906	0.0161324
652.984	0.0161465
653.062	0.0160683
653.140	0.0160562
653.218	0.0161790
653.296	0.0162362
653.374	0.0161999
653.453	0.0161867
653.531	0.0162826
653.609	0.0162780
653.687	0.0161514
653.765	0.0162024
653.843	0.0162561
653.921	0.0161234
653.999	0.0162038
654.078	0.0161517
654.156	0.0162497
654.234	0.0162177
654.312	0.0161728
654.390	0.0161169
654.468	0.0160538
654.546	0.0163314
654.624	0.0162280
654.703	0.0161583
654.781	0.0162376
654.859	0.0161626
654.937	0.0163710
655.015	0.0162181
655.093	0.0161848
655.171	0.0160894
655.249	0.0162182
655.328	0.0163084
655.406	0.0163469
655.484	0.0163445
655.562	0.0162191
655.640	0.0161727
655.718	0.0162041
655.796	0.0161729
655.874	0.0161965
655.953	0.0161926
656.031	0.0163694
656.109	0.0162186
656.187	0.0161875
656.265	0.0162618
656.343	0.0162545
656.421	0.0162508
656.499	0.0160870
656.578	0.0161490
656.656	0.0161039
656.734	0.0161394
656.812	0.0163829
656.890	0.0162903
656.968	0.0160289
657.046	0.0161691
657.124	0.0162910
657.203	0.0162296
657.281	0.0161173
657.359	0.0161117
657.437	0.0164022
657.515	0.0161552
657.593	0.0162271
657.671	0.0162366
657.749	0.0162721
657.828	0.0161927
657.906	0.0161782
657.984	0.0162286
658.062	0.0163028
658.140	0.0162773
658.218	0.0162675
658.296	0.0163385
658.374	0.0161262
658.453	0.0162204
658.531	0.0162146
658.609	0.0162733
658.687	0.0161568
658.765	0.0162463
658.843	0.0162483
658.921	0.0162608
658.999	0.0161652
659.078	0.0160656
659.156	0.0161778
659.234	0.0161591
659.312	0.0162302
659.390	0.0162535
659.468	0.0162681
659.546	0.0161037
659.624	0.0163303
659.703	0.0162344
659.781	0.0162124
659.859	0.0161055
659.937	0.0162637
660.015	0.0163396
660.093	0.0160960
660.171	0.0163221
660.249	0.0163921
660.328	0.0162807
660.406	0.0162413
660.484	0.0160983
660.562	0.0162372
660.640	0.0163221
660.718	0.0160641
660.796	0.0162751
660.874	0.0163908
660.953	0.0160930
661.031	0.0160959
661.109	0.0162932
661.187	0.0162347
661.265	0.0161954
661.343	0.0160962
661.421	0.0161257
661.499	0.0164042
661.578	0.0162395
661.656	0.0161800
661.734	0.0162467
661.812	0.0162020
661.890	0.0162818
661.968	0.0162916
662.046	0.0163483
662.124	0.0161823
662.203	0.0162132
662.281	0.0163013
662.359	0.0163339
662.437	0.0162444
662.515	0.0162223
662.593	0.0162663
662.671	0.0163488
662.749	0.0162789
662.828	0.0161905
662.906	0.0163636
662.984	0.0161991
663.062	0.0161630
663.140	0.0161588
663.218	0.0162659
663.296	0.0162371
663.374	0.0163782
663.453	0.0162038
663.531	0.0161834
663.609	0.0162221
663.687	0.0161707
663.765	0.0161710
663.843	0.0162173
663.921	0.0163293
663.999	0.0162537
664.078	0.0161810
664.156	0.0162611
664.234	0.0160988
664.312	0.0162840
664.390	0.0163162
664.468	0.0162039
664.546	0.0161359
664.624	0.0162473
664.703	0.0161471
664.781	0.0162913
664.859	0.0161697
664.937	0.0161977
665.015	0.0162025
665.093	0.0161764
665.171	0.0162541
665.249	0.0162591
665.328	0.0161754
665.406	0.0161662
665.484	0.0161993
665.562	0.0162630
665.640	0.0162388
665.718	0.0161828
665.796	0.0162345
665.874	0.0162664
665.953	0.0162199
666.031	0.0162318
666.109	0.0162601
666.187	0.0160835
666.265	0.0163158
666.343	0.0162790
666.421	0.0161199
666.499	0.0161880
666.578	0.0161575
666.656	0.0162489
666.734	0.0161611
666.812	0.0162237
666.890	0.0162418
666.968	0.0162151
667.046	0.0161745
667.124	0.0162119
667.203	0.0161089
667.281	0.0162207
667.359	0.0162736
667.437	0.0160747
667.515	0.0162498
667.593	0.0161957
667.671	0.0162596
667.749	0.0163435
667.828	0.0161812
667.906	0.0160255
667.984	0.0162765
668.062	0.0162704
668.140	0.0162267
668.218	0.0162749
668.296	0.0161839
668.374	0.0161501
668.453	0.0162715
668.531	0.0161138
668.609	0.0163200
668.687	0.0163504
668.765	0.0160841
668.843	0.0160595
668.921	0.0163156
668.999	0.0162022
669.078	0.0162047
669.156	0.0162162
669.234	0.0162062
669.312	0.0162104
669.390	0.0161238
669.468	0.0161947
669.546	0.0163093
669.624	0.0160866
669.703	0.0162312
669.781	0.0162016
669.859	0.0161933
669.937	0.0161668
670.015	0.0161359
670.093	0.0163054
670.171	0.0163251
670.249	0.0162698
670.328	0.0161447
670.406	0.0161684
670.484	0.0162373
670.562	0.0162128
670.640	0.0161541
670.718	0.0160597
670.796	0.0162991
670.874	0.0163102
670.953	0.0161461
671.031	0.0161549
671.109	0.0161530
671.187	0.0161710
671.265	0.0161350
671.343	0.0162950
671.421	0.0161919
671.499	0.0160988
671.578	0.0162360
671.656	0.0160767
671.734	0.0161739
671.812	0.0162408
671.890	0.0161575
671.968	0.0161763
672.046	0.0161832
672.124	0.0162789
672.203	0.0162607
672.281	0.0163093
672.359	0.0162269
672.437	0.0161393
672.515	0.0161663
672.593	0.0162083
672.671	0.0162063
672.749	0.0160028
672.828	0.0162185
672.906	0.0162151
672.984	0.0161216
673.062	0.0161935
673.140	0.0162342
673.218	0.0161108
673.296	0.0161922
673.374	0.0163268
673.453	0.0161961
673.531	0.0161533
673.609	0.0161452
673.687	0.0162000
673.765	0.0160748
673.843	0.0160381
673.921	0.0161744
673.999	0.0162468
674.078	0.0161203
674.156	0.0162204
674.234	0.0163319
674.312	0.0161867
674.390	0.0160700
674.468	0.0161035
674.546	0.0162468
674.624	0.0160574
674.703	0.0161997
674.781	0.0161467
674.859	0.0163243
674.937	0.0162269
675.015	0.0162183
675.093	0.0162012
675.171	0.0162237
675.249	0.0161446
675.328	0.0162175
675.406	0.0162463
675.484	0.0161575
675.562	0.0162852
675.640	0.0162025
675.718	0.0160214
675.796	0.0162689
675.874	0.0161624
675.953	0.0161747
676.031	0.0161617
676.109	0.0161328
676.187	0.0163234
676.265	0.0163203
676.343	0.0161974
676.421	0.0160817
676.499	0.0162359
676.578	0.0162756
676.656	0.0163304
676.734	0.0162220
676.812	0.0161802
676.890	0.0162909
676.968	0.0163314
677.046	0.0163064
677.124	0.0162801
677.203	0.0162543
677.281	0.0162215
677.359	0.0163015
677.437	0.0162386
677.515	0.0162635
677.593	0.0162571
677.671	0.0162081
677.749	0.0162522
677.828	0.0161989
677.906	0.0161054
677.984	0.0162344
678.062	0.0162231
678.140	0.0160970
678.218	0.0162466
678.296	0.0162589
678.374	0.0163095
678.453	0.0162376
678.531	0.0160857
678.609	0.0162095
678.687	0.0161777
678.765	0.0162126
678.843	0.0163020
678.921	0.0161346
678.999	0.0161066
679.078	0.0161835
679.156	0.0161754
679.234	0.0162822
679.312	0.0162006
679.390	0.0161669
679.468	0.0161848
679.546	0.0163078
679.624	0.0161919
679.703	0.0162169
679.781	0.0162513
679.859	0.0163396
679.937	0.0162222
680.015	0.0160971
680.093	0.0160882
680.171	0.0161385
680.249	0.0163379
680.328	0.0161974
680.406	0.0161007
680.484	0.0163383
680.562	0.0160800
680.640	0.0161249
680.718	0.0161170
680.796	0.0162437
680.874	0.0162842
680.953	0.0163487
681.031	0.0161554
681.109	0.0161594
681.187	0.0162564
681.265	0.0162788
681.343	0.0162801
681.421	0.0161986
681.499	0.0162478
681.578	0.0161549
681.656	0.0162134
681.734	0.0161812
681.812	0.0162305
681.890	0.0162145
681.968	0.0162827
682.046	0.0161659
682.124	0.0162373
682.203	0.0163365
682.281	0.0162411
682.359	0.0162498
682.437	0.0161598
682.515	0.0162114
682.593	0.0163299
682.671	0.0161952
682.749	0.0162415
682.828	0.0162148
682.906	0.0161852
682.984	0.0161747
683.062	0.0163013
683.140	0.0162108
683.218	0.0161060
683.296	0.0161832
683.374	0.0162637
683.453	0.0162952
683.531	0.0161473
683.609	0.0162746
683.687	0.0162322
683.765	0.0161469
683.843	0.0161604
683.921	0.0161390
683.999	0.0162009
684.078	0.0163204
684.156	0.0161549
684.234	0.0161176
684.312	0.0160918
684.390	0.0160428
684.468	0.0162141
684.546	0.0161739
684.624	0.0162337
684.703	0.0162214
684.781	0.0161604
684.859	0.0162717
684.937	0.0161383
685.015	0.0161478
685.093	0.0162366
685.171	0.0162045
685.249	0.0161816
685.328	0.0160860
685.406	0.0162080
685.484	0.0162486
685.562	0.0161792
685.640	0.0161397
685.718	0.0162379
685.796	0.0161836
685.874	0.0162271
685.953	0.0161908
686.031	0.0162077
686.109	0.0161858
686.187	0.0163023
686.265	0.0161727
686.343	0.0160522
686.421	0.0161332
686.499	0.0161591
686.578	0.0162502
686.656	0.0162071
686.734	0.0162522
686.812	0.0161509
686.890	0.0162006
686.968	0.0162575
687.046	0.0162141
687.124	0.0163123
687.203	0.0160191
687.281	0.0161619
687.359	0.0163101
687.437	0.0161613
687.515	0.0161161
687.593	0.0162320
687.671	0.0160984
687.749	0.0161441
687.828	0.0161859
687.906	0.0161407
687.984	0.0161347
688.062	0.0161196
688.140	0.0162548
688.218	0.0161108
688.296	0.0162176
688.374	0.0161985
688.453	0.0161797
688.531	0.0162857
688.609	0.0161598
688.687	0.0162023
688.765	0.0161272
688.843	0.0160795
688.921	0.0161798
688.999	0.0161847
689.078	0.0161800
689.156	0.0160753
689.234	0.0161623
689.312	0.0162527
689.390	0.0161650
689.468	0.0162650
689.546	0.0163021
689.624	0.0161816
689.703	0.0163712
689.781	0.0161747
689.859	0.0161547
689.937	0.0162003
690.015	0.0160558
690.093	0.0161224
690.171	0.0161822
690.249	0.0160169
690.328	0.0160294
690.406	0.0161969
690.484	0.0161426
690.562	0.0161786
690.640	0.0161547
690.718	0.0162019
690.796	0.0160291
690.874	0.0161971
690.953	0.0162897
691.031	0.0162601
691.109	0.0160983
691.187	0.0161965
691.265	0.0160873
691.343	0.0160632
691.421	0.0161973
691.499	0.0161035
691.578	0.0161008
691.656	0.0162273
691.734	0.0161314
691.812	0.0161441
691.890	0.0162711
691.968	0.0160968
692.046	0.0160445
692.124	0.0160716
692.203	0.0161273
692.281	0.0162796
692.359	0.0162784
692.437	0.0161985
692.515	0.0160796
692.593	0.0161602
692.671	0.0162666
692.749	0.0162203
692.828	0.0162542
692.906	0.0161537
692.984	0.0161640
693.062	0.0160925
693.140	0.0160986
693.218	0.0160441
693.296	0.0161959
693.374	0.0161852
693.453	0.0161280
693.531	0.0160770
693.609	0.0162262
693.687	0.0161174
693.765	0.0162270
693.843	0.0162125
693.921	0.0160464
693.999	0.0160426
694.078	0.0161459
694.156	0.0162309
694.234	0.0160789
694.312	0.0162100
694.390	0.0163212
694.468	0.0161835
694.546	0.0160681
694.624	0.0163187
694.703	0.0161686
694.781	0.0161532
694.859	0.0161807
694.937	0.0162108
695.015	0.0161134
695.093	0.0162785
695.171	0.0163047
695.249	0.0162061
695.328	0.0161862
695.406	0.0163184
695.484	0.0161720
695.562	0.0161686
695.640	0.0163315
695.718	0.0162209
695.796	0.0162223
695.874	0.0162666
695.953	0.0161660
696.031	0.0162440
696.109	0.0163803
696.187	0.0163161
696.265	0.0161273
696.343	0.0161946
696.421	0.0163924
696.499	0.0162694
696.578	0.0162757
696.656	0.0162625
696.734	0.0162197
696.812	0.0162119
696.890	0.0162685
696.968	0.0160580
697.046	0.0162673
697.124	0.0163039
697.203	0.0163594
697.281	0.0161584
697.359	0.0162604
697.437	0.0161885
697.515	0.0162940
697.593	0.0162607
697.671	0.0161585
697.749	0.0162017
697.828	0.0162700
697.906	0.0163787
697.984	0.0162038
698.062	0.0162603
698.140	0.0163104
698.218	0.0162173
698.296	0.0163128
698.374	0.0162242
698.453	0.0161900
698.531	0.0162553
698.609	0.0163290
698.687	0.0163132
698.765	0.0164294
698.843	0.0163150
698.921	0.0162508
698.999	0.0162186
699.078	0.0162507
699.156	0.0162846
699.234	0.0162761
699.312	0.0162083
699.390	0.0161809
699.468	0.0162801
699.546	0.0161706
699.624	0.0161465
699.703	0.0161481
699.781	0.0161259
699.859	0.0162983
699.937	0.0161996
700.015	0.0161603
700.093	0.0161868
700.171	0.0161695
700.249	0.0162135
700.328	0.0162467
700.406	0.0162011
700.484	0.0162675
700.562	0.0163117
700.640	0.0161600
700.718	0.0160915
700.796	0.0161199
700.874	0.0160554
700.953	0.0161934
701.031	0.0163020
701.109	0.0161578
701.187	0.0163182
701.265	0.0162261
701.343	0.0162199
701.421	0.0161773
701.499	0.0163216
701.578	0.0161011
701.656	0.0161903
701.734	0.0163239
701.812	0.0162681
701.890	0.0162166
701.968	0.0163115
702.046	0.0162424
702.124	0.0160842
702.203	0.0162743
702.281	0.0163636
702.359	0.0162295
702.437	0.0162177
702.515	0.0162897
702.593	0.0162100
702.671	0.0161751
702.749	0.0161192
702.828	0.0161298
702.906	0.0161981
702.984	0.0163371
703.062	0.0162099
703.140	0.0162806
703.218	0.0162018
703.296	0.0162453
703.374	0.0162755
703.453	0.0162209
703.531	0.0161253
703.609	0.0162400
703.687	0.0162423
703.765	0.0162048
703.843	0.0161337
703.921	0.0162496
703.999	0.0162666
704.078	0.0162275
704.156	0.0161980
704.234	0.0161473
704.312	0.0161626
704.390	0.0160600
704.468	0.0161510
704.546	0.0162443
704.624	0.0162708
704.703	0.0161201
704.781	0.0161362
704.859	0.0162659
704.937	0.0163694
705.015	0.0161950
705.093	0.0161890
705.171	0.0161942
705.249	0.0162269
705.328	0.0161510
705.406	0.0162018
705.484	0.0162907
705.562	0.0160326
705.640	0.0160498
705.718	0.0161264
705.796	0.0163657
705.874	0.0162241
705.953	0.0162183
706.031	0.0163396
706.109	0.0161938
706.187	0.0161484
706.265	0.0161222
706.343	0.0161484
706.421	0.0161528
706.499	0.0162022
706.578	0.0161914
706.656	0.0161102
706.734	0.0161797
706.812	0.0162358
706.890	0.0160985
706.968	0.0161574
707.046	0.0161143
707.124	0.0161500
707.203	0.0161187
707.281	0.0162757
707.359	0.0163159
707.437	0.0162464
707.515	0.0161504
707.593	0.0162959
707.671	0.0160308
707.749	0.0162154
707.828	0.0161974
707.906	0.0161721
707.984	0.0161900
708.062	0.0161693
708.140	0.0162003
708.218	0.0163505
708.296	0.0162261
708.374	0.0161521
708.453	0.0163145
708.531	0.0161711
708.609	0.0160870
708.687	0.0162389
708.765	0.0162317
708.843	0.0162477
708.921	0.0161720
708.999	0.0162534
709.078	0.0161928
709.156	0.0162698
709.234	0.0162160
709.312	0.0160398
709.390	0.0162670
709.468	0.0160999
709.546	0.0161889
709.624	0.0160567
709.703	0.0162290
709.781	0.0160976
709.859	0.0161118
709.937	0.0162082
710.015	0.0160486
710.093	0.0162287
710.171	0.0162508
710.249	0.0160747
710.328	0.0161121
710.406	0.0160986
710.484	0.0162287
710.562	0.0161980
710.640	0.0160904
710.718	0.0160455
710.796	0.0161914
710.874	0.0161559
710.953	0.0161600
711.031	0.0162207
711.109	0.0161186
711.187	0.0161758
711.265	0.0160838
711.343	0.0161010
711.421	0.0162172
711.499	0.0161671
711.578	0.0162204
711.656	0.0162029
711.734	0.0161597
711.812	0.0161662
711.890	0.0162477
711.968	0.0162610
712.046	0.0162570
712.124	0.0162507
712.203	0.0162785
712.281	0.0162592
712.359	0.0161523
712.437	0.0162667
712.515	0.0162749
712.593	0.0162254
712.671	0.0163301
712.749	0.0162133
712.828	0.0161179
712.906	0.0162656
712.984	0.0162581
713.062	0.0161656
713.140	0.0163117
713.218	0.0162832
713.296	0.0162163
713.374	0.0161423
713.453	0.0161214
713.531	0.0161843
713.609	0.0163213
713.687	0.0161873
713.765	0.0161521
713.843	0.0162088
713.921	0.0162572
713.999	0.0162245
714.078	0.0161596
714.156	0.0164000
714.234	0.0162440
714.312	0.0161059
714.390	0.0162394
714.468	0.0162965
714.546	0.0161009
714.624	0.0160901
714.703	0.0161855
714.781	0.0161729
714.859	0.0161629
714.937	0.0164052
715.015	0.0162391
715.093	0.0161653
715.171	0.0161446
715.249	0.0161031
715.328	0.0162917
715.406	0.0163239
715.484	0.0162497
715.562	0.0162173
715.640	0.0162428
715.718	0.0162265
715.796	0.0162611
715.874	0.0162234
715.953	0.0162032
716.031	0.0161651
716.109	0.0162054
716.187	0.0161440
716.265	0.0162608
716.343	0.0162334
716.421	0.0162032
716.499	0.0162888
716.578	0.0161961
716.656	0.0162075
716.734	0.0162090
716.812	0.0161676
716.890	0.0162306
716.968	0.0162300
717.046	0.0161684
717.124	0.0162352
717.203	0.0162343
717.281	0.0161021
717.359	0.0161953
717.437	0.0162646
717.515	0.0162146
717.593	0.0161487
717.671	0.0162659
717.749	0.0162306
717.828	0.0161415
717.906	0.0161704
717.984	0.0161623
718.062	0.0162163
718.140	0.0162349
718.218	0.0162137
718.296	0.0161906
718.374	0.0163716
718.453	0.0164235
718.531	0.0162553
718.609	0.0161147
718.687	0.0161536
718.765	0.0161979
718.843	0.0162378
718.921	0.0161789
718.999	0.0161645
719.078	0.0161569
719.156	0.0161620
719.234	0.0161405
719.312	0.0162532
719.390	0.0162278
719.468	0.0161839
719.546	0.0162714
719.624	0.0161760
719.703	0.0160580
719.781	0.0161922
719.859	0.0161962
719.937	0.0161777
720.015	0.0162417
720.093	0.0162022
720.171	0.0164105
720.249	0.0162668
720.328	0.0162379
720.406	0.0162500
720.484	0.0164001
720.562	0.0164247
720.640	0.0164522
720.718	0.0164764
720.796	0.0164326
720.874	0.0162601
720.953	0.0162561
721.031	0.0163857
721.109	0.0165131
721.187	0.0164637
721.265	0.0163174
721.343	0.0162970
721.421	0.0161436
721.499	0.0161495
721.578	0.0159573
721.656	0.0160111
721.734	0.0159559
721.812	0.0159326
721.890	0.0159165
721.968	0.0158785
722.046	0.0158425
722.124	0.0158152
722.203	0.0157285
722.281	0.0158492
722.359	0.0159638
722.437	0.0159507
722.515	0.0160680
722.593	0.0160332
722.671	0.0161254
722.749	0.0161913
722.828	0.0162196
722.906	0.0164529
722.984	0.0163585
723.062	0.0164504
723.140	0.0166124
723.218	0.0167350
723.296	0.0165823
723.374	0.0166398
723.453	0.0168559
723.531	0.0166469
723.609	0.0166026
723.687	0.0166930
723.765	0.0166210
723.843	0.0164497
723.921	0.0164040
723.999	0.0164518
724.078	0.0162898
724.156	0.0162041
724.234	0.0161047
724.312	0.0161639
724.390	0.0159845
724.468	0.0160064
724.546	0.0159060
724.624	0.0160732
724.703	0.0162100
724.781	0.0161044
724.859	0.0161323
724.937	0.0160081
725.015	0.0160696
725.093	0.0161611
725.171	0.0161521
725.249	0.0160413
725.328	0.0160177
725.406	0.0162302
725.484	0.0160537
725.562	0.0160944
725.640	0.0160869
725.718	0.0159824
725.796	0.0159084
725.874	0.0157637
725.953	0.0157339
726.031	0.0158342
726.109	0.0156736
726.187	0.0157600
726.265	0.0157462
726.343	0.0157706
726.421	0.0158525
726.499	0.0159975
726.578	0.0160898
726.656	0.0159145
726.734	0.0160106
726.812	0.0162049
726.890	0.0163481
726.968	0.0164095
727.046	0.0163156
727.124	0.0163452
727.203	0.0165527
727.281	0.0165929
727.359	0.0167225
727.437	0.0166903
727.515	0.0169408
727.593	0.0170654
727.671	0.0170929
727.749	0.0170391
727.828	0.0171767
727.906	0.0172451
727.984	0.0170737
728.062	0.0170219
728.140	0.0169197
728.218	0.0166883
728.296	0.0167470
728.374	0.0164285
728.453	0.0164130
728.531	0.0161527
728.609	0.0160286
728.687	0.0157741
728.765	0.0155746
728.843	0.0154057
728.921	0.0150694
728.999	0.0150630
729.078	0.0147645
729.156	0.0145792
729.234	0.0146681
729.312	0.0145404
729.390	0.0145744
729.468	0.0145171
729.546	0.0147971
729.624	0.0150787
729.703	0.0152969
729.781	0.0155081
729.859	0.0156406
729.937	0.0160326
730.015	0.0163308
730.093	0.0167559
730.171	0.0169947
730.249	0.0172424
730.328	0.0174206
730.406	0.0174500
730.484	0.0178696
730.562	0.0180119
730.640	0.0180473
730.718	0.0180832
730.796	0.0179979
730.874	0.0180599
730.953	0.0178710
731.031	0.0177606
731.109	0.0176775
731.187	0.0174174
731.265	0.0171367
731.343	0.0169816
731.421	0.0167481
731.499	0.0165401
731.578	0.0162949
731.656	0.0158365
731.734	0.0155956
731.812	0.0154064
731.890	0.0151850
731.968	0.0149602
732.046	0.0149989
732.124	0.0148655
732.203	0.0148337
732.281	0.0148563
732.359	0.0147839
732.437	0.0148341
732.515	0.0149015
732.593	0.0149258
732.671	0.0153689
732.749	0.0153457
732.828	0.0153755
732.906	0.0156746
732.984	0.0157415
733.062	0.0158604
733.140	0.0160761
733.218	0.0161124
733.296	0.0163208
733.374	0.0163676
733.453	0.0165547
733.531	0.0167397
733.609	0.0167395
733.687	0.0167249
733.765	0.0168165
733.843	0.0168246
733.921	0.0168649
733.999	0.0167908
734.078	0.0169521
734.156	0.0168780
734.234	0.0168562
734.312	0.0168411
734.390	0.0171284
734.468	0.0171596
734.546	0.0173019
734.624	0.0172297
734.703	0.0171680
734.781	0.0174097
734.859	0.0172738
734.937	0.0171344
735.015	0.0170852
735.093	0.0170360
735.171	0.0168545
735.249	0.0167845
735.328	0.0166001
735.406	0.0163033
735.484	0.0161657
735.562	0.0160380
735.640	0.0160102
735.718	0.0157542
735.796	0.0155621
735.874	0.0153824
735.953	0.0153646
736.031	0.0153212
736.109	0.0153009
736.187	0.0152230
736.265	0.0152359
736.343	0.0152519
736.421	0.0153049
736.499	0.0152190
736.578	0.0152690
736.656	0.0155318
736.734	0.0154980
736.812	0.0154437
736.890	0.0156160
736.968	0.0156535
737.046	0.0156928
737.124	0.0158837
737.203	0.0159558
737.281	0.0162497
737.359	0.0161875
737.437	0.0163260
737.515	0.0164517
737.593	0.0164816
737.671	0.0165968
737.749	0.0166025
737.828	0.0166264
737.906	0.0168358
737.984	0.0165945
738.062	0.0167274
738.140	0.0166752
738.218	0.0166334
738.296	0.0165173
738.374	0.0164130
738.453	0.0163873
738.531	0.0163383
738.609	0.0161951
738.687	0.0162231
738.765	0.0160754
738.843	0.0160638
738.921	0.0160355
738.999	0.0161372
739.078	0.0161552
739.156	0.0162341
739.234	0.0162344
739.312	0.0162086
739.390	0.0162251
739.468	0.0164624
739.546	0.0164037
739.624	0.0164739
739.703	0.0165069
739.781	0.0166215
739.859	0.0163846
739.937	0.0164645
740.015	0.0164342
740.093	0.0163894
740.171	0.0166273
740.249	0.0165894
740.328	0.0164707
740.406	0.0164448
740.484	0.0163733
740.562	0.0164662
740.640	0.0164677
740.718	0.0162148
740.796	0.0161427
740.874	0.0162175
740.953	0.0161914
741.031	0.0161212
741.109	0.0159723
741.187	0.0160600
741.265	0.0159287
741.343	0.0157944
741.421	0.0158163
741.499	0.0157600
741.578	0.0157402
741.656	0.0156361
741.734	0.0155379
741.812	0.0156072
741.890	0.0155526
741.968	0.0154280
742.046	0.0155791
742.124	0.0157603
742.203	0.0157667
742.281	0.0158309
742.359	0.0157690
742.437	0.0158927
742.515	0.0160442
742.593	0.0160866
742.671	0.0160836
742.749	0.0162043
742.828	0.0163374
742.906	0.0162105
742.984	0.0161926
743.062	0.0161514
743.140	0.0162622
743.218	0.0163468
743.296	0.0163328
743.374	0.0163709
743.453	0.0162933
743.531	0.0163306
743.609	0.0163386
743.687	0.0163575
743.765	0.0164920
743.843	0.0163898
743.921	0.0166199
743.999	0.0167393
744.078	0.0165587
744.156	0.0166695
744.234	0.0167625
744.312	0.0167622
744.390	0.0167452
744.468	0.0166975
744.546	0.0166888
744.624	0.0166983
744.703	0.0168086
744.781	0.0166818
744.859	0.0164126
744.937	0.0166463
745.015	0.0164501
745.093	0.0163853
745.171	0.0161536
745.249	0.0162430
745.328	0.0160476
745.406	0.0158362
745.484	0.0158681
745.562	0.0157550
745.640	0.0157249
745.718	0.0156396
745.796	0.0156097
745.874	0.0156908
745.953	0.0156345
746.031	0.0154557
746.109	0.0155029
746.187	0.0155968
746.265	0.0157619
746.343	0.0159290
746.421	0.0158814
746.499	0.0158909
746.578	0.0159520
746.656	0.0160049
746.734	0.0161124
746.812	0.0162072
746.890	0.0161259
746.968	0.0163239
747.046	0.0162643
747.124	0.0162820
747.203	0.0161553
747.281	0.0161410
747.359	0.0160583
747.437	0.0160257
747.515	0.0159673
747.593	0.0159687
747.671	0.0159121
747.749	0.0158594
747.828	0.0160635
747.906	0.0160606
747.984	0.0160590
748.062	0.0161530
748.140	0.0163621
748.218	0.0163480
748.296	0.0163728
748.374	0.0165211
748.453	0.0168276
748.531	0.0167949
748.609	0.0166671
748.687	0.0168194
748.765	0.0169256
748.843	0.0167709
748.921	0.0167046
748.999	0.0167999
749.078	0.0166193
749.156	0.0164043
749.234	0.0163458
749.312	0.0163245
749.390	0.0162868
749.468	0.0161330
749.546	0.0162179
749.624	0.0160471
749.703	0.0160635
749.781	0.0161013
749.859	0.0159821
749.937	0.0161102
750.015	0.0160728
750.093	0.0159158
750.171	0.0160161
750.249	0.0161166
750.328	0.0160552
750.406	0.0160619
750.484	0.0160285
750.562	0.0159837
750.640	0.0159502
750.718	0.0158991
750.796	0.0158507
750.874	0.0158714
750.953	0.0158503
751.031	0.0159290
751.109	0.0160722
751.187	0.0160452
751.265	0.0159695
751.343	0.0159604
751.421	0.0161414
751.499	0.0160754
751.578	0.0160116
751.656	0.0159834
751.734	0.0161759
751.812	0.0162250
751.890	0.0161080
751.968	0.0160442
752.046	0.0161267
752.124	0.0160440
752.203	0.0159798
752.281	0.0160958
752.359	0.0161515
752.437	0.0161251
752.515	0.0160995
752.593	0.0159259
752.671	0.0160858
752.749	0.0161288
752.828	0.0160703
752.906	0.0161969
752.984	0.0163101
753.062	0.0164073
753.140	0.0164794
753.218	0.0166915
753.296	0.0166295
753.374	0.0167385
753.453	0.0167705
753.531	0.0168430
753.609	0.0168254
753.687	0.0167698
753.765	0.0167809
753.843	0.0167155
753.921	0.0167328
753.999	0.0166022
754.078	0.0165316
754.156	0.0164701
754.234	0.0164442
754.312	0.0162669
754.390	0.0162373
754.468	0.0161875
754.546	0.0160714
754.624	0.0161467
754.703	0.0159299
754.781	0.0158881
754.859	0.0159495
754.937	0.0160027
755.015	0.0158879
755.093	0.0159539
755.171	0.0159431
755.249	0.0159148
755.328	0.0157639
755.406	0.0158025
755.484	0.0160332
755.562	0.0158104
755.640	0.0158955
755.718	0.0158979
755.796	0.0156956
755.874	0.0156461
755.953	0.0158505
756.031	0.0157277
756.109	0.0156490
756.187	0.0157399
756.265	0.0158562
756.343	0.0159287
756.421	0.0160781
756.499	0.0160709
756.578	0.0161935
756.656	0.0163126
756.734	0.0165256
756.812	0.0166083
756.890	0.0166768
756.968	0.0167986
757.046	0.0167624
757.124	0.0167757
757.203	0.0169066
757.281	0.0167183
757.359	0.0168120
757.437	0.0167832
757.515	0.0167584
757.593	0.0167812
757.671	0.0167568
757.749	0.0166203
757.828	0.0165060
757.906	0.0164240
757.984	0.0163342
758.062	0.0160958
758.140	0.0159949
758.218	0.0160139
758.296	0.0158866
758.374	0.0158088
758.453	0.0158069
758.531	0.0157946
758.609	0.0157574
758.687	0.0158852
758.765	0.0158687
758.843	0.0160744
758.921	0.0160061
758.999	0.0161000
759.078	0.0162288
759.156	0.0162808
759.234	0.0164049
759.312	0.0164417
759.390	0.0164767
759.468	0.0163618
759.546	0.0162881
759.624	0.0163637
759.703	0.0162211
759.781	0.0162178
759.859	0.0160014
759.937	0.0160433
760.015	0.0159764
760.093	0.0160336
760.171	0.0160628
760.249	0.0158102
760.328	0.0158929
760.406	0.0161340
760.484	0.0160583
760.562	0.0161136
760.640	0.0161807
760.718	0.0161446
760.796	0.0160741
760.874	0.0162229
760.953	0.0162625
761.031	0.0161190
761.109	0.0161417
761.187	0.0161427
761.265	0.0160844
761.343	0.0160503
761.421	0.0161816
761.499	0.0161842
761.578	0.0161333
761.656	0.0161643
761.734	0.0163863
761.812	0.0164799
761.890	0.0166007
761.968	0.0166140
762.046	0.0164543
762.124	0.0166631
762.203	0.0168465
762.281	0.0165963
762.359	0.0167891
762.437	0.0167089
762.515	0.0166013
762.593	0.0165681
762.671	0.0163433
762.749	0.0164451
762.828	0.0162306
762.906	0.0161224
762.984	0.0160382
763.062	0.0157276
763.140	0.0157372
763.218	0.0156480
763.296	0.0156361
763.374	0.0157893
763.453	0.0156922
763.531	0.0159616
763.609	0.0161074
763.687	0.0159741
763.765	0.0159703
763.843	0.0161366
763.921	0.0162014
763.999	0.0162637
764.078	0.0162818
764.156	0.0162309
764.234	0.0162239
764.312	0.0160190
764.390	0.0161279
764.468	0.0160121
764.546	0.0158274
764.624	0.0159383
764.703	0.0157502
764.781	0.0159554
764.859	0.0158587
764.937	0.0159576
765.015	0.0160004
765.093	0.0162695
765.171	0.0162843
765.249	0.0165133
765.328	0.0165685
765.406	0.0167664
765.484	0.0168813
765.562	0.0170804
765.640	0.0170866
765.718	0.0169742
765.796	0.0170542
765.874	0.0170792
765.953	0.0170178
766.031	0.0169286
766.109	0.0167328
766.187	0.0164746
766.265	0.0163507
766.343	0.0162731
766.421	0.0158920
766.499	0.0158999
766.578	0.0155803
766.656	0.0153936
766.734	0.0153693
766.812	0.0153242
766.890	0.0152151
766.968	0.0151167
767.046	0.0149911
767.124	0.0152387
767.203	0.0152406
767.281	0.0154128
767.359	0.0155627
767.437	0.0156850
767.515	0.0157997
767.593	0.0159385
767.671	0.0162485
767.749	0.0161661
767.828	0.0162635
767.906	0.0163527
767.984	0.0163776
768.062	0.0165902
768.140	0.0166109
768.218	0.0166355
768.296	0.0167905
768.374	0.0169337
768.453	0.0170269
768.531	0.0170170
768.609	0.0173034
768.687	0.0174141
768.765	0.0174523
768.843	0.0174658
768.921	0.0176201
768.999	0.0173666
769.078	0.0173538
769.156	0.0173591
769.234	0.0171886
769.312	0.0168084
769.390	0.0166746
769.468	0.0164533
769.546	0.0161375
769.624	0.0158157
769.703	0.0154005
769.781	0.0151579
769.859	0.0147533
769.937	0.0144745
770.015	0.0143787
770.093	0.0142149
770.171	0.0140578
770.249	0.0138493
770.328	0.0139786
770.406	0.0140971
770.484	0.0140553
770.562	0.0144115
770.640	0.0147929
770.718	0.0149718
770.796	0.0151917
770.874	0.0157339
770.953	0.0159495
771.031	0.0161937
771.109	0.0165430
771.187	0.0167617
771.265	0.0169312
771.343	0.0170864
771.421	0.0171783
771.499	0.0173461
771.578	0.0174608
771.656	0.0174123
771.734	0.0175358
771.812	0.0175605
771.890	0.0176488
771.968	0.0177495
772.046	0.0177355
772.124	0.0176625
772.203	0.0178128
772.281	0.0176202
772.359	0.0173884
772.437	0.0173672
772.515	0.0171185
772.593	0.0169347
772.671	0.0169714
772.749	0.0167465
772.828	0.0165387
772.906	0.0161950
772.984	0.0161842
773.062	0.0159266
773.140	0.0159516
773.218	0.0156573
773.296	0.0153635
773.374	0.0152888
773.453	0.0151619
773.531	0.0151586
773.609	0.0150756
773.687	0.0148745
773.765	0.0149915
773.843	0.0149966
773.921	0.0149500
773.999	0.0151612
774.078	0.0153129
774.156	0.0153728
774.234	0.0154036
774.312	0.0154925
774.390	0.0155072
774.468	0.0156203
774.546	0.0157814
774.624	0.0159245
774.703	0.0160992
774.781	0.0159750
774.859	0.0160854
774.937	0.0161353
775.015	0.0161873
775.093	0.0162851
775.171	0.0162451
775.249	0.0162492
775.328	0.0161635
775.406	0.0161044
775.484	0.0162022
775.562	0.0163409
775.640	0.0163205
775.718	0.0162797
775.796	0.0165629
775.874	0.0165613
775.953	0.0165593
776.031	0.0166088
776.109	0.0166124
776.187	0.0168471
776.265	0.0167839
776.343	0.0168719
776.421	0.0168618
776.499	0.0170043
776.578	0.0168378
776.656	0.0166924
776.734	0.0168345
776.812	0.0166784
776.890	0.0166090
776.968	0.0167236
777.046	0.0166820
777.124	0.0167185
777.203	0.0166505
777.281	0.0167518
777.359	0.0166553
777.437	0.0166458
777.515	0.0165363
777.593	0.0165231
777.671	0.0164933
777.749	0.0164666
777.828	0.0164775
777.906	0.0162903
777.984	0.0162104
778.062	0.0160595
778.140	0.0160245
778.218	0.0160888
778.296	0.0159821
778.374	0.0159225
778.453	0.0157587
778.531	0.0158398
778.609	0.0157755
778.687	0.0157518
778.765	0.0158014
778.843	0.0157455
778.921	0.0158746
778.999	0.0159248
779.078	0.0158596
779.156	0.0160222
779.234	0.0158650
779.312	0.0158881
779.390	0.0158601
779.468	0.0159626
779.546	0.0158765
779.624	0.0159778
779.703	0.0158531
779.781	0.0159127
779.859	0.0160200
779.937	0.0159985
780.015	0.0159002
780.093	0.0158665
780.171	0.0161182
780.249	0.0161163
780.328	0.0161803
780.406	0.0163078
780.484	0.0165012
780.562	0.0164768
780.640	0.0165609
780.718	0.0166128
780.796	0.0165679
780.874	0.0166794
780.953	0.0166071
781.031	0.0165154
781.109	0.0163354
781.187	0.0162645
781.265	0.0159965
781.343	0.0157793
781.421	0.0154795
781.499	0.0154333
781.578	0.0154131
781.656	0.0152467
781.734	0.0153022
781.812	0.0153815
781.890	0.0152402
781.968	0.0153132
782.046	0.0155487
782.124	0.0155739
782.203	0.0156183
782.281	0.0160775
782.359	0.0162174
782.437	0.0164304
782.515	0.0166479
782.593	0.0167888
782.671	0.0172126
782.749	0.0174127
782.828	0.0176339
782.906	0.0177481
782.984	0.0178578
783.062	0.0178765
783.140	0.0179476
783.218	0.0179601
783.296	0.0178388
783.374	0.0175645
783.453	0.0174757
783.531	0.0171680
783.609	0.0169765
783.687	0.0167413
783.765	0.0164227
783.843	0.0162511
783.921	0.0161845
783.999	0.0157408
784.078	0.0154463
784.156	0.0151936
784.234	0.0151467
784.312	0.0150201
784.390	0.0148853
784.468	0.0149078
784.546	0.0149199
784.624	0.0149940
784.703	0.0152805
784.781	0.0154812
784.859	0.0157339
784.937	0.0158965
785.015	0.0161493
785.093	0.0163921
785.171	0.0165562
785.249	0.0165809
785.328	0.0165609
785.406	0.0165211
785.484	0.0163830
785.562	0.0163614
785.640	0.0161366
785.718	0.0158939
785.796	0.0156142
785.874	0.0152891
785.953	0.0150365
786.031	0.0147544
786.109	0.0144930
786.187	0.0146342
786.265	0.0147400
786.343	0.0146656
786.421	0.0146123
786.499	0.0148930
786.578	0.0150481
786.656	0.0152948
786.734	0.0155231
786.812	0.0158252
786.890	0.0162265
786.968	0.0162598
787.046	0.0165422
787.124	0.0168716
787.203	0.0171796
787.281	0.0172762
787.359	0.0173798
787.437	0.0173074
787.515	0.0174946
787.593	0.0176133
787.671	0.0173729
787.749	0.0173167
787.828	0.0170867
787.906	0.0171561
787.984	0.0170466
788.062	0.0168790
788.140	0.0167145
788.218	0.0163899
788.296	0.0164697
788.374	0.0163680
788.453	0.0162478
788.531	0.0163120
788.609	0.0164775
788.687	0.0163588
788.765	0.0163616
788.843	0.0166742
788.921	0.0167123
788.999	0.0166971
789.078	0.0169209
789.156	0.0171724
789.234	0.0171125
789.312	0.0170747
789.390	0.0170943
789.468	0.0169005
789.546	0.0169781
789.624	0.0167718
789.703	0.0166468
789.781	0.0164008
789.859	0.0161807
789.937	0.0157693
790.015	0.0156250
790.093	0.0154955
790.171	0.0153564
790.249	0.0153104
790.328	0.0151124
790.406	0.0148077
790.484	0.0148485
790.562	0.0149097
790.640	0.0147661
790.718	0.0146909
790.796	0.0148274
790.874	0.0147694
790.953	0.0148005
791.031	0.0149144
791.109	0.0153119
791.187	0.0153516
791.265	0.0153557
791.343	0.0154938
791.421	0.0156326
791.499	0.0157861
791.578	0.0160629
791.656	0.0160467
791.734	0.0160622
791.812	0.0161380
791.890	0.0161541
791.968	0.0163390
792.046	0.0164604
792.124	0.0164111
792.203	0.0164664
792.281	0.0164747
792.359	0.0165334
792.437	0.0164930
792.515	0.0164950
792.593	0.0165379
792.671	0.0165103
792.749	0.0163599
792.828	0.0162173
792.906	0.0163277
792.984	0.0163542
793.062	0.0165498
793.140	0.0163676
793.218	0.0165585
793.296	0.0166324
793.374	0.0167210
793.453	0.0170470
793.531	0.0172403
793.609	0.0172900
793.687	0.0174891
793.765	0.0175484
793.843	0.0176958
793.921	0.0176689
793.999	0.0174622
794.078	0.0175059
794.156	0.0173226
794.234	0.0171037
794.312	0.0170090
794.390	0.0168816
794.468	0.0164893
794.546	0.0163309
794.624	0.0161874
794.703	0.0160335
794.781	0.0158396
794.859	0.0156597
794.937	0.0156327
795.015	0.0155094
795.093	0.0153651
795.171	0.0153578
795.249	0.0154320
795.328	0.0154177
795.406	0.0156010
795.484	0.0155812
795.562	0.0157272
795.640	0.0158336
795.718	0.0159864
795.796	0.0161537
795.874	0.0160966
795.953	0.0162641
796.031	0.0162809
796.109	0.0161861
796.187	0.0162852
796.265	0.0163691
796.343	0.0164084
796.421	0.0163598
796.499	0.0163825
796.578	0.0164154
796.656	0.0160883
796.734	0.0161826
796.812	0.0161729
796.890	0.0160846
796.968	0.0160414
797.046	0.0160180
797.124	0.0158834
797.203	0.0157017
797.281	0.0156092
797.359	0.0156789
797.437	0.0154283
797.515	0.0152957
797.593	0.0153101
797.671	0.0152426
797.749	0.0154253
797.828	0.0154475
797.906	0.0154564
797.984	0.0155206
798.062	0.0157301
798.140	0.0158744
798.218	0.0158364
798.296	0.0159534
798.374	0.0161366
798.453	0.0160149
798.531	0.0159157
798.609	0.0160517
798.687	0.0160703
798.765	0.0160958
798.843	0.0163380
798.921	0.0163293
798.999	0.0165007
799.078	0.0165128
799.156	0.0167243
799.234	0.0168345
799.312	0.0169237
799.390	0.0170123
799.468	0.0170571
799.546	0.0170979
799.624	0.0171523
799.703	0.0172020
799.781	0.0170927
799.859	0.0171880
799.937	0.0170902
800.015	0.0171093
800.093	0.0169691
800.171	0.0169553
800.249	0.0169259
800.328	0.0169932
800.406	0.0169259
800.484	0.0168924
800.562	0.0168951
800.640	0.0170887
800.718	0.0169706
800.796	0.0169241
800.874	0.0169277
800.953	0.0167996
801.031	0.0167378
801.109	0.0166080
801.187	0.0166168
801.265	0.0165263
801.343	0.0163309
801.421	0.0162266
801.499	0.0162007
801.578	0.0160932
801.656	0.0162788
801.734	0.0160307
801.812	0.0158536
801.890	0.0160146
801.968	0.0159257
802.046	0.0158476
802.124	0.0157473
802.203	0.0157028
802.281	0.0156461
802.359	0.0156727
802.437	0.0154760
802.515	0.0155525
802.593	0.0154424
802.671	0.0154787
802.749	0.0154832
802.828	0.0152724
802.906	0.0152679
802.984	0.0150710
803.062	0.0151157
803.140	0.0151569
803.218	0.0150537
803.296	0.0148890
803.374	0.0146606
803.453	0.0147437
803.531	0.0147643
803.609	0.0146502
803.687	0.0146545
803.765	0.0146087
803.843	0.0148241
803.921	0.0147778
803.999	0.0149399
804.078	0.0151179
804.156	0.0151942
804.234	0.0153732
804.312	0.0155166
804.390	0.0158157
804.468	0.0161311
804.546	0.0164386
804.624	0.0166969
804.703	0.0169496
804.781	0.0172565
804.859	0.0176189
804.937	0.0178615
805.015	0.0180092
805.093	0.0180186
805.171	0.0181979
805.249	0.0183331
805.328	0.0184203
805.406	0.0183791
805.484	0.0184106
805.562	0.0183664
805.640	0.0182674
805.718	0.0180218
805.796	0.0179150
805.874	0.0179482
805.953	0.0177768
806.031	0.0175279
806.109	0.0173990
806.187	0.0172128
806.265	0.0171178
806.343	0.0170285
806.421	0.0169135
806.499	0.0165044
806.578	0.0164334
806.656	0.0161192
806.734	0.0160320
806.812	0.0158524
806.890	0.0157873
806.968	0.0154048
807.046	0.0154022
807.124	0.0152347
807.203	0.0150951
807.281	0.0150043
807.359	0.0149065
807.437	0.0148946
807.515	0.0148365
807.593	0.0148341
807.671	0.0148233
807.749	0.0148320
807.828	0.0148103
807.906	0.0149372
807.984	0.0148962
808.062	0.0148934
808.140	0.0148820
808.218	0.0148981
808.296	0.0150941
808.374	0.0151160
808.453	0.0152203
808.531	0.0153959
808.609	0.0154269
808.687	0.0155550
808.765	0.0155418
808.843	0.0157793
808.921	0.0158506
808.999	0.0159230
809.078	0.0161294
809.156	0.0162183
809.234	0.0161700
809.312	0.0162467
809.390	0.0161798
809.468	0.0162372
809.546	0.0160641
809.624	0.0159622
809.703	0.0161416
809.781	0.0159813
809.859	0.0158707
809.937	0.0157292
810.015	0.0156940
810.093	0.0156654
810.171	0.0156929
810.249	0.0156570
810.328	0.0157514
810.406	0.0157948
810.484	0.0160782
810.562	0.0161622
810.640	0.0164960
810.718	0.0167859
810.796	0.0168164
810.874	0.0171709
810.953	0.0174075
811.031	0.0174091
811.109	0.0178245
811.187	0.0178960
811.265	0.0181900
811.343	0.0180908
811.421	0.0180579
811.499	0.0181937
811.578	0.0182659
811.656	0.0179405
811.734	0.0177847
811.812	0.0177429
811.890	0.0173284
811.968	0.0171914
812.046	0.0170355
812.124	0.0168016
812.203	0.0165495
812.281	0.0163184
812.359	0.0161982
812.437	0.0158729
812.515	0.0158987
812.593	0.0157678
812.671	0.0155974
812.749	0.0155220
812.828	0.0154951
812.906	0.0153354
812.984	0.0153107
813.062	0.0152409
813.140	0.0151685
813.218	0.0150964
813.296	0.0150984
813.374	0.0150756
813.453	0.0152119
813.531	0.0153494
813.609	0.0152479
813.687	0.0153442
813.765	0.0153892
813.843	0.0154783
813.921	0.0154076
813.999	0.0154974
814.078	0.0157178
814.156	0.0155843
814.234	0.0155165
814.312	0.0155939
814.390	0.0156817
814.468	0.0158491
814.546	0.0157306
814.624	0.0156944
814.703	0.0159496
814.781	0.0159040
814.859	0.0161668
814.937	0.0162090
815.015	0.0160770
815.093	0.0159879
815.171	0.0160642
815.249	0.0162254
815.328	0.0162302
815.406	0.0161422
815.484	0.0160691
815.562	0.0161180
815.640	0.0162080
815.718	0.0161642
815.796	0.0160020
815.874	0.0160658
815.953	0.0159750
816.031	0.0159621
816.109	0.0159663
816.187	0.0158998
816.265	0.0158276
816.343	0.0158737
816.421	0.0158861
816.499	0.0160503
816.578	0.0161208
816.656	0.0162180
816.734	0.0163522
816.812	0.0166594
816.890	0.0169160
816.968	0.0169659
817.046	0.0173550
817.124	0.0175539
817.203	0.0176240
817.281	0.0178179
817.359	0.0179623
817.437	0.0179604
817.515	0.0179179
817.593	0.0179482
817.671	0.0179782
817.749	0.0179094
817.828	0.0179017
817.906	0.0176514
817.984	0.0173643
818.062	0.0172028
818.140	0.0170136
818.218	0.0168504
818.296	0.0165790
818.374	0.0163202
818.453	0.0163692
818.531	0.0160709
818.609	0.0157693
818.687	0.0156683
818.765	0.0155722
818.843	0.0155309
818.921	0.0153611
818.999	0.0151577
819.078	0.0151969
819.156	0.0150412
819.234	0.0150203
819.312	0.0148690
819.390	0.0147288
819.468	0.0147794
819.546	0.0147806
819.624	0.0147862
819.703	0.0149698
819.781	0.0150159
819.859	0.0151862
819.937	0.0152877
820.015	0.0153786
820.093	0.0154510
820.171	0.0158137
820.249	0.0158056
820.328	0.0159019
820.406	0.0160899
820.484	0.0160357
820.562	0.0161889
820.640	0.0161082
820.718	0.0163374
820.796	0.0163015
820.874	0.0162420
820.953	0.0163123
821.031	0.0164401
821.109	0.0162781
821.187	0.0163377
821.265	0.0163806
821.343	0.0164557
821.421	0.0165157
821.499	0.0163167
821.578	0.0163847
821.656	0.0162796
821.734	0.0163276
821.812	0.0163680
821.890	0.0162804
821.968	0.0163297
822.046	0.0163158
822.124	0.0161102
822.203	0.0162140
822.281	0.0161176
822.359	0.0160871
822.437	0.0160464
822.515	0.0159044
822.593	0.0159734
822.671	0.0160181
822.749	0.0160194
822.828	0.0161139
822.906	0.0160897
822.984	0.0162635
823.062	0.0165742
823.140	0.0165699
823.218	0.0167352
823.296	0.0170189
823.374	0.0171848
823.453	0.0174077
823.531	0.0175810
823.609	0.0177212
823.687	0.0177805
823.765	0.0178261
823.843	0.0178424
823.921	0.0176801
823.999	0.0176803
824.078	0.0176097
824.156	0.0174514
824.234	0.0173093
824.312	0.0169234
824.390	0.0167303
824.468	0.0165244
824.546	0.0161873
824.624	0.0160750
824.703	0.0156717
824.781	0.0154369
824.859	0.0153528
824.937	0.0152447
825.015	0.0151674
825.093	0.0149708
825.171	0.0149606
825.249	0.0148580
825.328	0.0149184
825.406	0.0148210
825.484	0.0148724
825.562	0.0149401
825.640	0.0150233
825.718	0.0152328
825.796	0.0151590
825.874	0.0154281
825.953	0.0153844
826.031	0.0155006
826.109	0.0154367
826.187	0.0156339
826.265	0.0157852
826.343	0.0157352
826.421	0.0160041
826.499	0.0159513
826.578	0.0159708
826.656	0.0159965
826.734	0.0161205
826.812	0.0161810
826.890	0.0164178
826.968	0.0164412
827.046	0.0165806
827.124	0.0165627
827.203	0.0165863
827.281	0.0167372
827.359	0.0166372
827.437	0.0167783
827.515	0.0166522
827.593	0.0167139
827.671	0.0166746
827.749	0.0166318
827.828	0.0165807
827.906	0.0165229
827.984	0.0165173
828.062	0.0164494
828.140	0.0161752
828.218	0.0162059
828.296	0.0161887
828.374	0.0159891
828.453	0.0158972
828.531	0.0159548
828.609	0.0158897
828.687	0.0157452
828.765	0.0157512
828.843	0.0159232
828.921	0.0159254
828.999	0.0158386
829.078	0.0160490
829.156	0.0161924
829.234	0.0162993
829.312	0.0162302
829.390	0.0163430
829.468	0.0165594
829.546	0.0166859
829.624	0.0166440
829.703	0.0169484
829.781	0.0170591
829.859	0.0171468
829.937	0.0171395
830.015	0.0173324
830.093	0.0171855
830.171	0.0170927
830.249	0.0172144
830.328	0.0172559
830.406	0.0169797
830.484	0.0167886
830.562	0.0166678
830.640	0.0164642
830.718	0.0163224
830.796	0.0161998
830.874	0.0158160
830.953	0.0158184
831.031	0.0156442
831.109	0.0154884
831.187	0.0154148
831.265	0.0153522
831.343	0.0152892
831.421	0.0152666
831.499	0.0154098
831.578	0.0153219
831.656	0.0153477
831.734	0.0153701
831.812	0.0156025
831.890	0.0155756
831.968	0.0157143
832.046	0.0158064
832.124	0.0158891
832.203	0.0158823
832.281	0.0160566
832.359	0.0161649
832.437	0.0161716
832.515	0.0163216
832.593	0.0162202
832.671	0.0163753
832.749	0.0164070
832.828	0.0163029
832.906	0.0165563
832.984	0.0164748
833.062	0.0164559
833.140	0.0166040
833.218	0.0164717
833.296	0.0165704
833.374	0.0166788
833.453	0.0165441
833.531	0.0165520
833.609	0.0164249
833.687	0.0166215
833.765	0.0165795
833.843	0.0163757
833.921	0.0161866
833.999	0.0162745
834.078	0.0160497
834.156	0.0160213
834.234	0.0158910
834.312	0.0157153
834.390	0.0155520
834.468	0.0155382
834.546	0.0155016
834.624	0.0152528
834.703	0.0153398
834.781	0.0153545
834.859	0.0153666
834.937	0.0153895
835.015	0.0154715
835.093	0.0155697
835.171	0.0156600
835.249	0.0157631
835.328	0.0159833
835.406	0.0162193
835.484	0.0163576
835.562	0.0165620
835.640	0.0165546
835.718	0.0167814
835.796	0.0171136
835.874	0.0173058
835.953	0.0172247
836.031	0.0174928
836.109	0.0174564
836.187	0.0174788
836.265	0.0175178
836.343	0.0175484
836.421	0.0175082
836.499	0.0173922
836.578	0.0173721
836.656	0.0172103
836.734	0.0169069
836.812	0.0168864
836.890	0.0165650
836.968	0.0163223
837.046	0.0162052
837.124	0.0159315
837.203	0.0156219
837.281	0.0156290
837.359	0.0155701
837.437	0.0151343
837.515	0.0151291
837.593	0.0151849
837.671	0.0150462
837.749	0.0149711
837.828	0.0150838
837.906	0.0152273
837.984	0.0153493
838.062	0.0152696
838.140	0.0154385
838.218	0.0156567
838.296	0.0157976
838.374	0.0158115
838.453	0.0159259
838.531	0.0161405
838.609	0.0160960
838.687	0.0161272
838.765	0.0162964
838.843	0.0163075
838.921	0.0164469
838.999	0.0163506
839.078	0.0163987
839.156	0.0164269
839.234	0.0163437
839.312	0.0164141
839.390	0.0165351
839.468	0.0162975
839.546	0.0164331
839.624	0.0162514
839.703	0.0162869
839.781	0.0162205
839.859	0.0162882
839.937	0.0162870
840.015	0.0160526
840.093	0.0160801
840.171	0.0160770
840.249	0.0159466
840.328	0.0160760
840.406	0.0158082
840.484	0.0158185
840.562	0.0157743
840.640	0.0157559
840.718	0.0157813
840.796	0.0157163
840.874	0.0157353
840.953	0.0157659
841.031	0.0158075
841.109	0.0157941
841.187	0.0158627
841.265	0.0159215
841.343	0.0160107
841.421	0.0161292
841.499	0.0163000
841.578	0.0164409
841.656	0.0164825
841.734	0.0165617
841.812	0.0166899
841.890	0.0168372
841.968	0.0169488
842.046	0.0170924
842.124	0.0170378
842.203	0.0172549
842.281	0.0172556
842.359	0.0171722
842.437	0.0172318
842.515	0.0173074
842.593	0.0171162
842.671	0.0171181
842.749	0.0170663
842.828	0.0168847
842.906	0.0167287
842.984	0.0166711
843.062	0.0165174
843.140	0.0162173
843.218	0.0161771
843.296	0.0161089
843.374	0.0160341
843.453	0.0156702
843.531	0.0155221
843.609	0.0155927
843.687	0.0153194
843.765	0.0152276
843.843	0.0152807
843.921	0.0152602
843.999	0.0152525
844.078	0.0151273
844.156	0.0153190
844.234	0.0153860
844.312	0.0152320
844.390	0.0155019
844.468	0.0155893
844.546	0.0156590
844.624	0.0158972
844.703	0.0158861
844.781	0.0160013
844.859	0.0160694
844.937	0.0160277
845.015	0.0161778
845.093	0.0161745
845.171	0.0162518
845.249	0.0162836
845.328	0.0161276
845.406	0.0163962
845.484	0.0162899
845.562	0.0162527
845.640	0.0163401
845.718	0.0162527
845.796	0.0160937
845.874	0.0161649
845.953	0.0164235
846.031	0.0163108
846.109	0.0163473
846.187	0.0162962
846.265	0.0162823
846.343	0.0161060
846.421	0.0161819
846.499	0.0161193
846.578	0.0162243
846.656	0.0161852
846.734	0.0162430
846.812	0.0161348
846.890	0.0159840
846.968	0.0160918
847.046	0.0160337
847.124	0.0160689
847.203	0.0161610
847.281	0.0161996
847.359	0.0161871
847.437	0.0162392
847.515	0.0162539
847.593	0.0163266
847.671	0.0165070
847.749	0.0165176
847.828	0.0165450
847.906	0.0163202
847.984	0.0164258
848.062	0.0164984
848.140	0.0164945
848.218	0.0164449
848.296	0.0164320
848.374	0.0164178
848.453	0.0164597
848.531	0.0164317
848.609	0.0163833
848.687	0.0164981
848.765	0.0166105
848.843	0.0166001
848.921	0.0163225
848.999	0.0163723
849.078	0.0163828
849.156	0.0164246
849.234	0.0165498
849.312	0.0163811
849.390	0.0161906
849.468	0.0162763
849.546	0.0162425
849.624	0.0160656
849.703	0.0160123
849.781	0.0159673
849.859	0.0159084
849.937	0.0158379
850.015	0.0157108
850.093	0.0157365
850.171	0.0157712
850.249	0.0156918
850.328	0.0155783
850.406	0.0156750
850.484	0.0157095
850.562	0.0158170
850.640	0.0157828
850.718	0.0158223
850.796	0.0159366
850.874	0.0161084
850.953	0.0159920
851.031	0.0161111
851.109	0.0160620
851.187	0.0162012
851.265	0.0161321
851.343	0.0161667
851.421	0.0161824
851.499	0.0161713
851.578	0.0161549
851.656	0.0162677
851.734	0.0161359
851.812	0.0161048
851.890	0.0160159
851.968	0.0161242
852.046	0.0160913
852.124	0.0158549
852.203	0.0160106
852.281	0.0162790
852.359	0.0163840
852.437	0.0162752
852.515	0.0162257
852.593	0.0163116
852.671	0.0162667
852.749	0.0164160
852.828	0.0164071
852.906	0.0163503
852.984	0.0164072
853.062	0.0163873
853.140	0.0165410
853.218	0.0163253
853.296	0.0163548
853.374	0.0164355
853.453	0.0164001
853.531	0.0164188
853.609	0.0163279
853.687	0.0164018
853.765	0.0163834
853.843	0.0164065
853.921	0.0163283
853.999	0.0162997
854.078	0.0164046
854.156	0.0162685
854.234	0.0162506
854.312	0.0163749
854.390	0.0164488
854.468	0.0163654
854.546	0.0162067
854.624	0.0162753
854.703	0.0163422
854.781	0.0161639
854.859	0.0162481
854.937	0.0161989
855.015	0.0162434
855.093	0.0162151
855.171	0.0161819
855.249	0.0163073
855.328	0.0160324
855.406	0.0161391
855.484	0.0160752
855.562	0.0161102
855.640	0.0160043
855.718	0.0158640
855.796	0.0160348
855.874	0.0159657
855.953	0.0159052
856.031	0.0159631
856.109	0.0159321
856.187	0.0159737
856.265	0.0159628
856.343	0.0160732
856.421	0.0159708
856.499	0.0160867
856.578	0.0161683
856.656	0.0161351
856.734	0.0161884
856.812	0.0163044
856.890	0.0162704
856.968	0.0163826
857.046	0.0161955
857.124	0.0164226
857.203	0.0161664
857.281	0.0161565
857.359	0.0161726
857.437	0.0160831
857.515	0.0161702
857.593	0.0161690
857.671	0.0161992
857.749	0.0160236
857.828	0.0163007
857.906	0.0161291
857.984	0.0161041
858.062	0.0160941
858.140	0.0161588
858.218	0.0161306
858.296	0.0161871
858.374	0.0161185
858.453	0.0162144
858.531	0.0162606
858.609	0.0163221
858.687	0.0162891
858.765	0.0162891
858.843	0.0161664
858.921	0.0162804
858.999	0.0162287
859.078	0.0163257
859.156	0.0163811
859.234	0.0163007
859.312	0.0161790
859.390	0.0164295
859.468	0.0162952
859.546	0.0162816
859.624	0.0162897
859.703	0.0162116
859.781	0.0161272
859.859	0.0162165
859.937	0.0162744
860.015	0.0161604
860.093	0.0161255
860.171	0.0164700
860.249	0.0162601
860.328	0.0161585
860.406	0.0162086
860.484	0.0162893
860.562	0.0162387
860.640	0.0160916
860.718	0.0161194
860.796	0.0164124
860.874	0.0162755
860.953	0.0163150
861.031	0.0162685
861.109	0.0162125
861.187	0.0162215
861.265	0.0162318
861.343	0.0161873
861.421	0.0161007
861.499	0.0160780
861.578	0.0161303
861.656	0.0160438
861.734	0.0162311
861.812	0.0162645
861.890	0.0159995
861.968	0.0160181
862.046	0.0161046
862.124	0.0161584
862.203	0.0160753
862.281	0.0160937
862.359	0.0162299
862.437	0.0161787
862.515	0.0161539
862.593	0.0161996
862.671	0.0163660
862.749	0.0162231
862.828	0.0162582
862.906	0.0161945
862.984	0.0163026
863.062	0.0162862
863.140	0.0160973
863.218	0.0161852
863.296	0.0162002
863.374	0.0159837
863.453	0.0160061
863.531	0.0160905
863.609	0.0159688
863.687	0.0160749
863.765	0.0159325
863.843	0.0159270
863.921	0.0158806
863.999	0.0159235
864.078	0.0160277
864.156	0.0158589
864.234	0.0159921
864.312	0.0159622
864.390	0.0159688
864.468	0.0160036
864.546	0.0161996
864.624	0.0161939
864.703	0.0161338
864.781	0.0162382
864.859	0.0162785
864.937	0.0164204
865.015	0.0163425
865.093	0.0163827
865.171	0.0164558
865.249	0.0165237
865.328	0.0166428
865.406	0.0166573
865.484	0.0166200
865.562	0.0164838
865.640	0.0165765
865.718	0.0165903
865.796	0.0164779
865.874	0.0165968
865.953	0.0163567
866.031	0.0163921
866.109	0.0162222
866.187	0.0163858
866.265	0.0163239
866.343	0.0162569
866.421	0.0161945
866.499	0.0159893
866.578	0.0160174
866.656	0.0159724
866.734	0.0158160
866.812	0.0158434
866.890	0.0157475
866.968	0.0157426
867.046	0.0158826
867.124	0.0159293
867.203	0.0158352
867.281	0.0158971
867.359	0.0158536
867.437	0.0159526
867.515	0.0158436
867.593	0.0158910
867.671	0.0161092
867.749	0.0159985
867.828	0.0160677
867.906	0.0160498
867.984	0.0161348
868.062	0.0162425
868.140	0.0160886
868.218	0.0161973
868.296	0.0162595
868.374	0.0161753
868.453	0.0161273
868.531	0.0164063
868.609	0.0162305
868.687	0.0163425
868.765	0.0164634
868.843	0.0164553
868.921	0.0165041
868.999	0.0165797
869.078	0.0165874
869.156	0.0165364
869.234	0.0165344
869.312	0.0165697
869.390	0.0164236
869.468	0.0164886
869.546	0.0164738
869.624	0.0162637
869.703	0.0163133
869.781	0.0164170
869.859	0.0163560
869.937	0.0162531
870.015	0.0161269
870.093	0.0161592
870.171	0.0160016
870.249	0.0159837
870.328	0.0158796
870.406	0.0159451
870.484	0.0159315
870.562	0.0159868
870.640	0.0159008
870.718	0.0158948
870.796	0.0159108
870.874	0.0158758
870.953	0.0160255
871.031	0.0160375
871.109	0.0159473
871.187	0.0160828
871.265	0.0162498
871.343	0.0161427
871.421	0.0161393
871.499	0.0164945
871.578	0.0164201
871.656	0.0163598
871.734	0.0164151
871.812	0.0164763
871.890	0.0165661
871.968	0.0164429
872.046	0.0164654
872.124	0.0163882
872.203	0.0164867
872.281	0.0163927
872.359	0.0164332
872.437	0.0161497
872.515	0.0161355
872.593	0.0162270
872.671	0.0162333
872.749	0.0161404
872.828	0.0158482
872.906	0.0159430
872.984	0.0161196
873.062	0.0159491
873.140	0.0159814
873.218	0.0161485
873.296	0.0161130
873.374	0.0161634
873.453	0.0160992
873.531	0.0163299
873.609	0.0163007
873.687	0.0162170
873.765	0.0163368
873.843	0.0162624
873.921	0.0163770
873.999	0.0163503
874.078	0.0162769
874.156	0.0162543
874.234	0.0162254
874.312	0.0161371
874.390	0.0161793
874.468	0.0161598
874.546	0.0160770
874.624	0.0161375
874.703	0.0160693
874.781	0.0160830
874.859	0.0160777
874.937	0.0162728
875.015	0.0163984
875.093	0.0163573
875.171	0.0163873
875.249	0.0163873
875.328	0.0164429
875.406	0.0163805
875.484	0.0163898
875.562	0.0166253
875.640	0.0166837
875.718	0.0165384
875.796	0.0164867
875.874	0.0164095
875.953	0.0163293
876.031	0.0162505
876.109	0.0161887
876.187	0.0162034
876.265	0.0162023
876.343	0.0161290
876.421	0.0159412
876.499	0.0160487
876.578	0.0157922
876.656	0.0156779
876.734	0.0158904
876.812	0.0160323
876.890	0.0159907
876.968	0.0158727
877.046	0.0160088
877.124	0.0159673
877.203	0.0159643
877.281	0.0160953
877.359	0.0161887
877.437	0.0161914
877.515	0.0163783
877.593	0.0163253
877.671	0.0162901
877.749	0.0163965
877.828	0.0164114
877.906	0.0165168
877.984	0.0166433
878.062	0.0165397
878.140	0.0165334
878.218	0.0166302
878.296	0.0165680
878.374	0.0165343
878.453	0.0164223
878.531	0.0163010
878.609	0.0162241
878.687	0.0162281
878.765	0.0161237
878.843	0.0161336
878.921	0.0160708
878.999	0.0159193
879.078	0.0158899
879.156	0.0159391
879.234	0.0160032
879.312	0.0160294
879.390	0.0160909
879.468	0.0161279
879.546	0.0161388
879.624	0.0162691
879.703	0.0162547
879.781	0.0163600
879.859	0.0163336
879.937	0.0162338
880.015	0.0163741
880.093	0.0164511
880.171	0.0163640
880.249	0.0162910
880.328	0.0162701
880.406	0.0162040
880.484	0.0162721
880.562	0.0161403
880.640	0.0161879
880.718	0.0160935
880.796	0.0160513
880.874	0.0160480
880.953	0.0160548
881.031	0.0161018
881.109	0.0160204
881.187	0.0161987
881.265	0.0163024
881.343	0.0161761
881.421	0.0162005
881.499	0.0163276
881.578	0.0162786
881.656	0.0163290
881.734	0.0162938
881.812	0.0163528
881.890	0.0163334
881.968	0.0162853
882.046	0.0164831
882.124	0.0163132
882.203	0.0161070
882.281	0.0161533
882.359	0.0160692
882.437	0.0159423
882.515	0.0156825
882.593	0.0158666
882.671	0.0158202
882.749	0.0156654
882.828	0.0155376
882.906	0.0154890
882.984	0.0156807
883.062	0.0155876
883.140	0.0156348
883.218	0.0155672
883.296	0.0156536
883.374	0.0157156
883.453	0.0157037
883.531	0.0159551
883.609	0.0159436
883.687	0.0160623
883.765	0.0160475
883.843	0.0163169
883.921	0.0164381
883.999	0.0166685
884.078	0.0166615
884.156	0.0167202
884.234	0.0166827
884.312	0.0169724
884.390	0.0168978
884.468	0.0169202
884.546	0.0167802
884.624	0.0168346
884.703	0.0168973
884.781	0.0168190
884.859	0.0166888
884.937	0.0165989
885.015	0.0165651
885.093	0.0163178
885.171	0.0164431
885.249	0.0162120
885.328	0.0161932
885.406	0.0161173
885.484	0.0160960
885.562	0.0160449
885.640	0.0160424
885.718	0.0159982
885.796	0.0159225
885.874	0.0161463
885.953	0.0160754
886.031	0.0161887
886.109	0.0161987
886.187	0.0159974
886.265	0.0160677
886.343	0.0159983
886.421	0.0160674
886.499	0.0160813
886.578	0.0161667
886.656	0.0160063
886.734	0.0159497
886.812	0.0159465
886.890	0.0159875
886.968	0.0159968
887.046	0.0159832
887.124	0.0157910
887.203	0.0160608
887.281	0.0159600
887.359	0.0159391
887.437	0.0159392
887.515	0.0160280
887.593	0.0160185
887.671	0.0161982
887.749	0.0162631
887.828	0.0162576
887.906	0.0162050
887.984	0.0162240
888.062	0.0161911
888.140	0.0163829
888.218	0.0163219
888.296	0.0160813
888.374	0.0161559
888.453	0.0161011
888.531	0.0159921
888.609	0.0158623
888.687	0.0157248
888.765	0.0156579
888.843	0.0157231
888.921	0.0157510
888.999	0.0156367
889.078	0.0154327
889.156	0.0155486
889.234	0.0154713
889.312	0.0155384
889.390	0.0156659
889.468	0.0159225
889.546	0.0159070
889.624	0.0160194
889.703	0.0160014
889.781	0.0161202
889.859	0.0164388
889.937	0.0165896
890.015	0.0166694
890.093	0.0166055
890.171	0.0168079
890.249	0.0169845
890.328	0.0170655
890.406	0.0171384
890.484	0.0171198
890.562	0.0171164
890.640	0.0171310
890.718	0.0170635
890.796	0.0169909
890.874	0.0170470
890.953	0.0168044
891.031	0.0166848
891.109	0.0165128
891.187	0.0164419
891.265	0.0163977
891.343	0.0161930
891.421	0.0161756
891.499	0.0160421
891.578	0.0159045
891.656	0.0159539
891.734	0.0158791
891.812	0.0157724
891.890	0.0158646
891.968	0.0160920
892.046	0.0159448
892.124	0.0158120
892.203	0.0158997
892.281	0.0159931
892.359	0.0160424
892.437	0.0160249
892.515	0.0160388
892.593	0.0161491
892.671	0.0160927
892.749	0.0159948
892.828	0.0160725
892.906	0.0161287
892.984	0.0159509
893.062	0.0159988
893.140	0.0161134
893.218	0.0160950
893.296	0.0160514
893.374	0.0159565
893.453	0.0161372
893.531	0.0160069
893.609	0.0159586
893.687	0.0160361
893.765	0.0161060
893.843	0.0160756
893.921	0.0160845
893.999	0.0161121
894.078	0.0160015
894.156	0.0159399
894.234	0.0159908
894.312	0.0161969
894.390	0.0161543
894.468	0.0162549
894.546	0.0161933
894.624	0.0161716
894.703	0.0160273
894.781	0.0161089
894.859	0.0159638
894.937	0.0159665
895.015	0.0159954
895.093	0.0159383
895.171	0.0159879
895.249	0.0158624
895.328	0.0157349
895.406	0.0158168
895.484	0.0157957
895.562	0.0158244
895.640	0.0158381
895.718	0.0158583
895.796	0.0159537
895.874	0.0159822
895.953	0.0159731
896.031	0.0162192
896.109	0.0163934
896.187	0.0165035
896.265	0.0166702
896.343	0.0166788
896.421	0.0169033
896.499	0.0170843
896.578	0.0171463
896.656	0.0171896
896.734	0.0172260
896.812	0.0172478
896.890	0.0170900
896.968	0.0170668
897.046	0.0171703
897.124	0.0172084
897.203	0.0169882
897.281	0.0168563
897.359	0.0166843
897.437	0.0165452
897.515	0.0163282
897.593	0.0163723
897.671	0.0162254
897.749	0.0159944
897.828	0.0159857
897.906	0.0160054
897.984	0.0159401
898.062	0.0157783
898.140	0.0156878
898.218	0.0157391
898.296	0.0157664
898.374	0.0158369
898.453	0.0158172
898.531	0.0158923
898.609	0.0156545
898.687	0.0159199
898.765	0.0158490
898.843	0.0158268
898.921	0.0158567
898.999	0.0159074
899.078	0.0159057
899.156	0.0158879
899.234	0.0159705
899.312	0.0159319
899.390	0.0158441
899.468	0.0158464
899.546	0.0158679
899.624	0.0158188
899.703	0.0160921
899.781	0.0157183
899.859	0.0157404
899.937	0.0160764
900.015	0.0159133
900.093	0.0159368
900.171	0.0160321
900.249	0.0159705
900.328	0.0160567
900.406	0.0161852
900.484	0.0162743
900.562	0.0163000
900.640	0.0163533
900.718	0.0163914
900.796	0.0162370
900.874	0.0162421
900.953	0.0162975
901.031	0.0162792
901.109	0.0161868
901.187	0.0162456
901.265	0.0161887
901.343	0.0162026
901.421	0.0160648
901.499	0.0161334
901.578	0.0160952
901.656	0.0158892
901.734	0.0159639
901.812	0.0159449
901.890	0.0160596
901.968	0.0159953
902.046	0.0159846
902.124	0.0161248
902.203	0.0159916
902.281	0.0162143
902.359	0.0163399
902.437	0.0164909
902.515	0.0167519
902.593	0.0167502
902.671	0.0167796
902.749	0.0168853
902.828	0.0169683
902.906	0.0170213
902.984	0.0170341
903.062	0.0169196
903.140	0.0171412
903.218	0.0169766
903.296	0.0169058
903.374	0.0169244
903.453	0.0166957
903.531	0.0166075
903.609	0.0165238
903.687	0.0164262
903.765	0.0164060
903.843	0.0160789
903.921	0.0159518
903.999	0.0158887
904.078	0.0158112
904.156	0.0158657
904.234	0.0156978
904.312	0.0155896
904.390	0.0156019
904.468	0.0156656
904.546	0.0155897
904.624	0.0156105
904.703	0.0154925
904.781	0.0154763
904.859	0.0154722
904.937	0.0155410
905.015	0.0157588
905.093	0.0156533
905.171	0.0156757
905.249	0.0157001
905.328	0.0157240
905.406	0.0157607
905.484	0.0158205
905.562	0.0159161
905.640	0.0158252
905.718	0.0160117
905.796	0.0160552
905.874	0.0161246
905.953	0.0161103
906.031	0.0161279
906.109	0.0162153
906.187	0.0162426
906.265	0.0162495
906.343	0.0163741
906.421	0.0164120
906.499	0.0163427
906.578	0.0164279
906.656	0.0166188
906.734	0.0165794
906.812	0.0166074
906.890	0.0165092
906.968	0.0165659
907.046	0.0166071
907.124	0.0164258
907.203	0.0164822
907.281	0.0163937
907.359	0.0163322
907.437	0.0164073
907.515	0.0161281
907.593	0.0162459
907.671	0.0161191
907.749	0.0161516
907.828	0.0159967
907.906	0.0160309
907.984	0.0160403
908.062	0.0159094
908.140	0.0159048
908.218	0.0160352
908.296	0.0159351
908.374	0.0159470
908.453	0.0160991
908.531	0.0161745
908.609	0.0159579
908.687	0.0161906
908.765	0.0161639
908.843	0.0163287
908.921	0.0162251
908.999	0.0163982
909.078	0.0164891
909.156	0.0163915
909.234	0.0166474
909.312	0.0165313
909.390	0.0165561
909.468	0.0165829
909.546	0.0166307
909.624	0.0166042
909.703	0.0165495
909.781	0.0163002
909.859	0.0163153
909.937	0.0163550
910.015	0.0162837
910.093	0.0161372
910.171	0.0161263
910.249	0.0160862
910.328	0.0160492
910.406	0.0159695
910.484	0.0158314
910.562	0.0156846
910.640	0.0158598
910.718	0.0156050
910.796	0.0156226
910.874	0.0156770
910.953	0.0156513
911.031	0.0156908
911.109	0.0157269
911.187	0.0156066
911.265	0.0157839
911.343	0.0156502
911.421	0.0157390
911.499	0.0156897
911.578	0.0156496
911.656	0.0159634
911.734	0.0158540
911.812	0.0158295
911.890	0.0158749
911.968	0.0159596
912.046	0.0160320
912.124	0.0161646
912.203	0.0161404
912.281	0.0160994
912.359	0.0162166
912.437	0.0162236
912.515	0.0162509
912.593	0.0162704
912.671	0.0164333
912.749	0.0163645
912.828	0.0164380
912.906	0.0164214
912.984	0.0164381
913.062	0.0164730
913.140	0.0163980
913.218	0.0165541
913.296	0.0165517
913.374	0.0163381
913.453	0.0163276
913.531	0.0163069
913.609	0.0164191
913.687	0.0163045
913.765	0.0162265
913.843	0.0162904
913.921	0.0160908
913.999	0.0160928
914.078	0.0162745
914.156	0.0161077
914.234	0.0160990
914.312	0.0161645
914.390	0.0161831
914.468	0.0160880
914.546	0.0159895
914.624	0.0162280
914.703	0.0163361
914.781	0.0161747
914.859	0.0162665
914.937	0.0162496
915.015	0.0163172
915.093	0.0163147
915.171	0.0162116
915.249	0.0163592
915.328	0.0163136
915.406	0.0163866
915.484	0.0163937
915.562	0.0164252
915.640	0.0165046
915.718	0.0167085
915.796	0.0165109
915.874	0.0166542
915.953	0.0163986
916.031	0.0164263
916.109	0.0165038
916.187	0.0164579
916.265	0.0163695
916.343	0.0163016
916.421	0.0161686
916.499	0.0161267
916.578	0.0161195
916.656	0.0159643
916.734	0.0158888
916.812	0.0159921
916.890	0.0158865
916.968	0.0157236
917.046	0.0159083
917.124	0.0158612
917.203	0.0157111
917.281	0.0157806
917.359	0.0158913
917.437	0.0158087
917.515	0.0158057
917.593	0.0158624
917.671	0.0160122
917.749	0.0158142
917.828	0.0159919
917.906	0.0160448
917.984	0.0158636
918.062	0.0160350
918.140	0.0159949
918.218	0.0160095
918.296	0.0160672
918.374	0.0162831
918.453	0.0162039
918.531	0.0162247
918.609	0.0161748
918.687	0.0163019
918.765	0.0162740
918.843	0.0164179
918.921	0.0163025
918.999	0.0164214
919.078	0.0164321
919.156	0.0164204
919.234	0.0164020
919.312	0.0165015
919.390	0.0164518
919.468	0.0163368
919.546	0.0163316
919.624	0.0163413
919.703	0.0164621
919.781	0.0164252
919.859	0.0165296
919.937	0.0163703
