06/10/2022	18:46:40	Ver.	4.1	UNKNOWN
Optical Delay	600.015094	Delta X		0.078125	Sweeps	1	Scan Rate	0/0
Coordinates	Axis 1	NaN	Axis 2	NaN	Axis 3	NaN	Axis 4	NaN	Axis 5	NaN	Axis 6	0.000000
TX Power	0.000000	RX Power	0.000000

600.015	0.0158686
600.093	0.0159303
600.171	0.0157815
600.249	0.0157494
600.328	0.0157785
600.406	0.0158311
600.484	0.0160339
600.562	0.0158593
600.640	0.0160441
600.718	0.0158223
600.796	0.0158217
600.874	0.0158032
600.953	0.0158597
601.031	0.0157488
601.109	0.0158628
601.187	0.0158621
601.265	0.0159010
601.343	0.0158978
601.421	0.0158221
601.499	0.0158401
601.578	0.0159811
601.656	0.0158466
601.734	0.0158350
601.812	0.0158795
601.890	0.0159763
601.968	0.0158157
602.046	0.0159288
602.124	0.0158665
602.203	0.0157526
602.281	0.0158142
602.359	0.0158553
602.437	0.0158433
602.515	0.0158710
602.593	0.0159350
602.671	0.0159029
602.749	0.0160872
602.828	0.0158165
602.906	0.0159305
602.984	0.0158525
603.062	0.0157581
603.140	0.0158894
603.218	0.0158032
603.296	0.0158209
603.374	0.0158490
603.453	0.0158528
603.531	0.0159068
603.609	0.0158371
603.687	0.0159020
603.765	0.0158564
603.843	0.0158299
603.921	0.0157915
603.999	0.0158128
604.078	0.0158755
604.156	0.0158314
604.234	0.0159837
604.312	0.0157555
604.390	0.0157822
604.468	0.0159779
604.546	0.0158665
604.624	0.0159626
604.703	0.0158479
604.781	0.0158912
604.859	0.0159782
604.937	0.0158993
605.015	0.0159383
605.093	0.0159048
605.171	0.0158677
605.249	0.0158738
605.328	0.0158698
605.406	0.0158856
605.484	0.0158602
605.562	0.0158682
605.640	0.0159655
605.718	0.0158765
605.796	0.0158317
605.874	0.0157683
605.953	0.0159770
606.031	0.0158489
606.109	0.0159120
606.187	0.0158747
606.265	0.0159422
606.343	0.0158868
606.421	0.0159496
606.499	0.0159847
606.578	0.0158094
606.656	0.0160033
606.734	0.0159886
606.812	0.0158099
606.890	0.0159639
606.968	0.0159527
607.046	0.0160807
607.124	0.0159970
607.203	0.0159881
607.281	0.0159471
607.359	0.0159693
607.437	0.0159000
607.515	0.0158380
607.593	0.0158999
607.671	0.0161637
607.749	0.0158081
607.828	0.0159466
607.906	0.0157636
607.984	0.0159708
608.062	0.0158940
608.140	0.0158677
608.218	0.0159195
608.296	0.0159201
608.374	0.0158382
608.453	0.0159028
608.531	0.0159480
608.609	0.0158087
608.687	0.0159493
608.765	0.0158512
608.843	0.0157783
608.921	0.0158866
608.999	0.0158731
609.078	0.0158392
609.156	0.0158276
609.234	0.0159676
609.312	0.0158528
609.390	0.0158473
609.468	0.0157882
609.546	0.0159018
609.624	0.0159624
609.703	0.0158591
609.781	0.0156911
609.859	0.0159586
609.937	0.0159387
610.015	0.0158667
610.093	0.0158969
610.171	0.0158342
610.249	0.0158165
610.328	0.0159674
610.406	0.0157052
610.484	0.0158734
610.562	0.0161549
610.640	0.0159584
610.718	0.0160131
610.796	0.0158667
610.874	0.0159338
610.953	0.0158731
611.031	0.0158572
611.109	0.0159481
611.187	0.0157299
611.265	0.0158459
611.343	0.0159366
611.421	0.0159222
611.499	0.0159699
611.578	0.0159528
611.656	0.0159239
611.734	0.0160222
611.812	0.0159415
611.890	0.0160134
611.968	0.0159555
612.046	0.0158701
612.124	0.0159924
612.203	0.0159953
612.281	0.0158274
612.359	0.0159256
612.437	0.0159644
612.515	0.0158929
612.593	0.0159629
612.671	0.0158839
612.749	0.0158690
612.828	0.0159072
612.906	0.0159451
612.984	0.0159195
613.062	0.0158063
613.140	0.0160297
613.218	0.0159586
613.296	0.0159632
613.374	0.0157977
613.453	0.0159409
613.531	0.0158258
613.609	0.0159277
613.687	0.0159809
613.765	0.0157726
613.843	0.0158869
613.921	0.0159134
613.999	0.0157811
614.078	0.0159561
614.156	0.0158916
614.234	0.0157915
614.312	0.0160290
614.390	0.0158981
614.468	0.0160315
614.546	0.0158343
614.624	0.0158758
614.703	0.0159929
614.781	0.0159492
614.859	0.0158566
614.937	0.0158751
615.015	0.0159160
615.093	0.0159496
615.171	0.0158408
615.249	0.0157714
615.328	0.0159538
615.406	0.0160096
615.484	0.0157861
615.562	0.0158687
615.640	0.0158058
615.718	0.0158348
615.796	0.0159297
615.874	0.0159231
615.953	0.0158247
616.031	0.0158310
616.109	0.0158994
616.187	0.0158407
616.265	0.0158073
616.343	0.0159648
616.421	0.0158874
616.499	0.0158437
616.578	0.0159302
616.656	0.0158878
616.734	0.0158604
616.812	0.0158477
616.890	0.0159118
616.968	0.0158559
617.046	0.0158315
617.124	0.0158210
617.203	0.0158501
617.281	0.0158166
617.359	0.0159841
617.437	0.0159019
617.515	0.0158781
617.593	0.0159151
617.671	0.0158517
617.749	0.0158133
617.828	0.0157973
617.906	0.0160110
617.984	0.0158837
618.062	0.0156973
618.140	0.0159148
618.218	0.0158359
618.296	0.0158509
618.374	0.0157587
618.453	0.0157568
618.531	0.0158231
618.609	0.0158724
618.687	0.0159158
618.765	0.0158587
618.843	0.0158325
618.921	0.0159004
618.999	0.0159142
619.078	0.0157465
619.156	0.0158274
619.234	0.0159989
619.312	0.0159134
619.390	0.0159417
619.468	0.0158753
619.546	0.0158424
619.624	0.0159653
619.703	0.0159689
619.781	0.0157096
619.859	0.0157912
619.937	0.0158118
620.015	0.0158025
620.093	0.0158275
620.171	0.0159252
620.249	0.0158789
620.328	0.0158053
620.406	0.0157333
620.484	0.0158438
620.562	0.0158282
620.640	0.0159774
620.718	0.0158899
620.796	0.0158731
620.874	0.0158434
620.953	0.0157464
621.031	0.0159184
621.109	0.0159636
621.187	0.0158829
621.265	0.0157784
621.343	0.0157207
621.421	0.0158512
621.499	0.0158622
621.578	0.0159184
621.656	0.0158712
621.734	0.0157521
621.812	0.0159069
621.890	0.0157858
621.968	0.0158736
622.046	0.0159778
622.124	0.0159139
622.203	0.0159106
622.281	0.0158587
622.359	0.0158546
622.437	0.0156927
622.515	0.0157637
622.593	0.0158571
622.671	0.0158689
622.749	0.0159490
622.828	0.0159445
622.906	0.0156119
622.984	0.0159412
623.062	0.0158700
623.140	0.0158134
623.218	0.0157520
623.296	0.0157159
623.374	0.0157382
623.453	0.0157465
623.531	0.0157910
623.609	0.0157291
623.687	0.0157270
623.765	0.0158202
623.843	0.0159209
623.921	0.0158681
623.999	0.0157804
624.078	0.0158922
624.156	0.0157844
624.234	0.0157354
624.312	0.0159489
624.390	0.0158258
624.468	0.0157711
624.546	0.0158469
624.624	0.0158682
624.703	0.0158637
624.781	0.0157753
624.859	0.0158450
624.937	0.0160270
625.015	0.0159780
625.093	0.0160168
625.171	0.0158334
625.249	0.0158374
625.328	0.0156197
625.406	0.0159161
625.484	0.0158392
625.562	0.0160251
625.640	0.0158500
625.718	0.0158418
625.796	0.0157863
625.874	0.0158324
625.953	0.0159643
626.031	0.0159858
626.109	0.0159926
626.187	0.0158179
626.265	0.0158141
626.343	0.0161033
626.421	0.0158569
626.499	0.0158609
626.578	0.0159685
626.656	0.0160703
626.734	0.0160359
626.812	0.0159754
626.890	0.0159756
626.968	0.0159919
627.046	0.0159064
627.124	0.0160108
627.203	0.0161367
627.281	0.0159176
627.359	0.0159760
627.437	0.0159247
627.515	0.0158674
627.593	0.0160132
627.671	0.0160585
627.749	0.0160593
627.828	0.0159402
627.906	0.0160030
627.984	0.0159003
628.062	0.0159627
628.140	0.0160557
628.218	0.0158797
628.296	0.0159507
628.374	0.0161030
628.453	0.0159802
628.531	0.0159508
628.609	0.0159637
628.687	0.0159705
628.765	0.0159985
628.843	0.0160802
628.921	0.0160993
628.999	0.0160454
629.078	0.0159708
629.156	0.0161237
629.234	0.0159940
629.312	0.0159373
629.390	0.0159097
629.468	0.0160603
629.546	0.0159636
629.624	0.0160584
629.703	0.0158986
629.781	0.0160660
629.859	0.0159660
629.937	0.0160322
630.015	0.0159703
630.093	0.0159882
630.171	0.0159616
630.249	0.0159353
630.328	0.0158260
630.406	0.0158791
630.484	0.0159487
630.562	0.0159444
630.640	0.0159541
630.718	0.0159041
630.796	0.0159087
630.874	0.0159560
630.953	0.0160713
631.031	0.0158907
631.109	0.0159448
631.187	0.0158204
631.265	0.0158638
631.343	0.0158666
631.421	0.0160381
631.499	0.0159426
631.578	0.0158208
631.656	0.0158367
631.734	0.0159646
631.812	0.0159436
631.890	0.0158791
631.968	0.0159887
632.046	0.0159031
632.124	0.0159554
632.203	0.0158763
632.281	0.0159459
632.359	0.0159158
632.437	0.0158340
632.515	0.0159213
632.593	0.0160046
632.671	0.0159583
632.749	0.0158900
632.828	0.0159209
632.906	0.0159509
632.984	0.0160284
633.062	0.0158011
633.140	0.0158743
633.218	0.0159040
633.296	0.0160184
633.374	0.0158210
633.453	0.0159089
633.531	0.0159612
633.609	0.0159431
633.687	0.0159709
633.765	0.0159463
633.843	0.0158617
633.921	0.0159295
633.999	0.0160364
634.078	0.0159192
634.156	0.0159961
634.234	0.0160371
634.312	0.0159207
634.390	0.0159705
634.468	0.0159437
634.546	0.0159733
634.624	0.0159551
634.703	0.0158554
634.781	0.0159888
634.859	0.0159273
634.937	0.0159765
635.015	0.0158892
635.093	0.0158481
635.171	0.0159965
635.249	0.0159031
635.328	0.0157922
635.406	0.0160856
635.484	0.0160895
635.562	0.0158145
635.640	0.0158719
635.718	0.0160455
635.796	0.0158513
635.874	0.0157550
635.953	0.0160207
636.031	0.0158652
636.109	0.0158812
636.187	0.0159715
636.265	0.0159854
636.343	0.0158411
636.421	0.0158727
636.499	0.0159606
636.578	0.0158553
636.656	0.0158478
636.734	0.0159884
636.812	0.0159380
636.890	0.0158511
636.968	0.0159235
637.046	0.0159882
637.124	0.0160453
637.203	0.0159004
637.281	0.0157658
637.359	0.0158149
637.437	0.0157631
637.515	0.0158633
637.593	0.0159164
637.671	0.0159010
637.749	0.0158833
637.828	0.0158353
637.906	0.0159159
637.984	0.0157673
638.062	0.0157827
638.140	0.0159310
638.218	0.0158994
638.296	0.0158372
638.374	0.0159045
638.453	0.0159261
638.531	0.0159174
638.609	0.0158028
638.687	0.0158006
638.765	0.0159297
638.843	0.0157992
638.921	0.0158275
638.999	0.0158088
639.078	0.0157394
639.156	0.0158585
639.234	0.0158798
639.312	0.0158614
639.390	0.0157492
639.468	0.0158262
639.546	0.0157458
639.624	0.0157612
639.703	0.0159283
639.781	0.0157402
639.859	0.0157181
639.937	0.0157761
640.015	0.0158532
640.093	0.0159138
640.171	0.0157556
640.249	0.0158053
640.328	0.0158607
640.406	0.0157111
640.484	0.0156993
640.562	0.0158768
640.640	0.0158497
640.718	0.0157039
640.796	0.0158002
640.874	0.0158585
640.953	0.0158762
641.031	0.0158569
641.109	0.0158694
641.187	0.0158270
641.265	0.0158303
641.343	0.0159007
641.421	0.0157450
641.499	0.0157879
641.578	0.0157494
641.656	0.0157781
641.734	0.0157558
641.812	0.0158331
641.890	0.0158910
641.968	0.0158967
642.046	0.0158002
642.124	0.0158053
642.203	0.0159209
642.281	0.0156598
642.359	0.0158076
642.437	0.0158878
642.515	0.0157874
642.593	0.0157635
642.671	0.0158439
642.749	0.0158295
642.828	0.0157761
642.906	0.0157675
642.984	0.0158263
643.062	0.0158041
643.140	0.0159428
643.218	0.0157430
643.296	0.0158984
643.374	0.0159100
643.453	0.0158932
643.531	0.0159337
643.609	0.0157706
643.687	0.0160067
643.765	0.0159077
643.843	0.0157928
643.921	0.0157824
643.999	0.0159174
644.078	0.0158464
644.156	0.0158170
644.234	0.0158319
644.312	0.0158645
644.390	0.0159235
644.468	0.0158411
644.546	0.0156946
644.624	0.0157447
644.703	0.0158098
644.781	0.0158615
644.859	0.0157941
644.937	0.0158671
645.015	0.0157789
645.093	0.0159711
645.171	0.0159185
645.249	0.0158905
645.328	0.0158202
645.406	0.0158215
645.484	0.0158842
645.562	0.0158384
645.640	0.0158474
645.718	0.0156924
645.796	0.0157882
645.874	0.0157925
645.953	0.0158195
646.031	0.0158455
646.109	0.0157894
646.187	0.0158007
646.265	0.0157265
646.343	0.0158967
646.421	0.0159480
646.499	0.0158125
646.578	0.0160062
646.656	0.0158822
646.734	0.0157676
646.812	0.0157699
646.890	0.0160516
646.968	0.0158749
647.046	0.0157879
647.124	0.0159748
647.203	0.0158855
647.281	0.0158772
647.359	0.0158806
647.437	0.0159890
647.515	0.0158832
647.593	0.0159017
647.671	0.0158990
647.749	0.0159373
647.828	0.0160349
647.906	0.0157592
647.984	0.0158388
648.062	0.0158863
648.140	0.0158943
648.218	0.0159206
648.296	0.0159653
648.374	0.0159357
648.453	0.0159550
648.531	0.0159386
648.609	0.0160038
648.687	0.0159772
648.765	0.0158319
648.843	0.0158187
648.921	0.0158627
648.999	0.0159745
649.078	0.0158744
649.156	0.0159193
649.234	0.0159652
649.312	0.0158154
649.390	0.0159305
649.468	0.0159224
649.546	0.0160466
649.624	0.0160921
649.703	0.0158506
649.781	0.0158087
649.859	0.0159797
649.937	0.0160203
650.015	0.0159860
650.093	0.0158919
650.171	0.0157986
650.249	0.0160388
650.328	0.0159972
650.406	0.0159821
650.484	0.0159721
650.562	0.0158237
650.640	0.0159933
650.718	0.0159201
650.796	0.0160078
650.874	0.0160938
650.953	0.0158915
651.031	0.0159188
651.109	0.0159338
651.187	0.0157526
651.265	0.0158083
651.343	0.0159192
651.421	0.0156888
651.499	0.0158820
651.578	0.0159447
651.656	0.0160103
651.734	0.0159081
651.812	0.0160946
651.890	0.0159319
651.968	0.0159544
652.046	0.0158929
652.124	0.0158440
652.203	0.0157536
652.281	0.0159063
652.359	0.0159339
652.437	0.0158448
652.515	0.0157150
652.593	0.0159676
652.671	0.0159547
652.749	0.0159863
652.828	0.0159486
652.906	0.0158573
652.984	0.0159011
653.062	0.0159058
653.140	0.0156892
653.218	0.0159188
653.296	0.0159791
653.374	0.0158987
653.453	0.0158474
653.531	0.0160948
653.609	0.0159029
653.687	0.0157285
653.765	0.0158182
653.843	0.0158825
653.921	0.0158089
653.999	0.0157991
654.078	0.0160265
654.156	0.0157978
654.234	0.0158215
654.312	0.0158962
654.390	0.0159511
654.468	0.0159423
654.546	0.0159236
654.624	0.0159062
654.703	0.0159179
654.781	0.0158788
654.859	0.0160290
654.937	0.0158605
655.015	0.0158990
655.093	0.0159185
655.171	0.0159085
655.249	0.0159081
655.328	0.0158345
655.406	0.0159227
655.484	0.0158672
655.562	0.0158787
655.640	0.0158450
655.718	0.0159303
655.796	0.0158841
655.874	0.0158011
655.953	0.0158321
656.031	0.0159772
656.109	0.0159284
656.187	0.0159932
656.265	0.0158482
656.343	0.0158517
656.421	0.0159273
656.499	0.0158807
656.578	0.0159536
656.656	0.0159643
656.734	0.0159869
656.812	0.0158887
656.890	0.0159170
656.968	0.0158299
657.046	0.0159289
657.124	0.0159035
657.203	0.0160375
657.281	0.0159858
657.359	0.0160201
657.437	0.0159131
657.515	0.0158770
657.593	0.0158407
657.671	0.0158727
657.749	0.0157707
657.828	0.0158053
657.906	0.0158984
657.984	0.0159731
658.062	0.0158511
658.140	0.0159413
658.218	0.0158891
658.296	0.0159022
658.374	0.0159509
658.453	0.0159750
658.531	0.0158935
658.609	0.0159401
658.687	0.0159927
658.765	0.0158430
658.843	0.0158476
658.921	0.0160106
658.999	0.0159739
659.078	0.0159614
659.156	0.0157395
659.234	0.0157634
659.312	0.0160663
659.390	0.0159096
659.468	0.0158956
659.546	0.0159565
659.624	0.0158925
659.703	0.0158437
659.781	0.0158669
659.859	0.0157532
659.937	0.0158414
660.015	0.0159808
660.093	0.0158011
660.171	0.0159032
660.249	0.0159321
660.328	0.0158131
660.406	0.0158752
660.484	0.0158029
660.562	0.0158334
660.640	0.0159155
660.718	0.0158052
660.796	0.0158521
660.874	0.0157688
660.953	0.0158879
661.031	0.0159352
661.109	0.0157887
661.187	0.0158303
661.265	0.0157529
661.343	0.0158512
661.421	0.0158604
661.499	0.0158038
661.578	0.0158710
661.656	0.0159044
661.734	0.0158727
661.812	0.0157838
661.890	0.0158952
661.968	0.0158235
662.046	0.0159634
662.124	0.0158801
662.203	0.0158839
662.281	0.0159119
662.359	0.0158343
662.437	0.0158897
662.515	0.0157839
662.593	0.0157664
662.671	0.0159760
662.749	0.0159612
662.828	0.0159129
662.906	0.0158408
662.984	0.0158923
663.062	0.0158813
663.140	0.0159666
663.218	0.0158440
663.296	0.0158648
663.374	0.0159492
663.453	0.0159206
663.531	0.0159132
663.609	0.0158256
663.687	0.0158109
663.765	0.0159367
663.843	0.0158691
663.921	0.0157367
663.999	0.0158814
664.078	0.0158291
664.156	0.0158594
664.234	0.0158433
664.312	0.0159174
664.390	0.0158453
664.468	0.0157769
664.546	0.0158265
664.624	0.0158407
664.703	0.0158960
664.781	0.0159999
664.859	0.0158167
664.937	0.0158567
665.015	0.0158723
665.093	0.0158745
665.171	0.0158865
665.249	0.0158913
665.328	0.0158842
665.406	0.0159077
665.484	0.0157024
665.562	0.0158318
665.640	0.0158027
665.718	0.0158913
665.796	0.0158602
665.874	0.0158302
665.953	0.0158308
666.031	0.0159142
666.109	0.0158472
666.187	0.0157751
666.265	0.0158764
666.343	0.0158448
666.421	0.0159978
666.499	0.0159536
666.578	0.0159279
666.656	0.0158646
666.734	0.0158570
666.812	0.0158276
666.890	0.0160154
666.968	0.0158793
667.046	0.0158587
667.124	0.0157605
667.203	0.0158760
667.281	0.0157267
667.359	0.0158820
667.437	0.0157845
667.515	0.0160004
667.593	0.0159183
667.671	0.0159052
667.749	0.0158274
667.828	0.0158311
667.906	0.0158505
667.984	0.0158202
668.062	0.0159337
668.140	0.0158371
668.218	0.0157578
668.296	0.0157438
668.374	0.0157889
668.453	0.0158317
668.531	0.0158783
668.609	0.0158472
668.687	0.0159232
668.765	0.0157940
668.843	0.0160143
668.921	0.0159748
668.999	0.0159055
669.078	0.0157971
669.156	0.0159026
669.234	0.0159052
669.312	0.0159164
669.390	0.0158895
669.468	0.0159405
669.546	0.0158476
669.624	0.0158570
669.703	0.0159922
669.781	0.0159241
669.859	0.0159024
669.937	0.0159939
670.015	0.0159185
670.093	0.0159954
670.171	0.0158793
670.249	0.0159750
670.328	0.0159319
670.406	0.0158637
670.484	0.0159106
670.562	0.0159348
670.640	0.0157800
670.718	0.0159348
670.796	0.0158406
670.874	0.0157520
670.953	0.0159044
671.031	0.0158201
671.109	0.0158267
671.187	0.0159969
671.265	0.0158212
671.343	0.0159431
671.421	0.0158844
671.499	0.0158641
671.578	0.0159652
671.656	0.0158109
671.734	0.0158939
671.812	0.0159629
671.890	0.0157466
671.968	0.0157032
672.046	0.0159431
672.124	0.0159007
672.203	0.0158456
672.281	0.0157989
672.359	0.0159145
672.437	0.0158135
672.515	0.0159410
672.593	0.0159078
672.671	0.0159641
672.749	0.0157695
672.828	0.0157721
672.906	0.0159955
672.984	0.0160558
673.062	0.0158108
673.140	0.0158775
673.218	0.0159080
673.296	0.0158603
673.374	0.0160099
673.453	0.0159536
673.531	0.0158976
673.609	0.0159069
673.687	0.0158550
673.765	0.0159319
673.843	0.0159876
673.921	0.0160702
673.999	0.0159437
674.078	0.0158427
674.156	0.0158459
674.234	0.0159343
674.312	0.0159418
674.390	0.0159948
674.468	0.0159057
674.546	0.0158629
674.624	0.0159229
674.703	0.0159770
674.781	0.0158834
674.859	0.0159531
674.937	0.0158997
675.015	0.0159176
675.093	0.0159586
675.171	0.0158097
675.249	0.0159377
675.328	0.0158984
675.406	0.0159427
675.484	0.0159061
675.562	0.0160097
675.640	0.0160178
675.718	0.0160188
675.796	0.0158660
675.874	0.0159312
675.953	0.0159727
676.031	0.0159605
676.109	0.0160186
676.187	0.0160241
676.265	0.0159691
676.343	0.0159949
676.421	0.0158906
676.499	0.0158997
676.578	0.0159545
676.656	0.0158730
676.734	0.0158646
676.812	0.0159731
676.890	0.0159301
676.968	0.0159681
677.046	0.0160506
677.124	0.0158560
677.203	0.0158817
677.281	0.0159203
677.359	0.0158841
677.437	0.0159018
677.515	0.0158821
677.593	0.0158541
677.671	0.0160042
677.749	0.0159838
677.828	0.0159687
677.906	0.0159665
677.984	0.0159234
678.062	0.0158457
678.140	0.0158168
678.218	0.0160321
678.296	0.0158796
678.374	0.0158267
678.453	0.0159189
678.531	0.0158842
678.609	0.0159190
678.687	0.0160222
678.765	0.0159957
678.843	0.0160184
678.921	0.0158891
678.999	0.0159106
679.078	0.0157964
679.156	0.0159150
679.234	0.0159283
679.312	0.0158351
679.390	0.0159880
679.468	0.0158047
679.546	0.0159673
679.624	0.0159305
679.703	0.0158968
679.781	0.0159171
679.859	0.0158369
679.937	0.0158821
680.015	0.0159499
680.093	0.0159705
680.171	0.0158903
680.249	0.0158331
680.328	0.0158555
680.406	0.0158098
680.484	0.0158955
680.562	0.0159213
680.640	0.0158494
680.718	0.0158282
680.796	0.0157861
680.874	0.0158943
680.953	0.0159964
681.031	0.0158441
681.109	0.0158544
681.187	0.0158228
681.265	0.0157999
681.343	0.0158126
681.421	0.0159348
681.499	0.0160321
681.578	0.0159058
681.656	0.0159338
681.734	0.0159088
681.812	0.0158954
681.890	0.0157795
681.968	0.0157497
682.046	0.0157949
682.124	0.0160297
682.203	0.0157677
682.281	0.0156950
682.359	0.0159266
682.437	0.0158900
682.515	0.0158504
682.593	0.0157484
682.671	0.0160353
682.749	0.0158204
682.828	0.0157667
682.906	0.0159518
682.984	0.0159457
683.062	0.0158759
683.140	0.0158195
683.218	0.0159131
683.296	0.0158901
683.374	0.0158987
683.453	0.0158008
683.531	0.0159128
683.609	0.0158587
683.687	0.0158859
683.765	0.0158714
683.843	0.0158068
683.921	0.0159887
683.999	0.0157365
684.078	0.0158723
684.156	0.0160449
684.234	0.0159319
684.312	0.0158324
684.390	0.0160237
684.468	0.0158417
684.546	0.0157935
684.624	0.0158723
684.703	0.0158144
684.781	0.0158292
684.859	0.0159898
684.937	0.0158932
685.015	0.0160370
685.093	0.0159332
685.171	0.0158160
685.249	0.0157999
685.328	0.0159127
685.406	0.0159145
685.484	0.0158426
685.562	0.0159612
685.640	0.0159010
685.718	0.0159378
685.796	0.0160194
685.874	0.0158292
685.953	0.0156744
686.031	0.0157830
686.109	0.0159583
686.187	0.0158695
686.265	0.0158810
686.343	0.0158699
686.421	0.0159646
686.499	0.0158481
686.578	0.0159294
686.656	0.0158147
686.734	0.0159170
686.812	0.0159270
686.890	0.0158977
686.968	0.0159387
687.046	0.0159575
687.124	0.0159911
687.203	0.0159491
687.281	0.0158688
687.359	0.0159115
687.437	0.0158300
687.515	0.0158617
687.593	0.0159065
687.671	0.0159253
687.749	0.0160221
687.828	0.0159478
687.906	0.0160051
687.984	0.0159029
688.062	0.0158987
688.140	0.0158984
688.218	0.0158601
688.296	0.0159468
688.374	0.0159263
688.453	0.0159068
688.531	0.0158738
688.609	0.0160153
688.687	0.0157993
688.765	0.0159467
688.843	0.0159130
688.921	0.0158495
688.999	0.0159090
689.078	0.0159435
689.156	0.0159734
689.234	0.0159926
689.312	0.0159400
689.390	0.0159332
689.468	0.0158455
689.546	0.0159943
689.624	0.0159490
689.703	0.0158933
689.781	0.0158647
689.859	0.0158921
689.937	0.0159027
690.015	0.0161163
690.093	0.0159633
690.171	0.0160046
690.249	0.0159431
690.328	0.0159500
690.406	0.0159897
690.484	0.0160115
690.562	0.0159074
690.640	0.0158832
690.718	0.0159189
690.796	0.0159003
690.874	0.0158356
690.953	0.0159493
691.031	0.0158628
691.109	0.0158374
691.187	0.0159939
691.265	0.0159636
691.343	0.0160480
691.421	0.0158835
691.499	0.0158653
691.578	0.0160085
691.656	0.0159804
691.734	0.0157513
691.812	0.0158904
691.890	0.0159020
691.968	0.0158942
692.046	0.0159297
692.124	0.0158356
692.203	0.0159072
692.281	0.0159987
692.359	0.0158584
692.437	0.0160898
692.515	0.0160565
692.593	0.0158307
692.671	0.0158714
692.749	0.0158225
692.828	0.0158568
692.906	0.0158967
692.984	0.0159041
693.062	0.0159456
693.140	0.0158630
693.218	0.0157577
693.296	0.0158898
693.374	0.0159428
693.453	0.0159002
693.531	0.0158661
693.609	0.0158888
693.687	0.0159198
693.765	0.0160686
693.843	0.0159177
693.921	0.0159615
693.999	0.0158833
694.078	0.0159245
694.156	0.0159209
694.234	0.0158810
694.312	0.0159885
694.390	0.0159823
694.468	0.0159142
694.546	0.0160463
694.624	0.0159087
694.703	0.0160609
694.781	0.0158553
694.859	0.0160043
694.937	0.0158800
695.015	0.0158712
695.093	0.0158402
695.171	0.0159737
695.249	0.0159145
695.328	0.0159080
695.406	0.0159468
695.484	0.0159124
695.562	0.0158178
695.640	0.0160320
695.718	0.0159667
695.796	0.0159383
695.874	0.0159451
695.953	0.0160896
696.031	0.0159554
696.109	0.0159263
696.187	0.0159322
696.265	0.0158101
696.343	0.0158703
696.421	0.0159960
696.499	0.0158735
696.578	0.0158383
696.656	0.0159399
696.734	0.0158148
696.812	0.0157226
696.890	0.0158968
696.968	0.0159789
697.046	0.0159193
697.124	0.0158542
697.203	0.0159911
697.281	0.0157937
697.359	0.0158980
697.437	0.0158683
697.515	0.0157932
697.593	0.0158344
697.671	0.0158931
697.749	0.0160319
697.828	0.0158746
697.906	0.0158684
697.984	0.0158122
698.062	0.0159648
698.140	0.0157935
698.218	0.0158788
698.296	0.0160100
698.374	0.0158932
698.453	0.0158463
698.531	0.0158550
698.609	0.0159318
698.687	0.0159597
698.765	0.0158867
698.843	0.0158797
698.921	0.0159319
698.999	0.0159342
699.078	0.0158385
699.156	0.0159908
699.234	0.0159438
699.312	0.0157781
699.390	0.0158597
699.468	0.0159452
699.546	0.0160300
699.624	0.0159225
699.703	0.0160642
699.781	0.0159248
699.859	0.0159057
699.937	0.0158671
700.015	0.0158145
700.093	0.0158666
700.171	0.0159417
700.249	0.0158872
700.328	0.0159770
700.406	0.0159528
700.484	0.0158635
700.562	0.0158630
700.640	0.0160966
700.718	0.0158776
700.796	0.0160079
700.874	0.0157487
700.953	0.0158907
701.031	0.0160194
701.109	0.0158842
701.187	0.0160904
701.265	0.0159917
701.343	0.0159423
701.421	0.0158249
701.499	0.0158743
701.578	0.0158865
701.656	0.0159767
701.734	0.0159574
701.812	0.0159638
701.890	0.0158571
701.968	0.0160130
702.046	0.0158549
702.124	0.0160609
702.203	0.0159396
702.281	0.0159081
702.359	0.0159035
702.437	0.0159243
702.515	0.0159399
702.593	0.0159518
702.671	0.0157819
702.749	0.0158906
702.828	0.0158266
702.906	0.0158944
702.984	0.0159153
703.062	0.0158002
703.140	0.0158040
703.218	0.0159258
703.296	0.0158677
703.374	0.0159227
703.453	0.0158165
703.531	0.0159106
703.609	0.0161029
703.687	0.0158945
703.765	0.0159351
703.843	0.0158282
703.921	0.0158568
703.999	0.0158965
704.078	0.0159076
704.156	0.0159068
704.234	0.0159336
704.312	0.0159274
704.390	0.0158909
704.468	0.0158926
704.546	0.0159532
704.624	0.0159132
704.703	0.0158675
704.781	0.0158495
704.859	0.0159254
704.937	0.0159572
705.015	0.0157568
705.093	0.0159454
705.171	0.0159209
705.249	0.0159613
705.328	0.0157919
705.406	0.0159181
705.484	0.0158614
705.562	0.0158949
705.640	0.0159899
705.718	0.0159612
705.796	0.0160629
705.874	0.0159188
705.953	0.0159672
706.031	0.0159381
706.109	0.0158978
706.187	0.0160323
706.265	0.0160401
706.343	0.0159486
706.421	0.0159609
706.499	0.0158202
706.578	0.0160229
706.656	0.0160287
706.734	0.0159772
706.812	0.0159428
706.890	0.0158971
706.968	0.0158177
707.046	0.0158360
707.124	0.0159232
707.203	0.0158212
707.281	0.0159831
707.359	0.0159447
707.437	0.0161190
707.515	0.0159769
707.593	0.0158279
707.671	0.0160063
707.749	0.0160542
707.828	0.0159609
707.906	0.0158220
707.984	0.0158287
708.062	0.0159350
708.140	0.0160797
708.218	0.0160123
708.296	0.0159837
708.374	0.0158704
708.453	0.0159903
708.531	0.0159425
708.609	0.0159338
708.687	0.0159149
708.765	0.0160725
708.843	0.0158646
708.921	0.0160956
708.999	0.0159003
709.078	0.0158266
709.156	0.0159802
709.234	0.0159295
709.312	0.0158281
709.390	0.0159482
709.468	0.0158247
709.546	0.0158733
709.624	0.0159183
709.703	0.0157618
709.781	0.0159045
709.859	0.0159695
709.937	0.0160359
710.015	0.0159831
710.093	0.0159282
710.171	0.0158282
710.249	0.0158730
710.328	0.0160686
710.406	0.0159218
710.484	0.0159543
710.562	0.0159329
710.640	0.0159963
710.718	0.0160045
710.796	0.0159762
710.874	0.0158331
710.953	0.0158486
711.031	0.0159143
711.109	0.0159651
711.187	0.0159428
711.265	0.0160593
711.343	0.0159183
711.421	0.0158991
711.499	0.0159065
711.578	0.0159299
711.656	0.0158824
711.734	0.0159478
711.812	0.0159129
711.890	0.0160587
711.968	0.0159255
712.046	0.0159800
712.124	0.0159349
712.203	0.0157381
712.281	0.0158560
712.359	0.0159268
712.437	0.0158903
712.515	0.0159216
712.593	0.0160049
712.671	0.0160550
712.749	0.0159254
712.828	0.0159256
712.906	0.0159751
712.984	0.0160038
713.062	0.0159933
713.140	0.0158656
713.218	0.0157862
713.296	0.0158451
713.374	0.0158923
713.453	0.0158756
713.531	0.0158811
713.609	0.0160188
713.687	0.0157755
713.765	0.0159805
713.843	0.0158836
713.921	0.0159231
713.999	0.0159782
714.078	0.0158897
714.156	0.0159383
714.234	0.0158689
714.312	0.0160132
714.390	0.0159384
714.468	0.0159100
714.546	0.0160001
714.624	0.0159509
714.703	0.0158975
714.781	0.0159957
714.859	0.0159328
714.937	0.0159142
715.015	0.0159875
715.093	0.0160279
715.171	0.0158907
715.249	0.0159524
715.328	0.0160072
715.406	0.0160447
715.484	0.0160376
715.562	0.0160170
715.640	0.0159370
715.718	0.0159104
715.796	0.0159209
715.874	0.0159525
715.953	0.0159770
716.031	0.0159827
716.109	0.0158926
716.187	0.0159920
716.265	0.0160094
716.343	0.0158863
716.421	0.0159483
716.499	0.0159947
716.578	0.0159052
716.656	0.0160149
716.734	0.0157890
716.812	0.0158679
716.890	0.0158597
716.968	0.0159750
717.046	0.0160116
717.124	0.0159848
717.203	0.0159618
717.281	0.0157605
717.359	0.0159170
717.437	0.0159399
717.515	0.0158550
717.593	0.0158880
717.671	0.0159378
717.749	0.0158964
717.828	0.0159336
717.906	0.0157909
717.984	0.0158803
718.062	0.0158372
718.140	0.0158841
718.218	0.0159400
718.296	0.0157993
718.374	0.0157229
718.453	0.0158493
718.531	0.0157658
718.609	0.0159344
718.687	0.0159045
718.765	0.0158122
718.843	0.0159584
718.921	0.0158992
718.999	0.0158026
719.078	0.0160445
719.156	0.0159476
719.234	0.0158044
719.312	0.0160027
719.390	0.0159525
719.468	0.0160444
719.546	0.0160806
719.624	0.0159398
719.703	0.0161909
719.781	0.0160683
719.859	0.0160372
719.937	0.0160873
720.015	0.0160751
720.093	0.0160734
720.171	0.0159624
720.249	0.0159623
720.328	0.0159512
720.406	0.0158059
720.484	0.0156841
720.562	0.0159629
720.640	0.0158067
720.718	0.0155635
720.796	0.0155708
720.874	0.0156212
720.953	0.0155199
721.031	0.0156143
721.109	0.0155709
721.187	0.0154901
721.265	0.0155762
721.343	0.0155016
721.421	0.0155647
721.499	0.0156658
721.578	0.0157183
721.656	0.0156836
721.734	0.0159147
721.812	0.0158244
721.890	0.0161375
721.968	0.0159931
722.046	0.0161172
722.124	0.0161977
722.203	0.0163006
722.281	0.0162461
722.359	0.0164887
722.437	0.0164188
722.515	0.0163952
722.593	0.0163245
722.671	0.0161997
722.749	0.0162493
722.828	0.0162546
722.906	0.0161184
722.984	0.0161385
723.062	0.0161527
723.140	0.0158881
723.218	0.0159460
723.296	0.0157829
723.374	0.0156473
723.453	0.0158622
723.531	0.0158989
723.609	0.0157705
723.687	0.0158150
723.765	0.0157298
723.843	0.0157656
723.921	0.0158235
723.999	0.0156785
724.078	0.0157261
724.156	0.0160135
724.234	0.0157790
724.312	0.0158476
724.390	0.0158818
724.468	0.0159075
724.546	0.0159102
724.624	0.0158421
724.703	0.0158214
724.781	0.0157339
724.859	0.0156514
724.937	0.0155615
725.015	0.0154926
725.093	0.0156263
725.171	0.0154907
725.249	0.0155067
725.328	0.0155621
725.406	0.0155241
725.484	0.0156390
725.562	0.0156174
725.640	0.0157065
725.718	0.0157759
725.796	0.0158150
725.874	0.0159343
725.953	0.0159891
726.031	0.0160448
726.109	0.0160390
726.187	0.0161388
726.265	0.0162798
726.343	0.0163345
726.421	0.0164686
726.499	0.0164784
726.578	0.0166757
726.656	0.0167291
726.734	0.0168066
726.812	0.0169358
726.890	0.0167410
726.968	0.0167676
727.046	0.0168137
727.124	0.0167610
727.203	0.0164804
727.281	0.0164333
727.359	0.0163934
727.437	0.0162160
727.515	0.0161015
727.593	0.0159469
727.671	0.0157973
727.749	0.0155906
727.828	0.0153889
727.906	0.0152329
727.984	0.0150027
728.062	0.0146082
728.140	0.0144830
728.218	0.0142999
728.296	0.0143255
728.374	0.0141936
728.453	0.0142175
728.531	0.0142580
728.609	0.0144492
728.687	0.0147127
728.765	0.0148602
728.843	0.0151500
728.921	0.0154676
728.999	0.0158710
729.078	0.0160511
729.156	0.0162171
729.234	0.0166223
729.312	0.0168791
729.390	0.0170444
729.468	0.0173624
729.546	0.0174543
729.624	0.0177132
729.703	0.0176633
729.781	0.0176334
729.859	0.0176655
729.937	0.0175278
730.015	0.0175944
730.093	0.0175356
730.171	0.0173289
730.249	0.0172149
730.328	0.0169804
730.406	0.0166580
730.484	0.0163654
730.562	0.0161635
730.640	0.0158949
730.718	0.0156050
730.796	0.0153973
730.874	0.0152011
730.953	0.0150744
731.031	0.0147216
731.109	0.0147440
731.187	0.0146324
731.265	0.0145300
731.343	0.0146119
731.421	0.0145934
731.499	0.0146897
731.578	0.0147891
731.656	0.0147438
731.734	0.0149972
731.812	0.0149582
731.890	0.0150076
731.968	0.0152177
732.046	0.0154169
732.124	0.0154841
732.203	0.0155759
732.281	0.0156106
732.359	0.0159509
732.437	0.0159180
732.515	0.0160007
732.593	0.0161717
732.671	0.0161828
732.749	0.0161401
732.828	0.0161974
732.906	0.0163224
732.984	0.0164017
733.062	0.0163500
733.140	0.0164037
733.218	0.0163818
733.296	0.0164532
733.374	0.0165696
733.453	0.0165781
733.531	0.0167371
733.609	0.0168498
733.687	0.0168649
733.765	0.0169331
733.843	0.0170635
733.921	0.0169274
733.999	0.0168224
734.078	0.0170001
734.156	0.0168696
734.234	0.0166872
734.312	0.0164687
734.390	0.0163749
734.468	0.0162613
734.546	0.0160323
734.624	0.0158050
734.703	0.0155980
734.781	0.0154046
734.859	0.0153289
734.937	0.0151901
735.015	0.0150854
735.093	0.0150925
735.171	0.0148911
735.249	0.0148762
735.328	0.0148853
735.406	0.0148141
735.484	0.0150396
735.562	0.0149265
735.640	0.0150182
735.718	0.0152284
735.796	0.0151546
735.874	0.0152476
735.953	0.0153367
736.031	0.0155458
736.109	0.0155145
736.187	0.0157117
736.265	0.0158646
736.343	0.0158239
736.421	0.0159522
736.499	0.0159754
736.578	0.0160819
736.656	0.0161437
736.734	0.0161044
736.812	0.0161529
736.890	0.0161942
736.968	0.0162193
737.046	0.0161734
737.124	0.0162010
737.203	0.0162240
737.281	0.0161624
737.359	0.0160508
737.437	0.0160958
737.515	0.0159751
737.593	0.0159095
737.671	0.0159836
737.749	0.0160162
737.828	0.0158499
737.906	0.0158746
737.984	0.0159174
738.062	0.0158015
738.140	0.0158516
738.218	0.0157897
738.296	0.0159388
738.374	0.0159946
738.453	0.0159768
738.531	0.0159908
738.609	0.0159010
738.687	0.0159314
738.765	0.0161558
738.843	0.0160793
738.921	0.0159848
738.999	0.0162286
739.078	0.0161758
739.156	0.0161095
739.234	0.0161637
739.312	0.0162001
739.390	0.0161697
739.468	0.0161605
739.546	0.0161486
739.624	0.0160587
739.703	0.0159721
739.781	0.0159092
739.859	0.0160287
739.937	0.0159350
740.015	0.0158423
740.093	0.0160181
740.171	0.0159942
740.249	0.0158917
740.328	0.0158757
740.406	0.0157423
740.484	0.0157027
740.562	0.0157412
740.640	0.0155966
740.718	0.0155037
740.796	0.0154332
740.874	0.0155366
740.953	0.0153971
741.031	0.0152658
741.109	0.0152871
741.187	0.0152610
741.265	0.0152956
741.343	0.0152545
741.421	0.0153223
741.499	0.0155059
741.578	0.0156205
741.656	0.0155486
741.734	0.0155209
741.812	0.0156360
741.890	0.0157044
741.968	0.0156943
742.046	0.0157307
742.124	0.0159479
742.203	0.0160673
742.281	0.0160019
742.359	0.0159026
742.437	0.0159122
742.515	0.0159912
742.593	0.0161951
742.671	0.0162190
742.749	0.0161784
742.828	0.0162079
742.906	0.0160825
742.984	0.0162067
743.062	0.0163921
743.140	0.0164005
743.218	0.0162981
743.296	0.0164144
743.374	0.0162434
743.453	0.0163615
743.531	0.0164074
743.609	0.0162999
743.687	0.0163908
743.765	0.0164787
743.843	0.0161898
743.921	0.0162646
743.999	0.0164152
744.078	0.0163081
744.156	0.0161191
744.234	0.0160320
744.312	0.0159588
744.390	0.0158633
744.468	0.0158363
744.546	0.0157468
744.624	0.0155917
744.703	0.0155889
744.781	0.0153622
744.859	0.0153245
744.937	0.0152912
745.015	0.0152751
745.093	0.0152184
745.171	0.0153461
745.249	0.0153611
745.328	0.0152644
745.406	0.0154057
745.484	0.0153403
745.562	0.0153832
745.640	0.0155066
745.718	0.0156581
745.796	0.0155589
745.874	0.0158084
745.953	0.0159049
746.031	0.0157671
746.109	0.0159077
746.187	0.0159319
746.265	0.0160661
746.343	0.0159604
746.421	0.0158404
746.499	0.0158451
746.578	0.0159333
746.656	0.0159653
746.734	0.0157361
746.812	0.0158281
746.890	0.0157070
746.968	0.0156609
747.046	0.0157217
747.124	0.0158662
747.203	0.0159336
747.281	0.0158461
747.359	0.0160152
747.437	0.0161394
747.515	0.0161679
747.593	0.0163560
747.671	0.0163168
747.749	0.0164765
747.828	0.0163830
747.906	0.0165813
747.984	0.0165387
748.062	0.0165036
748.140	0.0165627
748.218	0.0163457
748.296	0.0162708
748.374	0.0162108
748.453	0.0162753
748.531	0.0160842
748.609	0.0159724
748.687	0.0158839
748.765	0.0158662
748.843	0.0157892
748.921	0.0158862
748.999	0.0157587
749.078	0.0157433
749.156	0.0156950
749.234	0.0156758
749.312	0.0157497
749.390	0.0158079
749.468	0.0158726
749.546	0.0158494
749.624	0.0157365
749.703	0.0156471
749.781	0.0157270
749.859	0.0156981
749.937	0.0157447
750.015	0.0158032
750.093	0.0155880
750.171	0.0155926
750.249	0.0156808
750.328	0.0156174
750.406	0.0156537
750.484	0.0157624
750.562	0.0157718
750.640	0.0158873
750.718	0.0158531
750.796	0.0157077
750.874	0.0156880
750.953	0.0157203
751.031	0.0157632
751.109	0.0157294
751.187	0.0157439
751.265	0.0157528
751.343	0.0157159
751.421	0.0156493
751.499	0.0156876
751.578	0.0157939
751.656	0.0157676
751.734	0.0158044
751.812	0.0158595
751.890	0.0158130
751.968	0.0158472
752.046	0.0159164
752.124	0.0158163
752.203	0.0159412
752.281	0.0162905
752.359	0.0161660
752.437	0.0161274
752.515	0.0163146
752.593	0.0163971
752.671	0.0163460
752.749	0.0163729
752.828	0.0164555
752.906	0.0163812
752.984	0.0164701
753.062	0.0162555
753.140	0.0161310
753.218	0.0162399
753.296	0.0162760
753.374	0.0161478
753.453	0.0160020
753.531	0.0160878
753.609	0.0161710
753.687	0.0158698
753.765	0.0156573
753.843	0.0156621
753.921	0.0156678
753.999	0.0155285
754.078	0.0155949
754.156	0.0155101
754.234	0.0154156
754.312	0.0153403
754.390	0.0152729
754.468	0.0153020
754.546	0.0154680
754.624	0.0153510
754.703	0.0151412
754.781	0.0153876
754.859	0.0154855
754.937	0.0156278
755.015	0.0154454
755.093	0.0156592
755.171	0.0158073
755.249	0.0157637
755.328	0.0157388
755.406	0.0159565
755.484	0.0161585
755.562	0.0159721
755.640	0.0159663
755.718	0.0158978
755.796	0.0159764
755.874	0.0160004
755.953	0.0159480
756.031	0.0159608
756.109	0.0160019
756.187	0.0159110
756.265	0.0160413
756.343	0.0160008
756.421	0.0159066
756.499	0.0159316
756.578	0.0159727
756.656	0.0160551
756.734	0.0160648
756.812	0.0160341
756.890	0.0161568
756.968	0.0162333
757.046	0.0162755
757.124	0.0163865
757.203	0.0162989
757.281	0.0162096
757.359	0.0162199
757.437	0.0163486
757.515	0.0162380
757.593	0.0161417
757.671	0.0160951
757.749	0.0161120
757.828	0.0159655
757.906	0.0158195
757.984	0.0157428
758.062	0.0156316
758.140	0.0156411
758.218	0.0155508
758.296	0.0154984
758.374	0.0154491
758.453	0.0152525
758.531	0.0152777
758.609	0.0152219
758.687	0.0152146
758.765	0.0152715
758.843	0.0153910
758.921	0.0153928
758.999	0.0154836
759.078	0.0156298
759.156	0.0156396
759.234	0.0158483
759.312	0.0159487
759.390	0.0160062
759.468	0.0163531
759.546	0.0162342
759.624	0.0165370
759.703	0.0165079
759.781	0.0164821
759.859	0.0165513
759.937	0.0163706
760.015	0.0163639
760.093	0.0163281
760.171	0.0161391
760.249	0.0159947
760.328	0.0158339
760.406	0.0158054
760.484	0.0157061
760.562	0.0156566
760.640	0.0156596
760.718	0.0154691
760.796	0.0154674
760.874	0.0156037
760.953	0.0154796
761.031	0.0154829
761.109	0.0153642
761.187	0.0155101
761.265	0.0155229
761.343	0.0153216
761.421	0.0153312
761.499	0.0154450
761.578	0.0153416
761.656	0.0153106
761.734	0.0153218
761.812	0.0154733
761.890	0.0154318
761.968	0.0156653
762.046	0.0156272
762.124	0.0157600
762.203	0.0157417
762.281	0.0160531
762.359	0.0161492
762.437	0.0162766
762.515	0.0164480
762.593	0.0165361
762.671	0.0164592
762.749	0.0164646
762.828	0.0166494
762.906	0.0165329
762.984	0.0166589
763.062	0.0165755
763.140	0.0162759
763.218	0.0163803
763.296	0.0161913
763.374	0.0161182
763.453	0.0158846
763.531	0.0157740
763.609	0.0157740
763.687	0.0158209
763.765	0.0156020
763.843	0.0156767
763.921	0.0155162
763.999	0.0154922
764.078	0.0155600
764.156	0.0156407
764.234	0.0156307
764.312	0.0156609
764.390	0.0156358
764.468	0.0156348
764.546	0.0155770
764.624	0.0155054
764.703	0.0155173
764.781	0.0153461
764.859	0.0154013
764.937	0.0153049
765.015	0.0152105
765.093	0.0151810
765.171	0.0152430
765.249	0.0152007
765.328	0.0154733
765.406	0.0155027
765.484	0.0155994
765.562	0.0156023
765.640	0.0159184
765.718	0.0159386
765.796	0.0162318
765.874	0.0165018
765.953	0.0166518
766.031	0.0165850
766.109	0.0167496
766.187	0.0169120
766.265	0.0168253
766.343	0.0167609
766.421	0.0170406
766.499	0.0169598
766.578	0.0168197
766.656	0.0165435
766.734	0.0165084
766.812	0.0163172
766.890	0.0160841
766.968	0.0158978
767.046	0.0157730
767.124	0.0154003
767.203	0.0151823
767.281	0.0152212
767.359	0.0150949
767.437	0.0149402
767.515	0.0149334
767.593	0.0150131
767.671	0.0150456
767.749	0.0150332
767.828	0.0152667
767.906	0.0155386
767.984	0.0156425
768.062	0.0156992
768.140	0.0157214
768.218	0.0158900
768.296	0.0157832
768.374	0.0160808
768.453	0.0162118
768.531	0.0159725
768.609	0.0161693
768.687	0.0160945
768.765	0.0160484
768.843	0.0160514
768.921	0.0162034
768.999	0.0162124
769.078	0.0161684
769.156	0.0163097
769.234	0.0163995
769.312	0.0166348
769.390	0.0165521
769.468	0.0167351
769.546	0.0168651
769.624	0.0168370
769.703	0.0168393
769.781	0.0167900
769.859	0.0166389
769.937	0.0163648
770.015	0.0163528
770.093	0.0160934
770.171	0.0159325
770.249	0.0156257
770.328	0.0153558
770.406	0.0150376
770.484	0.0149588
770.562	0.0147015
770.640	0.0146047
770.718	0.0143353
770.796	0.0143221
770.874	0.0142403
770.953	0.0142442
771.031	0.0142633
771.109	0.0143626
771.187	0.0145732
771.265	0.0145884
771.343	0.0149459
771.421	0.0153731
771.499	0.0156122
771.578	0.0157693
771.656	0.0161253
771.734	0.0164606
771.812	0.0166811
771.890	0.0169976
771.968	0.0170526
772.046	0.0174010
772.124	0.0174447
772.203	0.0176839
772.281	0.0176662
772.359	0.0175603
772.437	0.0177729
772.515	0.0177275
772.593	0.0175104
772.671	0.0175170
772.749	0.0172820
772.828	0.0171616
772.906	0.0168546
772.984	0.0166792
773.062	0.0165112
773.140	0.0163592
773.218	0.0161388
773.296	0.0158971
773.374	0.0156217
773.453	0.0154494
773.531	0.0154011
773.609	0.0153226
773.687	0.0151360
773.765	0.0150709
773.843	0.0149420
773.921	0.0148347
773.999	0.0148498
774.078	0.0146296
774.156	0.0146016
774.234	0.0146046
774.312	0.0145638
774.390	0.0146214
774.468	0.0146021
774.546	0.0147155
774.624	0.0147495
774.703	0.0148959
774.781	0.0150677
774.859	0.0150854
774.937	0.0150523
775.015	0.0153164
775.093	0.0155336
775.171	0.0156641
775.249	0.0158302
775.328	0.0158775
775.406	0.0161996
775.484	0.0163652
775.562	0.0163244
775.640	0.0164252
775.718	0.0165707
775.796	0.0167547
775.874	0.0167178
775.953	0.0167522
776.031	0.0167840
776.109	0.0166440
776.187	0.0167621
776.265	0.0168220
776.343	0.0167266
776.421	0.0166807
776.499	0.0167377
776.578	0.0166358
776.656	0.0167160
776.734	0.0164899
776.812	0.0163824
776.890	0.0162414
776.968	0.0161581
777.046	0.0162589
777.124	0.0160555
777.203	0.0160688
777.281	0.0158355
777.359	0.0158543
777.437	0.0157843
777.515	0.0157920
777.593	0.0156956
777.671	0.0156843
777.749	0.0157510
777.828	0.0157787
777.906	0.0158168
777.984	0.0158495
778.062	0.0158452
778.140	0.0159576
778.218	0.0157912
778.296	0.0157856
778.374	0.0157902
778.453	0.0158090
778.531	0.0157684
778.609	0.0157633
778.687	0.0158060
778.765	0.0157549
778.843	0.0157328
778.921	0.0158481
778.999	0.0155864
779.078	0.0154002
779.156	0.0153848
779.234	0.0155494
779.312	0.0153849
779.390	0.0154596
779.468	0.0154791
779.546	0.0154004
779.624	0.0154333
779.703	0.0155344
779.781	0.0154337
779.859	0.0155167
779.937	0.0154845
780.015	0.0155946
780.093	0.0157543
780.171	0.0157503
780.249	0.0156989
780.328	0.0157645
780.406	0.0158891
780.484	0.0158966
780.562	0.0160018
780.640	0.0158586
780.718	0.0160059
780.796	0.0160647
780.874	0.0161596
780.953	0.0161351
781.031	0.0163729
781.109	0.0162855
781.187	0.0162498
781.265	0.0162146
781.343	0.0161208
781.421	0.0162490
781.499	0.0162442
781.578	0.0161066
781.656	0.0162077
781.734	0.0160711
781.812	0.0158907
781.890	0.0158349
781.968	0.0157584
782.046	0.0155007
782.124	0.0155298
782.203	0.0153680
782.281	0.0153808
782.359	0.0152892
782.437	0.0152945
782.515	0.0152893
782.593	0.0152823
782.671	0.0152859
782.749	0.0153526
782.828	0.0154540
782.906	0.0157034
782.984	0.0157557
783.062	0.0158989
783.140	0.0162022
783.218	0.0163076
783.296	0.0165051
783.374	0.0167596
783.453	0.0171402
783.531	0.0170332
783.609	0.0171043
783.687	0.0171607
783.765	0.0171964
783.843	0.0171994
783.921	0.0170750
783.999	0.0170417
784.078	0.0168431
784.156	0.0166761
784.234	0.0164226
784.312	0.0162634
784.390	0.0160874
784.468	0.0157774
784.546	0.0156873
784.624	0.0153040
784.703	0.0150198
784.781	0.0149455
784.859	0.0147855
784.937	0.0147326
785.015	0.0147552
785.093	0.0146793
785.171	0.0145916
785.249	0.0148445
785.328	0.0148286
785.406	0.0150517
785.484	0.0150266
785.562	0.0152240
785.640	0.0154375
785.718	0.0153732
785.796	0.0154412
785.874	0.0155840
785.953	0.0156670
786.031	0.0158923
786.109	0.0157652
786.187	0.0158572
786.265	0.0159180
786.343	0.0158551
786.421	0.0159940
786.499	0.0157726
786.578	0.0159116
786.656	0.0157345
786.734	0.0157637
786.812	0.0155535
786.890	0.0155599
786.968	0.0155608
787.046	0.0155113
787.124	0.0157965
787.203	0.0156653
787.281	0.0156373
787.359	0.0158085
787.437	0.0159073
787.515	0.0160379
787.593	0.0161844
787.671	0.0163415
787.749	0.0165329
787.828	0.0166277
787.906	0.0168068
787.984	0.0168590
788.062	0.0169421
788.140	0.0168843
788.218	0.0169633
788.296	0.0167970
788.374	0.0166684
788.453	0.0167501
788.531	0.0165853
788.609	0.0163281
788.687	0.0164147
788.765	0.0161786
788.843	0.0159826
788.921	0.0160952
788.999	0.0160078
789.078	0.0159451
789.156	0.0157895
789.234	0.0158776
789.312	0.0157715
789.390	0.0158810
789.468	0.0159902
789.546	0.0161842
789.624	0.0161440
789.703	0.0161098
789.781	0.0162103
789.859	0.0162745
789.937	0.0165113
790.015	0.0163604
790.093	0.0165469
790.171	0.0165608
790.249	0.0165072
790.328	0.0165016
790.406	0.0164539
790.484	0.0162521
790.562	0.0161047
790.640	0.0160520
790.718	0.0157481
790.796	0.0154357
790.874	0.0152983
790.953	0.0149972
791.031	0.0146787
791.109	0.0145454
791.187	0.0143726
791.265	0.0141604
791.343	0.0141824
791.421	0.0141851
791.499	0.0142503
791.578	0.0143187
791.656	0.0144804
791.734	0.0145485
791.812	0.0147940
791.890	0.0151344
791.968	0.0151698
792.046	0.0154110
792.124	0.0156431
792.203	0.0157897
792.281	0.0159236
792.359	0.0160603
792.437	0.0161998
792.515	0.0162582
792.593	0.0163607
792.671	0.0164433
792.749	0.0165529
792.828	0.0164027
792.906	0.0163574
792.984	0.0164280
793.062	0.0162740
793.140	0.0162267
793.218	0.0163188
793.296	0.0162486
793.374	0.0164683
793.453	0.0164240
793.531	0.0164039
793.609	0.0164024
793.687	0.0168048
793.765	0.0167438
793.843	0.0169431
793.921	0.0169880
793.999	0.0169527
794.078	0.0168610
794.156	0.0170109
794.234	0.0169258
794.312	0.0170939
794.390	0.0169585
794.468	0.0168137
794.546	0.0169467
794.624	0.0166295
794.703	0.0166198
794.781	0.0166313
794.859	0.0163430
794.937	0.0162949
795.015	0.0160915
795.093	0.0159617
795.171	0.0158651
795.249	0.0157114
795.328	0.0156770
795.406	0.0154758
795.484	0.0152887
795.562	0.0150323
795.640	0.0150414
795.718	0.0148103
795.796	0.0147865
795.874	0.0149113
795.953	0.0147420
796.031	0.0148939
796.109	0.0149785
796.187	0.0150177
796.265	0.0151518
796.343	0.0150451
796.421	0.0152065
796.499	0.0152921
796.578	0.0154451
796.656	0.0155856
796.734	0.0155141
796.812	0.0155376
796.890	0.0156474
796.968	0.0157955
797.046	0.0158478
797.124	0.0157982
797.203	0.0157167
797.281	0.0159699
797.359	0.0160016
797.437	0.0157184
797.515	0.0157755
797.593	0.0158295
797.671	0.0156087
797.749	0.0156299
797.828	0.0154855
797.906	0.0155139
797.984	0.0155017
798.062	0.0155323
798.140	0.0154368
798.218	0.0155457
798.296	0.0155185
798.374	0.0154777
798.453	0.0156237
798.531	0.0157738
798.609	0.0155888
798.687	0.0156931
798.765	0.0157430
798.843	0.0158297
798.921	0.0160792
798.999	0.0162959
799.078	0.0161086
799.156	0.0164076
799.234	0.0166210
799.312	0.0165688
799.390	0.0168182
799.468	0.0169724
799.546	0.0168610
799.624	0.0168548
799.703	0.0168913
799.781	0.0169562
799.859	0.0167712
799.937	0.0166026
800.015	0.0164865
800.093	0.0162639
800.171	0.0160324
800.249	0.0160520
800.328	0.0160047
800.406	0.0160339
800.484	0.0158527
800.562	0.0156932
800.640	0.0158782
800.718	0.0159080
800.796	0.0158218
800.874	0.0159599
800.953	0.0159316
801.031	0.0159528
801.109	0.0160928
801.187	0.0158687
801.265	0.0159252
801.343	0.0157997
801.421	0.0158939
801.499	0.0159427
801.578	0.0159071
801.656	0.0158102
801.734	0.0159306
801.812	0.0159620
801.890	0.0158787
801.968	0.0159343
802.046	0.0160233
802.124	0.0161021
802.203	0.0160168
802.281	0.0160012
802.359	0.0160119
802.437	0.0159053
802.515	0.0157780
802.593	0.0157617
802.671	0.0156078
802.749	0.0155775
802.828	0.0154826
802.906	0.0153889
802.984	0.0153489
803.062	0.0153479
803.140	0.0151577
803.218	0.0151716
803.296	0.0151076
803.374	0.0149447
803.453	0.0148782
803.531	0.0147198
803.609	0.0147398
803.687	0.0146782
803.765	0.0147006
803.843	0.0147581
803.921	0.0145336
803.999	0.0146305
804.078	0.0150052
804.156	0.0149792
804.234	0.0150108
804.312	0.0151333
804.390	0.0151635
804.468	0.0151523
804.546	0.0153946
804.624	0.0155759
804.703	0.0156428
804.781	0.0158055
804.859	0.0160207
804.937	0.0161739
805.015	0.0161992
805.093	0.0165013
805.171	0.0164236
805.249	0.0166772
805.328	0.0167942
805.406	0.0169865
805.484	0.0170914
805.562	0.0172021
805.640	0.0172858
805.718	0.0173405
805.796	0.0173957
805.874	0.0173660
805.953	0.0174992
806.031	0.0173373
806.109	0.0174749
806.187	0.0174986
806.265	0.0174337
806.343	0.0173489
806.421	0.0173910
806.499	0.0172182
806.578	0.0170087
806.656	0.0169032
806.734	0.0165587
806.812	0.0162902
806.890	0.0162628
806.968	0.0160889
807.046	0.0157642
807.124	0.0156264
807.203	0.0153405
807.281	0.0152193
807.359	0.0151056
807.437	0.0150644
807.515	0.0150423
807.593	0.0149747
807.671	0.0150198
807.749	0.0151081
807.828	0.0150828
807.906	0.0152266
807.984	0.0151282
808.062	0.0152135
808.140	0.0150101
808.218	0.0151713
808.296	0.0152023
808.374	0.0151052
808.453	0.0150479
808.531	0.0150719
808.609	0.0149483
808.687	0.0148911
808.765	0.0148911
808.843	0.0147288
808.921	0.0148347
808.999	0.0148037
809.078	0.0148809
809.156	0.0149142
809.234	0.0149538
809.312	0.0150555
809.390	0.0151012
809.468	0.0151794
809.546	0.0155390
809.624	0.0153828
809.703	0.0154353
809.781	0.0153938
809.859	0.0156723
809.937	0.0153810
810.015	0.0156770
810.093	0.0157081
810.171	0.0156448
810.249	0.0158060
810.328	0.0158924
810.406	0.0160222
810.484	0.0159760
810.562	0.0161826
810.640	0.0163451
810.718	0.0165396
810.796	0.0166570
810.874	0.0168024
810.953	0.0168537
811.031	0.0171767
811.109	0.0170740
811.187	0.0170621
811.265	0.0173326
811.343	0.0174568
811.421	0.0174109
811.499	0.0176055
811.578	0.0175753
811.656	0.0176428
811.734	0.0175874
811.812	0.0175912
811.890	0.0175761
811.968	0.0174277
812.046	0.0173541
812.124	0.0172145
812.203	0.0170515
812.281	0.0170556
812.359	0.0167064
812.437	0.0165603
812.515	0.0163150
812.593	0.0162211
812.671	0.0159595
812.749	0.0157215
812.828	0.0156553
812.906	0.0155608
812.984	0.0152999
813.062	0.0152726
813.140	0.0148451
813.218	0.0147264
813.296	0.0145677
813.374	0.0145836
813.453	0.0145041
813.531	0.0143656
813.609	0.0143874
813.687	0.0144405
813.765	0.0144678
813.843	0.0145257
813.921	0.0147414
813.999	0.0149990
814.078	0.0147624
814.156	0.0149964
814.234	0.0152726
814.312	0.0152900
814.390	0.0154873
814.468	0.0156425
814.546	0.0156351
814.624	0.0157999
814.703	0.0158907
814.781	0.0159068
814.859	0.0160046
814.937	0.0159100
815.015	0.0159939
815.093	0.0160262
815.171	0.0161417
815.249	0.0159585
815.328	0.0160764
815.406	0.0159346
815.484	0.0158751
815.562	0.0158410
815.640	0.0157515
815.718	0.0157092
815.796	0.0156441
815.874	0.0154749
815.953	0.0155541
816.031	0.0155957
816.109	0.0154022
816.187	0.0155284
816.265	0.0156815
816.343	0.0157187
816.421	0.0157565
816.499	0.0158689
816.578	0.0158356
816.656	0.0159734
816.734	0.0162302
816.812	0.0163161
816.890	0.0164496
816.968	0.0164268
817.046	0.0165243
817.124	0.0167669
817.203	0.0168720
817.281	0.0170793
817.359	0.0171915
817.437	0.0171970
817.515	0.0173381
817.593	0.0173508
817.671	0.0175600
817.749	0.0174709
817.828	0.0173857
817.906	0.0173372
817.984	0.0171577
818.062	0.0172694
818.140	0.0170576
818.218	0.0168046
818.296	0.0167310
818.374	0.0164852
818.453	0.0162282
818.531	0.0164112
818.609	0.0162032
818.687	0.0158251
818.765	0.0157865
818.843	0.0155871
818.921	0.0155801
818.999	0.0154125
819.078	0.0152397
819.156	0.0152486
819.234	0.0150948
819.312	0.0148681
819.390	0.0147530
819.468	0.0148627
819.546	0.0147966
819.624	0.0147146
819.703	0.0143597
819.781	0.0145829
819.859	0.0147050
819.937	0.0148006
820.015	0.0148220
820.093	0.0148171
820.171	0.0150426
820.249	0.0151360
820.328	0.0152531
820.406	0.0154922
820.484	0.0155688
820.562	0.0156689
820.640	0.0158292
820.718	0.0157565
820.796	0.0157617
820.874	0.0159398
820.953	0.0158740
821.031	0.0160921
821.109	0.0160317
821.187	0.0160596
821.265	0.0159670
821.343	0.0160136
821.421	0.0159524
821.499	0.0158957
821.578	0.0157206
821.656	0.0158227
821.734	0.0156500
821.812	0.0155843
821.890	0.0155354
821.968	0.0154658
822.046	0.0155804
822.124	0.0155759
822.203	0.0155368
822.281	0.0154993
822.359	0.0155175
822.437	0.0155235
822.515	0.0155904
822.593	0.0158041
822.671	0.0157735
822.749	0.0158804
822.828	0.0161014
822.906	0.0161852
822.984	0.0162054
823.062	0.0163718
823.140	0.0165315
823.218	0.0166039
823.296	0.0168031
823.374	0.0169804
823.453	0.0168201
823.531	0.0170361
823.609	0.0170683
823.687	0.0172094
823.765	0.0171184
823.843	0.0172960
823.921	0.0172162
823.999	0.0171169
824.078	0.0171512
824.156	0.0169538
824.234	0.0168770
824.312	0.0167798
824.390	0.0166615
824.468	0.0164233
824.546	0.0163291
824.624	0.0161710
824.703	0.0159929
824.781	0.0158548
824.859	0.0156573
824.937	0.0154980
825.015	0.0153452
825.093	0.0152450
825.171	0.0150689
825.249	0.0149728
825.328	0.0149728
825.406	0.0148187
825.484	0.0149041
825.562	0.0147354
825.640	0.0147220
825.718	0.0148166
825.796	0.0147427
825.874	0.0146006
825.953	0.0147014
826.031	0.0148333
826.109	0.0150335
826.187	0.0150365
826.265	0.0151986
826.343	0.0154841
826.421	0.0155015
826.499	0.0156200
826.578	0.0157577
826.656	0.0159593
826.734	0.0160464
826.812	0.0162177
826.890	0.0161296
826.968	0.0162292
827.046	0.0163772
827.124	0.0163245
827.203	0.0163802
827.281	0.0164449
827.359	0.0163925
827.437	0.0163741
827.515	0.0163206
827.593	0.0163129
827.671	0.0164121
827.749	0.0162930
827.828	0.0161368
827.906	0.0162107
827.984	0.0160037
828.062	0.0159824
828.140	0.0158948
828.218	0.0159792
828.296	0.0157065
828.374	0.0155913
828.453	0.0155462
828.531	0.0153973
828.609	0.0154062
828.687	0.0154123
828.765	0.0153631
828.843	0.0154249
828.921	0.0154119
828.999	0.0154045
829.078	0.0153208
829.156	0.0152993
829.234	0.0154949
829.312	0.0157326
829.390	0.0156158
829.468	0.0159136
829.546	0.0162069
829.624	0.0162712
829.703	0.0165660
829.781	0.0164981
829.859	0.0167228
829.937	0.0168610
830.015	0.0170466
830.093	0.0170950
830.171	0.0171944
830.249	0.0171753
830.328	0.0173328
830.406	0.0172022
830.484	0.0170345
830.562	0.0170007
830.640	0.0168610
830.718	0.0166357
830.796	0.0165264
830.874	0.0165001
830.953	0.0162209
831.031	0.0159773
831.109	0.0157493
831.187	0.0155945
831.265	0.0153996
831.343	0.0151900
831.421	0.0150983
831.499	0.0150233
831.578	0.0149095
831.656	0.0148745
831.734	0.0149287
831.812	0.0148996
831.890	0.0148878
831.968	0.0148173
832.046	0.0149034
832.124	0.0150944
832.203	0.0150517
832.281	0.0151028
832.359	0.0152212
832.437	0.0152747
832.515	0.0153265
832.593	0.0154607
832.671	0.0155638
832.749	0.0156913
832.828	0.0158557
832.906	0.0158893
832.984	0.0158501
833.062	0.0159792
833.140	0.0160925
833.218	0.0161436
833.296	0.0161441
833.374	0.0162361
833.453	0.0163734
833.531	0.0162319
833.609	0.0162923
833.687	0.0163481
833.765	0.0161341
833.843	0.0161760
833.921	0.0162679
833.999	0.0161242
834.078	0.0161835
834.156	0.0161963
834.234	0.0160006
834.312	0.0160297
834.390	0.0158286
834.468	0.0158881
834.546	0.0157945
834.624	0.0157095
834.703	0.0157088
834.781	0.0155530
834.859	0.0155167
834.937	0.0155888
835.015	0.0154398
835.093	0.0155051
835.171	0.0154111
835.249	0.0154579
835.328	0.0156715
835.406	0.0156693
835.484	0.0156355
835.562	0.0158108
835.640	0.0158405
835.718	0.0159745
835.796	0.0161379
835.874	0.0161687
835.953	0.0163419
836.031	0.0164890
836.109	0.0167004
836.187	0.0165075
836.265	0.0166557
836.343	0.0166979
836.421	0.0168114
836.499	0.0168502
836.578	0.0167533
836.656	0.0167646
836.734	0.0166922
836.812	0.0166507
836.890	0.0165057
836.968	0.0165121
837.046	0.0164616
837.124	0.0162807
837.203	0.0160210
837.281	0.0159386
837.359	0.0160017
837.437	0.0158929
837.515	0.0153526
837.593	0.0153523
837.671	0.0152782
837.749	0.0152306
837.828	0.0150468
837.906	0.0150038
837.984	0.0150366
838.062	0.0150226
838.140	0.0150780
838.218	0.0149249
838.296	0.0151524
838.374	0.0152238
838.453	0.0150826
838.531	0.0151313
838.609	0.0152290
838.687	0.0153675
838.765	0.0154572
838.843	0.0155520
838.921	0.0156244
838.999	0.0158577
839.078	0.0157884
839.156	0.0158270
839.234	0.0158356
839.312	0.0159772
839.390	0.0160932
839.468	0.0160991
839.546	0.0161935
839.624	0.0162808
839.703	0.0161921
839.781	0.0162116
839.859	0.0162882
839.937	0.0162479
840.015	0.0162079
840.093	0.0162492
840.171	0.0162263
840.249	0.0162193
840.328	0.0161237
840.406	0.0159068
840.484	0.0159084
840.562	0.0158498
840.640	0.0157961
840.718	0.0155570
840.796	0.0154843
840.874	0.0156212
840.953	0.0155353
841.031	0.0153689
841.109	0.0154745
841.187	0.0154796
841.265	0.0154415
841.343	0.0155358
841.421	0.0154852
841.499	0.0156681
841.578	0.0157531
841.656	0.0157803
841.734	0.0159877
841.812	0.0159380
841.890	0.0160909
841.968	0.0161670
842.046	0.0161760
842.124	0.0162465
842.203	0.0162135
842.281	0.0164154
842.359	0.0165468
842.437	0.0166506
842.515	0.0167138
842.593	0.0167308
842.671	0.0167398
842.749	0.0169267
842.828	0.0167696
842.906	0.0167911
842.984	0.0168835
843.062	0.0166701
843.140	0.0167799
843.218	0.0165141
843.296	0.0165378
843.374	0.0164454
843.453	0.0164088
843.531	0.0160870
843.609	0.0160397
843.687	0.0157687
843.765	0.0155214
843.843	0.0155058
843.921	0.0152045
843.999	0.0152026
844.078	0.0149304
844.156	0.0149388
844.234	0.0147942
844.312	0.0149287
844.390	0.0150307
844.468	0.0149028
844.546	0.0150164
844.624	0.0150052
844.703	0.0152271
844.781	0.0151954
844.859	0.0151998
844.937	0.0153724
845.015	0.0154018
845.093	0.0157126
845.171	0.0158017
845.249	0.0159863
845.328	0.0159576
845.406	0.0160762
845.484	0.0161578
845.562	0.0161829
845.640	0.0160944
845.718	0.0163223
845.796	0.0163280
845.874	0.0163680
845.953	0.0164595
846.031	0.0162872
846.109	0.0162808
846.187	0.0162836
846.265	0.0163418
846.343	0.0164079
846.421	0.0163863
846.499	0.0161594
846.578	0.0161398
846.656	0.0160669
846.734	0.0159846
846.812	0.0159640
846.890	0.0159306
846.968	0.0156962
847.046	0.0158186
847.124	0.0155849
847.203	0.0155523
847.281	0.0155883
847.359	0.0154869
847.437	0.0155671
847.515	0.0156977
847.593	0.0157327
847.671	0.0155559
847.749	0.0155009
847.828	0.0157085
847.906	0.0157261
847.984	0.0158392
848.062	0.0160071
848.140	0.0160229
848.218	0.0160645
848.296	0.0160615
848.374	0.0161928
848.453	0.0164261
848.531	0.0165521
848.609	0.0165318
848.687	0.0166748
848.765	0.0167606
848.843	0.0166986
848.921	0.0166583
848.999	0.0166788
849.078	0.0166557
849.156	0.0166612
849.234	0.0166134
849.312	0.0165980
849.390	0.0165154
849.468	0.0163300
849.546	0.0162344
849.624	0.0161169
849.703	0.0160848
849.781	0.0160993
849.859	0.0156707
849.937	0.0156121
850.015	0.0155947
850.093	0.0155590
850.171	0.0154059
850.249	0.0153828
850.328	0.0152351
850.406	0.0151530
850.484	0.0152118
850.562	0.0153075
850.640	0.0151750
850.718	0.0153056
850.796	0.0150994
850.874	0.0152364
850.953	0.0153361
851.031	0.0152827
851.109	0.0154288
851.187	0.0154694
851.265	0.0156160
851.343	0.0157690
851.421	0.0156912
851.499	0.0159184
851.578	0.0160176
851.656	0.0159691
851.734	0.0161009
851.812	0.0162989
851.890	0.0162675
851.968	0.0165313
852.046	0.0163728
852.124	0.0163985
852.203	0.0164407
852.281	0.0164581
852.359	0.0162946
852.437	0.0164536
852.515	0.0163141
852.593	0.0162624
852.671	0.0161436
852.749	0.0160994
852.828	0.0161271
852.906	0.0160538
852.984	0.0159935
853.062	0.0158831
853.140	0.0159148
853.218	0.0158202
853.296	0.0159763
853.374	0.0157183
853.453	0.0157684
853.531	0.0158656
853.609	0.0156351
853.687	0.0157240
853.765	0.0157813
853.843	0.0158498
853.921	0.0160484
853.999	0.0158706
854.078	0.0158963
854.156	0.0158968
854.234	0.0159264
854.312	0.0158871
854.390	0.0159756
854.468	0.0160297
854.546	0.0159444
854.624	0.0159908
854.703	0.0159543
854.781	0.0160675
854.859	0.0158913
854.937	0.0160857
855.015	0.0159664
855.093	0.0160651
855.171	0.0161620
855.249	0.0161565
855.328	0.0162228
855.406	0.0161558
855.484	0.0161385
855.562	0.0160680
855.640	0.0162241
855.718	0.0161102
855.796	0.0161294
855.874	0.0160976
855.953	0.0159646
856.031	0.0159341
856.109	0.0159256
856.187	0.0159564
856.265	0.0156717
856.343	0.0156557
856.421	0.0156747
856.499	0.0155932
856.578	0.0155082
856.656	0.0155385
856.734	0.0153672
856.812	0.0153699
856.890	0.0153228
856.968	0.0155571
857.046	0.0155711
857.124	0.0155980
857.203	0.0156744
857.281	0.0155701
857.359	0.0156800
857.437	0.0155811
857.515	0.0155611
857.593	0.0156200
857.671	0.0157470
857.749	0.0158884
857.828	0.0157565
857.906	0.0157932
857.984	0.0158982
858.062	0.0159317
858.140	0.0159251
858.218	0.0159386
858.296	0.0159769
858.374	0.0159935
858.453	0.0159847
858.531	0.0158757
858.609	0.0158472
858.687	0.0160902
858.765	0.0159052
858.843	0.0160258
858.921	0.0159133
858.999	0.0158594
859.078	0.0158390
859.156	0.0159753
859.234	0.0160415
859.312	0.0159058
859.390	0.0160634
859.468	0.0160255
859.546	0.0159618
859.624	0.0160841
859.703	0.0160925
859.781	0.0160223
859.859	0.0160928
859.937	0.0158636
860.015	0.0159397
860.093	0.0160770
860.171	0.0159104
860.249	0.0158891
860.328	0.0160419
860.406	0.0160218
860.484	0.0160089
860.562	0.0159193
860.640	0.0159479
860.718	0.0160178
860.796	0.0159666
860.874	0.0158347
860.953	0.0159282
861.031	0.0159501
861.109	0.0159275
861.187	0.0158721
861.265	0.0159078
861.343	0.0159167
861.421	0.0158458
861.499	0.0158476
861.578	0.0157275
861.656	0.0158623
861.734	0.0158087
861.812	0.0158756
861.890	0.0159087
861.968	0.0158566
862.046	0.0158964
862.124	0.0158170
862.203	0.0158719
862.281	0.0159267
862.359	0.0158681
862.437	0.0158700
862.515	0.0160332
862.593	0.0158459
862.671	0.0159238
862.749	0.0158305
862.828	0.0158662
862.906	0.0159469
862.984	0.0158773
863.062	0.0159927
863.140	0.0159779
863.218	0.0159744
863.296	0.0158604
863.374	0.0159246
863.453	0.0159836
863.531	0.0158793
863.609	0.0159753
863.687	0.0159151
863.765	0.0159532
863.843	0.0158698
863.921	0.0157399
863.999	0.0156686
864.078	0.0157462
864.156	0.0158644
864.234	0.0157930
864.312	0.0157220
864.390	0.0157334
864.468	0.0157270
864.546	0.0156003
864.624	0.0157592
864.703	0.0157174
864.781	0.0157674
864.859	0.0158136
864.937	0.0158247
865.015	0.0159480
865.093	0.0159567
865.171	0.0157670
865.249	0.0159203
865.328	0.0158752
865.406	0.0158476
865.484	0.0160181
865.562	0.0160546
865.640	0.0160641
865.718	0.0160017
865.796	0.0160674
865.874	0.0160018
865.953	0.0160643
866.031	0.0161878
866.109	0.0162141
866.187	0.0161388
866.265	0.0161572
866.343	0.0161748
866.421	0.0161832
866.499	0.0160811
866.578	0.0160136
866.656	0.0162020
866.734	0.0160840
866.812	0.0160704
866.890	0.0161604
866.968	0.0159850
867.046	0.0160537
867.124	0.0158924
867.203	0.0159081
867.281	0.0158992
867.359	0.0158519
867.437	0.0157951
867.515	0.0157410
867.593	0.0156252
867.671	0.0158035
867.749	0.0157603
867.828	0.0156685
867.906	0.0158028
867.984	0.0158355
868.062	0.0157594
868.140	0.0159340
868.218	0.0157604
868.296	0.0158801
868.374	0.0159920
868.453	0.0158251
868.531	0.0157961
868.609	0.0160786
868.687	0.0159857
868.765	0.0159389
868.843	0.0160681
868.921	0.0160286
868.999	0.0161720
869.078	0.0160101
869.156	0.0161515
869.234	0.0160748
869.312	0.0160808
869.390	0.0161211
869.468	0.0161040
869.546	0.0160094
869.624	0.0160714
869.703	0.0161864
869.781	0.0161645
869.859	0.0161492
869.937	0.0160496
870.015	0.0159823
870.093	0.0159860
870.171	0.0159972
870.249	0.0160034
870.328	0.0159142
870.406	0.0157474
870.484	0.0159007
870.562	0.0158921
870.640	0.0157565
870.718	0.0158145
870.796	0.0156322
870.874	0.0154806
870.953	0.0157703
871.031	0.0155666
871.109	0.0158021
871.187	0.0156325
871.265	0.0155790
871.343	0.0155211
871.421	0.0156035
871.499	0.0156194
871.578	0.0156951
871.656	0.0158693
871.734	0.0157550
871.812	0.0157631
871.890	0.0159101
871.968	0.0160760
872.046	0.0159737
872.124	0.0159064
872.203	0.0158897
872.281	0.0159880
872.359	0.0161104
872.437	0.0161301
872.515	0.0162283
872.593	0.0163489
872.671	0.0162174
872.749	0.0163214
872.828	0.0163111
872.906	0.0163591
872.984	0.0162577
873.062	0.0160778
873.140	0.0162125
873.218	0.0161354
873.296	0.0160903
873.374	0.0160890
873.453	0.0158755
873.531	0.0159202
873.609	0.0156517
873.687	0.0157791
873.765	0.0158188
873.843	0.0157373
873.921	0.0156445
873.999	0.0157482
874.078	0.0157169
874.156	0.0156277
874.234	0.0157592
874.312	0.0157137
874.390	0.0157924
874.468	0.0157320
874.546	0.0156065
874.624	0.0157845
874.703	0.0157370
874.781	0.0158126
874.859	0.0156787
874.937	0.0159718
875.015	0.0158235
875.093	0.0157521
875.171	0.0157558
875.249	0.0158631
875.328	0.0158349
875.406	0.0158230
875.484	0.0159846
875.562	0.0160163
875.640	0.0158616
875.718	0.0159208
875.796	0.0159175
875.874	0.0161661
875.953	0.0162868
876.031	0.0160603
876.109	0.0160883
876.187	0.0161796
876.265	0.0161996
876.343	0.0162559
876.421	0.0162114
876.499	0.0159521
876.578	0.0161523
876.656	0.0160513
876.734	0.0157963
876.812	0.0158602
876.890	0.0157710
876.968	0.0158461
877.046	0.0156751
877.124	0.0157076
877.203	0.0155791
877.281	0.0157706
877.359	0.0155493
877.437	0.0154638
877.515	0.0155618
877.593	0.0154825
877.671	0.0156677
877.749	0.0154029
877.828	0.0154594
877.906	0.0157341
877.984	0.0156528
878.062	0.0156554
878.140	0.0158727
878.218	0.0157520
878.296	0.0158637
878.374	0.0160101
878.453	0.0160276
878.531	0.0160866
878.609	0.0159231
878.687	0.0161330
878.765	0.0161689
878.843	0.0161128
878.921	0.0161803
878.999	0.0162788
879.078	0.0160419
879.156	0.0159949
879.234	0.0160446
879.312	0.0161927
879.390	0.0160604
879.468	0.0160860
879.546	0.0159673
879.624	0.0159289
879.703	0.0160475
879.781	0.0159063
879.859	0.0158676
879.937	0.0160919
880.015	0.0159758
880.093	0.0159318
880.171	0.0159110
880.249	0.0159410
880.328	0.0159448
880.406	0.0158799
880.484	0.0160531
880.562	0.0159532
880.640	0.0160494
880.718	0.0161247
880.796	0.0159177
880.874	0.0158518
880.953	0.0161411
881.031	0.0159634
881.109	0.0158932
881.187	0.0158965
881.265	0.0159175
881.343	0.0157469
881.421	0.0158438
881.499	0.0159026
881.578	0.0157932
881.656	0.0158165
881.734	0.0158303
881.812	0.0158748
881.890	0.0159334
881.968	0.0158730
882.046	0.0159459
882.124	0.0159265
882.203	0.0159202
882.281	0.0160300
882.359	0.0158958
882.437	0.0159296
882.515	0.0159441
882.593	0.0159582
882.671	0.0158624
882.749	0.0158506
882.828	0.0157688
882.906	0.0156951
882.984	0.0156787
883.062	0.0156042
883.140	0.0155853
883.218	0.0154508
883.296	0.0153944
883.374	0.0154112
883.453	0.0153674
883.531	0.0153825
883.609	0.0152666
883.687	0.0153960
883.765	0.0153833
883.843	0.0155383
883.921	0.0154840
883.999	0.0155283
884.078	0.0155190
884.156	0.0156640
884.234	0.0158138
884.312	0.0158712
884.390	0.0160236
884.468	0.0159522
884.546	0.0162909
884.624	0.0163383
884.703	0.0163895
884.781	0.0165329
884.859	0.0166340
884.937	0.0166023
885.015	0.0166558
885.093	0.0168303
885.171	0.0167726
885.249	0.0166371
885.328	0.0168195
885.406	0.0165659
885.484	0.0163971
885.562	0.0163464
885.640	0.0163638
885.718	0.0162572
885.796	0.0162431
885.874	0.0161871
885.953	0.0160238
886.031	0.0159762
886.109	0.0158431
886.187	0.0158018
886.265	0.0158526
886.343	0.0158584
886.421	0.0158404
886.499	0.0156731
886.578	0.0158311
886.656	0.0159328
886.734	0.0158852
886.812	0.0159900
886.890	0.0159231
886.968	0.0159216
887.046	0.0159245
887.124	0.0158236
887.203	0.0158163
887.281	0.0157131
887.359	0.0155862
887.437	0.0156791
887.515	0.0156514
887.593	0.0155201
887.671	0.0155887
887.749	0.0156398
887.828	0.0153329
887.906	0.0153913
887.984	0.0155782
888.062	0.0155113
888.140	0.0155787
888.218	0.0155291
888.296	0.0156429
888.374	0.0158543
888.453	0.0158040
888.531	0.0159324
888.609	0.0157532
888.687	0.0159824
888.765	0.0160593
888.843	0.0161640
888.921	0.0159019
888.999	0.0159673
889.078	0.0159248
889.156	0.0158935
889.234	0.0160251
889.312	0.0160388
889.390	0.0158074
889.468	0.0157829
889.546	0.0157375
889.624	0.0157417
889.703	0.0156225
889.781	0.0155781
889.859	0.0157099
889.937	0.0155552
890.015	0.0155197
890.093	0.0154758
890.171	0.0154247
890.249	0.0156559
890.328	0.0156910
890.406	0.0156151
890.484	0.0157917
890.562	0.0156599
890.640	0.0159377
890.718	0.0160424
890.796	0.0160572
890.874	0.0162511
890.953	0.0163116
891.031	0.0165181
891.109	0.0167086
891.187	0.0167813
891.265	0.0168551
891.343	0.0168974
891.421	0.0167480
891.499	0.0168692
891.578	0.0168223
891.656	0.0167913
891.734	0.0167416
891.812	0.0166914
891.890	0.0163834
891.968	0.0162798
892.046	0.0164173
892.124	0.0160927
892.203	0.0158716
892.281	0.0158875
892.359	0.0158173
892.437	0.0155883
892.515	0.0156684
892.593	0.0155655
892.671	0.0154677
892.749	0.0154883
892.828	0.0155748
892.906	0.0154001
892.984	0.0154548
893.062	0.0156317
893.140	0.0154771
893.218	0.0155672
893.296	0.0154764
893.374	0.0155679
893.453	0.0156981
893.531	0.0157311
893.609	0.0158478
893.687	0.0156210
893.765	0.0155446
893.843	0.0156663
893.921	0.0155528
893.999	0.0157243
894.078	0.0156410
894.156	0.0157362
894.234	0.0156397
894.312	0.0157581
894.390	0.0157553
894.468	0.0157486
894.546	0.0157349
894.624	0.0158665
894.703	0.0159574
894.781	0.0158548
894.859	0.0160233
894.937	0.0160223
895.015	0.0162032
895.093	0.0161766
895.171	0.0160648
895.249	0.0160509
895.328	0.0161724
895.406	0.0161864
895.484	0.0160980
895.562	0.0161119
895.640	0.0160032
895.718	0.0158239
895.796	0.0158591
895.874	0.0159492
895.953	0.0158189
896.031	0.0157285
896.109	0.0156580
896.187	0.0156908
896.265	0.0156426
896.343	0.0156508
896.421	0.0156804
896.499	0.0156503
896.578	0.0155177
896.656	0.0155611
896.734	0.0157933
896.812	0.0158057
896.890	0.0159147
896.968	0.0159969
897.046	0.0160290
897.124	0.0161694
897.203	0.0163047
897.281	0.0163338
897.359	0.0164022
897.437	0.0164888
897.515	0.0165869
897.593	0.0166235
897.671	0.0166385
897.749	0.0166989
897.828	0.0165631
897.906	0.0165055
897.984	0.0166567
898.062	0.0163527
898.140	0.0164065
898.218	0.0161749
898.296	0.0163281
898.374	0.0160874
898.453	0.0158939
898.531	0.0159486
898.609	0.0156447
898.687	0.0156693
898.765	0.0155311
898.843	0.0154504
898.921	0.0155025
898.999	0.0153059
899.078	0.0154692
899.156	0.0153382
899.234	0.0154110
899.312	0.0153373
899.390	0.0154420
899.468	0.0154147
899.546	0.0155029
899.624	0.0154481
899.703	0.0155199
899.781	0.0154108
899.859	0.0154883
899.937	0.0156160
900.015	0.0156299
900.093	0.0157220
900.171	0.0155552
900.249	0.0156195
900.328	0.0156720
900.406	0.0156438
900.484	0.0156400
900.562	0.0157433
900.640	0.0158066
900.718	0.0156067
900.796	0.0156660
900.874	0.0159737
900.953	0.0159855
901.031	0.0158260
901.109	0.0158983
901.187	0.0159249
901.265	0.0160222
901.343	0.0161672
901.421	0.0160609
901.499	0.0158113
901.578	0.0160854
901.656	0.0161299
901.734	0.0161852
901.812	0.0161007
901.890	0.0160260
901.968	0.0161667
902.046	0.0159380
902.124	0.0158656
902.203	0.0159956
902.281	0.0159196
902.359	0.0158189
902.437	0.0157474
902.515	0.0155914
902.593	0.0156596
902.671	0.0156947
902.749	0.0157095
902.828	0.0157216
902.906	0.0157982
902.984	0.0157613
903.062	0.0155933
903.140	0.0157932
903.218	0.0157841
903.296	0.0158540
903.374	0.0159332
903.453	0.0160719
903.531	0.0160993
903.609	0.0163264
903.687	0.0163384
903.765	0.0162798
903.843	0.0162045
903.921	0.0162388
903.999	0.0163045
904.078	0.0164381
904.156	0.0163086
904.234	0.0163583
904.312	0.0161890
904.390	0.0161757
904.468	0.0160256
904.546	0.0160419
904.624	0.0159145
904.703	0.0157412
904.781	0.0155872
904.859	0.0155967
904.937	0.0154237
905.015	0.0154735
905.093	0.0153247
905.171	0.0152525
905.249	0.0153002
905.328	0.0153305
905.406	0.0152719
905.484	0.0152693
905.562	0.0155497
905.640	0.0154935
905.718	0.0155644
905.796	0.0155752
905.874	0.0155699
905.953	0.0156383
906.031	0.0156442
906.109	0.0155795
906.187	0.0157886
906.265	0.0158309
906.343	0.0157774
906.421	0.0157973
906.499	0.0158225
906.578	0.0157768
906.656	0.0158481
906.734	0.0157941
906.812	0.0158887
906.890	0.0160062
906.968	0.0159450
907.046	0.0159657
907.124	0.0160846
907.203	0.0161620
907.281	0.0160686
907.359	0.0160545
907.437	0.0161076
907.515	0.0160137
907.593	0.0160770
907.671	0.0162809
907.749	0.0161359
907.828	0.0159790
907.906	0.0162024
907.984	0.0161340
908.062	0.0160307
908.140	0.0160414
908.218	0.0159948
908.296	0.0159068
908.374	0.0159073
908.453	0.0159237
908.531	0.0158570
908.609	0.0158287
908.687	0.0159277
908.765	0.0158488
908.843	0.0157420
908.921	0.0157259
908.999	0.0157342
909.078	0.0156454
909.156	0.0157188
909.234	0.0155948
909.312	0.0156228
909.390	0.0157474
909.468	0.0158231
909.546	0.0157625
909.624	0.0159050
909.703	0.0158344
909.781	0.0158474
909.859	0.0159680
909.937	0.0161111
910.015	0.0162301
910.093	0.0162007
910.171	0.0163282
910.249	0.0163458
910.328	0.0165035
910.406	0.0164357
910.484	0.0164295
910.562	0.0164847
910.640	0.0162534
910.718	0.0163199
910.796	0.0162193
910.874	0.0161000
910.953	0.0161707
911.031	0.0160358
911.109	0.0159283
911.187	0.0158580
911.265	0.0157945
911.343	0.0155954
911.421	0.0155240
911.499	0.0156045
911.578	0.0155830
911.656	0.0154164
911.734	0.0154876
911.812	0.0156769
911.890	0.0154844
911.968	0.0156366
912.046	0.0156124
912.124	0.0155545
912.203	0.0156319
912.281	0.0154965
912.359	0.0156598
912.437	0.0157077
912.515	0.0157645
912.593	0.0156734
912.671	0.0157571
912.749	0.0157462
912.828	0.0158708
912.906	0.0158247
912.984	0.0160358
913.062	0.0158765
913.140	0.0160087
913.218	0.0158878
913.296	0.0159911
913.374	0.0161093
913.453	0.0162504
913.531	0.0161875
913.609	0.0162651
913.687	0.0161901
913.765	0.0162935
913.843	0.0162885
913.921	0.0164410
913.999	0.0163243
914.078	0.0162334
914.156	0.0163279
914.234	0.0162891
914.312	0.0162535
914.390	0.0163235
914.468	0.0162339
914.546	0.0161893
914.624	0.0160998
914.703	0.0160671
914.781	0.0159130
914.859	0.0159557
914.937	0.0158736
915.015	0.0160163
915.093	0.0157814
915.171	0.0156062
915.249	0.0157494
915.328	0.0156930
915.406	0.0157151
915.484	0.0156475
915.562	0.0156831
915.640	0.0157552
915.718	0.0156322
915.796	0.0157180
915.874	0.0157500
915.953	0.0158259
916.031	0.0159972
916.109	0.0159518
916.187	0.0159353
916.265	0.0160934
916.343	0.0161858
916.421	0.0161993
916.499	0.0161234
916.578	0.0161447
916.656	0.0161985
916.734	0.0162553
916.812	0.0162288
916.890	0.0162768
916.968	0.0162205
917.046	0.0161094
917.124	0.0161873
917.203	0.0159878
917.281	0.0159452
917.359	0.0160841
917.437	0.0159200
917.515	0.0157018
917.593	0.0156255
917.671	0.0157059
917.749	0.0157787
917.828	0.0155976
917.906	0.0155022
917.984	0.0155165
918.062	0.0153638
918.140	0.0153909
918.218	0.0154665
918.296	0.0154913
918.374	0.0155553
918.453	0.0154211
918.531	0.0154823
918.609	0.0154215
918.687	0.0155941
918.765	0.0156380
918.843	0.0155261
918.921	0.0155288
918.999	0.0156180
919.078	0.0155190
919.156	0.0157845
919.234	0.0157659
919.312	0.0156865
919.390	0.0156450
919.468	0.0158042
919.546	0.0159177
919.624	0.0160410
919.703	0.0160056
919.781	0.0159240
919.859	0.0161443
919.937	0.0161931
