06/10/2022	18:25:34	Ver.	4.1	UNKNOWN
Optical Delay	600.015094	Delta X		0.078125	Sweeps	1	Scan Rate	0/0
Coordinates	Axis 1	NaN	Axis 2	NaN	Axis 3	NaN	Axis 4	NaN	Axis 5	NaN	Axis 6	0.000000
TX Power	0.000000	RX Power	0.000000

600.015	0.0154955
600.093	0.0156245
600.171	0.0154546
600.249	0.0155010
600.328	0.0155338
600.406	0.0153218
600.484	0.0154745
600.562	0.0156129
600.640	0.0156639
600.718	0.0155395
600.796	0.0155007
600.874	0.0154832
600.953	0.0155320
601.031	0.0155952
601.109	0.0155637
601.187	0.0156319
601.265	0.0155682
601.343	0.0154444
601.421	0.0156781
601.499	0.0154105
601.578	0.0154536
601.656	0.0156409
601.734	0.0153893
601.812	0.0156112
601.890	0.0155738
601.968	0.0154778
602.046	0.0155080
602.124	0.0154799
602.203	0.0154505
602.281	0.0155335
602.359	0.0156441
602.437	0.0154205
602.515	0.0155957
602.593	0.0155524
602.671	0.0154597
602.749	0.0154458
602.828	0.0155408
602.906	0.0156031
602.984	0.0154751
603.062	0.0155418
603.140	0.0155450
603.218	0.0154834
603.296	0.0156747
603.374	0.0155315
603.453	0.0154202
603.531	0.0154697
603.609	0.0153596
603.687	0.0155021
603.765	0.0154883
603.843	0.0155230
603.921	0.0155309
603.999	0.0155739
604.078	0.0155448
604.156	0.0153727
604.234	0.0155135
604.312	0.0155420
604.390	0.0155328
604.468	0.0155195
604.546	0.0154816
604.624	0.0154396
604.703	0.0156011
604.781	0.0154382
604.859	0.0153870
604.937	0.0153747
605.015	0.0155406
605.093	0.0154950
605.171	0.0154529
605.249	0.0155303
605.328	0.0156137
605.406	0.0154469
605.484	0.0155370
605.562	0.0155157
605.640	0.0154152
605.718	0.0154585
605.796	0.0155559
605.874	0.0155201
605.953	0.0154551
606.031	0.0154317
606.109	0.0155000
606.187	0.0155294
606.265	0.0155698
606.343	0.0155659
606.421	0.0155235
606.499	0.0154533
606.578	0.0155513
606.656	0.0155763
606.734	0.0154271
606.812	0.0156132
606.890	0.0153358
606.968	0.0154852
607.046	0.0155438
607.124	0.0155196
607.203	0.0154730
607.281	0.0156147
607.359	0.0155149
607.437	0.0154182
607.515	0.0155382
607.593	0.0155196
607.671	0.0153138
607.749	0.0153928
607.828	0.0154327
607.906	0.0154090
607.984	0.0155292
608.062	0.0155032
608.140	0.0156099
608.218	0.0155154
608.296	0.0156255
608.374	0.0155347
608.453	0.0155717
608.531	0.0154064
608.609	0.0154335
608.687	0.0154658
608.765	0.0157394
608.843	0.0155143
608.921	0.0154101
608.999	0.0154716
609.078	0.0155191
609.156	0.0154225
609.234	0.0155260
609.312	0.0155682
609.390	0.0153522
609.468	0.0155077
609.546	0.0155461
609.624	0.0155150
609.703	0.0155128
609.781	0.0155162
609.859	0.0155720
609.937	0.0155396
610.015	0.0154556
610.093	0.0154203
610.171	0.0154924
610.249	0.0155276
610.328	0.0154980
610.406	0.0154893
610.484	0.0154778
610.562	0.0155642
610.640	0.0155767
610.718	0.0154736
610.796	0.0153989
610.874	0.0154784
610.953	0.0154382
611.031	0.0156183
611.109	0.0155812
611.187	0.0154555
611.265	0.0154673
611.343	0.0156262
611.421	0.0158147
611.499	0.0156059
611.578	0.0154439
611.656	0.0155566
611.734	0.0155634
611.812	0.0153516
611.890	0.0155263
611.968	0.0154671
612.046	0.0155392
612.124	0.0155408
612.203	0.0155554
612.281	0.0155243
612.359	0.0154881
612.437	0.0154729
612.515	0.0154787
612.593	0.0155380
612.671	0.0153461
612.749	0.0155329
612.828	0.0155469
612.906	0.0155775
612.984	0.0154845
613.062	0.0154798
613.140	0.0155811
613.218	0.0155997
613.296	0.0155278
613.374	0.0155990
613.453	0.0154401
613.531	0.0154614
613.609	0.0155719
613.687	0.0154095
613.765	0.0156027
613.843	0.0155304
613.921	0.0155840
613.999	0.0154637
614.078	0.0155301
614.156	0.0153885
614.234	0.0155846
614.312	0.0154944
614.390	0.0156432
614.468	0.0155149
614.546	0.0154321
614.624	0.0155315
614.703	0.0155733
614.781	0.0155215
614.859	0.0155234
614.937	0.0155610
615.015	0.0155385
615.093	0.0155920
615.171	0.0154722
615.249	0.0154707
615.328	0.0155278
615.406	0.0155445
615.484	0.0154079
615.562	0.0155258
615.640	0.0153772
615.718	0.0154272
615.796	0.0154644
615.874	0.0154791
615.953	0.0156405
616.031	0.0155505
616.109	0.0154827
616.187	0.0153992
616.265	0.0156210
616.343	0.0154687
616.421	0.0155124
616.499	0.0154510
616.578	0.0154349
616.656	0.0154764
616.734	0.0154039
616.812	0.0154137
616.890	0.0155694
616.968	0.0154469
617.046	0.0155796
617.124	0.0154873
617.203	0.0154643
617.281	0.0156280
617.359	0.0155267
617.437	0.0155447
617.515	0.0156081
617.593	0.0155196
617.671	0.0154623
617.749	0.0155238
617.828	0.0155522
617.906	0.0154832
617.984	0.0155298
618.062	0.0155104
618.140	0.0155849
618.218	0.0154404
618.296	0.0154639
618.374	0.0154342
618.453	0.0155398
618.531	0.0154822
618.609	0.0155260
618.687	0.0156055
618.765	0.0155981
618.843	0.0153982
618.921	0.0154876
618.999	0.0155590
619.078	0.0154182
619.156	0.0154544
619.234	0.0155563
619.312	0.0154036
619.390	0.0152969
619.468	0.0156421
619.546	0.0154318
619.624	0.0154035
619.703	0.0155287
619.781	0.0155251
619.859	0.0155123
619.937	0.0155326
620.015	0.0154086
620.093	0.0154852
620.171	0.0155680
620.249	0.0155708
620.328	0.0154498
620.406	0.0155129
620.484	0.0155934
620.562	0.0154715
620.640	0.0155278
620.718	0.0154404
620.796	0.0154701
620.874	0.0155093
620.953	0.0154031
621.031	0.0154361
621.109	0.0155359
621.187	0.0154773
621.265	0.0153872
621.343	0.0155334
621.421	0.0154807
621.499	0.0156123
621.578	0.0155744
621.656	0.0155683
621.734	0.0154791
621.812	0.0155348
621.890	0.0154670
621.968	0.0156118
622.046	0.0155133
622.124	0.0155399
622.203	0.0155673
622.281	0.0156468
622.359	0.0154918
622.437	0.0154774
622.515	0.0154377
622.593	0.0154756
622.671	0.0155594
622.749	0.0156340
622.828	0.0155437
622.906	0.0153780
622.984	0.0154560
623.062	0.0155466
623.140	0.0154003
623.218	0.0155984
623.296	0.0155718
623.374	0.0155168
623.453	0.0154055
623.531	0.0154987
623.609	0.0155853
623.687	0.0156110
623.765	0.0155323
623.843	0.0155594
623.921	0.0154552
623.999	0.0155096
624.078	0.0156272
624.156	0.0155923
624.234	0.0155257
624.312	0.0155753
624.390	0.0154755
624.468	0.0154993
624.546	0.0155584
624.624	0.0155424
624.703	0.0154358
624.781	0.0155968
624.859	0.0155428
624.937	0.0155508
625.015	0.0152872
625.093	0.0154221
625.171	0.0155134
625.249	0.0155201
625.328	0.0156225
625.406	0.0154449
625.484	0.0153661
625.562	0.0155917
625.640	0.0155031
625.718	0.0155499
625.796	0.0156096
625.874	0.0155824
625.953	0.0156000
626.031	0.0154448
626.109	0.0155093
626.187	0.0154082
626.265	0.0155187
626.343	0.0155454
626.421	0.0155823
626.499	0.0155396
626.578	0.0155673
626.656	0.0153749
626.734	0.0155358
626.812	0.0156019
626.890	0.0156204
626.968	0.0155153
627.046	0.0155171
627.124	0.0155815
627.203	0.0155135
627.281	0.0154483
627.359	0.0155111
627.437	0.0155830
627.515	0.0156089
627.593	0.0155090
627.671	0.0154585
627.749	0.0155001
627.828	0.0155043
627.906	0.0154174
627.984	0.0156727
628.062	0.0155181
628.140	0.0155177
628.218	0.0155669
628.296	0.0155354
628.374	0.0153818
628.453	0.0155637
628.531	0.0156990
628.609	0.0155283
628.687	0.0155368
628.765	0.0154713
628.843	0.0154264
628.921	0.0153858
628.999	0.0154205
629.078	0.0156095
629.156	0.0153622
629.234	0.0154128
629.312	0.0153970
629.390	0.0153720
629.468	0.0155657
629.546	0.0155112
629.624	0.0154963
629.703	0.0153471
629.781	0.0154841
629.859	0.0153600
629.937	0.0155260
630.015	0.0154472
630.093	0.0154947
630.171	0.0153976
630.249	0.0154465
630.328	0.0154400
630.406	0.0155994
630.484	0.0154871
630.562	0.0155682
630.640	0.0154528
630.718	0.0155906
630.796	0.0156339
630.874	0.0155883
630.953	0.0155116
631.031	0.0154814
631.109	0.0155564
631.187	0.0153250
631.265	0.0154723
631.343	0.0154631
631.421	0.0155990
631.499	0.0155804
631.578	0.0155118
631.656	0.0155283
631.734	0.0153972
631.812	0.0155341
631.890	0.0154243
631.968	0.0154921
632.046	0.0155524
632.124	0.0155414
632.203	0.0155620
632.281	0.0155239
632.359	0.0154932
632.437	0.0155113
632.515	0.0154392
632.593	0.0156235
632.671	0.0155228
632.749	0.0155545
632.828	0.0155093
632.906	0.0155154
632.984	0.0155357
633.062	0.0154001
633.140	0.0155141
633.218	0.0154893
633.296	0.0155606
633.374	0.0155693
633.453	0.0154317
633.531	0.0154510
633.609	0.0154997
633.687	0.0154388
633.765	0.0155032
633.843	0.0154842
633.921	0.0155385
633.999	0.0155389
634.078	0.0154265
634.156	0.0154839
634.234	0.0154881
634.312	0.0154478
634.390	0.0156010
634.468	0.0155228
634.546	0.0155906
634.624	0.0154774
634.703	0.0155055
634.781	0.0155839
634.859	0.0154967
634.937	0.0155265
635.015	0.0154823
635.093	0.0153428
635.171	0.0154018
635.249	0.0155077
635.328	0.0155434
635.406	0.0155822
635.484	0.0154787
635.562	0.0154537
635.640	0.0155383
635.718	0.0155637
635.796	0.0153481
635.874	0.0154890
635.953	0.0155901
636.031	0.0155409
636.109	0.0153692
636.187	0.0154070
636.265	0.0153453
636.343	0.0154297
636.421	0.0154269
636.499	0.0154160
636.578	0.0154150
636.656	0.0154831
636.734	0.0155183
636.812	0.0154998
636.890	0.0153268
636.968	0.0154833
637.046	0.0153862
637.124	0.0154253
637.203	0.0155033
637.281	0.0155774
637.359	0.0154980
637.437	0.0154424
637.515	0.0154682
637.593	0.0155199
637.671	0.0154729
637.749	0.0153942
637.828	0.0154297
637.906	0.0154767
637.984	0.0154967
638.062	0.0153951
638.140	0.0155096
638.218	0.0154934
638.296	0.0154754
638.374	0.0153791
638.453	0.0155117
638.531	0.0153735
638.609	0.0155228
638.687	0.0155642
638.765	0.0155624
638.843	0.0155115
638.921	0.0154697
638.999	0.0154080
639.078	0.0153679
639.156	0.0154360
639.234	0.0155201
639.312	0.0154605
639.390	0.0154383
639.468	0.0155520
639.546	0.0155946
639.624	0.0153622
639.703	0.0154820
639.781	0.0154880
639.859	0.0155660
639.937	0.0155310
640.015	0.0155032
640.093	0.0154862
640.171	0.0155713
640.249	0.0155701
640.328	0.0155028
640.406	0.0153024
640.484	0.0153390
640.562	0.0153783
640.640	0.0154285
640.718	0.0155104
640.796	0.0154606
640.874	0.0154213
640.953	0.0154897
641.031	0.0155068
641.109	0.0154800
641.187	0.0154473
641.265	0.0156463
641.343	0.0155571
641.421	0.0154766
641.499	0.0153110
641.578	0.0154026
641.656	0.0154111
641.734	0.0154445
641.812	0.0154474
641.890	0.0154346
641.968	0.0154960
642.046	0.0153599
642.124	0.0155006
642.203	0.0155384
642.281	0.0155823
642.359	0.0155364
642.437	0.0154873
642.515	0.0155710
642.593	0.0154453
642.671	0.0155730
642.749	0.0155768
642.828	0.0154132
642.906	0.0155473
642.984	0.0155426
643.062	0.0154025
643.140	0.0154565
643.218	0.0155882
643.296	0.0156108
643.374	0.0155259
643.453	0.0154900
643.531	0.0155457
643.609	0.0157368
643.687	0.0156482
643.765	0.0153916
643.843	0.0154736
643.921	0.0155688
643.999	0.0155002
644.078	0.0155232
644.156	0.0153616
644.234	0.0155256
644.312	0.0154545
644.390	0.0155768
644.468	0.0155878
644.546	0.0154895
644.624	0.0155531
644.703	0.0155719
644.781	0.0155687
644.859	0.0155348
644.937	0.0155473
645.015	0.0155981
645.093	0.0154507
645.171	0.0154469
645.249	0.0153632
645.328	0.0155777
645.406	0.0155367
645.484	0.0155109
645.562	0.0155290
645.640	0.0154971
645.718	0.0154817
645.796	0.0155216
645.874	0.0154121
645.953	0.0154622
646.031	0.0155668
646.109	0.0154519
646.187	0.0155095
646.265	0.0154605
646.343	0.0154804
646.421	0.0154892
646.499	0.0154789
646.578	0.0155693
646.656	0.0154560
646.734	0.0156043
646.812	0.0154762
646.890	0.0154925
646.968	0.0155254
647.046	0.0154529
647.124	0.0155542
647.203	0.0156597
647.281	0.0154476
647.359	0.0154445
647.437	0.0155090
647.515	0.0155168
647.593	0.0154951
647.671	0.0155347
647.749	0.0155546
647.828	0.0155007
647.906	0.0153986
647.984	0.0155664
648.062	0.0156312
648.140	0.0154959
648.218	0.0153754
648.296	0.0153888
648.374	0.0154561
648.453	0.0154477
648.531	0.0154945
648.609	0.0156165
648.687	0.0155370
648.765	0.0155077
648.843	0.0155492
648.921	0.0155610
648.999	0.0154689
649.078	0.0152661
649.156	0.0153205
649.234	0.0154884
649.312	0.0155746
649.390	0.0154902
649.468	0.0155426
649.546	0.0154861
649.624	0.0154781
649.703	0.0155287
649.781	0.0154281
649.859	0.0156045
649.937	0.0154692
650.015	0.0153887
650.093	0.0155132
650.171	0.0154930
650.249	0.0155980
650.328	0.0155341
650.406	0.0153846
650.484	0.0155407
650.562	0.0156065
650.640	0.0155994
650.718	0.0154821
650.796	0.0155183
650.874	0.0155798
650.953	0.0154276
651.031	0.0154337
651.109	0.0155252
651.187	0.0155870
651.265	0.0155006
651.343	0.0154961
651.421	0.0154752
651.499	0.0155893
651.578	0.0155322
651.656	0.0153854
651.734	0.0153545
651.812	0.0154063
651.890	0.0155757
651.968	0.0156699
652.046	0.0155614
652.124	0.0155142
652.203	0.0154308
652.281	0.0153249
652.359	0.0156037
652.437	0.0155729
652.515	0.0153962
652.593	0.0154512
652.671	0.0156596
652.749	0.0155597
652.828	0.0153576
652.906	0.0154606
652.984	0.0156040
653.062	0.0154828
653.140	0.0156165
653.218	0.0155204
653.296	0.0155405
653.374	0.0156154
653.453	0.0153032
653.531	0.0155690
653.609	0.0155190
653.687	0.0154614
653.765	0.0154973
653.843	0.0154231
653.921	0.0155898
653.999	0.0156360
654.078	0.0155318
654.156	0.0154420
654.234	0.0156062
654.312	0.0154909
654.390	0.0155123
654.468	0.0155570
654.546	0.0154641
654.624	0.0156097
654.703	0.0154453
654.781	0.0155408
654.859	0.0155398
654.937	0.0155974
655.015	0.0155323
655.093	0.0153551
655.171	0.0155363
655.249	0.0154866
655.328	0.0154111
655.406	0.0154655
655.484	0.0154839
655.562	0.0155283
655.640	0.0154459
655.718	0.0155822
655.796	0.0155397
655.874	0.0154841
655.953	0.0155212
656.031	0.0154459
656.109	0.0154963
656.187	0.0154135
656.265	0.0155627
656.343	0.0155187
656.421	0.0156490
656.499	0.0156210
656.578	0.0154445
656.656	0.0156170
656.734	0.0156588
656.812	0.0154600
656.890	0.0154401
656.968	0.0153860
657.046	0.0154202
657.124	0.0155363
657.203	0.0154649
657.281	0.0154460
657.359	0.0154605
657.437	0.0155717
657.515	0.0155129
657.593	0.0155318
657.671	0.0156331
657.749	0.0154695
657.828	0.0153249
657.906	0.0155083
657.984	0.0155144
658.062	0.0153496
658.140	0.0155009
658.218	0.0154328
658.296	0.0154636
658.374	0.0154360
658.453	0.0155730
658.531	0.0154369
658.609	0.0155209
658.687	0.0154503
658.765	0.0155400
658.843	0.0154879
658.921	0.0155095
658.999	0.0154826
659.078	0.0157357
659.156	0.0154536
659.234	0.0154388
659.312	0.0156783
659.390	0.0155854
659.468	0.0154962
659.546	0.0155306
659.624	0.0154369
659.703	0.0155510
659.781	0.0155444
659.859	0.0154202
659.937	0.0155087
660.015	0.0154818
660.093	0.0155663
660.171	0.0154659
660.249	0.0154305
660.328	0.0155405
660.406	0.0156538
660.484	0.0154883
660.562	0.0154654
660.640	0.0155143
660.718	0.0154049
660.796	0.0155215
660.874	0.0154546
660.953	0.0154681
661.031	0.0155782
661.109	0.0154238
661.187	0.0153314
661.265	0.0152971
661.343	0.0155101
661.421	0.0155376
661.499	0.0156117
661.578	0.0154412
661.656	0.0154347
661.734	0.0154708
661.812	0.0155084
661.890	0.0154035
661.968	0.0154565
662.046	0.0154517
662.124	0.0154320
662.203	0.0154615
662.281	0.0155869
662.359	0.0155530
662.437	0.0155352
662.515	0.0155296
662.593	0.0154818
662.671	0.0156000
662.749	0.0154239
662.828	0.0154527
662.906	0.0154269
662.984	0.0154807
663.062	0.0155061
663.140	0.0156500
663.218	0.0154784
663.296	0.0154369
663.374	0.0154102
663.453	0.0155431
663.531	0.0154876
663.609	0.0155274
663.687	0.0155691
663.765	0.0155177
663.843	0.0155368
663.921	0.0155901
663.999	0.0155384
664.078	0.0154582
664.156	0.0155453
664.234	0.0153851
664.312	0.0155480
664.390	0.0154977
664.468	0.0154420
664.546	0.0155417
664.624	0.0155833
664.703	0.0154840
664.781	0.0154778
664.859	0.0154252
664.937	0.0155968
665.015	0.0155959
665.093	0.0155034
665.171	0.0155679
665.249	0.0154704
665.328	0.0156313
665.406	0.0154976
665.484	0.0154457
665.562	0.0154501
665.640	0.0154426
665.718	0.0155032
665.796	0.0155159
665.874	0.0154204
665.953	0.0155486
666.031	0.0156721
666.109	0.0156113
666.187	0.0155278
666.265	0.0154108
666.343	0.0155005
666.421	0.0155732
666.499	0.0156025
666.578	0.0154314
666.656	0.0156155
666.734	0.0154709
666.812	0.0154800
666.890	0.0155267
666.968	0.0156380
667.046	0.0155548
667.124	0.0156205
667.203	0.0155103
667.281	0.0154503
667.359	0.0155064
667.437	0.0155498
667.515	0.0154726
667.593	0.0154664
667.671	0.0154917
667.749	0.0156510
667.828	0.0155312
667.906	0.0155979
667.984	0.0154227
668.062	0.0155555
668.140	0.0154582
668.218	0.0153817
668.296	0.0154086
668.374	0.0155321
668.453	0.0155746
668.531	0.0154250
668.609	0.0155260
668.687	0.0156116
668.765	0.0155375
668.843	0.0155605
668.921	0.0155140
668.999	0.0154056
669.078	0.0153777
669.156	0.0155408
669.234	0.0156040
669.312	0.0153461
669.390	0.0154357
669.468	0.0155019
669.546	0.0155863
669.624	0.0156479
669.703	0.0154996
669.781	0.0154283
669.859	0.0155145
669.937	0.0155856
670.015	0.0154315
670.093	0.0154521
670.171	0.0155801
670.249	0.0156989
670.328	0.0155219
670.406	0.0154058
670.484	0.0155455
670.562	0.0155139
670.640	0.0154960
670.718	0.0156205
670.796	0.0154510
670.874	0.0154308
670.953	0.0155306
671.031	0.0154266
671.109	0.0155782
671.187	0.0155299
671.265	0.0155851
671.343	0.0156512
671.421	0.0156290
671.499	0.0154384
671.578	0.0156185
671.656	0.0154375
671.734	0.0154218
671.812	0.0155992
671.890	0.0155651
671.968	0.0155063
672.046	0.0155910
672.124	0.0155532
672.203	0.0154804
672.281	0.0155085
672.359	0.0154556
672.437	0.0154173
672.515	0.0155367
672.593	0.0153986
672.671	0.0156606
672.749	0.0154678
672.828	0.0153625
672.906	0.0155936
672.984	0.0154792
673.062	0.0155048
673.140	0.0156163
673.218	0.0155097
673.296	0.0155624
673.374	0.0154488
673.453	0.0155068
673.531	0.0156733
673.609	0.0155081
673.687	0.0154430
673.765	0.0155795
673.843	0.0155110
673.921	0.0155801
673.999	0.0155176
674.078	0.0155137
674.156	0.0154935
674.234	0.0155715
674.312	0.0154810
674.390	0.0154730
674.468	0.0155186
674.546	0.0155617
674.624	0.0155260
674.703	0.0154490
674.781	0.0154953
674.859	0.0155723
674.937	0.0155250
675.015	0.0155499
675.093	0.0155251
675.171	0.0155546
675.249	0.0156083
675.328	0.0155649
675.406	0.0154111
675.484	0.0156178
675.562	0.0156685
675.640	0.0155707
675.718	0.0156506
675.796	0.0156459
675.874	0.0154965
675.953	0.0155685
676.031	0.0156042
676.109	0.0155583
676.187	0.0155794
676.265	0.0156079
676.343	0.0155820
676.421	0.0155732
676.499	0.0154826
676.578	0.0155698
676.656	0.0156058
676.734	0.0156024
676.812	0.0154449
676.890	0.0156041
676.968	0.0155212
677.046	0.0155779
677.124	0.0155962
677.203	0.0155916
677.281	0.0155096
677.359	0.0155418
677.437	0.0154868
677.515	0.0154718
677.593	0.0154682
677.671	0.0154783
677.749	0.0154645
677.828	0.0155068
677.906	0.0156511
677.984	0.0154811
678.062	0.0155074
678.140	0.0155038
678.218	0.0155181
678.296	0.0154453
678.374	0.0155974
678.453	0.0156054
678.531	0.0156692
678.609	0.0155819
678.687	0.0154420
678.765	0.0154792
678.843	0.0155392
678.921	0.0154559
678.999	0.0156638
679.078	0.0156345
679.156	0.0155531
679.234	0.0155626
679.312	0.0155679
679.390	0.0155304
679.468	0.0154555
679.546	0.0153731
679.624	0.0155694
679.703	0.0154533
679.781	0.0157370
679.859	0.0155592
679.937	0.0154900
680.015	0.0155051
680.093	0.0155395
680.171	0.0155206
680.249	0.0156474
680.328	0.0155502
680.406	0.0155727
680.484	0.0154494
680.562	0.0155177
680.640	0.0154581
680.718	0.0155315
680.796	0.0155183
680.874	0.0156219
680.953	0.0154959
681.031	0.0155567
681.109	0.0155898
681.187	0.0154803
681.265	0.0156606
681.343	0.0154898
681.421	0.0154969
681.499	0.0155257
681.578	0.0156838
681.656	0.0155300
681.734	0.0154491
681.812	0.0155608
681.890	0.0153121
681.968	0.0155704
682.046	0.0156179
682.124	0.0155415
682.203	0.0154950
682.281	0.0155409
682.359	0.0156255
682.437	0.0154597
682.515	0.0154543
682.593	0.0154302
682.671	0.0155809
682.749	0.0155015
682.828	0.0155669
682.906	0.0156343
682.984	0.0154512
683.062	0.0154770
683.140	0.0153728
683.218	0.0155794
683.296	0.0155060
683.374	0.0154723
683.453	0.0154846
683.531	0.0154237
683.609	0.0155211
683.687	0.0154862
683.765	0.0154588
683.843	0.0153825
683.921	0.0156020
683.999	0.0156182
684.078	0.0155051
684.156	0.0155193
684.234	0.0155895
684.312	0.0155037
684.390	0.0154312
684.468	0.0154800
684.546	0.0154518
684.624	0.0155061
684.703	0.0155040
684.781	0.0155623
684.859	0.0155054
684.937	0.0153503
685.015	0.0155717
685.093	0.0155680
685.171	0.0153703
685.249	0.0153710
685.328	0.0155125
685.406	0.0155384
685.484	0.0154681
685.562	0.0153704
685.640	0.0154855
685.718	0.0154131
685.796	0.0155813
685.874	0.0153967
685.953	0.0154554
686.031	0.0154793
686.109	0.0153749
686.187	0.0155693
686.265	0.0154318
686.343	0.0153377
686.421	0.0154762
686.499	0.0155551
686.578	0.0156963
686.656	0.0156045
686.734	0.0153878
686.812	0.0154189
686.890	0.0155763
686.968	0.0153963
687.046	0.0155610
687.124	0.0155210
687.203	0.0155388
687.281	0.0156215
687.359	0.0155505
687.437	0.0155711
687.515	0.0155674
687.593	0.0154431
687.671	0.0155045
687.749	0.0154647
687.828	0.0155421
687.906	0.0154935
687.984	0.0154920
688.062	0.0154411
688.140	0.0154493
688.218	0.0155074
688.296	0.0154321
688.374	0.0154769
688.453	0.0153963
688.531	0.0154954
688.609	0.0154912
688.687	0.0156023
688.765	0.0156106
688.843	0.0156123
688.921	0.0156291
688.999	0.0153711
689.078	0.0154988
689.156	0.0155500
689.234	0.0155450
689.312	0.0155283
689.390	0.0156102
689.468	0.0154785
689.546	0.0156170
689.624	0.0156889
689.703	0.0154206
689.781	0.0154843
689.859	0.0152988
689.937	0.0154356
690.015	0.0155830
690.093	0.0154676
690.171	0.0155449
690.249	0.0153917
690.328	0.0154069
690.406	0.0155068
690.484	0.0156500
690.562	0.0156029
690.640	0.0153568
690.718	0.0154709
690.796	0.0154551
690.874	0.0155095
690.953	0.0154916
691.031	0.0156789
691.109	0.0153466
691.187	0.0155139
691.265	0.0154055
691.343	0.0155538
691.421	0.0155003
691.499	0.0156406
691.578	0.0155122
691.656	0.0155611
691.734	0.0155282
691.812	0.0154529
691.890	0.0155415
691.968	0.0154825
692.046	0.0155121
692.124	0.0155035
692.203	0.0153998
692.281	0.0155900
692.359	0.0156799
692.437	0.0155475
692.515	0.0154344
692.593	0.0154253
692.671	0.0154604
692.749	0.0155640
692.828	0.0155699
692.906	0.0154365
692.984	0.0155436
693.062	0.0156508
693.140	0.0156756
693.218	0.0154875
693.296	0.0155067
693.374	0.0154996
693.453	0.0155321
693.531	0.0153866
693.609	0.0155518
693.687	0.0155544
693.765	0.0155276
693.843	0.0154098
693.921	0.0153752
693.999	0.0155655
694.078	0.0155715
694.156	0.0155835
694.234	0.0154588
694.312	0.0154791
694.390	0.0154264
694.468	0.0156118
694.546	0.0154655
694.624	0.0155243
694.703	0.0156263
694.781	0.0154160
694.859	0.0156188
694.937	0.0154611
695.015	0.0154602
695.093	0.0155844
695.171	0.0155803
695.249	0.0155194
695.328	0.0154639
695.406	0.0156528
695.484	0.0155063
695.562	0.0153645
695.640	0.0154922
695.718	0.0154962
695.796	0.0153492
695.874	0.0156161
695.953	0.0154617
696.031	0.0154227
696.109	0.0155445
696.187	0.0156168
696.265	0.0155131
696.343	0.0153848
696.421	0.0154051
696.499	0.0156469
696.578	0.0155102
696.656	0.0154887
696.734	0.0155676
696.812	0.0154527
696.890	0.0154782
696.968	0.0154930
697.046	0.0155771
697.124	0.0155651
697.203	0.0153342
697.281	0.0154175
697.359	0.0155614
697.437	0.0154559
697.515	0.0153625
697.593	0.0155245
697.671	0.0154590
697.749	0.0154204
697.828	0.0154401
697.906	0.0154043
697.984	0.0155066
698.062	0.0154755
698.140	0.0154427
698.218	0.0154437
698.296	0.0153651
698.374	0.0153228
698.453	0.0154005
698.531	0.0153642
698.609	0.0155547
698.687	0.0154743
698.765	0.0154546
698.843	0.0154874
698.921	0.0154956
698.999	0.0154528
699.078	0.0155496
699.156	0.0154627
699.234	0.0154632
699.312	0.0153785
699.390	0.0154996
699.468	0.0155212
699.546	0.0155299
699.624	0.0155080
699.703	0.0153674
699.781	0.0155769
699.859	0.0155138
699.937	0.0154554
700.015	0.0155415
700.093	0.0154837
700.171	0.0155110
700.249	0.0154816
700.328	0.0154906
700.406	0.0153903
700.484	0.0154017
700.562	0.0154221
700.640	0.0154425
700.718	0.0155545
700.796	0.0154736
700.874	0.0154601
700.953	0.0155231
701.031	0.0154339
701.109	0.0153676
701.187	0.0155151
701.265	0.0155006
701.343	0.0155134
701.421	0.0154945
701.499	0.0154951
701.578	0.0154482
701.656	0.0155054
701.734	0.0154833
701.812	0.0154243
701.890	0.0154755
701.968	0.0154945
702.046	0.0153432
702.124	0.0154939
702.203	0.0156348
702.281	0.0154490
702.359	0.0155490
702.437	0.0155093
702.515	0.0153888
702.593	0.0153436
702.671	0.0154327
702.749	0.0156010
702.828	0.0154461
702.906	0.0155296
702.984	0.0155227
703.062	0.0154733
703.140	0.0154729
703.218	0.0154124
703.296	0.0153178
703.374	0.0155108
703.453	0.0154958
703.531	0.0154514
703.609	0.0155674
703.687	0.0155783
703.765	0.0154373
703.843	0.0154418
703.921	0.0154588
703.999	0.0155265
704.078	0.0155431
704.156	0.0153996
704.234	0.0155577
704.312	0.0154327
704.390	0.0154221
704.468	0.0154402
704.546	0.0154588
704.624	0.0154819
704.703	0.0154501
704.781	0.0156112
704.859	0.0154787
704.937	0.0154451
705.015	0.0155283
705.093	0.0155296
705.171	0.0154804
705.249	0.0153653
705.328	0.0155373
705.406	0.0156098
705.484	0.0155413
705.562	0.0155618
705.640	0.0155356
705.718	0.0156070
705.796	0.0156239
705.874	0.0154246
705.953	0.0154529
706.031	0.0154401
706.109	0.0155173
706.187	0.0155607
706.265	0.0155110
706.343	0.0154910
706.421	0.0154723
706.499	0.0154004
706.578	0.0155691
706.656	0.0154609
706.734	0.0155219
706.812	0.0155670
706.890	0.0155902
706.968	0.0154839
707.046	0.0153553
707.124	0.0155660
707.203	0.0154417
707.281	0.0154545
707.359	0.0154951
707.437	0.0155682
707.515	0.0156240
707.593	0.0155331
707.671	0.0155158
707.749	0.0153773
707.828	0.0154369
707.906	0.0155879
707.984	0.0155406
708.062	0.0154485
708.140	0.0154300
708.218	0.0155800
708.296	0.0155066
708.374	0.0155530
708.453	0.0154816
708.531	0.0154896
708.609	0.0153584
708.687	0.0154487
708.765	0.0154221
708.843	0.0155326
708.921	0.0155270
708.999	0.0154914
709.078	0.0154807
709.156	0.0155850
709.234	0.0155099
709.312	0.0154988
709.390	0.0155086
709.468	0.0155728
709.546	0.0156351
709.624	0.0154607
709.703	0.0155807
709.781	0.0154268
709.859	0.0155177
709.937	0.0154368
710.015	0.0154975
710.093	0.0155187
710.171	0.0154770
710.249	0.0154082
710.328	0.0156004
710.406	0.0156308
710.484	0.0154955
710.562	0.0155058
710.640	0.0155389
710.718	0.0156245
710.796	0.0155486
710.874	0.0156368
710.953	0.0154596
711.031	0.0155756
711.109	0.0155721
711.187	0.0155201
711.265	0.0154922
711.343	0.0155009
711.421	0.0154733
711.499	0.0154865
711.578	0.0155837
711.656	0.0155276
711.734	0.0153974
711.812	0.0154841
711.890	0.0156403
711.968	0.0156151
712.046	0.0155112
712.124	0.0156019
712.203	0.0154491
712.281	0.0154941
712.359	0.0154863
712.437	0.0155243
712.515	0.0156403
712.593	0.0155160
712.671	0.0155820
712.749	0.0154264
712.828	0.0155504
712.906	0.0155093
712.984	0.0153737
713.062	0.0154456
713.140	0.0154654
713.218	0.0154484
713.296	0.0155611
713.374	0.0154852
713.453	0.0153416
713.531	0.0153371
713.609	0.0155191
713.687	0.0155011
713.765	0.0154931
713.843	0.0154289
713.921	0.0155588
713.999	0.0154988
714.078	0.0153873
714.156	0.0155551
714.234	0.0153923
714.312	0.0154795
714.390	0.0155170
714.468	0.0155383
714.546	0.0154972
714.624	0.0155044
714.703	0.0153989
714.781	0.0155006
714.859	0.0154509
714.937	0.0154198
715.015	0.0154749
715.093	0.0155203
715.171	0.0155379
715.249	0.0155711
715.328	0.0154845
715.406	0.0155239
715.484	0.0154305
715.562	0.0153936
715.640	0.0154314
715.718	0.0153995
715.796	0.0154386
715.874	0.0154213
715.953	0.0154714
716.031	0.0155602
716.109	0.0154005
716.187	0.0155630
716.265	0.0153941
716.343	0.0153472
716.421	0.0154658
716.499	0.0154510
716.578	0.0155630
716.656	0.0155757
716.734	0.0154362
716.812	0.0154919
716.890	0.0154492
716.968	0.0154060
717.046	0.0152887
717.124	0.0154574
717.203	0.0154993
717.281	0.0155473
717.359	0.0154102
717.437	0.0154015
717.515	0.0155253
717.593	0.0154525
717.671	0.0154748
717.749	0.0152841
717.828	0.0154882
717.906	0.0153121
717.984	0.0154652
718.062	0.0153091
718.140	0.0153378
718.218	0.0154214
718.296	0.0155080
718.374	0.0154190
718.453	0.0155296
718.531	0.0154026
718.609	0.0154317
718.687	0.0153630
718.765	0.0153403
718.843	0.0155524
718.921	0.0155706
718.999	0.0154719
719.078	0.0155400
719.156	0.0153337
719.234	0.0154408
719.312	0.0154435
719.390	0.0153954
719.468	0.0155204
719.546	0.0154910
719.624	0.0152876
719.703	0.0156171
719.781	0.0155470
719.859	0.0155105
719.937	0.0154342
720.015	0.0156001
720.093	0.0155556
720.171	0.0154105
720.249	0.0154207
720.328	0.0155910
720.406	0.0155091
720.484	0.0155975
720.562	0.0154472
720.640	0.0154122
720.718	0.0155398
720.796	0.0154662
720.874	0.0157220
720.953	0.0156525
721.031	0.0155222
721.109	0.0154389
721.187	0.0155901
721.265	0.0155154
721.343	0.0156199
721.421	0.0154953
721.499	0.0155312
721.578	0.0155587
721.656	0.0153978
721.734	0.0155220
721.812	0.0155160
721.890	0.0154971
721.968	0.0155154
722.046	0.0154735
722.124	0.0155408
722.203	0.0155994
722.281	0.0155544
722.359	0.0155425
722.437	0.0155329
722.515	0.0154317
722.593	0.0154950
722.671	0.0155352
722.749	0.0156620
722.828	0.0157854
722.906	0.0156120
722.984	0.0156046
723.062	0.0155120
723.140	0.0154855
723.218	0.0155552
723.296	0.0155595
723.374	0.0156214
723.453	0.0155067
723.531	0.0156202
723.609	0.0156421
723.687	0.0155109
723.765	0.0156865
723.843	0.0154907
723.921	0.0155711
723.999	0.0155859
724.078	0.0155196
724.156	0.0155659
724.234	0.0155390
724.312	0.0156784
724.390	0.0155779
724.468	0.0155061
724.546	0.0155500
724.624	0.0154354
724.703	0.0155135
724.781	0.0155738
724.859	0.0155630
724.937	0.0155386
725.015	0.0155273
725.093	0.0155157
725.171	0.0154592
725.249	0.0154919
725.328	0.0155241
725.406	0.0154597
725.484	0.0154346
725.562	0.0154838
725.640	0.0155091
725.718	0.0156944
725.796	0.0156204
725.874	0.0155470
725.953	0.0155765
726.031	0.0154285
726.109	0.0155193
726.187	0.0155139
726.265	0.0154501
726.343	0.0155207
726.421	0.0154871
726.499	0.0154708
726.578	0.0154715
726.656	0.0155590
726.734	0.0155968
726.812	0.0154614
726.890	0.0154793
726.968	0.0154462
727.046	0.0154188
727.124	0.0155165
727.203	0.0155347
727.281	0.0155025
727.359	0.0155279
727.437	0.0154752
727.515	0.0153876
727.593	0.0153861
727.671	0.0155261
727.749	0.0154056
727.828	0.0153683
727.906	0.0152818
727.984	0.0154610
728.062	0.0154986
728.140	0.0153310
728.218	0.0152657
728.296	0.0155263
728.374	0.0155484
728.453	0.0154833
728.531	0.0155012
728.609	0.0153911
728.687	0.0154001
728.765	0.0153519
728.843	0.0154692
728.921	0.0152792
728.999	0.0154108
729.078	0.0153786
729.156	0.0154313
729.234	0.0154166
729.312	0.0154783
729.390	0.0155118
729.468	0.0154411
729.546	0.0153985
729.624	0.0154931
729.703	0.0153814
729.781	0.0154832
729.859	0.0154565
729.937	0.0154334
730.015	0.0152982
730.093	0.0153963
730.171	0.0154625
730.249	0.0154218
730.328	0.0153553
730.406	0.0153246
730.484	0.0153680
730.562	0.0154267
730.640	0.0153864
730.718	0.0154588
730.796	0.0155132
730.874	0.0154960
730.953	0.0154384
731.031	0.0154049
731.109	0.0152927
731.187	0.0155067
731.265	0.0153970
731.343	0.0153748
731.421	0.0155320
731.499	0.0154987
731.578	0.0154993
731.656	0.0154330
731.734	0.0154321
731.812	0.0154076
731.890	0.0155183
731.968	0.0154931
732.046	0.0155608
732.124	0.0154983
732.203	0.0153348
732.281	0.0154040
732.359	0.0155558
732.437	0.0155084
732.515	0.0154488
732.593	0.0156109
732.671	0.0153374
732.749	0.0154425
732.828	0.0154570
732.906	0.0154475
732.984	0.0155261
733.062	0.0154942
733.140	0.0154881
733.218	0.0153914
733.296	0.0153682
733.374	0.0155632
733.453	0.0154679
733.531	0.0154882
733.609	0.0155112
733.687	0.0155364
733.765	0.0155527
733.843	0.0154835
733.921	0.0153979
733.999	0.0153251
734.078	0.0154253
734.156	0.0153716
734.234	0.0153851
734.312	0.0156293
734.390	0.0155759
734.468	0.0155830
734.546	0.0155379
734.624	0.0156317
734.703	0.0157615
734.781	0.0157832
734.859	0.0157317
734.937	0.0156519
735.015	0.0156419
735.093	0.0157442
735.171	0.0155990
735.249	0.0152063
735.328	0.0151590
735.406	0.0151740
735.484	0.0151566
735.562	0.0150766
735.640	0.0152849
735.718	0.0154574
735.796	0.0155563
735.874	0.0158064
735.953	0.0158430
736.031	0.0158829
736.109	0.0159051
736.187	0.0158006
736.265	0.0158026
736.343	0.0156006
736.421	0.0155601
736.499	0.0154411
736.578	0.0153053
736.656	0.0151871
736.734	0.0154001
736.812	0.0154626
736.890	0.0155027
736.968	0.0156009
737.046	0.0156550
737.124	0.0155959
737.203	0.0156010
737.281	0.0156147
737.359	0.0154714
737.437	0.0152168
737.515	0.0153098
737.593	0.0152605
737.671	0.0153521
737.749	0.0154107
737.828	0.0152702
737.906	0.0152852
737.984	0.0153372
738.062	0.0153446
738.140	0.0154285
738.218	0.0154642
738.296	0.0153541
738.374	0.0155428
738.453	0.0154424
738.531	0.0154410
738.609	0.0155271
738.687	0.0154964
738.765	0.0154924
738.843	0.0156041
738.921	0.0158540
738.999	0.0158696
739.078	0.0158897
739.156	0.0160069
739.234	0.0160835
739.312	0.0160782
739.390	0.0159252
739.468	0.0160499
739.546	0.0161725
739.624	0.0157853
739.703	0.0159042
739.781	0.0157021
739.859	0.0156889
739.937	0.0154620
740.015	0.0153259
740.093	0.0152312
740.171	0.0149640
740.249	0.0148145
740.328	0.0148444
740.406	0.0147805
740.484	0.0146473
740.562	0.0147083
740.640	0.0146265
740.718	0.0145891
740.796	0.0145003
740.874	0.0147054
740.953	0.0145950
741.031	0.0145869
741.109	0.0147338
741.187	0.0148918
741.265	0.0148956
741.343	0.0150460
741.421	0.0153252
741.499	0.0155161
741.578	0.0157104
741.656	0.0159485
741.734	0.0161802
741.812	0.0162982
741.890	0.0164616
741.968	0.0163212
742.046	0.0167153
742.124	0.0165238
742.203	0.0166317
742.281	0.0166608
742.359	0.0166479
742.437	0.0165508
742.515	0.0165063
742.593	0.0163701
742.671	0.0162538
742.749	0.0162325
742.828	0.0159059
742.906	0.0157025
742.984	0.0155212
743.062	0.0154647
743.140	0.0151904
743.218	0.0150043
743.296	0.0148397
743.374	0.0147377
743.453	0.0148015
743.531	0.0148317
743.609	0.0148774
743.687	0.0150360
743.765	0.0150311
743.843	0.0150935
743.921	0.0151962
743.999	0.0153822
744.078	0.0154391
744.156	0.0153201
744.234	0.0154250
744.312	0.0154671
744.390	0.0155721
744.468	0.0155312
744.546	0.0154453
744.624	0.0154397
744.703	0.0154900
744.781	0.0153382
744.859	0.0151572
744.937	0.0148846
745.015	0.0147672
745.093	0.0145407
745.171	0.0143062
745.249	0.0143406
745.328	0.0142275
745.406	0.0141769
745.484	0.0143485
745.562	0.0144429
745.640	0.0146731
745.718	0.0149458
745.796	0.0151942
745.874	0.0154958
745.953	0.0157116
746.031	0.0160284
746.109	0.0163271
746.187	0.0166016
746.265	0.0166283
746.343	0.0167595
746.421	0.0170116
746.499	0.0170959
746.578	0.0170687
746.656	0.0171880
746.734	0.0172276
746.812	0.0170778
746.890	0.0170005
746.968	0.0169398
747.046	0.0166689
747.124	0.0165005
747.203	0.0161620
747.281	0.0161857
747.359	0.0159150
747.437	0.0156022
747.515	0.0154965
747.593	0.0154514
747.671	0.0150466
747.749	0.0149342
747.828	0.0148569
747.906	0.0147038
747.984	0.0146464
748.062	0.0144022
748.140	0.0143781
748.218	0.0143332
748.296	0.0144412
748.374	0.0145355
748.453	0.0145937
748.531	0.0145830
748.609	0.0145533
748.687	0.0147488
748.765	0.0149290
748.843	0.0152223
748.921	0.0151685
748.999	0.0152161
749.078	0.0152483
749.156	0.0154549
749.234	0.0154448
749.312	0.0154662
749.390	0.0154069
749.468	0.0153959
749.546	0.0152710
749.624	0.0150454
749.703	0.0149133
749.781	0.0149249
749.859	0.0149435
749.937	0.0149217
750.015	0.0147521
750.093	0.0149584
750.171	0.0151486
750.249	0.0151515
750.328	0.0154711
750.406	0.0158084
750.484	0.0161390
750.562	0.0164159
750.640	0.0166714
750.718	0.0169789
750.796	0.0170357
750.874	0.0171848
750.953	0.0174598
751.031	0.0173146
751.109	0.0173138
751.187	0.0171873
751.265	0.0171084
751.343	0.0166995
751.421	0.0164445
751.499	0.0162170
751.578	0.0159910
751.656	0.0156855
751.734	0.0152998
751.812	0.0150232
751.890	0.0146249
751.968	0.0144151
752.046	0.0144028
752.124	0.0143890
752.203	0.0145355
752.281	0.0143304
752.359	0.0144801
752.437	0.0147528
752.515	0.0147591
752.593	0.0149186
752.671	0.0152477
752.749	0.0154649
752.828	0.0155215
752.906	0.0157428
752.984	0.0157382
753.062	0.0159112
753.140	0.0158361
753.218	0.0159419
753.296	0.0159933
753.374	0.0159049
753.453	0.0156989
753.531	0.0155320
753.609	0.0155175
753.687	0.0155042
753.765	0.0153885
753.843	0.0150859
753.921	0.0149449
753.999	0.0148669
754.078	0.0148059
754.156	0.0148570
754.234	0.0147634
754.312	0.0147738
754.390	0.0147003
754.468	0.0149129
754.546	0.0149006
754.624	0.0149224
754.703	0.0148994
754.781	0.0152020
754.859	0.0151354
754.937	0.0152570
755.015	0.0151601
755.093	0.0155434
755.171	0.0155577
755.249	0.0156715
755.328	0.0158237
755.406	0.0158988
755.484	0.0159645
755.562	0.0161347
755.640	0.0163041
755.718	0.0162586
755.796	0.0162985
755.874	0.0163236
755.953	0.0162531
756.031	0.0163508
756.109	0.0161479
756.187	0.0161218
756.265	0.0160619
756.343	0.0158768
756.421	0.0158715
756.499	0.0157846
756.578	0.0156709
756.656	0.0155655
756.734	0.0154839
756.812	0.0154890
756.890	0.0152576
756.968	0.0152264
757.046	0.0152815
757.124	0.0152605
757.203	0.0151871
757.281	0.0153620
757.359	0.0154765
757.437	0.0153775
757.515	0.0152852
757.593	0.0155540
757.671	0.0155150
757.749	0.0153757
757.828	0.0155172
757.906	0.0154868
757.984	0.0154021
758.062	0.0153129
758.140	0.0152264
758.218	0.0151973
758.296	0.0149496
758.374	0.0148521
758.453	0.0148431
758.531	0.0148101
758.609	0.0147111
758.687	0.0145736
758.765	0.0145214
758.843	0.0145084
758.921	0.0145534
758.999	0.0145713
759.078	0.0146232
759.156	0.0146907
759.234	0.0147632
759.312	0.0148343
759.390	0.0151317
759.468	0.0152153
759.546	0.0154322
759.624	0.0155753
759.703	0.0156561
759.781	0.0159695
759.859	0.0161156
759.937	0.0159824
760.015	0.0161771
760.093	0.0163450
760.171	0.0163093
760.249	0.0163163
760.328	0.0163470
760.406	0.0162736
760.484	0.0163696
760.562	0.0163742
760.640	0.0164095
760.718	0.0164413
760.796	0.0164040
760.874	0.0163246
760.953	0.0163708
761.031	0.0162930
761.109	0.0162440
761.187	0.0161903
761.265	0.0160676
761.343	0.0157514
761.421	0.0156741
761.499	0.0156725
761.578	0.0156479
761.656	0.0154357
761.734	0.0153755
761.812	0.0151624
761.890	0.0149636
761.968	0.0149998
762.046	0.0150710
762.124	0.0148057
762.203	0.0146318
762.281	0.0145045
762.359	0.0146751
762.437	0.0144857
762.515	0.0145527
762.593	0.0147432
762.671	0.0145867
762.749	0.0148142
762.828	0.0150521
762.906	0.0150813
762.984	0.0153139
763.062	0.0154568
763.140	0.0154322
763.218	0.0154520
763.296	0.0156830
763.374	0.0157596
763.453	0.0156239
763.531	0.0158297
763.609	0.0158562
763.687	0.0158011
763.765	0.0158338
763.843	0.0156884
763.921	0.0159478
763.999	0.0158282
764.078	0.0158433
764.156	0.0155992
764.234	0.0156531
764.312	0.0156599
764.390	0.0155492
764.468	0.0155108
764.546	0.0154194
764.624	0.0155181
764.703	0.0155785
764.781	0.0155358
764.859	0.0154441
764.937	0.0153752
765.015	0.0154233
765.093	0.0153587
765.171	0.0153346
765.249	0.0153168
765.328	0.0153770
765.406	0.0154177
765.484	0.0154045
765.562	0.0154245
765.640	0.0155551
765.718	0.0156339
765.796	0.0157721
765.874	0.0157871
765.953	0.0158739
766.031	0.0157966
766.109	0.0159077
766.187	0.0159064
766.265	0.0157528
766.343	0.0157098
766.421	0.0155972
766.499	0.0154662
766.578	0.0153612
766.656	0.0154379
766.734	0.0152096
766.812	0.0150444
766.890	0.0151905
766.968	0.0151865
767.046	0.0150521
767.124	0.0150303
767.203	0.0152075
767.281	0.0150801
767.359	0.0151961
767.437	0.0150967
767.515	0.0151716
767.593	0.0151897
767.671	0.0152683
767.749	0.0152557
767.828	0.0153745
767.906	0.0154870
767.984	0.0153129
768.062	0.0151807
768.140	0.0154284
768.218	0.0154142
768.296	0.0155786
768.374	0.0153550
768.453	0.0152616
768.531	0.0153241
768.609	0.0153842
768.687	0.0154266
768.765	0.0154630
768.843	0.0154661
768.921	0.0155082
768.999	0.0155607
769.078	0.0155223
769.156	0.0156135
769.234	0.0155684
769.312	0.0157259
769.390	0.0157169
769.468	0.0157052
769.546	0.0157001
769.624	0.0156747
769.703	0.0158138
769.781	0.0156855
769.859	0.0155712
769.937	0.0156618
770.015	0.0155899
770.093	0.0155708
770.171	0.0154715
770.249	0.0154617
770.328	0.0151438
770.406	0.0152927
770.484	0.0152310
770.562	0.0152058
770.640	0.0153822
770.718	0.0154257
770.796	0.0153571
770.874	0.0154790
770.953	0.0155685
771.031	0.0155909
771.109	0.0156322
771.187	0.0157665
771.265	0.0157890
771.343	0.0158770
771.421	0.0158587
771.499	0.0158376
771.578	0.0157864
771.656	0.0156973
771.734	0.0156958
771.812	0.0155808
771.890	0.0154781
771.968	0.0153884
772.046	0.0154504
772.124	0.0153852
772.203	0.0153113
772.281	0.0151746
772.359	0.0151382
772.437	0.0152544
772.515	0.0152619
772.593	0.0152241
772.671	0.0152842
772.749	0.0153093
772.828	0.0153062
772.906	0.0154926
772.984	0.0153275
773.062	0.0155260
773.140	0.0155912
773.218	0.0155399
773.296	0.0156532
773.374	0.0157436
773.453	0.0156998
773.531	0.0157774
773.609	0.0157109
773.687	0.0156156
773.765	0.0157193
773.843	0.0156178
773.921	0.0156051
773.999	0.0154710
774.078	0.0155008
774.156	0.0154342
774.234	0.0153795
774.312	0.0154327
774.390	0.0154675
774.468	0.0155506
774.546	0.0154129
774.624	0.0152723
774.703	0.0154260
774.781	0.0154061
774.859	0.0152917
774.937	0.0152906
775.015	0.0153323
775.093	0.0153577
775.171	0.0152795
775.249	0.0153447
775.328	0.0152855
775.406	0.0152647
775.484	0.0152848
775.562	0.0152190
775.640	0.0152499
775.718	0.0153255
775.796	0.0153568
775.874	0.0154683
775.953	0.0155415
776.031	0.0156643
776.109	0.0156185
776.187	0.0157288
776.265	0.0158667
776.343	0.0158537
776.421	0.0158955
776.499	0.0157964
776.578	0.0159950
776.656	0.0160162
776.734	0.0160113
776.812	0.0159170
776.890	0.0159305
776.968	0.0158391
777.046	0.0158441
777.124	0.0158624
777.203	0.0157547
777.281	0.0157092
777.359	0.0158236
777.437	0.0156841
777.515	0.0155760
777.593	0.0156366
777.671	0.0155203
777.749	0.0154176
777.828	0.0153851
777.906	0.0152695
777.984	0.0153016
778.062	0.0151905
778.140	0.0150662
778.218	0.0151094
778.296	0.0150960
778.374	0.0151363
778.453	0.0149541
778.531	0.0150254
778.609	0.0150803
778.687	0.0151108
778.765	0.0150762
778.843	0.0151501
778.921	0.0152515
778.999	0.0152837
779.078	0.0152669
779.156	0.0153186
779.234	0.0152802
779.312	0.0155093
779.390	0.0155324
779.468	0.0155412
779.546	0.0156422
779.624	0.0155504
779.703	0.0156193
779.781	0.0155801
779.859	0.0156871
779.937	0.0155923
780.015	0.0158429
780.093	0.0158387
780.171	0.0157474
780.249	0.0157966
780.328	0.0157690
780.406	0.0157248
780.484	0.0156912
780.562	0.0157159
780.640	0.0157190
780.718	0.0156822
780.796	0.0159081
780.874	0.0157679
780.953	0.0157666
781.031	0.0158685
781.109	0.0160714
781.187	0.0159644
781.265	0.0158614
781.343	0.0157941
781.421	0.0158310
781.499	0.0158575
781.578	0.0158419
781.656	0.0157166
781.734	0.0156738
781.812	0.0155486
781.890	0.0156148
781.968	0.0153559
782.046	0.0154853
782.124	0.0155433
782.203	0.0152686
782.281	0.0152559
782.359	0.0152588
782.437	0.0151393
782.515	0.0152056
782.593	0.0151479
782.671	0.0152412
782.749	0.0150440
782.828	0.0150212
782.906	0.0151517
782.984	0.0151620
783.062	0.0150423
783.140	0.0150108
783.218	0.0151792
783.296	0.0151180
783.374	0.0152962
783.453	0.0151734
783.531	0.0151656
783.609	0.0153810
783.687	0.0151894
783.765	0.0153276
783.843	0.0154279
783.921	0.0155479
783.999	0.0156409
784.078	0.0157339
784.156	0.0156752
784.234	0.0156667
784.312	0.0156594
784.390	0.0157124
784.468	0.0158588
784.546	0.0156911
784.624	0.0156422
784.703	0.0156728
784.781	0.0157703
784.859	0.0156848
784.937	0.0155618
785.015	0.0158021
785.093	0.0156159
785.171	0.0156565
785.249	0.0156966
785.328	0.0156554
785.406	0.0155975
785.484	0.0155975
785.562	0.0156633
785.640	0.0154912
785.718	0.0155390
785.796	0.0155925
785.874	0.0156366
785.953	0.0155537
786.031	0.0155054
786.109	0.0153479
786.187	0.0155128
786.265	0.0155219
786.343	0.0156025
786.421	0.0154337
786.499	0.0155822
786.578	0.0155730
786.656	0.0154848
786.734	0.0154938
786.812	0.0154882
786.890	0.0153447
786.968	0.0154056
787.046	0.0153372
787.124	0.0152888
787.203	0.0153054
787.281	0.0154070
787.359	0.0153356
787.437	0.0154688
787.515	0.0153583
787.593	0.0154284
787.671	0.0153640
787.749	0.0155506
787.828	0.0154916
787.906	0.0156345
787.984	0.0155188
788.062	0.0155174
788.140	0.0154681
788.218	0.0155047
788.296	0.0155682
788.374	0.0156299
788.453	0.0155465
788.531	0.0155430
788.609	0.0155695
788.687	0.0154408
788.765	0.0154940
788.843	0.0154657
788.921	0.0153622
788.999	0.0154097
789.078	0.0154865
789.156	0.0154356
789.234	0.0154551
789.312	0.0156731
789.390	0.0155109
789.468	0.0155280
789.546	0.0156533
789.624	0.0156464
789.703	0.0155805
789.781	0.0155658
789.859	0.0156785
789.937	0.0155732
790.015	0.0156715
790.093	0.0157105
790.171	0.0156660
790.249	0.0157222
790.328	0.0157483
790.406	0.0157059
790.484	0.0155435
790.562	0.0155306
790.640	0.0155343
790.718	0.0155032
790.796	0.0155410
790.874	0.0153944
790.953	0.0154002
791.031	0.0154828
791.109	0.0153133
791.187	0.0154125
791.265	0.0154102
791.343	0.0153780
791.421	0.0153854
791.499	0.0154429
791.578	0.0153657
791.656	0.0154430
791.734	0.0154703
791.812	0.0154240
791.890	0.0154048
791.968	0.0154523
792.046	0.0154267
792.124	0.0153871
792.203	0.0154305
792.281	0.0155743
792.359	0.0156809
792.437	0.0154677
792.515	0.0156843
792.593	0.0155678
792.671	0.0155693
792.749	0.0154655
792.828	0.0156310
792.906	0.0156660
792.984	0.0157160
793.062	0.0154984
793.140	0.0156093
793.218	0.0155862
793.296	0.0155260
793.374	0.0155957
793.453	0.0155016
793.531	0.0154952
793.609	0.0155763
793.687	0.0155675
793.765	0.0154446
793.843	0.0154697
793.921	0.0155233
793.999	0.0154545
794.078	0.0153603
794.156	0.0154891
794.234	0.0154499
794.312	0.0153146
794.390	0.0154156
794.468	0.0154543
794.546	0.0154880
794.624	0.0155865
794.703	0.0156414
794.781	0.0153573
794.859	0.0156092
794.937	0.0156428
795.015	0.0155044
795.093	0.0156283
795.171	0.0154826
795.249	0.0155514
795.328	0.0155321
795.406	0.0154265
795.484	0.0154511
795.562	0.0154533
795.640	0.0154848
795.718	0.0155307
795.796	0.0154140
795.874	0.0154936
795.953	0.0154180
796.031	0.0154839
796.109	0.0155331
796.187	0.0153231
796.265	0.0153876
796.343	0.0153094
796.421	0.0153841
796.499	0.0153199
796.578	0.0154817
796.656	0.0155250
796.734	0.0154621
796.812	0.0153378
796.890	0.0154594
796.968	0.0154074
797.046	0.0155195
797.124	0.0156515
797.203	0.0156263
797.281	0.0156409
797.359	0.0155741
797.437	0.0156777
797.515	0.0155645
797.593	0.0155727
797.671	0.0154606
797.749	0.0152478
797.828	0.0153391
797.906	0.0153977
797.984	0.0154127
798.062	0.0153074
798.140	0.0154979
798.218	0.0154562
798.296	0.0153950
798.374	0.0154371
798.453	0.0154554
798.531	0.0154581
798.609	0.0153783
798.687	0.0155730
798.765	0.0155315
798.843	0.0154270
798.921	0.0155205
798.999	0.0154758
799.078	0.0155116
799.156	0.0156165
799.234	0.0156021
799.312	0.0156937
799.390	0.0155342
799.468	0.0155348
799.546	0.0156029
799.624	0.0155820
799.703	0.0155093
799.781	0.0156580
799.859	0.0155474
799.937	0.0156384
800.015	0.0156089
800.093	0.0157397
800.171	0.0154760
800.249	0.0155655
800.328	0.0156519
800.406	0.0156462
800.484	0.0155080
800.562	0.0156113
800.640	0.0155660
800.718	0.0155335
800.796	0.0154960
800.874	0.0155446
800.953	0.0154012
801.031	0.0153851
801.109	0.0155799
801.187	0.0155132
801.265	0.0155953
801.343	0.0154757
801.421	0.0154497
801.499	0.0155640
801.578	0.0154187
801.656	0.0154631
801.734	0.0155973
801.812	0.0156459
801.890	0.0155690
801.968	0.0155084
802.046	0.0154798
802.124	0.0155775
802.203	0.0154977
802.281	0.0155677
802.359	0.0155195
802.437	0.0156220
802.515	0.0157037
802.593	0.0155859
802.671	0.0155502
802.749	0.0156091
802.828	0.0154099
802.906	0.0154082
802.984	0.0154076
803.062	0.0154877
803.140	0.0152943
803.218	0.0155479
803.296	0.0154982
803.374	0.0153178
803.453	0.0154610
803.531	0.0154416
803.609	0.0153996
803.687	0.0154857
803.765	0.0155024
803.843	0.0154292
803.921	0.0154583
803.999	0.0155983
804.078	0.0156638
804.156	0.0155396
804.234	0.0156297
804.312	0.0156414
804.390	0.0156987
804.468	0.0159438
804.546	0.0157487
804.624	0.0157549
804.703	0.0158375
804.781	0.0158962
804.859	0.0158058
804.937	0.0157596
805.015	0.0157688
805.093	0.0157751
805.171	0.0156651
805.249	0.0155717
805.328	0.0157046
805.406	0.0155928
805.484	0.0154578
805.562	0.0154253
805.640	0.0154218
805.718	0.0154520
805.796	0.0153797
805.874	0.0153715
805.953	0.0152343
806.031	0.0153122
806.109	0.0153309
806.187	0.0154350
806.265	0.0153893
806.343	0.0153503
806.421	0.0153113
806.499	0.0153915
806.578	0.0153642
806.656	0.0152561
806.734	0.0154247
806.812	0.0154131
806.890	0.0153230
806.968	0.0153517
807.046	0.0156602
807.124	0.0155772
807.203	0.0155475
807.281	0.0156244
807.359	0.0157558
807.437	0.0156223
807.515	0.0156567
807.593	0.0154972
807.671	0.0156662
807.749	0.0155463
807.828	0.0154352
807.906	0.0153477
807.984	0.0155771
808.062	0.0154201
808.140	0.0154274
808.218	0.0155086
808.296	0.0154924
808.374	0.0154398
808.453	0.0154377
808.531	0.0154823
808.609	0.0154357
808.687	0.0154945
808.765	0.0154583
808.843	0.0154841
808.921	0.0155135
808.999	0.0154919
809.078	0.0155780
809.156	0.0154838
809.234	0.0157446
809.312	0.0156393
809.390	0.0155035
809.468	0.0155717
809.546	0.0156212
809.624	0.0154926
809.703	0.0155618
809.781	0.0155733
809.859	0.0156586
809.937	0.0156662
810.015	0.0156525
810.093	0.0155944
810.171	0.0156121
810.249	0.0155506
810.328	0.0155128
810.406	0.0156178
810.484	0.0155066
810.562	0.0157041
810.640	0.0156184
810.718	0.0157190
810.796	0.0155335
810.874	0.0155677
810.953	0.0156023
811.031	0.0155551
811.109	0.0156637
811.187	0.0155744
811.265	0.0154306
811.343	0.0155339
811.421	0.0154857
811.499	0.0155510
811.578	0.0155640
811.656	0.0155946
811.734	0.0154256
811.812	0.0154926
811.890	0.0155379
811.968	0.0155134
812.046	0.0154092
812.124	0.0153759
812.203	0.0154980
812.281	0.0154615
812.359	0.0154946
812.437	0.0156261
812.515	0.0154230
812.593	0.0153780
812.671	0.0155276
812.749	0.0154952
812.828	0.0154664
812.906	0.0154073
812.984	0.0154646
813.062	0.0153780
813.140	0.0153982
813.218	0.0156808
813.296	0.0155013
813.374	0.0154731
813.453	0.0155439
813.531	0.0156035
813.609	0.0155163
813.687	0.0154919
813.765	0.0155739
813.843	0.0153933
813.921	0.0155741
813.999	0.0156107
814.078	0.0157661
814.156	0.0156029
814.234	0.0154120
814.312	0.0155936
814.390	0.0157401
814.468	0.0155216
814.546	0.0155234
814.624	0.0155852
814.703	0.0156268
814.781	0.0155141
814.859	0.0154754
814.937	0.0154787
815.015	0.0156479
815.093	0.0156134
815.171	0.0155279
815.249	0.0155977
815.328	0.0156004
815.406	0.0156007
815.484	0.0155663
815.562	0.0155624
815.640	0.0154113
815.718	0.0155137
815.796	0.0155306
815.874	0.0155037
815.953	0.0153146
816.031	0.0154919
816.109	0.0155148
816.187	0.0154725
816.265	0.0154739
816.343	0.0153557
816.421	0.0154892
816.499	0.0155280
816.578	0.0154175
816.656	0.0153120
816.734	0.0154943
816.812	0.0154375
816.890	0.0153599
816.968	0.0154230
817.046	0.0154572
817.124	0.0154850
817.203	0.0155930
817.281	0.0155790
817.359	0.0154474
817.437	0.0155140
817.515	0.0155033
817.593	0.0155498
817.671	0.0154311
817.749	0.0154895
817.828	0.0154957
817.906	0.0155961
817.984	0.0156629
818.062	0.0155544
818.140	0.0154254
818.218	0.0155278
818.296	0.0155185
818.374	0.0154128
818.453	0.0156213
818.531	0.0154900
818.609	0.0152515
818.687	0.0153940
818.765	0.0154809
818.843	0.0156149
818.921	0.0154681
818.999	0.0154240
819.078	0.0154453
819.156	0.0154517
819.234	0.0155810
819.312	0.0155741
819.390	0.0153747
819.468	0.0154250
819.546	0.0154634
819.624	0.0155338
819.703	0.0155132
819.781	0.0154399
819.859	0.0155035
819.937	0.0155340
820.015	0.0155209
820.093	0.0156119
820.171	0.0154721
820.249	0.0154298
820.328	0.0154925
820.406	0.0156871
820.484	0.0156421
820.562	0.0156070
820.640	0.0155499
820.718	0.0155492
820.796	0.0156361
820.874	0.0155564
820.953	0.0156779
821.031	0.0155536
821.109	0.0156243
821.187	0.0155931
821.265	0.0155896
821.343	0.0157072
821.421	0.0156501
821.499	0.0156796
821.578	0.0156316
821.656	0.0155212
821.734	0.0156165
821.812	0.0155871
821.890	0.0156030
821.968	0.0155846
822.046	0.0153929
822.124	0.0155416
822.203	0.0153983
822.281	0.0153347
822.359	0.0154792
822.437	0.0154002
822.515	0.0154018
822.593	0.0153560
822.671	0.0154031
822.749	0.0152667
822.828	0.0153830
822.906	0.0154791
822.984	0.0153147
823.062	0.0153600
823.140	0.0152411
823.218	0.0154814
823.296	0.0155766
823.374	0.0155004
823.453	0.0155200
823.531	0.0155795
823.609	0.0155901
823.687	0.0156810
823.765	0.0154719
823.843	0.0155853
823.921	0.0156850
823.999	0.0156237
824.078	0.0154800
824.156	0.0155904
824.234	0.0156744
824.312	0.0156001
824.390	0.0155318
824.468	0.0155714
824.546	0.0157094
824.624	0.0156521
824.703	0.0155882
824.781	0.0154467
824.859	0.0157393
824.937	0.0156102
825.015	0.0155453
825.093	0.0154795
825.171	0.0156502
825.249	0.0156168
825.328	0.0156619
825.406	0.0155222
825.484	0.0154910
825.562	0.0154758
825.640	0.0153900
825.718	0.0154762
825.796	0.0154521
825.874	0.0154826
825.953	0.0154198
826.031	0.0155022
826.109	0.0155950
826.187	0.0154314
826.265	0.0152527
826.343	0.0153358
826.421	0.0155542
826.499	0.0153680
826.578	0.0154557
826.656	0.0154072
826.734	0.0154163
826.812	0.0155096
826.890	0.0155110
826.968	0.0155618
827.046	0.0155595
827.124	0.0154271
827.203	0.0155224
827.281	0.0155293
827.359	0.0154527
827.437	0.0153909
827.515	0.0154861
827.593	0.0154973
827.671	0.0156316
827.749	0.0154296
827.828	0.0153230
827.906	0.0154379
827.984	0.0155143
828.062	0.0154412
828.140	0.0154290
828.218	0.0153687
828.296	0.0155341
828.374	0.0155717
828.453	0.0154977
828.531	0.0155365
828.609	0.0157269
828.687	0.0156141
828.765	0.0155734
828.843	0.0156143
828.921	0.0156104
828.999	0.0155527
829.078	0.0157568
829.156	0.0156811
829.234	0.0156876
829.312	0.0157028
829.390	0.0155775
829.468	0.0156072
829.546	0.0156978
829.624	0.0156664
829.703	0.0156894
829.781	0.0154770
829.859	0.0154939
829.937	0.0153605
830.015	0.0154302
830.093	0.0154566
830.171	0.0154041
830.249	0.0154565
830.328	0.0154183
830.406	0.0153944
830.484	0.0155160
830.562	0.0154730
830.640	0.0153764
830.718	0.0154385
830.796	0.0154749
830.874	0.0154913
830.953	0.0154766
831.031	0.0153546
831.109	0.0155156
831.187	0.0154033
831.265	0.0154954
831.343	0.0155763
831.421	0.0154008
831.499	0.0155194
831.578	0.0155180
831.656	0.0153735
831.734	0.0154817
831.812	0.0155343
831.890	0.0156439
831.968	0.0154525
832.046	0.0155664
832.124	0.0155279
832.203	0.0155602
832.281	0.0155028
832.359	0.0154917
832.437	0.0154520
832.515	0.0155329
832.593	0.0155406
832.671	0.0153791
832.749	0.0154454
832.828	0.0155724
832.906	0.0155431
832.984	0.0155772
833.062	0.0155825
833.140	0.0155756
833.218	0.0155278
833.296	0.0156759
833.374	0.0155699
833.453	0.0155621
833.531	0.0154495
833.609	0.0155200
833.687	0.0155254
833.765	0.0155212
833.843	0.0154908
833.921	0.0155489
833.999	0.0155305
834.078	0.0155405
834.156	0.0155312
834.234	0.0155678
834.312	0.0156148
834.390	0.0156079
834.468	0.0155322
834.546	0.0153585
834.624	0.0155939
834.703	0.0154269
834.781	0.0155470
834.859	0.0154514
834.937	0.0153519
835.015	0.0154466
835.093	0.0155028
835.171	0.0155105
835.249	0.0154538
835.328	0.0155514
835.406	0.0155725
835.484	0.0155914
835.562	0.0153652
835.640	0.0156601
835.718	0.0158257
835.796	0.0157944
835.874	0.0155945
835.953	0.0156686
836.031	0.0154803
836.109	0.0155870
836.187	0.0156816
836.265	0.0154933
836.343	0.0155449
836.421	0.0156979
836.499	0.0155646
836.578	0.0155547
836.656	0.0155849
836.734	0.0155269
836.812	0.0153220
836.890	0.0155132
836.968	0.0154264
837.046	0.0154035
837.124	0.0153040
837.203	0.0153893
837.281	0.0153614
837.359	0.0154542
837.437	0.0153447
837.515	0.0152489
837.593	0.0153216
837.671	0.0154173
837.749	0.0154340
837.828	0.0154213
837.906	0.0154630
837.984	0.0153981
838.062	0.0154194
838.140	0.0156966
838.218	0.0155893
838.296	0.0155885
838.374	0.0156290
838.453	0.0155257
838.531	0.0156148
838.609	0.0156618
838.687	0.0155391
838.765	0.0155056
838.843	0.0156399
838.921	0.0155398
838.999	0.0155981
839.078	0.0155796
839.156	0.0156013
839.234	0.0155928
839.312	0.0156059
839.390	0.0156553
839.468	0.0156342
839.546	0.0155227
839.624	0.0155180
839.703	0.0154800
839.781	0.0153900
839.859	0.0155720
839.937	0.0156116
840.015	0.0155795
840.093	0.0155300
840.171	0.0155367
840.249	0.0156190
840.328	0.0155165
840.406	0.0154026
840.484	0.0154508
840.562	0.0153500
840.640	0.0153963
840.718	0.0155186
840.796	0.0153894
840.874	0.0153857
840.953	0.0153181
841.031	0.0153539
841.109	0.0154253
841.187	0.0153632
841.265	0.0153321
841.343	0.0153570
841.421	0.0153513
841.499	0.0155003
841.578	0.0153580
841.656	0.0155825
841.734	0.0156266
841.812	0.0154431
841.890	0.0154637
841.968	0.0155631
842.046	0.0155155
842.124	0.0154927
842.203	0.0154767
842.281	0.0155569
842.359	0.0155692
842.437	0.0153967
842.515	0.0156900
842.593	0.0153977
842.671	0.0155536
842.749	0.0153792
842.828	0.0153946
842.906	0.0153671
842.984	0.0153136
843.062	0.0154365
843.140	0.0154690
843.218	0.0154391
843.296	0.0154604
843.374	0.0153931
843.453	0.0155143
843.531	0.0154540
843.609	0.0155544
843.687	0.0155573
843.765	0.0155777
843.843	0.0154402
843.921	0.0157185
843.999	0.0156586
844.078	0.0156857
844.156	0.0158463
844.234	0.0156607
844.312	0.0157394
844.390	0.0156679
844.468	0.0156493
844.546	0.0155759
844.624	0.0155880
844.703	0.0156443
844.781	0.0154932
844.859	0.0153603
844.937	0.0153781
845.015	0.0155013
845.093	0.0154438
845.171	0.0152407
845.249	0.0152657
845.328	0.0154015
845.406	0.0152429
845.484	0.0151911
845.562	0.0151672
845.640	0.0151988
845.718	0.0153893
845.796	0.0153358
845.874	0.0154132
845.953	0.0153960
846.031	0.0154322
846.109	0.0154728
846.187	0.0152928
846.265	0.0154193
846.343	0.0154744
846.421	0.0155492
846.499	0.0154816
846.578	0.0155592
846.656	0.0156417
846.734	0.0155727
846.812	0.0156384
846.890	0.0155328
846.968	0.0156222
847.046	0.0156583
847.124	0.0155454
847.203	0.0155746
847.281	0.0155679
847.359	0.0155966
847.437	0.0154711
847.515	0.0156097
847.593	0.0154395
847.671	0.0155283
847.749	0.0155691
847.828	0.0154517
847.906	0.0154783
847.984	0.0155345
848.062	0.0154771
848.140	0.0154569
848.218	0.0155734
848.296	0.0154169
848.374	0.0154085
848.453	0.0156075
848.531	0.0154729
848.609	0.0154940
848.687	0.0154553
848.765	0.0154905
848.843	0.0154943
848.921	0.0155135
848.999	0.0155195
849.078	0.0155256
849.156	0.0154801
849.234	0.0153715
849.312	0.0154454
849.390	0.0155457
849.468	0.0153945
849.546	0.0152543
849.624	0.0155216
849.703	0.0154754
849.781	0.0152942
849.859	0.0153615
849.937	0.0154237
850.015	0.0153138
850.093	0.0155226
850.171	0.0154408
850.249	0.0155299
850.328	0.0153215
850.406	0.0155109
850.484	0.0154684
850.562	0.0153523
850.640	0.0153719
850.718	0.0154622
850.796	0.0154430
850.874	0.0154292
850.953	0.0154506
851.031	0.0156750
851.109	0.0155312
851.187	0.0155789
851.265	0.0155152
851.343	0.0155798
851.421	0.0155769
851.499	0.0154988
851.578	0.0154655
851.656	0.0155041
851.734	0.0155212
851.812	0.0156358
851.890	0.0155218
851.968	0.0155595
852.046	0.0154526
852.124	0.0154769
852.203	0.0154597
852.281	0.0154030
852.359	0.0154659
852.437	0.0155125
852.515	0.0155112
852.593	0.0156808
852.671	0.0152236
852.749	0.0153390
852.828	0.0156976
852.906	0.0153622
852.984	0.0154308
853.062	0.0154490
853.140	0.0154704
853.218	0.0156981
853.296	0.0156779
853.374	0.0155883
853.453	0.0155810
853.531	0.0155773
853.609	0.0157394
853.687	0.0156145
853.765	0.0156303
853.843	0.0156517
853.921	0.0154862
853.999	0.0155129
854.078	0.0155824
854.156	0.0155804
854.234	0.0157008
854.312	0.0155138
854.390	0.0155682
854.468	0.0154555
854.546	0.0154469
854.624	0.0153985
854.703	0.0153506
854.781	0.0152329
854.859	0.0155054
854.937	0.0154434
855.015	0.0153749
855.093	0.0153268
855.171	0.0153338
855.249	0.0152851
855.328	0.0153374
855.406	0.0154793
855.484	0.0153891
855.562	0.0154416
855.640	0.0155082
855.718	0.0153029
855.796	0.0155035
855.874	0.0155036
855.953	0.0154690
856.031	0.0155709
856.109	0.0154754
856.187	0.0156567
856.265	0.0155550
856.343	0.0155194
856.421	0.0156503
856.499	0.0155313
856.578	0.0155817
856.656	0.0156295
856.734	0.0155610
856.812	0.0156070
856.890	0.0156023
856.968	0.0157169
857.046	0.0157320
857.124	0.0155664
857.203	0.0155876
857.281	0.0154111
857.359	0.0155511
857.437	0.0156871
857.515	0.0158357
857.593	0.0156004
857.671	0.0154406
857.749	0.0156459
857.828	0.0155878
857.906	0.0155386
857.984	0.0155788
858.062	0.0156722
858.140	0.0156029
858.218	0.0154498
858.296	0.0155908
858.374	0.0155460
858.453	0.0154872
858.531	0.0155589
858.609	0.0155731
858.687	0.0153701
858.765	0.0153978
858.843	0.0153654
858.921	0.0153967
858.999	0.0153480
859.078	0.0152726
859.156	0.0153162
859.234	0.0153318
859.312	0.0154147
859.390	0.0153319
859.468	0.0153139
859.546	0.0151936
859.624	0.0154102
859.703	0.0153760
859.781	0.0154037
859.859	0.0154141
859.937	0.0155310
860.015	0.0153952
860.093	0.0154312
860.171	0.0155348
860.249	0.0155722
860.328	0.0156200
860.406	0.0154470
860.484	0.0155660
860.562	0.0154967
860.640	0.0156680
860.718	0.0156773
860.796	0.0155605
860.874	0.0156521
860.953	0.0156348
861.031	0.0154877
861.109	0.0157323
861.187	0.0156336
861.265	0.0156107
861.343	0.0155614
861.421	0.0155013
861.499	0.0156016
861.578	0.0156496
861.656	0.0156506
861.734	0.0155456
861.812	0.0154510
861.890	0.0154842
861.968	0.0154245
862.046	0.0156045
862.124	0.0155199
862.203	0.0155380
862.281	0.0155353
862.359	0.0154484
862.437	0.0155298
862.515	0.0155708
862.593	0.0152840
862.671	0.0155029
862.749	0.0154330
862.828	0.0154190
862.906	0.0154819
862.984	0.0156439
863.062	0.0156033
863.140	0.0155071
863.218	0.0153832
863.296	0.0154520
863.374	0.0155544
863.453	0.0154203
863.531	0.0154490
863.609	0.0154041
863.687	0.0155429
863.765	0.0154501
863.843	0.0153790
863.921	0.0154681
863.999	0.0154694
864.078	0.0154034
864.156	0.0154919
864.234	0.0154140
864.312	0.0156586
864.390	0.0155744
864.468	0.0155730
864.546	0.0154884
864.624	0.0156971
864.703	0.0155192
864.781	0.0155953
864.859	0.0155141
864.937	0.0156844
865.015	0.0155457
865.093	0.0154060
865.171	0.0155561
865.249	0.0155921
865.328	0.0155499
865.406	0.0155243
865.484	0.0154370
865.562	0.0156959
865.640	0.0156171
865.718	0.0155136
865.796	0.0154772
865.874	0.0155071
865.953	0.0156081
866.031	0.0156745
866.109	0.0155280
866.187	0.0155771
866.265	0.0155784
866.343	0.0155819
866.421	0.0154028
866.499	0.0154866
866.578	0.0154050
866.656	0.0155640
866.734	0.0154176
866.812	0.0155830
866.890	0.0155788
866.968	0.0154207
867.046	0.0154008
867.124	0.0154044
867.203	0.0155247
867.281	0.0153334
867.359	0.0155520
867.437	0.0154537
867.515	0.0154733
867.593	0.0155379
867.671	0.0154816
867.749	0.0154919
867.828	0.0155030
867.906	0.0154694
867.984	0.0154468
868.062	0.0152721
868.140	0.0153247
868.218	0.0155292
868.296	0.0155626
868.374	0.0154182
868.453	0.0153038
868.531	0.0155669
868.609	0.0154887
868.687	0.0154799
868.765	0.0154543
868.843	0.0154558
868.921	0.0155279
868.999	0.0154836
869.078	0.0155463
869.156	0.0153749
869.234	0.0156499
869.312	0.0156203
869.390	0.0155129
869.468	0.0156402
869.546	0.0155635
869.624	0.0156699
869.703	0.0156671
869.781	0.0155000
869.859	0.0154805
869.937	0.0157093
870.015	0.0154337
870.093	0.0155915
870.171	0.0154520
870.249	0.0154805
870.328	0.0155524
870.406	0.0153940
870.484	0.0154494
870.562	0.0153548
870.640	0.0152972
870.718	0.0153116
870.796	0.0155299
870.874	0.0154459
870.953	0.0153635
871.031	0.0153799
871.109	0.0151893
871.187	0.0155112
871.265	0.0155579
871.343	0.0155244
871.421	0.0154831
871.499	0.0155763
871.578	0.0156442
871.656	0.0155320
871.734	0.0154546
871.812	0.0155864
871.890	0.0155122
871.968	0.0154745
872.046	0.0155064
872.124	0.0154615
872.203	0.0154160
872.281	0.0153713
872.359	0.0155138
872.437	0.0155154
872.515	0.0154168
872.593	0.0153916
872.671	0.0154463
872.749	0.0155003
872.828	0.0154525
872.906	0.0154795
872.984	0.0155840
873.062	0.0154601
873.140	0.0155444
873.218	0.0154983
873.296	0.0155585
873.374	0.0155288
873.453	0.0154182
873.531	0.0155219
873.609	0.0155306
873.687	0.0155442
873.765	0.0156259
873.843	0.0156400
873.921	0.0156763
873.999	0.0155594
874.078	0.0156361
874.156	0.0157122
874.234	0.0157417
874.312	0.0155365
874.390	0.0156335
874.468	0.0154764
874.546	0.0155046
874.624	0.0155352
874.703	0.0155222
874.781	0.0156070
874.859	0.0154968
874.937	0.0155273
875.015	0.0154784
875.093	0.0154333
875.171	0.0154804
875.249	0.0154643
875.328	0.0153590
875.406	0.0154897
875.484	0.0154071
875.562	0.0152989
875.640	0.0155408
875.718	0.0154711
875.796	0.0152893
875.874	0.0154086
875.953	0.0154297
876.031	0.0154725
876.109	0.0154644
876.187	0.0154229
876.265	0.0155187
876.343	0.0154582
876.421	0.0156715
876.499	0.0155226
876.578	0.0156586
876.656	0.0155070
876.734	0.0155699
876.812	0.0155346
876.890	0.0154274
876.968	0.0156473
877.046	0.0156053
877.124	0.0156749
877.203	0.0156510
877.281	0.0156181
877.359	0.0155731
877.437	0.0156466
877.515	0.0154876
877.593	0.0157013
877.671	0.0156578
877.749	0.0157248
877.828	0.0155943
877.906	0.0156929
877.984	0.0157007
878.062	0.0154463
878.140	0.0156180
878.218	0.0156853
878.296	0.0154271
878.374	0.0156293
878.453	0.0154745
878.531	0.0153952
878.609	0.0154578
878.687	0.0153574
878.765	0.0152827
878.843	0.0153921
878.921	0.0154244
878.999	0.0152764
879.078	0.0154888
879.156	0.0153305
879.234	0.0153835
879.312	0.0153700
879.390	0.0154080
879.468	0.0152767
879.546	0.0154487
879.624	0.0155357
879.703	0.0153802
879.781	0.0154898
879.859	0.0155586
879.937	0.0154499
880.015	0.0153878
880.093	0.0156175
880.171	0.0154478
880.249	0.0154672
880.328	0.0156008
880.406	0.0155829
880.484	0.0155494
880.562	0.0155318
880.640	0.0157761
880.718	0.0156828
880.796	0.0157436
880.874	0.0156461
880.953	0.0158423
881.031	0.0156213
881.109	0.0156306
881.187	0.0156251
881.265	0.0156124
881.343	0.0157973
881.421	0.0156393
881.499	0.0156577
881.578	0.0156524
881.656	0.0155091
881.734	0.0154832
881.812	0.0155595
881.890	0.0156284
881.968	0.0155708
882.046	0.0155383
882.124	0.0154758
882.203	0.0154963
882.281	0.0154642
882.359	0.0153496
882.437	0.0154868
882.515	0.0153839
882.593	0.0154346
882.671	0.0154027
882.749	0.0154884
882.828	0.0154591
882.906	0.0153161
882.984	0.0153012
883.062	0.0154801
883.140	0.0154833
883.218	0.0152981
883.296	0.0153819
883.374	0.0155155
883.453	0.0154701
883.531	0.0156496
883.609	0.0155620
883.687	0.0154878
883.765	0.0155475
883.843	0.0155746
883.921	0.0154623
883.999	0.0156872
884.078	0.0155413
884.156	0.0156724
884.234	0.0155345
884.312	0.0155444
884.390	0.0156382
884.468	0.0155002
884.546	0.0155712
884.624	0.0156516
884.703	0.0155876
884.781	0.0156485
884.859	0.0155586
884.937	0.0155797
885.015	0.0155026
885.093	0.0154807
885.171	0.0156495
885.249	0.0155894
885.328	0.0156891
885.406	0.0155301
885.484	0.0153829
885.562	0.0155405
885.640	0.0156393
885.718	0.0155739
885.796	0.0156027
885.874	0.0155567
885.953	0.0156131
886.031	0.0154623
886.109	0.0154570
886.187	0.0155190
886.265	0.0156834
886.343	0.0155457
886.421	0.0155051
886.499	0.0154871
886.578	0.0155337
886.656	0.0155421
886.734	0.0154808
886.812	0.0154823
886.890	0.0155838
886.968	0.0155835
887.046	0.0154169
887.124	0.0154652
887.203	0.0153510
887.281	0.0155169
887.359	0.0155576
887.437	0.0154712
887.515	0.0155418
887.593	0.0154421
887.671	0.0154350
887.749	0.0155141
887.828	0.0156540
887.906	0.0155355
887.984	0.0156054
888.062	0.0156268
888.140	0.0156281
888.218	0.0156239
888.296	0.0155328
888.374	0.0155993
888.453	0.0155587
888.531	0.0156295
888.609	0.0156497
888.687	0.0157153
888.765	0.0154657
888.843	0.0154190
888.921	0.0154334
888.999	0.0155387
889.078	0.0155774
889.156	0.0154718
889.234	0.0154237
889.312	0.0153962
889.390	0.0154877
889.468	0.0153527
889.546	0.0155088
889.624	0.0154369
889.703	0.0153772
889.781	0.0155526
889.859	0.0155327
889.937	0.0153865
890.015	0.0154398
890.093	0.0155564
890.171	0.0154080
890.249	0.0154144
890.328	0.0152310
890.406	0.0152932
890.484	0.0153918
890.562	0.0153954
890.640	0.0154494
890.718	0.0152885
890.796	0.0154272
890.874	0.0154406
890.953	0.0153831
891.031	0.0153912
891.109	0.0153790
891.187	0.0154407
891.265	0.0155187
891.343	0.0154111
891.421	0.0154859
891.499	0.0154544
891.578	0.0155434
891.656	0.0155724
891.734	0.0155289
891.812	0.0155257
891.890	0.0157023
891.968	0.0156097
892.046	0.0155165
892.124	0.0155598
892.203	0.0155279
892.281	0.0155306
892.359	0.0156091
892.437	0.0154983
892.515	0.0154563
892.593	0.0157499
892.671	0.0154784
892.749	0.0154418
892.828	0.0154301
892.906	0.0155054
892.984	0.0155130
893.062	0.0156145
893.140	0.0155093
893.218	0.0156105
893.296	0.0155744
893.374	0.0154955
893.453	0.0155196
893.531	0.0153528
893.609	0.0154052
893.687	0.0154865
893.765	0.0154560
893.843	0.0154424
893.921	0.0154187
893.999	0.0153513
894.078	0.0154285
894.156	0.0154635
894.234	0.0152803
894.312	0.0153835
894.390	0.0154791
894.468	0.0153155
894.546	0.0153512
894.624	0.0153994
894.703	0.0153461
894.781	0.0152933
894.859	0.0153133
894.937	0.0153616
895.015	0.0154498
895.093	0.0152897
895.171	0.0154621
895.249	0.0154252
895.328	0.0154963
895.406	0.0154218
895.484	0.0156124
895.562	0.0156974
895.640	0.0154912
895.718	0.0155297
895.796	0.0155699
895.874	0.0156271
895.953	0.0155344
896.031	0.0155589
896.109	0.0155130
896.187	0.0155592
896.265	0.0157707
896.343	0.0156330
896.421	0.0156097
896.499	0.0156195
896.578	0.0155859
896.656	0.0154847
896.734	0.0154677
896.812	0.0154437
896.890	0.0154788
896.968	0.0155685
897.046	0.0154895
897.124	0.0154316
897.203	0.0155162
897.281	0.0154237
897.359	0.0155526
897.437	0.0155209
897.515	0.0154723
897.593	0.0155189
897.671	0.0154389
897.749	0.0155396
897.828	0.0155607
897.906	0.0155544
897.984	0.0155276
898.062	0.0154756
898.140	0.0153490
898.218	0.0153226
898.296	0.0153239
898.374	0.0154406
898.453	0.0154259
898.531	0.0153985
898.609	0.0153358
898.687	0.0154254
898.765	0.0153533
898.843	0.0154497
898.921	0.0153358
898.999	0.0154537
899.078	0.0155189
899.156	0.0153897
899.234	0.0153424
899.312	0.0153873
899.390	0.0154801
899.468	0.0154165
899.546	0.0155767
899.624	0.0155602
899.703	0.0154477
899.781	0.0154644
899.859	0.0154610
899.937	0.0154012
900.015	0.0155141
900.093	0.0154015
900.171	0.0154482
900.249	0.0154888
900.328	0.0154841
900.406	0.0155594
900.484	0.0154379
900.562	0.0154790
900.640	0.0155135
900.718	0.0153820
900.796	0.0155216
900.874	0.0155039
900.953	0.0154443
901.031	0.0154888
901.109	0.0154720
901.187	0.0154578
901.265	0.0153632
901.343	0.0154387
901.421	0.0153623
901.499	0.0154737
901.578	0.0155156
901.656	0.0154950
901.734	0.0155289
901.812	0.0154733
901.890	0.0154224
901.968	0.0154772
902.046	0.0155286
902.124	0.0154454
902.203	0.0155981
902.281	0.0154583
902.359	0.0154781
902.437	0.0155299
902.515	0.0155633
902.593	0.0154981
902.671	0.0154229
902.749	0.0155185
902.828	0.0155277
902.906	0.0154754
902.984	0.0155373
903.062	0.0156087
903.140	0.0154864
903.218	0.0154699
903.296	0.0154912
903.374	0.0154979
903.453	0.0154253
903.531	0.0154654
903.609	0.0155631
903.687	0.0155682
903.765	0.0155355
903.843	0.0155232
903.921	0.0155137
903.999	0.0156169
904.078	0.0154729
904.156	0.0155199
904.234	0.0157092
904.312	0.0156996
904.390	0.0155132
904.468	0.0154967
904.546	0.0156337
904.624	0.0154799
904.703	0.0155634
904.781	0.0155320
904.859	0.0153819
904.937	0.0154870
905.015	0.0154873
905.093	0.0154967
905.171	0.0155084
905.249	0.0153287
905.328	0.0154922
905.406	0.0156190
905.484	0.0154915
905.562	0.0155762
905.640	0.0155521
905.718	0.0154984
905.796	0.0154696
905.874	0.0156229
905.953	0.0155270
906.031	0.0156178
906.109	0.0156030
906.187	0.0155240
906.265	0.0156008
906.343	0.0154973
906.421	0.0156854
906.499	0.0155878
906.578	0.0155207
906.656	0.0157001
906.734	0.0156744
906.812	0.0155605
906.890	0.0156036
906.968	0.0156449
907.046	0.0156903
907.124	0.0154837
907.203	0.0154389
907.281	0.0153852
907.359	0.0154402
907.437	0.0154208
907.515	0.0154802
907.593	0.0155220
907.671	0.0154871
907.749	0.0154225
907.828	0.0155768
907.906	0.0155474
907.984	0.0154477
908.062	0.0154304
908.140	0.0155141
908.218	0.0156512
908.296	0.0154269
908.374	0.0154802
908.453	0.0153618
908.531	0.0154393
908.609	0.0155138
908.687	0.0154743
908.765	0.0155552
908.843	0.0154748
908.921	0.0154213
908.999	0.0154561
909.078	0.0154976
909.156	0.0155490
909.234	0.0153595
909.312	0.0153101
909.390	0.0152930
909.468	0.0154398
909.546	0.0154908
909.624	0.0154454
909.703	0.0155032
909.781	0.0153233
909.859	0.0153650
909.937	0.0154591
910.015	0.0153725
910.093	0.0154250
910.171	0.0154885
910.249	0.0154702
910.328	0.0155997
910.406	0.0156120
910.484	0.0155190
910.562	0.0155627
910.640	0.0156009
910.718	0.0155993
910.796	0.0155350
910.874	0.0155350
910.953	0.0155880
911.031	0.0156577
911.109	0.0155254
911.187	0.0155392
911.265	0.0155754
911.343	0.0154944
911.421	0.0155959
911.499	0.0154104
911.578	0.0154932
911.656	0.0155095
911.734	0.0154604
911.812	0.0154756
911.890	0.0155816
911.968	0.0154498
912.046	0.0154483
912.124	0.0153538
912.203	0.0154411
912.281	0.0155728
912.359	0.0155563
912.437	0.0156189
912.515	0.0155447
912.593	0.0154131
912.671	0.0154614
912.749	0.0154981
912.828	0.0154363
912.906	0.0155141
912.984	0.0154555
913.062	0.0155631
913.140	0.0155876
913.218	0.0155388
913.296	0.0154986
913.374	0.0154784
913.453	0.0154687
913.531	0.0155887
913.609	0.0155198
913.687	0.0154297
913.765	0.0153967
913.843	0.0154421
913.921	0.0154028
913.999	0.0153579
914.078	0.0154414
914.156	0.0154716
914.234	0.0153954
914.312	0.0155674
914.390	0.0156254
914.468	0.0155058
914.546	0.0155257
914.624	0.0156048
914.703	0.0155331
914.781	0.0154005
914.859	0.0155404
914.937	0.0154661
915.015	0.0154407
915.093	0.0154990
915.171	0.0154554
915.249	0.0153085
915.328	0.0153262
915.406	0.0153412
915.484	0.0154298
915.562	0.0153459
915.640	0.0154412
915.718	0.0153205
915.796	0.0153587
915.874	0.0153181
915.953	0.0154247
916.031	0.0155577
916.109	0.0154564
916.187	0.0153699
916.265	0.0155442
916.343	0.0155355
916.421	0.0155300
916.499	0.0155412
916.578	0.0154456
916.656	0.0154269
916.734	0.0156342
916.812	0.0156053
916.890	0.0154329
916.968	0.0156127
917.046	0.0156048
917.124	0.0156339
917.203	0.0155692
917.281	0.0154974
917.359	0.0155831
917.437	0.0155699
917.515	0.0156408
917.593	0.0155901
917.671	0.0155677
917.749	0.0155470
917.828	0.0155012
917.906	0.0155025
917.984	0.0155449
918.062	0.0155708
918.140	0.0152571
918.218	0.0155122
918.296	0.0155444
918.374	0.0155194
918.453	0.0154461
918.531	0.0154870
918.609	0.0155280
918.687	0.0154254
918.765	0.0153858
918.843	0.0155531
918.921	0.0154921
918.999	0.0155577
919.078	0.0154966
919.156	0.0154255
919.234	0.0153738
919.312	0.0155573
919.390	0.0155760
919.468	0.0155006
919.546	0.0155006
919.624	0.0155087
919.703	0.0154935
919.781	0.0155329
919.859	0.0154364
919.937	0.0154281
