06/10/2022	18:48:30	Ver.	4.1	UNKNOWN
Optical Delay	600.015094	Delta X		0.078125	Sweeps	1	Scan Rate	0/0
Coordinates	Axis 1	NaN	Axis 2	NaN	Axis 3	NaN	Axis 4	NaN	Axis 5	NaN	Axis 6	0.000000
TX Power	0.000000	RX Power	0.000000

600.015	0.0162415
600.093	0.0161700
600.171	0.0163783
600.249	0.0162473
600.328	0.0161755
600.406	0.0161701
600.484	0.0163866
600.562	0.0163012
600.640	0.0162872
600.718	0.0162139
600.796	0.0161330
600.874	0.0162007
600.953	0.0160794
601.031	0.0162822
601.109	0.0162952
601.187	0.0162365
601.265	0.0161997
601.343	0.0163026
601.421	0.0162648
601.499	0.0162934
601.578	0.0163407
601.656	0.0162630
601.734	0.0163013
601.812	0.0163580
601.890	0.0162744
601.968	0.0162843
602.046	0.0161085
602.124	0.0162383
602.203	0.0163406
602.281	0.0162537
602.359	0.0161036
602.437	0.0163927
602.515	0.0162316
602.593	0.0161954
602.671	0.0163393
602.749	0.0162875
602.828	0.0162936
602.906	0.0162751
602.984	0.0161593
603.062	0.0162576
603.140	0.0161025
603.218	0.0161883
603.296	0.0162868
603.374	0.0162230
603.453	0.0161215
603.531	0.0160558
603.609	0.0162672
603.687	0.0162257
603.765	0.0161288
603.843	0.0161596
603.921	0.0160320
603.999	0.0160601
604.078	0.0161533
604.156	0.0161679
604.234	0.0160350
604.312	0.0161012
604.390	0.0161925
604.468	0.0160977
604.546	0.0161122
604.624	0.0161970
604.703	0.0161519
604.781	0.0161586
604.859	0.0160833
604.937	0.0162802
605.015	0.0161976
605.093	0.0161317
605.171	0.0161697
605.249	0.0162312
605.328	0.0161862
605.406	0.0161542
605.484	0.0161649
605.562	0.0161243
605.640	0.0162061
605.718	0.0161333
605.796	0.0162202
605.874	0.0162043
605.953	0.0161945
606.031	0.0161474
606.109	0.0161733
606.187	0.0161478
606.265	0.0162508
606.343	0.0162119
606.421	0.0159982
606.499	0.0161898
606.578	0.0160641
606.656	0.0161338
606.734	0.0160795
606.812	0.0160955
606.890	0.0161370
606.968	0.0161220
607.046	0.0160781
607.124	0.0161597
607.203	0.0161516
607.281	0.0160760
607.359	0.0162649
607.437	0.0160950
607.515	0.0161248
607.593	0.0161616
607.671	0.0162285
607.749	0.0162106
607.828	0.0161883
607.906	0.0160810
607.984	0.0162952
608.062	0.0161645
608.140	0.0161588
608.218	0.0160170
608.296	0.0161594
608.374	0.0161829
608.453	0.0161325
608.531	0.0160957
608.609	0.0161247
608.687	0.0161055
608.765	0.0161883
608.843	0.0161858
608.921	0.0161738
608.999	0.0160883
609.078	0.0162380
609.156	0.0162154
609.234	0.0160664
609.312	0.0159855
609.390	0.0161642
609.468	0.0161385
609.546	0.0161926
609.624	0.0161397
609.703	0.0161190
609.781	0.0160564
609.859	0.0161559
609.937	0.0160503
610.015	0.0161752
610.093	0.0160522
610.171	0.0161800
610.249	0.0162247
610.328	0.0160599
610.406	0.0161666
610.484	0.0160761
610.562	0.0161535
610.640	0.0162875
610.718	0.0161829
610.796	0.0160155
610.874	0.0160173
610.953	0.0160749
611.031	0.0160039
611.109	0.0161681
611.187	0.0161826
611.265	0.0160657
611.343	0.0161372
611.421	0.0161899
611.499	0.0160277
611.578	0.0159106
611.656	0.0160104
611.734	0.0161696
611.812	0.0161541
611.890	0.0161107
611.968	0.0161306
612.046	0.0162141
612.124	0.0160471
612.203	0.0162195
612.281	0.0161773
612.359	0.0160914
612.437	0.0160487
612.515	0.0161613
612.593	0.0162572
612.671	0.0162528
612.749	0.0161449
612.828	0.0161606
612.906	0.0160844
612.984	0.0162215
613.062	0.0161279
613.140	0.0161215
613.218	0.0162688
613.296	0.0161629
613.374	0.0160593
613.453	0.0162774
613.531	0.0162025
613.609	0.0161543
613.687	0.0162027
613.765	0.0160660
613.843	0.0161718
613.921	0.0162562
613.999	0.0160369
614.078	0.0161580
614.156	0.0162145
614.234	0.0162669
614.312	0.0162102
614.390	0.0162907
614.468	0.0163354
614.546	0.0161636
614.624	0.0161720
614.703	0.0162640
614.781	0.0161273
614.859	0.0161642
614.937	0.0162001
615.015	0.0162025
615.093	0.0162554
615.171	0.0161446
615.249	0.0161490
615.328	0.0162069
615.406	0.0162992
615.484	0.0162011
615.562	0.0162152
615.640	0.0160970
615.718	0.0161278
615.796	0.0161745
615.874	0.0162786
615.953	0.0162629
616.031	0.0161684
616.109	0.0162215
616.187	0.0161691
616.265	0.0162821
616.343	0.0162811
616.421	0.0161597
616.499	0.0161089
616.578	0.0161664
616.656	0.0162100
616.734	0.0161987
616.812	0.0161956
616.890	0.0161809
616.968	0.0161942
617.046	0.0161665
617.124	0.0163435
617.203	0.0162149
617.281	0.0160602
617.359	0.0160762
617.437	0.0159274
617.515	0.0161713
617.593	0.0161356
617.671	0.0161161
617.749	0.0161845
617.828	0.0161996
617.906	0.0160247
617.984	0.0161000
618.062	0.0162245
618.140	0.0162820
618.218	0.0161278
618.296	0.0162255
618.374	0.0162440
618.453	0.0161678
618.531	0.0162170
618.609	0.0162415
618.687	0.0160819
618.765	0.0160980
618.843	0.0161491
618.921	0.0162144
618.999	0.0159819
619.078	0.0160816
619.156	0.0162634
619.234	0.0161347
619.312	0.0161102
619.390	0.0161301
619.468	0.0161336
619.546	0.0161618
619.624	0.0162492
619.703	0.0161916
619.781	0.0162196
619.859	0.0162370
619.937	0.0160976
620.015	0.0162329
620.093	0.0162014
620.171	0.0162106
620.249	0.0161443
620.328	0.0160923
620.406	0.0162210
620.484	0.0163922
620.562	0.0163577
620.640	0.0161697
620.718	0.0162575
620.796	0.0163855
620.874	0.0162723
620.953	0.0163948
621.031	0.0163034
621.109	0.0162191
621.187	0.0163220
621.265	0.0162229
621.343	0.0162003
621.421	0.0162840
621.499	0.0162199
621.578	0.0163184
621.656	0.0162421
621.734	0.0162415
621.812	0.0163367
621.890	0.0162099
621.968	0.0162362
622.046	0.0162126
622.124	0.0163240
622.203	0.0161609
622.281	0.0162149
622.359	0.0162292
622.437	0.0162557
622.515	0.0162031
622.593	0.0161541
622.671	0.0162655
622.749	0.0161047
622.828	0.0163546
622.906	0.0163164
622.984	0.0161880
623.062	0.0161825
623.140	0.0162103
623.218	0.0162803
623.296	0.0161515
623.374	0.0160609
623.453	0.0161029
623.531	0.0161830
623.609	0.0161532
623.687	0.0160682
623.765	0.0161993
623.843	0.0162754
623.921	0.0162882
623.999	0.0161769
624.078	0.0161387
624.156	0.0161691
624.234	0.0162431
624.312	0.0161961
624.390	0.0161189
624.468	0.0161884
624.546	0.0162391
624.624	0.0161395
624.703	0.0162139
624.781	0.0162711
624.859	0.0161688
624.937	0.0162800
625.015	0.0161307
625.093	0.0161573
625.171	0.0160766
625.249	0.0161681
625.328	0.0161679
625.406	0.0160638
625.484	0.0160841
625.562	0.0160468
625.640	0.0161374
625.718	0.0160057
625.796	0.0162207
625.874	0.0161250
625.953	0.0162551
626.031	0.0161961
626.109	0.0160306
626.187	0.0160457
626.265	0.0161095
626.343	0.0159753
626.421	0.0160151
626.499	0.0160420
626.578	0.0162247
626.656	0.0160665
626.734	0.0160445
626.812	0.0162183
626.890	0.0161806
626.968	0.0162152
627.046	0.0162092
627.124	0.0161685
627.203	0.0162302
627.281	0.0161448
627.359	0.0160876
627.437	0.0162416
627.515	0.0161158
627.593	0.0160428
627.671	0.0161653
627.749	0.0161812
627.828	0.0162836
627.906	0.0161938
627.984	0.0160778
628.062	0.0161754
628.140	0.0162506
628.218	0.0161456
628.296	0.0161388
628.374	0.0160743
628.453	0.0161057
628.531	0.0162266
628.609	0.0162648
628.687	0.0162587
628.765	0.0162426
628.843	0.0160988
628.921	0.0162032
628.999	0.0160743
629.078	0.0161932
629.156	0.0162042
629.234	0.0160242
629.312	0.0162022
629.390	0.0161628
629.468	0.0161394
629.546	0.0161491
629.624	0.0160923
629.703	0.0159816
629.781	0.0161050
629.859	0.0160946
629.937	0.0161463
630.015	0.0161056
630.093	0.0159893
630.171	0.0162742
630.249	0.0160970
630.328	0.0161200
630.406	0.0160017
630.484	0.0160160
630.562	0.0161919
630.640	0.0161361
630.718	0.0161483
630.796	0.0160831
630.874	0.0161179
630.953	0.0160923
631.031	0.0161913
631.109	0.0163110
631.187	0.0160210
631.265	0.0160970
631.343	0.0161077
631.421	0.0160874
631.499	0.0159824
631.578	0.0161057
631.656	0.0161972
631.734	0.0161358
631.812	0.0162014
631.890	0.0161526
631.968	0.0161889
632.046	0.0162102
632.124	0.0161977
632.203	0.0161882
632.281	0.0160394
632.359	0.0161327
632.437	0.0161290
632.515	0.0162057
632.593	0.0161797
632.671	0.0160455
632.749	0.0161817
632.828	0.0162438
632.906	0.0160823
632.984	0.0162442
633.062	0.0161434
633.140	0.0161216
633.218	0.0160924
633.296	0.0162099
633.374	0.0161308
633.453	0.0161278
633.531	0.0161539
633.609	0.0162475
633.687	0.0161745
633.765	0.0161330
633.843	0.0161451
633.921	0.0161935
633.999	0.0161922
634.078	0.0161118
634.156	0.0162891
634.234	0.0161424
634.312	0.0162116
634.390	0.0162083
634.468	0.0163185
634.546	0.0161787
634.624	0.0161890
634.703	0.0161549
634.781	0.0162459
634.859	0.0161964
634.937	0.0161899
635.015	0.0162614
635.093	0.0162652
635.171	0.0161588
635.249	0.0162235
635.328	0.0162399
635.406	0.0161839
635.484	0.0161015
635.562	0.0162822
635.640	0.0161720
635.718	0.0161642
635.796	0.0164214
635.874	0.0161996
635.953	0.0163069
636.031	0.0160623
636.109	0.0161532
636.187	0.0162288
636.265	0.0163189
636.343	0.0162547
636.421	0.0162910
636.499	0.0163128
636.578	0.0161510
636.656	0.0160229
636.734	0.0161997
636.812	0.0160555
636.890	0.0162893
636.968	0.0161606
637.046	0.0161429
637.124	0.0162015
637.203	0.0162395
637.281	0.0161652
637.359	0.0160629
637.437	0.0161216
637.515	0.0162686
637.593	0.0160521
637.671	0.0160807
637.749	0.0160480
637.828	0.0160505
637.906	0.0161444
637.984	0.0162144
638.062	0.0161449
638.140	0.0161160
638.218	0.0162209
638.296	0.0161989
638.374	0.0160912
638.453	0.0161629
638.531	0.0160048
638.609	0.0160182
638.687	0.0160920
638.765	0.0161689
638.843	0.0161504
638.921	0.0161700
638.999	0.0161272
639.078	0.0161622
639.156	0.0162080
639.234	0.0160000
639.312	0.0161906
639.390	0.0162116
639.468	0.0161285
639.546	0.0161105
639.624	0.0162776
639.703	0.0162991
639.781	0.0161099
639.859	0.0161345
639.937	0.0161823
640.015	0.0161932
640.093	0.0162689
640.171	0.0161175
640.249	0.0159607
640.328	0.0161137
640.406	0.0161176
640.484	0.0162475
640.562	0.0160534
640.640	0.0161794
640.718	0.0161965
640.796	0.0162505
640.874	0.0162017
640.953	0.0160019
641.031	0.0163165
641.109	0.0162186
641.187	0.0162080
641.265	0.0162985
641.343	0.0162370
641.421	0.0161326
641.499	0.0163528
641.578	0.0161423
641.656	0.0162502
641.734	0.0162023
641.812	0.0161801
641.890	0.0163609
641.968	0.0163149
642.046	0.0162162
642.124	0.0162339
642.203	0.0163146
642.281	0.0162362
642.359	0.0162489
642.437	0.0163370
642.515	0.0161111
642.593	0.0161732
642.671	0.0161949
642.749	0.0163129
642.828	0.0163646
642.906	0.0163281
642.984	0.0163138
643.062	0.0162090
643.140	0.0162914
643.218	0.0162461
643.296	0.0161774
643.374	0.0162280
643.453	0.0162070
643.531	0.0162496
643.609	0.0162373
643.687	0.0163485
643.765	0.0161392
643.843	0.0161348
643.921	0.0162352
643.999	0.0162787
644.078	0.0161455
644.156	0.0162917
644.234	0.0164019
644.312	0.0162873
644.390	0.0162122
644.468	0.0162173
644.546	0.0161243
644.624	0.0161424
644.703	0.0161804
644.781	0.0162891
644.859	0.0162202
644.937	0.0162469
645.015	0.0162906
645.093	0.0161998
645.171	0.0161828
645.249	0.0161221
645.328	0.0161693
645.406	0.0161627
645.484	0.0162236
645.562	0.0162653
645.640	0.0161817
645.718	0.0160781
645.796	0.0161213
645.874	0.0162956
645.953	0.0161257
646.031	0.0161457
646.109	0.0160415
646.187	0.0160471
646.265	0.0161250
646.343	0.0161608
646.421	0.0162246
646.499	0.0162798
646.578	0.0160497
646.656	0.0160905
646.734	0.0160693
646.812	0.0160674
646.890	0.0161758
646.968	0.0162370
647.046	0.0161006
647.124	0.0162149
647.203	0.0159986
647.281	0.0161648
647.359	0.0160761
647.437	0.0160706
647.515	0.0161787
647.593	0.0160276
647.671	0.0161089
647.749	0.0163422
647.828	0.0161508
647.906	0.0161322
647.984	0.0161663
648.062	0.0162708
648.140	0.0163773
648.218	0.0162914
648.296	0.0161807
648.374	0.0162410
648.453	0.0160892
648.531	0.0162442
648.609	0.0161545
648.687	0.0160825
648.765	0.0163562
648.843	0.0162733
648.921	0.0160326
648.999	0.0162883
649.078	0.0161640
649.156	0.0161950
649.234	0.0161018
649.312	0.0162818
649.390	0.0162440
649.468	0.0161060
649.546	0.0163101
649.624	0.0161800
649.703	0.0160709
649.781	0.0161632
649.859	0.0161440
649.937	0.0160556
650.015	0.0162290
650.093	0.0161066
650.171	0.0161977
650.249	0.0161316
650.328	0.0162336
650.406	0.0162283
650.484	0.0160889
650.562	0.0161105
650.640	0.0162482
650.718	0.0162255
650.796	0.0162595
650.874	0.0162036
650.953	0.0162313
651.031	0.0161266
651.109	0.0161037
651.187	0.0162878
651.265	0.0162778
651.343	0.0161417
651.421	0.0161662
651.499	0.0160744
651.578	0.0161933
651.656	0.0162561
651.734	0.0162108
651.812	0.0161117
651.890	0.0161710
651.968	0.0161963
652.046	0.0161437
652.124	0.0163392
652.203	0.0162683
652.281	0.0161700
652.359	0.0161987
652.437	0.0163091
652.515	0.0161451
652.593	0.0161886
652.671	0.0161321
652.749	0.0161721
652.828	0.0162704
652.906	0.0161079
652.984	0.0161295
653.062	0.0162696
653.140	0.0162238
653.218	0.0161292
653.296	0.0162714
653.374	0.0161454
653.453	0.0161568
653.531	0.0163244
653.609	0.0160641
653.687	0.0161424
653.765	0.0162970
653.843	0.0162540
653.921	0.0162819
653.999	0.0161735
654.078	0.0163161
654.156	0.0161347
654.234	0.0160194
654.312	0.0161436
654.390	0.0161920
654.468	0.0163071
654.546	0.0162353
654.624	0.0161115
654.703	0.0162328
654.781	0.0162999
654.859	0.0162960
654.937	0.0163980
655.015	0.0161311
655.093	0.0161452
655.171	0.0162353
655.249	0.0164197
655.328	0.0163920
655.406	0.0161298
655.484	0.0161358
655.562	0.0162201
655.640	0.0162962
655.718	0.0162783
655.796	0.0162713
655.874	0.0162369
655.953	0.0161794
656.031	0.0161501
656.109	0.0162902
656.187	0.0162336
656.265	0.0162708
656.343	0.0162214
656.421	0.0162334
656.499	0.0162183
656.578	0.0162169
656.656	0.0161098
656.734	0.0162254
656.812	0.0163019
656.890	0.0162071
656.968	0.0161610
657.046	0.0162632
657.124	0.0162244
657.203	0.0162203
657.281	0.0163178
657.359	0.0161884
657.437	0.0161847
657.515	0.0162355
657.593	0.0162569
657.671	0.0162054
657.749	0.0162267
657.828	0.0162097
657.906	0.0162059
657.984	0.0161369
658.062	0.0161516
658.140	0.0161280
658.218	0.0161173
658.296	0.0162083
658.374	0.0161234
658.453	0.0163561
658.531	0.0161609
658.609	0.0160724
658.687	0.0162572
658.765	0.0163311
658.843	0.0162096
658.921	0.0161459
658.999	0.0160626
659.078	0.0163376
659.156	0.0160881
659.234	0.0161063
659.312	0.0161451
659.390	0.0160967
659.468	0.0161191
659.546	0.0162888
659.624	0.0162548
659.703	0.0162604
659.781	0.0161777
659.859	0.0161736
659.937	0.0162022
660.015	0.0162791
660.093	0.0161786
660.171	0.0161330
660.249	0.0161201
660.328	0.0161347
660.406	0.0161169
660.484	0.0160927
660.562	0.0161736
660.640	0.0163085
660.718	0.0162402
660.796	0.0163071
660.874	0.0163012
660.953	0.0163175
661.031	0.0162405
661.109	0.0161799
661.187	0.0161237
661.265	0.0162539
661.343	0.0161906
661.421	0.0160956
661.499	0.0162027
661.578	0.0161739
661.656	0.0162349
661.734	0.0161551
661.812	0.0161655
661.890	0.0161921
661.968	0.0161826
662.046	0.0162261
662.124	0.0161490
662.203	0.0161713
662.281	0.0162700
662.359	0.0162923
662.437	0.0161629
662.515	0.0161422
662.593	0.0161775
662.671	0.0162670
662.749	0.0161784
662.828	0.0161060
662.906	0.0162281
662.984	0.0162167
663.062	0.0161385
663.140	0.0161883
663.218	0.0162801
663.296	0.0160715
663.374	0.0160485
663.453	0.0162064
663.531	0.0161662
663.609	0.0162941
663.687	0.0161573
663.765	0.0161404
663.843	0.0162198
663.921	0.0162119
663.999	0.0161112
664.078	0.0162165
664.156	0.0160970
664.234	0.0161538
664.312	0.0161800
664.390	0.0162348
664.468	0.0161134
664.546	0.0161158
664.624	0.0162225
664.703	0.0161116
664.781	0.0162872
664.859	0.0161208
664.937	0.0162468
665.015	0.0161345
665.093	0.0161302
665.171	0.0161747
665.249	0.0161725
665.328	0.0162764
665.406	0.0161246
665.484	0.0162008
665.562	0.0161968
665.640	0.0160448
665.718	0.0161382
665.796	0.0161962
665.874	0.0162626
665.953	0.0160954
666.031	0.0161961
666.109	0.0161720
666.187	0.0161558
666.265	0.0162345
666.343	0.0161290
666.421	0.0160991
666.499	0.0162374
666.578	0.0162866
666.656	0.0160827
666.734	0.0163000
666.812	0.0162761
666.890	0.0161951
666.968	0.0161567
667.046	0.0161726
667.124	0.0163116
667.203	0.0162595
667.281	0.0162460
667.359	0.0161233
667.437	0.0161868
667.515	0.0162280
667.593	0.0161662
667.671	0.0163413
667.749	0.0161681
667.828	0.0161602
667.906	0.0162505
667.984	0.0162553
668.062	0.0161284
668.140	0.0161974
668.218	0.0161392
668.296	0.0162695
668.374	0.0162234
668.453	0.0163506
668.531	0.0162014
668.609	0.0160736
668.687	0.0161773
668.765	0.0161858
668.843	0.0160645
668.921	0.0162138
668.999	0.0163278
669.078	0.0162634
669.156	0.0161623
669.234	0.0161028
669.312	0.0161828
669.390	0.0161658
669.468	0.0161179
669.546	0.0162421
669.624	0.0161748
669.703	0.0162531
669.781	0.0160874
669.859	0.0161414
669.937	0.0161733
670.015	0.0162321
670.093	0.0161373
670.171	0.0161923
670.249	0.0161857
670.328	0.0162141
670.406	0.0161298
670.484	0.0161327
670.562	0.0161723
670.640	0.0162797
670.718	0.0160197
670.796	0.0162247
670.874	0.0162960
670.953	0.0161065
671.031	0.0160825
671.109	0.0163017
671.187	0.0161935
671.265	0.0162256
671.343	0.0161662
671.421	0.0161088
671.499	0.0162560
671.578	0.0162421
671.656	0.0161738
671.734	0.0162565
671.812	0.0162145
671.890	0.0163496
671.968	0.0162282
672.046	0.0162286
672.124	0.0161414
672.203	0.0161033
672.281	0.0162064
672.359	0.0162814
672.437	0.0161691
672.515	0.0161741
672.593	0.0161288
672.671	0.0162596
672.749	0.0161716
672.828	0.0160840
672.906	0.0161898
672.984	0.0161828
673.062	0.0161068
673.140	0.0162033
673.218	0.0162111
673.296	0.0161994
673.374	0.0162334
673.453	0.0162830
673.531	0.0160983
673.609	0.0161502
673.687	0.0161584
673.765	0.0161939
673.843	0.0161266
673.921	0.0163225
673.999	0.0162337
674.078	0.0160030
674.156	0.0161691
674.234	0.0161864
674.312	0.0161414
674.390	0.0162799
674.468	0.0162920
674.546	0.0161195
674.624	0.0161795
674.703	0.0162157
674.781	0.0163036
674.859	0.0162171
674.937	0.0160560
675.015	0.0160889
675.093	0.0162884
675.171	0.0161849
675.249	0.0162644
675.328	0.0162871
675.406	0.0162955
675.484	0.0161578
675.562	0.0161959
675.640	0.0162679
675.718	0.0162059
675.796	0.0162148
675.874	0.0162521
675.953	0.0162032
676.031	0.0163816
676.109	0.0163019
676.187	0.0163100
676.265	0.0162348
676.343	0.0162182
676.421	0.0163281
676.499	0.0163362
676.578	0.0162534
676.656	0.0162251
676.734	0.0162595
676.812	0.0163125
676.890	0.0162759
676.968	0.0162412
677.046	0.0162617
677.124	0.0163940
677.203	0.0161966
677.281	0.0161523
677.359	0.0161878
677.437	0.0162714
677.515	0.0162492
677.593	0.0161973
677.671	0.0162677
677.749	0.0161911
677.828	0.0162453
677.906	0.0162061
677.984	0.0163268
678.062	0.0161102
678.140	0.0163110
678.218	0.0164222
678.296	0.0162849
678.374	0.0162589
678.453	0.0163350
678.531	0.0161979
678.609	0.0161514
678.687	0.0161338
678.765	0.0162829
678.843	0.0162875
678.921	0.0161360
678.999	0.0161884
679.078	0.0162712
679.156	0.0161449
679.234	0.0161233
679.312	0.0161755
679.390	0.0162145
679.468	0.0162701
679.546	0.0161988
679.624	0.0162053
679.703	0.0163564
679.781	0.0162229
679.859	0.0162605
679.937	0.0162548
680.015	0.0162023
680.093	0.0161820
680.171	0.0163765
680.249	0.0163188
680.328	0.0162574
680.406	0.0161798
680.484	0.0163161
680.562	0.0163480
680.640	0.0162579
680.718	0.0162486
680.796	0.0163486
680.874	0.0163754
680.953	0.0162769
681.031	0.0162875
681.109	0.0163404
681.187	0.0162373
681.265	0.0162434
681.343	0.0162946
681.421	0.0161185
681.499	0.0163084
681.578	0.0161956
681.656	0.0162769
681.734	0.0163319
681.812	0.0164641
681.890	0.0162922
681.968	0.0162262
682.046	0.0162273
682.124	0.0163163
682.203	0.0161890
682.281	0.0163683
682.359	0.0162682
682.437	0.0162032
682.515	0.0162137
682.593	0.0162373
682.671	0.0161433
682.749	0.0163741
682.828	0.0161790
682.906	0.0163091
682.984	0.0162099
683.062	0.0163038
683.140	0.0163480
683.218	0.0163095
683.296	0.0161927
683.374	0.0162033
683.453	0.0161635
683.531	0.0161792
683.609	0.0164448
683.687	0.0162605
683.765	0.0161295
683.843	0.0160082
683.921	0.0161604
683.999	0.0163024
684.078	0.0163299
684.156	0.0161797
684.234	0.0162540
684.312	0.0161871
684.390	0.0161710
684.468	0.0161793
684.546	0.0162099
684.624	0.0161276
684.703	0.0161590
684.781	0.0162123
684.859	0.0160561
684.937	0.0161309
685.015	0.0160065
685.093	0.0161735
685.171	0.0162432
685.249	0.0161990
685.328	0.0161568
685.406	0.0161452
685.484	0.0161366
685.562	0.0161023
685.640	0.0161395
685.718	0.0161382
685.796	0.0160716
685.874	0.0161366
685.953	0.0161558
686.031	0.0161549
686.109	0.0159904
686.187	0.0159058
686.265	0.0162518
686.343	0.0161072
686.421	0.0161089
686.499	0.0160297
686.578	0.0162955
686.656	0.0162347
686.734	0.0161467
686.812	0.0162709
686.890	0.0160399
686.968	0.0161916
687.046	0.0161134
687.124	0.0160934
687.203	0.0161562
687.281	0.0161471
687.359	0.0161440
687.437	0.0163422
687.515	0.0161929
687.593	0.0160978
687.671	0.0161690
687.749	0.0162523
687.828	0.0162242
687.906	0.0161481
687.984	0.0161374
688.062	0.0161554
688.140	0.0162291
688.218	0.0161237
688.296	0.0162180
688.374	0.0161752
688.453	0.0161813
688.531	0.0162173
688.609	0.0161896
688.687	0.0162110
688.765	0.0161505
688.843	0.0162044
688.921	0.0161126
688.999	0.0160462
689.078	0.0162463
689.156	0.0161452
689.234	0.0161751
689.312	0.0163127
689.390	0.0161786
689.468	0.0161671
689.546	0.0162353
689.624	0.0161385
689.703	0.0162211
689.781	0.0161471
689.859	0.0161656
689.937	0.0162518
690.015	0.0162588
690.093	0.0163634
690.171	0.0163002
690.249	0.0161713
690.328	0.0162156
690.406	0.0162742
690.484	0.0162755
690.562	0.0162300
690.640	0.0162070
690.718	0.0161572
690.796	0.0161350
690.874	0.0161709
690.953	0.0161926
691.031	0.0163091
691.109	0.0162251
691.187	0.0162591
691.265	0.0161569
691.343	0.0162282
691.421	0.0162385
691.499	0.0162645
691.578	0.0163315
691.656	0.0160944
691.734	0.0160889
691.812	0.0161545
691.890	0.0163259
691.968	0.0162365
692.046	0.0162090
692.124	0.0161988
692.203	0.0160996
692.281	0.0161919
692.359	0.0161671
692.437	0.0161969
692.515	0.0162769
692.593	0.0162360
692.671	0.0162996
692.749	0.0161864
692.828	0.0161838
692.906	0.0161359
692.984	0.0161333
693.062	0.0162302
693.140	0.0163031
693.218	0.0162096
693.296	0.0161718
693.374	0.0161282
693.453	0.0162453
693.531	0.0163024
693.609	0.0161679
693.687	0.0162639
693.765	0.0161186
693.843	0.0163200
693.921	0.0161864
693.999	0.0162311
694.078	0.0161850
694.156	0.0162025
694.234	0.0161485
694.312	0.0160792
694.390	0.0163007
694.468	0.0160411
694.546	0.0162429
694.624	0.0161393
694.703	0.0161758
694.781	0.0161825
694.859	0.0162125
694.937	0.0162206
695.015	0.0162377
695.093	0.0162400
695.171	0.0162595
695.249	0.0162617
695.328	0.0162222
695.406	0.0162473
695.484	0.0162797
695.562	0.0161810
695.640	0.0161089
695.718	0.0163667
695.796	0.0161794
695.874	0.0161106
695.953	0.0161567
696.031	0.0161159
696.109	0.0161638
696.187	0.0162284
696.265	0.0163105
696.343	0.0162819
696.421	0.0160928
696.499	0.0160601
696.578	0.0162218
696.656	0.0162639
696.734	0.0162339
696.812	0.0161593
696.890	0.0162380
696.968	0.0162201
697.046	0.0161623
697.124	0.0162483
697.203	0.0161768
697.281	0.0162037
697.359	0.0160809
697.437	0.0161837
697.515	0.0161285
697.593	0.0161199
697.671	0.0162624
697.749	0.0161915
697.828	0.0162355
697.906	0.0161584
697.984	0.0161662
698.062	0.0161866
698.140	0.0162245
698.218	0.0163068
698.296	0.0161532
698.374	0.0160972
698.453	0.0161754
698.531	0.0161045
698.609	0.0161881
698.687	0.0162467
698.765	0.0162090
698.843	0.0162899
698.921	0.0159959
698.999	0.0162013
699.078	0.0161012
699.156	0.0161197
699.234	0.0162051
699.312	0.0162251
699.390	0.0162331
699.468	0.0162296
699.546	0.0161932
699.624	0.0162086
699.703	0.0163065
699.781	0.0161325
699.859	0.0161679
699.937	0.0161893
700.015	0.0161244
700.093	0.0161029
700.171	0.0161613
700.249	0.0162152
700.328	0.0162050
700.406	0.0161096
700.484	0.0161582
700.562	0.0162280
700.640	0.0161100
700.718	0.0162184
700.796	0.0162321
700.874	0.0159870
700.953	0.0161110
701.031	0.0160157
701.109	0.0161485
701.187	0.0163622
701.265	0.0161792
701.343	0.0161478
701.421	0.0162815
701.499	0.0161668
701.578	0.0160854
701.656	0.0161682
701.734	0.0162348
701.812	0.0161221
701.890	0.0162003
701.968	0.0161105
702.046	0.0159914
702.124	0.0161493
702.203	0.0160860
702.281	0.0160748
702.359	0.0161294
702.437	0.0161655
702.515	0.0160584
702.593	0.0161411
702.671	0.0162206
702.749	0.0162254
702.828	0.0162160
702.906	0.0161596
702.984	0.0161098
703.062	0.0162149
703.140	0.0161749
703.218	0.0162144
703.296	0.0161662
703.374	0.0162691
703.453	0.0161089
703.531	0.0161549
703.609	0.0162772
703.687	0.0162556
703.765	0.0160950
703.843	0.0159942
703.921	0.0162570
703.999	0.0162034
704.078	0.0161362
704.156	0.0161962
704.234	0.0161194
704.312	0.0161587
704.390	0.0162400
704.468	0.0164236
704.546	0.0162864
704.624	0.0161450
704.703	0.0161581
704.781	0.0161837
704.859	0.0162187
704.937	0.0162714
705.015	0.0161264
705.093	0.0161491
705.171	0.0161840
705.249	0.0161432
705.328	0.0161794
705.406	0.0161393
705.484	0.0161531
705.562	0.0160560
705.640	0.0162313
705.718	0.0162304
705.796	0.0161192
705.874	0.0161318
705.953	0.0160997
706.031	0.0160751
706.109	0.0162518
706.187	0.0161722
706.265	0.0161201
706.343	0.0162360
706.421	0.0162032
706.499	0.0162325
706.578	0.0161876
706.656	0.0162695
706.734	0.0161077
706.812	0.0162268
706.890	0.0162164
706.968	0.0161350
707.046	0.0160815
707.124	0.0161317
707.203	0.0161772
707.281	0.0161686
707.359	0.0162474
707.437	0.0161600
707.515	0.0163610
707.593	0.0162221
707.671	0.0160853
707.749	0.0162583
707.828	0.0161692
707.906	0.0160492
707.984	0.0160224
708.062	0.0161390
708.140	0.0161597
708.218	0.0162205
708.296	0.0161494
708.374	0.0161229
708.453	0.0161038
708.531	0.0161829
708.609	0.0160599
708.687	0.0161662
708.765	0.0160567
708.843	0.0160852
708.921	0.0161643
708.999	0.0161053
709.078	0.0160767
709.156	0.0160004
709.234	0.0163107
709.312	0.0161307
709.390	0.0160202
709.468	0.0160654
709.546	0.0161113
709.624	0.0162106
709.703	0.0163182
709.781	0.0160966
709.859	0.0161312
709.937	0.0161302
710.015	0.0161442
710.093	0.0161671
710.171	0.0162006
710.249	0.0161166
710.328	0.0160739
710.406	0.0161787
710.484	0.0162604
710.562	0.0161214
710.640	0.0161160
710.718	0.0163514
710.796	0.0161039
710.874	0.0161343
710.953	0.0162228
711.031	0.0161388
711.109	0.0162183
711.187	0.0161695
711.265	0.0162746
711.343	0.0162225
711.421	0.0161595
711.499	0.0162299
711.578	0.0161739
711.656	0.0161930
711.734	0.0161884
711.812	0.0163034
711.890	0.0162043
711.968	0.0161451
712.046	0.0161226
712.124	0.0162012
712.203	0.0161051
712.281	0.0161296
712.359	0.0161857
712.437	0.0160670
712.515	0.0163034
712.593	0.0161150
712.671	0.0161325
712.749	0.0160376
712.828	0.0159319
712.906	0.0161269
712.984	0.0160699
713.062	0.0160763
713.140	0.0162203
713.218	0.0161446
713.296	0.0162586
713.374	0.0161646
713.453	0.0161133
713.531	0.0162375
713.609	0.0162634
713.687	0.0163318
713.765	0.0163066
713.843	0.0163685
713.921	0.0162507
713.999	0.0162563
714.078	0.0162659
714.156	0.0163953
714.234	0.0162769
714.312	0.0162019
714.390	0.0162463
714.468	0.0162386
714.546	0.0162070
714.624	0.0162450
714.703	0.0162930
714.781	0.0161777
714.859	0.0161050
714.937	0.0160165
715.015	0.0160781
715.093	0.0159875
715.171	0.0160205
715.249	0.0158867
715.328	0.0160229
715.406	0.0159083
715.484	0.0159798
715.562	0.0160471
715.640	0.0162161
715.718	0.0160872
715.796	0.0163337
715.874	0.0163438
715.953	0.0161859
716.031	0.0163589
716.109	0.0163835
716.187	0.0164292
716.265	0.0164220
716.343	0.0164481
716.421	0.0164452
716.499	0.0164465
716.578	0.0164469
716.656	0.0164234
716.734	0.0164301
716.812	0.0164780
716.890	0.0163462
716.968	0.0163853
717.046	0.0164638
717.124	0.0164131
717.203	0.0163485
717.281	0.0162386
717.359	0.0164387
717.437	0.0163119
717.515	0.0162014
717.593	0.0162600
717.671	0.0161734
717.749	0.0161060
717.828	0.0161493
717.906	0.0162584
717.984	0.0161011
718.062	0.0161246
718.140	0.0161858
718.218	0.0162399
718.296	0.0162073
718.374	0.0163371
718.453	0.0163113
718.531	0.0161668
718.609	0.0161697
718.687	0.0160928
718.765	0.0161542
718.843	0.0159493
718.921	0.0159415
718.999	0.0159156
719.078	0.0159471
719.156	0.0159119
719.234	0.0159972
719.312	0.0158535
719.390	0.0158648
719.468	0.0160090
719.546	0.0160790
719.624	0.0159101
719.703	0.0161250
719.781	0.0162135
719.859	0.0160641
719.937	0.0160770
720.015	0.0161712
720.093	0.0165092
720.171	0.0162993
720.249	0.0162998
720.328	0.0162418
720.406	0.0164874
720.484	0.0166069
720.562	0.0163763
720.640	0.0164935
720.718	0.0166254
720.796	0.0167035
720.874	0.0165459
720.953	0.0166263
721.031	0.0167793
721.109	0.0166867
721.187	0.0167507
721.265	0.0167909
721.343	0.0168006
721.421	0.0167632
721.499	0.0166366
721.578	0.0166962
721.656	0.0165451
721.734	0.0163857
721.812	0.0162734
721.890	0.0161717
721.968	0.0159750
722.046	0.0158160
722.124	0.0155734
722.203	0.0153500
722.281	0.0151247
722.359	0.0151844
722.437	0.0149307
722.515	0.0149480
722.593	0.0151776
722.671	0.0151169
722.749	0.0151989
722.828	0.0152935
722.906	0.0153931
722.984	0.0156829
723.062	0.0158762
723.140	0.0160371
723.218	0.0162781
723.296	0.0164661
723.374	0.0166864
723.453	0.0168689
723.531	0.0169873
723.609	0.0170340
723.687	0.0172910
723.765	0.0172183
723.843	0.0172479
723.921	0.0172469
723.999	0.0172363
724.078	0.0173555
724.156	0.0171993
724.234	0.0171542
724.312	0.0170757
724.390	0.0169317
724.468	0.0166560
724.546	0.0165431
724.624	0.0164510
724.703	0.0163866
724.781	0.0161089
724.859	0.0160397
724.937	0.0158600
725.015	0.0157468
725.093	0.0155108
725.171	0.0155680
725.249	0.0155924
725.328	0.0157262
725.406	0.0154423
725.484	0.0154647
725.562	0.0154698
725.640	0.0154639
725.718	0.0155431
725.796	0.0155956
725.874	0.0156566
725.953	0.0157423
726.031	0.0158195
726.109	0.0157781
726.187	0.0157372
726.265	0.0159325
726.343	0.0158006
726.421	0.0157728
726.499	0.0157632
726.578	0.0157461
726.656	0.0157382
726.734	0.0158335
726.812	0.0157767
726.890	0.0158360
726.968	0.0159036
727.046	0.0158717
727.124	0.0159458
727.203	0.0159485
727.281	0.0161684
727.359	0.0161585
727.437	0.0163510
727.515	0.0165335
727.593	0.0166148
727.671	0.0168447
727.749	0.0169509
727.828	0.0168951
727.906	0.0171671
727.984	0.0172260
728.062	0.0172701
728.140	0.0171921
728.218	0.0171225
728.296	0.0170926
728.374	0.0172244
728.453	0.0171233
728.531	0.0168469
728.609	0.0167088
728.687	0.0165012
728.765	0.0161652
728.843	0.0160918
728.921	0.0160491
728.999	0.0157921
729.078	0.0155867
729.156	0.0155512
729.234	0.0155373
729.312	0.0152811
729.390	0.0152298
729.468	0.0152013
729.546	0.0152133
729.624	0.0152612
729.703	0.0152466
729.781	0.0153665
729.859	0.0154024
729.937	0.0156797
730.015	0.0158081
730.093	0.0159251
730.171	0.0160417
730.249	0.0162896
730.328	0.0163840
730.406	0.0163171
730.484	0.0165715
730.562	0.0165368
730.640	0.0167872
730.718	0.0165657
730.796	0.0166723
730.874	0.0166995
730.953	0.0166389
731.031	0.0165051
731.109	0.0163177
731.187	0.0161514
731.265	0.0163261
731.343	0.0162878
731.421	0.0160278
731.499	0.0162019
731.578	0.0161130
731.656	0.0159377
731.734	0.0158924
731.812	0.0159627
731.890	0.0160255
731.968	0.0160135
732.046	0.0161370
732.124	0.0161898
732.203	0.0162537
732.281	0.0161929
732.359	0.0163266
732.437	0.0163596
732.515	0.0165215
732.593	0.0164816
732.671	0.0164417
732.749	0.0163706
732.828	0.0165881
732.906	0.0165274
732.984	0.0165141
733.062	0.0164771
733.140	0.0163731
733.218	0.0162245
733.296	0.0162218
733.374	0.0162678
733.453	0.0163049
733.531	0.0161569
733.609	0.0160416
733.687	0.0161293
733.765	0.0161086
733.843	0.0159856
733.921	0.0161399
733.999	0.0161951
734.078	0.0161822
734.156	0.0163387
734.234	0.0163368
734.312	0.0163036
734.390	0.0163335
734.468	0.0164665
734.546	0.0164325
734.624	0.0165890
734.703	0.0164828
734.781	0.0164706
734.859	0.0167583
734.937	0.0164977
735.015	0.0164529
735.093	0.0165418
735.171	0.0164802
735.249	0.0162963
735.328	0.0163741
735.406	0.0163244
735.484	0.0160568
735.562	0.0161407
735.640	0.0161579
735.718	0.0159155
735.796	0.0160854
735.874	0.0159804
735.953	0.0158337
736.031	0.0158207
736.109	0.0157448
736.187	0.0156629
736.265	0.0155174
736.343	0.0155884
736.421	0.0156857
736.499	0.0157470
736.578	0.0156842
736.656	0.0157866
736.734	0.0157866
736.812	0.0157994
736.890	0.0159660
736.968	0.0159542
737.046	0.0160993
737.124	0.0161801
737.203	0.0163480
737.281	0.0164288
737.359	0.0165364
737.437	0.0167198
737.515	0.0167238
737.593	0.0168049
737.671	0.0169312
737.749	0.0169175
737.828	0.0170467
737.906	0.0170747
737.984	0.0167848
738.062	0.0169904
738.140	0.0169760
738.218	0.0169776
738.296	0.0169078
738.374	0.0167303
738.453	0.0166434
738.531	0.0164663
738.609	0.0163243
738.687	0.0163727
738.765	0.0162559
738.843	0.0160635
738.921	0.0160377
738.999	0.0159524
739.078	0.0158511
739.156	0.0157471
739.234	0.0157343
739.312	0.0157088
739.390	0.0157613
739.468	0.0158255
739.546	0.0157221
739.624	0.0157144
739.703	0.0157816
739.781	0.0157059
739.859	0.0158695
739.937	0.0158751
740.015	0.0160262
740.093	0.0159650
740.171	0.0160056
740.249	0.0160902
740.328	0.0161263
740.406	0.0160582
740.484	0.0163570
740.562	0.0162778
740.640	0.0164336
740.718	0.0163564
740.796	0.0163194
740.874	0.0163044
740.953	0.0163553
741.031	0.0164027
741.109	0.0163441
741.187	0.0162637
741.265	0.0162333
741.343	0.0162325
741.421	0.0162831
741.499	0.0162873
741.578	0.0159614
741.656	0.0160848
741.734	0.0161467
741.812	0.0161467
741.890	0.0160837
741.968	0.0162613
742.046	0.0162359
742.124	0.0161313
742.203	0.0161289
742.281	0.0162685
742.359	0.0162332
742.437	0.0163622
742.515	0.0163711
742.593	0.0163605
742.671	0.0165905
742.749	0.0164947
742.828	0.0164102
742.906	0.0165652
742.984	0.0164172
743.062	0.0163830
743.140	0.0165369
743.218	0.0164785
743.296	0.0162657
743.374	0.0162866
743.453	0.0162204
743.531	0.0160773
743.609	0.0159312
743.687	0.0159221
743.765	0.0159335
743.843	0.0157731
743.921	0.0159579
743.999	0.0159598
744.078	0.0158302
744.156	0.0158400
744.234	0.0160382
744.312	0.0160342
744.390	0.0160152
744.468	0.0161267
744.546	0.0161393
744.624	0.0162443
744.703	0.0162177
744.781	0.0160308
744.859	0.0161987
744.937	0.0161485
745.015	0.0161517
745.093	0.0162052
745.171	0.0162164
745.249	0.0160931
745.328	0.0161662
745.406	0.0161646
745.484	0.0160947
745.562	0.0161543
745.640	0.0160839
745.718	0.0161778
745.796	0.0161754
745.874	0.0160413
745.953	0.0161775
746.031	0.0161473
746.109	0.0162071
746.187	0.0161642
746.265	0.0162411
746.343	0.0160548
746.421	0.0162369
746.499	0.0162920
746.578	0.0161410
746.656	0.0162766
746.734	0.0161884
746.812	0.0163324
746.890	0.0162058
746.968	0.0163297
747.046	0.0163458
747.124	0.0163725
747.203	0.0163881
747.281	0.0164240
747.359	0.0164548
747.437	0.0163495
747.515	0.0162872
747.593	0.0163986
747.671	0.0165328
747.749	0.0163836
747.828	0.0163856
747.906	0.0162086
747.984	0.0162004
748.062	0.0163460
748.140	0.0162585
748.218	0.0161430
748.296	0.0161598
748.374	0.0160810
748.453	0.0160747
748.531	0.0160162
748.609	0.0161061
748.687	0.0159929
748.765	0.0160567
748.843	0.0160968
748.921	0.0159607
748.999	0.0160194
749.078	0.0161086
749.156	0.0159509
749.234	0.0160408
749.312	0.0160680
749.390	0.0160425
749.468	0.0160373
749.546	0.0159355
749.624	0.0159984
749.703	0.0160671
749.781	0.0161658
749.859	0.0161728
749.937	0.0160893
750.015	0.0161054
750.093	0.0162469
750.171	0.0162489
750.249	0.0162090
750.328	0.0163514
750.406	0.0163133
750.484	0.0164011
750.562	0.0163856
750.640	0.0164799
750.718	0.0163527
750.796	0.0164697
750.874	0.0163681
750.953	0.0162676
751.031	0.0163239
751.109	0.0164578
751.187	0.0165456
751.265	0.0164761
751.343	0.0163978
751.421	0.0163107
751.499	0.0163351
751.578	0.0162904
751.656	0.0163454
751.734	0.0163259
751.812	0.0163980
751.890	0.0163589
751.968	0.0163747
752.046	0.0163065
752.124	0.0163980
752.203	0.0163276
752.281	0.0163476
752.359	0.0161545
752.437	0.0161739
752.515	0.0162229
752.593	0.0160497
752.671	0.0161269
752.749	0.0160466
752.828	0.0161745
752.906	0.0161642
752.984	0.0160975
753.062	0.0160107
753.140	0.0162540
753.218	0.0163443
753.296	0.0162876
753.374	0.0162404
753.453	0.0163528
753.531	0.0163988
753.609	0.0164599
753.687	0.0164904
753.765	0.0164912
753.843	0.0164173
753.921	0.0165107
753.999	0.0164690
754.078	0.0164832
754.156	0.0164996
754.234	0.0164477
754.312	0.0161597
754.390	0.0164220
754.468	0.0163189
754.546	0.0161790
754.624	0.0161995
754.703	0.0162166
754.781	0.0161738
754.859	0.0161488
754.937	0.0161214
755.015	0.0161937
755.093	0.0161616
755.171	0.0161436
755.249	0.0162449
755.328	0.0162001
755.406	0.0163438
755.484	0.0162173
755.562	0.0164030
755.640	0.0162720
755.718	0.0163976
755.796	0.0161543
755.874	0.0162492
755.953	0.0162717
756.031	0.0161115
756.109	0.0161285
756.187	0.0161656
756.265	0.0160410
756.343	0.0160359
756.421	0.0159792
756.499	0.0158472
756.578	0.0159643
756.656	0.0158942
756.734	0.0160017
756.812	0.0160220
756.890	0.0159053
756.968	0.0160224
757.046	0.0161643
757.124	0.0161573
757.203	0.0162535
757.281	0.0163660
757.359	0.0164053
757.437	0.0164305
757.515	0.0165408
757.593	0.0166308
757.671	0.0166113
757.749	0.0167282
757.828	0.0168396
757.906	0.0167652
757.984	0.0167083
758.062	0.0166564
758.140	0.0165879
758.218	0.0165720
758.296	0.0164957
758.374	0.0164987
758.453	0.0163273
758.531	0.0162278
758.609	0.0161164
758.687	0.0159888
758.765	0.0158611
758.843	0.0159525
758.921	0.0158167
758.999	0.0157510
759.078	0.0157556
759.156	0.0156346
759.234	0.0157045
759.312	0.0158419
759.390	0.0160415
759.468	0.0159168
759.546	0.0160026
759.624	0.0161117
759.703	0.0161395
759.781	0.0162796
759.859	0.0163444
759.937	0.0163329
760.015	0.0163998
760.093	0.0165166
760.171	0.0164714
760.249	0.0163292
760.328	0.0163820
760.406	0.0163657
760.484	0.0162611
760.562	0.0163642
760.640	0.0161195
760.718	0.0161703
760.796	0.0162195
760.874	0.0160313
760.953	0.0160291
761.031	0.0160952
761.109	0.0160262
761.187	0.0161017
761.265	0.0160520
761.343	0.0161763
761.421	0.0161958
761.499	0.0161546
761.578	0.0160493
761.656	0.0161458
761.734	0.0162526
761.812	0.0162901
761.890	0.0163176
761.968	0.0163813
762.046	0.0163787
762.124	0.0163340
762.203	0.0162219
762.281	0.0163544
762.359	0.0164487
762.437	0.0164286
762.515	0.0165484
762.593	0.0165965
762.671	0.0165773
762.749	0.0165334
762.828	0.0166924
762.906	0.0167886
762.984	0.0167608
763.062	0.0166140
763.140	0.0164946
763.218	0.0164594
763.296	0.0164871
763.374	0.0163239
763.453	0.0161142
763.531	0.0161807
763.609	0.0160098
763.687	0.0158371
763.765	0.0157510
763.843	0.0156844
763.921	0.0155286
763.999	0.0156081
764.078	0.0155466
764.156	0.0154696
764.234	0.0155607
764.312	0.0154522
764.390	0.0156267
764.468	0.0155566
764.546	0.0158205
764.624	0.0157399
764.703	0.0158315
764.781	0.0158586
764.859	0.0158958
764.937	0.0162049
765.015	0.0160734
765.093	0.0162580
765.171	0.0164874
765.249	0.0163322
765.328	0.0163921
765.406	0.0164610
765.484	0.0165433
765.562	0.0166216
765.640	0.0165279
765.718	0.0166056
765.796	0.0167113
765.874	0.0166703
765.953	0.0164768
766.031	0.0166804
766.109	0.0168742
766.187	0.0166191
766.265	0.0164664
766.343	0.0164063
766.421	0.0166295
766.499	0.0164966
766.578	0.0162907
766.656	0.0163441
766.734	0.0161798
766.812	0.0162788
766.890	0.0161423
766.968	0.0161063
767.046	0.0161397
767.124	0.0160641
767.203	0.0161065
767.281	0.0161111
767.359	0.0160952
767.437	0.0159221
767.515	0.0160442
767.593	0.0159307
767.671	0.0159196
767.749	0.0159477
767.828	0.0159164
767.906	0.0160781
767.984	0.0159052
768.062	0.0159490
768.140	0.0159152
768.218	0.0158866
768.296	0.0160469
768.374	0.0159727
768.453	0.0157146
768.531	0.0159097
768.609	0.0157821
768.687	0.0155907
768.765	0.0157388
768.843	0.0156191
768.921	0.0153915
768.999	0.0154349
769.078	0.0153513
769.156	0.0153144
769.234	0.0154089
769.312	0.0154402
769.390	0.0156062
769.468	0.0158143
769.546	0.0159749
769.624	0.0164913
769.703	0.0167025
769.781	0.0169353
769.859	0.0172475
769.937	0.0174068
770.015	0.0176247
770.093	0.0178843
770.171	0.0178447
770.249	0.0178568
770.328	0.0180189
770.406	0.0176416
770.484	0.0175863
770.562	0.0174005
770.640	0.0171865
770.718	0.0167915
770.796	0.0166534
770.874	0.0163728
770.953	0.0161610
771.031	0.0159057
771.109	0.0156695
771.187	0.0154391
771.265	0.0153830
771.343	0.0154913
771.421	0.0151406
771.499	0.0152911
771.578	0.0153386
771.656	0.0154974
771.734	0.0153662
771.812	0.0155064
771.890	0.0155354
771.968	0.0156628
772.046	0.0156269
772.124	0.0156922
772.203	0.0156951
772.281	0.0156654
772.359	0.0157242
772.437	0.0157102
772.515	0.0155230
772.593	0.0156146
772.671	0.0156384
772.749	0.0157933
772.828	0.0155907
772.906	0.0158247
772.984	0.0158976
773.062	0.0159821
773.140	0.0161488
773.218	0.0163200
773.296	0.0163648
773.374	0.0165744
773.453	0.0167240
773.531	0.0170266
773.609	0.0172600
773.687	0.0170513
773.765	0.0172846
773.843	0.0173672
773.921	0.0174065
773.999	0.0176215
774.078	0.0176623
774.156	0.0174625
774.234	0.0175221
774.312	0.0173856
774.390	0.0171228
774.468	0.0170044
774.546	0.0168384
774.624	0.0165993
774.703	0.0164697
774.781	0.0161974
774.859	0.0157324
774.937	0.0155682
775.015	0.0154260
775.093	0.0152166
775.171	0.0150671
775.249	0.0148706
775.328	0.0149017
775.406	0.0148640
775.484	0.0149206
775.562	0.0148820
775.640	0.0148223
775.718	0.0150084
775.796	0.0149538
775.874	0.0151777
775.953	0.0153137
776.031	0.0152753
776.109	0.0155172
776.187	0.0156477
776.265	0.0155919
776.343	0.0156847
776.421	0.0158099
776.499	0.0160625
776.578	0.0161989
776.656	0.0165540
776.734	0.0166663
776.812	0.0167595
776.890	0.0169543
776.968	0.0170983
777.046	0.0174129
777.124	0.0175359
777.203	0.0176655
777.281	0.0178682
777.359	0.0178716
777.437	0.0180093
777.515	0.0180977
777.593	0.0180125
777.671	0.0178698
777.749	0.0176048
777.828	0.0173706
777.906	0.0173186
777.984	0.0171159
778.062	0.0168750
778.140	0.0166290
778.218	0.0163275
778.296	0.0162357
778.374	0.0159515
778.453	0.0156736
778.531	0.0154708
778.609	0.0153951
778.687	0.0152073
778.765	0.0150679
778.843	0.0151035
778.921	0.0148496
778.999	0.0149713
779.078	0.0148807
779.156	0.0147914
779.234	0.0148880
779.312	0.0147921
779.390	0.0148569
779.468	0.0147578
779.546	0.0147439
779.624	0.0147834
779.703	0.0146345
779.781	0.0147668
779.859	0.0148883
779.937	0.0149759
780.015	0.0150452
780.093	0.0153041
780.171	0.0154043
780.249	0.0156540
780.328	0.0158688
780.406	0.0161895
780.484	0.0164794
780.562	0.0167098
780.640	0.0168304
780.718	0.0171342
780.796	0.0171513
780.874	0.0174360
780.953	0.0177060
781.031	0.0175456
781.109	0.0175431
781.187	0.0176909
781.265	0.0177374
781.343	0.0177486
781.421	0.0177591
781.499	0.0176852
781.578	0.0175529
781.656	0.0175619
781.734	0.0177180
781.812	0.0175542
781.890	0.0174429
781.968	0.0172455
782.046	0.0169886
782.124	0.0169521
782.203	0.0167097
782.281	0.0164640
782.359	0.0164348
782.437	0.0162665
782.515	0.0159935
782.593	0.0157038
782.671	0.0154198
782.749	0.0151357
782.828	0.0150422
782.906	0.0149789
782.984	0.0148434
783.062	0.0149382
783.140	0.0150022
783.218	0.0149583
783.296	0.0148327
783.374	0.0152111
783.453	0.0153444
783.531	0.0153722
783.609	0.0155036
783.687	0.0155632
783.765	0.0155564
783.843	0.0157594
783.921	0.0158124
783.999	0.0160966
784.078	0.0161421
784.156	0.0162565
784.234	0.0164613
784.312	0.0164479
784.390	0.0165992
784.468	0.0167587
784.546	0.0169007
784.624	0.0167883
784.703	0.0168368
784.781	0.0168373
784.859	0.0167487
784.937	0.0166351
785.015	0.0166220
785.093	0.0165898
785.171	0.0164614
785.249	0.0163697
785.328	0.0162372
785.406	0.0163108
785.484	0.0162038
785.562	0.0161111
785.640	0.0160750
785.718	0.0161096
785.796	0.0161777
785.874	0.0161242
785.953	0.0160394
786.031	0.0159708
786.109	0.0159451
786.187	0.0161626
786.265	0.0160805
786.343	0.0163183
786.421	0.0163173
786.499	0.0161989
786.578	0.0162823
786.656	0.0162640
786.734	0.0161684
786.812	0.0162269
786.890	0.0160448
786.968	0.0161211
787.046	0.0159599
787.124	0.0159686
787.203	0.0157920
787.281	0.0157394
787.359	0.0156954
787.437	0.0156499
787.515	0.0155749
787.593	0.0156630
787.671	0.0157949
787.749	0.0158662
787.828	0.0159369
787.906	0.0160363
787.984	0.0161895
788.062	0.0163897
788.140	0.0164780
788.218	0.0166990
788.296	0.0167322
788.374	0.0168344
788.453	0.0169099
788.531	0.0170280
788.609	0.0168755
788.687	0.0169000
788.765	0.0168687
788.843	0.0169427
788.921	0.0167707
788.999	0.0167965
789.078	0.0165553
789.156	0.0163354
789.234	0.0163760
789.312	0.0163294
789.390	0.0161719
789.468	0.0161230
789.546	0.0158944
789.624	0.0157529
789.703	0.0157571
789.781	0.0155190
789.859	0.0157023
789.937	0.0157839
790.015	0.0155895
790.093	0.0155891
790.171	0.0153915
790.249	0.0154115
790.328	0.0155219
790.406	0.0154604
790.484	0.0154530
790.562	0.0156016
790.640	0.0157623
790.718	0.0157895
790.796	0.0157991
790.874	0.0156689
790.953	0.0158580
791.031	0.0159219
791.109	0.0159908
791.187	0.0158967
791.265	0.0159223
791.343	0.0162089
791.421	0.0161830
791.499	0.0161482
791.578	0.0162518
791.656	0.0163373
791.734	0.0163440
791.812	0.0163667
791.890	0.0165738
791.968	0.0165913
792.046	0.0166423
792.124	0.0168185
792.203	0.0168307
792.281	0.0167814
792.359	0.0166750
792.437	0.0168691
792.515	0.0166987
792.593	0.0165691
792.671	0.0165658
792.749	0.0167545
792.828	0.0165952
792.906	0.0165633
792.984	0.0165250
793.062	0.0163426
793.140	0.0163322
793.218	0.0162355
793.296	0.0162670
793.374	0.0161967
793.453	0.0161257
793.531	0.0159505
793.609	0.0158885
793.687	0.0161204
793.765	0.0162155
793.843	0.0160896
793.921	0.0160880
793.999	0.0162566
794.078	0.0163353
794.156	0.0164056
794.234	0.0163546
794.312	0.0164304
794.390	0.0163268
794.468	0.0162449
794.546	0.0161921
794.624	0.0160251
794.703	0.0159708
794.781	0.0159067
794.859	0.0157161
794.937	0.0157131
795.015	0.0156229
795.093	0.0155817
795.171	0.0157401
795.249	0.0157132
795.328	0.0158032
795.406	0.0159413
795.484	0.0160900
795.562	0.0161331
795.640	0.0163562
795.718	0.0163191
795.796	0.0164952
795.874	0.0165691
795.953	0.0166578
796.031	0.0167230
796.109	0.0167730
796.187	0.0166579
796.265	0.0166293
796.343	0.0167350
796.421	0.0164587
796.499	0.0163718
796.578	0.0163220
796.656	0.0160710
796.734	0.0159637
796.812	0.0158196
796.890	0.0157343
796.968	0.0155207
797.046	0.0155161
797.124	0.0153307
797.203	0.0152174
797.281	0.0153889
797.359	0.0152738
797.437	0.0151568
797.515	0.0151640
797.593	0.0151291
797.671	0.0153078
797.749	0.0152518
797.828	0.0154265
797.906	0.0154920
797.984	0.0157297
798.062	0.0159286
798.140	0.0159397
798.218	0.0160381
798.296	0.0163355
798.374	0.0164243
798.453	0.0165706
798.531	0.0166231
798.609	0.0169286
798.687	0.0169256
798.765	0.0169530
798.843	0.0170103
798.921	0.0173260
798.999	0.0172954
799.078	0.0173343
799.156	0.0172544
799.234	0.0173737
799.312	0.0173761
799.390	0.0171705
799.468	0.0172401
799.546	0.0172130
799.624	0.0171247
799.703	0.0169863
799.781	0.0169063
799.859	0.0169907
799.937	0.0168091
800.015	0.0166704
800.093	0.0166232
800.171	0.0164128
800.249	0.0163391
800.328	0.0163098
800.406	0.0161224
800.484	0.0159384
800.562	0.0159644
800.640	0.0157706
800.718	0.0156123
800.796	0.0155018
800.874	0.0156315
800.953	0.0154939
801.031	0.0153819
801.109	0.0154696
801.187	0.0152413
801.265	0.0153384
801.343	0.0153326
801.421	0.0151849
801.499	0.0154658
801.578	0.0156632
801.656	0.0158368
801.734	0.0159165
801.812	0.0159331
801.890	0.0160480
801.968	0.0160484
802.046	0.0160455
802.124	0.0160069
802.203	0.0160034
802.281	0.0159132
802.359	0.0158021
802.437	0.0158760
802.515	0.0155842
802.593	0.0154481
802.671	0.0155489
802.749	0.0155281
802.828	0.0155021
802.906	0.0154597
802.984	0.0154783
803.062	0.0156097
803.140	0.0157480
803.218	0.0157516
803.296	0.0157576
803.374	0.0158296
803.453	0.0160875
803.531	0.0160715
803.609	0.0160480
803.687	0.0160054
803.765	0.0162061
803.843	0.0162080
803.921	0.0163760
803.999	0.0164916
804.078	0.0164727
804.156	0.0164458
804.234	0.0164676
804.312	0.0166063
804.390	0.0164935
804.468	0.0165873
804.546	0.0166573
804.624	0.0168085
804.703	0.0168441
804.781	0.0169394
804.859	0.0168182
804.937	0.0169131
805.015	0.0169772
805.093	0.0171276
805.171	0.0169369
805.249	0.0169348
805.328	0.0169720
805.406	0.0170090
805.484	0.0168771
805.562	0.0165079
805.640	0.0164176
805.718	0.0164955
805.796	0.0163609
805.874	0.0164709
805.953	0.0163799
806.031	0.0164133
806.109	0.0161960
806.187	0.0162232
806.265	0.0161521
806.343	0.0162790
806.421	0.0163489
806.499	0.0163835
806.578	0.0161502
806.656	0.0161836
806.734	0.0161996
806.812	0.0162920
806.890	0.0159311
806.968	0.0158695
807.046	0.0158710
807.124	0.0156632
807.203	0.0153777
807.281	0.0153198
807.359	0.0151808
807.437	0.0152198
807.515	0.0151900
807.593	0.0150817
807.671	0.0150917
807.749	0.0151949
807.828	0.0151742
807.906	0.0150949
807.984	0.0154052
808.062	0.0154234
808.140	0.0156089
808.218	0.0155015
808.296	0.0157898
808.374	0.0158821
808.453	0.0160545
808.531	0.0161401
808.609	0.0161322
808.687	0.0162659
808.765	0.0161124
808.843	0.0162935
808.921	0.0161982
808.999	0.0164629
809.078	0.0164615
809.156	0.0163356
809.234	0.0164637
809.312	0.0164852
809.390	0.0165702
809.468	0.0164412
809.546	0.0162586
809.624	0.0164584
809.703	0.0165677
809.781	0.0165345
809.859	0.0165285
809.937	0.0164397
810.015	0.0164906
810.093	0.0165321
810.171	0.0165845
810.249	0.0165688
810.328	0.0165121
810.406	0.0167082
810.484	0.0166782
810.562	0.0167200
810.640	0.0166847
810.718	0.0167407
810.796	0.0167613
810.874	0.0166717
810.953	0.0169790
811.031	0.0168829
811.109	0.0167814
811.187	0.0168082
811.265	0.0167962
811.343	0.0168329
811.421	0.0166935
811.499	0.0166071
811.578	0.0166853
811.656	0.0166139
811.734	0.0164494
811.812	0.0164908
811.890	0.0164137
811.968	0.0162095
812.046	0.0161259
812.124	0.0160435
812.203	0.0159718
812.281	0.0160099
812.359	0.0159445
812.437	0.0158768
812.515	0.0157501
812.593	0.0157863
812.671	0.0157808
812.749	0.0157844
812.828	0.0158123
812.906	0.0156327
812.984	0.0156194
813.062	0.0156492
813.140	0.0157294
813.218	0.0156939
813.296	0.0156522
813.374	0.0156892
813.453	0.0156281
813.531	0.0156956
813.609	0.0157071
813.687	0.0158477
813.765	0.0157030
813.843	0.0159818
813.921	0.0160592
813.999	0.0159564
814.078	0.0159812
814.156	0.0161237
814.234	0.0161166
814.312	0.0161909
814.390	0.0161610
814.468	0.0161154
814.546	0.0161349
814.624	0.0163114
814.703	0.0161770
814.781	0.0161913
814.859	0.0162170
814.937	0.0162652
815.015	0.0162738
815.093	0.0162959
815.171	0.0163390
815.249	0.0163700
815.328	0.0165794
815.406	0.0163863
815.484	0.0165945
815.562	0.0164125
815.640	0.0164063
815.718	0.0165059
815.796	0.0164365
815.874	0.0164831
815.953	0.0163766
816.031	0.0163573
816.109	0.0163419
816.187	0.0161353
816.265	0.0162434
816.343	0.0160312
816.421	0.0161335
816.499	0.0161448
816.578	0.0161180
816.656	0.0161205
816.734	0.0162425
816.812	0.0161272
816.890	0.0163185
816.968	0.0163098
817.046	0.0163954
817.124	0.0166061
817.203	0.0165047
817.281	0.0166824
817.359	0.0167310
817.437	0.0166742
817.515	0.0168019
817.593	0.0165316
817.671	0.0165588
817.749	0.0166653
817.828	0.0166103
817.906	0.0165980
817.984	0.0164698
818.062	0.0165839
818.140	0.0164750
818.218	0.0163676
818.296	0.0162576
818.374	0.0162596
818.453	0.0161777
818.531	0.0162367
818.609	0.0162467
818.687	0.0161053
818.765	0.0162231
818.843	0.0161948
818.921	0.0160639
818.999	0.0160975
819.078	0.0160331
819.156	0.0161523
819.234	0.0159013
819.312	0.0160249
819.390	0.0158053
819.468	0.0155939
819.546	0.0156435
819.624	0.0156541
819.703	0.0153330
819.781	0.0155430
819.859	0.0155377
819.937	0.0155219
820.015	0.0156373
820.093	0.0156776
820.171	0.0155728
820.249	0.0157459
820.328	0.0157224
820.406	0.0157344
820.484	0.0158907
820.562	0.0158552
820.640	0.0159832
820.718	0.0160072
820.796	0.0159786
820.874	0.0159768
820.953	0.0158250
821.031	0.0159724
821.109	0.0160844
821.187	0.0161292
821.265	0.0160426
821.343	0.0160522
821.421	0.0161907
821.499	0.0161115
821.578	0.0162087
821.656	0.0160548
821.734	0.0160123
821.812	0.0158967
821.890	0.0159498
821.968	0.0158521
822.046	0.0159350
822.124	0.0161383
822.203	0.0158733
822.281	0.0160245
822.359	0.0160274
822.437	0.0160854
822.515	0.0161964
822.593	0.0162737
822.671	0.0162932
822.749	0.0161655
822.828	0.0164761
822.906	0.0165298
822.984	0.0166191
823.062	0.0166183
823.140	0.0166498
823.218	0.0167593
823.296	0.0167603
823.374	0.0168277
823.453	0.0168450
823.531	0.0167712
823.609	0.0168458
823.687	0.0167057
823.765	0.0168508
823.843	0.0167319
823.921	0.0166623
823.999	0.0165850
824.078	0.0165673
824.156	0.0165582
824.234	0.0164680
824.312	0.0165097
824.390	0.0164303
824.468	0.0163599
824.546	0.0163818
824.624	0.0163306
824.703	0.0162617
824.781	0.0161031
824.859	0.0161180
824.937	0.0159506
825.015	0.0158471
825.093	0.0157994
825.171	0.0157943
825.249	0.0156480
825.328	0.0157442
825.406	0.0155992
825.484	0.0156180
825.562	0.0157465
825.640	0.0157522
825.718	0.0156936
825.796	0.0156602
825.874	0.0157235
825.953	0.0156516
826.031	0.0158720
826.109	0.0157993
826.187	0.0158970
826.265	0.0159617
826.343	0.0158109
826.421	0.0159313
826.499	0.0158399
826.578	0.0159207
826.656	0.0159666
826.734	0.0157666
826.812	0.0158070
826.890	0.0156775
826.968	0.0158347
827.046	0.0158469
827.124	0.0156853
827.203	0.0156165
827.281	0.0157296
827.359	0.0157336
827.437	0.0158260
827.515	0.0158065
827.593	0.0159179
827.671	0.0160332
827.749	0.0158518
827.828	0.0160923
827.906	0.0159686
827.984	0.0162489
828.062	0.0162621
828.140	0.0161488
828.218	0.0162845
828.296	0.0162913
828.374	0.0163300
828.453	0.0164545
828.531	0.0165900
828.609	0.0163604
828.687	0.0164326
828.765	0.0165096
828.843	0.0164218
828.921	0.0164946
828.999	0.0164960
829.078	0.0165761
829.156	0.0165649
829.234	0.0166415
829.312	0.0167771
829.390	0.0168603
829.468	0.0167453
829.546	0.0168677
829.624	0.0169382
829.703	0.0169478
829.781	0.0169382
829.859	0.0168900
829.937	0.0169011
830.015	0.0169828
830.093	0.0167092
830.171	0.0166630
830.249	0.0165795
830.328	0.0166833
830.406	0.0165080
830.484	0.0163162
830.562	0.0163353
830.640	0.0161055
830.718	0.0161678
830.796	0.0160442
830.874	0.0157693
830.953	0.0157931
831.031	0.0157938
831.109	0.0157340
831.187	0.0155280
831.265	0.0153587
831.343	0.0154548
831.421	0.0156001
831.499	0.0155225
831.578	0.0155218
831.656	0.0155035
831.734	0.0154529
831.812	0.0155336
831.890	0.0156573
831.968	0.0157970
832.046	0.0158689
832.124	0.0158383
832.203	0.0159534
832.281	0.0160794
832.359	0.0160233
832.437	0.0162269
832.515	0.0161445
832.593	0.0160667
832.671	0.0162725
832.749	0.0162710
832.828	0.0162639
832.906	0.0162102
832.984	0.0161600
833.062	0.0162457
833.140	0.0161864
833.218	0.0162836
833.296	0.0161274
833.374	0.0162906
833.453	0.0161559
833.531	0.0162960
833.609	0.0161073
833.687	0.0162755
833.765	0.0162928
833.843	0.0163743
833.921	0.0163374
833.999	0.0164754
834.078	0.0162694
834.156	0.0164175
834.234	0.0163604
834.312	0.0163995
834.390	0.0162839
834.468	0.0164436
834.546	0.0164213
834.624	0.0164048
834.703	0.0164910
834.781	0.0163219
834.859	0.0162846
834.937	0.0163691
835.015	0.0163329
835.093	0.0163664
835.171	0.0164844
835.249	0.0164591
835.328	0.0165550
835.406	0.0166479
835.484	0.0167956
835.562	0.0168945
835.640	0.0168829
835.718	0.0169097
835.796	0.0169901
835.874	0.0168909
835.953	0.0169192
836.031	0.0167221
836.109	0.0169051
836.187	0.0168409
836.265	0.0167564
836.343	0.0165252
836.421	0.0164674
836.499	0.0163626
836.578	0.0163747
836.656	0.0161893
836.734	0.0161302
836.812	0.0160632
836.890	0.0158412
836.968	0.0158212
837.046	0.0158404
837.124	0.0157722
837.203	0.0158315
837.281	0.0157253
837.359	0.0157261
837.437	0.0157871
837.515	0.0157251
837.593	0.0156203
837.671	0.0157629
837.749	0.0157612
837.828	0.0158150
837.906	0.0157329
837.984	0.0158820
838.062	0.0157763
838.140	0.0158410
838.218	0.0159136
838.296	0.0160333
838.374	0.0158900
838.453	0.0158553
838.531	0.0159012
838.609	0.0158608
838.687	0.0159454
838.765	0.0158175
838.843	0.0159451
838.921	0.0159359
838.999	0.0160581
839.078	0.0161228
839.156	0.0160675
839.234	0.0162018
839.312	0.0161388
839.390	0.0163026
839.468	0.0164980
839.546	0.0163680
839.624	0.0162991
839.703	0.0165283
839.781	0.0164667
839.859	0.0164402
839.937	0.0165041
840.015	0.0165698
840.093	0.0165555
840.171	0.0164497
840.249	0.0164083
840.328	0.0162710
840.406	0.0163487
840.484	0.0162428
840.562	0.0161531
840.640	0.0161230
840.718	0.0160200
840.796	0.0161423
840.874	0.0160311
840.953	0.0160890
841.031	0.0161350
841.109	0.0160567
841.187	0.0160571
841.265	0.0163252
841.343	0.0163003
841.421	0.0161835
841.499	0.0163148
841.578	0.0165420
841.656	0.0166152
841.734	0.0163783
841.812	0.0165134
841.890	0.0167117
841.968	0.0165034
842.046	0.0167435
842.124	0.0166032
842.203	0.0167893
842.281	0.0167769
842.359	0.0166526
842.437	0.0168066
842.515	0.0166040
842.593	0.0166795
842.671	0.0165777
842.749	0.0165176
842.828	0.0165853
842.906	0.0164968
842.984	0.0163638
843.062	0.0162416
843.140	0.0162506
843.218	0.0160406
843.296	0.0159579
843.374	0.0158739
843.453	0.0159470
843.531	0.0156160
843.609	0.0156628
843.687	0.0156204
843.765	0.0156687
843.843	0.0154527
843.921	0.0156203
843.999	0.0154687
844.078	0.0154491
844.156	0.0154252
844.234	0.0154644
844.312	0.0155342
844.390	0.0156028
844.468	0.0154784
844.546	0.0156696
844.624	0.0156667
844.703	0.0157986
844.781	0.0157181
844.859	0.0158462
844.937	0.0159965
845.015	0.0159586
845.093	0.0161872
845.171	0.0162174
845.249	0.0162472
845.328	0.0163082
845.406	0.0164058
845.484	0.0165219
845.562	0.0164949
845.640	0.0164510
845.718	0.0165163
845.796	0.0165332
845.874	0.0164993
845.953	0.0165054
846.031	0.0164297
846.109	0.0164201
846.187	0.0165679
846.265	0.0163204
846.343	0.0162906
846.421	0.0163636
846.499	0.0162267
846.578	0.0162258
846.656	0.0163870
846.734	0.0162485
846.812	0.0163718
846.890	0.0163436
846.968	0.0161208
847.046	0.0162723
847.124	0.0162731
847.203	0.0162359
847.281	0.0161272
847.359	0.0162252
847.437	0.0162663
847.515	0.0163924
847.593	0.0163147
847.671	0.0161042
847.749	0.0160907
847.828	0.0161818
847.906	0.0162158
847.984	0.0161795
848.062	0.0163288
848.140	0.0162343
848.218	0.0161498
848.296	0.0161584
848.374	0.0163930
848.453	0.0163458
848.531	0.0164117
848.609	0.0164889
848.687	0.0164838
848.765	0.0166046
848.843	0.0165931
848.921	0.0166021
848.999	0.0164145
849.078	0.0165128
849.156	0.0165851
849.234	0.0165053
849.312	0.0164645
849.390	0.0163334
849.468	0.0161678
849.546	0.0160601
849.624	0.0160271
849.703	0.0160191
849.781	0.0158605
849.859	0.0157608
849.937	0.0157718
850.015	0.0158358
850.093	0.0157607
850.171	0.0157306
850.249	0.0158010
850.328	0.0158110
850.406	0.0157877
850.484	0.0157546
850.562	0.0158248
850.640	0.0159337
850.718	0.0160583
850.796	0.0159370
850.874	0.0160114
850.953	0.0160063
851.031	0.0159220
851.109	0.0161066
851.187	0.0160189
851.265	0.0159899
851.343	0.0160761
851.421	0.0162088
851.499	0.0161816
851.578	0.0162553
851.656	0.0164497
851.734	0.0164201
851.812	0.0165039
851.890	0.0163819
851.968	0.0164557
852.046	0.0164450
852.124	0.0164802
852.203	0.0164484
852.281	0.0164040
852.359	0.0164198
852.437	0.0162490
852.515	0.0163477
852.593	0.0164587
852.671	0.0164163
852.749	0.0162151
852.828	0.0163541
852.906	0.0163888
852.984	0.0161937
853.062	0.0161937
853.140	0.0162418
853.218	0.0162650
853.296	0.0161015
853.374	0.0161902
853.453	0.0161382
853.531	0.0162307
853.609	0.0161362
853.687	0.0161641
853.765	0.0160242
853.843	0.0159981
853.921	0.0161238
853.999	0.0161185
854.078	0.0161306
854.156	0.0159967
854.234	0.0160090
854.312	0.0161670
854.390	0.0163087
854.468	0.0162446
854.546	0.0163210
854.624	0.0163722
854.703	0.0164317
854.781	0.0165084
854.859	0.0165393
854.937	0.0166219
855.015	0.0165807
855.093	0.0167104
855.171	0.0167074
855.249	0.0167044
855.328	0.0165566
855.406	0.0165363
855.484	0.0165208
855.562	0.0164938
855.640	0.0165363
855.718	0.0165227
855.796	0.0163266
855.874	0.0162116
855.953	0.0162372
856.031	0.0161665
856.109	0.0160537
856.187	0.0160920
856.265	0.0157991
856.343	0.0158218
856.421	0.0159703
856.499	0.0159150
856.578	0.0157803
856.656	0.0156921
856.734	0.0157617
856.812	0.0157936
856.890	0.0159193
856.968	0.0159430
857.046	0.0158497
857.124	0.0160317
857.203	0.0160000
857.281	0.0159576
857.359	0.0160874
857.437	0.0160645
857.515	0.0161726
857.593	0.0161607
857.671	0.0162968
857.749	0.0162665
857.828	0.0161708
857.906	0.0164229
857.984	0.0163010
858.062	0.0164158
858.140	0.0162655
858.218	0.0164243
858.296	0.0164143
858.374	0.0163207
858.453	0.0164061
858.531	0.0163728
858.609	0.0164431
858.687	0.0161948
858.765	0.0164713
858.843	0.0164448
858.921	0.0163643
858.999	0.0162804
859.078	0.0162659
859.156	0.0162289
859.234	0.0162258
859.312	0.0163241
859.390	0.0163167
859.468	0.0162306
859.546	0.0161984
859.624	0.0161494
859.703	0.0161813
859.781	0.0162221
859.859	0.0161303
859.937	0.0160809
860.015	0.0160541
860.093	0.0160667
860.171	0.0160693
860.249	0.0159565
860.328	0.0158926
860.406	0.0159264
860.484	0.0159825
860.562	0.0159369
860.640	0.0158769
860.718	0.0159370
860.796	0.0159617
860.874	0.0162255
860.953	0.0161811
861.031	0.0161273
861.109	0.0160986
861.187	0.0162924
861.265	0.0163104
861.343	0.0163574
861.421	0.0164011
861.499	0.0164424
861.578	0.0164743
861.656	0.0164143
861.734	0.0163107
861.812	0.0164648
861.890	0.0164286
861.968	0.0163178
862.046	0.0165006
862.124	0.0164460
862.203	0.0164297
862.281	0.0163412
862.359	0.0162650
862.437	0.0163297
862.515	0.0163303
862.593	0.0161603
862.671	0.0160993
862.749	0.0161724
862.828	0.0160399
862.906	0.0159726
862.984	0.0159357
863.062	0.0158088
863.140	0.0157478
863.218	0.0157057
863.296	0.0157116
863.374	0.0157619
863.453	0.0156045
863.531	0.0157467
863.609	0.0157476
863.687	0.0158027
863.765	0.0159280
863.843	0.0157510
863.921	0.0159301
863.999	0.0160619
864.078	0.0161288
864.156	0.0160968
864.234	0.0160522
864.312	0.0160938
864.390	0.0162482
864.468	0.0161730
864.546	0.0163612
864.624	0.0161866
864.703	0.0163071
864.781	0.0163042
864.859	0.0163707
864.937	0.0163869
865.015	0.0162218
865.093	0.0162068
865.171	0.0162988
865.249	0.0162599
865.328	0.0161390
865.406	0.0160947
865.484	0.0160538
865.562	0.0158818
865.640	0.0160637
865.718	0.0160952
865.796	0.0160187
865.874	0.0160337
865.953	0.0161828
866.031	0.0162092
866.109	0.0159930
866.187	0.0160944
866.265	0.0161494
866.343	0.0161307
866.421	0.0161790
866.499	0.0161172
866.578	0.0160999
866.656	0.0162010
866.734	0.0162064
866.812	0.0162807
866.890	0.0164337
866.968	0.0164529
867.046	0.0163633
867.124	0.0165666
867.203	0.0163719
867.281	0.0164582
867.359	0.0163313
867.437	0.0164214
867.515	0.0162838
867.593	0.0163902
867.671	0.0164010
867.749	0.0163023
867.828	0.0161111
867.906	0.0163208
867.984	0.0161713
868.062	0.0162366
868.140	0.0162301
868.218	0.0162479
868.296	0.0161861
868.374	0.0162085
868.453	0.0161605
868.531	0.0160420
868.609	0.0160521
868.687	0.0159615
868.765	0.0159688
868.843	0.0160310
868.921	0.0160065
868.999	0.0160069
869.078	0.0159034
869.156	0.0158537
869.234	0.0158861
869.312	0.0159424
869.390	0.0157287
869.468	0.0158073
869.546	0.0158011
869.624	0.0156894
869.703	0.0157854
869.781	0.0157862
869.859	0.0158661
869.937	0.0155927
870.015	0.0157684
870.093	0.0157695
870.171	0.0158392
870.249	0.0160487
870.328	0.0160221
870.406	0.0159735
870.484	0.0159625
870.562	0.0161530
870.640	0.0161495
870.718	0.0162828
870.796	0.0163347
870.874	0.0163300
870.953	0.0162907
871.031	0.0164007
871.109	0.0162910
871.187	0.0163913
871.265	0.0164004
871.343	0.0163344
871.421	0.0164933
871.499	0.0164667
871.578	0.0163378
871.656	0.0165301
871.734	0.0164742
871.812	0.0165417
871.890	0.0164172
871.968	0.0163953
872.046	0.0162151
872.124	0.0163306
872.203	0.0162064
872.281	0.0161494
872.359	0.0161849
872.437	0.0161395
872.515	0.0161993
872.593	0.0160584
872.671	0.0159757
872.749	0.0159489
872.828	0.0158784
872.906	0.0158723
872.984	0.0160146
873.062	0.0159709
873.140	0.0159397
873.218	0.0159888
873.296	0.0158890
873.374	0.0159457
873.453	0.0160223
873.531	0.0161544
873.609	0.0160571
873.687	0.0162374
873.765	0.0162398
873.843	0.0161917
873.921	0.0162530
873.999	0.0163733
874.078	0.0163432
874.156	0.0164502
874.234	0.0165045
874.312	0.0165620
874.390	0.0165885
874.468	0.0163864
874.546	0.0164781
874.624	0.0163763
874.703	0.0163440
874.781	0.0163734
874.859	0.0164396
874.937	0.0164391
875.015	0.0165218
875.093	0.0164989
875.171	0.0164356
875.249	0.0164225
875.328	0.0164674
875.406	0.0163564
875.484	0.0164162
875.562	0.0162167
875.640	0.0161174
875.718	0.0161509
875.796	0.0160312
875.874	0.0160207
875.953	0.0159419
876.031	0.0157722
876.109	0.0157489
876.187	0.0156497
876.265	0.0157594
876.343	0.0157140
876.421	0.0155202
876.499	0.0156316
876.578	0.0156736
876.656	0.0157142
876.734	0.0156799
876.812	0.0158111
876.890	0.0158600
876.968	0.0159493
877.046	0.0160605
877.124	0.0160978
877.203	0.0162765
877.281	0.0161720
877.359	0.0162963
877.437	0.0165154
877.515	0.0163380
877.593	0.0164104
877.671	0.0165135
877.749	0.0165776
877.828	0.0165914
877.906	0.0165608
877.984	0.0166496
878.062	0.0165837
878.140	0.0165382
878.218	0.0166082
878.296	0.0166286
878.374	0.0165933
878.453	0.0164268
878.531	0.0164886
878.609	0.0165245
878.687	0.0163982
878.765	0.0163955
878.843	0.0162977
878.921	0.0162176
878.999	0.0163296
879.078	0.0163692
879.156	0.0162173
879.234	0.0163471
879.312	0.0161172
879.390	0.0160579
879.468	0.0159480
879.546	0.0161372
879.624	0.0161617
879.703	0.0161066
879.781	0.0159088
879.859	0.0159952
879.937	0.0159642
880.015	0.0159490
880.093	0.0159585
880.171	0.0160007
880.249	0.0160936
880.328	0.0159556
880.406	0.0160702
880.484	0.0162691
880.562	0.0161462
880.640	0.0162737
880.718	0.0163271
880.796	0.0163034
880.874	0.0163207
880.953	0.0162867
881.031	0.0163961
881.109	0.0164458
881.187	0.0163320
881.265	0.0166180
881.343	0.0165196
881.421	0.0165421
881.499	0.0163988
881.578	0.0165250
881.656	0.0165849
881.734	0.0165974
881.812	0.0164774
881.890	0.0164336
881.968	0.0165330
882.046	0.0164989
882.124	0.0163849
882.203	0.0162879
882.281	0.0163664
882.359	0.0162762
882.437	0.0161954
882.515	0.0160861
882.593	0.0161149
882.671	0.0160435
882.749	0.0159955
882.828	0.0160239
882.906	0.0159628
882.984	0.0160422
883.062	0.0160775
883.140	0.0160734
883.218	0.0160640
883.296	0.0160151
883.374	0.0160552
883.453	0.0160660
883.531	0.0161804
883.609	0.0161813
883.687	0.0160419
883.765	0.0159155
883.843	0.0160024
883.921	0.0162033
883.999	0.0160802
884.078	0.0160674
884.156	0.0162359
884.234	0.0162328
884.312	0.0161337
884.390	0.0161063
884.468	0.0160874
884.546	0.0162474
884.624	0.0160031
884.703	0.0161093
884.781	0.0160452
884.859	0.0159766
884.937	0.0161914
885.015	0.0160699
885.093	0.0161383
885.171	0.0162295
885.249	0.0162038
885.328	0.0162692
885.406	0.0162643
885.484	0.0162436
885.562	0.0162844
885.640	0.0163540
885.718	0.0161813
885.796	0.0162167
885.874	0.0161520
885.953	0.0162914
886.031	0.0161467
886.109	0.0161065
886.187	0.0160621
886.265	0.0160777
886.343	0.0159006
886.421	0.0159580
886.499	0.0158815
886.578	0.0157943
886.656	0.0159370
886.734	0.0158836
886.812	0.0158399
886.890	0.0158563
886.968	0.0158620
887.046	0.0159725
887.124	0.0158443
887.203	0.0160636
887.281	0.0160831
887.359	0.0161102
887.437	0.0160959
887.515	0.0164111
887.593	0.0164423
887.671	0.0162537
887.749	0.0162187
887.828	0.0162380
887.906	0.0164627
887.984	0.0164336
888.062	0.0163919
888.140	0.0164198
888.218	0.0163515
888.296	0.0162996
888.374	0.0162128
888.453	0.0160767
888.531	0.0160420
888.609	0.0161289
888.687	0.0162819
888.765	0.0160270
888.843	0.0161071
888.921	0.0160899
888.999	0.0159930
889.078	0.0160593
889.156	0.0159988
889.234	0.0160726
889.312	0.0160197
889.390	0.0160051
889.468	0.0161277
889.546	0.0161312
889.624	0.0162372
889.703	0.0160378
889.781	0.0160693
889.859	0.0159760
889.937	0.0160519
890.015	0.0160210
890.093	0.0161480
890.171	0.0161558
890.249	0.0162500
890.328	0.0161205
890.406	0.0161378
890.484	0.0161932
890.562	0.0161134
890.640	0.0161397
890.718	0.0161395
890.796	0.0163130
890.874	0.0162685
890.953	0.0163372
891.031	0.0161230
891.109	0.0162783
891.187	0.0162398
891.265	0.0162498
891.343	0.0162869
891.421	0.0162392
891.499	0.0162680
891.578	0.0163689
891.656	0.0163522
891.734	0.0162394
891.812	0.0163229
891.890	0.0162983
891.968	0.0162028
892.046	0.0162939
892.124	0.0162976
892.203	0.0161778
892.281	0.0160747
892.359	0.0160172
892.437	0.0160693
892.515	0.0160442
892.593	0.0159660
892.671	0.0160535
892.749	0.0160300
892.828	0.0158333
892.906	0.0159601
892.984	0.0158009
893.062	0.0158708
893.140	0.0158672
893.218	0.0158944
893.296	0.0159241
893.374	0.0159226
893.453	0.0159630
893.531	0.0160436
893.609	0.0160876
893.687	0.0161813
893.765	0.0161436
893.843	0.0161450
893.921	0.0162704
893.999	0.0162358
894.078	0.0164423
894.156	0.0165675
894.234	0.0163948
894.312	0.0164532
894.390	0.0164140
894.468	0.0163968
894.546	0.0165124
894.624	0.0163610
894.703	0.0162209
894.781	0.0163585
894.859	0.0163819
894.937	0.0163353
895.015	0.0161345
895.093	0.0162069
895.171	0.0163979
895.249	0.0162350
895.328	0.0161713
895.406	0.0161844
895.484	0.0161929
895.562	0.0160570
895.640	0.0162340
895.718	0.0162340
895.796	0.0161474
895.874	0.0161500
895.953	0.0161884
896.031	0.0162341
896.109	0.0162082
896.187	0.0160911
896.265	0.0160349
896.343	0.0160918
896.421	0.0161281
896.499	0.0162177
896.578	0.0160574
896.656	0.0160854
896.734	0.0161073
896.812	0.0161415
896.890	0.0161153
896.968	0.0161244
897.046	0.0161750
897.124	0.0161590
897.203	0.0161984
897.281	0.0163567
897.359	0.0160263
897.437	0.0163307
897.515	0.0161747
897.593	0.0161658
897.671	0.0161996
897.749	0.0161118
897.828	0.0161724
897.906	0.0162842
897.984	0.0161732
898.062	0.0162161
898.140	0.0160663
898.218	0.0161207
898.296	0.0162121
898.374	0.0160788
898.453	0.0160636
898.531	0.0161101
898.609	0.0161402
898.687	0.0161985
898.765	0.0161805
898.843	0.0160255
898.921	0.0161492
898.999	0.0161817
899.078	0.0162595
899.156	0.0159604
899.234	0.0160603
899.312	0.0161260
899.390	0.0161016
899.468	0.0161089
899.546	0.0159925
899.624	0.0160769
899.703	0.0161100
899.781	0.0159638
899.859	0.0162595
899.937	0.0161329
900.015	0.0160749
900.093	0.0162851
900.171	0.0162337
900.249	0.0164091
900.328	0.0164040
900.406	0.0164617
900.484	0.0163050
900.562	0.0162713
900.640	0.0165922
900.718	0.0164516
900.796	0.0164774
900.874	0.0165027
900.953	0.0164358
901.031	0.0164359
901.109	0.0165445
901.187	0.0164880
901.265	0.0164161
901.343	0.0163712
901.421	0.0163383
901.499	0.0164879
901.578	0.0163538
901.656	0.0162947
901.734	0.0162939
901.812	0.0163271
901.890	0.0162554
901.968	0.0163930
902.046	0.0163258
902.124	0.0162751
902.203	0.0161896
902.281	0.0161512
902.359	0.0161647
902.437	0.0161071
902.515	0.0161256
902.593	0.0160870
902.671	0.0160767
902.749	0.0160899
902.828	0.0159998
902.906	0.0159779
902.984	0.0160949
903.062	0.0161526
903.140	0.0158601
903.218	0.0160546
903.296	0.0160682
903.374	0.0160664
903.453	0.0161982
903.531	0.0161483
903.609	0.0162041
903.687	0.0162165
903.765	0.0162629
903.843	0.0163239
903.921	0.0162169
903.999	0.0162708
904.078	0.0161967
904.156	0.0162758
904.234	0.0162009
904.312	0.0162903
904.390	0.0163222
904.468	0.0162827
904.546	0.0162502
904.624	0.0162521
904.703	0.0161516
904.781	0.0162022
904.859	0.0163377
904.937	0.0162154
905.015	0.0161618
905.093	0.0161422
905.171	0.0160838
905.249	0.0161700
905.328	0.0161451
905.406	0.0160921
905.484	0.0162007
905.562	0.0160457
905.640	0.0162558
905.718	0.0162216
905.796	0.0161821
905.874	0.0161400
905.953	0.0161053
906.031	0.0162639
906.109	0.0161131
906.187	0.0162031
906.265	0.0162466
906.343	0.0161681
906.421	0.0163196
906.499	0.0164319
906.578	0.0163171
906.656	0.0163689
906.734	0.0163438
906.812	0.0162819
906.890	0.0163536
906.968	0.0164520
907.046	0.0162597
907.124	0.0163374
907.203	0.0164091
907.281	0.0162923
907.359	0.0163003
907.437	0.0162788
907.515	0.0163726
907.593	0.0164284
907.671	0.0162996
907.749	0.0164658
907.828	0.0163184
907.906	0.0163713
907.984	0.0160646
908.062	0.0162527
908.140	0.0163388
908.218	0.0161755
908.296	0.0162532
908.374	0.0161810
908.453	0.0162196
908.531	0.0161977
908.609	0.0161954
908.687	0.0160569
908.765	0.0162372
908.843	0.0162661
908.921	0.0163036
908.999	0.0162440
909.078	0.0161127
909.156	0.0159877
909.234	0.0160818
909.312	0.0161266
909.390	0.0160351
909.468	0.0159666
909.546	0.0159600
909.624	0.0161194
909.703	0.0161827
909.781	0.0162888
909.859	0.0161417
909.937	0.0161139
910.015	0.0161758
910.093	0.0163132
910.171	0.0162286
910.249	0.0162791
910.328	0.0161771
910.406	0.0161877
910.484	0.0162024
910.562	0.0163270
910.640	0.0162546
910.718	0.0161990
910.796	0.0162038
910.874	0.0162508
910.953	0.0161810
911.031	0.0160812
911.109	0.0161917
911.187	0.0162107
911.265	0.0161826
911.343	0.0161548
911.421	0.0161977
911.499	0.0163309
911.578	0.0160670
911.656	0.0162327
911.734	0.0162275
911.812	0.0161958
911.890	0.0163688
911.968	0.0163130
912.046	0.0160506
912.124	0.0161273
912.203	0.0160575
912.281	0.0162514
912.359	0.0163068
912.437	0.0162798
912.515	0.0161629
912.593	0.0161833
912.671	0.0161885
912.749	0.0161348
912.828	0.0162137
912.906	0.0161849
912.984	0.0163631
913.062	0.0163232
913.140	0.0163438
913.218	0.0163628
913.296	0.0164076
913.374	0.0163683
913.453	0.0164406
913.531	0.0163931
913.609	0.0164427
913.687	0.0163760
913.765	0.0163293
913.843	0.0164568
913.921	0.0163132
913.999	0.0163483
914.078	0.0164485
914.156	0.0164163
914.234	0.0164597
914.312	0.0164500
914.390	0.0163893
914.468	0.0164532
914.546	0.0165279
914.624	0.0166013
914.703	0.0165183
914.781	0.0164462
914.859	0.0164538
914.937	0.0165638
915.015	0.0165683
915.093	0.0162943
915.171	0.0163474
915.249	0.0163058
915.328	0.0163197
915.406	0.0162701
915.484	0.0161425
915.562	0.0160333
915.640	0.0162100
915.718	0.0162407
915.796	0.0160823
915.874	0.0160854
915.953	0.0159315
916.031	0.0159934
916.109	0.0159923
916.187	0.0159092
916.265	0.0159497
916.343	0.0160822
916.421	0.0159184
916.499	0.0157893
916.578	0.0159367
916.656	0.0158449
916.734	0.0158205
916.812	0.0159041
916.890	0.0159082
916.968	0.0159811
917.046	0.0158721
917.124	0.0158582
917.203	0.0158670
917.281	0.0158890
917.359	0.0158393
917.437	0.0159890
917.515	0.0158156
917.593	0.0159574
917.671	0.0161315
917.749	0.0161555
917.828	0.0160785
917.906	0.0160279
917.984	0.0159522
918.062	0.0162045
918.140	0.0161081
918.218	0.0162321
918.296	0.0162271
918.374	0.0162225
918.453	0.0161404
918.531	0.0163332
918.609	0.0164264
918.687	0.0164169
918.765	0.0163675
918.843	0.0164275
918.921	0.0163806
918.999	0.0165054
919.078	0.0166245
919.156	0.0164670
919.234	0.0166714
919.312	0.0166063
919.390	0.0165650
919.468	0.0166526
919.546	0.0166267
919.624	0.0166208
919.703	0.0165553
919.781	0.0166587
919.859	0.0166018
919.937	0.0166240
