06/10/2022	18:48:45	Ver.	4.1	UNKNOWN
Optical Delay	600.015094	Delta X		0.078125	Sweeps	1	Scan Rate	0/0
Coordinates	Axis 1	NaN	Axis 2	NaN	Axis 3	NaN	Axis 4	NaN	Axis 5	NaN	Axis 6	0.000000
TX Power	0.000000	RX Power	0.000000

600.015	0.0162984
600.093	0.0163219
600.171	0.0162752
600.249	0.0161886
600.328	0.0161526
600.406	0.0162205
600.484	0.0162421
600.562	0.0161312
600.640	0.0163269
600.718	0.0163439
600.796	0.0161791
600.874	0.0160769
600.953	0.0160643
601.031	0.0162696
601.109	0.0162115
601.187	0.0163210
601.265	0.0162939
601.343	0.0162942
601.421	0.0162449
601.499	0.0161836
601.578	0.0162933
601.656	0.0162227
601.734	0.0162203
601.812	0.0161897
601.890	0.0162167
601.968	0.0162528
602.046	0.0161485
602.124	0.0161617
602.203	0.0163638
602.281	0.0163316
602.359	0.0161275
602.437	0.0161254
602.515	0.0162753
602.593	0.0162099
602.671	0.0162506
602.749	0.0162510
602.828	0.0161502
602.906	0.0162377
602.984	0.0163014
603.062	0.0162718
603.140	0.0162448
603.218	0.0163344
603.296	0.0163536
603.374	0.0161971
603.453	0.0160984
603.531	0.0162425
603.609	0.0162359
603.687	0.0162507
603.765	0.0162836
603.843	0.0161799
603.921	0.0162996
603.999	0.0162439
604.078	0.0162236
604.156	0.0161327
604.234	0.0163670
604.312	0.0162711
604.390	0.0161486
604.468	0.0162588
604.546	0.0161637
604.624	0.0162272
604.703	0.0162437
604.781	0.0162112
604.859	0.0163012
604.937	0.0163042
605.015	0.0161360
605.093	0.0161946
605.171	0.0162180
605.249	0.0162289
605.328	0.0162430
605.406	0.0162512
605.484	0.0162157
605.562	0.0161692
605.640	0.0161401
605.718	0.0161923
605.796	0.0162891
605.874	0.0161013
605.953	0.0162360
606.031	0.0163306
606.109	0.0161726
606.187	0.0162244
606.265	0.0162273
606.343	0.0162846
606.421	0.0160841
606.499	0.0161815
606.578	0.0161555
606.656	0.0162399
606.734	0.0160871
606.812	0.0161650
606.890	0.0161987
606.968	0.0161458
607.046	0.0162978
607.124	0.0163214
607.203	0.0162854
607.281	0.0163670
607.359	0.0163074
607.437	0.0162166
607.515	0.0162118
607.593	0.0163063
607.671	0.0162727
607.749	0.0163205
607.828	0.0161705
607.906	0.0163999
607.984	0.0163960
608.062	0.0163227
608.140	0.0162300
608.218	0.0162963
608.296	0.0163028
608.374	0.0162629
608.453	0.0162892
608.531	0.0162910
608.609	0.0162980
608.687	0.0163640
608.765	0.0163528
608.843	0.0163216
608.921	0.0163849
608.999	0.0163004
609.078	0.0163450
609.156	0.0163107
609.234	0.0163334
609.312	0.0164461
609.390	0.0162746
609.468	0.0162748
609.546	0.0163294
609.624	0.0161953
609.703	0.0162630
609.781	0.0162479
609.859	0.0162064
609.937	0.0162832
610.015	0.0163609
610.093	0.0162849
610.171	0.0162879
610.249	0.0163372
610.328	0.0162666
610.406	0.0162998
610.484	0.0162982
610.562	0.0161695
610.640	0.0164098
610.718	0.0162925
610.796	0.0163109
610.874	0.0162580
610.953	0.0163419
611.031	0.0165215
611.109	0.0164822
611.187	0.0163040
611.265	0.0162434
611.343	0.0162222
611.421	0.0163531
611.499	0.0162939
611.578	0.0162779
611.656	0.0163681
611.734	0.0162251
611.812	0.0163195
611.890	0.0163000
611.968	0.0163193
612.046	0.0163456
612.124	0.0161875
612.203	0.0162626
612.281	0.0163551
612.359	0.0162220
612.437	0.0163173
612.515	0.0162978
612.593	0.0162958
612.671	0.0163094
612.749	0.0163062
612.828	0.0163367
612.906	0.0162827
612.984	0.0161459
613.062	0.0162925
613.140	0.0163118
613.218	0.0162991
613.296	0.0162603
613.374	0.0162637
613.453	0.0162537
613.531	0.0163747
613.609	0.0163801
613.687	0.0162325
613.765	0.0161430
613.843	0.0162374
613.921	0.0161472
613.999	0.0161635
614.078	0.0162446
614.156	0.0163070
614.234	0.0163528
614.312	0.0162328
614.390	0.0163438
614.468	0.0163987
614.546	0.0163216
614.624	0.0162069
614.703	0.0162267
614.781	0.0163884
614.859	0.0164352
614.937	0.0162486
615.015	0.0162934
615.093	0.0163519
615.171	0.0164536
615.249	0.0163011
615.328	0.0164165
615.406	0.0162913
615.484	0.0163301
615.562	0.0164557
615.640	0.0163915
615.718	0.0163657
615.796	0.0162928
615.874	0.0162782
615.953	0.0162864
616.031	0.0164070
616.109	0.0163771
616.187	0.0164715
616.265	0.0162928
616.343	0.0164030
616.421	0.0163812
616.499	0.0164091
616.578	0.0164630
616.656	0.0162445
616.734	0.0162640
616.812	0.0163875
616.890	0.0163766
616.968	0.0163176
617.046	0.0163625
617.124	0.0164511
617.203	0.0162775
617.281	0.0162709
617.359	0.0162762
617.437	0.0162836
617.515	0.0162210
617.593	0.0164710
617.671	0.0163731
617.749	0.0162888
617.828	0.0164243
617.906	0.0163686
617.984	0.0162991
618.062	0.0164475
618.140	0.0164367
618.218	0.0162370
618.296	0.0163286
618.374	0.0163763
618.453	0.0162759
618.531	0.0162357
618.609	0.0162512
618.687	0.0162421
618.765	0.0162646
618.843	0.0163689
618.921	0.0163360
618.999	0.0164126
619.078	0.0162783
619.156	0.0163415
619.234	0.0163580
619.312	0.0164356
619.390	0.0162294
619.468	0.0162125
619.546	0.0162840
619.624	0.0164103
619.703	0.0162896
619.781	0.0163844
619.859	0.0163108
619.937	0.0162766
620.015	0.0163525
620.093	0.0162538
620.171	0.0162476
620.249	0.0163918
620.328	0.0162867
620.406	0.0162115
620.484	0.0162532
620.562	0.0161590
620.640	0.0162473
620.718	0.0163795
620.796	0.0162199
620.874	0.0163117
620.953	0.0161543
621.031	0.0161598
621.109	0.0162875
621.187	0.0164504
621.265	0.0162605
621.343	0.0162004
621.421	0.0161771
621.499	0.0162421
621.578	0.0162415
621.656	0.0162737
621.734	0.0162524
621.812	0.0162122
621.890	0.0161392
621.968	0.0162686
622.046	0.0163496
622.124	0.0164368
622.203	0.0162054
622.281	0.0162700
622.359	0.0162509
622.437	0.0161881
622.515	0.0163006
622.593	0.0162154
622.671	0.0162445
622.749	0.0163160
622.828	0.0161739
622.906	0.0163123
622.984	0.0161755
623.062	0.0162498
623.140	0.0163234
623.218	0.0163675
623.296	0.0163165
623.374	0.0161983
623.453	0.0162285
623.531	0.0162927
623.609	0.0163058
623.687	0.0162567
623.765	0.0161457
623.843	0.0161549
623.921	0.0162565
623.999	0.0161407
624.078	0.0161301
624.156	0.0160480
624.234	0.0162551
624.312	0.0163149
624.390	0.0163196
624.468	0.0162864
624.546	0.0162162
624.624	0.0163212
624.703	0.0162794
624.781	0.0162905
624.859	0.0162296
624.937	0.0161795
625.015	0.0163277
625.093	0.0162197
625.171	0.0162115
625.249	0.0161777
625.328	0.0161185
625.406	0.0162324
625.484	0.0162609
625.562	0.0161646
625.640	0.0162000
625.718	0.0162069
625.796	0.0162719
625.874	0.0161572
625.953	0.0161357
626.031	0.0162373
626.109	0.0162907
626.187	0.0161816
626.265	0.0161121
626.343	0.0162125
626.421	0.0162491
626.499	0.0161499
626.578	0.0162264
626.656	0.0159542
626.734	0.0160546
626.812	0.0163196
626.890	0.0162898
626.968	0.0161180
627.046	0.0161325
627.124	0.0162583
627.203	0.0160969
627.281	0.0162475
627.359	0.0161948
627.437	0.0162132
627.515	0.0160983
627.593	0.0162099
627.671	0.0162168
627.749	0.0162883
627.828	0.0162675
627.906	0.0163505
627.984	0.0162862
628.062	0.0162253
628.140	0.0162321
628.218	0.0162669
628.296	0.0163213
628.374	0.0162091
628.453	0.0162130
628.531	0.0162190
628.609	0.0161861
628.687	0.0163029
628.765	0.0163297
628.843	0.0162771
628.921	0.0163348
628.999	0.0162742
629.078	0.0160999
629.156	0.0162495
629.234	0.0163734
629.312	0.0162576
629.390	0.0162293
629.468	0.0163557
629.546	0.0162358
629.624	0.0162806
629.703	0.0162617
629.781	0.0164063
629.859	0.0162251
629.937	0.0161407
630.015	0.0162684
630.093	0.0162022
630.171	0.0163231
630.249	0.0162808
630.328	0.0163497
630.406	0.0163284
630.484	0.0163007
630.562	0.0162291
630.640	0.0164220
630.718	0.0162983
630.796	0.0163144
630.874	0.0162511
630.953	0.0163535
631.031	0.0163676
631.109	0.0163001
631.187	0.0162213
631.265	0.0162600
631.343	0.0164328
631.421	0.0163425
631.499	0.0162727
631.578	0.0162209
631.656	0.0163840
631.734	0.0164013
631.812	0.0161031
631.890	0.0163289
631.968	0.0163767
632.046	0.0163151
632.124	0.0162318
632.203	0.0163203
632.281	0.0162966
632.359	0.0162920
632.437	0.0162482
632.515	0.0163556
632.593	0.0162103
632.671	0.0162910
632.749	0.0163814
632.828	0.0162527
632.906	0.0162203
632.984	0.0163382
633.062	0.0161579
633.140	0.0162338
633.218	0.0163333
633.296	0.0162752
633.374	0.0161821
633.453	0.0161959
633.531	0.0161472
633.609	0.0161597
633.687	0.0163691
633.765	0.0163161
633.843	0.0164005
633.921	0.0162597
633.999	0.0164194
634.078	0.0163425
634.156	0.0162748
634.234	0.0163000
634.312	0.0162682
634.390	0.0163676
634.468	0.0163207
634.546	0.0162946
634.624	0.0163319
634.703	0.0162653
634.781	0.0163477
634.859	0.0163290
634.937	0.0163142
635.015	0.0162803
635.093	0.0162100
635.171	0.0163215
635.249	0.0163317
635.328	0.0162569
635.406	0.0162981
635.484	0.0162742
635.562	0.0162614
635.640	0.0163077
635.718	0.0162923
635.796	0.0162653
635.874	0.0164008
635.953	0.0163125
636.031	0.0162768
636.109	0.0162743
636.187	0.0163002
636.265	0.0162947
636.343	0.0164411
636.421	0.0163133
636.499	0.0163781
636.578	0.0164267
636.656	0.0164974
636.734	0.0163213
636.812	0.0162122
636.890	0.0162875
636.968	0.0163815
637.046	0.0163381
637.124	0.0163085
637.203	0.0161643
637.281	0.0162911
637.359	0.0163063
637.437	0.0162673
637.515	0.0163538
637.593	0.0163218
637.671	0.0163783
637.749	0.0163023
637.828	0.0162959
637.906	0.0162572
637.984	0.0163066
638.062	0.0164117
638.140	0.0163518
638.218	0.0162465
638.296	0.0162381
638.374	0.0163307
638.453	0.0163895
638.531	0.0162904
638.609	0.0164234
638.687	0.0163125
638.765	0.0163532
638.843	0.0164290
638.921	0.0163693
638.999	0.0163386
639.078	0.0163313
639.156	0.0163130
639.234	0.0162701
639.312	0.0162429
639.390	0.0162623
639.468	0.0164075
639.546	0.0163739
639.624	0.0163343
639.703	0.0163287
639.781	0.0163970
639.859	0.0163770
639.937	0.0163689
640.015	0.0162601
640.093	0.0162729
640.171	0.0163438
640.249	0.0163427
640.328	0.0164014
640.406	0.0162870
640.484	0.0162288
640.562	0.0162936
640.640	0.0162761
640.718	0.0162646
640.796	0.0163548
640.874	0.0163902
640.953	0.0163697
641.031	0.0163425
641.109	0.0162464
641.187	0.0162471
641.265	0.0162762
641.343	0.0162550
641.421	0.0162829
641.499	0.0161393
641.578	0.0161082
641.656	0.0161494
641.734	0.0162094
641.812	0.0162748
641.890	0.0161894
641.968	0.0162132
642.046	0.0162042
642.124	0.0162830
642.203	0.0162305
642.281	0.0161123
642.359	0.0161206
642.437	0.0161797
642.515	0.0162142
642.593	0.0163354
642.671	0.0163259
642.749	0.0161867
642.828	0.0162383
642.906	0.0161727
642.984	0.0162945
643.062	0.0163381
643.140	0.0163322
643.218	0.0161935
643.296	0.0161927
643.374	0.0162686
643.453	0.0162032
643.531	0.0163249
643.609	0.0163073
643.687	0.0163049
643.765	0.0163014
643.843	0.0162797
643.921	0.0163067
643.999	0.0163225
644.078	0.0162233
644.156	0.0163274
644.234	0.0163174
644.312	0.0163639
644.390	0.0161547
644.468	0.0164268
644.546	0.0163441
644.624	0.0163400
644.703	0.0163402
644.781	0.0162629
644.859	0.0162856
644.937	0.0163165
645.015	0.0163579
645.093	0.0162682
645.171	0.0162564
645.249	0.0162121
645.328	0.0163043
645.406	0.0163365
645.484	0.0163113
645.562	0.0162675
645.640	0.0162165
645.718	0.0162229
645.796	0.0162731
645.874	0.0162780
645.953	0.0162516
646.031	0.0162711
646.109	0.0162840
646.187	0.0162761
646.265	0.0162036
646.343	0.0162408
646.421	0.0164393
646.499	0.0164021
646.578	0.0162421
646.656	0.0162527
646.734	0.0163194
646.812	0.0162532
646.890	0.0162614
646.968	0.0162244
647.046	0.0161956
647.124	0.0162646
647.203	0.0162711
647.281	0.0161507
647.359	0.0164777
647.437	0.0163172
647.515	0.0162696
647.593	0.0163181
647.671	0.0161843
647.749	0.0162238
647.828	0.0162089
647.906	0.0162721
647.984	0.0164474
648.062	0.0162000
648.140	0.0161991
648.218	0.0161892
648.296	0.0162582
648.374	0.0163515
648.453	0.0162380
648.531	0.0163241
648.609	0.0162712
648.687	0.0162077
648.765	0.0162271
648.843	0.0163889
648.921	0.0162785
648.999	0.0164944
649.078	0.0163331
649.156	0.0162537
649.234	0.0162492
649.312	0.0163528
649.390	0.0162701
649.468	0.0165047
649.546	0.0163490
649.624	0.0163306
649.703	0.0163243
649.781	0.0164345
649.859	0.0163324
649.937	0.0163005
650.015	0.0162176
650.093	0.0162160
650.171	0.0164169
650.249	0.0165083
650.328	0.0162861
650.406	0.0163028
650.484	0.0163526
650.562	0.0163548
650.640	0.0163667
650.718	0.0163744
650.796	0.0164865
650.874	0.0164237
650.953	0.0163752
651.031	0.0164158
651.109	0.0162775
651.187	0.0163950
651.265	0.0163212
651.343	0.0162941
651.421	0.0163703
651.499	0.0165263
651.578	0.0163950
651.656	0.0162849
651.734	0.0163570
651.812	0.0162768
651.890	0.0162909
651.968	0.0164468
652.046	0.0162843
652.124	0.0162981
652.203	0.0163110
652.281	0.0162923
652.359	0.0162438
652.437	0.0162345
652.515	0.0163446
652.593	0.0162799
652.671	0.0163848
652.749	0.0163332
652.828	0.0162456
652.906	0.0163398
652.984	0.0162637
653.062	0.0163529
653.140	0.0161915
653.218	0.0161697
653.296	0.0162818
653.374	0.0162798
653.453	0.0162270
653.531	0.0162083
653.609	0.0162147
653.687	0.0163982
653.765	0.0162421
653.843	0.0161291
653.921	0.0162064
653.999	0.0162836
654.078	0.0162701
654.156	0.0163614
654.234	0.0162553
654.312	0.0162122
654.390	0.0165498
654.468	0.0163828
654.546	0.0162720
654.624	0.0162854
654.703	0.0162981
654.781	0.0162965
654.859	0.0162691
654.937	0.0164603
655.015	0.0163277
655.093	0.0163259
655.171	0.0163279
655.249	0.0164030
655.328	0.0162868
655.406	0.0162039
655.484	0.0163556
655.562	0.0163204
655.640	0.0164146
655.718	0.0162955
655.796	0.0163256
655.874	0.0163313
655.953	0.0163942
656.031	0.0163417
656.109	0.0163598
656.187	0.0163741
656.265	0.0165240
656.343	0.0163126
656.421	0.0162346
656.499	0.0163009
656.578	0.0162134
656.656	0.0162590
656.734	0.0163496
656.812	0.0162566
656.890	0.0162144
656.968	0.0162410
657.046	0.0163024
657.124	0.0164300
657.203	0.0162732
657.281	0.0164055
657.359	0.0163953
657.437	0.0162341
657.515	0.0162420
657.593	0.0162622
657.671	0.0162847
657.749	0.0162946
657.828	0.0163673
657.906	0.0162581
657.984	0.0162580
658.062	0.0162799
658.140	0.0161987
658.218	0.0163486
658.296	0.0163786
658.374	0.0162395
658.453	0.0162567
658.531	0.0163538
658.609	0.0161975
658.687	0.0162778
658.765	0.0162878
658.843	0.0162199
658.921	0.0161687
658.999	0.0162669
659.078	0.0162912
659.156	0.0163358
659.234	0.0163261
659.312	0.0162595
659.390	0.0162661
659.468	0.0162695
659.546	0.0162749
659.624	0.0162432
659.703	0.0163219
659.781	0.0161654
659.859	0.0161364
659.937	0.0163425
660.015	0.0161813
660.093	0.0162810
660.171	0.0163370
660.249	0.0161067
660.328	0.0163028
660.406	0.0162939
660.484	0.0162486
660.562	0.0162640
660.640	0.0162030
660.718	0.0162579
660.796	0.0162724
660.874	0.0162463
660.953	0.0162354
661.031	0.0163097
661.109	0.0162833
661.187	0.0163409
661.265	0.0162942
661.343	0.0162191
661.421	0.0162350
661.499	0.0162405
661.578	0.0161716
661.656	0.0162743
661.734	0.0162154
661.812	0.0162280
661.890	0.0163293
661.968	0.0161942
662.046	0.0163055
662.124	0.0161815
662.203	0.0163624
662.281	0.0163000
662.359	0.0162754
662.437	0.0163511
662.515	0.0161901
662.593	0.0162420
662.671	0.0163703
662.749	0.0163683
662.828	0.0163364
662.906	0.0162976
662.984	0.0162244
663.062	0.0163760
663.140	0.0163625
663.218	0.0163299
663.296	0.0161838
663.374	0.0163464
663.453	0.0162299
663.531	0.0162811
663.609	0.0162554
663.687	0.0161498
663.765	0.0163721
663.843	0.0164450
663.921	0.0162869
663.999	0.0162490
664.078	0.0163153
664.156	0.0161978
664.234	0.0161907
664.312	0.0162209
664.390	0.0164000
664.468	0.0163425
664.546	0.0162387
664.624	0.0161745
664.703	0.0161971
664.781	0.0163884
664.859	0.0163741
664.937	0.0163242
665.015	0.0162634
665.093	0.0163541
665.171	0.0162776
665.249	0.0164850
665.328	0.0162419
665.406	0.0162594
665.484	0.0162830
665.562	0.0162637
665.640	0.0163085
665.718	0.0162442
665.796	0.0162535
665.874	0.0164151
665.953	0.0164510
666.031	0.0163007
666.109	0.0162593
666.187	0.0164182
666.265	0.0164308
666.343	0.0163451
666.421	0.0162749
666.499	0.0163206
666.578	0.0163381
666.656	0.0164288
666.734	0.0163686
666.812	0.0162440
666.890	0.0161846
666.968	0.0164191
667.046	0.0162547
667.124	0.0162569
667.203	0.0162267
667.281	0.0164837
667.359	0.0163476
667.437	0.0162416
667.515	0.0162104
667.593	0.0163450
667.671	0.0163580
667.749	0.0162605
667.828	0.0162617
667.906	0.0161958
667.984	0.0163139
668.062	0.0163251
668.140	0.0162133
668.218	0.0163230
668.296	0.0163948
668.374	0.0162929
668.453	0.0162420
668.531	0.0164108
668.609	0.0162937
668.687	0.0162003
668.765	0.0162884
668.843	0.0162751
668.921	0.0163886
668.999	0.0163368
669.078	0.0162717
669.156	0.0161526
669.234	0.0162489
669.312	0.0163259
669.390	0.0163271
669.468	0.0161034
669.546	0.0162305
669.624	0.0161636
669.703	0.0162801
669.781	0.0164019
669.859	0.0163433
669.937	0.0162500
670.015	0.0163112
670.093	0.0162283
670.171	0.0162524
670.249	0.0161223
670.328	0.0161709
670.406	0.0164029
670.484	0.0163016
670.562	0.0162437
670.640	0.0162305
670.718	0.0161616
670.796	0.0163330
670.874	0.0163467
670.953	0.0164297
671.031	0.0164555
671.109	0.0162936
671.187	0.0163799
671.265	0.0163973
671.343	0.0163818
671.421	0.0163908
671.499	0.0164130
671.578	0.0162683
671.656	0.0163091
671.734	0.0161645
671.812	0.0163120
671.890	0.0163039
671.968	0.0163954
672.046	0.0163834
672.124	0.0162920
672.203	0.0162678
672.281	0.0164314
672.359	0.0163857
672.437	0.0162157
672.515	0.0163506
672.593	0.0162924
672.671	0.0163210
672.749	0.0163673
672.828	0.0162923
672.906	0.0160834
672.984	0.0162794
673.062	0.0162603
673.140	0.0161954
673.218	0.0163845
673.296	0.0163758
673.374	0.0163461
673.453	0.0164301
673.531	0.0162316
673.609	0.0162558
673.687	0.0161919
673.765	0.0163938
673.843	0.0163100
673.921	0.0163130
673.999	0.0163057
674.078	0.0162259
674.156	0.0163538
674.234	0.0163954
674.312	0.0161534
674.390	0.0162423
674.468	0.0163197
674.546	0.0163161
674.624	0.0163205
674.703	0.0163731
674.781	0.0164307
674.859	0.0160973
674.937	0.0162359
675.015	0.0164246
675.093	0.0163337
675.171	0.0163877
675.249	0.0163102
675.328	0.0164095
675.406	0.0163605
675.484	0.0162792
675.562	0.0163976
675.640	0.0162856
675.718	0.0162412
675.796	0.0164021
675.874	0.0163638
675.953	0.0163998
676.031	0.0163480
676.109	0.0161442
676.187	0.0163342
676.265	0.0162918
676.343	0.0162577
676.421	0.0164088
676.499	0.0163917
676.578	0.0163799
676.656	0.0164179
676.734	0.0163699
676.812	0.0163866
676.890	0.0161849
676.968	0.0162047
677.046	0.0163096
677.124	0.0161733
677.203	0.0163934
677.281	0.0163377
677.359	0.0163300
677.437	0.0163785
677.515	0.0163552
677.593	0.0162820
677.671	0.0163658
677.749	0.0161353
677.828	0.0163995
677.906	0.0163817
677.984	0.0163568
678.062	0.0163396
678.140	0.0162434
678.218	0.0162437
678.296	0.0162471
678.374	0.0164017
678.453	0.0162932
678.531	0.0163708
678.609	0.0163968
678.687	0.0163158
678.765	0.0162193
678.843	0.0163427
678.921	0.0162664
678.999	0.0162103
679.078	0.0163562
679.156	0.0162437
679.234	0.0163468
679.312	0.0163583
679.390	0.0162119
679.468	0.0163366
679.546	0.0163945
679.624	0.0162921
679.703	0.0161678
679.781	0.0162440
679.859	0.0161943
679.937	0.0162912
680.015	0.0161546
680.093	0.0162060
680.171	0.0162124
680.249	0.0161469
680.328	0.0161946
680.406	0.0163248
680.484	0.0163742
680.562	0.0162448
680.640	0.0161830
680.718	0.0162944
680.796	0.0163148
680.874	0.0162756
680.953	0.0162053
681.031	0.0162431
681.109	0.0162438
681.187	0.0161007
681.265	0.0162104
681.343	0.0162163
681.421	0.0163136
681.499	0.0162981
681.578	0.0161462
681.656	0.0161160
681.734	0.0161904
681.812	0.0162505
681.890	0.0161812
681.968	0.0163033
682.046	0.0163609
682.124	0.0161224
682.203	0.0162550
682.281	0.0162354
682.359	0.0162287
682.437	0.0161780
682.515	0.0163023
682.593	0.0163145
682.671	0.0163869
682.749	0.0162645
682.828	0.0162773
682.906	0.0163429
682.984	0.0162416
683.062	0.0162659
683.140	0.0163830
683.218	0.0164168
683.296	0.0163249
683.374	0.0162883
683.453	0.0161565
683.531	0.0163461
683.609	0.0163062
683.687	0.0163243
683.765	0.0161634
683.843	0.0162755
683.921	0.0162150
683.999	0.0162365
684.078	0.0163239
684.156	0.0162617
684.234	0.0161250
684.312	0.0162354
684.390	0.0163120
684.468	0.0162247
684.546	0.0162920
684.624	0.0163655
684.703	0.0162904
684.781	0.0163187
684.859	0.0162505
684.937	0.0163135
685.015	0.0163811
685.093	0.0163045
685.171	0.0163220
685.249	0.0162466
685.328	0.0163345
685.406	0.0163541
685.484	0.0162389
685.562	0.0163199
685.640	0.0163682
685.718	0.0163003
685.796	0.0162793
685.874	0.0162456
685.953	0.0163442
686.031	0.0163815
686.109	0.0162897
686.187	0.0161703
686.265	0.0163383
686.343	0.0164055
686.421	0.0163040
686.499	0.0163289
686.578	0.0162712
686.656	0.0163247
686.734	0.0163966
686.812	0.0163625
686.890	0.0163125
686.968	0.0162955
687.046	0.0163936
687.124	0.0162630
687.203	0.0162166
687.281	0.0162936
687.359	0.0163843
687.437	0.0162901
687.515	0.0163145
687.593	0.0163010
687.671	0.0162407
687.749	0.0163322
687.828	0.0164031
687.906	0.0162252
687.984	0.0162099
688.062	0.0162618
688.140	0.0162380
688.218	0.0163145
688.296	0.0162888
688.374	0.0161523
688.453	0.0163010
688.531	0.0163567
688.609	0.0162334
688.687	0.0162334
688.765	0.0162418
688.843	0.0163561
688.921	0.0162876
688.999	0.0162999
689.078	0.0163276
689.156	0.0162894
689.234	0.0162112
689.312	0.0162289
689.390	0.0162157
689.468	0.0162021
689.546	0.0163589
689.624	0.0163736
689.703	0.0163074
689.781	0.0162548
689.859	0.0162344
689.937	0.0163193
690.015	0.0162575
690.093	0.0163016
690.171	0.0163010
690.249	0.0162612
690.328	0.0162893
690.406	0.0162923
690.484	0.0161797
690.562	0.0161587
690.640	0.0162507
690.718	0.0162064
690.796	0.0163689
690.874	0.0162681
690.953	0.0161698
691.031	0.0162178
691.109	0.0163641
691.187	0.0161230
691.265	0.0163034
691.343	0.0162239
691.421	0.0162096
691.499	0.0162854
691.578	0.0162625
691.656	0.0162763
691.734	0.0162903
691.812	0.0161916
691.890	0.0162751
691.968	0.0162154
692.046	0.0163825
692.124	0.0163670
692.203	0.0162402
692.281	0.0163442
692.359	0.0161873
692.437	0.0162551
692.515	0.0162743
692.593	0.0163831
692.671	0.0161968
692.749	0.0161717
692.828	0.0163051
692.906	0.0163384
692.984	0.0162008
693.062	0.0162714
693.140	0.0162442
693.218	0.0162047
693.296	0.0163078
693.374	0.0162414
693.453	0.0162363
693.531	0.0161954
693.609	0.0164352
693.687	0.0163125
693.765	0.0162887
693.843	0.0162796
693.921	0.0161967
693.999	0.0162582
694.078	0.0161180
694.156	0.0162634
694.234	0.0163280
694.312	0.0163105
694.390	0.0163018
694.468	0.0162316
694.546	0.0162707
694.624	0.0162222
694.703	0.0162302
694.781	0.0162193
694.859	0.0162342
694.937	0.0162900
695.015	0.0161919
695.093	0.0162009
695.171	0.0162894
695.249	0.0163010
695.328	0.0163925
695.406	0.0162598
695.484	0.0160921
695.562	0.0162538
695.640	0.0162981
695.718	0.0162218
695.796	0.0162024
695.874	0.0163416
695.953	0.0161725
696.031	0.0162389
696.109	0.0162402
696.187	0.0161974
696.265	0.0162722
696.343	0.0161761
696.421	0.0163259
696.499	0.0162692
696.578	0.0162891
696.656	0.0162812
696.734	0.0162383
696.812	0.0163127
696.890	0.0163959
696.968	0.0162456
697.046	0.0162914
697.124	0.0162347
697.203	0.0161040
697.281	0.0162213
697.359	0.0162344
697.437	0.0161951
697.515	0.0163286
697.593	0.0163034
697.671	0.0162085
697.749	0.0162866
697.828	0.0163358
697.906	0.0161353
697.984	0.0161426
698.062	0.0163924
698.140	0.0162985
698.218	0.0162769
698.296	0.0163831
698.374	0.0162510
698.453	0.0162346
698.531	0.0163068
698.609	0.0162804
698.687	0.0162888
698.765	0.0163001
698.843	0.0163750
698.921	0.0162449
698.999	0.0162947
699.078	0.0163894
699.156	0.0163539
699.234	0.0162717
699.312	0.0162254
699.390	0.0163406
699.468	0.0161703
699.546	0.0162863
699.624	0.0163210
699.703	0.0163821
699.781	0.0162508
699.859	0.0163084
699.937	0.0162753
700.015	0.0163688
700.093	0.0162891
700.171	0.0162125
700.249	0.0163318
700.328	0.0163391
700.406	0.0163742
700.484	0.0160731
700.562	0.0162876
700.640	0.0162511
700.718	0.0162136
700.796	0.0164812
700.874	0.0162717
700.953	0.0162125
701.031	0.0161654
701.109	0.0163204
701.187	0.0163261
701.265	0.0161303
701.343	0.0162686
701.421	0.0163285
701.499	0.0162026
701.578	0.0162195
701.656	0.0162390
701.734	0.0162099
701.812	0.0163256
701.890	0.0162717
701.968	0.0162545
702.046	0.0164037
702.124	0.0160595
702.203	0.0161367
702.281	0.0163696
702.359	0.0163577
702.437	0.0161497
702.515	0.0162722
702.593	0.0163060
702.671	0.0162273
702.749	0.0163044
702.828	0.0162552
702.906	0.0162201
702.984	0.0162794
703.062	0.0163393
703.140	0.0162713
703.218	0.0162680
703.296	0.0163142
703.374	0.0162616
703.453	0.0160627
703.531	0.0162245
703.609	0.0162245
703.687	0.0161982
703.765	0.0163538
703.843	0.0162867
703.921	0.0161578
703.999	0.0162521
704.078	0.0162181
704.156	0.0162847
704.234	0.0162668
704.312	0.0162670
704.390	0.0162865
704.468	0.0161482
704.546	0.0161191
704.624	0.0162052
704.703	0.0162231
704.781	0.0164327
704.859	0.0160757
704.937	0.0162179
705.015	0.0161801
705.093	0.0163018
705.171	0.0162631
705.249	0.0162082
705.328	0.0161381
705.406	0.0162766
705.484	0.0163390
705.562	0.0164346
705.640	0.0163387
705.718	0.0162934
705.796	0.0163319
705.874	0.0163442
705.953	0.0161704
706.031	0.0162468
706.109	0.0163387
706.187	0.0163801
706.265	0.0162865
706.343	0.0163747
706.421	0.0164503
706.499	0.0162434
706.578	0.0162743
706.656	0.0164810
706.734	0.0162906
706.812	0.0163051
706.890	0.0163528
706.968	0.0162615
707.046	0.0162769
707.124	0.0163227
707.203	0.0161707
707.281	0.0161707
707.359	0.0164271
707.437	0.0162355
707.515	0.0162865
707.593	0.0161309
707.671	0.0163228
707.749	0.0162539
707.828	0.0162241
707.906	0.0161111
707.984	0.0160863
708.062	0.0163171
708.140	0.0163034
708.218	0.0162442
708.296	0.0161771
708.374	0.0161058
708.453	0.0162883
708.531	0.0162290
708.609	0.0162325
708.687	0.0163323
708.765	0.0162770
708.843	0.0162680
708.921	0.0163590
708.999	0.0162610
709.078	0.0162756
709.156	0.0164233
709.234	0.0163905
709.312	0.0162606
709.390	0.0163142
709.468	0.0163830
709.546	0.0164061
709.624	0.0164305
709.703	0.0162308
709.781	0.0162737
709.859	0.0162968
709.937	0.0164043
710.015	0.0163503
710.093	0.0163379
710.171	0.0163663
710.249	0.0162926
710.328	0.0162962
710.406	0.0164301
710.484	0.0163480
710.562	0.0163444
710.640	0.0162833
710.718	0.0162919
710.796	0.0163953
710.874	0.0162601
710.953	0.0163571
711.031	0.0163614
711.109	0.0163247
711.187	0.0164183
711.265	0.0163107
711.343	0.0162042
711.421	0.0163174
711.499	0.0162963
711.578	0.0162603
711.656	0.0162933
711.734	0.0162795
711.812	0.0162734
711.890	0.0160757
711.968	0.0162780
712.046	0.0163167
712.124	0.0162359
712.203	0.0162444
712.281	0.0163883
712.359	0.0162310
712.437	0.0163570
712.515	0.0163893
712.593	0.0163921
712.671	0.0164889
712.749	0.0163566
712.828	0.0163533
712.906	0.0164571
712.984	0.0163667
713.062	0.0163059
713.140	0.0163917
713.218	0.0164980
713.296	0.0164491
713.374	0.0163837
713.453	0.0164799
713.531	0.0164371
713.609	0.0162877
713.687	0.0163833
713.765	0.0163226
713.843	0.0163007
713.921	0.0162039
713.999	0.0161086
714.078	0.0162000
714.156	0.0161954
714.234	0.0161736
714.312	0.0159911
714.390	0.0159680
714.468	0.0160969
714.546	0.0161337
714.624	0.0160466
714.703	0.0161597
714.781	0.0162589
714.859	0.0161662
714.937	0.0162394
715.015	0.0163272
715.093	0.0163062
715.171	0.0162793
715.249	0.0162491
715.328	0.0164281
715.406	0.0164335
715.484	0.0163592
715.562	0.0164365
715.640	0.0164971
715.718	0.0165023
715.796	0.0164459
715.874	0.0164979
715.953	0.0162886
716.031	0.0164658
716.109	0.0164746
716.187	0.0163867
716.265	0.0162944
716.343	0.0163912
716.421	0.0163516
716.499	0.0164075
716.578	0.0163240
716.656	0.0163737
716.734	0.0163171
716.812	0.0161849
716.890	0.0162754
716.968	0.0162669
717.046	0.0162456
717.124	0.0161655
717.203	0.0161731
717.281	0.0163445
717.359	0.0162666
717.437	0.0161408
717.515	0.0161452
717.593	0.0163694
717.671	0.0164304
717.749	0.0163196
717.828	0.0162457
717.906	0.0160386
717.984	0.0161068
718.062	0.0161253
718.140	0.0160774
718.218	0.0160426
718.296	0.0161094
718.374	0.0161604
718.453	0.0159889
718.531	0.0161274
718.609	0.0160674
718.687	0.0160038
718.765	0.0162477
718.843	0.0162405
718.921	0.0161600
718.999	0.0162501
719.078	0.0161717
719.156	0.0163295
719.234	0.0162798
719.312	0.0163812
719.390	0.0163861
719.468	0.0164204
719.546	0.0163957
719.624	0.0164684
719.703	0.0166525
719.781	0.0165730
719.859	0.0166712
719.937	0.0166268
720.015	0.0168364
720.093	0.0167296
720.171	0.0167469
720.249	0.0167831
720.328	0.0167358
720.406	0.0169106
720.484	0.0169785
720.562	0.0168007
720.640	0.0168417
720.718	0.0167783
720.796	0.0164566
720.874	0.0165161
720.953	0.0162357
721.031	0.0160830
721.109	0.0158243
721.187	0.0157087
721.265	0.0155694
721.343	0.0153794
721.421	0.0152514
721.499	0.0151880
721.578	0.0149548
721.656	0.0149341
721.734	0.0150642
721.812	0.0149548
721.890	0.0151782
721.968	0.0152567
722.046	0.0153767
722.124	0.0156856
722.203	0.0158232
722.281	0.0160563
722.359	0.0163399
722.437	0.0164081
722.515	0.0165490
722.593	0.0167029
722.671	0.0168969
722.749	0.0170994
722.828	0.0171578
722.906	0.0171492
722.984	0.0174192
723.062	0.0172453
723.140	0.0173884
723.218	0.0172289
723.296	0.0172243
723.374	0.0171513
723.453	0.0169910
723.531	0.0171562
723.609	0.0168643
723.687	0.0166101
723.765	0.0165393
723.843	0.0164422
723.921	0.0163128
723.999	0.0162231
724.078	0.0160378
724.156	0.0161158
724.234	0.0158006
724.312	0.0155839
724.390	0.0157890
724.468	0.0156507
724.546	0.0157102
724.624	0.0158573
724.703	0.0157716
724.781	0.0157068
724.859	0.0158005
724.937	0.0159379
725.015	0.0158178
725.093	0.0158367
725.171	0.0159210
725.249	0.0159166
725.328	0.0160694
725.406	0.0160796
725.484	0.0159646
725.562	0.0158946
725.640	0.0158202
725.718	0.0159410
725.796	0.0161234
725.874	0.0160409
725.953	0.0158394
726.031	0.0159785
726.109	0.0159282
726.187	0.0161343
726.265	0.0160034
726.343	0.0162460
726.421	0.0161303
726.499	0.0163442
726.578	0.0164983
726.656	0.0165416
726.734	0.0166357
726.812	0.0168524
726.890	0.0169082
726.968	0.0170697
727.046	0.0171943
727.124	0.0173543
727.203	0.0173673
727.281	0.0173823
727.359	0.0172866
727.437	0.0171940
727.515	0.0172340
727.593	0.0170993
727.671	0.0169363
727.749	0.0168014
727.828	0.0167229
727.906	0.0165276
727.984	0.0164343
728.062	0.0161404
728.140	0.0158850
728.218	0.0157625
728.296	0.0156462
728.374	0.0156068
728.453	0.0154299
728.531	0.0156251
728.609	0.0153568
728.687	0.0152683
728.765	0.0155384
728.843	0.0156538
728.921	0.0155936
728.999	0.0157281
729.078	0.0157940
729.156	0.0159746
729.234	0.0161417
729.312	0.0161626
729.390	0.0163603
729.468	0.0164913
729.546	0.0166120
729.624	0.0166344
729.703	0.0166791
729.781	0.0167774
729.859	0.0167851
729.937	0.0167921
730.015	0.0166259
730.093	0.0167182
730.171	0.0166730
730.249	0.0166024
730.328	0.0166443
730.406	0.0163695
730.484	0.0163978
730.562	0.0163282
730.640	0.0162280
730.718	0.0162229
730.796	0.0162010
730.874	0.0161553
730.953	0.0161464
731.031	0.0162261
731.109	0.0161497
731.187	0.0162956
731.265	0.0160917
731.343	0.0163828
731.421	0.0165575
731.499	0.0164310
731.578	0.0163901
731.656	0.0164633
731.734	0.0165928
731.812	0.0165428
731.890	0.0166316
731.968	0.0168410
732.046	0.0165657
732.124	0.0164603
732.203	0.0165887
732.281	0.0165796
732.359	0.0165479
732.437	0.0165128
732.515	0.0163522
732.593	0.0162852
732.671	0.0163723
732.749	0.0162358
732.828	0.0160954
732.906	0.0161069
732.984	0.0161234
733.062	0.0162020
733.140	0.0161612
733.218	0.0161422
733.296	0.0162301
733.374	0.0162707
733.453	0.0164888
733.531	0.0164169
733.609	0.0164441
733.687	0.0165620
733.765	0.0165836
733.843	0.0166537
733.921	0.0166942
733.999	0.0165603
734.078	0.0166001
734.156	0.0167858
734.234	0.0166108
734.312	0.0164972
734.390	0.0165804
734.468	0.0164478
734.546	0.0164450
734.624	0.0164483
734.703	0.0163958
734.781	0.0162621
734.859	0.0163618
734.937	0.0162640
735.015	0.0162000
735.093	0.0160323
735.171	0.0160328
735.249	0.0159155
735.328	0.0159501
735.406	0.0156962
735.484	0.0157528
735.562	0.0157578
735.640	0.0157952
735.718	0.0157490
735.796	0.0157131
735.874	0.0158687
735.953	0.0158891
736.031	0.0159185
736.109	0.0159905
736.187	0.0161212
736.265	0.0161025
736.343	0.0161372
736.421	0.0163432
736.499	0.0165246
736.578	0.0165582
736.656	0.0167706
736.734	0.0168442
736.812	0.0169421
736.890	0.0169015
736.968	0.0169776
737.046	0.0171764
737.124	0.0170512
737.203	0.0169056
737.281	0.0170821
737.359	0.0169968
737.437	0.0170459
737.515	0.0168275
737.593	0.0166906
737.671	0.0165223
737.749	0.0166186
737.828	0.0163199
737.906	0.0163992
737.984	0.0162120
738.062	0.0161500
738.140	0.0159097
738.218	0.0159180
738.296	0.0158714
738.374	0.0156434
738.453	0.0157740
738.531	0.0157547
738.609	0.0158058
738.687	0.0157108
738.765	0.0157619
738.843	0.0156596
738.921	0.0157700
738.999	0.0157336
739.078	0.0158340
739.156	0.0159818
739.234	0.0159598
739.312	0.0160750
739.390	0.0160650
739.468	0.0161640
739.546	0.0163831
739.624	0.0162961
739.703	0.0163051
739.781	0.0163920
739.859	0.0163348
739.937	0.0163630
740.015	0.0164257
740.093	0.0164256
740.171	0.0165481
740.249	0.0163549
740.328	0.0163708
740.406	0.0164439
740.484	0.0164083
740.562	0.0162839
740.640	0.0163480
740.718	0.0162209
740.796	0.0162597
740.874	0.0162252
740.953	0.0161426
741.031	0.0163098
741.109	0.0161964
741.187	0.0162212
741.265	0.0163191
741.343	0.0163954
741.421	0.0163994
741.499	0.0162904
741.578	0.0164521
741.656	0.0167496
741.734	0.0165392
741.812	0.0165018
741.890	0.0166732
741.968	0.0165964
742.046	0.0166625
742.124	0.0165720
742.203	0.0166233
742.281	0.0164774
742.359	0.0164651
742.437	0.0165532
742.515	0.0164272
742.593	0.0163949
742.671	0.0161677
742.749	0.0162315
742.828	0.0162422
742.906	0.0161153
742.984	0.0160001
743.062	0.0160426
743.140	0.0159743
743.218	0.0160115
743.296	0.0161223
743.374	0.0160320
743.453	0.0160522
743.531	0.0161557
743.609	0.0161547
743.687	0.0161101
743.765	0.0162251
743.843	0.0161646
743.921	0.0162651
743.999	0.0164179
744.078	0.0163580
744.156	0.0163563
744.234	0.0163294
744.312	0.0163407
744.390	0.0162280
744.468	0.0163358
744.546	0.0161812
744.624	0.0161216
744.703	0.0162882
744.781	0.0160914
744.859	0.0161369
744.937	0.0162219
745.015	0.0162852
745.093	0.0161749
745.171	0.0163796
745.249	0.0164727
745.328	0.0162460
745.406	0.0162974
745.484	0.0163696
745.562	0.0163757
745.640	0.0163995
745.718	0.0163828
745.796	0.0164152
745.874	0.0165789
745.953	0.0164785
746.031	0.0162197
746.109	0.0163438
746.187	0.0163842
746.265	0.0164419
746.343	0.0164085
746.421	0.0164885
746.499	0.0164067
746.578	0.0165250
746.656	0.0163792
746.734	0.0165367
746.812	0.0165091
746.890	0.0164859
746.968	0.0164459
747.046	0.0164867
747.124	0.0165907
747.203	0.0165046
747.281	0.0164274
747.359	0.0164561
747.437	0.0164850
747.515	0.0162456
747.593	0.0164061
747.671	0.0162648
747.749	0.0164807
747.828	0.0163596
747.906	0.0162301
747.984	0.0162326
748.062	0.0162057
748.140	0.0162878
748.218	0.0162391
748.296	0.0163116
748.374	0.0162344
748.453	0.0161363
748.531	0.0164001
748.609	0.0161344
748.687	0.0161413
748.765	0.0161448
748.843	0.0163863
748.921	0.0162095
748.999	0.0161089
749.078	0.0162395
749.156	0.0161485
749.234	0.0161641
749.312	0.0162498
749.390	0.0164796
749.468	0.0163659
749.546	0.0164202
749.624	0.0164097
749.703	0.0164526
749.781	0.0164261
749.859	0.0163884
749.937	0.0163891
750.015	0.0165395
750.093	0.0163796
750.171	0.0163454
750.249	0.0163190
750.328	0.0165107
750.406	0.0164884
750.484	0.0164698
750.562	0.0163892
750.640	0.0164012
750.718	0.0163558
750.796	0.0163694
750.874	0.0163212
750.953	0.0164068
751.031	0.0162738
751.109	0.0163323
751.187	0.0162747
751.265	0.0162767
751.343	0.0162962
751.421	0.0162891
751.499	0.0163731
751.578	0.0161285
751.656	0.0162653
751.734	0.0162805
751.812	0.0161990
751.890	0.0160476
751.968	0.0161553
752.046	0.0164633
752.124	0.0162859
752.203	0.0162502
752.281	0.0162408
752.359	0.0161383
752.437	0.0161421
752.515	0.0162424
752.593	0.0163958
752.671	0.0161929
752.749	0.0163460
752.828	0.0164503
752.906	0.0163870
752.984	0.0164298
753.062	0.0164885
753.140	0.0165104
753.218	0.0164651
753.296	0.0164825
753.374	0.0163794
753.453	0.0162925
753.531	0.0163939
753.609	0.0163607
753.687	0.0163468
753.765	0.0163665
753.843	0.0163125
753.921	0.0164230
753.999	0.0164174
754.078	0.0162090
754.156	0.0161904
754.234	0.0163316
754.312	0.0163444
754.390	0.0162499
754.468	0.0163120
754.546	0.0163207
754.624	0.0162795
754.703	0.0162343
754.781	0.0163096
754.859	0.0161646
754.937	0.0161800
755.015	0.0161378
755.093	0.0161592
755.171	0.0161471
755.249	0.0162440
755.328	0.0162658
755.406	0.0162476
755.484	0.0164934
755.562	0.0163597
755.640	0.0163967
755.718	0.0164048
755.796	0.0165466
755.874	0.0164784
755.953	0.0164883
756.031	0.0164771
756.109	0.0162698
756.187	0.0163776
756.265	0.0163469
756.343	0.0163397
756.421	0.0163172
756.499	0.0162447
756.578	0.0163242
756.656	0.0161243
756.734	0.0162492
756.812	0.0162784
756.890	0.0163863
756.968	0.0163701
757.046	0.0163232
757.124	0.0165588
757.203	0.0165570
757.281	0.0166537
757.359	0.0166666
757.437	0.0166995
757.515	0.0166989
757.593	0.0167116
757.671	0.0168000
757.749	0.0168517
757.828	0.0166872
757.906	0.0166702
757.984	0.0166108
758.062	0.0164005
758.140	0.0164233
758.218	0.0165164
758.296	0.0164348
758.374	0.0161443
758.453	0.0161922
758.531	0.0162331
758.609	0.0160654
758.687	0.0158538
758.765	0.0157403
758.843	0.0157392
758.921	0.0156234
758.999	0.0156274
759.078	0.0157150
759.156	0.0158544
759.234	0.0159377
759.312	0.0158131
759.390	0.0159187
759.468	0.0159709
759.546	0.0160488
759.624	0.0162194
759.703	0.0163825
759.781	0.0164272
759.859	0.0163966
759.937	0.0164214
760.015	0.0163752
760.093	0.0165587
760.171	0.0165471
760.249	0.0166888
760.328	0.0166983
760.406	0.0165990
760.484	0.0166705
760.562	0.0166610
760.640	0.0165915
760.718	0.0165945
760.796	0.0164768
760.874	0.0164535
760.953	0.0163521
761.031	0.0164096
761.109	0.0161618
761.187	0.0162441
761.265	0.0162285
761.343	0.0160638
761.421	0.0161568
761.499	0.0160468
761.578	0.0160679
761.656	0.0159988
761.734	0.0159879
761.812	0.0159027
761.890	0.0160248
761.968	0.0160281
762.046	0.0161074
762.124	0.0162476
762.203	0.0159767
762.281	0.0161792
762.359	0.0163163
762.437	0.0162682
762.515	0.0165892
762.593	0.0165770
762.671	0.0164553
762.749	0.0166201
762.828	0.0166892
762.906	0.0167915
762.984	0.0167147
763.062	0.0168047
763.140	0.0167525
763.218	0.0168484
763.296	0.0167233
763.374	0.0164943
763.453	0.0165207
763.531	0.0163482
763.609	0.0160937
763.687	0.0160866
763.765	0.0160722
763.843	0.0160522
763.921	0.0159940
763.999	0.0157693
764.078	0.0159065
764.156	0.0158723
764.234	0.0158540
764.312	0.0157648
764.390	0.0159171
764.468	0.0160188
764.546	0.0159676
764.624	0.0159759
764.703	0.0161287
764.781	0.0161905
764.859	0.0161731
764.937	0.0162059
765.015	0.0161193
765.093	0.0162109
765.171	0.0164120
765.249	0.0165236
765.328	0.0166199
765.406	0.0166185
765.484	0.0167809
765.562	0.0167093
765.640	0.0168992
765.718	0.0168475
765.796	0.0168539
765.874	0.0167900
765.953	0.0167917
766.031	0.0167696
766.109	0.0166359
766.187	0.0166561
766.265	0.0166675
766.343	0.0164787
766.421	0.0163857
766.499	0.0162272
766.578	0.0163556
766.656	0.0162341
766.734	0.0162621
766.812	0.0162909
766.890	0.0161388
766.968	0.0160950
767.046	0.0162474
767.124	0.0160477
767.203	0.0159193
767.281	0.0159694
767.359	0.0160652
767.437	0.0160455
767.515	0.0159633
767.593	0.0161861
767.671	0.0163022
767.749	0.0160403
767.828	0.0161452
767.906	0.0163480
767.984	0.0163208
768.062	0.0163852
768.140	0.0165372
768.218	0.0164976
768.296	0.0163872
768.374	0.0165190
768.453	0.0163158
768.531	0.0163255
768.609	0.0163313
768.687	0.0160915
768.765	0.0161234
768.843	0.0159863
768.921	0.0158402
768.999	0.0157109
769.078	0.0157271
769.156	0.0155042
769.234	0.0155328
769.312	0.0154898
769.390	0.0153882
769.468	0.0155291
769.546	0.0157643
769.624	0.0161440
769.703	0.0163020
769.781	0.0163788
769.859	0.0167341
769.937	0.0170882
770.015	0.0173163
770.093	0.0176582
770.171	0.0177801
770.249	0.0180531
770.328	0.0180712
770.406	0.0181638
770.484	0.0179803
770.562	0.0178440
770.640	0.0179067
770.718	0.0175413
770.796	0.0172395
770.874	0.0171261
770.953	0.0168724
771.031	0.0165479
771.109	0.0163127
771.187	0.0159717
771.265	0.0157150
771.343	0.0155756
771.421	0.0154417
771.499	0.0151700
771.578	0.0152190
771.656	0.0151772
771.734	0.0152151
771.812	0.0154509
771.890	0.0152296
771.968	0.0155270
772.046	0.0154646
772.124	0.0155600
772.203	0.0158060
772.281	0.0157160
772.359	0.0157196
772.437	0.0159030
772.515	0.0161787
772.593	0.0160143
772.671	0.0160225
772.749	0.0159668
772.828	0.0160927
772.906	0.0159898
772.984	0.0160900
773.062	0.0163100
773.140	0.0163985
773.218	0.0164423
773.296	0.0165250
773.374	0.0168648
773.453	0.0166354
773.531	0.0166331
773.609	0.0169194
773.687	0.0170762
773.765	0.0171104
773.843	0.0172437
773.921	0.0172500
773.999	0.0173929
774.078	0.0174004
774.156	0.0173538
774.234	0.0173087
774.312	0.0174228
774.390	0.0174094
774.468	0.0173119
774.546	0.0170876
774.624	0.0170705
774.703	0.0169101
774.781	0.0166798
774.859	0.0165739
774.937	0.0161472
775.015	0.0158688
775.093	0.0157500
775.171	0.0155962
775.249	0.0153655
775.328	0.0150916
775.406	0.0151128
775.484	0.0151132
775.562	0.0150716
775.640	0.0151495
775.718	0.0151762
775.796	0.0152113
775.874	0.0151914
775.953	0.0154160
776.031	0.0153875
776.109	0.0154189
776.187	0.0156761
776.265	0.0155177
776.343	0.0158160
776.421	0.0158655
776.499	0.0159000
776.578	0.0161710
776.656	0.0162152
776.734	0.0162795
776.812	0.0163663
776.890	0.0166830
776.968	0.0166637
777.046	0.0168389
777.124	0.0170164
777.203	0.0172115
777.281	0.0173354
777.359	0.0176003
777.437	0.0177530
777.515	0.0177493
777.593	0.0178809
777.671	0.0179794
777.749	0.0179396
777.828	0.0180818
777.906	0.0179839
777.984	0.0179299
778.062	0.0177374
778.140	0.0175266
778.218	0.0172350
778.296	0.0170433
778.374	0.0169579
778.453	0.0167549
778.531	0.0163842
778.609	0.0161612
778.687	0.0159074
778.765	0.0157972
778.843	0.0155048
778.921	0.0154856
778.999	0.0153159
779.078	0.0153001
779.156	0.0151785
779.234	0.0150877
779.312	0.0150475
779.390	0.0149548
779.468	0.0149554
779.546	0.0148912
779.624	0.0148817
779.703	0.0148288
779.781	0.0148361
779.859	0.0148516
779.937	0.0148447
780.015	0.0149292
780.093	0.0149826
780.171	0.0151272
780.249	0.0153764
780.328	0.0153543
780.406	0.0157549
780.484	0.0161023
780.562	0.0164079
780.640	0.0165923
780.718	0.0168087
780.796	0.0170013
780.874	0.0171983
780.953	0.0174409
781.031	0.0176672
781.109	0.0176625
781.187	0.0178904
781.265	0.0179363
781.343	0.0179022
781.421	0.0180376
781.499	0.0179002
781.578	0.0177490
781.656	0.0177110
781.734	0.0176138
781.812	0.0174520
781.890	0.0173201
781.968	0.0173805
782.046	0.0171718
782.124	0.0169311
782.203	0.0168535
782.281	0.0167399
782.359	0.0166518
782.437	0.0162925
782.515	0.0162251
782.593	0.0160011
782.671	0.0160275
782.749	0.0156898
782.828	0.0154107
782.906	0.0154240
782.984	0.0152354
783.062	0.0150224
783.140	0.0150440
783.218	0.0148185
783.296	0.0148495
783.374	0.0147669
783.453	0.0148942
783.531	0.0148923
783.609	0.0150107
783.687	0.0150912
783.765	0.0152458
783.843	0.0154117
783.921	0.0156151
783.999	0.0155198
784.078	0.0159329
784.156	0.0159754
784.234	0.0161858
784.312	0.0163432
784.390	0.0164938
784.468	0.0167341
784.546	0.0167502
784.624	0.0168556
784.703	0.0170116
784.781	0.0169798
784.859	0.0170273
784.937	0.0171894
785.015	0.0171426
785.093	0.0170754
785.171	0.0170460
785.249	0.0170586
785.328	0.0170596
785.406	0.0169907
785.484	0.0169028
785.562	0.0167563
785.640	0.0166887
785.718	0.0166693
785.796	0.0165887
785.874	0.0165170
785.953	0.0164946
786.031	0.0163584
786.109	0.0163485
786.187	0.0163564
786.265	0.0164754
786.343	0.0163255
786.421	0.0163197
786.499	0.0162664
786.578	0.0164356
786.656	0.0163218
786.734	0.0164128
786.812	0.0162944
786.890	0.0163641
786.968	0.0164772
787.046	0.0163150
787.124	0.0163466
787.203	0.0161492
787.281	0.0161758
787.359	0.0161058
787.437	0.0158725
787.515	0.0158439
787.593	0.0158620
787.671	0.0157491
787.749	0.0158639
787.828	0.0157658
787.906	0.0160638
787.984	0.0158883
788.062	0.0161496
788.140	0.0161166
788.218	0.0163135
788.296	0.0164873
788.374	0.0165384
788.453	0.0166254
788.531	0.0167616
788.609	0.0168199
788.687	0.0167170
788.765	0.0168333
788.843	0.0170000
788.921	0.0168480
788.999	0.0169390
789.078	0.0168181
789.156	0.0168063
789.234	0.0167178
789.312	0.0165517
789.390	0.0164209
789.468	0.0163292
789.546	0.0162540
789.624	0.0160732
789.703	0.0160500
789.781	0.0157840
789.859	0.0158532
789.937	0.0158260
790.015	0.0156628
790.093	0.0157725
790.171	0.0157980
790.249	0.0156991
790.328	0.0157618
790.406	0.0156169
790.484	0.0155063
790.562	0.0157320
790.640	0.0156078
790.718	0.0156525
790.796	0.0158463
790.874	0.0157636
790.953	0.0159727
791.031	0.0158167
791.109	0.0159302
791.187	0.0161579
791.265	0.0161774
791.343	0.0163370
791.421	0.0163552
791.499	0.0164706
791.578	0.0163997
791.656	0.0163322
791.734	0.0164913
791.812	0.0163639
791.890	0.0163785
791.968	0.0163860
792.046	0.0164857
792.124	0.0165282
792.203	0.0165986
792.281	0.0166862
792.359	0.0167353
792.437	0.0167654
792.515	0.0168297
792.593	0.0170014
792.671	0.0171267
792.749	0.0170423
792.828	0.0169707
792.906	0.0170026
792.984	0.0168758
793.062	0.0169344
793.140	0.0167923
793.218	0.0167165
793.296	0.0164690
793.374	0.0164979
793.453	0.0162844
793.531	0.0163903
793.609	0.0161205
793.687	0.0159448
793.765	0.0160655
793.843	0.0160366
793.921	0.0160985
793.999	0.0160632
794.078	0.0161636
794.156	0.0161594
794.234	0.0162369
794.312	0.0161516
794.390	0.0162184
794.468	0.0163657
794.546	0.0163686
794.624	0.0164458
794.703	0.0162862
794.781	0.0163095
794.859	0.0162196
794.937	0.0161425
795.015	0.0162198
795.093	0.0162701
795.171	0.0159599
795.249	0.0159344
795.328	0.0160320
795.406	0.0158504
795.484	0.0159080
795.562	0.0158109
795.640	0.0159245
795.718	0.0160865
795.796	0.0160316
795.874	0.0160474
795.953	0.0160417
796.031	0.0161684
796.109	0.0162013
796.187	0.0162768
796.265	0.0162646
796.343	0.0163710
796.421	0.0163258
796.499	0.0162730
796.578	0.0164909
796.656	0.0164396
796.734	0.0164025
796.812	0.0163131
796.890	0.0162983
796.968	0.0162517
797.046	0.0161901
797.124	0.0160510
797.203	0.0161099
797.281	0.0159938
797.359	0.0158480
797.437	0.0158222
797.515	0.0156369
797.593	0.0158144
797.671	0.0154297
797.749	0.0156139
797.828	0.0155256
797.906	0.0156048
797.984	0.0156809
798.062	0.0156725
798.140	0.0158076
798.218	0.0158782
798.296	0.0159824
798.374	0.0159982
798.453	0.0161945
798.531	0.0163287
798.609	0.0164449
798.687	0.0165523
798.765	0.0167159
798.843	0.0168369
798.921	0.0168976
798.999	0.0169850
799.078	0.0170171
799.156	0.0171181
799.234	0.0172303
799.312	0.0170461
799.390	0.0172656
799.468	0.0172391
799.546	0.0171246
799.624	0.0172311
799.703	0.0172502
799.781	0.0171027
799.859	0.0170928
799.937	0.0169866
800.015	0.0169986
800.093	0.0168356
800.171	0.0167615
800.249	0.0167464
800.328	0.0165601
800.406	0.0165596
800.484	0.0162518
800.562	0.0161185
800.640	0.0161006
800.718	0.0160541
800.796	0.0160863
800.874	0.0157188
800.953	0.0156585
801.031	0.0156646
801.109	0.0156551
801.187	0.0156181
801.265	0.0154281
801.343	0.0155267
801.421	0.0155412
801.499	0.0154529
801.578	0.0154004
801.656	0.0154107
801.734	0.0155514
801.812	0.0155145
801.890	0.0156464
801.968	0.0156239
802.046	0.0157206
802.124	0.0157815
802.203	0.0160002
802.281	0.0161595
802.359	0.0161384
802.437	0.0161721
802.515	0.0163351
802.593	0.0165408
802.671	0.0165084
802.749	0.0163676
802.828	0.0163708
802.906	0.0163456
802.984	0.0162591
803.062	0.0160986
803.140	0.0160340
803.218	0.0161446
803.296	0.0159904
803.374	0.0160397
803.453	0.0162046
803.531	0.0160748
803.609	0.0160946
803.687	0.0160989
803.765	0.0161685
803.843	0.0162776
803.921	0.0164922
803.999	0.0164992
804.078	0.0163734
804.156	0.0164891
804.234	0.0165673
804.312	0.0166667
804.390	0.0166283
804.468	0.0166486
804.546	0.0167461
804.624	0.0168768
804.703	0.0169221
804.781	0.0167803
804.859	0.0169517
804.937	0.0170686
805.015	0.0169946
805.093	0.0172327
805.171	0.0171725
805.249	0.0172036
805.328	0.0171695
805.406	0.0170901
805.484	0.0170737
805.562	0.0171023
805.640	0.0169024
805.718	0.0170032
805.796	0.0168716
805.874	0.0167973
805.953	0.0167160
806.031	0.0166185
806.109	0.0164626
806.187	0.0164045
806.265	0.0163394
806.343	0.0162376
806.421	0.0163181
806.499	0.0161370
806.578	0.0159975
806.656	0.0160799
806.734	0.0161381
806.812	0.0161109
806.890	0.0162397
806.968	0.0162353
807.046	0.0160181
807.124	0.0160998
807.203	0.0159780
807.281	0.0160345
807.359	0.0158363
807.437	0.0158264
807.515	0.0156781
807.593	0.0156537
807.671	0.0154975
807.749	0.0155017
807.828	0.0152962
807.906	0.0153497
807.984	0.0153469
808.062	0.0152499
808.140	0.0153440
808.218	0.0154568
808.296	0.0155336
808.374	0.0156337
808.453	0.0157410
808.531	0.0158779
808.609	0.0161607
808.687	0.0161860
808.765	0.0163050
808.843	0.0164581
808.921	0.0166471
808.999	0.0167619
809.078	0.0167284
809.156	0.0169684
809.234	0.0170937
809.312	0.0169584
809.390	0.0169199
809.468	0.0169064
809.546	0.0169440
809.624	0.0169754
809.703	0.0169395
809.781	0.0167789
809.859	0.0166972
809.937	0.0166476
810.015	0.0167583
810.093	0.0166572
810.171	0.0166663
810.249	0.0166031
810.328	0.0166961
810.406	0.0167436
810.484	0.0166295
810.562	0.0167523
810.640	0.0168922
810.718	0.0167883
810.796	0.0166939
810.874	0.0168291
810.953	0.0168196
811.031	0.0169067
811.109	0.0169994
811.187	0.0168246
811.265	0.0167706
811.343	0.0168100
811.421	0.0166986
811.499	0.0168120
811.578	0.0166337
811.656	0.0165279
811.734	0.0164831
811.812	0.0163940
811.890	0.0161892
811.968	0.0162772
812.046	0.0161816
812.124	0.0161434
812.203	0.0161266
812.281	0.0162779
812.359	0.0160618
812.437	0.0159595
812.515	0.0160103
812.593	0.0161349
812.671	0.0161797
812.749	0.0160706
812.828	0.0161280
812.906	0.0161588
812.984	0.0162515
813.062	0.0161647
813.140	0.0159094
813.218	0.0159954
813.296	0.0160815
813.374	0.0159403
813.453	0.0159175
813.531	0.0159518
813.609	0.0159209
813.687	0.0158597
813.765	0.0156084
813.843	0.0157272
813.921	0.0156736
813.999	0.0157349
814.078	0.0157249
814.156	0.0157278
814.234	0.0157063
814.312	0.0157452
814.390	0.0159552
814.468	0.0159699
814.546	0.0160262
814.624	0.0159261
814.703	0.0161724
814.781	0.0161989
814.859	0.0162587
814.937	0.0163688
815.015	0.0163972
815.093	0.0165202
815.171	0.0164194
815.249	0.0163920
815.328	0.0164236
815.406	0.0165184
815.484	0.0166428
815.562	0.0165985
815.640	0.0165163
815.718	0.0166071
815.796	0.0165167
815.874	0.0167640
815.953	0.0166950
816.031	0.0167445
816.109	0.0168381
816.187	0.0168846
816.265	0.0167728
816.343	0.0167284
816.421	0.0167072
816.499	0.0168007
816.578	0.0166277
816.656	0.0166790
816.734	0.0165358
816.812	0.0164285
816.890	0.0164046
816.968	0.0163760
817.046	0.0160587
817.124	0.0162369
817.203	0.0160402
817.281	0.0160532
817.359	0.0162000
817.437	0.0161561
817.515	0.0160748
817.593	0.0162347
817.671	0.0163095
817.749	0.0162997
817.828	0.0162007
817.906	0.0164718
817.984	0.0162103
818.062	0.0164140
818.140	0.0163028
818.218	0.0163538
818.296	0.0163017
818.374	0.0160774
818.453	0.0160759
818.531	0.0161333
818.609	0.0159934
818.687	0.0159209
818.765	0.0159683
818.843	0.0158628
818.921	0.0158098
818.999	0.0159668
819.078	0.0159703
819.156	0.0159814
819.234	0.0159172
819.312	0.0158693
819.390	0.0160845
819.468	0.0162055
819.546	0.0161057
819.624	0.0161404
819.703	0.0162234
819.781	0.0162137
819.859	0.0161778
819.937	0.0162180
820.015	0.0162482
820.093	0.0162847
820.171	0.0163521
820.249	0.0162854
820.328	0.0162857
820.406	0.0163218
820.484	0.0162701
820.562	0.0161530
820.640	0.0164101
820.718	0.0164333
820.796	0.0163435
820.874	0.0162331
820.953	0.0164954
821.031	0.0164178
821.109	0.0164782
821.187	0.0165177
821.265	0.0163879
821.343	0.0163613
821.421	0.0164863
821.499	0.0164310
821.578	0.0162741
821.656	0.0162503
821.734	0.0163583
821.812	0.0161800
821.890	0.0162003
821.968	0.0161104
822.046	0.0160522
822.124	0.0161859
822.203	0.0161031
822.281	0.0162432
822.359	0.0163454
822.437	0.0163914
822.515	0.0164226
822.593	0.0163307
822.671	0.0162507
822.749	0.0163253
822.828	0.0164089
822.906	0.0163834
822.984	0.0164203
823.062	0.0164293
823.140	0.0164377
823.218	0.0164301
823.296	0.0163045
823.374	0.0164538
823.453	0.0165308
823.531	0.0167063
823.609	0.0167009
823.687	0.0166835
823.765	0.0166881
823.843	0.0167728
823.921	0.0168610
823.999	0.0169670
824.078	0.0168396
824.156	0.0168925
824.234	0.0168593
824.312	0.0168220
824.390	0.0169078
824.468	0.0167016
824.546	0.0166923
824.624	0.0166631
824.703	0.0163608
824.781	0.0163415
824.859	0.0162639
824.937	0.0161802
825.015	0.0159980
825.093	0.0160236
825.171	0.0160159
825.249	0.0159654
825.328	0.0160016
825.406	0.0158882
825.484	0.0157645
825.562	0.0157941
825.640	0.0157403
825.718	0.0157716
825.796	0.0156719
825.874	0.0158050
825.953	0.0157932
826.031	0.0158547
826.109	0.0159606
826.187	0.0158940
826.265	0.0159170
826.343	0.0159200
826.421	0.0161839
826.499	0.0160390
826.578	0.0160898
826.656	0.0160410
826.734	0.0161251
826.812	0.0161147
826.890	0.0162994
826.968	0.0162192
827.046	0.0161075
827.124	0.0161739
827.203	0.0161562
827.281	0.0162654
827.359	0.0161745
827.437	0.0160227
827.515	0.0161196
827.593	0.0161959
827.671	0.0163210
827.749	0.0161235
827.828	0.0162592
827.906	0.0161752
827.984	0.0163669
828.062	0.0163371
828.140	0.0163499
828.218	0.0165179
828.296	0.0165180
828.374	0.0165196
828.453	0.0166402
828.531	0.0167580
828.609	0.0166678
828.687	0.0168425
828.765	0.0168943
828.843	0.0168253
828.921	0.0169810
828.999	0.0170174
829.078	0.0169622
829.156	0.0170094
829.234	0.0170321
829.312	0.0170926
829.390	0.0169798
829.468	0.0168349
829.546	0.0169563
829.624	0.0169217
829.703	0.0169691
829.781	0.0169981
829.859	0.0168362
829.937	0.0169205
830.015	0.0168619
830.093	0.0166467
830.171	0.0166391
830.249	0.0166528
830.328	0.0166801
830.406	0.0166084
830.484	0.0165805
830.562	0.0164027
830.640	0.0162643
830.718	0.0160850
830.796	0.0161377
830.874	0.0160545
830.953	0.0159579
831.031	0.0158052
831.109	0.0157111
831.187	0.0157474
831.265	0.0155953
831.343	0.0156548
831.421	0.0157436
831.499	0.0156231
831.578	0.0156409
831.656	0.0157556
831.734	0.0158554
831.812	0.0158913
831.890	0.0159869
831.968	0.0158569
832.046	0.0160545
832.124	0.0161748
832.203	0.0161034
832.281	0.0160919
832.359	0.0162096
832.437	0.0162910
832.515	0.0162787
832.593	0.0163537
832.671	0.0163367
832.749	0.0161820
832.828	0.0160812
832.906	0.0161295
832.984	0.0160954
833.062	0.0160260
833.140	0.0161120
833.218	0.0161515
833.296	0.0161716
833.374	0.0159930
833.453	0.0160982
833.531	0.0162338
833.609	0.0161825
833.687	0.0163293
833.765	0.0165561
833.843	0.0163945
833.921	0.0164436
833.999	0.0165453
834.078	0.0165307
834.156	0.0165998
834.234	0.0166239
834.312	0.0166479
834.390	0.0166763
834.468	0.0167159
834.546	0.0166840
834.624	0.0166118
834.703	0.0167152
834.781	0.0167804
834.859	0.0167141
834.937	0.0167468
835.015	0.0167453
835.093	0.0166905
835.171	0.0167470
835.249	0.0167223
835.328	0.0165466
835.406	0.0166930
835.484	0.0166096
835.562	0.0167647
835.640	0.0165730
835.718	0.0166040
835.796	0.0165780
835.874	0.0165238
835.953	0.0166553
836.031	0.0166403
836.109	0.0165254
836.187	0.0165755
836.265	0.0165205
836.343	0.0164483
836.421	0.0164974
836.499	0.0165295
836.578	0.0163191
836.656	0.0163905
836.734	0.0163175
836.812	0.0161304
836.890	0.0162848
836.968	0.0162371
837.046	0.0161824
837.124	0.0161217
837.203	0.0159910
837.281	0.0161476
837.359	0.0160330
837.437	0.0158327
837.515	0.0157999
837.593	0.0160043
837.671	0.0159359
837.749	0.0158470
837.828	0.0159622
837.906	0.0158985
837.984	0.0158391
838.062	0.0159064
838.140	0.0160081
838.218	0.0159769
838.296	0.0159284
838.374	0.0157767
838.453	0.0159908
838.531	0.0161330
838.609	0.0159100
838.687	0.0159605
838.765	0.0158360
838.843	0.0159521
838.921	0.0159573
838.999	0.0160350
839.078	0.0160655
839.156	0.0161768
839.234	0.0163094
839.312	0.0163326
839.390	0.0164081
839.468	0.0163687
839.546	0.0164613
839.624	0.0163255
839.703	0.0164094
839.781	0.0165363
839.859	0.0164799
839.937	0.0164938
840.015	0.0165740
840.093	0.0164999
840.171	0.0164225
840.249	0.0163377
840.328	0.0164740
840.406	0.0163622
840.484	0.0163469
840.562	0.0162648
840.640	0.0162086
840.718	0.0162801
840.796	0.0163480
840.874	0.0161234
840.953	0.0161845
841.031	0.0161327
841.109	0.0161014
841.187	0.0164098
841.265	0.0164237
841.343	0.0164198
841.421	0.0164483
841.499	0.0164959
841.578	0.0165092
841.656	0.0166962
841.734	0.0168039
841.812	0.0167513
841.890	0.0169067
841.968	0.0167897
842.046	0.0168735
842.124	0.0169282
842.203	0.0169878
842.281	0.0168475
842.359	0.0167927
842.437	0.0168166
842.515	0.0167704
842.593	0.0167631
842.671	0.0165193
842.749	0.0164441
842.828	0.0165569
842.906	0.0164805
842.984	0.0162403
843.062	0.0161967
843.140	0.0159479
843.218	0.0158360
843.296	0.0159586
843.374	0.0158922
843.453	0.0157695
843.531	0.0156699
843.609	0.0156970
843.687	0.0154964
843.765	0.0155434
843.843	0.0156611
843.921	0.0156669
843.999	0.0155185
844.078	0.0155257
844.156	0.0157170
844.234	0.0157018
844.312	0.0157253
844.390	0.0159035
844.468	0.0161031
844.546	0.0158047
844.624	0.0160835
844.703	0.0160998
844.781	0.0161443
844.859	0.0162868
844.937	0.0162055
845.015	0.0162109
845.093	0.0162772
845.171	0.0164063
845.249	0.0164612
845.328	0.0164392
845.406	0.0165055
845.484	0.0165562
845.562	0.0165852
845.640	0.0166204
845.718	0.0164943
845.796	0.0166740
845.874	0.0166997
845.953	0.0167471
846.031	0.0166924
846.109	0.0166966
846.187	0.0166973
846.265	0.0165572
846.343	0.0165208
846.421	0.0165466
846.499	0.0165701
846.578	0.0164825
846.656	0.0165551
846.734	0.0164883
846.812	0.0163766
846.890	0.0163919
846.968	0.0164317
847.046	0.0164391
847.124	0.0162917
847.203	0.0162428
847.281	0.0163519
847.359	0.0161430
847.437	0.0162092
847.515	0.0162449
847.593	0.0163132
847.671	0.0163866
847.749	0.0162522
847.828	0.0164729
847.906	0.0163726
847.984	0.0163512
848.062	0.0165038
848.140	0.0165067
848.218	0.0164055
848.296	0.0163773
848.374	0.0166012
848.453	0.0166022
848.531	0.0165269
848.609	0.0165315
848.687	0.0165437
848.765	0.0167332
848.843	0.0166975
848.921	0.0166969
848.999	0.0167082
849.078	0.0167085
849.156	0.0166607
849.234	0.0165230
849.312	0.0165379
849.390	0.0165227
849.468	0.0163444
849.546	0.0162202
849.624	0.0161266
849.703	0.0159700
849.781	0.0160473
849.859	0.0160684
849.937	0.0159727
850.015	0.0157188
850.093	0.0159018
850.171	0.0158003
850.249	0.0158794
850.328	0.0157066
850.406	0.0158774
850.484	0.0159000
850.562	0.0159856
850.640	0.0159570
850.718	0.0160023
850.796	0.0161555
850.874	0.0161637
850.953	0.0159418
851.031	0.0160449
851.109	0.0162807
851.187	0.0161633
851.265	0.0161947
851.343	0.0164085
851.421	0.0164537
851.499	0.0163101
851.578	0.0164230
851.656	0.0165771
851.734	0.0164453
851.812	0.0164079
851.890	0.0166148
851.968	0.0166126
852.046	0.0166513
852.124	0.0166426
852.203	0.0168047
852.281	0.0164687
852.359	0.0166722
852.437	0.0166562
852.515	0.0166480
852.593	0.0166892
852.671	0.0165414
852.749	0.0165901
852.828	0.0166292
852.906	0.0163760
852.984	0.0164738
853.062	0.0164297
853.140	0.0164204
853.218	0.0164924
853.296	0.0163140
853.374	0.0162894
853.453	0.0162732
853.531	0.0162064
853.609	0.0163001
853.687	0.0161604
853.765	0.0161748
853.843	0.0161785
853.921	0.0161700
853.999	0.0162083
854.078	0.0163061
854.156	0.0162244
854.234	0.0163087
854.312	0.0162911
854.390	0.0164653
854.468	0.0164858
854.546	0.0165114
854.624	0.0166706
854.703	0.0165695
854.781	0.0165585
854.859	0.0166795
854.937	0.0167729
855.015	0.0167172
855.093	0.0167344
855.171	0.0168476
855.249	0.0166859
855.328	0.0166068
855.406	0.0165303
855.484	0.0165877
855.562	0.0165662
855.640	0.0164399
855.718	0.0163692
855.796	0.0162791
855.874	0.0161703
855.953	0.0161683
856.031	0.0161438
856.109	0.0160670
856.187	0.0159754
856.265	0.0159920
856.343	0.0159399
856.421	0.0159979
856.499	0.0160213
856.578	0.0159042
856.656	0.0159019
856.734	0.0159892
856.812	0.0161314
856.890	0.0160921
856.968	0.0160946
857.046	0.0161243
857.124	0.0161329
857.203	0.0161626
857.281	0.0161432
857.359	0.0163134
857.437	0.0161436
857.515	0.0163084
857.593	0.0160608
857.671	0.0161198
857.749	0.0161154
857.828	0.0159274
857.906	0.0161245
857.984	0.0162205
858.062	0.0161276
858.140	0.0162236
858.218	0.0163291
858.296	0.0163376
858.374	0.0162379
858.453	0.0163007
858.531	0.0163167
858.609	0.0164616
858.687	0.0164368
858.765	0.0163399
858.843	0.0164549
858.921	0.0164519
858.999	0.0163116
859.078	0.0164237
859.156	0.0165245
859.234	0.0165007
859.312	0.0163438
859.390	0.0163507
859.468	0.0164012
859.546	0.0164299
859.624	0.0163526
859.703	0.0163448
859.781	0.0163848
859.859	0.0162211
859.937	0.0161514
860.015	0.0161836
860.093	0.0161218
860.171	0.0161127
860.249	0.0161723
860.328	0.0159624
860.406	0.0160501
860.484	0.0161180
860.562	0.0161423
860.640	0.0161506
860.718	0.0161645
860.796	0.0162554
860.874	0.0163181
860.953	0.0163116
861.031	0.0163364
861.109	0.0164759
861.187	0.0163502
861.265	0.0164844
861.343	0.0164516
861.421	0.0164662
861.499	0.0165304
861.578	0.0164230
861.656	0.0164763
861.734	0.0165286
861.812	0.0163859
861.890	0.0164390
861.968	0.0165813
862.046	0.0163934
862.124	0.0164601
862.203	0.0164426
862.281	0.0163464
862.359	0.0162575
862.437	0.0162788
862.515	0.0164159
862.593	0.0162065
862.671	0.0162126
862.749	0.0161727
862.828	0.0158975
862.906	0.0159760
862.984	0.0160664
863.062	0.0160220
863.140	0.0160073
863.218	0.0158728
863.296	0.0158491
863.374	0.0159199
863.453	0.0159652
863.531	0.0159190
863.609	0.0159677
863.687	0.0159933
863.765	0.0160611
863.843	0.0161292
863.921	0.0160363
863.999	0.0160910
864.078	0.0160336
864.156	0.0162508
864.234	0.0162369
864.312	0.0162294
864.390	0.0161055
864.468	0.0160789
864.546	0.0161884
864.624	0.0163676
864.703	0.0162926
864.781	0.0163518
864.859	0.0162111
864.937	0.0163911
865.015	0.0162228
865.093	0.0162529
865.171	0.0162273
865.249	0.0162687
865.328	0.0162678
865.406	0.0162497
865.484	0.0162505
865.562	0.0162531
865.640	0.0163467
865.718	0.0162212
865.796	0.0162065
865.874	0.0162822
865.953	0.0160738
866.031	0.0162846
866.109	0.0163403
866.187	0.0163026
866.265	0.0162386
866.343	0.0163625
866.421	0.0162199
866.499	0.0160854
866.578	0.0161331
866.656	0.0162223
866.734	0.0161722
866.812	0.0163101
866.890	0.0161428
866.968	0.0162830
867.046	0.0163004
867.124	0.0163835
867.203	0.0164101
867.281	0.0165067
867.359	0.0163976
867.437	0.0165948
867.515	0.0166754
867.593	0.0165334
867.671	0.0165711
867.749	0.0166119
867.828	0.0165415
867.906	0.0164650
867.984	0.0166441
868.062	0.0164107
868.140	0.0164969
868.218	0.0164352
868.296	0.0164482
868.374	0.0165037
868.453	0.0165555
868.531	0.0164681
868.609	0.0163582
868.687	0.0163277
868.765	0.0164522
868.843	0.0163039
868.921	0.0161824
868.999	0.0162768
869.078	0.0160928
869.156	0.0159547
869.234	0.0161048
869.312	0.0159486
869.390	0.0160110
869.468	0.0158358
869.546	0.0159341
869.624	0.0159909
869.703	0.0160580
869.781	0.0159838
869.859	0.0161102
869.937	0.0161028
870.015	0.0160683
870.093	0.0162786
870.171	0.0160889
870.249	0.0162054
870.328	0.0163341
870.406	0.0164488
870.484	0.0164473
870.562	0.0165292
870.640	0.0164920
870.718	0.0166508
870.796	0.0164624
870.874	0.0165459
870.953	0.0166708
871.031	0.0166572
871.109	0.0166002
871.187	0.0165659
871.265	0.0165582
871.343	0.0166589
871.421	0.0166460
871.499	0.0166666
871.578	0.0166211
871.656	0.0165412
871.734	0.0166727
871.812	0.0163237
871.890	0.0163663
871.968	0.0165264
872.046	0.0165179
872.124	0.0163722
872.203	0.0165174
872.281	0.0162682
872.359	0.0163615
872.437	0.0162051
872.515	0.0162020
872.593	0.0161671
872.671	0.0161102
872.749	0.0162014
872.828	0.0160883
872.906	0.0161842
872.984	0.0159624
873.062	0.0161723
873.140	0.0160731
873.218	0.0161446
873.296	0.0162048
873.374	0.0162412
873.453	0.0161857
873.531	0.0162981
873.609	0.0161585
873.687	0.0162962
873.765	0.0164549
873.843	0.0162981
873.921	0.0164697
873.999	0.0163375
874.078	0.0164932
874.156	0.0165179
874.234	0.0165236
874.312	0.0166792
874.390	0.0167342
874.468	0.0168156
874.546	0.0167442
874.624	0.0167796
874.703	0.0168625
874.781	0.0168228
874.859	0.0168792
874.937	0.0167896
875.015	0.0167037
875.093	0.0166879
875.171	0.0167013
875.249	0.0165636
875.328	0.0165539
875.406	0.0164606
875.484	0.0163722
875.562	0.0163539
875.640	0.0161367
875.718	0.0163595
875.796	0.0162872
875.874	0.0160265
875.953	0.0159410
876.031	0.0160802
876.109	0.0160713
876.187	0.0161048
876.265	0.0160261
876.343	0.0159991
876.421	0.0158541
876.499	0.0159972
876.578	0.0160342
876.656	0.0160035
876.734	0.0159408
876.812	0.0159949
876.890	0.0160174
876.968	0.0160385
877.046	0.0162063
877.124	0.0161760
877.203	0.0163142
877.281	0.0162158
877.359	0.0162424
877.437	0.0163754
877.515	0.0163844
877.593	0.0165076
877.671	0.0166273
877.749	0.0167571
877.828	0.0167732
877.906	0.0167557
877.984	0.0167221
878.062	0.0166769
878.140	0.0167706
878.218	0.0168107
878.296	0.0167509
878.374	0.0167898
878.453	0.0165304
878.531	0.0165420
878.609	0.0166134
878.687	0.0164782
878.765	0.0163276
878.843	0.0163246
878.921	0.0165028
878.999	0.0165054
879.078	0.0163512
879.156	0.0162977
879.234	0.0161522
879.312	0.0161652
879.390	0.0162805
879.468	0.0161384
879.546	0.0160384
879.624	0.0161148
879.703	0.0161101
879.781	0.0160226
879.859	0.0162298
879.937	0.0160661
880.015	0.0160855
880.093	0.0160607
880.171	0.0159413
880.249	0.0160968
880.328	0.0160659
880.406	0.0160831
880.484	0.0160752
880.562	0.0160876
880.640	0.0161147
880.718	0.0159967
880.796	0.0161061
880.874	0.0161676
880.953	0.0160703
881.031	0.0161752
881.109	0.0161634
881.187	0.0161504
881.265	0.0162255
881.343	0.0162984
881.421	0.0161608
881.499	0.0163714
881.578	0.0162761
881.656	0.0163664
881.734	0.0164206
881.812	0.0164960
881.890	0.0163555
881.968	0.0165760
882.046	0.0165372
882.124	0.0164159
882.203	0.0165115
882.281	0.0164245
882.359	0.0164074
882.437	0.0163538
882.515	0.0162920
882.593	0.0163681
882.671	0.0162658
882.749	0.0160085
882.828	0.0160666
882.906	0.0161636
882.984	0.0162467
883.062	0.0161578
883.140	0.0160864
883.218	0.0160690
883.296	0.0159758
883.374	0.0159587
883.453	0.0162366
883.531	0.0161455
883.609	0.0161754
883.687	0.0162301
883.765	0.0161446
883.843	0.0162466
883.921	0.0162465
883.999	0.0162437
884.078	0.0162723
884.156	0.0161639
884.234	0.0162553
884.312	0.0165507
884.390	0.0162704
884.468	0.0162991
884.546	0.0164525
884.624	0.0163443
884.703	0.0164048
884.781	0.0164838
884.859	0.0163681
884.937	0.0163642
885.015	0.0165295
885.093	0.0164016
885.171	0.0163699
885.249	0.0163171
885.328	0.0164669
885.406	0.0164233
885.484	0.0164424
885.562	0.0162621
885.640	0.0163636
885.718	0.0164191
885.796	0.0165501
885.874	0.0164925
885.953	0.0165266
886.031	0.0162965
886.109	0.0162117
886.187	0.0161497
886.265	0.0163010
886.343	0.0162149
886.421	0.0161213
886.499	0.0162164
886.578	0.0161326
886.656	0.0160413
886.734	0.0163345
886.812	0.0161219
886.890	0.0160988
886.968	0.0161060
887.046	0.0162818
887.124	0.0160994
887.203	0.0160297
887.281	0.0159767
887.359	0.0161154
887.437	0.0161446
887.515	0.0159586
887.593	0.0161322
887.671	0.0160719
887.749	0.0161385
887.828	0.0162056
887.906	0.0162470
887.984	0.0161948
888.062	0.0161939
888.140	0.0163229
888.218	0.0163317
888.296	0.0163827
888.374	0.0164045
888.453	0.0163362
888.531	0.0163225
888.609	0.0164411
888.687	0.0164690
888.765	0.0163676
888.843	0.0163716
888.921	0.0162514
888.999	0.0162939
889.078	0.0162778
889.156	0.0163644
889.234	0.0163622
889.312	0.0162456
889.390	0.0161677
889.468	0.0161597
889.546	0.0163096
889.624	0.0162185
889.703	0.0162908
889.781	0.0163245
889.859	0.0162485
889.937	0.0163206
890.015	0.0161484
890.093	0.0161164
890.171	0.0162348
890.249	0.0162699
890.328	0.0162334
890.406	0.0162273
890.484	0.0162627
890.562	0.0163082
890.640	0.0162361
890.718	0.0163598
890.796	0.0165078
890.874	0.0163630
890.953	0.0163720
891.031	0.0163794
891.109	0.0163634
891.187	0.0163032
891.265	0.0162890
891.343	0.0163438
891.421	0.0162934
891.499	0.0164307
891.578	0.0164211
891.656	0.0163404
891.734	0.0163074
891.812	0.0163924
891.890	0.0163517
891.968	0.0163113
892.046	0.0164272
892.124	0.0162438
892.203	0.0163387
892.281	0.0163329
892.359	0.0163694
892.437	0.0163278
892.515	0.0162528
892.593	0.0160437
892.671	0.0162029
892.749	0.0161846
892.828	0.0163652
892.906	0.0162428
892.984	0.0160840
893.062	0.0160470
893.140	0.0162064
893.218	0.0163287
893.296	0.0163087
893.374	0.0162437
893.453	0.0162416
893.531	0.0162299
893.609	0.0163317
893.687	0.0164584
893.765	0.0162975
893.843	0.0161869
893.921	0.0164203
893.999	0.0163763
894.078	0.0163586
894.156	0.0164896
894.234	0.0164797
894.312	0.0164136
894.390	0.0165044
894.468	0.0165813
894.546	0.0165169
894.624	0.0164466
894.703	0.0164598
894.781	0.0164196
894.859	0.0165405
894.937	0.0165693
895.015	0.0165981
895.093	0.0164325
895.171	0.0164151
895.249	0.0165665
895.328	0.0163569
895.406	0.0161990
895.484	0.0163322
895.562	0.0162807
895.640	0.0163828
895.718	0.0163467
895.796	0.0161916
895.874	0.0162411
895.953	0.0162910
896.031	0.0163329
896.109	0.0163258
896.187	0.0164501
896.265	0.0162655
896.343	0.0162421
896.421	0.0163136
896.499	0.0163328
896.578	0.0162480
896.656	0.0161438
896.734	0.0161629
896.812	0.0162414
896.890	0.0162663
896.968	0.0162003
897.046	0.0163033
897.124	0.0162488
897.203	0.0160981
897.281	0.0160996
897.359	0.0161523
897.437	0.0162523
897.515	0.0161148
897.593	0.0161538
897.671	0.0162296
897.749	0.0163190
897.828	0.0162421
897.906	0.0162234
897.984	0.0163070
898.062	0.0164082
898.140	0.0163366
898.218	0.0163120
898.296	0.0163234
898.374	0.0167236
898.453	0.0166377
898.531	0.0165265
898.609	0.0164455
898.687	0.0163296
898.765	0.0162788
898.843	0.0163840
898.921	0.0163506
898.999	0.0163633
899.078	0.0162066
899.156	0.0162045
899.234	0.0163261
899.312	0.0162394
899.390	0.0162866
899.468	0.0162556
899.546	0.0161024
899.624	0.0162950
899.703	0.0163085
899.781	0.0161094
899.859	0.0162016
899.937	0.0161735
900.015	0.0162223
900.093	0.0162930
900.171	0.0162888
900.249	0.0164037
900.328	0.0164008
900.406	0.0164057
900.484	0.0163782
900.562	0.0165546
900.640	0.0165286
900.718	0.0164760
900.796	0.0165506
900.874	0.0165215
900.953	0.0166754
901.031	0.0164769
901.109	0.0165715
901.187	0.0165749
901.265	0.0165635
901.343	0.0164581
901.421	0.0166315
901.499	0.0165003
901.578	0.0165752
901.656	0.0164712
901.734	0.0163258
901.812	0.0162788
901.890	0.0163324
901.968	0.0162443
902.046	0.0162927
902.124	0.0162001
902.203	0.0162411
902.281	0.0162221
902.359	0.0162408
902.437	0.0160595
902.515	0.0162335
902.593	0.0161819
902.671	0.0162395
902.749	0.0161932
902.828	0.0161641
902.906	0.0161771
902.984	0.0161141
903.062	0.0162562
903.140	0.0161779
903.218	0.0161623
903.296	0.0162232
903.374	0.0162663
903.453	0.0161570
903.531	0.0161869
903.609	0.0162884
903.687	0.0163313
903.765	0.0164014
903.843	0.0163474
903.921	0.0163187
903.999	0.0163125
904.078	0.0163732
904.156	0.0162542
904.234	0.0163720
904.312	0.0163188
904.390	0.0161961
904.468	0.0164004
904.546	0.0163177
904.624	0.0163740
904.703	0.0162392
904.781	0.0163664
904.859	0.0163529
904.937	0.0163226
905.015	0.0163168
905.093	0.0163474
905.171	0.0163400
905.249	0.0162491
905.328	0.0163529
905.406	0.0162381
905.484	0.0162046
905.562	0.0162187
905.640	0.0162304
905.718	0.0162396
905.796	0.0162959
905.874	0.0161151
905.953	0.0162469
906.031	0.0162108
906.109	0.0163451
906.187	0.0161700
906.265	0.0164365
906.343	0.0163886
906.421	0.0163067
906.499	0.0164847
906.578	0.0163604
906.656	0.0164589
906.734	0.0164326
906.812	0.0163961
906.890	0.0165353
906.968	0.0165585
907.046	0.0166106
907.124	0.0163734
907.203	0.0164124
907.281	0.0165524
907.359	0.0164569
907.437	0.0163113
907.515	0.0164707
907.593	0.0165646
907.671	0.0164571
907.749	0.0163795
907.828	0.0164437
907.906	0.0163994
907.984	0.0162835
908.062	0.0163621
908.140	0.0164159
908.218	0.0164471
908.296	0.0164243
908.374	0.0164689
908.453	0.0164931
908.531	0.0164609
908.609	0.0163898
908.687	0.0163776
908.765	0.0164677
908.843	0.0163818
908.921	0.0163876
908.999	0.0163828
909.078	0.0161145
909.156	0.0163014
909.234	0.0163934
909.312	0.0162454
909.390	0.0161553
909.468	0.0161027
909.546	0.0161662
909.624	0.0161713
909.703	0.0160822
909.781	0.0161491
909.859	0.0162315
909.937	0.0162305
910.015	0.0162368
910.093	0.0161858
910.171	0.0161577
910.249	0.0161864
910.328	0.0163467
910.406	0.0162277
910.484	0.0164099
910.562	0.0163307
910.640	0.0163251
910.718	0.0162994
910.796	0.0162018
910.874	0.0161170
910.953	0.0162499
911.031	0.0164176
911.109	0.0162558
911.187	0.0161703
911.265	0.0162379
911.343	0.0162056
911.421	0.0160853
911.499	0.0161072
911.578	0.0161957
911.656	0.0161841
911.734	0.0159904
911.812	0.0162363
911.890	0.0163210
911.968	0.0162431
912.046	0.0161024
912.124	0.0161886
912.203	0.0161347
912.281	0.0159592
912.359	0.0160807
912.437	0.0161983
912.515	0.0161756
912.593	0.0162215
912.671	0.0160910
912.749	0.0161581
912.828	0.0162373
912.906	0.0161819
912.984	0.0162003
913.062	0.0161939
913.140	0.0164453
913.218	0.0164405
913.296	0.0163520
913.374	0.0164807
913.453	0.0167472
913.531	0.0167278
913.609	0.0166599
913.687	0.0166394
913.765	0.0165898
913.843	0.0166143
913.921	0.0167350
913.999	0.0166110
914.078	0.0165467
914.156	0.0166579
914.234	0.0166121
914.312	0.0166107
914.390	0.0166259
914.468	0.0166344
914.546	0.0164900
914.624	0.0166069
914.703	0.0164529
914.781	0.0163444
914.859	0.0163589
914.937	0.0163298
915.015	0.0163313
915.093	0.0163090
915.171	0.0164080
915.249	0.0162162
915.328	0.0162299
915.406	0.0162326
915.484	0.0162508
915.562	0.0161234
915.640	0.0160905
915.718	0.0160440
915.796	0.0159636
915.874	0.0159615
915.953	0.0159996
916.031	0.0160252
916.109	0.0161655
916.187	0.0159021
916.265	0.0158636
916.343	0.0159816
916.421	0.0159811
916.499	0.0158895
916.578	0.0159132
916.656	0.0159253
916.734	0.0160666
916.812	0.0160735
916.890	0.0159402
916.968	0.0159233
917.046	0.0158945
917.124	0.0160439
917.203	0.0162075
917.281	0.0161017
917.359	0.0160850
917.437	0.0161238
917.515	0.0161079
917.593	0.0160790
917.671	0.0160339
917.749	0.0162926
917.828	0.0163280
917.906	0.0162257
917.984	0.0162976
918.062	0.0163634
918.140	0.0163594
918.218	0.0165460
918.296	0.0163939
918.374	0.0164326
918.453	0.0164993
918.531	0.0165376
918.609	0.0164753
918.687	0.0164892
918.765	0.0163578
918.843	0.0163596
918.921	0.0161950
918.999	0.0162548
919.078	0.0162811
919.156	0.0161991
919.234	0.0162067
919.312	0.0162722
919.390	0.0162151
919.468	0.0163467
919.546	0.0161732
919.624	0.0159798
919.703	0.0161115
919.781	0.0161994
919.859	0.0161349
919.937	0.0161749
