06/10/2022	18:50:30	Ver.	4.1	UNKNOWN
Optical Delay	600.015094	Delta X		0.078125	Sweeps	1	Scan Rate	0/0
Coordinates	Axis 1	NaN	Axis 2	NaN	Axis 3	NaN	Axis 4	NaN	Axis 5	NaN	Axis 6	0.000000
TX Power	0.000000	RX Power	0.000000

600.015	0.0165606
600.093	0.0167992
600.171	0.0166043
600.249	0.0165948
600.328	0.0167213
600.406	0.0166168
600.484	0.0165699
600.562	0.0166759
600.640	0.0167469
600.718	0.0166457
600.796	0.0166364
600.874	0.0167421
600.953	0.0167445
601.031	0.0165597
601.109	0.0165993
601.187	0.0167867
601.265	0.0166903
601.343	0.0166235
601.421	0.0165534
601.499	0.0166556
601.578	0.0166371
601.656	0.0165577
601.734	0.0165668
601.812	0.0166004
601.890	0.0165376
601.968	0.0166870
602.046	0.0166319
602.124	0.0165720
602.203	0.0165907
602.281	0.0166254
602.359	0.0166898
602.437	0.0165158
602.515	0.0165634
602.593	0.0165882
602.671	0.0166088
602.749	0.0165694
602.828	0.0164236
602.906	0.0166695
602.984	0.0166322
603.062	0.0165717
603.140	0.0167074
603.218	0.0166787
603.296	0.0166373
603.374	0.0165019
603.453	0.0166260
603.531	0.0165720
603.609	0.0166757
603.687	0.0166292
603.765	0.0166566
603.843	0.0166156
603.921	0.0166870
603.999	0.0166311
604.078	0.0165910
604.156	0.0166060
604.234	0.0165472
604.312	0.0166240
604.390	0.0166442
604.468	0.0165863
604.546	0.0166119
604.624	0.0166323
604.703	0.0165562
604.781	0.0166090
604.859	0.0163268
604.937	0.0166169
605.015	0.0165366
605.093	0.0163181
605.171	0.0165776
605.249	0.0166302
605.328	0.0165974
605.406	0.0165012
605.484	0.0164459
605.562	0.0163945
605.640	0.0164180
605.718	0.0164487
605.796	0.0163468
605.874	0.0164549
605.953	0.0164911
606.031	0.0165816
606.109	0.0165019
606.187	0.0165443
606.265	0.0165769
606.343	0.0166087
606.421	0.0164909
606.499	0.0164195
606.578	0.0165925
606.656	0.0165593
606.734	0.0165178
606.812	0.0164875
606.890	0.0164529
606.968	0.0165795
607.046	0.0167126
607.124	0.0165110
607.203	0.0166155
607.281	0.0164629
607.359	0.0165295
607.437	0.0166490
607.515	0.0166017
607.593	0.0164554
607.671	0.0166504
607.749	0.0165578
607.828	0.0163815
607.906	0.0165725
607.984	0.0166811
608.062	0.0164912
608.140	0.0165692
608.218	0.0166637
608.296	0.0165195
608.374	0.0165754
608.453	0.0164931
608.531	0.0165627
608.609	0.0166624
608.687	0.0165431
608.765	0.0166157
608.843	0.0166121
608.921	0.0165260
608.999	0.0165756
609.078	0.0165662
609.156	0.0165298
609.234	0.0165760
609.312	0.0165611
609.390	0.0165419
609.468	0.0165046
609.546	0.0165684
609.624	0.0166491
609.703	0.0165400
609.781	0.0166226
609.859	0.0166529
609.937	0.0165412
610.015	0.0165713
610.093	0.0164892
610.171	0.0167064
610.249	0.0165802
610.328	0.0166350
610.406	0.0165402
610.484	0.0166437
610.562	0.0166357
610.640	0.0164937
610.718	0.0165433
610.796	0.0167440
610.874	0.0166243
610.953	0.0166204
611.031	0.0165023
611.109	0.0164597
611.187	0.0166095
611.265	0.0166004
611.343	0.0165529
611.421	0.0165218
611.499	0.0165099
611.578	0.0166187
611.656	0.0165170
611.734	0.0165041
611.812	0.0165902
611.890	0.0165923
611.968	0.0167095
612.046	0.0165781
612.124	0.0165592
612.203	0.0165189
612.281	0.0165224
612.359	0.0166588
612.437	0.0166152
612.515	0.0166768
612.593	0.0166413
612.671	0.0166682
612.749	0.0166145
612.828	0.0165552
612.906	0.0165735
612.984	0.0166744
613.062	0.0167368
613.140	0.0166772
613.218	0.0165095
613.296	0.0165301
613.374	0.0166547
613.453	0.0165697
613.531	0.0165827
613.609	0.0165664
613.687	0.0166324
613.765	0.0165934
613.843	0.0164373
613.921	0.0163972
613.999	0.0167076
614.078	0.0166216
614.156	0.0165543
614.234	0.0165391
614.312	0.0166075
614.390	0.0165930
614.468	0.0164265
614.546	0.0166592
614.624	0.0165112
614.703	0.0165429
614.781	0.0166716
614.859	0.0167209
614.937	0.0166514
615.015	0.0165723
615.093	0.0165975
615.171	0.0165918
615.249	0.0165885
615.328	0.0166237
615.406	0.0166424
615.484	0.0165791
615.562	0.0166381
615.640	0.0165437
615.718	0.0167155
615.796	0.0166487
615.874	0.0165569
615.953	0.0165500
616.031	0.0167194
616.109	0.0164767
616.187	0.0165329
616.265	0.0166370
616.343	0.0166372
616.421	0.0167318
616.499	0.0164702
616.578	0.0165904
616.656	0.0167054
616.734	0.0165887
616.812	0.0165497
616.890	0.0166201
616.968	0.0166229
617.046	0.0166179
617.124	0.0165073
617.203	0.0166286
617.281	0.0166443
617.359	0.0166116
617.437	0.0165614
617.515	0.0165431
617.593	0.0166566
617.671	0.0167197
617.749	0.0166241
617.828	0.0166028
617.906	0.0166789
617.984	0.0164494
618.062	0.0164751
618.140	0.0166705
618.218	0.0165649
618.296	0.0165527
618.374	0.0165192
618.453	0.0166977
618.531	0.0166763
618.609	0.0164809
618.687	0.0166312
618.765	0.0167103
618.843	0.0165562
618.921	0.0166302
618.999	0.0165907
619.078	0.0167653
619.156	0.0165383
619.234	0.0164368
619.312	0.0166248
619.390	0.0166949
619.468	0.0165240
619.546	0.0164941
619.624	0.0165413
619.703	0.0166788
619.781	0.0166152
619.859	0.0166184
619.937	0.0165480
620.015	0.0166158
620.093	0.0166478
620.171	0.0165714
620.249	0.0166460
620.328	0.0165113
620.406	0.0165316
620.484	0.0165874
620.562	0.0165634
620.640	0.0166817
620.718	0.0164906
620.796	0.0166243
620.874	0.0165803
620.953	0.0166650
621.031	0.0165695
621.109	0.0164478
621.187	0.0166970
621.265	0.0166080
621.343	0.0164572
621.421	0.0167104
621.499	0.0165594
621.578	0.0165906
621.656	0.0166421
621.734	0.0165238
621.812	0.0165495
621.890	0.0165343
621.968	0.0164597
622.046	0.0164672
622.124	0.0165783
622.203	0.0165908
622.281	0.0166785
622.359	0.0164337
622.437	0.0164694
622.515	0.0165281
622.593	0.0165546
622.671	0.0164643
622.749	0.0164141
622.828	0.0165627
622.906	0.0164883
622.984	0.0165866
623.062	0.0164585
623.140	0.0164400
623.218	0.0165212
623.296	0.0165482
623.374	0.0166785
623.453	0.0165105
623.531	0.0166128
623.609	0.0165317
623.687	0.0164652
623.765	0.0164619
623.843	0.0166432
623.921	0.0165896
623.999	0.0165472
624.078	0.0165794
624.156	0.0165968
624.234	0.0164659
624.312	0.0165208
624.390	0.0167004
624.468	0.0164693
624.546	0.0165752
624.624	0.0165321
624.703	0.0165392
624.781	0.0165376
624.859	0.0165952
624.937	0.0164593
625.015	0.0165817
625.093	0.0165004
625.171	0.0164759
625.249	0.0165659
625.328	0.0164754
625.406	0.0164587
625.484	0.0164932
625.562	0.0166216
625.640	0.0167033
625.718	0.0164917
625.796	0.0166317
625.874	0.0165881
625.953	0.0164696
626.031	0.0164457
626.109	0.0165216
626.187	0.0165432
626.265	0.0165970
626.343	0.0164626
626.421	0.0165463
626.499	0.0164619
626.578	0.0165160
626.656	0.0164365
626.734	0.0163908
626.812	0.0165813
626.890	0.0166325
626.968	0.0165276
627.046	0.0165473
627.124	0.0165768
627.203	0.0165679
627.281	0.0165081
627.359	0.0164656
627.437	0.0165656
627.515	0.0164675
627.593	0.0164641
627.671	0.0165227
627.749	0.0166355
627.828	0.0164301
627.906	0.0166699
627.984	0.0165649
628.062	0.0165089
628.140	0.0166035
628.218	0.0165988
628.296	0.0166792
628.374	0.0164160
628.453	0.0165446
628.531	0.0165715
628.609	0.0165703
628.687	0.0166162
628.765	0.0164741
628.843	0.0166706
628.921	0.0164629
628.999	0.0165047
629.078	0.0164563
629.156	0.0165220
629.234	0.0166225
629.312	0.0166016
629.390	0.0166575
629.468	0.0165088
629.546	0.0167283
629.624	0.0166137
629.703	0.0165791
629.781	0.0164726
629.859	0.0165646
629.937	0.0165854
630.015	0.0165630
630.093	0.0165745
630.171	0.0164946
630.249	0.0165428
630.328	0.0166233
630.406	0.0164703
630.484	0.0165538
630.562	0.0165340
630.640	0.0165900
630.718	0.0165176
630.796	0.0165912
630.874	0.0165455
630.953	0.0164275
631.031	0.0166403
631.109	0.0166729
631.187	0.0165932
631.265	0.0165299
631.343	0.0165120
631.421	0.0163580
631.499	0.0163956
631.578	0.0166426
631.656	0.0165335
631.734	0.0165215
631.812	0.0167563
631.890	0.0165973
631.968	0.0165774
632.046	0.0165498
632.124	0.0165820
632.203	0.0165862
632.281	0.0164975
632.359	0.0165125
632.437	0.0166059
632.515	0.0165959
632.593	0.0166326
632.671	0.0164993
632.749	0.0165808
632.828	0.0166217
632.906	0.0164681
632.984	0.0167448
633.062	0.0165653
633.140	0.0165132
633.218	0.0166199
633.296	0.0166294
633.374	0.0166552
633.453	0.0165125
633.531	0.0167205
633.609	0.0165511
633.687	0.0164457
633.765	0.0164716
633.843	0.0164977
633.921	0.0165863
633.999	0.0166444
634.078	0.0165390
634.156	0.0166659
634.234	0.0167640
634.312	0.0166571
634.390	0.0167173
634.468	0.0165125
634.546	0.0164870
634.624	0.0164801
634.703	0.0165610
634.781	0.0167452
634.859	0.0164877
634.937	0.0166129
635.015	0.0165801
635.093	0.0166624
635.171	0.0165746
635.249	0.0165866
635.328	0.0167545
635.406	0.0167082
635.484	0.0165363
635.562	0.0166628
635.640	0.0167046
635.718	0.0165421
635.796	0.0165250
635.874	0.0166040
635.953	0.0167275
636.031	0.0166401
636.109	0.0165437
636.187	0.0165234
636.265	0.0167030
636.343	0.0167079
636.421	0.0165340
636.499	0.0166073
636.578	0.0166177
636.656	0.0166064
636.734	0.0167043
636.812	0.0166202
636.890	0.0166487
636.968	0.0165859
637.046	0.0166875
637.124	0.0165555
637.203	0.0165982
637.281	0.0166817
637.359	0.0165157
637.437	0.0166180
637.515	0.0165988
637.593	0.0165416
637.671	0.0165126
637.749	0.0165953
637.828	0.0166484
637.906	0.0166005
637.984	0.0165575
638.062	0.0167136
638.140	0.0167574
638.218	0.0166624
638.296	0.0164889
638.374	0.0165287
638.453	0.0166853
638.531	0.0166267
638.609	0.0165370
638.687	0.0165811
638.765	0.0166000
638.843	0.0165607
638.921	0.0165063
638.999	0.0166071
639.078	0.0166955
639.156	0.0167329
639.234	0.0166891
639.312	0.0166901
639.390	0.0165133
639.468	0.0166725
639.546	0.0166176
639.624	0.0166499
639.703	0.0164969
639.781	0.0166763
639.859	0.0166863
639.937	0.0166019
640.015	0.0166066
640.093	0.0165472
640.171	0.0166088
640.249	0.0165987
640.328	0.0165818
640.406	0.0164475
640.484	0.0166187
640.562	0.0167031
640.640	0.0166106
640.718	0.0167010
640.796	0.0165930
640.874	0.0166747
640.953	0.0167547
641.031	0.0167902
641.109	0.0165748
641.187	0.0164650
641.265	0.0166209
641.343	0.0166682
641.421	0.0168225
641.499	0.0165184
641.578	0.0164701
641.656	0.0166081
641.734	0.0165772
641.812	0.0166143
641.890	0.0165854
641.968	0.0166325
642.046	0.0166512
642.124	0.0166172
642.203	0.0167098
642.281	0.0166088
642.359	0.0164975
642.437	0.0165555
642.515	0.0166309
642.593	0.0166109
642.671	0.0164954
642.749	0.0165959
642.828	0.0166476
642.906	0.0164470
642.984	0.0165155
643.062	0.0165789
643.140	0.0165089
643.218	0.0166676
643.296	0.0165543
643.374	0.0164989
643.453	0.0165474
643.531	0.0165777
643.609	0.0166300
643.687	0.0165941
643.765	0.0164171
643.843	0.0165585
643.921	0.0166357
643.999	0.0165434
644.078	0.0165707
644.156	0.0166165
644.234	0.0165150
644.312	0.0164579
644.390	0.0165506
644.468	0.0167271
644.546	0.0165572
644.624	0.0165350
644.703	0.0165827
644.781	0.0165659
644.859	0.0166078
644.937	0.0166443
645.015	0.0165697
645.093	0.0166055
645.171	0.0164810
645.249	0.0165336
645.328	0.0165675
645.406	0.0166212
645.484	0.0165576
645.562	0.0164724
645.640	0.0165586
645.718	0.0165864
645.796	0.0165719
645.874	0.0165220
645.953	0.0165694
646.031	0.0166331
646.109	0.0166029
646.187	0.0165328
646.265	0.0165174
646.343	0.0164657
646.421	0.0166366
646.499	0.0166047
646.578	0.0166550
646.656	0.0165402
646.734	0.0165971
646.812	0.0166124
646.890	0.0165925
646.968	0.0165218
647.046	0.0164423
647.124	0.0164575
647.203	0.0165240
647.281	0.0166216
647.359	0.0165607
647.437	0.0165408
647.515	0.0165072
647.593	0.0164844
647.671	0.0165052
647.749	0.0165191
647.828	0.0166192
647.906	0.0165254
647.984	0.0165513
648.062	0.0165180
648.140	0.0164314
648.218	0.0165948
648.296	0.0165001
648.374	0.0165522
648.453	0.0164770
648.531	0.0166739
648.609	0.0164540
648.687	0.0165422
648.765	0.0164575
648.843	0.0166224
648.921	0.0167047
648.999	0.0167233
649.078	0.0166412
649.156	0.0165250
649.234	0.0165238
649.312	0.0166376
649.390	0.0165231
649.468	0.0166647
649.546	0.0166325
649.624	0.0166021
649.703	0.0166850
649.781	0.0166228
649.859	0.0166268
649.937	0.0166166
650.015	0.0167406
650.093	0.0166355
650.171	0.0166080
650.249	0.0166321
650.328	0.0165862
650.406	0.0166174
650.484	0.0165717
650.562	0.0167854
650.640	0.0166547
650.718	0.0163925
650.796	0.0165740
650.874	0.0165773
650.953	0.0165018
651.031	0.0166228
651.109	0.0165157
651.187	0.0165646
651.265	0.0166599
651.343	0.0166093
651.421	0.0166127
651.499	0.0166468
651.578	0.0164596
651.656	0.0164689
651.734	0.0167377
651.812	0.0165391
651.890	0.0164507
651.968	0.0165395
652.046	0.0165543
652.124	0.0166788
652.203	0.0166132
652.281	0.0166178
652.359	0.0165607
652.437	0.0166774
652.515	0.0165086
652.593	0.0166826
652.671	0.0166504
652.749	0.0165398
652.828	0.0165094
652.906	0.0165777
652.984	0.0165624
653.062	0.0166319
653.140	0.0165359
653.218	0.0164916
653.296	0.0165429
653.374	0.0166708
653.453	0.0166789
653.531	0.0165643
653.609	0.0165053
653.687	0.0164767
653.765	0.0165469
653.843	0.0166327
653.921	0.0165295
653.999	0.0164567
654.078	0.0165665
654.156	0.0165498
654.234	0.0166571
654.312	0.0166089
654.390	0.0164981
654.468	0.0165508
654.546	0.0165133
654.624	0.0166763
654.703	0.0167034
654.781	0.0165529
654.859	0.0165228
654.937	0.0165811
655.015	0.0165477
655.093	0.0165279
655.171	0.0164515
655.249	0.0165991
655.328	0.0165092
655.406	0.0166877
655.484	0.0166422
655.562	0.0165634
655.640	0.0165318
655.718	0.0166110
655.796	0.0165260
655.874	0.0165279
655.953	0.0164338
656.031	0.0166529
656.109	0.0165881
656.187	0.0166693
656.265	0.0165095
656.343	0.0164736
656.421	0.0166148
656.499	0.0164849
656.578	0.0166113
656.656	0.0164292
656.734	0.0164034
656.812	0.0166016
656.890	0.0165579
656.968	0.0163966
657.046	0.0164407
657.124	0.0164684
657.203	0.0164349
657.281	0.0165152
657.359	0.0166505
657.437	0.0164040
657.515	0.0163520
657.593	0.0165053
657.671	0.0165003
657.749	0.0164443
657.828	0.0164996
657.906	0.0163668
657.984	0.0164873
658.062	0.0164713
658.140	0.0164759
658.218	0.0164857
658.296	0.0164719
658.374	0.0164648
658.453	0.0165485
658.531	0.0163798
658.609	0.0164850
658.687	0.0165082
658.765	0.0164629
658.843	0.0164705
658.921	0.0165210
658.999	0.0166843
659.078	0.0165259
659.156	0.0165604
659.234	0.0165880
659.312	0.0165759
659.390	0.0165855
659.468	0.0165069
659.546	0.0164361
659.624	0.0164632
659.703	0.0164465
659.781	0.0164960
659.859	0.0164451
659.937	0.0164951
660.015	0.0165714
660.093	0.0164656
660.171	0.0166068
660.249	0.0165091
660.328	0.0166267
660.406	0.0166976
660.484	0.0165485
660.562	0.0163927
660.640	0.0165395
660.718	0.0165918
660.796	0.0165425
660.874	0.0165982
660.953	0.0165690
661.031	0.0165804
661.109	0.0164954
661.187	0.0165962
661.265	0.0165788
661.343	0.0165200
661.421	0.0165524
661.499	0.0166028
661.578	0.0164521
661.656	0.0164763
661.734	0.0166231
661.812	0.0165793
661.890	0.0166630
661.968	0.0166242
662.046	0.0165331
662.124	0.0167242
662.203	0.0166972
662.281	0.0164833
662.359	0.0165295
662.437	0.0165669
662.515	0.0165408
662.593	0.0166322
662.671	0.0165933
662.749	0.0165527
662.828	0.0165823
662.906	0.0164655
662.984	0.0165701
663.062	0.0164597
663.140	0.0164925
663.218	0.0165198
663.296	0.0163920
663.374	0.0165543
663.453	0.0164703
663.531	0.0163781
663.609	0.0165609
663.687	0.0165306
663.765	0.0166689
663.843	0.0165141
663.921	0.0165548
663.999	0.0164693
664.078	0.0164966
664.156	0.0165261
664.234	0.0165425
664.312	0.0165809
664.390	0.0164605
664.468	0.0165067
664.546	0.0164348
664.624	0.0166734
664.703	0.0163546
664.781	0.0165338
664.859	0.0165813
664.937	0.0164941
665.015	0.0165907
665.093	0.0165837
665.171	0.0164737
665.249	0.0165150
665.328	0.0167028
665.406	0.0164935
665.484	0.0164843
665.562	0.0166113
665.640	0.0166964
665.718	0.0164897
665.796	0.0165105
665.874	0.0165959
665.953	0.0164793
666.031	0.0165794
666.109	0.0165877
666.187	0.0165162
666.265	0.0164022
666.343	0.0165421
666.421	0.0166235
666.499	0.0166114
666.578	0.0165611
666.656	0.0166976
666.734	0.0165144
666.812	0.0166069
666.890	0.0166322
666.968	0.0164894
667.046	0.0164638
667.124	0.0166338
667.203	0.0166276
667.281	0.0165814
667.359	0.0165686
667.437	0.0165591
667.515	0.0165040
667.593	0.0165763
667.671	0.0165308
667.749	0.0165759
667.828	0.0165927
667.906	0.0165284
667.984	0.0165009
668.062	0.0165171
668.140	0.0165754
668.218	0.0165431
668.296	0.0164015
668.374	0.0165881
668.453	0.0165681
668.531	0.0164048
668.609	0.0165328
668.687	0.0166447
668.765	0.0164066
668.843	0.0165936
668.921	0.0164168
668.999	0.0164294
669.078	0.0165170
669.156	0.0165869
669.234	0.0164494
669.312	0.0164890
669.390	0.0164979
669.468	0.0165207
669.546	0.0165679
669.624	0.0165002
669.703	0.0164861
669.781	0.0165450
669.859	0.0165009
669.937	0.0165239
670.015	0.0166743
670.093	0.0166083
670.171	0.0164910
670.249	0.0165161
670.328	0.0165934
670.406	0.0166349
670.484	0.0164356
670.562	0.0165800
670.640	0.0165412
670.718	0.0165561
670.796	0.0165810
670.874	0.0166267
670.953	0.0165148
671.031	0.0163731
671.109	0.0166659
671.187	0.0166462
671.265	0.0165434
671.343	0.0165529
671.421	0.0166134
671.499	0.0165441
671.578	0.0164789
671.656	0.0165315
671.734	0.0166122
671.812	0.0166132
671.890	0.0164233
671.968	0.0165707
672.046	0.0164080
672.124	0.0166066
672.203	0.0166406
672.281	0.0163619
672.359	0.0165744
672.437	0.0164608
672.515	0.0163921
672.593	0.0163921
672.671	0.0165007
672.749	0.0165944
672.828	0.0165720
672.906	0.0164683
672.984	0.0165128
673.062	0.0165071
673.140	0.0164972
673.218	0.0165237
673.296	0.0164107
673.374	0.0164669
673.453	0.0164957
673.531	0.0164413
673.609	0.0165797
673.687	0.0165433
673.765	0.0165630
673.843	0.0165806
673.921	0.0166161
673.999	0.0166181
674.078	0.0165046
674.156	0.0165240
674.234	0.0165096
674.312	0.0166573
674.390	0.0166398
674.468	0.0166992
674.546	0.0165498
674.624	0.0167574
674.703	0.0167353
674.781	0.0166757
674.859	0.0167247
674.937	0.0167207
675.015	0.0165866
675.093	0.0164626
675.171	0.0166815
675.249	0.0167690
675.328	0.0167115
675.406	0.0165043
675.484	0.0165955
675.562	0.0165919
675.640	0.0166091
675.718	0.0166517
675.796	0.0165335
675.874	0.0165799
675.953	0.0166142
676.031	0.0165145
676.109	0.0164457
676.187	0.0165744
676.265	0.0165710
676.343	0.0165429
676.421	0.0165228
676.499	0.0164333
676.578	0.0165257
676.656	0.0165715
676.734	0.0166232
676.812	0.0165337
676.890	0.0165254
676.968	0.0165765
677.046	0.0166869
677.124	0.0166396
677.203	0.0165698
677.281	0.0166380
677.359	0.0166026
677.437	0.0166139
677.515	0.0166068
677.593	0.0166933
677.671	0.0166127
677.749	0.0166696
677.828	0.0167175
677.906	0.0166961
677.984	0.0166883
678.062	0.0166602
678.140	0.0166685
678.218	0.0166691
678.296	0.0165406
678.374	0.0166048
678.453	0.0165883
678.531	0.0167467
678.609	0.0165916
678.687	0.0166500
678.765	0.0165347
678.843	0.0164665
678.921	0.0164906
678.999	0.0165257
679.078	0.0166450
679.156	0.0165516
679.234	0.0165249
679.312	0.0164310
679.390	0.0164576
679.468	0.0165446
679.546	0.0165354
679.624	0.0164957
679.703	0.0165053
679.781	0.0165431
679.859	0.0165194
679.937	0.0163609
680.015	0.0165225
680.093	0.0165734
680.171	0.0165116
680.249	0.0163455
680.328	0.0165237
680.406	0.0166486
680.484	0.0163780
680.562	0.0164854
680.640	0.0163850
680.718	0.0163641
680.796	0.0164932
680.874	0.0163942
680.953	0.0165882
681.031	0.0164117
681.109	0.0165616
681.187	0.0164027
681.265	0.0164554
681.343	0.0164958
681.421	0.0165245
681.499	0.0165174
681.578	0.0165398
681.656	0.0164254
681.734	0.0164579
681.812	0.0164944
681.890	0.0165360
681.968	0.0164500
682.046	0.0165733
682.124	0.0165647
682.203	0.0166132
682.281	0.0165620
682.359	0.0165600
682.437	0.0164399
682.515	0.0164907
682.593	0.0165188
682.671	0.0164468
682.749	0.0165410
682.828	0.0166383
682.906	0.0165955
682.984	0.0166544
683.062	0.0164249
683.140	0.0165574
683.218	0.0164986
683.296	0.0166258
683.374	0.0165643
683.453	0.0165395
683.531	0.0165138
683.609	0.0165093
683.687	0.0164552
683.765	0.0165464
683.843	0.0165710
683.921	0.0165004
683.999	0.0164257
684.078	0.0164615
684.156	0.0165404
684.234	0.0165894
684.312	0.0164226
684.390	0.0164921
684.468	0.0164428
684.546	0.0164756
684.624	0.0165373
684.703	0.0166035
684.781	0.0164867
684.859	0.0164429
684.937	0.0164359
685.015	0.0164811
685.093	0.0165333
685.171	0.0165641
685.249	0.0163920
685.328	0.0165356
685.406	0.0166404
685.484	0.0165582
685.562	0.0165941
685.640	0.0165281
685.718	0.0165168
685.796	0.0164297
685.874	0.0163374
685.953	0.0165508
686.031	0.0165382
686.109	0.0165269
686.187	0.0164400
686.265	0.0165407
686.343	0.0165466
686.421	0.0164931
686.499	0.0165663
686.578	0.0165470
686.656	0.0164529
686.734	0.0165077
686.812	0.0165345
686.890	0.0164510
686.968	0.0165482
687.046	0.0166533
687.124	0.0164653
687.203	0.0165625
687.281	0.0165589
687.359	0.0166623
687.437	0.0165148
687.515	0.0164463
687.593	0.0166150
687.671	0.0164806
687.749	0.0164387
687.828	0.0165492
687.906	0.0165217
687.984	0.0164979
688.062	0.0166453
688.140	0.0166515
688.218	0.0165107
688.296	0.0165558
688.374	0.0165434
688.453	0.0166460
688.531	0.0166013
688.609	0.0166583
688.687	0.0165321
688.765	0.0165784
688.843	0.0166084
688.921	0.0164515
688.999	0.0166222
689.078	0.0165820
689.156	0.0166133
689.234	0.0165302
689.312	0.0165500
689.390	0.0165836
689.468	0.0166811
689.546	0.0166186
689.624	0.0164986
689.703	0.0165133
689.781	0.0166400
689.859	0.0166800
689.937	0.0164559
690.015	0.0164965
690.093	0.0166541
690.171	0.0165797
690.249	0.0165583
690.328	0.0165690
690.406	0.0165395
690.484	0.0166736
690.562	0.0166357
690.640	0.0166144
690.718	0.0165263
690.796	0.0165501
690.874	0.0166312
690.953	0.0165381
691.031	0.0167117
691.109	0.0167269
691.187	0.0165984
691.265	0.0164399
691.343	0.0165749
691.421	0.0166641
691.499	0.0165611
691.578	0.0166750
691.656	0.0167953
691.734	0.0166727
691.812	0.0166925
691.890	0.0166856
691.968	0.0167242
692.046	0.0166767
692.124	0.0166589
692.203	0.0165617
692.281	0.0166310
692.359	0.0166064
692.437	0.0166363
692.515	0.0166387
692.593	0.0167618
692.671	0.0165931
692.749	0.0167059
692.828	0.0166259
692.906	0.0165952
692.984	0.0165670
693.062	0.0165871
693.140	0.0165557
693.218	0.0166463
693.296	0.0166639
693.374	0.0167040
693.453	0.0167164
693.531	0.0166343
693.609	0.0165411
693.687	0.0167078
693.765	0.0166674
693.843	0.0166047
693.921	0.0165802
693.999	0.0165757
694.078	0.0166893
694.156	0.0166308
694.234	0.0165990
694.312	0.0166497
694.390	0.0166287
694.468	0.0166867
694.546	0.0166063
694.624	0.0165401
694.703	0.0165591
694.781	0.0165711
694.859	0.0167090
694.937	0.0166682
695.015	0.0166967
695.093	0.0166597
695.171	0.0165932
695.249	0.0167120
695.328	0.0166856
695.406	0.0165870
695.484	0.0164989
695.562	0.0167170
695.640	0.0165584
695.718	0.0166207
695.796	0.0165705
695.874	0.0166936
695.953	0.0165984
696.031	0.0167190
696.109	0.0165598
696.187	0.0166249
696.265	0.0166721
696.343	0.0167335
696.421	0.0165887
696.499	0.0167054
696.578	0.0166753
696.656	0.0166283
696.734	0.0165459
696.812	0.0165594
696.890	0.0165532
696.968	0.0166989
697.046	0.0166030
697.124	0.0165282
697.203	0.0165975
697.281	0.0167167
697.359	0.0165457
697.437	0.0165764
697.515	0.0166027
697.593	0.0166680
697.671	0.0166830
697.749	0.0166718
697.828	0.0165573
697.906	0.0165223
697.984	0.0166207
698.062	0.0166068
698.140	0.0165975
698.218	0.0164999
698.296	0.0167309
698.374	0.0167391
698.453	0.0165901
698.531	0.0165261
698.609	0.0165587
698.687	0.0166424
698.765	0.0167110
698.843	0.0166634
698.921	0.0166491
698.999	0.0164688
699.078	0.0166951
699.156	0.0166009
699.234	0.0166769
699.312	0.0167190
699.390	0.0165244
699.468	0.0166286
699.546	0.0165903
699.624	0.0164283
699.703	0.0166735
699.781	0.0166354
699.859	0.0165101
699.937	0.0167283
700.015	0.0165115
700.093	0.0164787
700.171	0.0166255
700.249	0.0166665
700.328	0.0165266
700.406	0.0165222
700.484	0.0164521
700.562	0.0167047
700.640	0.0165182
700.718	0.0165621
700.796	0.0166423
700.874	0.0164960
700.953	0.0165121
701.031	0.0164996
701.109	0.0165184
701.187	0.0166225
701.265	0.0165067
701.343	0.0165018
701.421	0.0164848
701.499	0.0165393
701.578	0.0165105
701.656	0.0165121
701.734	0.0164256
701.812	0.0164913
701.890	0.0165212
701.968	0.0164608
702.046	0.0164841
702.124	0.0165312
702.203	0.0165130
702.281	0.0164828
702.359	0.0163942
702.437	0.0166165
702.515	0.0164123
702.593	0.0163782
702.671	0.0165697
702.749	0.0164447
702.828	0.0164883
702.906	0.0164783
702.984	0.0165039
703.062	0.0166248
703.140	0.0164504
703.218	0.0165594
703.296	0.0165442
703.374	0.0166415
703.453	0.0166529
703.531	0.0165625
703.609	0.0167386
703.687	0.0165895
703.765	0.0166441
703.843	0.0165888
703.921	0.0166036
703.999	0.0165795
704.078	0.0166090
704.156	0.0165722
704.234	0.0165245
704.312	0.0165814
704.390	0.0164561
704.468	0.0165463
704.546	0.0164568
704.624	0.0165238
704.703	0.0165118
704.781	0.0165981
704.859	0.0166278
704.937	0.0165815
705.015	0.0164860
705.093	0.0164619
705.171	0.0166470
705.249	0.0166245
705.328	0.0164876
705.406	0.0165134
705.484	0.0165195
705.562	0.0167601
705.640	0.0166082
705.718	0.0166000
705.796	0.0165277
705.874	0.0164311
705.953	0.0166312
706.031	0.0166253
706.109	0.0165379
706.187	0.0165184
706.265	0.0165887
706.343	0.0166302
706.421	0.0166460
706.499	0.0166635
706.578	0.0165813
706.656	0.0166109
706.734	0.0164407
706.812	0.0165372
706.890	0.0164680
706.968	0.0165051
707.046	0.0165571
707.124	0.0164890
707.203	0.0164230
707.281	0.0163791
707.359	0.0165044
707.437	0.0165195
707.515	0.0164520
707.593	0.0163868
707.671	0.0164694
707.749	0.0164633
707.828	0.0165430
707.906	0.0164964
707.984	0.0164694
708.062	0.0165729
708.140	0.0165798
708.218	0.0165675
708.296	0.0165805
708.374	0.0164758
708.453	0.0166622
708.531	0.0165613
708.609	0.0165429
708.687	0.0167069
708.765	0.0166713
708.843	0.0167066
708.921	0.0166930
708.999	0.0169021
709.078	0.0167553
709.156	0.0166632
709.234	0.0167905
709.312	0.0169013
709.390	0.0168060
709.468	0.0168570
709.546	0.0166663
709.624	0.0166730
709.703	0.0167923
709.781	0.0168435
709.859	0.0167480
709.937	0.0167438
710.015	0.0166289
710.093	0.0166864
710.171	0.0166343
710.249	0.0167134
710.328	0.0166166
710.406	0.0164989
710.484	0.0165238
710.562	0.0165869
710.640	0.0166872
710.718	0.0165650
710.796	0.0166998
710.874	0.0167152
710.953	0.0167792
711.031	0.0166853
711.109	0.0168102
711.187	0.0165649
711.265	0.0165541
711.343	0.0164964
711.421	0.0166743
711.499	0.0166325
711.578	0.0165043
711.656	0.0164517
711.734	0.0165067
711.812	0.0164783
711.890	0.0165612
711.968	0.0164909
712.046	0.0164539
712.124	0.0165133
712.203	0.0166030
712.281	0.0164513
712.359	0.0167493
712.437	0.0167393
712.515	0.0166146
712.593	0.0166644
712.671	0.0166611
712.749	0.0167049
712.828	0.0167544
712.906	0.0167238
712.984	0.0166670
713.062	0.0167317
713.140	0.0166621
713.218	0.0168681
713.296	0.0167168
713.374	0.0167588
713.453	0.0167383
713.531	0.0167659
713.609	0.0168026
713.687	0.0168772
713.765	0.0169980
713.843	0.0169952
713.921	0.0170312
713.999	0.0169038
714.078	0.0169288
714.156	0.0169258
714.234	0.0168466
714.312	0.0168134
714.390	0.0166813
714.468	0.0166660
714.546	0.0165194
714.624	0.0164114
714.703	0.0163661
714.781	0.0162014
714.859	0.0161598
714.937	0.0160641
715.015	0.0160057
715.093	0.0160186
715.171	0.0159676
715.249	0.0159548
715.328	0.0161131
715.406	0.0159164
715.484	0.0160621
715.562	0.0161873
715.640	0.0163148
715.718	0.0162166
715.796	0.0162426
715.874	0.0164700
715.953	0.0164657
716.031	0.0166252
716.109	0.0167698
716.187	0.0167655
716.265	0.0168326
716.343	0.0168359
716.421	0.0169518
716.499	0.0170194
716.578	0.0170718
716.656	0.0169353
716.734	0.0171365
716.812	0.0171268
716.890	0.0169450
716.968	0.0168094
717.046	0.0168926
717.124	0.0168922
717.203	0.0167635
717.281	0.0165743
717.359	0.0166094
717.437	0.0167053
717.515	0.0166286
717.593	0.0166635
717.671	0.0166240
717.749	0.0166139
717.828	0.0163237
717.906	0.0164162
717.984	0.0164638
718.062	0.0165535
718.140	0.0164845
718.218	0.0165549
718.296	0.0165786
718.374	0.0164324
718.453	0.0164795
718.531	0.0165376
718.609	0.0165385
718.687	0.0165020
718.765	0.0164932
718.843	0.0164044
718.921	0.0164818
718.999	0.0164802
719.078	0.0163797
719.156	0.0163255
719.234	0.0162164
719.312	0.0163680
719.390	0.0162926
719.468	0.0164681
719.546	0.0164389
719.624	0.0163186
719.703	0.0163190
719.781	0.0163927
719.859	0.0163934
719.937	0.0167025
720.015	0.0165619
720.093	0.0165577
720.171	0.0166854
720.249	0.0168365
720.328	0.0169039
720.406	0.0168017
720.484	0.0169501
720.562	0.0170864
720.640	0.0170864
720.718	0.0170825
720.796	0.0171407
720.874	0.0171652
720.953	0.0171563
721.031	0.0171915
721.109	0.0170576
721.187	0.0170136
721.265	0.0168729
721.343	0.0169007
721.421	0.0166477
721.499	0.0166975
721.578	0.0167332
721.656	0.0165490
721.734	0.0164103
721.812	0.0164598
721.890	0.0162189
721.968	0.0161013
722.046	0.0161699
722.124	0.0161866
722.203	0.0161069
722.281	0.0161314
722.359	0.0160271
722.437	0.0161530
722.515	0.0162250
722.593	0.0162484
722.671	0.0162164
722.749	0.0161006
722.828	0.0163918
722.906	0.0163998
722.984	0.0164348
723.062	0.0163647
723.140	0.0164931
723.218	0.0164589
723.296	0.0165357
723.374	0.0164874
723.453	0.0166085
723.531	0.0166672
723.609	0.0166478
723.687	0.0166814
723.765	0.0167278
723.843	0.0166773
723.921	0.0165179
723.999	0.0166546
724.078	0.0166338
724.156	0.0166256
724.234	0.0165678
724.312	0.0166583
724.390	0.0167811
724.468	0.0166169
724.546	0.0166438
724.624	0.0166621
724.703	0.0166936
724.781	0.0165592
724.859	0.0164563
724.937	0.0165327
725.015	0.0166878
725.093	0.0163861
725.171	0.0165743
725.249	0.0165414
725.328	0.0165052
725.406	0.0165139
725.484	0.0166239
725.562	0.0167503
725.640	0.0164948
725.718	0.0165968
725.796	0.0165866
725.874	0.0165141
725.953	0.0164750
726.031	0.0166472
726.109	0.0165923
726.187	0.0166219
726.265	0.0166199
726.343	0.0166648
726.421	0.0166022
726.499	0.0165662
726.578	0.0166797
726.656	0.0166885
726.734	0.0165199
726.812	0.0165115
726.890	0.0164807
726.968	0.0165703
727.046	0.0165157
727.124	0.0165505
727.203	0.0164075
727.281	0.0165064
727.359	0.0163674
727.437	0.0163627
727.515	0.0164878
727.593	0.0165647
727.671	0.0166237
727.749	0.0165919
727.828	0.0166055
727.906	0.0167114
727.984	0.0165796
728.062	0.0166212
728.140	0.0166838
728.218	0.0168819
728.296	0.0168386
728.374	0.0167957
728.453	0.0168005
728.531	0.0168578
728.609	0.0167343
728.687	0.0166037
728.765	0.0166507
728.843	0.0166264
728.921	0.0165379
728.999	0.0165619
729.078	0.0166228
729.156	0.0166355
729.234	0.0164774
729.312	0.0164807
729.390	0.0162524
729.468	0.0163750
729.546	0.0162861
729.624	0.0163346
729.703	0.0163885
729.781	0.0162711
729.859	0.0162666
729.937	0.0162161
730.015	0.0162759
730.093	0.0163568
730.171	0.0164148
730.249	0.0164956
730.328	0.0163516
730.406	0.0163712
730.484	0.0164922
730.562	0.0164741
730.640	0.0164655
730.718	0.0165361
730.796	0.0167149
730.874	0.0167884
730.953	0.0167577
731.031	0.0168813
731.109	0.0169477
731.187	0.0169229
731.265	0.0169353
731.343	0.0171927
731.421	0.0171455
731.499	0.0170747
731.578	0.0172401
731.656	0.0171624
731.734	0.0169189
731.812	0.0171241
731.890	0.0169063
731.968	0.0168155
732.046	0.0167668
732.124	0.0165472
732.203	0.0163902
732.281	0.0162575
732.359	0.0161777
732.437	0.0161590
732.515	0.0161404
732.593	0.0160014
732.671	0.0159039
732.749	0.0159267
732.828	0.0160760
732.906	0.0159259
732.984	0.0161597
733.062	0.0162591
733.140	0.0162903
733.218	0.0164182
733.296	0.0165084
733.374	0.0167657
733.453	0.0166446
733.531	0.0166312
733.609	0.0168432
733.687	0.0168007
733.765	0.0169073
733.843	0.0169946
733.921	0.0168707
733.999	0.0168355
734.078	0.0169320
734.156	0.0169155
734.234	0.0168375
734.312	0.0165959
734.390	0.0165463
734.468	0.0166192
734.546	0.0165049
734.624	0.0164912
734.703	0.0162856
734.781	0.0163300
734.859	0.0163231
734.937	0.0164106
735.015	0.0164467
735.093	0.0163438
735.171	0.0163924
735.249	0.0163216
735.328	0.0164805
735.406	0.0164778
735.484	0.0165865
735.562	0.0166846
735.640	0.0166814
735.718	0.0167313
735.796	0.0166543
735.874	0.0167204
735.953	0.0167489
736.031	0.0168535
736.109	0.0168639
736.187	0.0168209
736.265	0.0167545
736.343	0.0167883
736.421	0.0167872
736.499	0.0168105
736.578	0.0166246
736.656	0.0166198
736.734	0.0166005
736.812	0.0165240
736.890	0.0164390
736.968	0.0163054
737.046	0.0162925
737.124	0.0163906
737.203	0.0163268
737.281	0.0163830
737.359	0.0165220
737.437	0.0162700
737.515	0.0164342
737.593	0.0163901
737.671	0.0164385
737.749	0.0161958
737.828	0.0164342
737.906	0.0165586
737.984	0.0164809
738.062	0.0166552
738.140	0.0166013
738.218	0.0165970
738.296	0.0165295
738.374	0.0166489
738.453	0.0167492
738.531	0.0165739
738.609	0.0165849
738.687	0.0164927
738.765	0.0166765
738.843	0.0166888
738.921	0.0164082
738.999	0.0165794
739.078	0.0165741
739.156	0.0163968
739.234	0.0164801
739.312	0.0165680
739.390	0.0165500
739.468	0.0165550
739.546	0.0165934
739.624	0.0167002
739.703	0.0166923
739.781	0.0166975
739.859	0.0166328
739.937	0.0168480
740.015	0.0167427
740.093	0.0167411
740.171	0.0166287
740.249	0.0166844
740.328	0.0167241
740.406	0.0166866
740.484	0.0166252
740.562	0.0165571
740.640	0.0167481
740.718	0.0166370
740.796	0.0165845
740.874	0.0165325
740.953	0.0166519
741.031	0.0165635
741.109	0.0164555
741.187	0.0163854
741.265	0.0165496
741.343	0.0166702
741.421	0.0166187
741.499	0.0166251
741.578	0.0167663
741.656	0.0166541
741.734	0.0166022
741.812	0.0165968
741.890	0.0167556
741.968	0.0167293
742.046	0.0166511
742.124	0.0168090
742.203	0.0165802
742.281	0.0165018
742.359	0.0166155
742.437	0.0165976
742.515	0.0165788
742.593	0.0166528
742.671	0.0165887
742.749	0.0166048
742.828	0.0164204
742.906	0.0164822
742.984	0.0164756
743.062	0.0164497
743.140	0.0164664
743.218	0.0164429
743.296	0.0164537
743.374	0.0165498
743.453	0.0165485
743.531	0.0165431
743.609	0.0165314
743.687	0.0165712
743.765	0.0166265
743.843	0.0165354
743.921	0.0167653
743.999	0.0165874
744.078	0.0166325
744.156	0.0167046
744.234	0.0165092
744.312	0.0165290
744.390	0.0165298
744.468	0.0163908
744.546	0.0164605
744.624	0.0163319
744.703	0.0164162
744.781	0.0163356
744.859	0.0164489
744.937	0.0163725
745.015	0.0164819
745.093	0.0165134
745.171	0.0163853
745.249	0.0166511
745.328	0.0165812
745.406	0.0165024
745.484	0.0165636
745.562	0.0165209
745.640	0.0165292
745.718	0.0165978
745.796	0.0165897
745.874	0.0165916
745.953	0.0167149
746.031	0.0167548
746.109	0.0166913
746.187	0.0165722
746.265	0.0165681
746.343	0.0164702
746.421	0.0166116
746.499	0.0167390
746.578	0.0166656
746.656	0.0166338
746.734	0.0165733
746.812	0.0166521
746.890	0.0165831
746.968	0.0166377
747.046	0.0166183
747.124	0.0166098
747.203	0.0166486
747.281	0.0165726
747.359	0.0166112
747.437	0.0165253
747.515	0.0165569
747.593	0.0166425
747.671	0.0166126
747.749	0.0164513
747.828	0.0165415
747.906	0.0166296
747.984	0.0165870
748.062	0.0165869
748.140	0.0164687
748.218	0.0164876
748.296	0.0163963
748.374	0.0165782
748.453	0.0165820
748.531	0.0163588
748.609	0.0166444
748.687	0.0166418
748.765	0.0165408
748.843	0.0165562
748.921	0.0165605
748.999	0.0166357
749.078	0.0165814
749.156	0.0165146
749.234	0.0164153
749.312	0.0164476
749.390	0.0165102
749.468	0.0164754
749.546	0.0163926
749.624	0.0165236
749.703	0.0165662
749.781	0.0166782
749.859	0.0164104
749.937	0.0164005
750.015	0.0164540
750.093	0.0166163
750.171	0.0164895
750.249	0.0164717
750.328	0.0166884
750.406	0.0166915
750.484	0.0165496
750.562	0.0166558
750.640	0.0166498
750.718	0.0167647
750.796	0.0167364
750.874	0.0166917
750.953	0.0166121
751.031	0.0167089
751.109	0.0166982
751.187	0.0167061
751.265	0.0166380
751.343	0.0166795
751.421	0.0165620
751.499	0.0165343
751.578	0.0165308
751.656	0.0167387
751.734	0.0166759
751.812	0.0166418
751.890	0.0165276
751.968	0.0166593
752.046	0.0165606
752.124	0.0164311
752.203	0.0165288
752.281	0.0165708
752.359	0.0165527
752.437	0.0164400
752.515	0.0163985
752.593	0.0164723
752.671	0.0164489
752.749	0.0164749
752.828	0.0164161
752.906	0.0164659
752.984	0.0164510
753.062	0.0163627
753.140	0.0163541
753.218	0.0163097
753.296	0.0164515
753.374	0.0164658
753.453	0.0164105
753.531	0.0165211
753.609	0.0165353
753.687	0.0164619
753.765	0.0166487
753.843	0.0165820
753.921	0.0165591
753.999	0.0166226
754.078	0.0166578
754.156	0.0166616
754.234	0.0166880
754.312	0.0166231
754.390	0.0166143
754.468	0.0166428
754.546	0.0168983
754.624	0.0167198
754.703	0.0167209
754.781	0.0164960
754.859	0.0166720
754.937	0.0164748
755.015	0.0165926
755.093	0.0167229
755.171	0.0167004
755.249	0.0167329
755.328	0.0166628
755.406	0.0165777
755.484	0.0165266
755.562	0.0164264
755.640	0.0165770
755.718	0.0166063
755.796	0.0164803
755.874	0.0164780
755.953	0.0162852
756.031	0.0163829
756.109	0.0163013
756.187	0.0162211
756.265	0.0162512
756.343	0.0161559
756.421	0.0161823
756.499	0.0162866
756.578	0.0163724
756.656	0.0161877
756.734	0.0162566
756.812	0.0164134
756.890	0.0164403
756.968	0.0164474
757.046	0.0164745
757.124	0.0164123
757.203	0.0165923
757.281	0.0166302
757.359	0.0168363
757.437	0.0168549
757.515	0.0168601
757.593	0.0166960
757.671	0.0168629
757.749	0.0167335
757.828	0.0167712
757.906	0.0168012
757.984	0.0167155
758.062	0.0167020
758.140	0.0166296
758.218	0.0165750
758.296	0.0163594
758.374	0.0163674
758.453	0.0164220
758.531	0.0163889
758.609	0.0162757
758.687	0.0161532
758.765	0.0162365
758.843	0.0161156
758.921	0.0162164
758.999	0.0163179
759.078	0.0162686
759.156	0.0162998
759.234	0.0162815
759.312	0.0165179
759.390	0.0165494
759.468	0.0166744
759.546	0.0166208
759.624	0.0166754
759.703	0.0167295
759.781	0.0168198
759.859	0.0167107
759.937	0.0167921
760.015	0.0169138
760.093	0.0168704
760.171	0.0166212
760.249	0.0166161
760.328	0.0167436
760.406	0.0165833
760.484	0.0165919
760.562	0.0165661
760.640	0.0165069
760.718	0.0165401
760.796	0.0164210
760.874	0.0164281
760.953	0.0164281
761.031	0.0163138
761.109	0.0163186
761.187	0.0163147
761.265	0.0163210
761.343	0.0163515
761.421	0.0162312
761.499	0.0162592
761.578	0.0162673
761.656	0.0162644
761.734	0.0162116
761.812	0.0161819
761.890	0.0163805
761.968	0.0164114
762.046	0.0164629
762.124	0.0163757
762.203	0.0164523
762.281	0.0166167
762.359	0.0167432
762.437	0.0167496
762.515	0.0168773
762.593	0.0168353
762.671	0.0169849
762.749	0.0171034
762.828	0.0170904
762.906	0.0170900
762.984	0.0169799
763.062	0.0169841
763.140	0.0170410
763.218	0.0169084
763.296	0.0168010
763.374	0.0167766
763.453	0.0167854
763.531	0.0167029
763.609	0.0166258
763.687	0.0164703
763.765	0.0163017
763.843	0.0163129
763.921	0.0161562
763.999	0.0161794
764.078	0.0161996
764.156	0.0159204
764.234	0.0159856
764.312	0.0160571
764.390	0.0158543
764.468	0.0158128
764.546	0.0158832
764.624	0.0161255
764.703	0.0161399
764.781	0.0161403
764.859	0.0163264
764.937	0.0163595
765.015	0.0164708
765.093	0.0165868
765.171	0.0165779
765.249	0.0167056
765.328	0.0167151
765.406	0.0168289
765.484	0.0169875
765.562	0.0169098
765.640	0.0170026
765.718	0.0171218
765.796	0.0171689
765.874	0.0172841
765.953	0.0173495
766.031	0.0173517
766.109	0.0174284
766.187	0.0171964
766.265	0.0171078
766.343	0.0171853
766.421	0.0170126
766.499	0.0169515
766.578	0.0166787
766.656	0.0165823
766.734	0.0165517
766.812	0.0165581
766.890	0.0164229
766.968	0.0161948
767.046	0.0161184
767.124	0.0162549
767.203	0.0161655
767.281	0.0160350
767.359	0.0162325
767.437	0.0161436
767.515	0.0160452
767.593	0.0162080
767.671	0.0161250
767.749	0.0161558
767.828	0.0162451
767.906	0.0162546
767.984	0.0164100
768.062	0.0163593
768.140	0.0164787
768.218	0.0166751
768.296	0.0166521
768.374	0.0166682
768.453	0.0167413
768.531	0.0168093
768.609	0.0167839
768.687	0.0168015
768.765	0.0167586
768.843	0.0167307
768.921	0.0168531
768.999	0.0168272
769.078	0.0169102
769.156	0.0168547
769.234	0.0169167
769.312	0.0169753
769.390	0.0168815
769.468	0.0169486
769.546	0.0168024
769.624	0.0167596
769.703	0.0169273
769.781	0.0167805
769.859	0.0168757
769.937	0.0168476
770.015	0.0168591
770.093	0.0167651
770.171	0.0168109
770.249	0.0167707
770.328	0.0168814
770.406	0.0167786
770.484	0.0168313
770.562	0.0168919
770.640	0.0167038
770.718	0.0167951
770.796	0.0167752
770.874	0.0166248
770.953	0.0167641
771.031	0.0167056
771.109	0.0165827
771.187	0.0167278
771.265	0.0165934
771.343	0.0167228
771.421	0.0166922
771.499	0.0166189
771.578	0.0164597
771.656	0.0164594
771.734	0.0163985
771.812	0.0164856
771.890	0.0165394
771.968	0.0164352
772.046	0.0162752
772.124	0.0163822
772.203	0.0163997
772.281	0.0162976
772.359	0.0162638
772.437	0.0163132
772.515	0.0163770
772.593	0.0162402
772.671	0.0162322
772.749	0.0160910
772.828	0.0159822
772.906	0.0160969
772.984	0.0160902
773.062	0.0159624
773.140	0.0159573
773.218	0.0160406
773.296	0.0161243
773.374	0.0162444
773.453	0.0162925
773.531	0.0163786
773.609	0.0165652
773.687	0.0167982
773.765	0.0169578
773.843	0.0170376
773.921	0.0172854
773.999	0.0175220
774.078	0.0178262
774.156	0.0180659
774.234	0.0181602
774.312	0.0181266
774.390	0.0182914
774.468	0.0184147
774.546	0.0181377
774.624	0.0181301
774.703	0.0179494
774.781	0.0178000
774.859	0.0176075
774.937	0.0171655
775.015	0.0168594
775.093	0.0166464
775.171	0.0164429
775.249	0.0161617
775.328	0.0159443
775.406	0.0157641
775.484	0.0154733
775.562	0.0154399
775.640	0.0154958
775.718	0.0153101
775.796	0.0153758
775.874	0.0154954
775.953	0.0155615
776.031	0.0156493
776.109	0.0155919
776.187	0.0159088
776.265	0.0159950
776.343	0.0160522
776.421	0.0161980
776.499	0.0161883
776.578	0.0163091
776.656	0.0163347
776.734	0.0161739
776.812	0.0163240
776.890	0.0164376
776.968	0.0164316
777.046	0.0163319
777.124	0.0163371
777.203	0.0164932
777.281	0.0164265
777.359	0.0165166
777.437	0.0165286
777.515	0.0164750
777.593	0.0165977
777.671	0.0165024
777.749	0.0166434
777.828	0.0166911
777.906	0.0165889
777.984	0.0168023
778.062	0.0168058
778.140	0.0169740
778.218	0.0169495
778.296	0.0169948
778.374	0.0170526
778.453	0.0170691
778.531	0.0171980
778.609	0.0170629
778.687	0.0172305
778.765	0.0170509
778.843	0.0171345
778.921	0.0171191
778.999	0.0171638
779.078	0.0170941
779.156	0.0171077
779.234	0.0170715
779.312	0.0169919
779.390	0.0168346
779.468	0.0168954
779.546	0.0167394
779.624	0.0165659
779.703	0.0166790
779.781	0.0165431
779.859	0.0164857
779.937	0.0162893
780.015	0.0162265
780.093	0.0160712
780.171	0.0160638
780.249	0.0160496
780.328	0.0159824
780.406	0.0157565
780.484	0.0158095
780.562	0.0154721
780.640	0.0154726
780.718	0.0156152
780.796	0.0153722
780.874	0.0154413
780.953	0.0154977
781.031	0.0154784
781.109	0.0152849
781.187	0.0154296
781.265	0.0156029
781.343	0.0156380
781.421	0.0158538
781.499	0.0160276
781.578	0.0162096
781.656	0.0162519
781.734	0.0164031
781.812	0.0167006
781.890	0.0168562
781.968	0.0171059
782.046	0.0173400
782.124	0.0173737
782.203	0.0176771
782.281	0.0175716
782.359	0.0178297
782.437	0.0179290
782.515	0.0179022
782.593	0.0180363
782.671	0.0179992
782.749	0.0179768
782.828	0.0178799
782.906	0.0179290
782.984	0.0176240
783.062	0.0175539
783.140	0.0174084
783.218	0.0172443
783.296	0.0170869
783.374	0.0167882
783.453	0.0166076
783.531	0.0164001
783.609	0.0162312
783.687	0.0161694
783.765	0.0159359
783.843	0.0157366
783.921	0.0156187
783.999	0.0154790
784.078	0.0155172
784.156	0.0152826
784.234	0.0153574
784.312	0.0154874
784.390	0.0155245
784.468	0.0155733
784.546	0.0157024
784.624	0.0159142
784.703	0.0158755
784.781	0.0159405
784.859	0.0159487
784.937	0.0159636
785.015	0.0161683
785.093	0.0162566
785.171	0.0162720
785.249	0.0162675
785.328	0.0165243
785.406	0.0164007
785.484	0.0164672
785.562	0.0165434
785.640	0.0165103
785.718	0.0164876
785.796	0.0165985
785.874	0.0164831
785.953	0.0166875
786.031	0.0167575
786.109	0.0167979
786.187	0.0168865
786.265	0.0170131
786.343	0.0171529
786.421	0.0173437
786.499	0.0174472
786.578	0.0174926
786.656	0.0175939
786.734	0.0176717
786.812	0.0177254
786.890	0.0178703
786.968	0.0177975
787.046	0.0177872
787.124	0.0177528
787.203	0.0176978
787.281	0.0175262
787.359	0.0174240
787.437	0.0172815
787.515	0.0171777
787.593	0.0169560
787.671	0.0169051
787.749	0.0167403
787.828	0.0164984
787.906	0.0164657
787.984	0.0161266
788.062	0.0161239
788.140	0.0161245
788.218	0.0159445
788.296	0.0157226
788.374	0.0158518
788.453	0.0157667
788.531	0.0156095
788.609	0.0156333
788.687	0.0157533
788.765	0.0157012
788.843	0.0154949
788.921	0.0154508
788.999	0.0155220
789.078	0.0155716
789.156	0.0154182
789.234	0.0153297
789.312	0.0154101
789.390	0.0155319
789.468	0.0154466
789.546	0.0155286
789.624	0.0157175
789.703	0.0157250
789.781	0.0158555
789.859	0.0159892
789.937	0.0162359
790.015	0.0164046
790.093	0.0167177
790.171	0.0168466
790.249	0.0170453
790.328	0.0172059
790.406	0.0173677
790.484	0.0174809
790.562	0.0177532
790.640	0.0178088
790.718	0.0179675
790.796	0.0179503
790.874	0.0180297
790.953	0.0181274
791.031	0.0181850
791.109	0.0179559
791.187	0.0178635
791.265	0.0179050
791.343	0.0176804
791.421	0.0176239
791.499	0.0174638
791.578	0.0173209
791.656	0.0170760
791.734	0.0169971
791.812	0.0168584
791.890	0.0166883
791.968	0.0166848
792.046	0.0163468
792.124	0.0162892
792.203	0.0162112
792.281	0.0161858
792.359	0.0160063
792.437	0.0160325
792.515	0.0160860
792.593	0.0159702
792.671	0.0160242
792.749	0.0159634
792.828	0.0160487
792.906	0.0159579
792.984	0.0159985
793.062	0.0160441
793.140	0.0160081
793.218	0.0161014
793.296	0.0160561
793.374	0.0160069
793.453	0.0161211
793.531	0.0159949
793.609	0.0161279
793.687	0.0160953
793.765	0.0160535
793.843	0.0160487
793.921	0.0162823
793.999	0.0163452
794.078	0.0163858
794.156	0.0161964
794.234	0.0162553
794.312	0.0165387
794.390	0.0166103
794.468	0.0166809
794.546	0.0167342
794.624	0.0168328
794.703	0.0171383
794.781	0.0171983
794.859	0.0173511
794.937	0.0173545
795.015	0.0175069
795.093	0.0174445
795.171	0.0175774
795.249	0.0174942
795.328	0.0175163
795.406	0.0175216
795.484	0.0174501
795.562	0.0173814
795.640	0.0171545
795.718	0.0170786
795.796	0.0169901
795.874	0.0168304
795.953	0.0167585
796.031	0.0166030
796.109	0.0164917
796.187	0.0162968
796.265	0.0162328
796.343	0.0160216
796.421	0.0161414
796.499	0.0160719
796.578	0.0158801
796.656	0.0160780
796.734	0.0161370
796.812	0.0161564
796.890	0.0162885
796.968	0.0163315
797.046	0.0162928
797.124	0.0163945
797.203	0.0164792
797.281	0.0164804
797.359	0.0164810
797.437	0.0165375
797.515	0.0163571
797.593	0.0165263
797.671	0.0165336
797.749	0.0164875
797.828	0.0164561
797.906	0.0164928
797.984	0.0163859
798.062	0.0165359
798.140	0.0164912
798.218	0.0164698
798.296	0.0166447
798.374	0.0165711
798.453	0.0168194
798.531	0.0168010
798.609	0.0168298
798.687	0.0170051
798.765	0.0171773
798.843	0.0172794
798.921	0.0171664
798.999	0.0171486
799.078	0.0172698
799.156	0.0173067
799.234	0.0172259
799.312	0.0173405
799.390	0.0171053
799.468	0.0170834
799.546	0.0168320
799.624	0.0169411
799.703	0.0167022
799.781	0.0165264
799.859	0.0164070
799.937	0.0162495
800.015	0.0161369
800.093	0.0160398
800.171	0.0159868
800.249	0.0157524
800.328	0.0156910
800.406	0.0156660
800.484	0.0157038
800.562	0.0156285
800.640	0.0157909
800.718	0.0157825
800.796	0.0157865
800.874	0.0160194
800.953	0.0161067
801.031	0.0160679
801.109	0.0160780
801.187	0.0162582
801.265	0.0162676
801.343	0.0162846
801.421	0.0163904
801.499	0.0163571
801.578	0.0163201
801.656	0.0165150
801.734	0.0163210
801.812	0.0163712
801.890	0.0165314
801.968	0.0165779
802.046	0.0165796
802.124	0.0168293
802.203	0.0167287
802.281	0.0167807
802.359	0.0169791
802.437	0.0171313
802.515	0.0170547
802.593	0.0171280
802.671	0.0172265
802.749	0.0170451
802.828	0.0170809
802.906	0.0170930
802.984	0.0172202
803.062	0.0171722
803.140	0.0171330
803.218	0.0170087
803.296	0.0168982
803.374	0.0167862
803.453	0.0166094
803.531	0.0165070
803.609	0.0163577
803.687	0.0162498
803.765	0.0162329
803.843	0.0162050
803.921	0.0159721
803.999	0.0160356
804.078	0.0161227
804.156	0.0159400
804.234	0.0159278
804.312	0.0158561
804.390	0.0158643
804.468	0.0160143
804.546	0.0161143
804.624	0.0159937
804.703	0.0162522
804.781	0.0162917
804.859	0.0166319
804.937	0.0167709
805.015	0.0168086
805.093	0.0169552
805.171	0.0170285
805.249	0.0171211
805.328	0.0173199
805.406	0.0176221
805.484	0.0175288
805.562	0.0174726
805.640	0.0174162
805.718	0.0173536
805.796	0.0172812
805.874	0.0171338
805.953	0.0168832
806.031	0.0166602
806.109	0.0164704
806.187	0.0164642
806.265	0.0161130
806.343	0.0160866
806.421	0.0158440
806.499	0.0158422
806.578	0.0157381
806.656	0.0156425
806.734	0.0156573
806.812	0.0156071
806.890	0.0156281
806.968	0.0156420
807.046	0.0157972
807.124	0.0158276
807.203	0.0159680
807.281	0.0159557
807.359	0.0160599
807.437	0.0160605
807.515	0.0162279
807.593	0.0163053
807.671	0.0163892
807.749	0.0166519
807.828	0.0165479
807.906	0.0166769
807.984	0.0166925
808.062	0.0167523
808.140	0.0168447
808.218	0.0169139
808.296	0.0169337
808.374	0.0169882
808.453	0.0167905
808.531	0.0171072
808.609	0.0169939
808.687	0.0168915
808.765	0.0170628
808.843	0.0168493
808.921	0.0170109
808.999	0.0169640
809.078	0.0168679
809.156	0.0168954
809.234	0.0169239
809.312	0.0168961
809.390	0.0168266
809.468	0.0168279
809.546	0.0169488
809.624	0.0167927
809.703	0.0167603
809.781	0.0166262
809.859	0.0165648
809.937	0.0165618
810.015	0.0165652
810.093	0.0165556
810.171	0.0164846
810.249	0.0164388
810.328	0.0165178
810.406	0.0165500
810.484	0.0165932
810.562	0.0164903
810.640	0.0167044
810.718	0.0167519
810.796	0.0167561
810.874	0.0168497
810.953	0.0169638
811.031	0.0170557
811.109	0.0169725
811.187	0.0169789
811.265	0.0170306
811.343	0.0170160
811.421	0.0166866
811.499	0.0168063
811.578	0.0167106
811.656	0.0166078
811.734	0.0164558
811.812	0.0163392
811.890	0.0163169
811.968	0.0163170
812.046	0.0162161
812.124	0.0161018
812.203	0.0160532
812.281	0.0160629
812.359	0.0159874
812.437	0.0160414
812.515	0.0160803
812.593	0.0162074
812.671	0.0162560
812.749	0.0162632
812.828	0.0162436
812.906	0.0162816
812.984	0.0162605
813.062	0.0162945
813.140	0.0162749
813.218	0.0162246
813.296	0.0163544
813.374	0.0163263
813.453	0.0167152
813.531	0.0166692
813.609	0.0167323
813.687	0.0169068
813.765	0.0169410
813.843	0.0168352
813.921	0.0170201
813.999	0.0169940
814.078	0.0170712
814.156	0.0170441
814.234	0.0170795
814.312	0.0170560
814.390	0.0170924
814.468	0.0169234
814.546	0.0168217
814.624	0.0167680
814.703	0.0168589
814.781	0.0165690
814.859	0.0166089
814.937	0.0166991
815.015	0.0167004
815.093	0.0164201
815.171	0.0165572
815.249	0.0165542
815.328	0.0167215
815.406	0.0164869
815.484	0.0165988
815.562	0.0166821
815.640	0.0165808
815.718	0.0166130
815.796	0.0167317
815.874	0.0166779
815.953	0.0166965
816.031	0.0167593
816.109	0.0167313
816.187	0.0170149
816.265	0.0170257
816.343	0.0168955
816.421	0.0169596
816.499	0.0170683
816.578	0.0170454
816.656	0.0170802
816.734	0.0169660
816.812	0.0169605
816.890	0.0169407
816.968	0.0170947
817.046	0.0170462
817.124	0.0170255
817.203	0.0168789
817.281	0.0169763
817.359	0.0168484
817.437	0.0167513
817.515	0.0166346
817.593	0.0165630
817.671	0.0165256
817.749	0.0165186
817.828	0.0165412
817.906	0.0164505
817.984	0.0162453
818.062	0.0163438
818.140	0.0162942
818.218	0.0162836
818.296	0.0161028
818.374	0.0163153
818.453	0.0161945
818.531	0.0161628
818.609	0.0160751
818.687	0.0161017
818.765	0.0161855
818.843	0.0161364
818.921	0.0162241
818.999	0.0162092
819.078	0.0162750
819.156	0.0162396
819.234	0.0163473
819.312	0.0164317
819.390	0.0163088
819.468	0.0163919
819.546	0.0163698
819.624	0.0166316
819.703	0.0165462
819.781	0.0166017
819.859	0.0166862
819.937	0.0166900
820.015	0.0167585
820.093	0.0166815
820.171	0.0166116
820.249	0.0166142
820.328	0.0166802
820.406	0.0167450
820.484	0.0166231
820.562	0.0166171
820.640	0.0167026
820.718	0.0167385
820.796	0.0167171
820.874	0.0167202
820.953	0.0167525
821.031	0.0167405
821.109	0.0167044
821.187	0.0168529
821.265	0.0169514
821.343	0.0167981
821.421	0.0168658
821.499	0.0167580
821.578	0.0168141
821.656	0.0167974
821.734	0.0168382
821.812	0.0169913
821.890	0.0169077
821.968	0.0168007
822.046	0.0168262
822.124	0.0169394
822.203	0.0167360
822.281	0.0166982
822.359	0.0167677
822.437	0.0166668
822.515	0.0165571
822.593	0.0167825
822.671	0.0167278
822.749	0.0167006
822.828	0.0166319
822.906	0.0165213
822.984	0.0164874
823.062	0.0164928
823.140	0.0164368
823.218	0.0164205
823.296	0.0162794
823.374	0.0162949
823.453	0.0164235
823.531	0.0163000
823.609	0.0163469
823.687	0.0163564
823.765	0.0163046
823.843	0.0162548
823.921	0.0162138
823.999	0.0162383
824.078	0.0164304
824.156	0.0163292
824.234	0.0162672
824.312	0.0163683
824.390	0.0162010
824.468	0.0163140
824.546	0.0163412
824.624	0.0162807
824.703	0.0164716
824.781	0.0163428
824.859	0.0163037
824.937	0.0162923
825.015	0.0163789
825.093	0.0164287
825.171	0.0164755
825.249	0.0164494
825.328	0.0165326
825.406	0.0164983
825.484	0.0165051
825.562	0.0164153
825.640	0.0163567
825.718	0.0163428
825.796	0.0161497
825.874	0.0163239
825.953	0.0164696
826.031	0.0162978
826.109	0.0162002
826.187	0.0163945
826.265	0.0163216
826.343	0.0163346
826.421	0.0162038
826.499	0.0163048
826.578	0.0162575
826.656	0.0162691
826.734	0.0163955
826.812	0.0165563
826.890	0.0164581
826.968	0.0164087
827.046	0.0166250
827.124	0.0167828
827.203	0.0165571
827.281	0.0168055
827.359	0.0168289
827.437	0.0167091
827.515	0.0168241
827.593	0.0168203
827.671	0.0168888
827.749	0.0170153
827.828	0.0169049
827.906	0.0169634
827.984	0.0169392
828.062	0.0168462
828.140	0.0169137
828.218	0.0168529
828.296	0.0169081
828.374	0.0168539
828.453	0.0169483
828.531	0.0168340
828.609	0.0167624
828.687	0.0168783
828.765	0.0167165
828.843	0.0169248
828.921	0.0168996
828.999	0.0168299
829.078	0.0167501
829.156	0.0166647
829.234	0.0166306
829.312	0.0165459
829.390	0.0165611
829.468	0.0165699
829.546	0.0163262
829.624	0.0163119
829.703	0.0160291
829.781	0.0161487
829.859	0.0160187
829.937	0.0160141
830.015	0.0161237
830.093	0.0159576
830.171	0.0159852
830.249	0.0160454
830.328	0.0160520
830.406	0.0160404
830.484	0.0160773
830.562	0.0160883
830.640	0.0163162
830.718	0.0164063
830.796	0.0162913
830.874	0.0164568
830.953	0.0162993
831.031	0.0164000
831.109	0.0164365
831.187	0.0166060
831.265	0.0164448
831.343	0.0163356
831.421	0.0164184
831.499	0.0165031
831.578	0.0165301
831.656	0.0164718
831.734	0.0164016
831.812	0.0164420
831.890	0.0164667
831.968	0.0165297
832.046	0.0165219
832.124	0.0165158
832.203	0.0166366
832.281	0.0166455
832.359	0.0167776
832.437	0.0167661
832.515	0.0168401
832.593	0.0167906
832.671	0.0166811
832.749	0.0168437
832.828	0.0168813
832.906	0.0168600
832.984	0.0169603
833.062	0.0170127
833.140	0.0168407
833.218	0.0170013
833.296	0.0169785
833.374	0.0169485
833.453	0.0169927
833.531	0.0169731
833.609	0.0171283
833.687	0.0170103
833.765	0.0169293
833.843	0.0169808
833.921	0.0169821
833.999	0.0168922
834.078	0.0168965
834.156	0.0168349
834.234	0.0166162
834.312	0.0166299
834.390	0.0166992
834.468	0.0166471
834.546	0.0164832
834.624	0.0165670
834.703	0.0163915
834.781	0.0165527
834.859	0.0164911
834.937	0.0165068
835.015	0.0165448
835.093	0.0164963
835.171	0.0164784
835.249	0.0165911
835.328	0.0165988
835.406	0.0165504
835.484	0.0167181
835.562	0.0167553
835.640	0.0168520
835.718	0.0167249
835.796	0.0167227
835.874	0.0167239
835.953	0.0167580
836.031	0.0167635
836.109	0.0167056
836.187	0.0166604
836.265	0.0166241
836.343	0.0166251
836.421	0.0167218
836.499	0.0166444
836.578	0.0164394
836.656	0.0165497
836.734	0.0164982
836.812	0.0164014
836.890	0.0164030
836.968	0.0163047
837.046	0.0161208
837.124	0.0163008
837.203	0.0162469
837.281	0.0162199
837.359	0.0163403
837.437	0.0161687
837.515	0.0162144
837.593	0.0164093
837.671	0.0165064
837.749	0.0162811
837.828	0.0163982
837.906	0.0164415
837.984	0.0165601
838.062	0.0166393
838.140	0.0166497
838.218	0.0167294
838.296	0.0166811
838.374	0.0166655
838.453	0.0167039
838.531	0.0167593
838.609	0.0168671
838.687	0.0168968
838.765	0.0167946
838.843	0.0169318
838.921	0.0168518
838.999	0.0168771
839.078	0.0169993
839.156	0.0168224
839.234	0.0168166
839.312	0.0169625
839.390	0.0170629
839.468	0.0169769
839.546	0.0169126
839.624	0.0169762
839.703	0.0169504
839.781	0.0170229
839.859	0.0170177
839.937	0.0170428
840.015	0.0170915
840.093	0.0169643
840.171	0.0169197
840.249	0.0170196
840.328	0.0170533
840.406	0.0169372
840.484	0.0167777
840.562	0.0168996
840.640	0.0168282
840.718	0.0168203
840.796	0.0167338
840.874	0.0169330
840.953	0.0167101
841.031	0.0165150
841.109	0.0166314
841.187	0.0165252
841.265	0.0165964
841.343	0.0166051
841.421	0.0165596
841.499	0.0166318
841.578	0.0165322
841.656	0.0163168
841.734	0.0165385
841.812	0.0164939
841.890	0.0164559
841.968	0.0165080
842.046	0.0164658
842.124	0.0164930
842.203	0.0164279
842.281	0.0164626
842.359	0.0164717
842.437	0.0163495
842.515	0.0164291
842.593	0.0163948
842.671	0.0163809
842.749	0.0164878
842.828	0.0164542
842.906	0.0162779
842.984	0.0163564
843.062	0.0164663
843.140	0.0164670
843.218	0.0164086
843.296	0.0163337
843.374	0.0164155
843.453	0.0163551
843.531	0.0163698
843.609	0.0164169
843.687	0.0165339
843.765	0.0165733
843.843	0.0164893
843.921	0.0165887
843.999	0.0166064
844.078	0.0165736
844.156	0.0165540
844.234	0.0164379
844.312	0.0166518
844.390	0.0165565
844.468	0.0164516
844.546	0.0166142
844.624	0.0164592
844.703	0.0163966
844.781	0.0165527
844.859	0.0165414
844.937	0.0164050
845.015	0.0163667
845.093	0.0164269
845.171	0.0165709
845.249	0.0164954
845.328	0.0165118
845.406	0.0165927
845.484	0.0164799
845.562	0.0165192
845.640	0.0165779
845.718	0.0167340
845.796	0.0165096
845.874	0.0165407
845.953	0.0164831
846.031	0.0164529
846.109	0.0165356
846.187	0.0164885
846.265	0.0164603
846.343	0.0164728
846.421	0.0165670
846.499	0.0165541
846.578	0.0165198
846.656	0.0165559
846.734	0.0166463
846.812	0.0167702
846.890	0.0166496
846.968	0.0165662
847.046	0.0166850
847.124	0.0166467
847.203	0.0165884
847.281	0.0166947
847.359	0.0166725
847.437	0.0166856
847.515	0.0166636
847.593	0.0166724
847.671	0.0167204
847.749	0.0167231
847.828	0.0165650
847.906	0.0165837
847.984	0.0167281
848.062	0.0165930
848.140	0.0165483
848.218	0.0166088
848.296	0.0166755
848.374	0.0164661
848.453	0.0165646
848.531	0.0164032
848.609	0.0165096
848.687	0.0164274
848.765	0.0165122
848.843	0.0163322
848.921	0.0164067
848.999	0.0164329
849.078	0.0163522
849.156	0.0165339
849.234	0.0164921
849.312	0.0164281
849.390	0.0163625
849.468	0.0163725
849.546	0.0164320
849.624	0.0164640
849.703	0.0165299
849.781	0.0164471
849.859	0.0164703
849.937	0.0164813
850.015	0.0163461
850.093	0.0163854
850.171	0.0163797
850.249	0.0165147
850.328	0.0164694
850.406	0.0162800
850.484	0.0164933
850.562	0.0164556
850.640	0.0164610
850.718	0.0165362
850.796	0.0163927
850.874	0.0164778
850.953	0.0163928
851.031	0.0166415
851.109	0.0165354
851.187	0.0164616
851.265	0.0165286
851.343	0.0165485
851.421	0.0165946
851.499	0.0166290
851.578	0.0166110
851.656	0.0166410
851.734	0.0166666
851.812	0.0166383
851.890	0.0166827
851.968	0.0166043
852.046	0.0165356
852.124	0.0166042
852.203	0.0166380
852.281	0.0165933
852.359	0.0166004
852.437	0.0164883
852.515	0.0164863
852.593	0.0163639
852.671	0.0163979
852.749	0.0165461
852.828	0.0165402
852.906	0.0165600
852.984	0.0166502
853.062	0.0165476
853.140	0.0164863
853.218	0.0165212
853.296	0.0166642
853.374	0.0166042
853.453	0.0165917
853.531	0.0166732
853.609	0.0166633
853.687	0.0167725
853.765	0.0167226
853.843	0.0166472
853.921	0.0165751
853.999	0.0166440
854.078	0.0168256
854.156	0.0167706
854.234	0.0165733
854.312	0.0168038
854.390	0.0166897
854.468	0.0166718
854.546	0.0167590
854.624	0.0166354
854.703	0.0165466
854.781	0.0166904
854.859	0.0165698
854.937	0.0166057
855.015	0.0165338
855.093	0.0163897
855.171	0.0165121
855.249	0.0164328
855.328	0.0163863
855.406	0.0165340
855.484	0.0164733
855.562	0.0164946
855.640	0.0164156
855.718	0.0164411
855.796	0.0165617
855.874	0.0165610
855.953	0.0166337
856.031	0.0165321
856.109	0.0164473
856.187	0.0165137
856.265	0.0165760
856.343	0.0164309
856.421	0.0164832
856.499	0.0165654
856.578	0.0162934
856.656	0.0166369
856.734	0.0163473
856.812	0.0163351
856.890	0.0164187
856.968	0.0163969
857.046	0.0165420
857.124	0.0164838
857.203	0.0164973
857.281	0.0166816
857.359	0.0166539
857.437	0.0166674
857.515	0.0167405
857.593	0.0165839
857.671	0.0166439
857.749	0.0167529
857.828	0.0167116
857.906	0.0166576
857.984	0.0167681
858.062	0.0167876
858.140	0.0167593
858.218	0.0167920
858.296	0.0166475
858.374	0.0167165
858.453	0.0167019
858.531	0.0166315
858.609	0.0166280
858.687	0.0164821
858.765	0.0165934
858.843	0.0165344
858.921	0.0165642
858.999	0.0165774
859.078	0.0165281
859.156	0.0165768
859.234	0.0166792
859.312	0.0165843
859.390	0.0165364
859.468	0.0166452
859.546	0.0167552
859.624	0.0166675
859.703	0.0167229
859.781	0.0167319
859.859	0.0167527
859.937	0.0167310
860.015	0.0168156
860.093	0.0168920
860.171	0.0168158
860.249	0.0167979
860.328	0.0168198
860.406	0.0168917
860.484	0.0168748
860.562	0.0168226
860.640	0.0167391
860.718	0.0167200
860.796	0.0166167
860.874	0.0167189
860.953	0.0167094
861.031	0.0166882
861.109	0.0165549
861.187	0.0165559
861.265	0.0165321
861.343	0.0166582
861.421	0.0165348
861.499	0.0164204
861.578	0.0164324
861.656	0.0164515
861.734	0.0165910
861.812	0.0166199
861.890	0.0164587
861.968	0.0164157
862.046	0.0165757
862.124	0.0165137
862.203	0.0165536
862.281	0.0165600
862.359	0.0166190
862.437	0.0164371
862.515	0.0165298
862.593	0.0164500
862.671	0.0164991
862.749	0.0165134
862.828	0.0165377
862.906	0.0164997
862.984	0.0162566
863.062	0.0164364
863.140	0.0164405
863.218	0.0164917
863.296	0.0163842
863.374	0.0164677
863.453	0.0166821
863.531	0.0164936
863.609	0.0166206
863.687	0.0166560
863.765	0.0167860
863.843	0.0167039
863.921	0.0168548
863.999	0.0169298
864.078	0.0167283
864.156	0.0169417
864.234	0.0170211
864.312	0.0168863
864.390	0.0168679
864.468	0.0168612
864.546	0.0167239
864.624	0.0168929
864.703	0.0166666
864.781	0.0167081
864.859	0.0166042
864.937	0.0167621
865.015	0.0167764
865.093	0.0166618
865.171	0.0167231
865.249	0.0166656
865.328	0.0165300
865.406	0.0167268
865.484	0.0166690
865.562	0.0167754
865.640	0.0168217
865.718	0.0167438
865.796	0.0168286
865.874	0.0167232
865.953	0.0167558
866.031	0.0167409
866.109	0.0167351
866.187	0.0167953
866.265	0.0168342
866.343	0.0166885
866.421	0.0166145
866.499	0.0167119
866.578	0.0166965
866.656	0.0166030
866.734	0.0168128
866.812	0.0167340
866.890	0.0166048
866.968	0.0166000
867.046	0.0167265
867.124	0.0165357
867.203	0.0165790
867.281	0.0166866
867.359	0.0166126
867.437	0.0166777
867.515	0.0167254
867.593	0.0165240
867.671	0.0164861
867.749	0.0166566
867.828	0.0165993
867.906	0.0166540
867.984	0.0165569
868.062	0.0166786
868.140	0.0166568
868.218	0.0166439
868.296	0.0166059
868.374	0.0164003
868.453	0.0165362
868.531	0.0165009
868.609	0.0163773
868.687	0.0164211
868.765	0.0164981
868.843	0.0163979
868.921	0.0165511
868.999	0.0163618
869.078	0.0164204
869.156	0.0164764
869.234	0.0164467
869.312	0.0164692
869.390	0.0164976
869.468	0.0164797
869.546	0.0166713
869.624	0.0165063
869.703	0.0165970
869.781	0.0165697
869.859	0.0167915
869.937	0.0167770
870.015	0.0167616
870.093	0.0166761
870.171	0.0166962
870.249	0.0168098
870.328	0.0168204
870.406	0.0167808
870.484	0.0168795
870.562	0.0168007
870.640	0.0168243
870.718	0.0167481
870.796	0.0166090
870.874	0.0166966
870.953	0.0168347
871.031	0.0167717
871.109	0.0166859
871.187	0.0167004
871.265	0.0167062
871.343	0.0166412
871.421	0.0166026
871.499	0.0166644
871.578	0.0165672
871.656	0.0165511
871.734	0.0165195
871.812	0.0165965
871.890	0.0164868
871.968	0.0165533
872.046	0.0165396
872.124	0.0164794
872.203	0.0165250
872.281	0.0166263
872.359	0.0165443
872.437	0.0166309
872.515	0.0166275
872.593	0.0164455
872.671	0.0165245
872.749	0.0167323
872.828	0.0165349
872.906	0.0167461
872.984	0.0165988
873.062	0.0167014
873.140	0.0167296
873.218	0.0166065
873.296	0.0166658
873.374	0.0167459
873.453	0.0167535
873.531	0.0167307
873.609	0.0167616
873.687	0.0166219
873.765	0.0167322
873.843	0.0166833
873.921	0.0168379
873.999	0.0166837
874.078	0.0167958
874.156	0.0167567
874.234	0.0168973
874.312	0.0166775
874.390	0.0166344
874.468	0.0165907
874.546	0.0167795
874.624	0.0165888
874.703	0.0165941
874.781	0.0165163
874.859	0.0165310
874.937	0.0165593
875.015	0.0163481
875.093	0.0163193
875.171	0.0164709
875.249	0.0163779
875.328	0.0163375
875.406	0.0163863
875.484	0.0164768
875.562	0.0163177
875.640	0.0163634
875.718	0.0164987
875.796	0.0163941
875.874	0.0165363
875.953	0.0165611
876.031	0.0165237
876.109	0.0164133
876.187	0.0165166
876.265	0.0166675
876.343	0.0166168
876.421	0.0165372
876.499	0.0165545
876.578	0.0166238
876.656	0.0165233
876.734	0.0164436
876.812	0.0164220
876.890	0.0164283
876.968	0.0164242
877.046	0.0163558
877.124	0.0164894
877.203	0.0163501
877.281	0.0162421
877.359	0.0163232
877.437	0.0165153
877.515	0.0164324
877.593	0.0163716
877.671	0.0164841
877.749	0.0164896
877.828	0.0164620
877.906	0.0166248
877.984	0.0165347
878.062	0.0166431
878.140	0.0164397
878.218	0.0164890
878.296	0.0166882
878.374	0.0165969
878.453	0.0165737
878.531	0.0166086
878.609	0.0167006
878.687	0.0166119
878.765	0.0165285
878.843	0.0168105
878.921	0.0165524
878.999	0.0166459
879.078	0.0166611
879.156	0.0166943
879.234	0.0166180
879.312	0.0167217
879.390	0.0165781
879.468	0.0166412
879.546	0.0165078
879.624	0.0164854
879.703	0.0166015
879.781	0.0165660
879.859	0.0163803
879.937	0.0165420
880.015	0.0165707
880.093	0.0165478
880.171	0.0164758
880.249	0.0164328
880.328	0.0164342
880.406	0.0163638
880.484	0.0165393
880.562	0.0165443
880.640	0.0163904
880.718	0.0164271
880.796	0.0164107
880.874	0.0164169
880.953	0.0165360
881.031	0.0163927
881.109	0.0162762
881.187	0.0162992
881.265	0.0161262
881.343	0.0163156
881.421	0.0163463
881.499	0.0162502
881.578	0.0163345
881.656	0.0162266
881.734	0.0161559
881.812	0.0163155
881.890	0.0163203
881.968	0.0163358
882.046	0.0161555
882.124	0.0163754
882.203	0.0163889
882.281	0.0163393
882.359	0.0164213
882.437	0.0164691
882.515	0.0163730
882.593	0.0165783
882.671	0.0165082
882.749	0.0165246
882.828	0.0165479
882.906	0.0166724
882.984	0.0165669
883.062	0.0165258
883.140	0.0166409
883.218	0.0166897
883.296	0.0167416
883.374	0.0168585
883.453	0.0166982
883.531	0.0168172
883.609	0.0167530
883.687	0.0167925
883.765	0.0168205
883.843	0.0168850
883.921	0.0167759
883.999	0.0168301
884.078	0.0168291
884.156	0.0168477
884.234	0.0168337
884.312	0.0169485
884.390	0.0167594
884.468	0.0167132
884.546	0.0168150
884.624	0.0167698
884.703	0.0167171
884.781	0.0169356
884.859	0.0167680
884.937	0.0166414
885.015	0.0165874
885.093	0.0166296
885.171	0.0165598
885.249	0.0164451
885.328	0.0165076
885.406	0.0164772
885.484	0.0163782
885.562	0.0162231
885.640	0.0162947
885.718	0.0163367
885.796	0.0162382
885.874	0.0162957
885.953	0.0161926
886.031	0.0161926
886.109	0.0162074
886.187	0.0163067
886.265	0.0162685
886.343	0.0164756
886.421	0.0164290
886.499	0.0164313
886.578	0.0163326
886.656	0.0166309
886.734	0.0166544
886.812	0.0165973
886.890	0.0167393
886.968	0.0166425
887.046	0.0166836
887.124	0.0167053
887.203	0.0167458
887.281	0.0167623
887.359	0.0169183
887.437	0.0168249
887.515	0.0168272
887.593	0.0168064
887.671	0.0167428
887.749	0.0167603
887.828	0.0167924
887.906	0.0167609
887.984	0.0167311
888.062	0.0167669
888.140	0.0168385
888.218	0.0166206
888.296	0.0166991
888.374	0.0167699
888.453	0.0166799
888.531	0.0165749
888.609	0.0166977
888.687	0.0166274
888.765	0.0167898
888.843	0.0165546
888.921	0.0166061
888.999	0.0165453
889.078	0.0166334
889.156	0.0168097
889.234	0.0166279
889.312	0.0165318
889.390	0.0167310
889.468	0.0165981
889.546	0.0165290
889.624	0.0165762
889.703	0.0165152
889.781	0.0165800
889.859	0.0166011
889.937	0.0165440
890.015	0.0165546
890.093	0.0167551
890.171	0.0166914
890.249	0.0165958
890.328	0.0167084
890.406	0.0167110
890.484	0.0165253
890.562	0.0166374
890.640	0.0167210
890.718	0.0166396
890.796	0.0166846
890.874	0.0167338
890.953	0.0167578
891.031	0.0166393
891.109	0.0167360
891.187	0.0167615
891.265	0.0167278
891.343	0.0168562
891.421	0.0168260
891.499	0.0167116
891.578	0.0167458
891.656	0.0168073
891.734	0.0168267
891.812	0.0167381
891.890	0.0166619
891.968	0.0166930
892.046	0.0166389
892.124	0.0167122
892.203	0.0167025
892.281	0.0166895
892.359	0.0168255
892.437	0.0166709
892.515	0.0166095
892.593	0.0167204
892.671	0.0166666
892.749	0.0167880
892.828	0.0166669
892.906	0.0165675
892.984	0.0165956
893.062	0.0165064
893.140	0.0165961
893.218	0.0166064
893.296	0.0166318
893.374	0.0165559
893.453	0.0165514
893.531	0.0164616
893.609	0.0165507
893.687	0.0165082
893.765	0.0166171
893.843	0.0165781
893.921	0.0166472
893.999	0.0166547
894.078	0.0167551
894.156	0.0166412
894.234	0.0166305
894.312	0.0166383
894.390	0.0169236
894.468	0.0166224
894.546	0.0165327
894.624	0.0164579
894.703	0.0166423
894.781	0.0166254
894.859	0.0165887
894.937	0.0166444
895.015	0.0166128
895.093	0.0165664
895.171	0.0169090
895.249	0.0166792
895.328	0.0165795
895.406	0.0166063
895.484	0.0167243
895.562	0.0166381
895.640	0.0166049
895.718	0.0166166
895.796	0.0167796
895.874	0.0166125
895.953	0.0165759
896.031	0.0165385
896.109	0.0165103
896.187	0.0165715
896.265	0.0164167
896.343	0.0164272
896.421	0.0165004
896.499	0.0165858
896.578	0.0165215
896.656	0.0166528
896.734	0.0165474
896.812	0.0165055
896.890	0.0166589
896.968	0.0166070
897.046	0.0166525
897.124	0.0167327
897.203	0.0165952
897.281	0.0166222
897.359	0.0166702
897.437	0.0167278
897.515	0.0167324
897.593	0.0167743
897.671	0.0167159
897.749	0.0167364
897.828	0.0166670
897.906	0.0167764
897.984	0.0167313
898.062	0.0168182
898.140	0.0166457
898.218	0.0165514
898.296	0.0167741
898.374	0.0167773
898.453	0.0167869
898.531	0.0165933
898.609	0.0166745
898.687	0.0166444
898.765	0.0166817
898.843	0.0167593
898.921	0.0166433
898.999	0.0166723
899.078	0.0166464
899.156	0.0166269
899.234	0.0166824
899.312	0.0164652
899.390	0.0165590
899.468	0.0167264
899.546	0.0165421
899.624	0.0165516
899.703	0.0167168
899.781	0.0166490
899.859	0.0166743
899.937	0.0165159
900.015	0.0166508
900.093	0.0167042
900.171	0.0167088
900.249	0.0166878
900.328	0.0166277
900.406	0.0165744
900.484	0.0167004
900.562	0.0166428
900.640	0.0166571
900.718	0.0166103
900.796	0.0166247
900.874	0.0166169
900.953	0.0164728
901.031	0.0165905
901.109	0.0164232
901.187	0.0165046
901.265	0.0162908
901.343	0.0163927
901.421	0.0165236
901.499	0.0163863
901.578	0.0164335
901.656	0.0163285
901.734	0.0163865
901.812	0.0164413
901.890	0.0164767
901.968	0.0163934
902.046	0.0163301
902.124	0.0163578
902.203	0.0166068
902.281	0.0166080
902.359	0.0164713
902.437	0.0164453
902.515	0.0165366
902.593	0.0165863
902.671	0.0165822
902.749	0.0164694
902.828	0.0165287
902.906	0.0164154
902.984	0.0165567
903.062	0.0166330
903.140	0.0166582
903.218	0.0165520
903.296	0.0167107
903.374	0.0166196
903.453	0.0165997
903.531	0.0166091
903.609	0.0166647
903.687	0.0165620
903.765	0.0166695
903.843	0.0165888
903.921	0.0166413
903.999	0.0165822
904.078	0.0165419
904.156	0.0165166
904.234	0.0165504
904.312	0.0166152
904.390	0.0164465
904.468	0.0163836
904.546	0.0164786
904.624	0.0166018
904.703	0.0164078
904.781	0.0164967
904.859	0.0164045
904.937	0.0164004
905.015	0.0164019
905.093	0.0163892
905.171	0.0163403
905.249	0.0163016
905.328	0.0164436
905.406	0.0162385
905.484	0.0162244
905.562	0.0164267
905.640	0.0162122
905.718	0.0163500
905.796	0.0162813
905.874	0.0163349
905.953	0.0162967
906.031	0.0162568
906.109	0.0163494
906.187	0.0164574
906.265	0.0164180
906.343	0.0163114
906.421	0.0164714
906.499	0.0164857
906.578	0.0165479
906.656	0.0164265
906.734	0.0166311
906.812	0.0166971
906.890	0.0167139
906.968	0.0167313
907.046	0.0166074
907.124	0.0167373
907.203	0.0167727
907.281	0.0165645
907.359	0.0166239
907.437	0.0166483
907.515	0.0166066
907.593	0.0164344
907.671	0.0165299
907.749	0.0165182
907.828	0.0165553
907.906	0.0165108
907.984	0.0164671
908.062	0.0165703
908.140	0.0166211
908.218	0.0164371
908.296	0.0164736
908.374	0.0164059
908.453	0.0163320
908.531	0.0162955
908.609	0.0163363
908.687	0.0164677
908.765	0.0163739
908.843	0.0162804
908.921	0.0162486
908.999	0.0163026
909.078	0.0162804
909.156	0.0162896
909.234	0.0162911
909.312	0.0164326
909.390	0.0163360
909.468	0.0164143
909.546	0.0163121
909.624	0.0163093
909.703	0.0164344
909.781	0.0164091
909.859	0.0165414
909.937	0.0164767
910.015	0.0165962
910.093	0.0165947
910.171	0.0164049
910.249	0.0165755
910.328	0.0164460
910.406	0.0166138
910.484	0.0165785
910.562	0.0165275
910.640	0.0166257
910.718	0.0165879
910.796	0.0165395
910.874	0.0166591
910.953	0.0166736
911.031	0.0164944
911.109	0.0165748
911.187	0.0167025
911.265	0.0164854
911.343	0.0167168
911.421	0.0167623
911.499	0.0165679
911.578	0.0166006
911.656	0.0167098
911.734	0.0168246
911.812	0.0166924
911.890	0.0167582
911.968	0.0166592
912.046	0.0167636
912.124	0.0168272
912.203	0.0167281
912.281	0.0167075
912.359	0.0168163
912.437	0.0167304
912.515	0.0167673
912.593	0.0166538
912.671	0.0167278
912.749	0.0165972
912.828	0.0166106
912.906	0.0165673
912.984	0.0166031
913.062	0.0166246
913.140	0.0166546
913.218	0.0165038
913.296	0.0165394
913.374	0.0164402
913.453	0.0165511
913.531	0.0165331
913.609	0.0164809
913.687	0.0165043
913.765	0.0165117
913.843	0.0164864
913.921	0.0164223
913.999	0.0165843
914.078	0.0165800
914.156	0.0166115
914.234	0.0166031
914.312	0.0166180
914.390	0.0166982
914.468	0.0164653
914.546	0.0165836
914.624	0.0165609
914.703	0.0165629
914.781	0.0166699
914.859	0.0165815
914.937	0.0165293
915.015	0.0165211
915.093	0.0165959
915.171	0.0165157
915.249	0.0166195
915.328	0.0165916
915.406	0.0165627
915.484	0.0166005
915.562	0.0166386
915.640	0.0165782
915.718	0.0167068
915.796	0.0165690
915.874	0.0165475
915.953	0.0166350
916.031	0.0166758
916.109	0.0168853
916.187	0.0169093
916.265	0.0166778
916.343	0.0168105
916.421	0.0167603
916.499	0.0169183
916.578	0.0168124
916.656	0.0168865
916.734	0.0169233
916.812	0.0167327
916.890	0.0168005
916.968	0.0169270
917.046	0.0169051
917.124	0.0168999
917.203	0.0168536
917.281	0.0166297
917.359	0.0168379
917.437	0.0168378
917.515	0.0165974
917.593	0.0167106
917.671	0.0166595
917.749	0.0167600
917.828	0.0167698
917.906	0.0165677
917.984	0.0166616
918.062	0.0167907
918.140	0.0166600
918.218	0.0168167
918.296	0.0166628
918.374	0.0165475
918.453	0.0165036
918.531	0.0165907
918.609	0.0165871
918.687	0.0165189
918.765	0.0165520
918.843	0.0165399
918.921	0.0165815
918.999	0.0164036
919.078	0.0166910
919.156	0.0165506
919.234	0.0165526
919.312	0.0165317
919.390	0.0165852
919.468	0.0167055
919.546	0.0166978
919.624	0.0167583
919.703	0.0166759
919.781	0.0167598
919.859	0.0166982
919.937	0.0166563
