06/10/2022	18:51:00	Ver.	4.1	UNKNOWN
Optical Delay	600.015094	Delta X		0.078125	Sweeps	1	Scan Rate	0/0
Coordinates	Axis 1	NaN	Axis 2	NaN	Axis 3	NaN	Axis 4	NaN	Axis 5	NaN	Axis 6	0.000000
TX Power	0.000000	RX Power	0.000000

600.015	0.0162852
600.093	0.0162402
600.171	0.0163299
600.249	0.0162527
600.328	0.0162218
600.406	0.0164166
600.484	0.0163589
600.562	0.0163235
600.640	0.0163031
600.718	0.0162996
600.796	0.0162564
600.874	0.0162095
600.953	0.0163331
601.031	0.0161960
601.109	0.0162115
601.187	0.0163483
601.265	0.0163849
601.343	0.0163790
601.421	0.0161994
601.499	0.0163136
601.578	0.0162856
601.656	0.0163864
601.734	0.0162283
601.812	0.0164021
601.890	0.0162904
601.968	0.0163411
602.046	0.0163150
602.124	0.0163784
602.203	0.0162363
602.281	0.0162806
602.359	0.0162995
602.437	0.0163123
602.515	0.0162226
602.593	0.0162103
602.671	0.0162447
602.749	0.0163686
602.828	0.0162921
602.906	0.0163197
602.984	0.0163427
603.062	0.0162746
603.140	0.0162694
603.218	0.0162746
603.296	0.0163558
603.374	0.0165069
603.453	0.0163350
603.531	0.0163533
603.609	0.0163194
603.687	0.0163330
603.765	0.0163014
603.843	0.0162906
603.921	0.0163770
603.999	0.0163326
604.078	0.0162959
604.156	0.0164380
604.234	0.0164088
604.312	0.0163585
604.390	0.0162682
604.468	0.0163849
604.546	0.0163916
604.624	0.0164514
604.703	0.0163720
604.781	0.0164378
604.859	0.0163377
604.937	0.0163054
605.015	0.0163726
605.093	0.0163910
605.171	0.0164010
605.249	0.0163330
605.328	0.0163268
605.406	0.0163007
605.484	0.0162811
605.562	0.0163541
605.640	0.0163792
605.718	0.0163223
605.796	0.0164464
605.874	0.0164124
605.953	0.0163736
606.031	0.0163340
606.109	0.0164433
606.187	0.0163720
606.265	0.0162872
606.343	0.0162111
606.421	0.0163699
606.499	0.0162979
606.578	0.0163017
606.656	0.0163680
606.734	0.0164108
606.812	0.0163190
606.890	0.0163395
606.968	0.0163208
607.046	0.0162329
607.124	0.0162856
607.203	0.0162969
607.281	0.0164349
607.359	0.0164263
607.437	0.0164613
607.515	0.0163836
607.593	0.0164516
607.671	0.0164170
607.749	0.0163799
607.828	0.0163311
607.906	0.0162170
607.984	0.0163351
608.062	0.0164895
608.140	0.0163275
608.218	0.0163436
608.296	0.0164777
608.374	0.0162849
608.453	0.0161938
608.531	0.0163764
608.609	0.0164336
608.687	0.0162755
608.765	0.0162832
608.843	0.0163823
608.921	0.0163748
608.999	0.0162964
609.078	0.0163863
609.156	0.0164911
609.234	0.0163127
609.312	0.0162519
609.390	0.0162895
609.468	0.0164297
609.546	0.0162695
609.624	0.0163837
609.703	0.0162812
609.781	0.0164146
609.859	0.0162766
609.937	0.0163543
610.015	0.0163300
610.093	0.0163183
610.171	0.0162820
610.249	0.0163228
610.328	0.0161991
610.406	0.0164001
610.484	0.0163066
610.562	0.0161900
610.640	0.0161486
610.718	0.0162832
610.796	0.0163186
610.874	0.0163139
610.953	0.0161811
611.031	0.0161898
611.109	0.0162106
611.187	0.0162546
611.265	0.0162473
611.343	0.0162565
611.421	0.0161449
611.499	0.0163232
611.578	0.0162213
611.656	0.0162569
611.734	0.0162379
611.812	0.0163853
611.890	0.0164015
611.968	0.0162403
612.046	0.0162204
612.124	0.0161639
612.203	0.0163206
612.281	0.0162212
612.359	0.0161321
612.437	0.0161043
612.515	0.0162553
612.593	0.0162643
612.671	0.0164114
612.749	0.0162418
612.828	0.0161517
612.906	0.0163710
612.984	0.0161417
613.062	0.0162605
613.140	0.0162641
613.218	0.0162261
613.296	0.0161819
613.374	0.0161399
613.453	0.0161370
613.531	0.0162293
613.609	0.0162033
613.687	0.0163139
613.765	0.0161646
613.843	0.0162360
613.921	0.0163089
613.999	0.0163347
614.078	0.0163724
614.156	0.0162894
614.234	0.0164165
614.312	0.0162604
614.390	0.0162618
614.468	0.0162160
614.546	0.0162200
614.624	0.0163569
614.703	0.0162510
614.781	0.0162682
614.859	0.0162734
614.937	0.0162638
615.015	0.0162717
615.093	0.0162933
615.171	0.0162661
615.249	0.0161696
615.328	0.0162199
615.406	0.0161616
615.484	0.0162408
615.562	0.0163032
615.640	0.0163564
615.718	0.0163702
615.796	0.0161292
615.874	0.0163001
615.953	0.0163675
616.031	0.0163329
616.109	0.0162919
616.187	0.0163333
616.265	0.0162608
616.343	0.0162426
616.421	0.0162852
616.499	0.0163326
616.578	0.0163380
616.656	0.0163797
616.734	0.0163010
616.812	0.0162383
616.890	0.0162142
616.968	0.0163646
617.046	0.0163481
617.124	0.0163150
617.203	0.0163314
617.281	0.0162357
617.359	0.0163457
617.437	0.0163354
617.515	0.0161974
617.593	0.0162774
617.671	0.0163562
617.749	0.0162579
617.828	0.0163996
617.906	0.0162493
617.984	0.0163455
618.062	0.0162941
618.140	0.0162727
618.218	0.0164136
618.296	0.0164099
618.374	0.0163282
618.453	0.0163178
618.531	0.0162120
618.609	0.0162601
618.687	0.0164198
618.765	0.0163371
618.843	0.0162165
618.921	0.0162788
618.999	0.0164148
619.078	0.0163677
619.156	0.0162900
619.234	0.0163169
619.312	0.0163014
619.390	0.0162896
619.468	0.0163663
619.546	0.0162199
619.624	0.0161975
619.703	0.0163354
619.781	0.0163174
619.859	0.0163570
619.937	0.0162244
620.015	0.0163993
620.093	0.0163377
620.171	0.0163568
620.249	0.0163833
620.328	0.0161408
620.406	0.0162651
620.484	0.0163259
620.562	0.0162360
620.640	0.0161877
620.718	0.0163726
620.796	0.0163939
620.874	0.0162755
620.953	0.0163773
621.031	0.0163775
621.109	0.0162979
621.187	0.0162122
621.265	0.0163787
621.343	0.0162992
621.421	0.0163127
621.499	0.0164342
621.578	0.0162981
621.656	0.0161929
621.734	0.0162744
621.812	0.0163377
621.890	0.0162437
621.968	0.0163771
622.046	0.0164421
622.124	0.0162392
622.203	0.0162469
622.281	0.0164246
622.359	0.0163493
622.437	0.0163674
622.515	0.0164387
622.593	0.0163032
622.671	0.0163364
622.749	0.0161742
622.828	0.0162133
622.906	0.0162080
622.984	0.0163504
623.062	0.0163983
623.140	0.0163131
623.218	0.0163011
623.296	0.0162873
623.374	0.0163026
623.453	0.0163657
623.531	0.0163605
623.609	0.0162685
623.687	0.0163129
623.765	0.0163084
623.843	0.0164796
623.921	0.0164410
623.999	0.0162656
624.078	0.0162647
624.156	0.0163912
624.234	0.0163757
624.312	0.0163386
624.390	0.0164523
624.468	0.0164121
624.546	0.0163430
624.624	0.0163085
624.703	0.0163338
624.781	0.0164754
624.859	0.0164837
624.937	0.0164281
625.015	0.0164413
625.093	0.0162959
625.171	0.0163023
625.249	0.0163568
625.328	0.0163924
625.406	0.0163107
625.484	0.0164046
625.562	0.0163757
625.640	0.0162580
625.718	0.0162975
625.796	0.0164085
625.874	0.0164131
625.953	0.0163444
626.031	0.0164165
626.109	0.0164413
626.187	0.0163127
626.265	0.0163890
626.343	0.0163262
626.421	0.0162585
626.499	0.0163516
626.578	0.0163188
626.656	0.0163482
626.734	0.0163367
626.812	0.0163413
626.890	0.0163383
626.968	0.0164671
627.046	0.0165176
627.124	0.0163726
627.203	0.0163271
627.281	0.0163654
627.359	0.0163612
627.437	0.0162730
627.515	0.0161950
627.593	0.0162714
627.671	0.0162886
627.749	0.0162283
627.828	0.0162814
627.906	0.0164425
627.984	0.0164088
628.062	0.0161718
628.140	0.0162619
628.218	0.0163291
628.296	0.0163606
628.374	0.0163476
628.453	0.0163924
628.531	0.0163937
628.609	0.0162889
628.687	0.0163077
628.765	0.0163429
628.843	0.0162939
628.921	0.0162116
628.999	0.0163377
629.078	0.0163789
629.156	0.0164106
629.234	0.0162105
629.312	0.0162014
629.390	0.0163914
629.468	0.0162886
629.546	0.0163039
629.624	0.0163323
629.703	0.0163319
629.781	0.0161760
629.859	0.0162219
629.937	0.0163920
630.015	0.0164268
630.093	0.0163349
630.171	0.0162858
630.249	0.0162941
630.328	0.0164475
630.406	0.0164501
630.484	0.0162781
630.562	0.0163876
630.640	0.0164100
630.718	0.0162534
630.796	0.0163780
630.874	0.0163225
630.953	0.0163309
631.031	0.0162431
631.109	0.0163545
631.187	0.0162824
631.265	0.0163074
631.343	0.0163840
631.421	0.0163900
631.499	0.0164120
631.578	0.0163275
631.656	0.0163107
631.734	0.0163313
631.812	0.0163290
631.890	0.0163335
631.968	0.0162564
632.046	0.0163330
632.124	0.0161883
632.203	0.0163358
632.281	0.0163701
632.359	0.0163110
632.437	0.0163227
632.515	0.0162879
632.593	0.0162360
632.671	0.0163041
632.749	0.0163185
632.828	0.0162344
632.906	0.0162892
632.984	0.0162351
633.062	0.0162666
633.140	0.0161890
633.218	0.0162772
633.296	0.0163147
633.374	0.0161784
633.453	0.0162513
633.531	0.0162456
633.609	0.0161830
633.687	0.0163011
633.765	0.0162050
633.843	0.0161830
633.921	0.0162116
633.999	0.0161588
634.078	0.0162529
634.156	0.0163425
634.234	0.0162754
634.312	0.0161938
634.390	0.0163132
634.468	0.0162810
634.546	0.0161626
634.624	0.0162894
634.703	0.0163015
634.781	0.0163945
634.859	0.0163362
634.937	0.0162160
635.015	0.0162820
635.093	0.0161045
635.171	0.0163071
635.249	0.0163091
635.328	0.0162312
635.406	0.0161684
635.484	0.0163529
635.562	0.0163432
635.640	0.0162611
635.718	0.0162708
635.796	0.0162737
635.874	0.0162790
635.953	0.0162234
636.031	0.0162861
636.109	0.0163666
636.187	0.0161967
636.265	0.0162032
636.343	0.0162993
636.421	0.0162691
636.499	0.0163248
636.578	0.0163535
636.656	0.0162885
636.734	0.0162375
636.812	0.0162074
636.890	0.0163052
636.968	0.0162731
637.046	0.0162404
637.124	0.0161452
637.203	0.0161650
637.281	0.0163214
637.359	0.0163290
637.437	0.0163805
637.515	0.0163770
637.593	0.0161948
637.671	0.0162654
637.749	0.0162194
637.828	0.0162458
637.906	0.0162344
637.984	0.0162093
638.062	0.0162421
638.140	0.0163213
638.218	0.0163813
638.296	0.0163349
638.374	0.0163882
638.453	0.0163335
638.531	0.0162782
638.609	0.0162628
638.687	0.0162192
638.765	0.0163731
638.843	0.0163594
638.921	0.0163143
638.999	0.0163199
639.078	0.0162201
639.156	0.0162482
639.234	0.0163568
639.312	0.0162698
639.390	0.0162585
639.468	0.0163285
639.546	0.0162036
639.624	0.0163554
639.703	0.0160956
639.781	0.0164134
639.859	0.0162798
639.937	0.0162547
640.015	0.0162325
640.093	0.0162359
640.171	0.0162836
640.249	0.0163249
640.328	0.0162360
640.406	0.0162062
640.484	0.0162283
640.562	0.0163977
640.640	0.0163313
640.718	0.0162197
640.796	0.0163284
640.874	0.0162794
640.953	0.0164520
641.031	0.0162351
641.109	0.0162257
641.187	0.0163610
641.265	0.0163969
641.343	0.0162808
641.421	0.0163527
641.499	0.0163120
641.578	0.0163845
641.656	0.0163386
641.734	0.0162581
641.812	0.0163231
641.890	0.0162801
641.968	0.0163696
642.046	0.0164053
642.124	0.0164145
642.203	0.0162292
642.281	0.0163090
642.359	0.0162547
642.437	0.0162118
642.515	0.0162537
642.593	0.0161373
642.671	0.0162776
642.749	0.0163327
642.828	0.0162778
642.906	0.0161395
642.984	0.0164053
643.062	0.0163570
643.140	0.0161779
643.218	0.0163240
643.296	0.0163238
643.374	0.0162691
643.453	0.0162883
643.531	0.0161692
643.609	0.0162244
643.687	0.0162429
643.765	0.0162310
643.843	0.0162693
643.921	0.0161758
643.999	0.0161013
644.078	0.0161077
644.156	0.0163879
644.234	0.0163145
644.312	0.0161899
644.390	0.0162969
644.468	0.0163354
644.546	0.0163139
644.624	0.0163058
644.703	0.0163845
644.781	0.0163612
644.859	0.0161446
644.937	0.0162689
645.015	0.0163464
645.093	0.0163462
645.171	0.0161674
645.249	0.0161092
645.328	0.0163399
645.406	0.0162212
645.484	0.0162015
645.562	0.0164390
645.640	0.0162848
645.718	0.0162840
645.796	0.0162627
645.874	0.0164135
645.953	0.0162772
646.031	0.0162549
646.109	0.0162928
646.187	0.0162121
646.265	0.0162246
646.343	0.0163818
646.421	0.0162446
646.499	0.0162528
646.578	0.0161487
646.656	0.0163168
646.734	0.0161295
646.812	0.0163137
646.890	0.0163680
646.968	0.0162640
647.046	0.0161734
647.124	0.0163474
647.203	0.0163355
647.281	0.0163433
647.359	0.0161145
647.437	0.0161326
647.515	0.0162654
647.593	0.0164209
647.671	0.0161586
647.749	0.0161957
647.828	0.0162345
647.906	0.0162590
647.984	0.0163720
648.062	0.0161912
648.140	0.0161668
648.218	0.0163139
648.296	0.0163107
648.374	0.0162463
648.453	0.0162745
648.531	0.0163084
648.609	0.0161068
648.687	0.0162585
648.765	0.0162977
648.843	0.0162599
648.921	0.0163672
648.999	0.0162881
649.078	0.0163438
649.156	0.0162099
649.234	0.0163376
649.312	0.0164317
649.390	0.0162392
649.468	0.0163842
649.546	0.0163033
649.624	0.0161931
649.703	0.0163723
649.781	0.0163061
649.859	0.0162199
649.937	0.0163429
650.015	0.0163205
650.093	0.0162813
650.171	0.0163625
650.249	0.0162413
650.328	0.0163599
650.406	0.0164378
650.484	0.0162397
650.562	0.0163543
650.640	0.0163033
650.718	0.0163735
650.796	0.0163242
650.874	0.0163670
650.953	0.0164268
651.031	0.0163153
651.109	0.0163665
651.187	0.0163406
651.265	0.0163050
651.343	0.0162357
651.421	0.0162909
651.499	0.0163936
651.578	0.0163731
651.656	0.0163062
651.734	0.0163233
651.812	0.0163756
651.890	0.0162621
651.968	0.0162611
652.046	0.0162696
652.124	0.0162218
652.203	0.0162968
652.281	0.0162553
652.359	0.0163338
652.437	0.0163611
652.515	0.0162825
652.593	0.0162505
652.671	0.0162790
652.749	0.0161861
652.828	0.0161195
652.906	0.0162828
652.984	0.0163099
653.062	0.0162491
653.140	0.0162392
653.218	0.0162266
653.296	0.0162057
653.374	0.0163139
653.453	0.0162685
653.531	0.0162257
653.609	0.0162276
653.687	0.0162941
653.765	0.0161965
653.843	0.0162527
653.921	0.0160946
653.999	0.0163853
654.078	0.0163588
654.156	0.0160927
654.234	0.0162296
654.312	0.0162331
654.390	0.0163614
654.468	0.0163300
654.546	0.0161640
654.624	0.0162074
654.703	0.0163036
654.781	0.0162277
654.859	0.0163258
654.937	0.0161948
655.015	0.0163050
655.093	0.0163908
655.171	0.0161986
655.249	0.0162462
655.328	0.0163756
655.406	0.0160906
655.484	0.0162993
655.562	0.0163612
655.640	0.0162685
655.718	0.0162794
655.796	0.0162634
655.874	0.0164449
655.953	0.0163221
656.031	0.0162763
656.109	0.0162112
656.187	0.0163924
656.265	0.0162429
656.343	0.0163256
656.421	0.0162894
656.499	0.0162904
656.578	0.0163039
656.656	0.0163876
656.734	0.0163596
656.812	0.0163978
656.890	0.0161851
656.968	0.0162906
657.046	0.0164233
657.124	0.0162579
657.203	0.0162862
657.281	0.0162671
657.359	0.0162381
657.437	0.0161582
657.515	0.0164292
657.593	0.0163000
657.671	0.0162172
657.749	0.0161959
657.828	0.0162988
657.906	0.0162366
657.984	0.0162769
658.062	0.0163413
658.140	0.0161773
658.218	0.0161629
658.296	0.0161971
658.374	0.0163673
658.453	0.0161993
658.531	0.0162267
658.609	0.0162849
658.687	0.0161929
658.765	0.0162908
658.843	0.0163316
658.921	0.0162653
658.999	0.0163698
659.078	0.0164150
659.156	0.0162876
659.234	0.0163213
659.312	0.0162611
659.390	0.0162029
659.468	0.0161317
659.546	0.0162126
659.624	0.0163326
659.703	0.0163795
659.781	0.0162509
659.859	0.0163431
659.937	0.0161961
660.015	0.0161914
660.093	0.0162082
660.171	0.0163675
660.249	0.0161507
660.328	0.0162054
660.406	0.0163723
660.484	0.0163354
660.562	0.0163019
660.640	0.0161092
660.718	0.0162200
660.796	0.0162716
660.874	0.0163779
660.953	0.0163179
661.031	0.0163388
661.109	0.0162995
661.187	0.0162159
661.265	0.0162622
661.343	0.0164657
661.421	0.0163960
661.499	0.0162840
661.578	0.0163727
661.656	0.0162162
661.734	0.0162427
661.812	0.0162096
661.890	0.0163066
661.968	0.0163518
662.046	0.0162751
662.124	0.0162930
662.203	0.0163932
662.281	0.0163605
662.359	0.0162222
662.437	0.0162934
662.515	0.0163435
662.593	0.0162744
662.671	0.0163354
662.749	0.0162482
662.828	0.0162099
662.906	0.0163711
662.984	0.0163765
663.062	0.0163190
663.140	0.0163084
663.218	0.0162740
663.296	0.0163076
663.374	0.0162334
663.453	0.0163863
663.531	0.0162884
663.609	0.0162265
663.687	0.0161494
663.765	0.0162659
663.843	0.0162943
663.921	0.0162361
663.999	0.0164302
664.078	0.0163554
664.156	0.0163686
664.234	0.0162468
664.312	0.0162222
664.390	0.0163487
664.468	0.0164893
664.546	0.0163718
664.624	0.0163887
664.703	0.0164178
664.781	0.0164551
664.859	0.0163993
664.937	0.0163792
665.015	0.0164931
665.093	0.0163235
665.171	0.0161798
665.249	0.0164280
665.328	0.0165053
665.406	0.0163899
665.484	0.0163132
665.562	0.0163443
665.640	0.0162830
665.718	0.0163516
665.796	0.0163341
665.874	0.0163660
665.953	0.0161538
666.031	0.0162974
666.109	0.0163023
666.187	0.0162730
666.265	0.0164137
666.343	0.0163692
666.421	0.0163168
666.499	0.0163702
666.578	0.0162864
666.656	0.0162928
666.734	0.0163255
666.812	0.0162057
666.890	0.0162719
666.968	0.0163486
667.046	0.0162565
667.124	0.0163962
667.203	0.0162708
667.281	0.0163840
667.359	0.0163302
667.437	0.0163438
667.515	0.0164532
667.593	0.0164683
667.671	0.0165032
667.749	0.0162917
667.828	0.0162298
667.906	0.0163435
667.984	0.0164077
668.062	0.0163699
668.140	0.0164045
668.218	0.0163113
668.296	0.0162929
668.374	0.0163860
668.453	0.0163665
668.531	0.0163212
668.609	0.0162540
668.687	0.0163120
668.765	0.0163502
668.843	0.0162853
668.921	0.0162704
668.999	0.0162847
669.078	0.0162634
669.156	0.0163046
669.234	0.0163234
669.312	0.0163184
669.390	0.0161726
669.468	0.0164116
669.546	0.0163380
669.624	0.0161074
669.703	0.0162757
669.781	0.0162820
669.859	0.0162749
669.937	0.0162492
670.015	0.0163705
670.093	0.0162246
670.171	0.0162090
670.249	0.0162597
670.328	0.0163633
670.406	0.0162699
670.484	0.0163274
670.562	0.0161959
670.640	0.0162160
670.718	0.0161848
670.796	0.0163005
670.874	0.0163908
670.953	0.0162590
671.031	0.0161773
671.109	0.0161885
671.187	0.0163921
671.265	0.0163377
671.343	0.0162395
671.421	0.0162132
671.499	0.0161095
671.578	0.0163065
671.656	0.0162073
671.734	0.0163045
671.812	0.0163584
671.890	0.0163590
671.968	0.0161864
672.046	0.0162878
672.124	0.0162999
672.203	0.0164956
672.281	0.0163057
672.359	0.0161968
672.437	0.0162289
672.515	0.0162397
672.593	0.0162512
672.671	0.0162873
672.749	0.0163306
672.828	0.0163073
672.906	0.0162878
672.984	0.0163187
673.062	0.0162775
673.140	0.0161917
673.218	0.0163532
673.296	0.0163328
673.374	0.0163616
673.453	0.0163784
673.531	0.0161553
673.609	0.0163089
673.687	0.0163713
673.765	0.0163846
673.843	0.0162531
673.921	0.0162388
673.999	0.0161642
674.078	0.0162865
674.156	0.0162839
674.234	0.0163225
674.312	0.0162122
674.390	0.0162347
674.468	0.0162888
674.546	0.0163197
674.624	0.0163158
674.703	0.0162154
674.781	0.0163316
674.859	0.0163214
674.937	0.0162624
675.015	0.0164071
675.093	0.0163181
675.171	0.0162361
675.249	0.0162865
675.328	0.0163346
675.406	0.0161899
675.484	0.0162299
675.562	0.0162399
675.640	0.0162213
675.718	0.0161707
675.796	0.0162112
675.874	0.0163541
675.953	0.0161710
676.031	0.0162375
676.109	0.0163251
676.187	0.0161994
676.265	0.0161636
676.343	0.0163286
676.421	0.0163171
676.499	0.0161220
676.578	0.0162163
676.656	0.0162138
676.734	0.0162363
676.812	0.0162585
676.890	0.0163750
676.968	0.0162772
677.046	0.0162055
677.124	0.0161816
677.203	0.0162174
677.281	0.0164647
677.359	0.0162383
677.437	0.0161471
677.515	0.0161294
677.593	0.0162976
677.671	0.0161957
677.749	0.0161693
677.828	0.0162404
677.906	0.0162455
677.984	0.0164120
678.062	0.0161218
678.140	0.0161853
678.218	0.0162352
678.296	0.0164134
678.374	0.0163264
678.453	0.0162863
678.531	0.0162640
678.609	0.0163033
678.687	0.0163035
678.765	0.0163830
678.843	0.0163387
678.921	0.0164281
678.999	0.0163084
679.078	0.0161874
679.156	0.0163922
679.234	0.0162495
679.312	0.0162866
679.390	0.0162886
679.468	0.0162793
679.546	0.0162192
679.624	0.0162115
679.703	0.0165296
679.781	0.0163286
679.859	0.0162227
679.937	0.0162574
680.015	0.0163754
680.093	0.0163025
680.171	0.0162663
680.249	0.0162773
680.328	0.0163443
680.406	0.0163734
680.484	0.0162782
680.562	0.0164484
680.640	0.0162799
680.718	0.0163692
680.796	0.0163116
680.874	0.0163373
680.953	0.0164349
681.031	0.0162767
681.109	0.0162169
681.187	0.0163219
681.265	0.0163667
681.343	0.0163476
681.421	0.0163847
681.499	0.0163466
681.578	0.0163329
681.656	0.0163395
681.734	0.0163134
681.812	0.0164442
681.890	0.0162906
681.968	0.0163833
682.046	0.0164271
682.124	0.0163409
682.203	0.0162560
682.281	0.0163920
682.359	0.0164323
682.437	0.0163441
682.515	0.0163650
682.593	0.0162948
682.671	0.0163219
682.749	0.0163654
682.828	0.0162731
682.906	0.0164733
682.984	0.0163464
683.062	0.0163769
683.140	0.0163434
683.218	0.0162716
683.296	0.0162965
683.374	0.0164042
683.453	0.0164407
683.531	0.0163638
683.609	0.0163280
683.687	0.0162323
683.765	0.0164207
683.843	0.0163680
683.921	0.0162853
683.999	0.0162672
684.078	0.0164816
684.156	0.0163066
684.234	0.0162865
684.312	0.0163503
684.390	0.0162507
684.468	0.0162766
684.546	0.0163047
684.624	0.0162698
684.703	0.0164149
684.781	0.0163763
684.859	0.0163440
684.937	0.0162756
685.015	0.0164497
685.093	0.0163761
685.171	0.0163300
685.249	0.0161610
685.328	0.0162698
685.406	0.0163511
685.484	0.0164336
685.562	0.0163924
685.640	0.0163477
685.718	0.0164286
685.796	0.0162961
685.874	0.0163393
685.953	0.0162994
686.031	0.0163084
686.109	0.0163530
686.187	0.0163918
686.265	0.0163165
686.343	0.0163785
686.421	0.0162859
686.499	0.0162552
686.578	0.0163931
686.656	0.0161963
686.734	0.0161761
686.812	0.0163518
686.890	0.0161933
686.968	0.0163116
687.046	0.0163152
687.124	0.0162973
687.203	0.0163737
687.281	0.0161655
687.359	0.0162802
687.437	0.0163427
687.515	0.0161764
687.593	0.0162607
687.671	0.0163476
687.749	0.0163428
687.828	0.0162424
687.906	0.0163940
687.984	0.0162824
688.062	0.0161750
688.140	0.0162968
688.218	0.0163017
688.296	0.0162096
688.374	0.0162101
688.453	0.0163739
688.531	0.0163202
688.609	0.0162285
688.687	0.0163983
688.765	0.0162186
688.843	0.0161868
688.921	0.0163612
688.999	0.0161662
689.078	0.0162853
689.156	0.0161436
689.234	0.0164078
689.312	0.0162422
689.390	0.0161803
689.468	0.0162752
689.546	0.0163271
689.624	0.0161771
689.703	0.0164130
689.781	0.0162431
689.859	0.0162360
689.937	0.0162832
690.015	0.0161915
690.093	0.0161985
690.171	0.0161865
690.249	0.0163463
690.328	0.0162410
690.406	0.0163652
690.484	0.0162429
690.562	0.0161948
690.640	0.0162535
690.718	0.0163138
690.796	0.0163088
690.874	0.0161981
690.953	0.0162551
691.031	0.0162314
691.109	0.0161404
691.187	0.0162132
691.265	0.0161212
691.343	0.0162247
691.421	0.0162811
691.499	0.0161433
691.578	0.0162683
691.656	0.0164622
691.734	0.0162670
691.812	0.0162122
691.890	0.0163055
691.968	0.0162900
692.046	0.0163012
692.124	0.0162816
692.203	0.0162502
692.281	0.0162911
692.359	0.0163761
692.437	0.0162272
692.515	0.0162416
692.593	0.0162779
692.671	0.0163223
692.749	0.0162716
692.828	0.0163313
692.906	0.0162463
692.984	0.0162106
693.062	0.0163818
693.140	0.0164310
693.218	0.0162411
693.296	0.0163407
693.374	0.0163180
693.453	0.0163112
693.531	0.0162426
693.609	0.0163715
693.687	0.0164059
693.765	0.0163464
693.843	0.0161819
693.921	0.0162321
693.999	0.0162532
694.078	0.0163445
694.156	0.0163866
694.234	0.0163124
694.312	0.0162476
694.390	0.0163763
694.468	0.0162769
694.546	0.0163277
694.624	0.0163607
694.703	0.0163481
694.781	0.0163164
694.859	0.0161820
694.937	0.0163162
695.015	0.0163178
695.093	0.0162601
695.171	0.0162682
695.249	0.0163862
695.328	0.0163438
695.406	0.0163258
695.484	0.0163960
695.562	0.0162844
695.640	0.0164995
695.718	0.0163207
695.796	0.0163546
695.874	0.0163517
695.953	0.0163697
696.031	0.0163203
696.109	0.0162556
696.187	0.0164507
696.265	0.0163760
696.343	0.0164742
696.421	0.0163974
696.499	0.0163167
696.578	0.0163553
696.656	0.0164432
696.734	0.0163119
696.812	0.0163113
696.890	0.0163556
696.968	0.0166150
697.046	0.0163852
697.124	0.0164264
697.203	0.0162763
697.281	0.0162899
697.359	0.0164270
697.437	0.0164853
697.515	0.0164480
697.593	0.0163788
697.671	0.0164220
697.749	0.0163706
697.828	0.0163783
697.906	0.0162494
697.984	0.0163846
698.062	0.0164163
698.140	0.0163957
698.218	0.0165151
698.296	0.0164616
698.374	0.0164426
698.453	0.0163523
698.531	0.0164513
698.609	0.0165228
698.687	0.0164707
698.765	0.0165246
698.843	0.0163969
698.921	0.0164380
698.999	0.0163085
699.078	0.0163235
699.156	0.0163485
699.234	0.0164217
699.312	0.0164087
699.390	0.0163046
699.468	0.0164682
699.546	0.0163091
699.624	0.0162262
699.703	0.0163206
699.781	0.0164017
699.859	0.0163177
699.937	0.0163209
700.015	0.0163142
700.093	0.0164223
700.171	0.0162523
700.249	0.0163103
700.328	0.0163610
700.406	0.0162658
700.484	0.0163154
700.562	0.0163423
700.640	0.0163052
700.718	0.0163699
700.796	0.0162604
700.874	0.0165445
700.953	0.0163607
701.031	0.0162157
701.109	0.0163722
701.187	0.0164475
701.265	0.0163284
701.343	0.0163519
701.421	0.0164232
701.499	0.0164796
701.578	0.0163454
701.656	0.0163491
701.734	0.0164085
701.812	0.0163926
701.890	0.0164687
701.968	0.0163976
702.046	0.0163706
702.124	0.0165056
702.203	0.0163695
702.281	0.0163978
702.359	0.0162686
702.437	0.0164072
702.515	0.0163812
702.593	0.0162589
702.671	0.0162100
702.749	0.0163515
702.828	0.0164475
702.906	0.0163062
702.984	0.0164184
703.062	0.0162800
703.140	0.0162888
703.218	0.0163039
703.296	0.0163148
703.374	0.0163225
703.453	0.0163689
703.531	0.0162720
703.609	0.0162296
703.687	0.0164298
703.765	0.0164307
703.843	0.0164047
703.921	0.0161971
703.999	0.0164368
704.078	0.0163556
704.156	0.0162897
704.234	0.0163277
704.312	0.0164596
704.390	0.0163840
704.468	0.0162862
704.546	0.0164344
704.624	0.0164320
704.703	0.0164215
704.781	0.0163380
704.859	0.0163203
704.937	0.0163167
705.015	0.0162834
705.093	0.0162794
705.171	0.0161348
705.249	0.0162292
705.328	0.0163704
705.406	0.0161726
705.484	0.0162666
705.562	0.0162667
705.640	0.0162599
705.718	0.0162234
705.796	0.0160598
705.874	0.0161948
705.953	0.0162493
706.031	0.0161107
706.109	0.0162066
706.187	0.0162056
706.265	0.0162468
706.343	0.0162202
706.421	0.0162630
706.499	0.0162816
706.578	0.0161732
706.656	0.0163712
706.734	0.0161994
706.812	0.0163931
706.890	0.0163858
706.968	0.0164202
707.046	0.0163947
707.124	0.0164645
707.203	0.0164027
707.281	0.0163165
707.359	0.0164484
707.437	0.0164998
707.515	0.0165084
707.593	0.0164107
707.671	0.0164612
707.749	0.0164676
707.828	0.0164358
707.906	0.0163847
707.984	0.0163831
708.062	0.0165414
708.140	0.0164686
708.218	0.0164356
708.296	0.0162910
708.374	0.0163781
708.453	0.0163933
708.531	0.0162460
708.609	0.0164506
708.687	0.0163379
708.765	0.0163579
708.843	0.0163048
708.921	0.0163707
708.999	0.0163051
709.078	0.0163181
709.156	0.0164183
709.234	0.0163513
709.312	0.0161787
709.390	0.0161893
709.468	0.0161428
709.546	0.0161815
709.624	0.0162789
709.703	0.0162177
709.781	0.0161038
709.859	0.0162459
709.937	0.0162904
710.015	0.0162386
710.093	0.0163403
710.171	0.0162334
710.249	0.0159908
710.328	0.0161342
710.406	0.0162473
710.484	0.0162046
710.562	0.0161419
710.640	0.0161356
710.718	0.0162569
710.796	0.0162521
710.874	0.0162824
710.953	0.0162418
711.031	0.0164249
711.109	0.0162016
711.187	0.0162727
711.265	0.0163464
711.343	0.0163647
711.421	0.0163885
711.499	0.0164018
711.578	0.0163715
711.656	0.0164492
711.734	0.0163747
711.812	0.0164359
711.890	0.0165900
711.968	0.0166802
712.046	0.0164998
712.124	0.0165308
712.203	0.0164540
712.281	0.0164785
712.359	0.0164031
712.437	0.0163710
712.515	0.0162822
712.593	0.0161973
712.671	0.0160786
712.749	0.0160348
712.828	0.0160806
712.906	0.0160480
712.984	0.0158950
713.062	0.0158868
713.140	0.0157453
713.218	0.0157389
713.296	0.0156725
713.374	0.0158334
713.453	0.0157432
713.531	0.0157972
713.609	0.0158844
713.687	0.0159103
713.765	0.0159528
713.843	0.0160088
713.921	0.0161134
713.999	0.0161639
714.078	0.0162447
714.156	0.0162646
714.234	0.0164129
714.312	0.0165007
714.390	0.0164621
714.468	0.0166217
714.546	0.0165411
714.624	0.0167600
714.703	0.0166113
714.781	0.0165678
714.859	0.0165312
714.937	0.0166321
715.015	0.0166200
715.093	0.0165807
715.171	0.0164605
715.249	0.0165076
715.328	0.0164338
715.406	0.0163442
715.484	0.0164317
715.562	0.0163993
715.640	0.0162070
715.718	0.0161981
715.796	0.0161213
715.874	0.0161108
715.953	0.0162061
716.031	0.0161762
716.109	0.0161317
716.187	0.0161366
716.265	0.0161526
716.343	0.0159978
716.421	0.0160686
716.499	0.0161734
716.578	0.0161607
716.656	0.0160247
716.734	0.0161115
716.812	0.0160150
716.890	0.0161772
716.968	0.0161048
717.046	0.0160769
717.124	0.0159468
717.203	0.0161150
717.281	0.0161600
717.359	0.0160509
717.437	0.0160402
717.515	0.0160291
717.593	0.0161146
717.671	0.0160184
717.749	0.0161028
717.828	0.0160979
717.906	0.0160860
717.984	0.0161641
718.062	0.0161624
718.140	0.0162142
718.218	0.0163118
718.296	0.0162784
718.374	0.0164252
718.453	0.0165075
718.531	0.0165607
718.609	0.0167410
718.687	0.0164377
718.765	0.0166526
718.843	0.0168425
718.921	0.0167770
718.999	0.0167361
719.078	0.0167478
719.156	0.0167670
719.234	0.0168653
719.312	0.0167102
719.390	0.0167468
719.468	0.0164732
719.546	0.0166415
719.624	0.0164952
719.703	0.0162526
719.781	0.0162469
719.859	0.0163403
719.937	0.0160818
720.015	0.0159614
720.093	0.0160860
720.171	0.0159903
720.249	0.0159451
720.328	0.0160088
720.406	0.0159487
720.484	0.0160107
720.562	0.0160586
720.640	0.0159801
720.718	0.0159435
720.796	0.0160150
720.874	0.0159379
720.953	0.0161856
721.031	0.0161493
721.109	0.0162138
721.187	0.0161411
721.265	0.0162546
721.343	0.0163125
721.421	0.0162991
721.499	0.0162613
721.578	0.0161633
721.656	0.0162463
721.734	0.0162398
721.812	0.0163885
721.890	0.0162441
721.968	0.0163593
722.046	0.0163533
722.124	0.0162711
722.203	0.0163163
722.281	0.0162724
722.359	0.0163702
722.437	0.0164356
722.515	0.0163649
722.593	0.0163889
722.671	0.0164278
722.749	0.0164471
722.828	0.0164217
722.906	0.0163250
722.984	0.0164436
723.062	0.0164146
723.140	0.0163614
723.218	0.0163100
723.296	0.0163562
723.374	0.0163647
723.453	0.0162731
723.531	0.0161916
723.609	0.0162406
723.687	0.0162591
723.765	0.0164000
723.843	0.0162255
723.921	0.0161819
723.999	0.0161954
724.078	0.0161696
724.156	0.0161652
724.234	0.0163321
724.312	0.0162901
724.390	0.0163111
724.468	0.0163016
724.546	0.0161529
724.624	0.0163712
724.703	0.0162900
724.781	0.0161848
724.859	0.0161645
724.937	0.0163815
725.015	0.0163287
725.093	0.0162025
725.171	0.0163281
725.249	0.0163299
725.328	0.0163055
725.406	0.0162456
725.484	0.0161600
725.562	0.0161679
725.640	0.0162169
725.718	0.0160764
725.796	0.0161681
725.874	0.0162839
725.953	0.0163822
726.031	0.0163428
726.109	0.0163201
726.187	0.0164025
726.265	0.0164260
726.343	0.0163346
726.421	0.0163870
726.499	0.0164328
726.578	0.0165437
726.656	0.0165549
726.734	0.0166122
726.812	0.0164185
726.890	0.0163982
726.968	0.0165384
727.046	0.0164566
727.124	0.0163094
727.203	0.0163107
727.281	0.0163822
727.359	0.0162630
727.437	0.0162360
727.515	0.0162241
727.593	0.0160990
727.671	0.0161589
727.749	0.0160684
727.828	0.0161416
727.906	0.0161681
727.984	0.0160964
728.062	0.0161047
728.140	0.0160275
728.218	0.0160682
728.296	0.0160696
728.374	0.0162174
728.453	0.0161414
728.531	0.0161242
728.609	0.0161752
728.687	0.0161304
728.765	0.0162701
728.843	0.0163587
728.921	0.0161494
728.999	0.0162398
729.078	0.0162994
729.156	0.0162157
729.234	0.0164676
729.312	0.0166058
729.390	0.0165828
729.468	0.0164650
729.546	0.0166679
729.624	0.0169799
729.703	0.0168114
729.781	0.0167798
729.859	0.0168304
729.937	0.0168064
730.015	0.0168954
730.093	0.0168078
730.171	0.0166767
730.249	0.0165289
730.328	0.0165089
730.406	0.0164736
730.484	0.0163850
730.562	0.0161253
730.640	0.0160749
730.718	0.0158433
730.796	0.0159452
730.874	0.0159083
730.953	0.0159882
731.031	0.0157146
731.109	0.0156216
731.187	0.0158638
731.265	0.0159583
731.343	0.0158712
731.421	0.0159914
731.499	0.0160035
731.578	0.0161877
731.656	0.0163764
731.734	0.0163496
731.812	0.0165414
731.890	0.0166394
731.968	0.0166318
732.046	0.0166622
732.124	0.0165941
732.203	0.0166805
732.281	0.0165292
732.359	0.0165699
732.437	0.0165694
732.515	0.0165295
732.593	0.0162915
732.671	0.0163398
732.749	0.0163002
732.828	0.0162796
732.906	0.0161627
732.984	0.0160502
733.062	0.0161017
733.140	0.0159762
733.218	0.0159049
733.296	0.0160178
733.374	0.0158939
733.453	0.0158987
733.531	0.0159808
733.609	0.0161079
733.687	0.0161890
733.765	0.0161752
733.843	0.0161855
733.921	0.0164060
733.999	0.0163844
734.078	0.0163361
734.156	0.0164748
734.234	0.0165590
734.312	0.0163930
734.390	0.0165033
734.468	0.0164958
734.546	0.0164836
734.624	0.0164764
734.703	0.0163682
734.781	0.0163706
734.859	0.0163593
734.937	0.0163483
735.015	0.0163250
735.093	0.0163228
735.171	0.0162529
735.249	0.0161337
735.328	0.0161298
735.406	0.0160527
735.484	0.0161172
735.562	0.0161454
735.640	0.0159861
735.718	0.0159962
735.796	0.0161154
735.874	0.0161543
735.953	0.0162812
736.031	0.0162494
736.109	0.0163718
736.187	0.0161365
736.265	0.0161836
736.343	0.0163278
736.421	0.0165289
736.499	0.0164199
736.578	0.0164524
736.656	0.0165114
736.734	0.0164861
736.812	0.0163456
736.890	0.0164011
736.968	0.0163276
737.046	0.0163015
737.124	0.0163012
737.203	0.0162515
737.281	0.0162922
737.359	0.0162354
737.437	0.0161936
737.515	0.0162669
737.593	0.0162596
737.671	0.0163687
737.749	0.0164486
737.828	0.0161176
737.906	0.0162836
737.984	0.0162316
738.062	0.0162459
738.140	0.0162595
738.218	0.0162177
738.296	0.0162604
738.374	0.0162585
738.453	0.0161983
738.531	0.0161658
738.609	0.0161681
738.687	0.0161542
738.765	0.0162404
738.843	0.0163072
738.921	0.0162876
738.999	0.0163308
739.078	0.0161351
739.156	0.0162418
739.234	0.0163194
739.312	0.0162405
739.390	0.0163294
739.468	0.0162244
739.546	0.0162724
739.624	0.0161912
739.703	0.0162830
739.781	0.0162555
739.859	0.0163307
739.937	0.0163094
740.015	0.0163663
740.093	0.0163309
740.171	0.0163426
740.249	0.0164642
740.328	0.0164095
740.406	0.0164896
740.484	0.0163305
740.562	0.0163204
740.640	0.0163663
740.718	0.0163844
740.796	0.0162871
740.874	0.0163852
740.953	0.0163318
741.031	0.0162473
741.109	0.0163670
741.187	0.0163512
741.265	0.0161796
741.343	0.0162305
741.421	0.0163377
741.499	0.0161512
741.578	0.0163301
741.656	0.0162573
741.734	0.0162285
741.812	0.0163785
741.890	0.0162529
741.968	0.0162306
742.046	0.0162598
742.124	0.0162138
742.203	0.0162442
742.281	0.0163258
742.359	0.0162625
742.437	0.0162965
742.515	0.0162669
742.593	0.0163194
742.671	0.0164223
742.749	0.0162994
742.828	0.0161124
742.906	0.0162176
742.984	0.0162712
743.062	0.0161405
743.140	0.0161978
743.218	0.0162556
743.296	0.0161673
743.374	0.0160273
743.453	0.0162904
743.531	0.0162011
743.609	0.0162497
743.687	0.0160851
743.765	0.0161967
743.843	0.0162467
743.921	0.0162856
743.999	0.0162762
744.078	0.0163015
744.156	0.0163331
744.234	0.0164574
744.312	0.0164783
744.390	0.0162616
744.468	0.0163681
744.546	0.0164217
744.624	0.0165037
744.703	0.0163905
744.781	0.0163534
744.859	0.0163749
744.937	0.0163697
745.015	0.0165007
745.093	0.0162907
745.171	0.0163138
745.249	0.0163225
745.328	0.0162590
745.406	0.0163575
745.484	0.0163638
745.562	0.0162514
745.640	0.0163033
745.718	0.0163400
745.796	0.0162596
745.874	0.0162085
745.953	0.0161655
746.031	0.0162055
746.109	0.0161827
746.187	0.0161556
746.265	0.0162082
746.343	0.0161013
746.421	0.0161198
746.499	0.0161672
746.578	0.0162321
746.656	0.0161391
746.734	0.0161353
746.812	0.0161995
746.890	0.0160996
746.968	0.0160988
747.046	0.0161882
747.124	0.0159584
747.203	0.0160536
747.281	0.0162486
747.359	0.0162119
747.437	0.0161462
747.515	0.0161801
747.593	0.0162111
747.671	0.0161933
747.749	0.0161978
747.828	0.0161430
747.906	0.0161341
747.984	0.0161482
748.062	0.0160908
748.140	0.0162700
748.218	0.0163875
748.296	0.0163190
748.374	0.0162915
748.453	0.0163759
748.531	0.0165464
748.609	0.0163129
748.687	0.0163622
748.765	0.0162935
748.843	0.0164186
748.921	0.0163266
748.999	0.0163964
749.078	0.0164555
749.156	0.0163537
749.234	0.0163152
749.312	0.0162868
749.390	0.0164040
749.468	0.0162663
749.546	0.0161969
749.624	0.0162245
749.703	0.0162774
749.781	0.0163559
749.859	0.0162688
749.937	0.0162843
750.015	0.0163600
750.093	0.0161637
750.171	0.0161936
750.249	0.0161682
750.328	0.0162305
750.406	0.0161300
750.484	0.0163307
750.562	0.0163062
750.640	0.0162006
750.718	0.0161712
750.796	0.0162622
750.874	0.0162313
750.953	0.0162534
751.031	0.0161485
751.109	0.0160676
751.187	0.0162175
751.265	0.0162868
751.343	0.0161446
751.421	0.0161378
751.499	0.0162346
751.578	0.0162150
751.656	0.0161927
751.734	0.0162548
751.812	0.0162231
751.890	0.0161620
751.968	0.0162683
752.046	0.0161501
752.124	0.0162704
752.203	0.0161909
752.281	0.0161589
752.359	0.0162420
752.437	0.0162804
752.515	0.0162793
752.593	0.0162002
752.671	0.0163829
752.749	0.0163863
752.828	0.0164858
752.906	0.0162497
752.984	0.0164764
753.062	0.0163515
753.140	0.0164426
753.218	0.0163560
753.296	0.0164963
753.374	0.0164140
753.453	0.0163674
753.531	0.0162449
753.609	0.0163627
753.687	0.0163675
753.765	0.0161679
753.843	0.0162289
753.921	0.0161578
753.999	0.0161556
754.078	0.0160899
754.156	0.0161118
754.234	0.0159912
754.312	0.0161613
754.390	0.0160660
754.468	0.0161860
754.546	0.0159814
754.624	0.0160043
754.703	0.0161327
754.781	0.0160016
754.859	0.0161392
754.937	0.0162310
755.015	0.0161176
755.093	0.0162141
755.171	0.0162922
755.249	0.0161866
755.328	0.0161871
755.406	0.0162268
755.484	0.0162872
755.562	0.0164738
755.640	0.0162814
755.718	0.0162444
755.796	0.0163155
755.874	0.0162787
755.953	0.0163766
756.031	0.0162685
756.109	0.0162591
756.187	0.0162103
756.265	0.0162811
756.343	0.0163940
756.421	0.0162126
756.499	0.0163251
756.578	0.0163808
756.656	0.0163823
756.734	0.0163551
756.812	0.0164144
756.890	0.0164852
756.968	0.0164467
757.046	0.0164162
757.124	0.0166335
757.203	0.0166819
757.281	0.0164761
757.359	0.0165224
757.437	0.0166290
757.515	0.0166135
757.593	0.0165486
757.671	0.0163474
757.749	0.0164796
757.828	0.0164523
757.906	0.0162720
757.984	0.0161910
758.062	0.0162569
758.140	0.0163670
758.218	0.0162373
758.296	0.0160291
758.374	0.0158616
758.453	0.0160681
758.531	0.0160626
758.609	0.0158618
758.687	0.0159270
758.765	0.0158669
758.843	0.0158936
758.921	0.0159325
758.999	0.0160057
759.078	0.0161345
759.156	0.0160193
759.234	0.0161511
759.312	0.0161768
759.390	0.0162161
759.468	0.0164277
759.546	0.0165993
759.624	0.0164408
759.703	0.0165119
759.781	0.0166936
759.859	0.0166039
759.937	0.0165977
760.015	0.0168455
760.093	0.0166929
760.171	0.0167253
760.249	0.0166683
760.328	0.0167146
760.406	0.0166936
760.484	0.0166862
760.562	0.0166613
760.640	0.0166086
760.718	0.0165018
760.796	0.0165294
760.874	0.0164845
760.953	0.0163293
761.031	0.0163220
761.109	0.0162780
761.187	0.0162615
761.265	0.0163088
761.343	0.0162557
761.421	0.0159880
761.499	0.0160741
761.578	0.0159822
761.656	0.0160377
761.734	0.0159254
761.812	0.0159258
761.890	0.0160735
761.968	0.0160051
762.046	0.0162037
762.124	0.0160139
762.203	0.0162394
762.281	0.0163738
762.359	0.0163801
762.437	0.0164024
762.515	0.0164771
762.593	0.0165582
762.671	0.0165807
762.749	0.0167593
762.828	0.0166088
762.906	0.0168158
762.984	0.0167648
763.062	0.0166798
763.140	0.0165923
763.218	0.0166542
763.296	0.0165804
763.374	0.0165607
763.453	0.0164996
763.531	0.0165590
763.609	0.0163570
763.687	0.0162778
763.765	0.0162749
763.843	0.0162709
763.921	0.0160912
763.999	0.0160055
764.078	0.0160308
764.156	0.0159794
764.234	0.0158772
764.312	0.0159228
764.390	0.0158588
764.468	0.0157403
764.546	0.0158761
764.624	0.0159734
764.703	0.0158092
764.781	0.0159627
764.859	0.0159240
764.937	0.0160882
765.015	0.0162214
765.093	0.0161932
765.171	0.0164178
765.249	0.0163346
765.328	0.0164317
765.406	0.0165476
765.484	0.0167474
765.562	0.0167007
765.640	0.0167072
765.718	0.0167401
765.796	0.0168279
765.874	0.0168002
765.953	0.0169877
766.031	0.0169337
766.109	0.0167576
766.187	0.0167873
766.265	0.0166891
766.343	0.0165997
766.421	0.0164404
766.499	0.0164204
766.578	0.0161203
766.656	0.0159769
766.734	0.0159224
766.812	0.0158863
766.890	0.0157734
766.968	0.0157624
767.046	0.0158123
767.124	0.0157044
767.203	0.0157004
767.281	0.0158791
767.359	0.0158092
767.437	0.0157647
767.515	0.0158716
767.593	0.0158675
767.671	0.0159928
767.749	0.0159620
767.828	0.0161293
767.906	0.0160624
767.984	0.0160838
768.062	0.0160372
768.140	0.0161643
768.218	0.0162144
768.296	0.0163126
768.374	0.0164108
768.453	0.0163098
768.531	0.0163400
768.609	0.0164752
768.687	0.0163658
768.765	0.0165996
768.843	0.0163643
768.921	0.0162672
768.999	0.0164864
769.078	0.0162296
769.156	0.0162637
769.234	0.0163029
769.312	0.0163496
769.390	0.0163779
769.468	0.0164964
769.546	0.0163665
769.624	0.0164281
769.703	0.0164094
769.781	0.0162813
769.859	0.0163273
769.937	0.0164067
770.015	0.0162818
770.093	0.0162309
770.171	0.0162000
770.249	0.0161090
770.328	0.0159988
770.406	0.0162807
770.484	0.0161906
770.562	0.0161030
770.640	0.0161565
770.718	0.0160408
770.796	0.0160582
770.874	0.0162224
770.953	0.0161813
771.031	0.0162690
771.109	0.0163042
771.187	0.0162631
771.265	0.0161752
771.343	0.0162702
771.421	0.0163531
771.499	0.0161501
771.578	0.0163337
771.656	0.0164162
771.734	0.0161497
771.812	0.0161961
771.890	0.0161636
771.968	0.0161279
772.046	0.0162173
772.124	0.0162128
772.203	0.0161369
772.281	0.0161387
772.359	0.0159764
772.437	0.0160716
772.515	0.0160307
772.593	0.0159508
772.671	0.0158605
772.749	0.0157739
772.828	0.0159476
772.906	0.0159320
772.984	0.0160121
773.062	0.0159779
773.140	0.0159428
773.218	0.0157417
773.296	0.0159771
773.374	0.0160655
773.453	0.0161013
773.531	0.0161003
773.609	0.0161752
773.687	0.0162833
773.765	0.0163470
773.843	0.0163736
773.921	0.0165580
773.999	0.0166225
774.078	0.0167220
774.156	0.0167540
774.234	0.0170145
774.312	0.0170267
774.390	0.0171917
774.468	0.0172389
774.546	0.0172456
774.624	0.0173640
774.703	0.0174686
774.781	0.0172356
774.859	0.0172513
774.937	0.0171783
775.015	0.0169884
775.093	0.0168085
775.171	0.0167293
775.249	0.0166270
775.328	0.0163060
775.406	0.0159952
775.484	0.0159369
775.562	0.0157100
775.640	0.0155563
775.718	0.0154446
775.796	0.0152947
775.874	0.0150909
775.953	0.0150220
776.031	0.0150420
776.109	0.0150127
776.187	0.0151683
776.265	0.0151877
776.343	0.0153604
776.421	0.0152744
776.499	0.0156001
776.578	0.0158083
776.656	0.0159914
776.734	0.0161169
776.812	0.0163010
776.890	0.0163357
776.968	0.0163353
777.046	0.0166559
777.124	0.0166268
777.203	0.0165834
777.281	0.0165641
777.359	0.0165957
777.437	0.0165416
777.515	0.0165833
777.593	0.0166474
777.671	0.0166453
777.749	0.0166654
777.828	0.0165723
777.906	0.0165315
777.984	0.0166999
778.062	0.0167697
778.140	0.0166848
778.218	0.0166608
778.296	0.0167822
778.374	0.0168964
778.453	0.0168977
778.531	0.0169254
778.609	0.0168971
778.687	0.0168955
778.765	0.0169020
778.843	0.0170769
778.921	0.0168725
778.999	0.0165811
779.078	0.0167054
779.156	0.0166850
779.234	0.0165829
779.312	0.0165052
779.390	0.0164935
779.468	0.0164348
779.546	0.0161784
779.624	0.0162304
779.703	0.0162573
779.781	0.0159601
779.859	0.0161176
779.937	0.0162148
780.015	0.0159755
780.093	0.0160624
780.171	0.0160401
780.249	0.0159726
780.328	0.0159911
780.406	0.0160718
780.484	0.0160467
780.562	0.0158659
780.640	0.0160095
780.718	0.0158756
780.796	0.0157800
780.874	0.0158471
780.953	0.0158522
781.031	0.0158302
781.109	0.0156813
781.187	0.0156878
781.265	0.0157223
781.343	0.0156329
781.421	0.0156311
781.499	0.0156964
781.578	0.0156934
781.656	0.0157327
781.734	0.0156322
781.812	0.0160195
781.890	0.0161411
781.968	0.0160098
782.046	0.0162539
782.124	0.0163619
782.203	0.0164474
782.281	0.0165646
782.359	0.0166982
782.437	0.0169481
782.515	0.0169461
782.593	0.0171249
782.671	0.0172592
782.749	0.0173842
782.828	0.0175155
782.906	0.0176508
782.984	0.0176036
783.062	0.0177984
783.140	0.0177749
783.218	0.0177826
783.296	0.0176500
783.374	0.0174241
783.453	0.0173154
783.531	0.0173122
783.609	0.0171288
783.687	0.0167635
783.765	0.0167369
783.843	0.0163528
783.921	0.0160921
783.999	0.0160661
784.078	0.0158677
784.156	0.0155564
784.234	0.0156161
784.312	0.0153947
784.390	0.0153610
784.468	0.0151559
784.546	0.0151766
784.624	0.0152782
784.703	0.0152516
784.781	0.0152934
784.859	0.0153647
784.937	0.0154068
785.015	0.0155228
785.093	0.0157277
785.171	0.0158500
785.249	0.0157563
785.328	0.0159420
785.406	0.0159058
785.484	0.0160435
785.562	0.0162160
785.640	0.0161821
785.718	0.0162108
785.796	0.0163496
785.874	0.0162788
785.953	0.0163285
786.031	0.0164346
786.109	0.0166782
786.187	0.0167224
786.265	0.0164903
786.343	0.0165980
786.421	0.0167828
786.499	0.0169320
786.578	0.0169032
786.656	0.0171209
786.734	0.0170269
786.812	0.0171370
786.890	0.0172336
786.968	0.0170182
787.046	0.0172732
787.124	0.0171817
787.203	0.0170716
787.281	0.0172279
787.359	0.0171955
787.437	0.0171330
787.515	0.0171069
787.593	0.0167982
787.671	0.0168896
787.749	0.0168107
787.828	0.0166231
787.906	0.0165051
787.984	0.0165391
788.062	0.0164684
788.140	0.0161676
788.218	0.0162260
788.296	0.0160894
788.374	0.0159483
788.453	0.0158594
788.531	0.0159383
788.609	0.0157740
788.687	0.0158631
788.765	0.0157027
788.843	0.0156141
788.921	0.0155023
788.999	0.0154851
789.078	0.0154959
789.156	0.0154435
789.234	0.0153312
789.312	0.0153178
789.390	0.0151668
789.468	0.0151256
789.546	0.0150897
789.624	0.0151775
789.703	0.0151888
789.781	0.0151225
789.859	0.0151212
789.937	0.0153634
790.015	0.0153091
790.093	0.0154507
790.171	0.0155583
790.249	0.0157851
790.328	0.0158869
790.406	0.0160276
790.484	0.0162875
790.562	0.0165218
790.640	0.0167721
790.718	0.0169538
790.796	0.0170351
790.874	0.0172863
790.953	0.0175813
791.031	0.0175782
791.109	0.0178685
791.187	0.0178919
791.265	0.0179351
791.343	0.0179502
791.421	0.0180053
791.499	0.0178158
791.578	0.0178403
791.656	0.0177412
791.734	0.0174171
791.812	0.0171706
791.890	0.0171664
791.968	0.0168604
792.046	0.0167023
792.124	0.0164420
792.203	0.0161906
792.281	0.0160597
792.359	0.0157355
792.437	0.0157992
792.515	0.0156493
792.593	0.0156192
792.671	0.0155154
792.749	0.0153807
792.828	0.0154026
792.906	0.0152448
792.984	0.0152668
793.062	0.0151695
793.140	0.0151169
793.218	0.0152580
793.296	0.0151198
793.374	0.0149592
793.453	0.0152522
793.531	0.0153352
793.609	0.0153145
793.687	0.0153448
793.765	0.0155715
793.843	0.0156168
793.921	0.0156857
793.999	0.0156926
794.078	0.0157490
794.156	0.0157935
794.234	0.0158273
794.312	0.0158673
794.390	0.0159723
794.468	0.0160052
794.546	0.0161110
794.624	0.0160458
794.703	0.0162733
794.781	0.0164713
794.859	0.0163998
794.937	0.0163912
795.015	0.0166794
795.093	0.0168080
795.171	0.0169431
795.249	0.0169604
795.328	0.0171798
795.406	0.0172827
795.484	0.0172483
795.562	0.0174027
795.640	0.0175289
795.718	0.0175534
795.796	0.0174025
795.874	0.0175425
795.953	0.0173997
796.031	0.0172521
796.109	0.0170133
796.187	0.0170398
796.265	0.0168327
796.343	0.0166982
796.421	0.0163830
796.499	0.0162108
796.578	0.0161212
796.656	0.0158549
796.734	0.0158389
796.812	0.0157386
796.890	0.0155106
796.968	0.0156494
797.046	0.0156908
797.124	0.0158341
797.203	0.0159522
797.281	0.0159041
797.359	0.0159772
797.437	0.0160486
797.515	0.0159458
797.593	0.0161057
797.671	0.0159518
797.749	0.0161025
797.828	0.0159879
797.906	0.0161146
797.984	0.0161336
798.062	0.0158829
798.140	0.0160586
798.218	0.0160989
798.296	0.0158800
798.374	0.0158746
798.453	0.0159201
798.531	0.0157512
798.609	0.0158406
798.687	0.0158147
798.765	0.0158374
798.843	0.0159302
798.921	0.0160164
798.999	0.0160197
799.078	0.0162202
799.156	0.0163641
799.234	0.0164745
799.312	0.0166225
799.390	0.0167291
799.468	0.0168671
799.546	0.0171065
799.624	0.0171062
799.703	0.0171751
799.781	0.0173380
799.859	0.0173244
799.937	0.0173742
800.015	0.0173051
800.093	0.0169659
800.171	0.0168623
800.249	0.0167414
800.328	0.0163923
800.406	0.0161919
800.484	0.0161855
800.562	0.0161284
800.640	0.0159126
800.718	0.0157436
800.796	0.0155859
800.874	0.0155969
800.953	0.0157406
801.031	0.0157018
801.109	0.0157455
801.187	0.0158835
801.265	0.0158437
801.343	0.0158679
801.421	0.0160128
801.499	0.0159886
801.578	0.0160450
801.656	0.0161569
801.734	0.0161214
801.812	0.0162305
801.890	0.0163292
801.968	0.0163776
802.046	0.0163978
802.124	0.0162870
802.203	0.0164908
802.281	0.0165173
802.359	0.0164577
802.437	0.0165543
802.515	0.0164927
802.593	0.0165322
802.671	0.0164884
802.749	0.0165565
802.828	0.0166203
802.906	0.0165380
802.984	0.0164839
803.062	0.0167052
803.140	0.0167133
803.218	0.0165855
803.296	0.0165813
803.374	0.0166922
803.453	0.0168265
803.531	0.0167624
803.609	0.0167558
803.687	0.0166558
803.765	0.0168086
803.843	0.0167299
803.921	0.0168258
803.999	0.0169350
804.078	0.0167490
804.156	0.0167244
804.234	0.0165700
804.312	0.0167135
804.390	0.0167314
804.468	0.0165701
804.546	0.0164140
804.624	0.0164101
804.703	0.0163800
804.781	0.0161961
804.859	0.0160686
804.937	0.0160758
805.015	0.0158808
805.093	0.0158800
805.171	0.0158932
805.249	0.0157122
805.328	0.0157108
805.406	0.0157989
805.484	0.0156408
805.562	0.0158238
805.640	0.0159151
805.718	0.0158086
805.796	0.0160677
805.874	0.0160162
805.953	0.0161432
806.031	0.0163557
806.109	0.0163657
806.187	0.0163724
806.265	0.0164986
806.343	0.0165434
806.421	0.0166301
806.499	0.0168624
806.578	0.0167538
806.656	0.0166934
806.734	0.0167730
806.812	0.0166732
806.890	0.0168012
806.968	0.0165925
807.046	0.0165107
807.124	0.0164577
807.203	0.0164026
807.281	0.0163531
807.359	0.0163509
807.437	0.0161480
807.515	0.0161674
807.593	0.0161835
807.671	0.0161901
807.749	0.0160251
807.828	0.0160265
807.906	0.0160544
807.984	0.0161220
808.062	0.0161429
808.140	0.0160606
808.218	0.0161361
808.296	0.0162162
808.374	0.0161531
808.453	0.0161526
808.531	0.0162939
808.609	0.0161549
808.687	0.0162864
808.765	0.0162696
808.843	0.0162164
808.921	0.0162378
808.999	0.0164336
809.078	0.0163360
809.156	0.0164495
809.234	0.0164294
809.312	0.0166721
809.390	0.0166916
809.468	0.0165923
809.546	0.0167863
809.624	0.0169852
809.703	0.0168291
809.781	0.0169492
809.859	0.0169984
809.937	0.0169730
810.015	0.0170835
810.093	0.0169459
810.171	0.0167476
810.249	0.0166845
810.328	0.0167233
810.406	0.0164669
810.484	0.0164802
810.562	0.0163121
810.640	0.0161874
810.718	0.0160995
810.796	0.0159557
810.874	0.0158609
810.953	0.0158189
811.031	0.0159003
811.109	0.0156461
811.187	0.0155900
811.265	0.0156220
811.343	0.0155272
811.421	0.0156419
811.499	0.0157259
811.578	0.0159101
811.656	0.0158559
811.734	0.0158629
811.812	0.0157690
811.890	0.0160322
811.968	0.0161343
812.046	0.0160905
812.124	0.0162835
812.203	0.0161763
812.281	0.0162167
812.359	0.0164669
812.437	0.0164843
812.515	0.0164716
812.593	0.0163365
812.671	0.0164486
812.749	0.0165262
812.828	0.0163111
812.906	0.0163125
812.984	0.0160945
813.062	0.0159303
813.140	0.0160421
813.218	0.0161162
813.296	0.0160015
813.374	0.0158118
813.453	0.0158489
813.531	0.0157809
813.609	0.0159554
813.687	0.0160058
813.765	0.0159496
813.843	0.0159470
813.921	0.0161625
813.999	0.0161261
814.078	0.0161987
814.156	0.0163058
814.234	0.0163023
814.312	0.0163641
814.390	0.0164571
814.468	0.0165086
814.546	0.0165227
814.624	0.0164448
814.703	0.0166137
814.781	0.0166252
814.859	0.0166666
814.937	0.0167098
815.015	0.0166750
815.093	0.0166877
815.171	0.0166849
815.249	0.0166888
815.328	0.0166032
815.406	0.0165498
815.484	0.0164558
815.562	0.0165130
815.640	0.0164542
815.718	0.0162984
815.796	0.0163106
815.874	0.0164220
815.953	0.0161304
816.031	0.0161307
816.109	0.0161494
816.187	0.0163100
816.265	0.0161232
816.343	0.0162074
816.421	0.0160821
816.499	0.0161357
816.578	0.0161599
816.656	0.0160941
816.734	0.0161549
816.812	0.0162208
816.890	0.0160281
816.968	0.0161324
817.046	0.0161454
817.124	0.0160465
817.203	0.0160439
817.281	0.0160819
817.359	0.0161131
817.437	0.0159657
817.515	0.0159467
817.593	0.0158777
817.671	0.0159225
817.749	0.0159235
817.828	0.0160747
817.906	0.0160361
817.984	0.0159991
818.062	0.0160703
818.140	0.0161116
818.218	0.0162539
818.296	0.0162418
818.374	0.0162910
818.453	0.0163116
818.531	0.0161871
818.609	0.0162026
818.687	0.0161540
818.765	0.0161197
818.843	0.0161719
818.921	0.0162008
818.999	0.0160181
819.078	0.0160723
819.156	0.0161778
819.234	0.0159995
819.312	0.0159525
819.390	0.0161406
819.468	0.0162076
819.546	0.0161319
819.624	0.0162199
819.703	0.0163200
819.781	0.0163857
819.859	0.0163223
819.937	0.0163538
820.015	0.0164526
820.093	0.0163711
820.171	0.0164693
820.249	0.0164189
820.328	0.0164710
820.406	0.0163950
820.484	0.0162927
820.562	0.0163248
820.640	0.0164025
820.718	0.0164468
820.796	0.0163747
820.874	0.0164931
820.953	0.0165384
821.031	0.0166127
821.109	0.0165781
821.187	0.0165836
821.265	0.0165401
821.343	0.0165282
821.421	0.0166152
821.499	0.0166488
821.578	0.0166508
821.656	0.0166012
821.734	0.0166704
821.812	0.0166970
821.890	0.0165372
821.968	0.0167187
822.046	0.0165062
822.124	0.0164646
822.203	0.0165549
822.281	0.0164960
822.359	0.0164388
822.437	0.0164673
822.515	0.0163846
822.593	0.0164690
822.671	0.0164011
822.749	0.0163448
822.828	0.0164024
822.906	0.0164480
822.984	0.0164801
823.062	0.0164671
823.140	0.0162745
823.218	0.0161780
823.296	0.0162632
823.374	0.0162075
823.453	0.0161314
823.531	0.0161098
823.609	0.0161283
823.687	0.0160036
823.765	0.0160860
823.843	0.0159418
823.921	0.0160097
823.999	0.0161259
824.078	0.0159615
824.156	0.0159414
824.234	0.0160700
824.312	0.0160758
824.390	0.0160687
824.468	0.0159979
824.546	0.0160278
824.624	0.0161671
824.703	0.0162293
824.781	0.0161642
824.859	0.0160764
824.937	0.0162884
825.015	0.0161887
825.093	0.0163332
825.171	0.0163600
825.249	0.0161126
825.328	0.0163896
825.406	0.0163454
825.484	0.0162099
825.562	0.0163253
825.640	0.0165250
825.718	0.0163655
825.796	0.0164370
825.874	0.0165217
825.953	0.0164972
826.031	0.0163970
826.109	0.0163840
826.187	0.0164375
826.265	0.0163313
826.343	0.0163617
826.421	0.0164046
826.499	0.0163392
826.578	0.0163210
826.656	0.0162280
826.734	0.0163117
826.812	0.0163924
826.890	0.0165250
826.968	0.0164678
827.046	0.0165024
827.124	0.0166711
827.203	0.0166023
827.281	0.0165684
827.359	0.0167268
827.437	0.0168010
827.515	0.0167722
827.593	0.0168764
827.671	0.0166872
827.749	0.0169132
827.828	0.0168580
827.906	0.0167465
827.984	0.0166906
828.062	0.0166760
828.140	0.0167142
828.218	0.0165942
828.296	0.0164570
828.374	0.0162598
828.453	0.0164896
828.531	0.0161608
828.609	0.0162534
828.687	0.0163358
828.765	0.0161759
828.843	0.0163251
828.921	0.0163303
828.999	0.0164040
829.078	0.0163150
829.156	0.0163189
829.234	0.0164428
829.312	0.0163229
829.390	0.0165173
829.468	0.0164897
829.546	0.0164219
829.624	0.0162369
829.703	0.0162350
829.781	0.0162474
829.859	0.0162184
829.937	0.0161880
830.015	0.0163198
830.093	0.0161279
830.171	0.0161087
830.249	0.0161597
830.328	0.0161900
830.406	0.0161388
830.484	0.0161655
830.562	0.0162125
830.640	0.0162565
830.718	0.0162495
830.796	0.0161693
830.874	0.0162206
830.953	0.0162920
831.031	0.0163963
831.109	0.0163475
831.187	0.0162966
831.265	0.0161484
831.343	0.0162273
831.421	0.0163346
831.499	0.0164292
831.578	0.0162492
831.656	0.0162936
831.734	0.0161433
831.812	0.0161204
831.890	0.0162751
831.968	0.0160464
832.046	0.0160652
832.124	0.0161504
832.203	0.0160515
832.281	0.0161734
832.359	0.0161617
832.437	0.0161949
832.515	0.0161176
832.593	0.0161031
832.671	0.0161761
832.749	0.0161864
832.828	0.0160516
832.906	0.0161472
832.984	0.0162800
833.062	0.0163996
833.140	0.0163398
833.218	0.0162892
833.296	0.0163161
833.374	0.0164698
833.453	0.0164067
833.531	0.0165170
833.609	0.0166039
833.687	0.0166389
833.765	0.0166959
833.843	0.0167066
833.921	0.0166290
833.999	0.0166611
834.078	0.0167059
834.156	0.0168611
834.234	0.0168933
834.312	0.0166808
834.390	0.0165578
834.468	0.0165807
834.546	0.0165932
834.624	0.0164867
834.703	0.0165205
834.781	0.0163241
834.859	0.0162661
834.937	0.0163698
835.015	0.0162929
835.093	0.0162817
835.171	0.0162641
835.249	0.0159846
835.328	0.0160144
835.406	0.0160339
835.484	0.0159011
835.562	0.0159676
835.640	0.0157973
835.718	0.0158556
835.796	0.0157946
835.874	0.0158852
835.953	0.0157555
836.031	0.0158482
836.109	0.0158170
836.187	0.0158918
836.265	0.0159132
836.343	0.0158646
836.421	0.0160030
836.499	0.0160396
836.578	0.0159487
836.656	0.0160152
836.734	0.0161342
836.812	0.0161507
836.890	0.0161993
836.968	0.0161173
837.046	0.0162000
837.124	0.0161183
837.203	0.0161005
837.281	0.0160671
837.359	0.0159832
837.437	0.0161510
837.515	0.0161696
837.593	0.0160358
837.671	0.0160437
837.749	0.0162688
837.828	0.0163946
837.906	0.0162540
837.984	0.0161293
838.062	0.0163104
838.140	0.0163262
838.218	0.0162543
838.296	0.0163509
838.374	0.0163844
838.453	0.0164445
838.531	0.0163274
838.609	0.0163899
838.687	0.0165170
838.765	0.0164039
838.843	0.0163650
838.921	0.0162869
838.999	0.0164424
839.078	0.0163647
839.156	0.0164900
839.234	0.0163698
839.312	0.0162128
839.390	0.0164139
839.468	0.0163879
839.546	0.0164552
839.624	0.0164318
839.703	0.0163792
839.781	0.0165444
839.859	0.0165927
839.937	0.0166941
840.015	0.0167404
840.093	0.0166268
840.171	0.0166194
840.249	0.0164766
840.328	0.0165771
840.406	0.0164149
840.484	0.0164327
840.562	0.0165033
840.640	0.0163187
840.718	0.0161966
840.796	0.0163668
840.874	0.0164015
840.953	0.0162287
841.031	0.0161873
841.109	0.0162968
841.187	0.0161777
841.265	0.0160484
841.343	0.0160938
841.421	0.0161000
841.499	0.0160605
841.578	0.0161346
841.656	0.0161777
841.734	0.0161334
841.812	0.0161115
841.890	0.0162080
841.968	0.0160453
842.046	0.0161469
842.124	0.0161784
842.203	0.0161819
842.281	0.0161591
842.359	0.0160818
842.437	0.0160488
842.515	0.0161548
842.593	0.0160908
842.671	0.0161784
842.749	0.0161604
842.828	0.0160656
842.906	0.0159508
842.984	0.0159966
843.062	0.0160867
843.140	0.0159967
843.218	0.0161542
843.296	0.0161391
843.374	0.0160204
843.453	0.0161145
843.531	0.0162331
843.609	0.0161884
843.687	0.0162064
843.765	0.0160884
843.843	0.0162378
843.921	0.0162321
843.999	0.0164130
844.078	0.0164537
844.156	0.0164396
844.234	0.0164588
844.312	0.0163857
844.390	0.0164536
844.468	0.0165673
844.546	0.0165633
844.624	0.0164730
844.703	0.0163981
844.781	0.0164461
844.859	0.0165099
844.937	0.0165150
845.015	0.0165163
845.093	0.0163414
845.171	0.0164529
845.249	0.0164249
845.328	0.0165257
845.406	0.0164053
845.484	0.0164518
845.562	0.0163844
845.640	0.0164227
845.718	0.0164847
845.796	0.0164921
845.874	0.0164137
845.953	0.0163891
846.031	0.0164823
846.109	0.0164805
846.187	0.0165521
846.265	0.0164782
846.343	0.0165378
846.421	0.0165834
846.499	0.0165296
846.578	0.0164613
846.656	0.0164790
846.734	0.0164046
846.812	0.0164512
846.890	0.0165498
846.968	0.0163744
847.046	0.0163468
847.124	0.0161984
847.203	0.0163046
847.281	0.0163273
847.359	0.0163326
847.437	0.0162447
847.515	0.0161952
847.593	0.0162035
847.671	0.0162285
847.749	0.0162619
847.828	0.0161755
847.906	0.0162823
847.984	0.0161860
848.062	0.0162357
848.140	0.0163155
848.218	0.0162276
848.296	0.0162535
848.374	0.0161918
848.453	0.0161646
848.531	0.0162885
848.609	0.0162811
848.687	0.0162247
848.765	0.0162017
848.843	0.0162347
848.921	0.0163220
848.999	0.0163543
849.078	0.0163084
849.156	0.0162737
849.234	0.0162414
849.312	0.0162568
849.390	0.0163477
849.468	0.0162199
849.546	0.0163261
849.624	0.0162354
849.703	0.0162583
849.781	0.0162969
849.859	0.0162875
849.937	0.0163030
850.015	0.0163228
850.093	0.0162133
850.171	0.0163689
850.249	0.0163855
850.328	0.0164372
850.406	0.0163828
850.484	0.0163735
850.562	0.0163830
850.640	0.0163945
850.718	0.0164400
850.796	0.0164730
850.874	0.0164114
850.953	0.0163143
851.031	0.0163522
851.109	0.0163303
851.187	0.0163007
851.265	0.0163164
851.343	0.0162207
851.421	0.0163594
851.499	0.0162508
851.578	0.0161697
851.656	0.0161887
851.734	0.0162725
851.812	0.0161549
851.890	0.0163370
851.968	0.0162930
852.046	0.0162237
852.124	0.0165907
852.203	0.0165087
852.281	0.0163852
852.359	0.0162563
852.437	0.0164446
852.515	0.0166393
852.593	0.0165472
852.671	0.0166129
852.749	0.0166508
852.828	0.0165351
852.906	0.0164934
852.984	0.0166731
853.062	0.0166165
853.140	0.0164207
853.218	0.0164713
853.296	0.0165613
853.374	0.0163644
853.453	0.0163820
853.531	0.0163634
853.609	0.0164510
853.687	0.0163205
853.765	0.0162321
853.843	0.0163094
853.921	0.0163107
853.999	0.0163503
854.078	0.0163041
854.156	0.0162341
854.234	0.0162309
854.312	0.0163864
854.390	0.0162640
854.468	0.0162414
854.546	0.0162380
854.624	0.0162134
854.703	0.0162887
854.781	0.0163335
854.859	0.0162067
854.937	0.0162543
855.015	0.0162687
855.093	0.0162460
855.171	0.0162801
855.249	0.0163271
855.328	0.0165002
855.406	0.0164146
855.484	0.0162905
855.562	0.0162624
855.640	0.0162334
855.718	0.0162065
855.796	0.0163084
855.874	0.0163291
855.953	0.0162923
856.031	0.0162882
856.109	0.0163887
856.187	0.0163393
856.265	0.0164034
856.343	0.0164059
856.421	0.0163179
856.499	0.0162860
856.578	0.0162807
856.656	0.0163515
856.734	0.0162901
856.812	0.0163675
856.890	0.0163983
856.968	0.0163445
857.046	0.0162542
857.124	0.0164313
857.203	0.0163548
857.281	0.0161900
857.359	0.0163477
857.437	0.0163232
857.515	0.0163659
857.593	0.0163931
857.671	0.0163673
857.749	0.0163389
857.828	0.0163528
857.906	0.0163020
857.984	0.0163925
858.062	0.0162965
858.140	0.0163535
858.218	0.0165355
858.296	0.0165662
858.374	0.0162969
858.453	0.0165137
858.531	0.0164887
858.609	0.0163087
858.687	0.0165239
858.765	0.0164204
858.843	0.0165254
858.921	0.0163624
858.999	0.0163618
859.078	0.0164436
859.156	0.0163786
859.234	0.0162739
859.312	0.0163851
859.390	0.0163940
859.468	0.0162134
859.546	0.0162959
859.624	0.0164655
859.703	0.0163682
859.781	0.0163998
859.859	0.0164072
859.937	0.0162988
860.015	0.0164204
860.093	0.0164095
860.171	0.0165664
860.249	0.0164190
860.328	0.0163122
860.406	0.0163592
860.484	0.0164729
860.562	0.0164458
860.640	0.0163860
860.718	0.0164156
860.796	0.0164056
860.874	0.0162769
860.953	0.0162651
861.031	0.0162728
861.109	0.0163580
861.187	0.0163444
861.265	0.0162502
861.343	0.0162743
861.421	0.0160877
861.499	0.0163428
861.578	0.0163061
861.656	0.0162263
861.734	0.0161492
861.812	0.0161533
861.890	0.0161770
861.968	0.0163251
862.046	0.0163929
862.124	0.0163084
862.203	0.0162020
862.281	0.0163614
862.359	0.0163639
862.437	0.0162909
862.515	0.0164179
862.593	0.0163029
862.671	0.0164318
862.749	0.0162600
862.828	0.0162403
862.906	0.0162440
862.984	0.0162330
863.062	0.0162206
863.140	0.0163428
863.218	0.0162800
863.296	0.0162765
863.374	0.0162656
863.453	0.0162811
863.531	0.0162851
863.609	0.0162032
863.687	0.0162724
863.765	0.0163792
863.843	0.0164584
863.921	0.0165390
863.999	0.0163737
864.078	0.0163843
864.156	0.0164809
864.234	0.0165565
864.312	0.0163968
864.390	0.0164959
864.468	0.0163814
864.546	0.0165116
864.624	0.0164300
864.703	0.0162781
864.781	0.0162833
864.859	0.0162236
864.937	0.0161812
865.015	0.0161494
865.093	0.0160949
865.171	0.0162160
865.249	0.0160693
865.328	0.0160320
865.406	0.0160596
865.484	0.0161759
865.562	0.0161922
865.640	0.0162813
865.718	0.0162320
865.796	0.0161298
865.874	0.0162943
865.953	0.0161469
866.031	0.0163165
866.109	0.0163709
866.187	0.0162747
866.265	0.0163806
866.343	0.0163973
866.421	0.0164954
866.499	0.0162838
866.578	0.0162800
866.656	0.0163354
866.734	0.0163098
866.812	0.0162595
866.890	0.0163873
866.968	0.0163216
867.046	0.0163048
867.124	0.0162124
867.203	0.0163114
867.281	0.0162112
867.359	0.0161244
867.437	0.0162197
867.515	0.0161303
867.593	0.0159969
867.671	0.0160206
867.749	0.0161581
867.828	0.0161845
867.906	0.0160406
867.984	0.0160265
868.062	0.0160529
868.140	0.0161755
868.218	0.0161622
868.296	0.0160554
868.374	0.0160505
868.453	0.0161846
868.531	0.0161746
868.609	0.0161749
868.687	0.0161659
868.765	0.0160793
868.843	0.0162341
868.921	0.0162145
868.999	0.0161163
869.078	0.0160818
869.156	0.0161166
869.234	0.0160995
869.312	0.0160741
869.390	0.0162073
869.468	0.0161532
869.546	0.0161588
869.624	0.0161315
869.703	0.0160651
869.781	0.0161028
869.859	0.0162502
869.937	0.0162807
870.015	0.0162601
870.093	0.0162189
870.171	0.0164003
870.249	0.0163322
870.328	0.0163986
870.406	0.0163737
870.484	0.0164409
870.562	0.0164404
870.640	0.0161937
870.718	0.0164001
870.796	0.0164273
870.874	0.0164701
870.953	0.0163874
871.031	0.0163783
871.109	0.0163160
871.187	0.0162473
871.265	0.0164308
871.343	0.0162731
871.421	0.0162497
871.499	0.0163042
871.578	0.0162992
871.656	0.0163264
871.734	0.0162844
871.812	0.0162842
871.890	0.0163119
871.968	0.0163960
872.046	0.0161819
872.124	0.0162227
872.203	0.0162952
872.281	0.0164152
872.359	0.0162314
872.437	0.0161948
872.515	0.0164127
872.593	0.0162775
872.671	0.0162466
872.749	0.0161859
872.828	0.0163580
872.906	0.0163216
872.984	0.0161720
873.062	0.0163031
873.140	0.0164164
873.218	0.0162240
873.296	0.0163060
873.374	0.0162042
873.453	0.0163844
873.531	0.0163293
873.609	0.0164079
873.687	0.0163943
873.765	0.0163687
873.843	0.0163921
873.921	0.0163992
873.999	0.0164236
874.078	0.0162704
874.156	0.0163941
874.234	0.0164414
874.312	0.0164641
874.390	0.0164133
874.468	0.0163741
874.546	0.0164159
874.624	0.0162856
874.703	0.0163257
874.781	0.0164180
874.859	0.0163065
874.937	0.0164280
875.015	0.0163020
875.093	0.0162008
875.171	0.0162905
875.249	0.0163440
875.328	0.0162512
875.406	0.0162668
875.484	0.0160638
875.562	0.0161268
875.640	0.0161764
875.718	0.0162091
875.796	0.0163370
875.874	0.0162231
875.953	0.0162537
876.031	0.0160692
876.109	0.0162160
876.187	0.0163963
876.265	0.0163642
876.343	0.0165110
876.421	0.0164795
876.499	0.0165842
876.578	0.0164902
876.656	0.0165820
876.734	0.0165197
876.812	0.0165530
876.890	0.0166708
876.968	0.0164151
877.046	0.0164665
877.124	0.0164557
877.203	0.0163245
877.281	0.0164464
877.359	0.0163803
877.437	0.0164359
877.515	0.0163024
877.593	0.0162021
877.671	0.0162624
877.749	0.0162101
877.828	0.0162432
877.906	0.0162345
877.984	0.0162691
878.062	0.0162910
878.140	0.0163795
878.218	0.0163167
878.296	0.0164836
878.374	0.0164095
878.453	0.0164147
878.531	0.0164524
878.609	0.0164092
878.687	0.0164529
878.765	0.0165149
878.843	0.0164299
878.921	0.0164870
878.999	0.0165153
879.078	0.0164036
879.156	0.0165678
879.234	0.0165984
879.312	0.0166258
879.390	0.0165203
879.468	0.0165526
879.546	0.0164855
879.624	0.0165906
879.703	0.0164750
879.781	0.0164816
879.859	0.0164798
879.937	0.0165242
880.015	0.0165024
880.093	0.0165320
880.171	0.0165166
880.249	0.0166993
880.328	0.0165160
880.406	0.0162989
880.484	0.0164510
880.562	0.0165019
880.640	0.0164729
880.718	0.0164541
880.796	0.0163306
880.874	0.0162920
880.953	0.0164221
881.031	0.0163377
881.109	0.0163987
881.187	0.0163551
881.265	0.0162974
881.343	0.0163464
881.421	0.0161742
881.499	0.0161694
881.578	0.0161756
881.656	0.0161940
881.734	0.0162432
881.812	0.0161346
881.890	0.0160048
881.968	0.0161575
882.046	0.0161691
882.124	0.0160265
882.203	0.0161058
882.281	0.0162625
882.359	0.0161707
882.437	0.0161849
882.515	0.0162400
882.593	0.0163488
882.671	0.0163064
882.749	0.0162270
882.828	0.0163895
882.906	0.0164894
882.984	0.0164261
883.062	0.0165394
883.140	0.0166701
883.218	0.0166075
883.296	0.0167066
883.374	0.0165702
883.453	0.0165353
883.531	0.0166988
883.609	0.0166120
883.687	0.0165423
883.765	0.0164855
883.843	0.0163332
883.921	0.0165665
883.999	0.0165322
884.078	0.0163271
884.156	0.0163583
884.234	0.0164272
884.312	0.0163419
884.390	0.0163558
884.468	0.0163472
884.546	0.0163670
884.624	0.0163420
884.703	0.0163667
884.781	0.0164890
884.859	0.0164798
884.937	0.0164021
885.015	0.0164969
885.093	0.0164027
885.171	0.0163598
885.249	0.0164137
885.328	0.0163039
885.406	0.0161898
885.484	0.0161733
885.562	0.0163299
885.640	0.0164003
885.718	0.0163628
885.796	0.0162397
885.874	0.0161703
885.953	0.0161297
886.031	0.0162384
886.109	0.0162528
886.187	0.0162315
886.265	0.0161130
886.343	0.0160824
886.421	0.0162189
886.499	0.0162071
886.578	0.0160484
886.656	0.0160765
886.734	0.0161559
886.812	0.0162657
886.890	0.0163271
886.968	0.0162334
887.046	0.0162435
887.124	0.0163785
887.203	0.0163190
887.281	0.0164765
887.359	0.0165982
887.437	0.0166702
887.515	0.0165262
887.593	0.0164182
887.671	0.0164823
887.749	0.0165307
887.828	0.0164690
887.906	0.0165031
887.984	0.0165662
888.062	0.0165377
888.140	0.0164874
888.218	0.0163622
888.296	0.0165112
888.374	0.0164416
888.453	0.0163623
888.531	0.0164972
888.609	0.0163172
888.687	0.0163570
888.765	0.0164217
888.843	0.0163508
888.921	0.0163468
888.999	0.0163626
889.078	0.0163924
889.156	0.0163299
889.234	0.0163134
889.312	0.0161447
889.390	0.0162920
889.468	0.0163760
889.546	0.0162452
889.624	0.0162660
889.703	0.0162254
889.781	0.0161912
889.859	0.0160997
889.937	0.0162210
890.015	0.0160958
890.093	0.0160712
890.171	0.0161907
890.249	0.0161451
890.328	0.0161983
890.406	0.0161654
890.484	0.0161292
890.562	0.0160957
890.640	0.0161134
890.718	0.0161506
890.796	0.0162185
890.874	0.0161725
890.953	0.0161794
891.031	0.0161903
891.109	0.0163194
891.187	0.0162505
891.265	0.0162468
891.343	0.0162289
891.421	0.0162497
891.499	0.0163683
891.578	0.0164657
891.656	0.0164175
891.734	0.0162283
891.812	0.0162921
891.890	0.0162567
891.968	0.0164005
892.046	0.0164322
892.124	0.0163409
892.203	0.0162284
892.281	0.0164343
892.359	0.0163787
892.437	0.0163801
892.515	0.0163570
892.593	0.0163312
892.671	0.0163253
892.749	0.0163754
892.828	0.0162933
892.906	0.0162103
892.984	0.0162183
893.062	0.0162623
893.140	0.0161102
893.218	0.0162222
893.296	0.0160960
893.374	0.0161855
893.453	0.0161908
893.531	0.0161893
893.609	0.0160580
893.687	0.0160652
893.765	0.0159203
893.843	0.0161169
893.921	0.0161699
893.999	0.0159330
894.078	0.0160337
894.156	0.0159949
894.234	0.0159313
894.312	0.0158875
894.390	0.0159768
894.468	0.0160101
894.546	0.0160198
894.624	0.0160748
894.703	0.0159878
894.781	0.0160958
894.859	0.0161275
894.937	0.0160452
895.015	0.0161029
895.093	0.0161684
895.171	0.0162872
895.249	0.0162549
895.328	0.0162103
895.406	0.0163102
895.484	0.0161745
895.562	0.0162017
895.640	0.0163306
895.718	0.0163129
895.796	0.0163077
895.874	0.0163481
895.953	0.0161774
896.031	0.0163351
896.109	0.0163818
896.187	0.0162457
896.265	0.0161283
896.343	0.0163149
896.421	0.0162453
896.499	0.0162247
896.578	0.0162222
896.656	0.0161568
896.734	0.0162017
896.812	0.0160496
896.890	0.0162051
896.968	0.0162170
897.046	0.0163260
897.124	0.0160857
897.203	0.0161902
897.281	0.0163133
897.359	0.0162580
897.437	0.0161442
897.515	0.0162779
897.593	0.0162750
897.671	0.0161307
897.749	0.0163128
897.828	0.0162693
897.906	0.0162955
897.984	0.0161927
898.062	0.0163042
898.140	0.0161761
898.218	0.0162684
898.296	0.0163562
898.374	0.0162839
898.453	0.0161935
898.531	0.0161935
898.609	0.0162949
898.687	0.0161301
898.765	0.0162343
898.843	0.0162891
898.921	0.0161916
898.999	0.0161900
899.078	0.0164362
899.156	0.0162831
899.234	0.0163683
899.312	0.0162148
899.390	0.0160754
899.468	0.0161823
899.546	0.0163435
899.624	0.0160816
899.703	0.0161858
899.781	0.0162408
899.859	0.0163540
899.937	0.0163420
900.015	0.0161628
900.093	0.0161816
900.171	0.0162173
900.249	0.0162245
900.328	0.0163011
900.406	0.0162283
900.484	0.0163837
900.562	0.0165005
900.640	0.0162957
900.718	0.0164067
900.796	0.0164178
900.874	0.0163813
900.953	0.0163722
901.031	0.0163373
901.109	0.0163712
901.187	0.0165445
901.265	0.0164387
901.343	0.0164265
901.421	0.0163607
901.499	0.0163617
901.578	0.0164608
901.656	0.0165891
901.734	0.0165063
901.812	0.0162510
901.890	0.0163072
901.968	0.0162823
902.046	0.0162830
902.124	0.0163451
902.203	0.0163905
902.281	0.0163486
902.359	0.0164065
902.437	0.0163047
902.515	0.0162594
902.593	0.0161940
902.671	0.0163281
902.749	0.0163358
902.828	0.0162436
902.906	0.0162801
902.984	0.0162704
903.062	0.0164571
903.140	0.0163651
903.218	0.0164310
903.296	0.0164336
903.374	0.0165046
903.453	0.0163107
903.531	0.0164032
903.609	0.0164664
903.687	0.0164803
903.765	0.0164603
903.843	0.0164848
903.921	0.0164516
903.999	0.0166783
904.078	0.0166286
904.156	0.0164652
904.234	0.0164486
904.312	0.0165595
904.390	0.0163434
904.468	0.0165133
904.546	0.0165211
904.624	0.0164105
904.703	0.0164960
904.781	0.0163945
904.859	0.0165179
904.937	0.0163833
905.015	0.0162736
905.093	0.0164639
905.171	0.0163121
905.249	0.0164005
905.328	0.0163253
905.406	0.0164761
905.484	0.0163074
905.562	0.0164270
905.640	0.0165483
905.718	0.0165071
905.796	0.0164970
905.874	0.0164648
905.953	0.0164413
906.031	0.0166128
906.109	0.0165678
906.187	0.0164582
906.265	0.0164594
906.343	0.0164403
906.421	0.0164141
906.499	0.0164820
906.578	0.0163338
906.656	0.0163783
906.734	0.0164896
906.812	0.0163957
906.890	0.0164766
906.968	0.0163901
907.046	0.0165104
907.124	0.0164748
907.203	0.0165266
907.281	0.0165618
907.359	0.0164533
907.437	0.0164482
907.515	0.0164179
907.593	0.0164124
907.671	0.0163284
907.749	0.0163493
907.828	0.0162818
907.906	0.0162684
907.984	0.0163707
908.062	0.0162632
908.140	0.0162237
908.218	0.0162386
908.296	0.0163902
908.374	0.0163204
908.453	0.0162019
908.531	0.0162196
908.609	0.0161740
908.687	0.0162495
908.765	0.0161886
908.843	0.0161968
908.921	0.0161629
908.999	0.0162627
909.078	0.0162102
909.156	0.0161826
909.234	0.0160822
909.312	0.0162808
909.390	0.0162039
909.468	0.0162238
909.546	0.0162702
909.624	0.0163138
909.703	0.0164130
909.781	0.0162681
909.859	0.0163677
909.937	0.0164831
910.015	0.0163771
910.093	0.0163949
910.171	0.0164825
910.249	0.0165681
910.328	0.0164285
910.406	0.0164117
910.484	0.0164823
910.562	0.0166271
910.640	0.0164758
910.718	0.0165791
910.796	0.0164958
910.874	0.0163763
910.953	0.0163491
911.031	0.0163107
911.109	0.0163051
911.187	0.0162643
911.265	0.0162998
911.343	0.0162354
911.421	0.0161982
911.499	0.0161291
911.578	0.0161912
911.656	0.0160929
911.734	0.0161375
911.812	0.0160775
911.890	0.0161605
911.968	0.0163208
912.046	0.0161638
912.124	0.0163290
912.203	0.0161816
912.281	0.0163268
912.359	0.0162611
912.437	0.0163720
912.515	0.0163947
912.593	0.0161525
912.671	0.0162537
912.749	0.0162924
912.828	0.0162510
912.906	0.0163352
912.984	0.0162930
913.062	0.0162254
913.140	0.0161954
913.218	0.0163136
913.296	0.0162143
913.374	0.0163076
913.453	0.0162376
913.531	0.0163184
913.609	0.0164368
913.687	0.0162942
913.765	0.0162116
913.843	0.0162793
913.921	0.0162234
913.999	0.0164275
914.078	0.0162216
914.156	0.0162553
914.234	0.0163320
914.312	0.0162228
914.390	0.0162241
914.468	0.0164282
914.546	0.0162791
914.624	0.0162603
914.703	0.0162782
914.781	0.0163139
914.859	0.0162162
914.937	0.0162267
915.015	0.0163849
915.093	0.0163052
915.171	0.0163612
915.249	0.0162572
915.328	0.0162539
915.406	0.0163347
915.484	0.0161411
915.562	0.0162299
915.640	0.0162797
915.718	0.0161417
915.796	0.0162764
915.874	0.0162632
915.953	0.0161180
916.031	0.0161720
916.109	0.0161909
916.187	0.0159816
916.265	0.0160380
916.343	0.0160880
916.421	0.0162329
916.499	0.0161529
916.578	0.0160927
916.656	0.0161944
916.734	0.0161225
916.812	0.0161625
916.890	0.0163029
916.968	0.0163133
917.046	0.0161951
917.124	0.0163473
917.203	0.0163889
917.281	0.0163898
917.359	0.0162889
917.437	0.0162898
917.515	0.0162228
917.593	0.0163608
917.671	0.0163829
917.749	0.0163802
917.828	0.0162920
917.906	0.0164700
917.984	0.0163811
918.062	0.0163258
918.140	0.0163446
918.218	0.0161806
918.296	0.0161333
918.374	0.0163116
918.453	0.0161309
918.531	0.0163974
918.609	0.0161120
918.687	0.0160770
918.765	0.0162747
918.843	0.0161974
918.921	0.0161477
918.999	0.0163488
919.078	0.0162072
919.156	0.0161172
919.234	0.0162778
919.312	0.0161093
919.390	0.0162781
919.468	0.0163329
919.546	0.0162652
919.624	0.0164527
919.703	0.0164186
919.781	0.0164266
919.859	0.0164703
919.937	0.0165859
