06/10/2022	18:51:15	Ver.	4.1	UNKNOWN
Optical Delay	600.015094	Delta X		0.078125	Sweeps	1	Scan Rate	0/0
Coordinates	Axis 1	NaN	Axis 2	NaN	Axis 3	NaN	Axis 4	NaN	Axis 5	NaN	Axis 6	0.000000
TX Power	0.000000	RX Power	0.000000

600.015	0.0163569
600.093	0.0164616
600.171	0.0163110
600.249	0.0162986
600.328	0.0164030
600.406	0.0162717
600.484	0.0162896
600.562	0.0162852
600.640	0.0164930
600.718	0.0162595
600.796	0.0164619
600.874	0.0165070
600.953	0.0162880
601.031	0.0163081
601.109	0.0163789
601.187	0.0164384
601.265	0.0164066
601.343	0.0164268
601.421	0.0163925
601.499	0.0165057
601.578	0.0165199
601.656	0.0163342
601.734	0.0163966
601.812	0.0164400
601.890	0.0163418
601.968	0.0162853
602.046	0.0162834
602.124	0.0164569
602.203	0.0164693
602.281	0.0163348
602.359	0.0162243
602.437	0.0163490
602.515	0.0164092
602.593	0.0162995
602.671	0.0163672
602.749	0.0164517
602.828	0.0162032
602.906	0.0163722
602.984	0.0164182
603.062	0.0163951
603.140	0.0163766
603.218	0.0164532
603.296	0.0163953
603.374	0.0163609
603.453	0.0162868
603.531	0.0163490
603.609	0.0162889
603.687	0.0163593
603.765	0.0163572
603.843	0.0163222
603.921	0.0162568
603.999	0.0162600
604.078	0.0162437
604.156	0.0163082
604.234	0.0164343
604.312	0.0162565
604.390	0.0163953
604.468	0.0164005
604.546	0.0163859
604.624	0.0164080
604.703	0.0164124
604.781	0.0164120
604.859	0.0163767
604.937	0.0163530
605.015	0.0164982
605.093	0.0163912
605.171	0.0162814
605.249	0.0162598
605.328	0.0164189
605.406	0.0162931
605.484	0.0163255
605.562	0.0163759
605.640	0.0163197
605.718	0.0163903
605.796	0.0163988
605.874	0.0162582
605.953	0.0162918
606.031	0.0162716
606.109	0.0163472
606.187	0.0163660
606.265	0.0163650
606.343	0.0163230
606.421	0.0162394
606.499	0.0162175
606.578	0.0164012
606.656	0.0163411
606.734	0.0163367
606.812	0.0162878
606.890	0.0163538
606.968	0.0162396
607.046	0.0163350
607.124	0.0162813
607.203	0.0164261
607.281	0.0163564
607.359	0.0163708
607.437	0.0163897
607.515	0.0161885
607.593	0.0164919
607.671	0.0164045
607.749	0.0163274
607.828	0.0163830
607.906	0.0163680
607.984	0.0164011
608.062	0.0163169
608.140	0.0163552
608.218	0.0161940
608.296	0.0162656
608.374	0.0162448
608.453	0.0163093
608.531	0.0162942
608.609	0.0163546
608.687	0.0162466
608.765	0.0163076
608.843	0.0162909
608.921	0.0163049
608.999	0.0162695
609.078	0.0161952
609.156	0.0165140
609.234	0.0163046
609.312	0.0163551
609.390	0.0162839
609.468	0.0163358
609.546	0.0163204
609.624	0.0161974
609.703	0.0162913
609.781	0.0162359
609.859	0.0162733
609.937	0.0162035
610.015	0.0162469
610.093	0.0162732
610.171	0.0161964
610.249	0.0163022
610.328	0.0163888
610.406	0.0162170
610.484	0.0164233
610.562	0.0164472
610.640	0.0162943
610.718	0.0161438
610.796	0.0162527
610.874	0.0163108
610.953	0.0163830
611.031	0.0164522
611.109	0.0161500
611.187	0.0163429
611.265	0.0163783
611.343	0.0162344
611.421	0.0163036
611.499	0.0164156
611.578	0.0160587
611.656	0.0162331
611.734	0.0162695
611.812	0.0162129
611.890	0.0163558
611.968	0.0163369
612.046	0.0163264
612.124	0.0162894
612.203	0.0164013
612.281	0.0163627
612.359	0.0163219
612.437	0.0163489
612.515	0.0162021
612.593	0.0163087
612.671	0.0163219
612.749	0.0163751
612.828	0.0163412
612.906	0.0162750
612.984	0.0163379
613.062	0.0163178
613.140	0.0162850
613.218	0.0162375
613.296	0.0160569
613.374	0.0162613
613.453	0.0163348
613.531	0.0163927
613.609	0.0163622
613.687	0.0162427
613.765	0.0163740
613.843	0.0162854
613.921	0.0163456
613.999	0.0163044
614.078	0.0163626
614.156	0.0162305
614.234	0.0163358
614.312	0.0162098
614.390	0.0162564
614.468	0.0163510
614.546	0.0162866
614.624	0.0162190
614.703	0.0163014
614.781	0.0163514
614.859	0.0163250
614.937	0.0163120
615.015	0.0162535
615.093	0.0162743
615.171	0.0163328
615.249	0.0163676
615.328	0.0164979
615.406	0.0163481
615.484	0.0162901
615.562	0.0164574
615.640	0.0163897
615.718	0.0163684
615.796	0.0163791
615.874	0.0162846
615.953	0.0163006
616.031	0.0162516
616.109	0.0163531
616.187	0.0163538
616.265	0.0164346
616.343	0.0162637
616.421	0.0162859
616.499	0.0163544
616.578	0.0162714
616.656	0.0163799
616.734	0.0163542
616.812	0.0163863
616.890	0.0163134
616.968	0.0161578
617.046	0.0162487
617.124	0.0163309
617.203	0.0163337
617.281	0.0162096
617.359	0.0164067
617.437	0.0163280
617.515	0.0163294
617.593	0.0162423
617.671	0.0163734
617.749	0.0164526
617.828	0.0163062
617.906	0.0164569
617.984	0.0163998
618.062	0.0164526
618.140	0.0163855
618.218	0.0163228
618.296	0.0162704
618.374	0.0163329
618.453	0.0162838
618.531	0.0162814
618.609	0.0164114
618.687	0.0162993
618.765	0.0163715
618.843	0.0163848
618.921	0.0163516
618.999	0.0163062
619.078	0.0163933
619.156	0.0163107
619.234	0.0163102
619.312	0.0162195
619.390	0.0163839
619.468	0.0162981
619.546	0.0162316
619.624	0.0163236
619.703	0.0163860
619.781	0.0163911
619.859	0.0163637
619.937	0.0162892
620.015	0.0162067
620.093	0.0164878
620.171	0.0164250
620.249	0.0163767
620.328	0.0163789
620.406	0.0164817
620.484	0.0163879
620.562	0.0163943
620.640	0.0164017
620.718	0.0164020
620.796	0.0162724
620.874	0.0164472
620.953	0.0163477
621.031	0.0164000
621.109	0.0163155
621.187	0.0163792
621.265	0.0164643
621.343	0.0162560
621.421	0.0162219
621.499	0.0163480
621.578	0.0165439
621.656	0.0163019
621.734	0.0163263
621.812	0.0163145
621.890	0.0164251
621.968	0.0162626
622.046	0.0163962
622.124	0.0163362
622.203	0.0165376
622.281	0.0163057
622.359	0.0163621
622.437	0.0163570
622.515	0.0163051
622.593	0.0162093
622.671	0.0162193
622.749	0.0163004
622.828	0.0163132
622.906	0.0164131
622.984	0.0162904
623.062	0.0162930
623.140	0.0163311
623.218	0.0162373
623.296	0.0162576
623.374	0.0164192
623.453	0.0163190
623.531	0.0164301
623.609	0.0164183
623.687	0.0162846
623.765	0.0165180
623.843	0.0162550
623.921	0.0163612
623.999	0.0162840
624.078	0.0163588
624.156	0.0163245
624.234	0.0163550
624.312	0.0163243
624.390	0.0163908
624.468	0.0162817
624.546	0.0164111
624.624	0.0163535
624.703	0.0164273
624.781	0.0163697
624.859	0.0163802
624.937	0.0163907
625.015	0.0164607
625.093	0.0163034
625.171	0.0163524
625.249	0.0163006
625.328	0.0162663
625.406	0.0163625
625.484	0.0161640
625.562	0.0162077
625.640	0.0163924
625.718	0.0163446
625.796	0.0163647
625.874	0.0162950
625.953	0.0163177
626.031	0.0162832
626.109	0.0163352
626.187	0.0163993
626.265	0.0163071
626.343	0.0163752
626.421	0.0163299
626.499	0.0163523
626.578	0.0163117
626.656	0.0164880
626.734	0.0165218
626.812	0.0162448
626.890	0.0163852
626.968	0.0163282
627.046	0.0162600
627.124	0.0163219
627.203	0.0162761
627.281	0.0163557
627.359	0.0164389
627.437	0.0164250
627.515	0.0162389
627.593	0.0163052
627.671	0.0163847
627.749	0.0163564
627.828	0.0163372
627.906	0.0163616
627.984	0.0162265
628.062	0.0162513
628.140	0.0161698
628.218	0.0162206
628.296	0.0162663
628.374	0.0163418
628.453	0.0163583
628.531	0.0163067
628.609	0.0162977
628.687	0.0163120
628.765	0.0162517
628.843	0.0162859
628.921	0.0163775
628.999	0.0161411
629.078	0.0163624
629.156	0.0163684
629.234	0.0162087
629.312	0.0163261
629.390	0.0163188
629.468	0.0162780
629.546	0.0161515
629.624	0.0161991
629.703	0.0162480
629.781	0.0161359
629.859	0.0162659
629.937	0.0162556
630.015	0.0163139
630.093	0.0162231
630.171	0.0163333
630.249	0.0161613
630.328	0.0163045
630.406	0.0163333
630.484	0.0163319
630.562	0.0163721
630.640	0.0163251
630.718	0.0163206
630.796	0.0163898
630.874	0.0162549
630.953	0.0162295
631.031	0.0162685
631.109	0.0162813
631.187	0.0164371
631.265	0.0162182
631.343	0.0162512
631.421	0.0161415
631.499	0.0162337
631.578	0.0162656
631.656	0.0162669
631.734	0.0163533
631.812	0.0162748
631.890	0.0163507
631.968	0.0163116
632.046	0.0162286
632.124	0.0163036
632.203	0.0162761
632.281	0.0161466
632.359	0.0162798
632.437	0.0162682
632.515	0.0162661
632.593	0.0163693
632.671	0.0162706
632.749	0.0161410
632.828	0.0161715
632.906	0.0163083
632.984	0.0162028
633.062	0.0162254
633.140	0.0162427
633.218	0.0162438
633.296	0.0162428
633.374	0.0163535
633.453	0.0162836
633.531	0.0162823
633.609	0.0162450
633.687	0.0163624
633.765	0.0162345
633.843	0.0163062
633.921	0.0162948
633.999	0.0162541
634.078	0.0162025
634.156	0.0162177
634.234	0.0162617
634.312	0.0161308
634.390	0.0161988
634.468	0.0162978
634.546	0.0163858
634.624	0.0163789
634.703	0.0161917
634.781	0.0162334
634.859	0.0162698
634.937	0.0163591
635.015	0.0162409
635.093	0.0162594
635.171	0.0163537
635.249	0.0162857
635.328	0.0162772
635.406	0.0163632
635.484	0.0163631
635.562	0.0162950
635.640	0.0162254
635.718	0.0163115
635.796	0.0161752
635.874	0.0162963
635.953	0.0162480
636.031	0.0162604
636.109	0.0162454
636.187	0.0163782
636.265	0.0162953
636.343	0.0161639
636.421	0.0162411
636.499	0.0163905
636.578	0.0163296
636.656	0.0163772
636.734	0.0163400
636.812	0.0163255
636.890	0.0163051
636.968	0.0162637
637.046	0.0163127
637.124	0.0162857
637.203	0.0163779
637.281	0.0164387
637.359	0.0162891
637.437	0.0162883
637.515	0.0163761
637.593	0.0163815
637.671	0.0162748
637.749	0.0163345
637.828	0.0162718
637.906	0.0162496
637.984	0.0163910
638.062	0.0162715
638.140	0.0162615
638.218	0.0161510
638.296	0.0164378
638.374	0.0163224
638.453	0.0162667
638.531	0.0163316
638.609	0.0162730
638.687	0.0164252
638.765	0.0162796
638.843	0.0161533
638.921	0.0162644
638.999	0.0162238
639.078	0.0162589
639.156	0.0162242
639.234	0.0163056
639.312	0.0162967
639.390	0.0161865
639.468	0.0162589
639.546	0.0162057
639.624	0.0162924
639.703	0.0163892
639.781	0.0163414
639.859	0.0164779
639.937	0.0162593
640.015	0.0163451
640.093	0.0163570
640.171	0.0162486
640.249	0.0163062
640.328	0.0163056
640.406	0.0162623
640.484	0.0162859
640.562	0.0163932
640.640	0.0163423
640.718	0.0161561
640.796	0.0163372
640.874	0.0163262
640.953	0.0162776
641.031	0.0164035
641.109	0.0162685
641.187	0.0161863
641.265	0.0162492
641.343	0.0161787
641.421	0.0163254
641.499	0.0162964
641.578	0.0162607
641.656	0.0164732
641.734	0.0162620
641.812	0.0163239
641.890	0.0161275
641.968	0.0162545
642.046	0.0161594
642.124	0.0163502
642.203	0.0164178
642.281	0.0162662
642.359	0.0163810
642.437	0.0162001
642.515	0.0162895
642.593	0.0161759
642.671	0.0161750
642.749	0.0163071
642.828	0.0163783
642.906	0.0163724
642.984	0.0163177
643.062	0.0164677
643.140	0.0161710
643.218	0.0162752
643.296	0.0161661
643.374	0.0163416
643.453	0.0164584
643.531	0.0163948
643.609	0.0163853
643.687	0.0163473
643.765	0.0163110
643.843	0.0162970
643.921	0.0161959
643.999	0.0163271
644.078	0.0163384
644.156	0.0163303
644.234	0.0163153
644.312	0.0162881
644.390	0.0163312
644.468	0.0163283
644.546	0.0162858
644.624	0.0161921
644.703	0.0162506
644.781	0.0164395
644.859	0.0163800
644.937	0.0163345
645.015	0.0162592
645.093	0.0162981
645.171	0.0164451
645.249	0.0163614
645.328	0.0162635
645.406	0.0162566
645.484	0.0163669
645.562	0.0162574
645.640	0.0162521
645.718	0.0161205
645.796	0.0164466
645.874	0.0163804
645.953	0.0161742
646.031	0.0162879
646.109	0.0163290
646.187	0.0162840
646.265	0.0163596
646.343	0.0162690
646.421	0.0161517
646.499	0.0162596
646.578	0.0162579
646.656	0.0163564
646.734	0.0162830
646.812	0.0161961
646.890	0.0162443
646.968	0.0163161
647.046	0.0163766
647.124	0.0163302
647.203	0.0162987
647.281	0.0162523
647.359	0.0162532
647.437	0.0162273
647.515	0.0162220
647.593	0.0164001
647.671	0.0162689
647.749	0.0162121
647.828	0.0163144
647.906	0.0162981
647.984	0.0162996
648.062	0.0163496
648.140	0.0162790
648.218	0.0162276
648.296	0.0162431
648.374	0.0163271
648.453	0.0163027
648.531	0.0162732
648.609	0.0162276
648.687	0.0162530
648.765	0.0164067
648.843	0.0163242
648.921	0.0163126
648.999	0.0162714
649.078	0.0162319
649.156	0.0163644
649.234	0.0163544
649.312	0.0163065
649.390	0.0162016
649.468	0.0162221
649.546	0.0162548
649.624	0.0163193
649.703	0.0163008
649.781	0.0161826
649.859	0.0162445
649.937	0.0162890
650.015	0.0163409
650.093	0.0163728
650.171	0.0162192
650.249	0.0161740
650.328	0.0162574
650.406	0.0162019
650.484	0.0162706
650.562	0.0162528
650.640	0.0162309
650.718	0.0162521
650.796	0.0163286
650.874	0.0162860
650.953	0.0162876
651.031	0.0164045
651.109	0.0164095
651.187	0.0163845
651.265	0.0162750
651.343	0.0162484
651.421	0.0162836
651.499	0.0163666
651.578	0.0162865
651.656	0.0163440
651.734	0.0163868
651.812	0.0163398
651.890	0.0163464
651.968	0.0162807
652.046	0.0162206
652.124	0.0162564
652.203	0.0162762
652.281	0.0163365
652.359	0.0163947
652.437	0.0163934
652.515	0.0163509
652.593	0.0162577
652.671	0.0161783
652.749	0.0163363
652.828	0.0162634
652.906	0.0162126
652.984	0.0163615
653.062	0.0162489
653.140	0.0163651
653.218	0.0163600
653.296	0.0163282
653.374	0.0162424
653.453	0.0162592
653.531	0.0163590
653.609	0.0163931
653.687	0.0162701
653.765	0.0162727
653.843	0.0161964
653.921	0.0162846
653.999	0.0162375
654.078	0.0162835
654.156	0.0163651
654.234	0.0162603
654.312	0.0162530
654.390	0.0164401
654.468	0.0164151
654.546	0.0162160
654.624	0.0161146
654.703	0.0161694
654.781	0.0163022
654.859	0.0163809
654.937	0.0162947
655.015	0.0161672
655.093	0.0162095
655.171	0.0162438
655.249	0.0163291
655.328	0.0163040
655.406	0.0161877
655.484	0.0160971
655.562	0.0163187
655.640	0.0162657
655.718	0.0163311
655.796	0.0162871
655.874	0.0161629
655.953	0.0160705
656.031	0.0163879
656.109	0.0163091
656.187	0.0162127
656.265	0.0163329
656.343	0.0162375
656.421	0.0164278
656.499	0.0163030
656.578	0.0163879
656.656	0.0163879
656.734	0.0163269
656.812	0.0162158
656.890	0.0163148
656.968	0.0163941
657.046	0.0163379
657.124	0.0164178
657.203	0.0163789
657.281	0.0163143
657.359	0.0162959
657.437	0.0164055
657.515	0.0163657
657.593	0.0163895
657.671	0.0162994
657.749	0.0162447
657.828	0.0163981
657.906	0.0162521
657.984	0.0163070
658.062	0.0163390
658.140	0.0163167
658.218	0.0163004
658.296	0.0164059
658.374	0.0163519
658.453	0.0163833
658.531	0.0164244
658.609	0.0164251
658.687	0.0162851
658.765	0.0163009
658.843	0.0163705
658.921	0.0163554
658.999	0.0164187
659.078	0.0163388
659.156	0.0162385
659.234	0.0163023
659.312	0.0163475
659.390	0.0162751
659.468	0.0163580
659.546	0.0165135
659.624	0.0163995
659.703	0.0163560
659.781	0.0163496
659.859	0.0164610
659.937	0.0163847
660.015	0.0162966
660.093	0.0164016
660.171	0.0164552
660.249	0.0164313
660.328	0.0163712
660.406	0.0162716
660.484	0.0163899
660.562	0.0164118
660.640	0.0163218
660.718	0.0162862
660.796	0.0162754
660.874	0.0163525
660.953	0.0162947
661.031	0.0164170
661.109	0.0163738
661.187	0.0164629
661.265	0.0165151
661.343	0.0163197
661.421	0.0163174
661.499	0.0163370
661.578	0.0161522
661.656	0.0163309
661.734	0.0162066
661.812	0.0163451
661.890	0.0163285
661.968	0.0162795
662.046	0.0164219
662.124	0.0163031
662.203	0.0162776
662.281	0.0163602
662.359	0.0161404
662.437	0.0162860
662.515	0.0163874
662.593	0.0162186
662.671	0.0162687
662.749	0.0163867
662.828	0.0162426
662.906	0.0163119
662.984	0.0162386
663.062	0.0163928
663.140	0.0164049
663.218	0.0161835
663.296	0.0162620
663.374	0.0163519
663.453	0.0163343
663.531	0.0163062
663.609	0.0163224
663.687	0.0163594
663.765	0.0162849
663.843	0.0162695
663.921	0.0161623
663.999	0.0163058
664.078	0.0162936
664.156	0.0161384
664.234	0.0162462
664.312	0.0162272
664.390	0.0162119
664.468	0.0161893
664.546	0.0163880
664.624	0.0161745
664.703	0.0161576
664.781	0.0163515
664.859	0.0162361
664.937	0.0162225
665.015	0.0163768
665.093	0.0162289
665.171	0.0163156
665.249	0.0163145
665.328	0.0164038
665.406	0.0163536
665.484	0.0164098
665.562	0.0162642
665.640	0.0162745
665.718	0.0163130
665.796	0.0162674
665.874	0.0163097
665.953	0.0162810
666.031	0.0163667
666.109	0.0161800
666.187	0.0161494
666.265	0.0161643
666.343	0.0164657
666.421	0.0162879
666.499	0.0162286
666.578	0.0162157
666.656	0.0163139
666.734	0.0163634
666.812	0.0163096
666.890	0.0161930
666.968	0.0163037
667.046	0.0161897
667.124	0.0163450
667.203	0.0164232
667.281	0.0163206
667.359	0.0162736
667.437	0.0164240
667.515	0.0161937
667.593	0.0164433
667.671	0.0163168
667.749	0.0162914
667.828	0.0165103
667.906	0.0163065
667.984	0.0163016
668.062	0.0162614
668.140	0.0162796
668.218	0.0163209
668.296	0.0164067
668.374	0.0162851
668.453	0.0162379
668.531	0.0162657
668.609	0.0162799
668.687	0.0163272
668.765	0.0162753
668.843	0.0162555
668.921	0.0162313
668.999	0.0162183
669.078	0.0164101
669.156	0.0164205
669.234	0.0162275
669.312	0.0162627
669.390	0.0163034
669.468	0.0164133
669.546	0.0162756
669.624	0.0163540
669.703	0.0163708
669.781	0.0163055
669.859	0.0162765
669.937	0.0162643
670.015	0.0162934
670.093	0.0163847
670.171	0.0164868
670.249	0.0163215
670.328	0.0162720
670.406	0.0162587
670.484	0.0163949
670.562	0.0163183
670.640	0.0161874
670.718	0.0162509
670.796	0.0164394
670.874	0.0163757
670.953	0.0163799
671.031	0.0162475
671.109	0.0163492
671.187	0.0162578
671.265	0.0162258
671.343	0.0163058
671.421	0.0162046
671.499	0.0163009
671.578	0.0163551
671.656	0.0163548
671.734	0.0162149
671.812	0.0163099
671.890	0.0162845
671.968	0.0162128
672.046	0.0163346
672.124	0.0163683
672.203	0.0164227
672.281	0.0162957
672.359	0.0163419
672.437	0.0163177
672.515	0.0163363
672.593	0.0163141
672.671	0.0163792
672.749	0.0165520
672.828	0.0163187
672.906	0.0162329
672.984	0.0162022
673.062	0.0162620
673.140	0.0163100
673.218	0.0164053
673.296	0.0163107
673.374	0.0163091
673.453	0.0163525
673.531	0.0164328
673.609	0.0163029
673.687	0.0163897
673.765	0.0164109
673.843	0.0163832
673.921	0.0162649
673.999	0.0164898
674.078	0.0164240
674.156	0.0162495
674.234	0.0162637
674.312	0.0163100
674.390	0.0163229
674.468	0.0163429
674.546	0.0163689
674.624	0.0163550
674.703	0.0162310
674.781	0.0163416
674.859	0.0163512
674.937	0.0163854
675.015	0.0163214
675.093	0.0163512
675.171	0.0163291
675.249	0.0164254
675.328	0.0162952
675.406	0.0164414
675.484	0.0163306
675.562	0.0164642
675.640	0.0163588
675.718	0.0163145
675.796	0.0162993
675.874	0.0163313
675.953	0.0163217
676.031	0.0163206
676.109	0.0164773
676.187	0.0162682
676.265	0.0164782
676.343	0.0163223
676.421	0.0164219
676.499	0.0164030
676.578	0.0162970
676.656	0.0165380
676.734	0.0164776
676.812	0.0164616
676.890	0.0163938
676.968	0.0163702
677.046	0.0163963
677.124	0.0162706
677.203	0.0163787
677.281	0.0164120
677.359	0.0164890
677.437	0.0164088
677.515	0.0165421
677.593	0.0164635
677.671	0.0163862
677.749	0.0164089
677.828	0.0163813
677.906	0.0164945
677.984	0.0163239
678.062	0.0164806
678.140	0.0163822
678.218	0.0164204
678.296	0.0162731
678.374	0.0164227
678.453	0.0164701
678.531	0.0163446
678.609	0.0164089
678.687	0.0163037
678.765	0.0162431
678.843	0.0164757
678.921	0.0165577
678.999	0.0164948
679.078	0.0164405
679.156	0.0163648
679.234	0.0163705
679.312	0.0164829
679.390	0.0162799
679.468	0.0162966
679.546	0.0162843
679.624	0.0163356
679.703	0.0163490
679.781	0.0164478
679.859	0.0164669
679.937	0.0164780
680.015	0.0163669
680.093	0.0163400
680.171	0.0163557
680.249	0.0163277
680.328	0.0163265
680.406	0.0163069
680.484	0.0164234
680.562	0.0164143
680.640	0.0164295
680.718	0.0164018
680.796	0.0163388
680.874	0.0163954
680.953	0.0163651
681.031	0.0164355
681.109	0.0163370
681.187	0.0163441
681.265	0.0164132
681.343	0.0163875
681.421	0.0164140
681.499	0.0164837
681.578	0.0163262
681.656	0.0163643
681.734	0.0163439
681.812	0.0164400
681.890	0.0162907
681.968	0.0161398
682.046	0.0163782
682.124	0.0164229
682.203	0.0164284
682.281	0.0163583
682.359	0.0164612
682.437	0.0165331
682.515	0.0164407
682.593	0.0164765
682.671	0.0163809
682.749	0.0163129
682.828	0.0163632
682.906	0.0162846
682.984	0.0164325
683.062	0.0164462
683.140	0.0162740
683.218	0.0163064
683.296	0.0163303
683.374	0.0163413
683.453	0.0162611
683.531	0.0164015
683.609	0.0163852
683.687	0.0164758
683.765	0.0162981
683.843	0.0163533
683.921	0.0164311
683.999	0.0162863
684.078	0.0162375
684.156	0.0164124
684.234	0.0163711
684.312	0.0163145
684.390	0.0161895
684.468	0.0162191
684.546	0.0164281
684.624	0.0164223
684.703	0.0164044
684.781	0.0163719
684.859	0.0162738
684.937	0.0162899
685.015	0.0164102
685.093	0.0163917
685.171	0.0163296
685.249	0.0163442
685.328	0.0164122
685.406	0.0162536
685.484	0.0162810
685.562	0.0162342
685.640	0.0162006
685.718	0.0162791
685.796	0.0162966
685.874	0.0163258
685.953	0.0163007
686.031	0.0163438
686.109	0.0163960
686.187	0.0162281
686.265	0.0163589
686.343	0.0162378
686.421	0.0163695
686.499	0.0165173
686.578	0.0162279
686.656	0.0162694
686.734	0.0163516
686.812	0.0162714
686.890	0.0163818
686.968	0.0163076
687.046	0.0162822
687.124	0.0162888
687.203	0.0162727
687.281	0.0162687
687.359	0.0162057
687.437	0.0162984
687.515	0.0163412
687.593	0.0163431
687.671	0.0161437
687.749	0.0163027
687.828	0.0163234
687.906	0.0163903
687.984	0.0163290
688.062	0.0163087
688.140	0.0162412
688.218	0.0163126
688.296	0.0164727
688.374	0.0163133
688.453	0.0162915
688.531	0.0163073
688.609	0.0162828
688.687	0.0163352
688.765	0.0162935
688.843	0.0163334
688.921	0.0163139
688.999	0.0162729
689.078	0.0162480
689.156	0.0163727
689.234	0.0162436
689.312	0.0162115
689.390	0.0163236
689.468	0.0163500
689.546	0.0163326
689.624	0.0162220
689.703	0.0163459
689.781	0.0162326
689.859	0.0164278
689.937	0.0162411
690.015	0.0163654
690.093	0.0163736
690.171	0.0162614
690.249	0.0163901
690.328	0.0164558
690.406	0.0164440
690.484	0.0163423
690.562	0.0163474
690.640	0.0163393
690.718	0.0164021
690.796	0.0163424
690.874	0.0163295
690.953	0.0164254
691.031	0.0162920
691.109	0.0162673
691.187	0.0163480
691.265	0.0164208
691.343	0.0163229
691.421	0.0162632
691.499	0.0162873
691.578	0.0164191
691.656	0.0163866
691.734	0.0163850
691.812	0.0163617
691.890	0.0163612
691.968	0.0165227
692.046	0.0164680
692.124	0.0162547
692.203	0.0162615
692.281	0.0163788
692.359	0.0163538
692.437	0.0162360
692.515	0.0162723
692.593	0.0164247
692.671	0.0164397
692.749	0.0163160
692.828	0.0163230
692.906	0.0163959
692.984	0.0164616
693.062	0.0164676
693.140	0.0163103
693.218	0.0163969
693.296	0.0165411
693.374	0.0163815
693.453	0.0165431
693.531	0.0164827
693.609	0.0165632
693.687	0.0164108
693.765	0.0165461
693.843	0.0165311
693.921	0.0165233
693.999	0.0165703
694.078	0.0165168
694.156	0.0164539
694.234	0.0164712
694.312	0.0164435
694.390	0.0164477
694.468	0.0164580
694.546	0.0164050
694.624	0.0163651
694.703	0.0163876
694.781	0.0163409
694.859	0.0163212
694.937	0.0164091
695.015	0.0164712
695.093	0.0162922
695.171	0.0163078
695.249	0.0163695
695.328	0.0164685
695.406	0.0163653
695.484	0.0163018
695.562	0.0162744
695.640	0.0162032
695.718	0.0164030
695.796	0.0164809
695.874	0.0165138
695.953	0.0164615
696.031	0.0164327
696.109	0.0164060
696.187	0.0163050
696.265	0.0165573
696.343	0.0164915
696.421	0.0163827
696.499	0.0164062
696.578	0.0163415
696.656	0.0163865
696.734	0.0163849
696.812	0.0162617
696.890	0.0164659
696.968	0.0163861
697.046	0.0163454
697.124	0.0165234
697.203	0.0164710
697.281	0.0165046
697.359	0.0164511
697.437	0.0164198
697.515	0.0163914
697.593	0.0163730
697.671	0.0162424
697.749	0.0163190
697.828	0.0165353
697.906	0.0164375
697.984	0.0164881
698.062	0.0163468
698.140	0.0163090
698.218	0.0165023
698.296	0.0163227
698.374	0.0163751
698.453	0.0164061
698.531	0.0163218
698.609	0.0164387
698.687	0.0163300
698.765	0.0162644
698.843	0.0162827
698.921	0.0163779
698.999	0.0163389
699.078	0.0163744
699.156	0.0164791
699.234	0.0162731
699.312	0.0162048
699.390	0.0163023
699.468	0.0163213
699.546	0.0163918
699.624	0.0163177
699.703	0.0164538
699.781	0.0163778
699.859	0.0164601
699.937	0.0163867
700.015	0.0163320
700.093	0.0162889
700.171	0.0162299
700.249	0.0163607
700.328	0.0163917
700.406	0.0163022
700.484	0.0163306
700.562	0.0162756
700.640	0.0163993
700.718	0.0163966
700.796	0.0162922
700.874	0.0164774
700.953	0.0163131
701.031	0.0163133
701.109	0.0163813
701.187	0.0163494
701.265	0.0163509
701.343	0.0163506
701.421	0.0163776
701.499	0.0163051
701.578	0.0164330
701.656	0.0163091
701.734	0.0163615
701.812	0.0163822
701.890	0.0162884
701.968	0.0163100
702.046	0.0165166
702.124	0.0163441
702.203	0.0162411
702.281	0.0164260
702.359	0.0164293
702.437	0.0162759
702.515	0.0163188
702.593	0.0162147
702.671	0.0163881
702.749	0.0164653
702.828	0.0164970
702.906	0.0165081
702.984	0.0164851
703.062	0.0164117
703.140	0.0165108
703.218	0.0163718
703.296	0.0164234
703.374	0.0163299
703.453	0.0163975
703.531	0.0164827
703.609	0.0163260
703.687	0.0164624
703.765	0.0164605
703.843	0.0163766
703.921	0.0163046
703.999	0.0164991
704.078	0.0164413
704.156	0.0163696
704.234	0.0163398
704.312	0.0163090
704.390	0.0163026
704.468	0.0163997
704.546	0.0164287
704.624	0.0163409
704.703	0.0163496
704.781	0.0163366
704.859	0.0164037
704.937	0.0163024
705.015	0.0163842
705.093	0.0163078
705.171	0.0163269
705.249	0.0163047
705.328	0.0160683
705.406	0.0163049
705.484	0.0163001
705.562	0.0162879
705.640	0.0161876
705.718	0.0162563
705.796	0.0162486
705.874	0.0163251
705.953	0.0162199
706.031	0.0162962
706.109	0.0163309
706.187	0.0164135
706.265	0.0164336
706.343	0.0162749
706.421	0.0162975
706.499	0.0163430
706.578	0.0165117
706.656	0.0163877
706.734	0.0162324
706.812	0.0162032
706.890	0.0163652
706.968	0.0163455
707.046	0.0163453
707.124	0.0163326
707.203	0.0162460
707.281	0.0162768
707.359	0.0163403
707.437	0.0163932
707.515	0.0163603
707.593	0.0163356
707.671	0.0162838
707.749	0.0164046
707.828	0.0162467
707.906	0.0162647
707.984	0.0163078
708.062	0.0164109
708.140	0.0163164
708.218	0.0163980
708.296	0.0161481
708.374	0.0163005
708.453	0.0161420
708.531	0.0161838
708.609	0.0162008
708.687	0.0161145
708.765	0.0162762
708.843	0.0162369
708.921	0.0161024
708.999	0.0159471
709.078	0.0162531
709.156	0.0161729
709.234	0.0161216
709.312	0.0162117
709.390	0.0161864
709.468	0.0162241
709.546	0.0163303
709.624	0.0162918
709.703	0.0162125
709.781	0.0162361
709.859	0.0163490
709.937	0.0162376
710.015	0.0163317
710.093	0.0163216
710.171	0.0163624
710.249	0.0164679
710.328	0.0163324
710.406	0.0163889
710.484	0.0165631
710.562	0.0164738
710.640	0.0165346
710.718	0.0163898
710.796	0.0165853
710.874	0.0166068
710.953	0.0165603
711.031	0.0165989
711.109	0.0167238
711.187	0.0167179
711.265	0.0165907
711.343	0.0165064
711.421	0.0166401
711.499	0.0165469
711.578	0.0164694
711.656	0.0163956
711.734	0.0164439
711.812	0.0163168
711.890	0.0159762
711.968	0.0160361
712.046	0.0160580
712.124	0.0158995
712.203	0.0160301
712.281	0.0159058
712.359	0.0157693
712.437	0.0158880
712.515	0.0159058
712.593	0.0158400
712.671	0.0158966
712.749	0.0159848
712.828	0.0159526
712.906	0.0161320
712.984	0.0162341
713.062	0.0162277
713.140	0.0163571
713.218	0.0163538
713.296	0.0163387
713.374	0.0164793
713.453	0.0165818
713.531	0.0165808
713.609	0.0166275
713.687	0.0166927
713.765	0.0166499
713.843	0.0168288
713.921	0.0168439
713.999	0.0167274
714.078	0.0166608
714.156	0.0167264
714.234	0.0166376
714.312	0.0166211
714.390	0.0165315
714.468	0.0165839
714.546	0.0165882
714.624	0.0164852
714.703	0.0163342
714.781	0.0164892
714.859	0.0163811
714.937	0.0163440
715.015	0.0162993
715.093	0.0163035
715.171	0.0162641
715.249	0.0163254
715.328	0.0163159
715.406	0.0163010
715.484	0.0162418
715.562	0.0162746
715.640	0.0163122
715.718	0.0161296
715.796	0.0162650
715.874	0.0162636
715.953	0.0163551
716.031	0.0162750
716.109	0.0161773
716.187	0.0161502
716.265	0.0160458
716.343	0.0160656
716.421	0.0161838
716.499	0.0161742
716.578	0.0161737
716.656	0.0161005
716.734	0.0161062
716.812	0.0161664
716.890	0.0162247
716.968	0.0161719
717.046	0.0162476
717.124	0.0163451
717.203	0.0162196
717.281	0.0162255
717.359	0.0164919
717.437	0.0166613
717.515	0.0164306
717.593	0.0164647
717.671	0.0166167
717.749	0.0166862
717.828	0.0166808
717.906	0.0166923
717.984	0.0167912
718.062	0.0166901
718.140	0.0168377
718.218	0.0168717
718.296	0.0167670
718.374	0.0166911
718.453	0.0167299
718.531	0.0166590
718.609	0.0165794
718.687	0.0165010
718.765	0.0163799
718.843	0.0164487
718.921	0.0162357
718.999	0.0162160
719.078	0.0161730
719.156	0.0161934
719.234	0.0161736
719.312	0.0160214
719.390	0.0162008
719.468	0.0161012
719.546	0.0159332
719.624	0.0161514
719.703	0.0159898
719.781	0.0160835
719.859	0.0161056
719.937	0.0161380
720.015	0.0160542
720.093	0.0160827
720.171	0.0161678
720.249	0.0162547
720.328	0.0161717
720.406	0.0162888
720.484	0.0162698
720.562	0.0163283
720.640	0.0163673
720.718	0.0164709
720.796	0.0162199
720.874	0.0163726
720.953	0.0164083
721.031	0.0164620
721.109	0.0162454
721.187	0.0163806
721.265	0.0165713
721.343	0.0164238
721.421	0.0165656
721.499	0.0164677
721.578	0.0163636
721.656	0.0165433
721.734	0.0164600
721.812	0.0164382
721.890	0.0164529
721.968	0.0165002
722.046	0.0164896
722.124	0.0162112
722.203	0.0163234
722.281	0.0163269
722.359	0.0163747
722.437	0.0165226
722.515	0.0162366
722.593	0.0163159
722.671	0.0162449
722.749	0.0162792
722.828	0.0163264
722.906	0.0161533
722.984	0.0163148
723.062	0.0162806
723.140	0.0162277
723.218	0.0162991
723.296	0.0162730
723.374	0.0163181
723.453	0.0163232
723.531	0.0162965
723.609	0.0163142
723.687	0.0163715
723.765	0.0163780
723.843	0.0163168
723.921	0.0162723
723.999	0.0164369
724.078	0.0164088
724.156	0.0164239
724.234	0.0165430
724.312	0.0164908
724.390	0.0163326
724.468	0.0162939
724.546	0.0164826
724.624	0.0164324
724.703	0.0162722
724.781	0.0162758
724.859	0.0161807
724.937	0.0162815
725.015	0.0163369
725.093	0.0163513
725.171	0.0164695
725.249	0.0163852
725.328	0.0163908
725.406	0.0163949
725.484	0.0164547
725.562	0.0165068
725.640	0.0165520
725.718	0.0165750
725.796	0.0165717
725.874	0.0165858
725.953	0.0166182
726.031	0.0165151
726.109	0.0165551
726.187	0.0164728
726.265	0.0165084
726.343	0.0164910
726.421	0.0163864
726.499	0.0164024
726.578	0.0163983
726.656	0.0162714
726.734	0.0160963
726.812	0.0161986
726.890	0.0163267
726.968	0.0161884
727.046	0.0160770
727.124	0.0161555
727.203	0.0162096
727.281	0.0162773
727.359	0.0162447
727.437	0.0161645
727.515	0.0163363
727.593	0.0162350
727.671	0.0160989
727.749	0.0162062
727.828	0.0162023
727.906	0.0162029
727.984	0.0161823
728.062	0.0162943
728.140	0.0161719
728.218	0.0162422
728.296	0.0163380
728.374	0.0164089
728.453	0.0163837
728.531	0.0164119
728.609	0.0166357
728.687	0.0166940
728.765	0.0168034
728.843	0.0167681
728.921	0.0167319
728.999	0.0168771
729.078	0.0168387
729.156	0.0167864
729.234	0.0167986
729.312	0.0167805
729.390	0.0166701
729.468	0.0165880
729.546	0.0163888
729.624	0.0161469
729.703	0.0161924
729.781	0.0160546
729.859	0.0160143
729.937	0.0159264
730.015	0.0157059
730.093	0.0157936
730.171	0.0158134
730.249	0.0156567
730.328	0.0158248
730.406	0.0158002
730.484	0.0158817
730.562	0.0160427
730.640	0.0160911
730.718	0.0161887
730.796	0.0162738
730.874	0.0163783
730.953	0.0166034
731.031	0.0165613
731.109	0.0166590
731.187	0.0166907
731.265	0.0166763
731.343	0.0166714
731.421	0.0167191
731.499	0.0167485
731.578	0.0166959
731.656	0.0164346
731.734	0.0164936
731.812	0.0163467
731.890	0.0163157
731.968	0.0163123
732.046	0.0160719
732.124	0.0161922
732.203	0.0161073
732.281	0.0159941
732.359	0.0160539
732.437	0.0159441
732.515	0.0159289
732.593	0.0161253
732.671	0.0161632
732.749	0.0160458
732.828	0.0161066
732.906	0.0161649
732.984	0.0162804
733.062	0.0163231
733.140	0.0164632
733.218	0.0164793
733.296	0.0165001
733.374	0.0164845
733.453	0.0165973
733.531	0.0166224
733.609	0.0166074
733.687	0.0165884
733.765	0.0165938
733.843	0.0164335
733.921	0.0164601
733.999	0.0163960
734.078	0.0164978
734.156	0.0163644
734.234	0.0163264
734.312	0.0162357
734.390	0.0163181
734.468	0.0161394
734.546	0.0162963
734.624	0.0161583
734.703	0.0161666
734.781	0.0161309
734.859	0.0163000
734.937	0.0161633
735.015	0.0160973
735.093	0.0162558
735.171	0.0162656
735.249	0.0162387
735.328	0.0162965
735.406	0.0162366
735.484	0.0163142
735.562	0.0165067
735.640	0.0164265
735.718	0.0164065
735.796	0.0164347
735.874	0.0163739
735.953	0.0165794
736.031	0.0165300
736.109	0.0164561
736.187	0.0164280
736.265	0.0165309
736.343	0.0164027
736.421	0.0162740
736.499	0.0164283
736.578	0.0162685
736.656	0.0163171
736.734	0.0163458
736.812	0.0162967
736.890	0.0163797
736.968	0.0162622
737.046	0.0162778
737.124	0.0162971
737.203	0.0163439
737.281	0.0162862
737.359	0.0162494
737.437	0.0163649
737.515	0.0163287
737.593	0.0164040
737.671	0.0162288
737.749	0.0162950
737.828	0.0163686
737.906	0.0161875
737.984	0.0163196
738.062	0.0163602
738.140	0.0163692
738.218	0.0164240
738.296	0.0164320
738.374	0.0162099
738.453	0.0162693
738.531	0.0162367
738.609	0.0163108
738.687	0.0164463
738.765	0.0163300
738.843	0.0162196
738.921	0.0162083
738.999	0.0163954
739.078	0.0163554
739.156	0.0163042
739.234	0.0162991
739.312	0.0163035
739.390	0.0164272
739.468	0.0162851
739.546	0.0162148
739.624	0.0163828
739.703	0.0162693
739.781	0.0163937
739.859	0.0164097
739.937	0.0163113
740.015	0.0162740
740.093	0.0162086
740.171	0.0164235
740.249	0.0163368
740.328	0.0162650
740.406	0.0161961
740.484	0.0162367
740.562	0.0163515
740.640	0.0162907
740.718	0.0162118
740.796	0.0164046
740.874	0.0163351
740.953	0.0162286
741.031	0.0164464
741.109	0.0164386
741.187	0.0161038
741.265	0.0162281
741.343	0.0161552
741.421	0.0163144
741.499	0.0162006
741.578	0.0162950
741.656	0.0161691
741.734	0.0162540
741.812	0.0163210
741.890	0.0162056
741.968	0.0161494
742.046	0.0161417
742.124	0.0161037
742.203	0.0161481
742.281	0.0162532
742.359	0.0161650
742.437	0.0161893
742.515	0.0161240
742.593	0.0160988
742.671	0.0162013
742.749	0.0162762
742.828	0.0162248
742.906	0.0163273
742.984	0.0163004
743.062	0.0161020
743.140	0.0163362
743.218	0.0163798
743.296	0.0162256
743.374	0.0163665
743.453	0.0164423
743.531	0.0164699
743.609	0.0165295
743.687	0.0164397
743.765	0.0163628
743.843	0.0165018
743.921	0.0164207
743.999	0.0162991
744.078	0.0163428
744.156	0.0164707
744.234	0.0165049
744.312	0.0164987
744.390	0.0163820
744.468	0.0163783
744.546	0.0163563
744.624	0.0164497
744.703	0.0162850
744.781	0.0162906
744.859	0.0162875
744.937	0.0163474
745.015	0.0162405
745.093	0.0164398
745.171	0.0162000
745.249	0.0161828
745.328	0.0161732
745.406	0.0162507
745.484	0.0161446
745.562	0.0162817
745.640	0.0162042
745.718	0.0161534
745.796	0.0161962
745.874	0.0161797
745.953	0.0160432
746.031	0.0162592
746.109	0.0162200
746.187	0.0162223
746.265	0.0162869
746.343	0.0162414
746.421	0.0162140
746.499	0.0162569
746.578	0.0161781
746.656	0.0162180
746.734	0.0161656
746.812	0.0161726
746.890	0.0163400
746.968	0.0163418
747.046	0.0163232
747.124	0.0160893
747.203	0.0163667
747.281	0.0163499
747.359	0.0163709
747.437	0.0162228
747.515	0.0162840
747.593	0.0163646
747.671	0.0163014
747.749	0.0164497
747.828	0.0164872
747.906	0.0164554
747.984	0.0164173
748.062	0.0163728
748.140	0.0164233
748.218	0.0164664
748.296	0.0164230
748.374	0.0165829
748.453	0.0165076
748.531	0.0164739
748.609	0.0164021
748.687	0.0163792
748.765	0.0162363
748.843	0.0163887
748.921	0.0162778
748.999	0.0163594
749.078	0.0164057
749.156	0.0164864
749.234	0.0164748
749.312	0.0163117
749.390	0.0160982
749.468	0.0162048
749.546	0.0163674
749.624	0.0163322
749.703	0.0164114
749.781	0.0162266
749.859	0.0161945
749.937	0.0163128
750.015	0.0162929
750.093	0.0162286
750.171	0.0162910
750.249	0.0161989
750.328	0.0161502
750.406	0.0161515
750.484	0.0162748
750.562	0.0161774
750.640	0.0162135
750.718	0.0162621
750.796	0.0162885
750.874	0.0162606
750.953	0.0161406
751.031	0.0163017
751.109	0.0164832
751.187	0.0163654
751.265	0.0162512
751.343	0.0164163
751.421	0.0163224
751.499	0.0163345
751.578	0.0164613
751.656	0.0164800
751.734	0.0164809
751.812	0.0165791
751.890	0.0166282
751.968	0.0164320
752.046	0.0165546
752.124	0.0163856
752.203	0.0164360
752.281	0.0164580
752.359	0.0163476
752.437	0.0164915
752.515	0.0166436
752.593	0.0164592
752.671	0.0164328
752.749	0.0164368
752.828	0.0164165
752.906	0.0165618
752.984	0.0163828
753.062	0.0165634
753.140	0.0165301
753.218	0.0163296
753.296	0.0162710
753.374	0.0162903
753.453	0.0163368
753.531	0.0162637
753.609	0.0163562
753.687	0.0163855
753.765	0.0162841
753.843	0.0162285
753.921	0.0161909
753.999	0.0162522
754.078	0.0162262
754.156	0.0163715
754.234	0.0162650
754.312	0.0160771
754.390	0.0162774
754.468	0.0161047
754.546	0.0163108
754.624	0.0163967
754.703	0.0162567
754.781	0.0163345
754.859	0.0163364
754.937	0.0164343
755.015	0.0165912
755.093	0.0164786
755.171	0.0165351
755.249	0.0165714
755.328	0.0166442
755.406	0.0165676
755.484	0.0166261
755.562	0.0166599
755.640	0.0164651
755.718	0.0165419
755.796	0.0163587
755.874	0.0162803
755.953	0.0163287
756.031	0.0165424
756.109	0.0163879
756.187	0.0164147
756.265	0.0162288
756.343	0.0162778
756.421	0.0163737
756.499	0.0163451
756.578	0.0165339
756.656	0.0164597
756.734	0.0164106
756.812	0.0164846
756.890	0.0164420
756.968	0.0165749
757.046	0.0164890
757.124	0.0164455
757.203	0.0166328
757.281	0.0165320
757.359	0.0164881
757.437	0.0164658
757.515	0.0165780
757.593	0.0163698
757.671	0.0164576
757.749	0.0163683
757.828	0.0163584
757.906	0.0164118
757.984	0.0161192
758.062	0.0161404
758.140	0.0162695
758.218	0.0161945
758.296	0.0159721
758.374	0.0160231
758.453	0.0160341
758.531	0.0161500
758.609	0.0159836
758.687	0.0160577
758.765	0.0159445
758.843	0.0160474
758.921	0.0160546
758.999	0.0162109
759.078	0.0162408
759.156	0.0162852
759.234	0.0163436
759.312	0.0164626
759.390	0.0164576
759.468	0.0165024
759.546	0.0164931
759.624	0.0166720
759.703	0.0166866
759.781	0.0167074
759.859	0.0167119
759.937	0.0167848
760.015	0.0166089
760.093	0.0166347
760.171	0.0165469
760.249	0.0166412
760.328	0.0166903
760.406	0.0165538
760.484	0.0164252
760.562	0.0163948
760.640	0.0164728
760.718	0.0162935
760.796	0.0161407
760.874	0.0161147
760.953	0.0162692
761.031	0.0161333
761.109	0.0159787
761.187	0.0160623
761.265	0.0160714
761.343	0.0159486
761.421	0.0159432
761.499	0.0159330
761.578	0.0159055
761.656	0.0158340
761.734	0.0160392
761.812	0.0159136
761.890	0.0159410
761.968	0.0159803
762.046	0.0159401
762.124	0.0161237
762.203	0.0161729
762.281	0.0163528
762.359	0.0162794
762.437	0.0165462
762.515	0.0164489
762.593	0.0167383
762.671	0.0167065
762.749	0.0167140
762.828	0.0166493
762.906	0.0167822
762.984	0.0166740
763.062	0.0167065
763.140	0.0166268
763.218	0.0166231
763.296	0.0164197
763.374	0.0164581
763.453	0.0163290
763.531	0.0162331
763.609	0.0161768
763.687	0.0162502
763.765	0.0161845
763.843	0.0162090
763.921	0.0160852
763.999	0.0160205
764.078	0.0160329
764.156	0.0160143
764.234	0.0158450
764.312	0.0157284
764.390	0.0158652
764.468	0.0159555
764.546	0.0158571
764.624	0.0159142
764.703	0.0159083
764.781	0.0159773
764.859	0.0160249
764.937	0.0159170
765.015	0.0160937
765.093	0.0162708
765.171	0.0163839
765.249	0.0162663
765.328	0.0163062
765.406	0.0165519
765.484	0.0165456
765.562	0.0167509
765.640	0.0167798
765.718	0.0168253
765.796	0.0168080
765.874	0.0166830
765.953	0.0168864
766.031	0.0169487
766.109	0.0168890
766.187	0.0168736
766.265	0.0169415
766.343	0.0167673
766.421	0.0166125
766.499	0.0164682
766.578	0.0164047
766.656	0.0163303
766.734	0.0160401
766.812	0.0159950
766.890	0.0159170
766.968	0.0159560
767.046	0.0158913
767.124	0.0158009
767.203	0.0156725
767.281	0.0156699
767.359	0.0158688
767.437	0.0158851
767.515	0.0160035
767.593	0.0159682
767.671	0.0159648
767.749	0.0160803
767.828	0.0160829
767.906	0.0162352
767.984	0.0161406
768.062	0.0162555
768.140	0.0162247
768.218	0.0162712
768.296	0.0163393
768.374	0.0161773
768.453	0.0161532
768.531	0.0162089
768.609	0.0162717
768.687	0.0163770
768.765	0.0163988
768.843	0.0165056
768.921	0.0164873
768.999	0.0166207
769.078	0.0164719
769.156	0.0166002
769.234	0.0165485
769.312	0.0165999
769.390	0.0166628
769.468	0.0166066
769.546	0.0166829
769.624	0.0167744
769.703	0.0165623
769.781	0.0167139
769.859	0.0165693
769.937	0.0165677
770.015	0.0164527
770.093	0.0165184
770.171	0.0164087
770.249	0.0162683
770.328	0.0161517
770.406	0.0161630
770.484	0.0161488
770.562	0.0159497
770.640	0.0161283
770.718	0.0160442
770.796	0.0161623
770.874	0.0161450
770.953	0.0162633
771.031	0.0162811
771.109	0.0162832
771.187	0.0162166
771.265	0.0162601
771.343	0.0162818
771.421	0.0163525
771.499	0.0162987
771.578	0.0164042
771.656	0.0164545
771.734	0.0164231
771.812	0.0162511
771.890	0.0163633
771.968	0.0163438
772.046	0.0163468
772.124	0.0162566
772.203	0.0162669
772.281	0.0163813
772.359	0.0162892
772.437	0.0161289
772.515	0.0159778
772.593	0.0160184
772.671	0.0160895
772.749	0.0160886
772.828	0.0160139
772.906	0.0160398
772.984	0.0161069
773.062	0.0160378
773.140	0.0160883
773.218	0.0161730
773.296	0.0162437
773.374	0.0161253
773.453	0.0162097
773.531	0.0162534
773.609	0.0163185
773.687	0.0164053
773.765	0.0163977
773.843	0.0165044
773.921	0.0166065
773.999	0.0165800
774.078	0.0165913
774.156	0.0166795
774.234	0.0166863
774.312	0.0167056
774.390	0.0169248
774.468	0.0170361
774.546	0.0170506
774.624	0.0170399
774.703	0.0171758
774.781	0.0173199
774.859	0.0171741
774.937	0.0171061
775.015	0.0171038
775.093	0.0168678
775.171	0.0168958
775.249	0.0167287
775.328	0.0166266
775.406	0.0166066
775.484	0.0163053
775.562	0.0160351
775.640	0.0159844
775.718	0.0157602
775.796	0.0157347
775.874	0.0156194
775.953	0.0153642
776.031	0.0152260
776.109	0.0150935
776.187	0.0152679
776.265	0.0152776
776.343	0.0152589
776.421	0.0153713
776.499	0.0155561
776.578	0.0156192
776.656	0.0155987
776.734	0.0159432
776.812	0.0160204
776.890	0.0162380
776.968	0.0162817
777.046	0.0163728
777.124	0.0163844
777.203	0.0166026
777.281	0.0165735
777.359	0.0167062
777.437	0.0165607
777.515	0.0166423
777.593	0.0167137
777.671	0.0166026
777.749	0.0165740
777.828	0.0167570
777.906	0.0165951
777.984	0.0167352
778.062	0.0168468
778.140	0.0168201
778.218	0.0168647
778.296	0.0169884
778.374	0.0169615
778.453	0.0169506
778.531	0.0170815
778.609	0.0169608
778.687	0.0170190
778.765	0.0170524
778.843	0.0170136
778.921	0.0170293
778.999	0.0169114
779.078	0.0168893
779.156	0.0167734
779.234	0.0166264
779.312	0.0165179
779.390	0.0163844
779.468	0.0161824
779.546	0.0161726
779.624	0.0161279
779.703	0.0161478
779.781	0.0160796
779.859	0.0160114
779.937	0.0160388
780.015	0.0160314
780.093	0.0160139
780.171	0.0160246
780.249	0.0161568
780.328	0.0161783
780.406	0.0162106
780.484	0.0160963
780.562	0.0159923
780.640	0.0159821
780.718	0.0160305
780.796	0.0160083
780.874	0.0159650
780.953	0.0159308
781.031	0.0159712
781.109	0.0158386
781.187	0.0158762
781.265	0.0157668
781.343	0.0158218
781.421	0.0158156
781.499	0.0157755
781.578	0.0158510
781.656	0.0158986
781.734	0.0159757
781.812	0.0159251
781.890	0.0160537
781.968	0.0159789
782.046	0.0160703
782.124	0.0162286
782.203	0.0162904
782.281	0.0164453
782.359	0.0164562
782.437	0.0165520
782.515	0.0166882
782.593	0.0167343
782.671	0.0168805
782.749	0.0170141
782.828	0.0170834
782.906	0.0172587
782.984	0.0172967
783.062	0.0174158
783.140	0.0174815
783.218	0.0175195
783.296	0.0174362
783.374	0.0172920
783.453	0.0173933
783.531	0.0172817
783.609	0.0172886
783.687	0.0170327
783.765	0.0167860
783.843	0.0166801
783.921	0.0165437
783.999	0.0163492
784.078	0.0161140
784.156	0.0158347
784.234	0.0156567
784.312	0.0155763
784.390	0.0153447
784.468	0.0153574
784.546	0.0152728
784.624	0.0151197
784.703	0.0150740
784.781	0.0151994
784.859	0.0150578
784.937	0.0151556
785.015	0.0152813
785.093	0.0151493
785.171	0.0153536
785.249	0.0155939
785.328	0.0154543
785.406	0.0155793
785.484	0.0157894
785.562	0.0158990
785.640	0.0161673
785.718	0.0162077
785.796	0.0161980
785.874	0.0163239
785.953	0.0163136
786.031	0.0162662
786.109	0.0164665
786.187	0.0165353
786.265	0.0165049
786.343	0.0166563
786.421	0.0167886
786.499	0.0169003
786.578	0.0168459
786.656	0.0167209
786.734	0.0168205
786.812	0.0170668
786.890	0.0169473
786.968	0.0169439
787.046	0.0170529
787.124	0.0168842
787.203	0.0169363
787.281	0.0171319
787.359	0.0169299
787.437	0.0169089
787.515	0.0168697
787.593	0.0168387
787.671	0.0167100
787.749	0.0166706
787.828	0.0166116
787.906	0.0165123
787.984	0.0165491
788.062	0.0163528
788.140	0.0161683
788.218	0.0161242
788.296	0.0160629
788.374	0.0160895
788.453	0.0158688
788.531	0.0158279
788.609	0.0159431
788.687	0.0159361
788.765	0.0157487
788.843	0.0157961
788.921	0.0157272
788.999	0.0158386
789.078	0.0156462
789.156	0.0156392
789.234	0.0155467
789.312	0.0155670
789.390	0.0154110
789.468	0.0154298
789.546	0.0155682
789.624	0.0155022
789.703	0.0154561
789.781	0.0153215
789.859	0.0153185
789.937	0.0153942
790.015	0.0153669
790.093	0.0154189
790.171	0.0153729
790.249	0.0155292
790.328	0.0156736
790.406	0.0159290
790.484	0.0160258
790.562	0.0162321
790.640	0.0163602
790.718	0.0166393
790.796	0.0169817
790.874	0.0170102
790.953	0.0170462
791.031	0.0173212
791.109	0.0174680
791.187	0.0176459
791.265	0.0178003
791.343	0.0177660
791.421	0.0177483
791.499	0.0176949
791.578	0.0178571
791.656	0.0177770
791.734	0.0176476
791.812	0.0176345
791.890	0.0175832
791.968	0.0174340
792.046	0.0171215
792.124	0.0169437
792.203	0.0167837
792.281	0.0167268
792.359	0.0165055
792.437	0.0162637
792.515	0.0161115
792.593	0.0158319
792.671	0.0156993
792.749	0.0155357
792.828	0.0156998
792.906	0.0154996
792.984	0.0153580
793.062	0.0154522
793.140	0.0153925
793.218	0.0152900
793.296	0.0152594
793.374	0.0152563
793.453	0.0151708
793.531	0.0151309
793.609	0.0153034
793.687	0.0152470
793.765	0.0151323
793.843	0.0153894
793.921	0.0153992
793.999	0.0153497
794.078	0.0154768
794.156	0.0156427
794.234	0.0157689
794.312	0.0157544
794.390	0.0158593
794.468	0.0159168
794.546	0.0161080
794.624	0.0161603
794.703	0.0160919
794.781	0.0163395
794.859	0.0164743
794.937	0.0163979
795.015	0.0166976
795.093	0.0168227
795.171	0.0167413
795.249	0.0169085
795.328	0.0170425
795.406	0.0170748
795.484	0.0171481
795.562	0.0172353
795.640	0.0172848
795.718	0.0174819
795.796	0.0175270
795.874	0.0175630
795.953	0.0174137
796.031	0.0174264
796.109	0.0173632
796.187	0.0173017
796.265	0.0171890
796.343	0.0170912
796.421	0.0170415
796.499	0.0168761
796.578	0.0167607
796.656	0.0165641
796.734	0.0163486
796.812	0.0161952
796.890	0.0159925
796.968	0.0157527
797.046	0.0159169
797.124	0.0157776
797.203	0.0156973
797.281	0.0156819
797.359	0.0158350
797.437	0.0158230
797.515	0.0159853
797.593	0.0158848
797.671	0.0160536
797.749	0.0161489
797.828	0.0162042
797.906	0.0162494
797.984	0.0161546
798.062	0.0160989
798.140	0.0161391
798.218	0.0161165
798.296	0.0160551
798.374	0.0158525
798.453	0.0161048
798.531	0.0159481
798.609	0.0158583
798.687	0.0158963
798.765	0.0158723
798.843	0.0158976
798.921	0.0159277
798.999	0.0159062
799.078	0.0160200
799.156	0.0159912
799.234	0.0160808
799.312	0.0162314
799.390	0.0163337
799.468	0.0163418
799.546	0.0165504
799.624	0.0168704
799.703	0.0169109
799.781	0.0169779
799.859	0.0171323
799.937	0.0172303
800.015	0.0172723
800.093	0.0173957
800.171	0.0171624
800.249	0.0172296
800.328	0.0172159
800.406	0.0170242
800.484	0.0169228
800.562	0.0168510
800.640	0.0166656
800.718	0.0166155
800.796	0.0164056
800.874	0.0160982
800.953	0.0160423
801.031	0.0160749
801.109	0.0158667
801.187	0.0157102
801.265	0.0156671
801.343	0.0157584
801.421	0.0157720
801.499	0.0158059
801.578	0.0157968
801.656	0.0159201
801.734	0.0158877
801.812	0.0159808
801.890	0.0160736
801.968	0.0163142
802.046	0.0163987
802.124	0.0163138
802.203	0.0164851
802.281	0.0163932
802.359	0.0163691
802.437	0.0162897
802.515	0.0164158
802.593	0.0164137
802.671	0.0163787
802.749	0.0163181
802.828	0.0163307
802.906	0.0162853
802.984	0.0163512
803.062	0.0162173
803.140	0.0162212
803.218	0.0163745
803.296	0.0163761
803.374	0.0163557
803.453	0.0164164
803.531	0.0164246
803.609	0.0164502
803.687	0.0164806
803.765	0.0164890
803.843	0.0166211
803.921	0.0165057
803.999	0.0165646
804.078	0.0165175
804.156	0.0166025
804.234	0.0166300
804.312	0.0166621
804.390	0.0168536
804.468	0.0166689
804.546	0.0165591
804.624	0.0166756
804.703	0.0166053
804.781	0.0164845
804.859	0.0164391
804.937	0.0165577
805.015	0.0165676
805.093	0.0164288
805.171	0.0164523
805.249	0.0164083
805.328	0.0160126
805.406	0.0160173
805.484	0.0160406
805.562	0.0158646
805.640	0.0159567
805.718	0.0158241
805.796	0.0156392
805.874	0.0158223
805.953	0.0155738
806.031	0.0155724
806.109	0.0156671
806.187	0.0156485
806.265	0.0157046
806.343	0.0157735
806.421	0.0159278
806.499	0.0158952
806.578	0.0159315
806.656	0.0161592
806.734	0.0161619
806.812	0.0160204
806.890	0.0161694
806.968	0.0162244
807.046	0.0162344
807.124	0.0162428
807.203	0.0163403
807.281	0.0165878
807.359	0.0164085
807.437	0.0163852
807.515	0.0164431
807.593	0.0163445
807.671	0.0165368
807.749	0.0165243
807.828	0.0166472
807.906	0.0166782
807.984	0.0166061
808.062	0.0167217
808.140	0.0165553
808.218	0.0163976
808.296	0.0163066
808.374	0.0163631
808.453	0.0163911
808.531	0.0161489
808.609	0.0160603
808.687	0.0160432
808.765	0.0160210
808.843	0.0159145
808.921	0.0159097
808.999	0.0159117
809.078	0.0158482
809.156	0.0158062
809.234	0.0158543
809.312	0.0159840
809.390	0.0159595
809.468	0.0160807
809.546	0.0160984
809.624	0.0162269
809.703	0.0164625
809.781	0.0162700
809.859	0.0163988
809.937	0.0165401
810.015	0.0165526
810.093	0.0166479
810.171	0.0166582
810.249	0.0167120
810.328	0.0167255
810.406	0.0167068
810.484	0.0166827
810.562	0.0166999
810.640	0.0167503
810.718	0.0166650
810.796	0.0166766
810.874	0.0165978
810.953	0.0165013
811.031	0.0163830
811.109	0.0162891
811.187	0.0161623
811.265	0.0160107
811.343	0.0159022
811.421	0.0158291
811.499	0.0158014
811.578	0.0156632
811.656	0.0155746
811.734	0.0154008
811.812	0.0155214
811.890	0.0154810
811.968	0.0154382
812.046	0.0155376
812.124	0.0155457
812.203	0.0156014
812.281	0.0156552
812.359	0.0157938
812.437	0.0159623
812.515	0.0159623
812.593	0.0159705
812.671	0.0163177
812.749	0.0162569
812.828	0.0164346
812.906	0.0162981
812.984	0.0166701
813.062	0.0164486
813.140	0.0165400
813.218	0.0166245
813.296	0.0165778
813.374	0.0164957
813.453	0.0165100
813.531	0.0163240
813.609	0.0162962
813.687	0.0163161
813.765	0.0162237
813.843	0.0161475
813.921	0.0162295
813.999	0.0162866
814.078	0.0161681
814.156	0.0162504
814.234	0.0163165
814.312	0.0162779
814.390	0.0163771
814.468	0.0164674
814.546	0.0164922
814.624	0.0164697
814.703	0.0164382
814.781	0.0163963
814.859	0.0164126
814.937	0.0164189
815.015	0.0165580
815.093	0.0165363
815.171	0.0165637
815.249	0.0164902
815.328	0.0167233
815.406	0.0164959
815.484	0.0165928
815.562	0.0166669
815.640	0.0165257
815.718	0.0165622
815.796	0.0164581
815.874	0.0165924
815.953	0.0165144
816.031	0.0163224
816.109	0.0163648
816.187	0.0164595
816.265	0.0163216
816.343	0.0163799
816.421	0.0163527
816.499	0.0165115
816.578	0.0165967
816.656	0.0164304
816.734	0.0163807
816.812	0.0163782
816.890	0.0164179
816.968	0.0162630
817.046	0.0162331
817.124	0.0159262
817.203	0.0160526
817.281	0.0159556
817.359	0.0158681
817.437	0.0157838
817.515	0.0158356
817.593	0.0157272
817.671	0.0156498
817.749	0.0158083
817.828	0.0157475
817.906	0.0157616
817.984	0.0159330
818.062	0.0158098
818.140	0.0158633
818.218	0.0160045
818.296	0.0160878
818.374	0.0161732
818.453	0.0162625
818.531	0.0164886
818.609	0.0164344
818.687	0.0165263
818.765	0.0166990
818.843	0.0166865
818.921	0.0167533
818.999	0.0169335
819.078	0.0168212
819.156	0.0167236
819.234	0.0166924
819.312	0.0167671
819.390	0.0165403
819.468	0.0165221
819.546	0.0165217
819.624	0.0165668
819.703	0.0165458
819.781	0.0163893
819.859	0.0163542
819.937	0.0164597
820.015	0.0164247
820.093	0.0162245
820.171	0.0162898
820.249	0.0164132
820.328	0.0162790
820.406	0.0161741
820.484	0.0165044
820.562	0.0164330
820.640	0.0162902
820.718	0.0163444
820.796	0.0163471
820.874	0.0164404
820.953	0.0162919
821.031	0.0163286
821.109	0.0163494
821.187	0.0164522
821.265	0.0164693
821.343	0.0164253
821.421	0.0163016
821.499	0.0163550
821.578	0.0166292
821.656	0.0167351
821.734	0.0166064
821.812	0.0166278
821.890	0.0165443
821.968	0.0167181
822.046	0.0165760
822.124	0.0167493
822.203	0.0166735
822.281	0.0166891
822.359	0.0166121
822.437	0.0166273
822.515	0.0164594
822.593	0.0165353
822.671	0.0166510
822.749	0.0163925
822.828	0.0165469
822.906	0.0164231
822.984	0.0163156
823.062	0.0162376
823.140	0.0162757
823.218	0.0162534
823.296	0.0162537
823.374	0.0163390
823.453	0.0162608
823.531	0.0162319
823.609	0.0160716
823.687	0.0161938
823.765	0.0161742
823.843	0.0162035
823.921	0.0161911
823.999	0.0162209
824.078	0.0162268
824.156	0.0162492
824.234	0.0162193
824.312	0.0161861
824.390	0.0161964
824.468	0.0161905
824.546	0.0161884
824.624	0.0161154
824.703	0.0160953
824.781	0.0160519
824.859	0.0162070
824.937	0.0160835
825.015	0.0162682
825.093	0.0161749
825.171	0.0162249
825.249	0.0162157
825.328	0.0162805
825.406	0.0164860
825.484	0.0161849
825.562	0.0164245
825.640	0.0162768
825.718	0.0163844
825.796	0.0164265
825.874	0.0166405
825.953	0.0165582
826.031	0.0166679
826.109	0.0167267
826.187	0.0167815
826.265	0.0166585
826.343	0.0165898
826.421	0.0165470
826.499	0.0163724
826.578	0.0165539
826.656	0.0165877
826.734	0.0163115
826.812	0.0163586
826.890	0.0164472
826.968	0.0162534
827.046	0.0161795
827.124	0.0163648
827.203	0.0163399
827.281	0.0162417
827.359	0.0163290
827.437	0.0162387
827.515	0.0164841
827.593	0.0164023
827.671	0.0163908
827.749	0.0165025
827.828	0.0166027
827.906	0.0165745
827.984	0.0164899
828.062	0.0167815
828.140	0.0166329
828.218	0.0166639
828.296	0.0165688
828.374	0.0165084
828.453	0.0165620
828.531	0.0166209
828.609	0.0164098
828.687	0.0164496
828.765	0.0164268
828.843	0.0162991
828.921	0.0162383
828.999	0.0163029
829.078	0.0162128
829.156	0.0160535
829.234	0.0161642
829.312	0.0159210
829.390	0.0159040
829.468	0.0157874
829.546	0.0159772
829.624	0.0159801
829.703	0.0159293
829.781	0.0158782
829.859	0.0158729
829.937	0.0157904
830.015	0.0159070
830.093	0.0158588
830.171	0.0158075
830.249	0.0158113
830.328	0.0158916
830.406	0.0159187
830.484	0.0159682
830.562	0.0160077
830.640	0.0160485
830.718	0.0161626
830.796	0.0161803
830.874	0.0162388
830.953	0.0162722
831.031	0.0162777
831.109	0.0163374
831.187	0.0162534
831.265	0.0164213
831.343	0.0163992
831.421	0.0163953
831.499	0.0164922
831.578	0.0162949
831.656	0.0162986
831.734	0.0164616
831.812	0.0163688
831.890	0.0162857
831.968	0.0162325
832.046	0.0163041
832.124	0.0161916
832.203	0.0161684
832.281	0.0159772
832.359	0.0161864
832.437	0.0162061
832.515	0.0162334
832.593	0.0160766
832.671	0.0161594
832.749	0.0161727
832.828	0.0161330
832.906	0.0163159
832.984	0.0163303
833.062	0.0162673
833.140	0.0163695
833.218	0.0164326
833.296	0.0163169
833.374	0.0164763
833.453	0.0164703
833.531	0.0163721
833.609	0.0163824
833.687	0.0164185
833.765	0.0164616
833.843	0.0164027
833.921	0.0163695
833.999	0.0164309
834.078	0.0163659
834.156	0.0164171
834.234	0.0164282
834.312	0.0165026
834.390	0.0163692
834.468	0.0164780
834.546	0.0164941
834.624	0.0164564
834.703	0.0164470
834.781	0.0163255
834.859	0.0164654
834.937	0.0166251
835.015	0.0164817
835.093	0.0164256
835.171	0.0164016
835.249	0.0164158
835.328	0.0164769
835.406	0.0163071
835.484	0.0162244
835.562	0.0162085
835.640	0.0161845
835.718	0.0160968
835.796	0.0160440
835.874	0.0160056
835.953	0.0161294
836.031	0.0159775
836.109	0.0158072
836.187	0.0159357
836.265	0.0159457
836.343	0.0159035
836.421	0.0157833
836.499	0.0159052
836.578	0.0160097
836.656	0.0160302
836.734	0.0160238
836.812	0.0160158
836.890	0.0161237
836.968	0.0160094
837.046	0.0160183
837.124	0.0162096
837.203	0.0161512
837.281	0.0162074
837.359	0.0162784
837.437	0.0162164
837.515	0.0161374
837.593	0.0161320
837.671	0.0162094
837.749	0.0162768
837.828	0.0162785
837.906	0.0162526
837.984	0.0163268
838.062	0.0163155
838.140	0.0163942
838.218	0.0164008
838.296	0.0163853
838.374	0.0164573
838.453	0.0164626
838.531	0.0163421
838.609	0.0165291
838.687	0.0165018
838.765	0.0164874
838.843	0.0164713
838.921	0.0164668
838.999	0.0162655
839.078	0.0164436
839.156	0.0164853
839.234	0.0164048
839.312	0.0165025
839.390	0.0165086
839.468	0.0165662
839.546	0.0165474
839.624	0.0166077
839.703	0.0166486
839.781	0.0165062
839.859	0.0163958
839.937	0.0166785
840.015	0.0166840
840.093	0.0165260
840.171	0.0166736
840.249	0.0166273
840.328	0.0165961
840.406	0.0164349
840.484	0.0165652
840.562	0.0164028
840.640	0.0164906
840.718	0.0163826
840.796	0.0165546
840.874	0.0164106
840.953	0.0163071
841.031	0.0164794
841.109	0.0163332
841.187	0.0163083
841.265	0.0162738
841.343	0.0163851
841.421	0.0164331
841.499	0.0161054
841.578	0.0162163
841.656	0.0161320
841.734	0.0161084
841.812	0.0162240
841.890	0.0162540
841.968	0.0160817
842.046	0.0159906
842.124	0.0161022
842.203	0.0161235
842.281	0.0160117
842.359	0.0161088
842.437	0.0160303
842.515	0.0161958
842.593	0.0161148
842.671	0.0160625
842.749	0.0161310
842.828	0.0163244
842.906	0.0162844
842.984	0.0162195
843.062	0.0161301
843.140	0.0162734
843.218	0.0163003
843.296	0.0161581
843.374	0.0160931
843.453	0.0163653
843.531	0.0162185
843.609	0.0163063
843.687	0.0162346
843.765	0.0162441
843.843	0.0164436
843.921	0.0163331
843.999	0.0164214
844.078	0.0164294
844.156	0.0164305
844.234	0.0162681
844.312	0.0163747
844.390	0.0163123
844.468	0.0163902
844.546	0.0162979
844.624	0.0164597
844.703	0.0165010
844.781	0.0163550
844.859	0.0163759
844.937	0.0164463
845.015	0.0166330
845.093	0.0165363
845.171	0.0163208
845.249	0.0165176
845.328	0.0165849
845.406	0.0165619
845.484	0.0165223
845.562	0.0164815
845.640	0.0164274
845.718	0.0165262
845.796	0.0165101
845.874	0.0164966
845.953	0.0162778
846.031	0.0164842
846.109	0.0164532
846.187	0.0163427
846.265	0.0165412
846.343	0.0164088
846.421	0.0164027
846.499	0.0163100
846.578	0.0163899
846.656	0.0164587
846.734	0.0164295
846.812	0.0164246
846.890	0.0163950
846.968	0.0165211
847.046	0.0162897
847.124	0.0164363
847.203	0.0164438
847.281	0.0163594
847.359	0.0163890
847.437	0.0164343
847.515	0.0164117
847.593	0.0162669
847.671	0.0162319
847.749	0.0162003
847.828	0.0163280
847.906	0.0162619
847.984	0.0162003
848.062	0.0163121
848.140	0.0162071
848.218	0.0162291
848.296	0.0162817
848.374	0.0163600
848.453	0.0162186
848.531	0.0161749
848.609	0.0161720
848.687	0.0163195
848.765	0.0162820
848.843	0.0162791
848.921	0.0163143
848.999	0.0163463
849.078	0.0163897
849.156	0.0163240
849.234	0.0163216
849.312	0.0164365
849.390	0.0162029
849.468	0.0162294
849.546	0.0163469
849.624	0.0164203
849.703	0.0162546
849.781	0.0162851
849.859	0.0162656
849.937	0.0163702
850.015	0.0162692
850.093	0.0163726
850.171	0.0163151
850.249	0.0164177
850.328	0.0165434
850.406	0.0164517
850.484	0.0163862
850.562	0.0165392
850.640	0.0164201
850.718	0.0164336
850.796	0.0165950
850.874	0.0164806
850.953	0.0164307
851.031	0.0163525
851.109	0.0165308
851.187	0.0165034
851.265	0.0164597
851.343	0.0164547
851.421	0.0165081
851.499	0.0165421
851.578	0.0166257
851.656	0.0164777
851.734	0.0164606
851.812	0.0164165
851.890	0.0164067
851.968	0.0164394
852.046	0.0165166
852.124	0.0163457
852.203	0.0164384
852.281	0.0164333
852.359	0.0163537
852.437	0.0163956
852.515	0.0164138
852.593	0.0165193
852.671	0.0163048
852.749	0.0163239
852.828	0.0163416
852.906	0.0164832
852.984	0.0163410
853.062	0.0164059
853.140	0.0164813
853.218	0.0164283
853.296	0.0162550
853.374	0.0163072
853.453	0.0163979
853.531	0.0161678
853.609	0.0160786
853.687	0.0163329
853.765	0.0161890
853.843	0.0161119
853.921	0.0160978
853.999	0.0161852
854.078	0.0160432
854.156	0.0160678
854.234	0.0160950
854.312	0.0160799
854.390	0.0161399
854.468	0.0160629
854.546	0.0160136
854.624	0.0161402
854.703	0.0161909
854.781	0.0162916
854.859	0.0162640
854.937	0.0162244
855.015	0.0162610
855.093	0.0162546
855.171	0.0163617
855.249	0.0161609
855.328	0.0163352
855.406	0.0163469
855.484	0.0162473
855.562	0.0163228
855.640	0.0163700
855.718	0.0163927
855.796	0.0164130
855.874	0.0163482
855.953	0.0164111
856.031	0.0163274
856.109	0.0163123
856.187	0.0163907
856.265	0.0163901
856.343	0.0163538
856.421	0.0163148
856.499	0.0164564
856.578	0.0164309
856.656	0.0164140
856.734	0.0164619
856.812	0.0163792
856.890	0.0164487
856.968	0.0163829
857.046	0.0163695
857.124	0.0164156
857.203	0.0163313
857.281	0.0163047
857.359	0.0164047
857.437	0.0163618
857.515	0.0163927
857.593	0.0163180
857.671	0.0163568
857.749	0.0162082
857.828	0.0164038
857.906	0.0164718
857.984	0.0162977
858.062	0.0165331
858.140	0.0164690
858.218	0.0163998
858.296	0.0164819
858.374	0.0165269
858.453	0.0165811
858.531	0.0165031
858.609	0.0164282
858.687	0.0164879
858.765	0.0164645
858.843	0.0164944
858.921	0.0164273
858.999	0.0163953
859.078	0.0163882
859.156	0.0163147
859.234	0.0164026
859.312	0.0163065
859.390	0.0163329
859.468	0.0163503
859.546	0.0161051
859.624	0.0163058
859.703	0.0163223
859.781	0.0163184
859.859	0.0162038
859.937	0.0164153
860.015	0.0161977
860.093	0.0163018
860.171	0.0164095
860.249	0.0163271
860.328	0.0162808
860.406	0.0163366
860.484	0.0163207
860.562	0.0162299
860.640	0.0162920
860.718	0.0161178
860.796	0.0162561
860.874	0.0163944
860.953	0.0161262
861.031	0.0161608
861.109	0.0161050
861.187	0.0161449
861.265	0.0161637
861.343	0.0162394
861.421	0.0161158
861.499	0.0161923
861.578	0.0161443
861.656	0.0161292
861.734	0.0161992
861.812	0.0160220
861.890	0.0161674
861.968	0.0161479
862.046	0.0163026
862.124	0.0161510
862.203	0.0162550
862.281	0.0164102
862.359	0.0162878
862.437	0.0161524
862.515	0.0162164
862.593	0.0163078
862.671	0.0161063
862.749	0.0161366
862.828	0.0162464
862.906	0.0161360
862.984	0.0163420
863.062	0.0161948
863.140	0.0160625
863.218	0.0160966
863.296	0.0161715
863.374	0.0162178
863.453	0.0160562
863.531	0.0160938
863.609	0.0161361
863.687	0.0161459
863.765	0.0161640
863.843	0.0160015
863.921	0.0160045
863.999	0.0160600
864.078	0.0162366
864.156	0.0160718
864.234	0.0161283
864.312	0.0162888
864.390	0.0163631
864.468	0.0162765
864.546	0.0163014
864.624	0.0162813
864.703	0.0163815
864.781	0.0164323
864.859	0.0162286
864.937	0.0162968
865.015	0.0163328
865.093	0.0161921
865.171	0.0163150
865.249	0.0162698
865.328	0.0163248
865.406	0.0162386
865.484	0.0162028
865.562	0.0160841
865.640	0.0161277
865.718	0.0162493
865.796	0.0161537
865.874	0.0162492
865.953	0.0163352
866.031	0.0162766
866.109	0.0162395
866.187	0.0163795
866.265	0.0163638
866.343	0.0163699
866.421	0.0164059
866.499	0.0162688
866.578	0.0163219
866.656	0.0163289
866.734	0.0165825
866.812	0.0164745
866.890	0.0165028
866.968	0.0164217
867.046	0.0162945
867.124	0.0162943
867.203	0.0163461
867.281	0.0162604
867.359	0.0162595
867.437	0.0163318
867.515	0.0161435
867.593	0.0161408
867.671	0.0161299
867.749	0.0162527
867.828	0.0161196
867.906	0.0160262
867.984	0.0161736
868.062	0.0159917
868.140	0.0161750
868.218	0.0161011
868.296	0.0161132
868.374	0.0161708
868.453	0.0162658
868.531	0.0161845
868.609	0.0161654
868.687	0.0162061
868.765	0.0162611
868.843	0.0161559
868.921	0.0161190
868.999	0.0162685
869.078	0.0163349
869.156	0.0162484
869.234	0.0162534
869.312	0.0162512
869.390	0.0162490
869.468	0.0162990
869.546	0.0162123
869.624	0.0163329
869.703	0.0163510
869.781	0.0162234
869.859	0.0163947
869.937	0.0163979
870.015	0.0163496
870.093	0.0164015
870.171	0.0164462
870.249	0.0163899
870.328	0.0164125
870.406	0.0165052
870.484	0.0165137
870.562	0.0166454
870.640	0.0166200
870.718	0.0165554
870.796	0.0166098
870.874	0.0166710
870.953	0.0166221
871.031	0.0163758
871.109	0.0166177
871.187	0.0165941
871.265	0.0165482
871.343	0.0164926
871.421	0.0164127
871.499	0.0164156
871.578	0.0165108
871.656	0.0162613
871.734	0.0162286
871.812	0.0163658
871.890	0.0164244
871.968	0.0162694
872.046	0.0162851
872.124	0.0163588
872.203	0.0164240
872.281	0.0162123
872.359	0.0161166
872.437	0.0162045
872.515	0.0163866
872.593	0.0161555
872.671	0.0162860
872.749	0.0162607
872.828	0.0161384
872.906	0.0161762
872.984	0.0163322
873.062	0.0161620
873.140	0.0163564
873.218	0.0163831
873.296	0.0163594
873.374	0.0162561
873.453	0.0162152
873.531	0.0163247
873.609	0.0163701
873.687	0.0162173
873.765	0.0162978
873.843	0.0161909
873.921	0.0163335
873.999	0.0163419
874.078	0.0163313
874.156	0.0162559
874.234	0.0163786
874.312	0.0163029
874.390	0.0163549
874.468	0.0163174
874.546	0.0165518
874.624	0.0164487
874.703	0.0165143
874.781	0.0165518
874.859	0.0164885
874.937	0.0166615
875.015	0.0163869
875.093	0.0164735
875.171	0.0165138
875.249	0.0165461
875.328	0.0165950
875.406	0.0165979
875.484	0.0164938
875.562	0.0164066
875.640	0.0164494
875.718	0.0165723
875.796	0.0165924
875.874	0.0162790
875.953	0.0163830
876.031	0.0162963
876.109	0.0164536
876.187	0.0162999
876.265	0.0165027
876.343	0.0162566
876.421	0.0163938
876.499	0.0163430
876.578	0.0165451
876.656	0.0165379
876.734	0.0164954
876.812	0.0164157
876.890	0.0163883
876.968	0.0163988
877.046	0.0164339
877.124	0.0164060
877.203	0.0164926
877.281	0.0163477
877.359	0.0162810
877.437	0.0164478
877.515	0.0165054
877.593	0.0163559
877.671	0.0163511
877.749	0.0162663
877.828	0.0161196
877.906	0.0162366
877.984	0.0163205
878.062	0.0162325
878.140	0.0162743
878.218	0.0162202
878.296	0.0161612
878.374	0.0164368
878.453	0.0163591
878.531	0.0163469
878.609	0.0163788
878.687	0.0162943
878.765	0.0163776
878.843	0.0163367
878.921	0.0163309
878.999	0.0163641
879.078	0.0163625
879.156	0.0164204
879.234	0.0164294
879.312	0.0164008
879.390	0.0164019
879.468	0.0165065
879.546	0.0164293
879.624	0.0163810
879.703	0.0163877
879.781	0.0165570
879.859	0.0163921
879.937	0.0163259
880.015	0.0164068
880.093	0.0163749
880.171	0.0164044
880.249	0.0165179
880.328	0.0164613
880.406	0.0164136
880.484	0.0162704
880.562	0.0163959
880.640	0.0163228
880.718	0.0164368
880.796	0.0163548
880.874	0.0163851
880.953	0.0163164
881.031	0.0164073
881.109	0.0163152
881.187	0.0162878
881.265	0.0164101
881.343	0.0162292
881.421	0.0162760
881.499	0.0161477
881.578	0.0162837
881.656	0.0161035
881.734	0.0162540
881.812	0.0162859
881.890	0.0162126
881.968	0.0160613
882.046	0.0160441
882.124	0.0161060
882.203	0.0162027
882.281	0.0161333
882.359	0.0160347
882.437	0.0161531
882.515	0.0163956
882.593	0.0162418
882.671	0.0163303
882.749	0.0164253
882.828	0.0163412
882.906	0.0164710
882.984	0.0164027
883.062	0.0165920
883.140	0.0164732
883.218	0.0165395
883.296	0.0166660
883.374	0.0165126
883.453	0.0164300
883.531	0.0165402
883.609	0.0164785
883.687	0.0165815
883.765	0.0165657
883.843	0.0165133
883.921	0.0163950
883.999	0.0164001
884.078	0.0164867
884.156	0.0164297
884.234	0.0162920
884.312	0.0163313
884.390	0.0162862
884.468	0.0163740
884.546	0.0163828
884.624	0.0164119
884.703	0.0163564
884.781	0.0164087
884.859	0.0163046
884.937	0.0164070
885.015	0.0163666
885.093	0.0163223
885.171	0.0162807
885.249	0.0162930
885.328	0.0163073
885.406	0.0163741
885.484	0.0162584
885.562	0.0162657
885.640	0.0162178
885.718	0.0163042
885.796	0.0162305
885.874	0.0161842
885.953	0.0160886
886.031	0.0161929
886.109	0.0161195
886.187	0.0161843
886.265	0.0162040
886.343	0.0160603
886.421	0.0160070
886.499	0.0161472
886.578	0.0161198
886.656	0.0160594
886.734	0.0160626
886.812	0.0161417
886.890	0.0161637
886.968	0.0160062
887.046	0.0161616
887.124	0.0160870
887.203	0.0161945
887.281	0.0161816
887.359	0.0163918
887.437	0.0159863
887.515	0.0161714
887.593	0.0162753
887.671	0.0160948
887.749	0.0161118
887.828	0.0162925
887.906	0.0160167
887.984	0.0161068
888.062	0.0162278
888.140	0.0160511
888.218	0.0161023
888.296	0.0162485
888.374	0.0161917
888.453	0.0161987
888.531	0.0162356
888.609	0.0162345
888.687	0.0162206
888.765	0.0162218
888.843	0.0161265
888.921	0.0161637
888.999	0.0162498
889.078	0.0162348
889.156	0.0160607
889.234	0.0162192
889.312	0.0162327
889.390	0.0162342
889.468	0.0161383
889.546	0.0160961
889.624	0.0161953
889.703	0.0162958
889.781	0.0160745
889.859	0.0160827
889.937	0.0162502
890.015	0.0162189
890.093	0.0162423
890.171	0.0161352
890.249	0.0161443
890.328	0.0161295
890.406	0.0161435
890.484	0.0159792
890.562	0.0160912
890.640	0.0160862
890.718	0.0160152
890.796	0.0159767
890.874	0.0160712
890.953	0.0159906
891.031	0.0160339
891.109	0.0162495
891.187	0.0163047
891.265	0.0161800
891.343	0.0161398
891.421	0.0162234
891.499	0.0163160
891.578	0.0163315
891.656	0.0163779
891.734	0.0164137
891.812	0.0164040
891.890	0.0164184
891.968	0.0164350
892.046	0.0163768
892.124	0.0164531
892.203	0.0164239
892.281	0.0163392
892.359	0.0163987
892.437	0.0163569
892.515	0.0163966
892.593	0.0164203
892.671	0.0163969
892.749	0.0164350
892.828	0.0163351
892.906	0.0164875
892.984	0.0162183
893.062	0.0163735
893.140	0.0163084
893.218	0.0163791
893.296	0.0162688
893.374	0.0161707
893.453	0.0161873
893.531	0.0160684
893.609	0.0161179
893.687	0.0161411
893.765	0.0161488
893.843	0.0161313
893.921	0.0161004
893.999	0.0159509
894.078	0.0161388
894.156	0.0160434
894.234	0.0160540
894.312	0.0160719
894.390	0.0159492
894.468	0.0159869
894.546	0.0158922
894.624	0.0161525
894.703	0.0160300
894.781	0.0159447
894.859	0.0161202
894.937	0.0162613
895.015	0.0162458
895.093	0.0162303
895.171	0.0162338
895.249	0.0162546
895.328	0.0162554
895.406	0.0163808
895.484	0.0164799
895.562	0.0163528
895.640	0.0164429
895.718	0.0163985
895.796	0.0165234
895.874	0.0164211
895.953	0.0165104
896.031	0.0164780
896.109	0.0165425
896.187	0.0165302
896.265	0.0164760
896.343	0.0163851
896.421	0.0164160
896.499	0.0164995
896.578	0.0164951
896.656	0.0164164
896.734	0.0163840
896.812	0.0163303
896.890	0.0163425
896.968	0.0163248
897.046	0.0164849
897.124	0.0163941
897.203	0.0163576
897.281	0.0164521
897.359	0.0163613
897.437	0.0164350
897.515	0.0163813
897.593	0.0163812
897.671	0.0164604
897.749	0.0163499
897.828	0.0163018
897.906	0.0163906
897.984	0.0165542
898.062	0.0164320
898.140	0.0164034
898.218	0.0163952
898.296	0.0163364
898.374	0.0164268
898.453	0.0163803
898.531	0.0164002
898.609	0.0162121
898.687	0.0164254
898.765	0.0164148
898.843	0.0163496
898.921	0.0163471
898.999	0.0162775
899.078	0.0164931
899.156	0.0164295
899.234	0.0162817
899.312	0.0163781
899.390	0.0162739
899.468	0.0163789
899.546	0.0162390
899.624	0.0163747
899.703	0.0164379
899.781	0.0165284
899.859	0.0163695
899.937	0.0164764
900.015	0.0163592
900.093	0.0164310
900.171	0.0164199
900.249	0.0164051
900.328	0.0164857
900.406	0.0163022
900.484	0.0162459
900.562	0.0164281
900.640	0.0164771
900.718	0.0163877
900.796	0.0163654
900.874	0.0165144
900.953	0.0163918
901.031	0.0164968
901.109	0.0164626
901.187	0.0164912
901.265	0.0164733
901.343	0.0164097
901.421	0.0164379
901.499	0.0164429
901.578	0.0165144
901.656	0.0163703
901.734	0.0164401
901.812	0.0163966
901.890	0.0164132
901.968	0.0163438
902.046	0.0164584
902.124	0.0162522
902.203	0.0162719
902.281	0.0162574
902.359	0.0163071
902.437	0.0162882
902.515	0.0163769
902.593	0.0162538
902.671	0.0162146
902.749	0.0162738
902.828	0.0162576
902.906	0.0162579
902.984	0.0162915
903.062	0.0162045
903.140	0.0162531
903.218	0.0162533
903.296	0.0162372
903.374	0.0163091
903.453	0.0162561
903.531	0.0164293
903.609	0.0163752
903.687	0.0163139
903.765	0.0164039
903.843	0.0164406
903.921	0.0163482
903.999	0.0164056
904.078	0.0164565
904.156	0.0164620
904.234	0.0164901
904.312	0.0165714
904.390	0.0165401
904.468	0.0162801
904.546	0.0163277
904.624	0.0164724
904.703	0.0165630
904.781	0.0164281
904.859	0.0165812
904.937	0.0163353
905.015	0.0164201
905.093	0.0163740
905.171	0.0162716
905.249	0.0164527
905.328	0.0163068
905.406	0.0163226
905.484	0.0162635
905.562	0.0162567
905.640	0.0162839
905.718	0.0162342
905.796	0.0162419
905.874	0.0161761
905.953	0.0162693
906.031	0.0162324
906.109	0.0162354
906.187	0.0162283
906.265	0.0162158
906.343	0.0162177
906.421	0.0162096
906.499	0.0161863
906.578	0.0163036
906.656	0.0161806
906.734	0.0161791
906.812	0.0162177
906.890	0.0162630
906.968	0.0163206
907.046	0.0163245
907.124	0.0162578
907.203	0.0162518
907.281	0.0163126
907.359	0.0163922
907.437	0.0161951
907.515	0.0163432
907.593	0.0164766
907.671	0.0164984
907.749	0.0163510
907.828	0.0162726
907.906	0.0162168
907.984	0.0163512
908.062	0.0162920
908.140	0.0161964
908.218	0.0162630
908.296	0.0162294
908.374	0.0162882
908.453	0.0162013
908.531	0.0163469
908.609	0.0163039
908.687	0.0162986
908.765	0.0162793
908.843	0.0161707
908.921	0.0163901
908.999	0.0163271
909.078	0.0164375
909.156	0.0164649
909.234	0.0164586
909.312	0.0164927
909.390	0.0162843
909.468	0.0163438
909.546	0.0164178
909.624	0.0163329
909.703	0.0161617
909.781	0.0163773
909.859	0.0164294
909.937	0.0163070
910.015	0.0162156
910.093	0.0161713
910.171	0.0162307
910.249	0.0162096
910.328	0.0163281
910.406	0.0161938
910.484	0.0162217
910.562	0.0161281
910.640	0.0159912
910.718	0.0162686
910.796	0.0161023
910.874	0.0160437
910.953	0.0160238
911.031	0.0162105
911.109	0.0161218
911.187	0.0162392
911.265	0.0160961
911.343	0.0161316
911.421	0.0160821
911.499	0.0164237
911.578	0.0161484
911.656	0.0161273
911.734	0.0163294
911.812	0.0163409
911.890	0.0162325
911.968	0.0164199
912.046	0.0163663
912.124	0.0162122
912.203	0.0163665
912.281	0.0162848
912.359	0.0163026
912.437	0.0163674
912.515	0.0163643
912.593	0.0162772
912.671	0.0162333
912.749	0.0162559
912.828	0.0162672
912.906	0.0161596
912.984	0.0162722
913.062	0.0162578
913.140	0.0161174
913.218	0.0162045
913.296	0.0161593
913.374	0.0161349
913.453	0.0163342
913.531	0.0163552
913.609	0.0161635
913.687	0.0162244
913.765	0.0162704
913.843	0.0163233
913.921	0.0162296
913.999	0.0162830
914.078	0.0162248
914.156	0.0163119
914.234	0.0162451
914.312	0.0162386
914.390	0.0162219
914.468	0.0161889
914.546	0.0161265
914.624	0.0162980
914.703	0.0162540
914.781	0.0161703
914.859	0.0163316
914.937	0.0162928
915.015	0.0162143
915.093	0.0163248
915.171	0.0163377
915.249	0.0162534
915.328	0.0162459
915.406	0.0161426
915.484	0.0160711
915.562	0.0161610
915.640	0.0161618
915.718	0.0161698
915.796	0.0160941
915.874	0.0162225
915.953	0.0161487
916.031	0.0161871
916.109	0.0161818
916.187	0.0162531
916.265	0.0162182
916.343	0.0161806
916.421	0.0162029
916.499	0.0164071
916.578	0.0164220
916.656	0.0163021
916.734	0.0163956
916.812	0.0164290
916.890	0.0163618
916.968	0.0162939
917.046	0.0162691
917.124	0.0163171
917.203	0.0163643
917.281	0.0163351
917.359	0.0164065
917.437	0.0163247
917.515	0.0162871
917.593	0.0163125
917.671	0.0163081
917.749	0.0162346
917.828	0.0163886
917.906	0.0162578
917.984	0.0162111
918.062	0.0161877
918.140	0.0161440
918.218	0.0163289
918.296	0.0161485
918.374	0.0162560
918.453	0.0162489
918.531	0.0162808
918.609	0.0163155
918.687	0.0162071
918.765	0.0162234
918.843	0.0163345
918.921	0.0162338
918.999	0.0163153
919.078	0.0163668
919.156	0.0161662
919.234	0.0162538
919.312	0.0163652
919.390	0.0162486
919.468	0.0162691
919.546	0.0164450
919.624	0.0163770
919.703	0.0162547
919.781	0.0162819
919.859	0.0162991
919.937	0.0162788
