06/10/2022	18:51:50	Ver.	4.1	UNKNOWN
Optical Delay	600.015094	Delta X		0.078125	Sweeps	1	Scan Rate	0/0
Coordinates	Axis 1	NaN	Axis 2	NaN	Axis 3	NaN	Axis 4	NaN	Axis 5	NaN	Axis 6	0.000000
TX Power	0.000000	RX Power	0.000000

600.015	0.0164460
600.093	0.0164181
600.171	0.0164085
600.249	0.0164347
600.328	0.0164230
600.406	0.0164239
600.484	0.0165206
600.562	0.0164919
600.640	0.0164166
600.718	0.0164359
600.796	0.0165103
600.874	0.0164070
600.953	0.0163718
601.031	0.0164113
601.109	0.0165450
601.187	0.0164951
601.265	0.0164739
601.343	0.0165723
601.421	0.0165838
601.499	0.0164249
601.578	0.0163625
601.656	0.0164532
601.734	0.0163645
601.812	0.0164449
601.890	0.0164789
601.968	0.0165516
602.046	0.0165613
602.124	0.0165296
602.203	0.0164761
602.281	0.0164363
602.359	0.0164263
602.437	0.0165387
602.515	0.0163789
602.593	0.0163309
602.671	0.0164583
602.749	0.0164096
602.828	0.0166380
602.906	0.0166500
602.984	0.0164448
603.062	0.0165466
603.140	0.0164513
603.218	0.0162959
603.296	0.0165207
603.374	0.0165413
603.453	0.0164837
603.531	0.0164618
603.609	0.0164784
603.687	0.0164736
603.765	0.0166016
603.843	0.0165678
603.921	0.0165094
603.999	0.0165517
604.078	0.0164330
604.156	0.0163057
604.234	0.0164339
604.312	0.0165730
604.390	0.0165257
604.468	0.0165079
604.546	0.0164998
604.624	0.0164874
604.703	0.0165667
604.781	0.0165932
604.859	0.0165936
604.937	0.0165739
605.015	0.0164983
605.093	0.0166817
605.171	0.0164847
605.249	0.0164957
605.328	0.0164871
605.406	0.0165938
605.484	0.0164230
605.562	0.0165422
605.640	0.0164589
605.718	0.0165319
605.796	0.0164590
605.874	0.0167126
605.953	0.0165547
606.031	0.0166116
606.109	0.0165233
606.187	0.0165600
606.265	0.0165364
606.343	0.0166840
606.421	0.0166656
606.499	0.0164620
606.578	0.0165419
606.656	0.0165649
606.734	0.0165923
606.812	0.0164284
606.890	0.0164018
606.968	0.0165384
607.046	0.0164613
607.124	0.0165417
607.203	0.0164754
607.281	0.0165947
607.359	0.0164273
607.437	0.0165269
607.515	0.0165594
607.593	0.0165247
607.671	0.0164796
607.749	0.0165054
607.828	0.0165413
607.906	0.0165196
607.984	0.0163630
608.062	0.0165284
608.140	0.0165215
608.218	0.0164851
608.296	0.0166106
608.374	0.0163265
608.453	0.0164223
608.531	0.0165308
608.609	0.0164178
608.687	0.0165576
608.765	0.0165500
608.843	0.0165192
608.921	0.0164500
608.999	0.0164608
609.078	0.0164651
609.156	0.0164276
609.234	0.0164221
609.312	0.0165089
609.390	0.0163924
609.468	0.0164796
609.546	0.0163980
609.624	0.0164747
609.703	0.0164705
609.781	0.0165105
609.859	0.0164816
609.937	0.0164692
610.015	0.0166059
610.093	0.0165835
610.171	0.0164008
610.249	0.0163989
610.328	0.0165068
610.406	0.0164144
610.484	0.0165462
610.562	0.0165252
610.640	0.0165277
610.718	0.0165302
610.796	0.0164560
610.874	0.0164600
610.953	0.0165733
611.031	0.0165012
611.109	0.0164397
611.187	0.0163741
611.265	0.0165306
611.343	0.0166396
611.421	0.0166354
611.499	0.0164642
611.578	0.0165529
611.656	0.0165760
611.734	0.0165717
611.812	0.0165945
611.890	0.0165091
611.968	0.0165410
612.046	0.0167258
612.124	0.0165684
612.203	0.0164997
612.281	0.0164481
612.359	0.0164870
612.437	0.0165557
612.515	0.0167029
612.593	0.0163787
612.671	0.0164845
612.749	0.0164680
612.828	0.0163500
612.906	0.0165965
612.984	0.0164909
613.062	0.0163820
613.140	0.0165551
613.218	0.0165810
613.296	0.0165718
613.374	0.0164946
613.453	0.0164281
613.531	0.0165763
613.609	0.0164562
613.687	0.0166531
613.765	0.0166150
613.843	0.0164481
613.921	0.0165129
613.999	0.0165195
614.078	0.0163997
614.156	0.0164420
614.234	0.0164826
614.312	0.0165183
614.390	0.0166566
614.468	0.0164883
614.546	0.0164930
614.624	0.0165365
614.703	0.0164823
614.781	0.0164491
614.859	0.0162446
614.937	0.0165264
615.015	0.0164841
615.093	0.0164588
615.171	0.0165257
615.249	0.0165107
615.328	0.0164484
615.406	0.0165438
615.484	0.0164320
615.562	0.0163946
615.640	0.0164008
615.718	0.0165673
615.796	0.0165701
615.874	0.0165231
615.953	0.0166127
616.031	0.0164351
616.109	0.0165775
616.187	0.0163941
616.265	0.0165144
616.343	0.0165421
616.421	0.0164922
616.499	0.0163683
616.578	0.0166352
616.656	0.0163909
616.734	0.0163522
616.812	0.0163452
616.890	0.0163990
616.968	0.0164129
617.046	0.0165405
617.124	0.0164522
617.203	0.0163801
617.281	0.0164860
617.359	0.0166015
617.437	0.0163982
617.515	0.0162994
617.593	0.0164456
617.671	0.0165050
617.749	0.0163766
617.828	0.0164865
617.906	0.0164632
617.984	0.0164423
618.062	0.0165443
618.140	0.0163728
618.218	0.0164010
618.296	0.0164764
618.374	0.0164144
618.453	0.0164649
618.531	0.0166201
618.609	0.0163638
618.687	0.0164705
618.765	0.0165162
618.843	0.0164838
618.921	0.0164445
618.999	0.0163461
619.078	0.0163740
619.156	0.0164970
619.234	0.0164617
619.312	0.0165566
619.390	0.0163683
619.468	0.0163618
619.546	0.0163947
619.624	0.0165224
619.703	0.0163800
619.781	0.0162991
619.859	0.0164307
619.937	0.0165263
620.015	0.0164466
620.093	0.0164960
620.171	0.0165017
620.249	0.0164319
620.328	0.0164574
620.406	0.0163338
620.484	0.0164845
620.562	0.0164535
620.640	0.0165336
620.718	0.0164960
620.796	0.0163874
620.874	0.0164618
620.953	0.0165498
621.031	0.0165462
621.109	0.0164422
621.187	0.0164289
621.265	0.0163402
621.343	0.0162428
621.421	0.0165010
621.499	0.0164842
621.578	0.0163372
621.656	0.0163390
621.734	0.0164005
621.812	0.0164768
621.890	0.0164022
621.968	0.0165304
622.046	0.0165041
622.124	0.0164693
622.203	0.0164761
622.281	0.0164486
622.359	0.0163986
622.437	0.0164018
622.515	0.0163672
622.593	0.0164082
622.671	0.0167326
622.749	0.0163960
622.828	0.0164804
622.906	0.0164886
622.984	0.0164635
623.062	0.0165975
623.140	0.0164185
623.218	0.0164352
623.296	0.0164373
623.374	0.0165307
623.453	0.0164536
623.531	0.0163998
623.609	0.0163822
623.687	0.0165080
623.765	0.0166405
623.843	0.0164475
623.921	0.0163911
623.999	0.0165895
624.078	0.0165120
624.156	0.0165310
624.234	0.0165364
624.312	0.0164791
624.390	0.0165504
624.468	0.0166014
624.546	0.0164620
624.624	0.0165348
624.703	0.0165606
624.781	0.0162948
624.859	0.0164561
624.937	0.0164794
625.015	0.0164159
625.093	0.0164517
625.171	0.0164292
625.249	0.0164181
625.328	0.0164869
625.406	0.0165270
625.484	0.0164886
625.562	0.0163607
625.640	0.0165669
625.718	0.0165661
625.796	0.0165202
625.874	0.0165126
625.953	0.0163972
626.031	0.0165073
626.109	0.0165588
626.187	0.0164362
626.265	0.0164744
626.343	0.0165235
626.421	0.0165465
626.499	0.0165123
626.578	0.0165164
626.656	0.0164323
626.734	0.0165752
626.812	0.0164291
626.890	0.0165688
626.968	0.0163358
627.046	0.0164609
627.124	0.0165117
627.203	0.0165032
627.281	0.0165804
627.359	0.0164937
627.437	0.0164138
627.515	0.0164706
627.593	0.0163803
627.671	0.0163252
627.749	0.0163139
627.828	0.0164400
627.906	0.0164220
627.984	0.0165128
628.062	0.0165806
628.140	0.0163609
628.218	0.0164024
628.296	0.0165177
628.374	0.0164378
628.453	0.0165116
628.531	0.0162680
628.609	0.0164426
628.687	0.0163136
628.765	0.0164636
628.843	0.0165085
628.921	0.0165952
628.999	0.0163677
629.078	0.0166565
629.156	0.0164294
629.234	0.0164168
629.312	0.0166762
629.390	0.0164812
629.468	0.0163660
629.546	0.0164380
629.624	0.0165379
629.703	0.0166250
629.781	0.0164236
629.859	0.0164265
629.937	0.0164600
630.015	0.0165411
630.093	0.0166032
630.171	0.0164906
630.249	0.0164906
630.328	0.0165610
630.406	0.0165718
630.484	0.0165038
630.562	0.0164971
630.640	0.0164662
630.718	0.0165713
630.796	0.0164881
630.874	0.0164916
630.953	0.0165285
631.031	0.0164821
631.109	0.0165027
631.187	0.0164977
631.265	0.0164827
631.343	0.0163322
631.421	0.0164809
631.499	0.0165982
631.578	0.0164806
631.656	0.0164780
631.734	0.0164416
631.812	0.0165185
631.890	0.0165369
631.968	0.0165751
632.046	0.0163871
632.124	0.0163747
632.203	0.0165526
632.281	0.0164653
632.359	0.0163971
632.437	0.0165649
632.515	0.0166698
632.593	0.0163951
632.671	0.0163844
632.749	0.0165278
632.828	0.0165151
632.906	0.0163994
632.984	0.0165836
633.062	0.0164925
633.140	0.0164069
633.218	0.0164430
633.296	0.0165453
633.374	0.0164835
633.453	0.0164486
633.531	0.0166331
633.609	0.0164844
633.687	0.0164999
633.765	0.0165374
633.843	0.0164823
633.921	0.0164351
633.999	0.0163972
634.078	0.0164683
634.156	0.0164778
634.234	0.0165498
634.312	0.0165150
634.390	0.0164825
634.468	0.0164911
634.546	0.0164413
634.624	0.0164458
634.703	0.0165906
634.781	0.0165337
634.859	0.0164697
634.937	0.0164558
635.015	0.0164812
635.093	0.0164799
635.171	0.0163238
635.249	0.0163467
635.328	0.0165483
635.406	0.0164880
635.484	0.0164296
635.562	0.0164199
635.640	0.0163580
635.718	0.0165294
635.796	0.0165457
635.874	0.0164776
635.953	0.0165493
636.031	0.0164243
636.109	0.0163775
636.187	0.0164883
636.265	0.0164378
636.343	0.0163869
636.421	0.0164925
636.499	0.0164349
636.578	0.0164082
636.656	0.0165385
636.734	0.0164999
636.812	0.0164381
636.890	0.0164797
636.968	0.0165718
637.046	0.0163923
637.124	0.0164114
637.203	0.0165035
637.281	0.0164488
637.359	0.0163964
637.437	0.0165332
637.515	0.0164490
637.593	0.0163724
637.671	0.0163932
637.749	0.0164151
637.828	0.0163779
637.906	0.0165029
637.984	0.0162622
638.062	0.0162510
638.140	0.0164778
638.218	0.0163438
638.296	0.0164750
638.374	0.0165757
638.453	0.0165263
638.531	0.0163837
638.609	0.0165423
638.687	0.0164273
638.765	0.0165164
638.843	0.0163357
638.921	0.0164133
638.999	0.0164809
639.078	0.0164500
639.156	0.0165463
639.234	0.0163773
639.312	0.0165753
639.390	0.0164758
639.468	0.0163718
639.546	0.0165511
639.624	0.0165480
639.703	0.0164140
639.781	0.0164988
639.859	0.0164433
639.937	0.0164165
640.015	0.0163953
640.093	0.0165333
640.171	0.0165312
640.249	0.0165090
640.328	0.0164536
640.406	0.0164458
640.484	0.0164225
640.562	0.0164346
640.640	0.0165110
640.718	0.0163689
640.796	0.0164230
640.874	0.0165025
640.953	0.0164462
641.031	0.0163941
641.109	0.0164866
641.187	0.0165403
641.265	0.0164813
641.343	0.0165440
641.421	0.0163506
641.499	0.0164417
641.578	0.0165131
641.656	0.0164187
641.734	0.0165169
641.812	0.0166179
641.890	0.0165302
641.968	0.0164833
642.046	0.0164183
642.124	0.0164571
642.203	0.0164399
642.281	0.0164864
642.359	0.0165246
642.437	0.0164300
642.515	0.0163679
642.593	0.0164085
642.671	0.0164522
642.749	0.0164184
642.828	0.0163831
642.906	0.0164423
642.984	0.0165900
643.062	0.0164709
643.140	0.0164637
643.218	0.0163803
643.296	0.0164500
643.374	0.0165401
643.453	0.0163929
643.531	0.0163430
643.609	0.0164185
643.687	0.0164861
643.765	0.0165283
643.843	0.0165283
643.921	0.0166203
643.999	0.0165345
644.078	0.0164413
644.156	0.0163554
644.234	0.0164863
644.312	0.0165646
644.390	0.0166407
644.468	0.0165434
644.546	0.0165472
644.624	0.0164480
644.703	0.0164567
644.781	0.0165314
644.859	0.0165095
644.937	0.0164742
645.015	0.0165188
645.093	0.0165517
645.171	0.0166976
645.249	0.0164516
645.328	0.0165627
645.406	0.0163513
645.484	0.0164562
645.562	0.0165464
645.640	0.0165778
645.718	0.0165067
645.796	0.0164742
645.874	0.0164838
645.953	0.0166171
646.031	0.0165849
646.109	0.0165446
646.187	0.0165217
646.265	0.0165728
646.343	0.0165721
646.421	0.0165538
646.499	0.0165688
646.578	0.0166340
646.656	0.0164874
646.734	0.0163238
646.812	0.0164798
646.890	0.0164518
646.968	0.0163867
647.046	0.0165292
647.124	0.0165578
647.203	0.0166031
647.281	0.0164774
647.359	0.0165547
647.437	0.0164975
647.515	0.0164615
647.593	0.0163869
647.671	0.0164834
647.749	0.0165306
647.828	0.0165511
647.906	0.0165422
647.984	0.0165814
648.062	0.0166560
648.140	0.0165822
648.218	0.0164288
648.296	0.0164660
648.374	0.0165112
648.453	0.0164291
648.531	0.0164371
648.609	0.0164489
648.687	0.0165957
648.765	0.0166304
648.843	0.0165098
648.921	0.0164647
648.999	0.0165268
649.078	0.0165951
649.156	0.0165904
649.234	0.0167425
649.312	0.0166296
649.390	0.0164700
649.468	0.0166038
649.546	0.0166265
649.624	0.0164631
649.703	0.0164882
649.781	0.0165806
649.859	0.0166578
649.937	0.0164538
650.015	0.0163408
650.093	0.0166662
650.171	0.0165543
650.249	0.0164068
650.328	0.0165848
650.406	0.0165121
650.484	0.0165567
650.562	0.0164944
650.640	0.0165241
650.718	0.0163771
650.796	0.0165172
650.874	0.0164695
650.953	0.0164568
651.031	0.0164986
651.109	0.0165112
651.187	0.0164387
651.265	0.0164738
651.343	0.0165172
651.421	0.0165481
651.499	0.0164699
651.578	0.0164124
651.656	0.0166231
651.734	0.0164412
651.812	0.0164516
651.890	0.0166282
651.968	0.0162821
652.046	0.0163804
652.124	0.0163544
652.203	0.0164874
652.281	0.0165134
652.359	0.0164973
652.437	0.0164730
652.515	0.0165565
652.593	0.0164507
652.671	0.0165044
652.749	0.0164169
652.828	0.0164950
652.906	0.0165253
652.984	0.0165140
653.062	0.0165639
653.140	0.0165102
653.218	0.0167264
653.296	0.0165673
653.374	0.0163694
653.453	0.0163580
653.531	0.0164792
653.609	0.0164207
653.687	0.0164187
653.765	0.0166151
653.843	0.0164529
653.921	0.0164623
653.999	0.0163613
654.078	0.0165391
654.156	0.0164690
654.234	0.0163634
654.312	0.0165025
654.390	0.0164650
654.468	0.0165208
654.546	0.0164902
654.624	0.0165361
654.703	0.0164400
654.781	0.0164096
654.859	0.0163464
654.937	0.0164393
655.015	0.0165166
655.093	0.0164204
655.171	0.0164194
655.249	0.0163993
655.328	0.0163860
655.406	0.0164552
655.484	0.0163653
655.562	0.0164172
655.640	0.0165219
655.718	0.0164773
655.796	0.0164498
655.874	0.0163052
655.953	0.0164624
656.031	0.0164027
656.109	0.0165002
656.187	0.0165119
656.265	0.0164296
656.343	0.0163205
656.421	0.0165344
656.499	0.0165533
656.578	0.0164862
656.656	0.0165191
656.734	0.0163892
656.812	0.0164342
656.890	0.0164138
656.968	0.0164032
657.046	0.0164448
657.124	0.0164444
657.203	0.0164860
657.281	0.0165742
657.359	0.0164312
657.437	0.0163380
657.515	0.0164716
657.593	0.0163873
657.671	0.0165366
657.749	0.0164960
657.828	0.0165526
657.906	0.0165530
657.984	0.0165420
658.062	0.0164616
658.140	0.0165073
658.218	0.0163387
658.296	0.0165526
658.374	0.0164452
658.453	0.0164046
658.531	0.0164384
658.609	0.0164401
658.687	0.0164366
658.765	0.0163771
658.843	0.0165334
658.921	0.0164249
658.999	0.0165157
659.078	0.0165593
659.156	0.0165098
659.234	0.0164517
659.312	0.0163824
659.390	0.0162801
659.468	0.0165248
659.546	0.0165234
659.624	0.0164302
659.703	0.0164360
659.781	0.0164811
659.859	0.0164512
659.937	0.0165554
660.015	0.0165313
660.093	0.0164774
660.171	0.0165704
660.249	0.0163608
660.328	0.0163715
660.406	0.0164642
660.484	0.0165010
660.562	0.0164918
660.640	0.0165239
660.718	0.0162994
660.796	0.0164436
660.874	0.0163460
660.953	0.0165621
661.031	0.0166814
661.109	0.0164830
661.187	0.0164012
661.265	0.0165266
661.343	0.0164579
661.421	0.0164592
661.499	0.0163727
661.578	0.0163426
661.656	0.0164952
661.734	0.0165569
661.812	0.0163968
661.890	0.0164396
661.968	0.0165003
662.046	0.0164027
662.124	0.0165044
662.203	0.0163375
662.281	0.0164935
662.359	0.0165038
662.437	0.0165525
662.515	0.0164088
662.593	0.0164548
662.671	0.0165318
662.749	0.0165641
662.828	0.0164460
662.906	0.0163660
662.984	0.0164729
663.062	0.0164362
663.140	0.0164847
663.218	0.0164934
663.296	0.0164257
663.374	0.0165108
663.453	0.0165800
663.531	0.0165577
663.609	0.0165865
663.687	0.0164583
663.765	0.0165422
663.843	0.0165352
663.921	0.0164745
663.999	0.0166370
664.078	0.0165434
664.156	0.0165381
664.234	0.0165527
664.312	0.0164245
664.390	0.0164294
664.468	0.0165659
664.546	0.0166248
664.624	0.0164968
664.703	0.0163566
664.781	0.0164008
664.859	0.0165629
664.937	0.0165890
665.015	0.0164498
665.093	0.0165378
665.171	0.0164996
665.249	0.0165332
665.328	0.0165565
665.406	0.0164919
665.484	0.0164426
665.562	0.0165909
665.640	0.0164966
665.718	0.0164305
665.796	0.0165650
665.874	0.0165220
665.953	0.0164177
666.031	0.0165159
666.109	0.0164423
666.187	0.0164841
666.265	0.0164893
666.343	0.0165037
666.421	0.0165271
666.499	0.0165874
666.578	0.0164735
666.656	0.0164847
666.734	0.0164021
666.812	0.0165984
666.890	0.0165192
666.968	0.0165355
667.046	0.0164766
667.124	0.0165533
667.203	0.0164579
667.281	0.0164283
667.359	0.0164471
667.437	0.0166181
667.515	0.0164932
667.593	0.0164022
667.671	0.0166635
667.749	0.0166232
667.828	0.0164983
667.906	0.0166197
667.984	0.0165675
668.062	0.0164370
668.140	0.0164730
668.218	0.0164956
668.296	0.0163933
668.374	0.0164864
668.453	0.0165916
668.531	0.0164870
668.609	0.0165540
668.687	0.0164949
668.765	0.0165709
668.843	0.0165472
668.921	0.0163715
668.999	0.0164647
669.078	0.0165181
669.156	0.0165069
669.234	0.0164642
669.312	0.0164000
669.390	0.0164799
669.468	0.0163554
669.546	0.0164297
669.624	0.0164916
669.703	0.0163879
669.781	0.0164390
669.859	0.0164988
669.937	0.0165035
670.015	0.0163088
670.093	0.0164372
670.171	0.0163980
670.249	0.0165332
670.328	0.0164411
670.406	0.0164465
670.484	0.0164124
670.562	0.0163765
670.640	0.0164507
670.718	0.0165523
670.796	0.0164457
670.874	0.0164958
670.953	0.0165083
671.031	0.0164661
671.109	0.0164281
671.187	0.0163705
671.265	0.0164680
671.343	0.0165302
671.421	0.0164197
671.499	0.0163165
671.578	0.0164704
671.656	0.0164929
671.734	0.0164088
671.812	0.0164010
671.890	0.0163843
671.968	0.0165561
672.046	0.0164978
672.124	0.0164314
672.203	0.0164790
672.281	0.0164313
672.359	0.0164977
672.437	0.0166199
672.515	0.0165386
672.593	0.0163763
672.671	0.0165278
672.749	0.0164375
672.828	0.0164181
672.906	0.0164533
672.984	0.0164078
673.062	0.0164928
673.140	0.0164876
673.218	0.0163043
673.296	0.0163980
673.374	0.0164030
673.453	0.0165141
673.531	0.0164991
673.609	0.0165350
673.687	0.0165559
673.765	0.0165488
673.843	0.0164260
673.921	0.0164322
673.999	0.0163731
674.078	0.0163914
674.156	0.0165373
674.234	0.0164391
674.312	0.0165463
674.390	0.0162901
674.468	0.0164780
674.546	0.0164719
674.624	0.0164812
674.703	0.0165144
674.781	0.0165938
674.859	0.0164515
674.937	0.0164702
675.015	0.0164101
675.093	0.0164484
675.171	0.0164182
675.249	0.0163583
675.328	0.0164121
675.406	0.0164590
675.484	0.0164307
675.562	0.0165218
675.640	0.0166768
675.718	0.0163688
675.796	0.0164237
675.874	0.0165620
675.953	0.0165932
676.031	0.0164362
676.109	0.0166673
676.187	0.0165801
676.265	0.0164225
676.343	0.0164257
676.421	0.0164476
676.499	0.0164528
676.578	0.0164594
676.656	0.0164593
676.734	0.0163949
676.812	0.0166334
676.890	0.0166280
676.968	0.0165494
677.046	0.0164055
677.124	0.0165562
677.203	0.0164825
677.281	0.0165321
677.359	0.0164156
677.437	0.0165095
677.515	0.0165070
677.593	0.0166357
677.671	0.0164784
677.749	0.0164336
677.828	0.0165600
677.906	0.0165491
677.984	0.0165417
678.062	0.0165060
678.140	0.0165877
678.218	0.0164091
678.296	0.0165279
678.374	0.0165139
678.453	0.0165064
678.531	0.0166311
678.609	0.0165049
678.687	0.0164434
678.765	0.0165055
678.843	0.0165035
678.921	0.0165490
678.999	0.0164698
679.078	0.0164745
679.156	0.0163840
679.234	0.0164557
679.312	0.0165440
679.390	0.0164182
679.468	0.0165558
679.546	0.0164108
679.624	0.0164198
679.703	0.0164751
679.781	0.0163656
679.859	0.0165165
679.937	0.0165283
680.015	0.0164700
680.093	0.0165836
680.171	0.0164497
680.249	0.0163155
680.328	0.0166196
680.406	0.0167535
680.484	0.0164864
680.562	0.0165372
680.640	0.0164810
680.718	0.0164233
680.796	0.0165474
680.874	0.0164736
680.953	0.0164432
681.031	0.0166494
681.109	0.0165285
681.187	0.0166607
681.265	0.0164381
681.343	0.0164523
681.421	0.0167083
681.499	0.0165305
681.578	0.0164266
681.656	0.0165507
681.734	0.0165480
681.812	0.0166193
681.890	0.0166079
681.968	0.0165086
682.046	0.0166150
682.124	0.0166045
682.203	0.0165478
682.281	0.0164101
682.359	0.0164947
682.437	0.0165006
682.515	0.0167370
682.593	0.0166330
682.671	0.0165293
682.749	0.0165614
682.828	0.0164293
682.906	0.0165634
682.984	0.0164603
683.062	0.0165715
683.140	0.0164882
683.218	0.0165090
683.296	0.0165886
683.374	0.0163821
683.453	0.0166023
683.531	0.0165295
683.609	0.0165924
683.687	0.0165958
683.765	0.0165900
683.843	0.0164507
683.921	0.0164474
683.999	0.0166287
684.078	0.0164825
684.156	0.0165108
684.234	0.0164445
684.312	0.0165617
684.390	0.0165631
684.468	0.0165172
684.546	0.0165481
684.624	0.0165024
684.703	0.0164914
684.781	0.0167339
684.859	0.0165144
684.937	0.0164597
685.015	0.0165919
685.093	0.0166058
685.171	0.0164745
685.249	0.0165617
685.328	0.0164893
685.406	0.0165625
685.484	0.0165339
685.562	0.0164953
685.640	0.0163985
685.718	0.0166446
685.796	0.0165551
685.874	0.0165662
685.953	0.0165621
686.031	0.0164803
686.109	0.0163914
686.187	0.0164489
686.265	0.0166096
686.343	0.0164833
686.421	0.0164250
686.499	0.0164625
686.578	0.0165588
686.656	0.0165182
686.734	0.0165173
686.812	0.0166040
686.890	0.0165434
686.968	0.0164854
687.046	0.0165532
687.124	0.0165031
687.203	0.0164861
687.281	0.0164503
687.359	0.0163520
687.437	0.0164356
687.515	0.0164957
687.593	0.0163992
687.671	0.0165314
687.749	0.0164170
687.828	0.0164198
687.906	0.0164877
687.984	0.0165854
688.062	0.0164871
688.140	0.0165359
688.218	0.0165604
688.296	0.0163531
688.374	0.0165417
688.453	0.0164758
688.531	0.0165339
688.609	0.0165188
688.687	0.0164521
688.765	0.0165984
688.843	0.0165188
688.921	0.0164645
688.999	0.0164162
689.078	0.0164182
689.156	0.0164367
689.234	0.0165717
689.312	0.0164505
689.390	0.0164641
689.468	0.0165443
689.546	0.0165285
689.624	0.0163665
689.703	0.0163712
689.781	0.0163840
689.859	0.0163287
689.937	0.0165446
690.015	0.0165942
690.093	0.0164328
690.171	0.0165350
690.249	0.0164986
690.328	0.0165432
690.406	0.0164552
690.484	0.0164949
690.562	0.0164762
690.640	0.0165024
690.718	0.0163925
690.796	0.0162791
690.874	0.0163404
690.953	0.0165585
691.031	0.0162537
691.109	0.0163452
691.187	0.0164307
691.265	0.0164472
691.343	0.0165504
691.421	0.0164561
691.499	0.0164536
691.578	0.0165491
691.656	0.0164582
691.734	0.0163471
691.812	0.0165306
691.890	0.0165350
691.968	0.0164831
692.046	0.0164146
692.124	0.0164671
692.203	0.0164994
692.281	0.0164456
692.359	0.0164326
692.437	0.0164732
692.515	0.0164983
692.593	0.0164567
692.671	0.0164706
692.749	0.0163711
692.828	0.0166759
692.906	0.0164844
692.984	0.0164547
693.062	0.0165678
693.140	0.0165020
693.218	0.0165537
693.296	0.0165192
693.374	0.0164583
693.453	0.0164137
693.531	0.0164606
693.609	0.0165974
693.687	0.0165266
693.765	0.0165079
693.843	0.0164105
693.921	0.0165068
693.999	0.0166027
694.078	0.0165313
694.156	0.0164587
694.234	0.0163815
694.312	0.0164317
694.390	0.0164848
694.468	0.0164665
694.546	0.0164238
694.624	0.0164190
694.703	0.0163917
694.781	0.0164565
694.859	0.0165253
694.937	0.0163683
695.015	0.0164140
695.093	0.0163938
695.171	0.0164120
695.249	0.0163719
695.328	0.0164254
695.406	0.0165049
695.484	0.0163664
695.562	0.0164164
695.640	0.0166422
695.718	0.0165257
695.796	0.0164367
695.874	0.0163622
695.953	0.0164088
696.031	0.0164613
696.109	0.0164133
696.187	0.0165228
696.265	0.0164629
696.343	0.0165147
696.421	0.0164403
696.499	0.0164169
696.578	0.0163776
696.656	0.0164088
696.734	0.0164887
696.812	0.0163139
696.890	0.0163460
696.968	0.0162908
697.046	0.0163360
697.124	0.0164255
697.203	0.0164694
697.281	0.0164696
697.359	0.0163661
697.437	0.0162867
697.515	0.0165392
697.593	0.0164760
697.671	0.0163613
697.749	0.0164327
697.828	0.0165450
697.906	0.0164025
697.984	0.0164209
698.062	0.0165043
698.140	0.0163198
698.218	0.0164984
698.296	0.0164706
698.374	0.0162415
698.453	0.0164241
698.531	0.0164723
698.609	0.0164125
698.687	0.0163474
698.765	0.0164507
698.843	0.0164754
698.921	0.0164730
698.999	0.0164820
699.078	0.0164351
699.156	0.0164513
699.234	0.0164964
699.312	0.0164984
699.390	0.0162859
699.468	0.0165079
699.546	0.0164291
699.624	0.0163850
699.703	0.0163056
699.781	0.0164932
699.859	0.0164264
699.937	0.0164712
700.015	0.0164369
700.093	0.0164055
700.171	0.0164175
700.249	0.0164505
700.328	0.0164879
700.406	0.0164321
700.484	0.0164368
700.562	0.0164835
700.640	0.0164572
700.718	0.0163615
700.796	0.0164661
700.874	0.0164394
700.953	0.0164137
701.031	0.0164677
701.109	0.0164579
701.187	0.0163672
701.265	0.0164719
701.343	0.0166952
701.421	0.0165107
701.499	0.0164964
701.578	0.0165651
701.656	0.0164590
701.734	0.0164220
701.812	0.0165221
701.890	0.0165667
701.968	0.0164772
702.046	0.0165189
702.124	0.0164842
702.203	0.0163805
702.281	0.0164046
702.359	0.0164688
702.437	0.0164047
702.515	0.0164141
702.593	0.0164774
702.671	0.0163667
702.749	0.0164855
702.828	0.0165189
702.906	0.0164476
702.984	0.0165514
703.062	0.0164847
703.140	0.0164677
703.218	0.0164651
703.296	0.0165858
703.374	0.0164126
703.453	0.0163400
703.531	0.0164391
703.609	0.0166224
703.687	0.0163832
703.765	0.0164869
703.843	0.0165347
703.921	0.0165551
703.999	0.0166063
704.078	0.0163966
704.156	0.0165151
704.234	0.0164874
704.312	0.0165422
704.390	0.0166522
704.468	0.0165131
704.546	0.0165998
704.624	0.0166114
704.703	0.0167229
704.781	0.0165035
704.859	0.0166886
704.937	0.0165933
705.015	0.0164608
705.093	0.0166135
705.171	0.0166399
705.249	0.0165123
705.328	0.0165933
705.406	0.0164990
705.484	0.0165058
705.562	0.0165507
705.640	0.0164279
705.718	0.0165409
705.796	0.0164758
705.874	0.0165456
705.953	0.0164025
706.031	0.0164304
706.109	0.0164906
706.187	0.0165103
706.265	0.0163673
706.343	0.0162980
706.421	0.0164671
706.499	0.0164633
706.578	0.0163622
706.656	0.0162930
706.734	0.0162546
706.812	0.0164737
706.890	0.0163560
706.968	0.0164688
707.046	0.0163841
707.124	0.0163308
707.203	0.0164077
707.281	0.0162714
707.359	0.0164023
707.437	0.0163635
707.515	0.0163686
707.593	0.0163886
707.671	0.0164915
707.749	0.0164936
707.828	0.0164508
707.906	0.0165116
707.984	0.0163777
708.062	0.0163675
708.140	0.0164934
708.218	0.0165686
708.296	0.0165365
708.374	0.0164735
708.453	0.0166220
708.531	0.0165298
708.609	0.0166419
708.687	0.0165759
708.765	0.0164977
708.843	0.0166304
708.921	0.0167171
708.999	0.0166441
709.078	0.0167313
709.156	0.0166526
709.234	0.0165663
709.312	0.0167299
709.390	0.0166669
709.468	0.0166141
709.546	0.0166416
709.624	0.0164012
709.703	0.0163672
709.781	0.0163242
709.859	0.0163993
709.937	0.0162886
710.015	0.0160013
710.093	0.0161816
710.171	0.0161990
710.249	0.0160227
710.328	0.0160149
710.406	0.0160986
710.484	0.0160915
710.562	0.0160001
710.640	0.0161935
710.718	0.0161273
710.796	0.0163226
710.874	0.0161579
710.953	0.0162228
711.031	0.0163847
711.109	0.0163471
711.187	0.0163011
711.265	0.0165773
711.343	0.0166603
711.421	0.0166740
711.499	0.0165664
711.578	0.0166552
711.656	0.0167344
711.734	0.0167928
711.812	0.0166865
711.890	0.0167332
711.968	0.0167651
712.046	0.0167085
712.124	0.0167157
712.203	0.0166841
712.281	0.0166751
712.359	0.0166418
712.437	0.0165540
712.515	0.0166383
712.593	0.0165639
712.671	0.0165231
712.749	0.0165454
712.828	0.0165423
712.906	0.0165032
712.984	0.0163587
713.062	0.0163670
713.140	0.0163982
713.218	0.0164268
713.296	0.0164925
713.374	0.0162701
713.453	0.0162811
713.531	0.0163821
713.609	0.0163445
713.687	0.0163522
713.765	0.0163477
713.843	0.0163177
713.921	0.0162764
713.999	0.0163362
714.078	0.0163610
714.156	0.0163422
714.234	0.0162289
714.312	0.0162838
714.390	0.0162681
714.468	0.0162865
714.546	0.0163059
714.624	0.0163541
714.703	0.0162654
714.781	0.0164140
714.859	0.0163955
714.937	0.0162131
715.015	0.0164223
715.093	0.0163852
715.171	0.0164075
715.249	0.0164937
715.328	0.0166170
715.406	0.0166269
715.484	0.0165906
715.562	0.0166261
715.640	0.0166677
715.718	0.0166055
715.796	0.0168380
715.874	0.0167696
715.953	0.0168580
716.031	0.0168164
716.109	0.0168056
716.187	0.0169341
716.265	0.0169247
716.343	0.0168016
716.421	0.0167378
716.499	0.0167817
716.578	0.0167500
716.656	0.0166235
716.734	0.0165560
716.812	0.0166372
716.890	0.0165565
716.968	0.0163902
717.046	0.0163268
717.124	0.0162803
717.203	0.0163337
717.281	0.0163594
717.359	0.0162658
717.437	0.0161107
717.515	0.0162156
717.593	0.0161238
717.671	0.0161562
717.749	0.0162720
717.828	0.0162248
717.906	0.0163712
717.984	0.0162874
718.062	0.0163747
718.140	0.0164161
718.218	0.0162835
718.296	0.0164014
718.374	0.0164063
718.453	0.0163430
718.531	0.0164707
718.609	0.0164485
718.687	0.0162885
718.765	0.0163740
718.843	0.0165372
718.921	0.0164879
718.999	0.0163438
719.078	0.0165739
719.156	0.0165570
719.234	0.0164816
719.312	0.0165363
719.390	0.0165129
719.468	0.0164097
719.546	0.0166418
719.624	0.0166934
719.703	0.0164607
719.781	0.0166485
719.859	0.0166575
719.937	0.0165665
720.015	0.0165852
720.093	0.0165667
720.171	0.0165108
720.249	0.0165882
720.328	0.0165871
720.406	0.0165462
720.484	0.0165720
720.562	0.0165735
720.640	0.0164917
720.718	0.0163405
720.796	0.0163759
720.874	0.0164021
720.953	0.0163451
721.031	0.0163895
721.109	0.0164255
721.187	0.0165624
721.265	0.0164966
721.343	0.0163615
721.421	0.0162715
721.499	0.0163192
721.578	0.0163309
721.656	0.0165059
721.734	0.0163957
721.812	0.0163693
721.890	0.0163295
721.968	0.0164291
722.046	0.0165131
722.124	0.0164365
722.203	0.0165092
722.281	0.0165372
722.359	0.0163925
722.437	0.0164687
722.515	0.0164932
722.593	0.0164113
722.671	0.0164682
722.749	0.0164060
722.828	0.0163857
722.906	0.0163557
722.984	0.0163386
723.062	0.0163545
723.140	0.0164373
723.218	0.0163022
723.296	0.0164092
723.374	0.0165502
723.453	0.0164222
723.531	0.0166025
723.609	0.0166765
723.687	0.0166370
723.765	0.0165893
723.843	0.0166954
723.921	0.0166528
723.999	0.0165968
724.078	0.0166094
724.156	0.0165933
724.234	0.0165321
724.312	0.0165505
724.390	0.0165155
724.468	0.0165026
724.546	0.0164764
724.624	0.0163853
724.703	0.0165189
724.781	0.0162742
724.859	0.0163724
724.937	0.0163708
725.015	0.0163269
725.093	0.0163919
725.171	0.0163699
725.249	0.0162981
725.328	0.0164023
725.406	0.0164417
725.484	0.0161829
725.562	0.0163077
725.640	0.0163267
725.718	0.0162650
725.796	0.0163310
725.874	0.0162410
725.953	0.0163200
726.031	0.0162032
726.109	0.0162778
726.187	0.0163299
726.265	0.0164417
726.343	0.0163113
726.421	0.0164184
726.499	0.0163372
726.578	0.0163884
726.656	0.0165411
726.734	0.0165568
726.812	0.0167423
726.890	0.0167355
726.968	0.0168710
727.046	0.0168819
727.124	0.0169180
727.203	0.0169888
727.281	0.0167079
727.359	0.0167056
727.437	0.0168185
727.515	0.0167162
727.593	0.0165684
727.671	0.0164548
727.749	0.0163866
727.828	0.0162453
727.906	0.0162759
727.984	0.0160400
728.062	0.0160094
728.140	0.0158748
728.218	0.0158382
728.296	0.0159649
728.374	0.0159962
728.453	0.0160246
728.531	0.0160284
728.609	0.0160693
728.687	0.0163009
728.765	0.0165419
728.843	0.0164214
728.921	0.0164732
728.999	0.0166217
729.078	0.0165978
729.156	0.0167963
729.234	0.0166623
729.312	0.0167123
729.390	0.0168084
729.468	0.0168458
729.546	0.0167222
729.624	0.0166893
729.703	0.0166339
729.781	0.0166091
729.859	0.0165612
729.937	0.0164226
730.015	0.0163839
730.093	0.0163238
730.171	0.0161882
730.249	0.0162382
730.328	0.0161876
730.406	0.0160206
730.484	0.0160844
730.562	0.0161248
730.640	0.0160764
730.718	0.0161473
730.796	0.0162411
730.874	0.0162566
730.953	0.0161775
731.031	0.0163134
731.109	0.0164075
731.187	0.0164186
731.265	0.0164238
731.343	0.0166074
731.421	0.0167972
731.499	0.0167529
731.578	0.0165848
731.656	0.0166063
731.734	0.0165717
731.812	0.0166734
731.890	0.0166337
731.968	0.0166970
732.046	0.0165258
732.124	0.0164440
732.203	0.0165599
732.281	0.0163843
732.359	0.0164777
732.437	0.0164017
732.515	0.0162447
732.593	0.0164111
732.671	0.0162611
732.749	0.0162322
732.828	0.0162738
732.906	0.0163721
732.984	0.0163138
733.062	0.0163428
733.140	0.0161989
733.218	0.0164671
733.296	0.0165226
733.374	0.0163771
733.453	0.0164233
733.531	0.0165025
733.609	0.0164854
733.687	0.0164760
733.765	0.0165584
733.843	0.0165431
733.921	0.0164617
733.999	0.0165009
734.078	0.0165582
734.156	0.0165648
734.234	0.0163589
734.312	0.0164552
734.390	0.0165942
734.468	0.0163541
734.546	0.0162569
734.624	0.0165038
734.703	0.0164385
734.781	0.0163776
734.859	0.0163951
734.937	0.0164458
735.015	0.0163916
735.093	0.0163372
735.171	0.0163750
735.249	0.0164868
735.328	0.0164912
735.406	0.0165336
735.484	0.0163955
735.562	0.0164762
735.640	0.0164626
735.718	0.0163597
735.796	0.0164589
735.874	0.0164818
735.953	0.0163414
736.031	0.0164330
736.109	0.0165220
736.187	0.0163995
736.265	0.0164223
736.343	0.0164551
736.421	0.0164689
736.499	0.0164356
736.578	0.0162836
736.656	0.0164543
736.734	0.0163736
736.812	0.0162775
736.890	0.0164190
736.968	0.0164943
737.046	0.0164931
737.124	0.0164521
737.203	0.0163797
737.281	0.0165289
737.359	0.0164262
737.437	0.0164379
737.515	0.0165639
737.593	0.0165531
737.671	0.0165369
737.749	0.0164864
737.828	0.0165923
737.906	0.0164474
737.984	0.0165435
738.062	0.0164611
738.140	0.0164819
738.218	0.0165226
738.296	0.0164850
738.374	0.0164954
738.453	0.0163681
738.531	0.0163792
738.609	0.0165080
738.687	0.0166055
738.765	0.0163974
738.843	0.0164071
738.921	0.0164851
738.999	0.0164573
739.078	0.0164331
739.156	0.0164866
739.234	0.0166063
739.312	0.0164346
739.390	0.0165175
739.468	0.0164811
739.546	0.0163865
739.624	0.0163387
739.703	0.0165244
739.781	0.0164190
739.859	0.0163137
739.937	0.0162931
740.015	0.0162965
740.093	0.0163300
740.171	0.0164091
740.249	0.0164590
740.328	0.0163796
740.406	0.0164236
740.484	0.0164293
740.562	0.0163993
740.640	0.0164261
740.718	0.0164040
740.796	0.0164165
740.874	0.0166633
740.953	0.0166177
741.031	0.0164647
741.109	0.0165046
741.187	0.0165837
741.265	0.0165008
741.343	0.0166452
741.421	0.0165745
741.499	0.0165969
741.578	0.0164230
741.656	0.0166718
741.734	0.0168468
741.812	0.0165542
741.890	0.0165256
741.968	0.0166416
742.046	0.0166850
742.124	0.0167844
742.203	0.0166021
742.281	0.0166098
742.359	0.0166579
742.437	0.0167455
742.515	0.0165900
742.593	0.0164864
742.671	0.0164526
742.749	0.0164581
742.828	0.0164436
742.906	0.0165098
742.984	0.0164504
743.062	0.0166693
743.140	0.0166116
743.218	0.0164298
743.296	0.0164921
743.374	0.0165082
743.453	0.0163069
743.531	0.0164825
743.609	0.0165369
743.687	0.0164782
743.765	0.0166092
743.843	0.0165469
743.921	0.0164827
743.999	0.0163513
744.078	0.0165135
744.156	0.0165057
744.234	0.0164880
744.312	0.0165120
744.390	0.0162234
744.468	0.0164575
744.546	0.0164672
744.624	0.0165026
744.703	0.0166022
744.781	0.0164584
744.859	0.0164687
744.937	0.0164248
745.015	0.0163876
745.093	0.0164519
745.171	0.0165431
745.249	0.0164453
745.328	0.0163857
745.406	0.0165127
745.484	0.0164660
745.562	0.0164313
745.640	0.0164257
745.718	0.0164992
745.796	0.0166449
745.874	0.0166048
745.953	0.0166348
746.031	0.0164879
746.109	0.0166624
746.187	0.0165664
746.265	0.0165937
746.343	0.0164957
746.421	0.0165082
746.499	0.0165555
746.578	0.0166341
746.656	0.0166367
746.734	0.0165342
746.812	0.0165363
746.890	0.0165399
746.968	0.0164450
747.046	0.0165281
747.124	0.0166422
747.203	0.0164782
747.281	0.0163726
747.359	0.0163618
747.437	0.0164288
747.515	0.0165493
747.593	0.0165807
747.671	0.0163101
747.749	0.0163432
747.828	0.0163587
747.906	0.0163813
747.984	0.0165408
748.062	0.0165006
748.140	0.0164474
748.218	0.0163770
748.296	0.0165589
748.374	0.0162762
748.453	0.0164665
748.531	0.0163180
748.609	0.0162896
748.687	0.0164145
748.765	0.0163722
748.843	0.0163719
748.921	0.0162673
748.999	0.0162061
749.078	0.0163902
749.156	0.0163345
749.234	0.0164313
749.312	0.0164957
749.390	0.0164223
749.468	0.0164642
749.546	0.0164584
749.624	0.0163630
749.703	0.0165028
749.781	0.0164862
749.859	0.0166615
749.937	0.0165504
750.015	0.0164535
750.093	0.0165135
750.171	0.0165898
750.249	0.0164189
750.328	0.0164334
750.406	0.0164690
750.484	0.0164769
750.562	0.0164626
750.640	0.0163724
750.718	0.0163631
750.796	0.0165711
750.874	0.0162906
750.953	0.0163921
751.031	0.0165312
751.109	0.0163921
751.187	0.0162963
751.265	0.0162003
751.343	0.0163287
751.421	0.0162609
751.499	0.0163153
751.578	0.0162849
751.656	0.0163583
751.734	0.0163233
751.812	0.0162305
751.890	0.0162105
751.968	0.0162082
752.046	0.0163852
752.124	0.0162625
752.203	0.0163669
752.281	0.0163245
752.359	0.0163765
752.437	0.0163972
752.515	0.0163870
752.593	0.0163501
752.671	0.0165465
752.749	0.0163663
752.828	0.0164482
752.906	0.0163763
752.984	0.0165318
753.062	0.0165193
753.140	0.0164117
753.218	0.0165340
753.296	0.0164874
753.374	0.0163094
753.453	0.0165027
753.531	0.0164242
753.609	0.0164209
753.687	0.0163939
753.765	0.0164745
753.843	0.0163527
753.921	0.0165025
753.999	0.0162746
754.078	0.0163379
754.156	0.0164677
754.234	0.0163993
754.312	0.0165271
754.390	0.0165224
754.468	0.0164832
754.546	0.0165696
754.624	0.0164916
754.703	0.0164190
754.781	0.0165214
754.859	0.0165367
754.937	0.0164626
755.015	0.0164750
755.093	0.0164921
755.171	0.0163882
755.249	0.0166250
755.328	0.0165352
755.406	0.0163791
755.484	0.0165110
755.562	0.0163894
755.640	0.0164361
755.718	0.0164652
755.796	0.0163245
755.874	0.0163618
755.953	0.0162353
756.031	0.0162377
756.109	0.0163104
756.187	0.0162222
756.265	0.0162156
756.343	0.0162868
756.421	0.0162906
756.499	0.0164227
756.578	0.0164935
756.656	0.0164898
756.734	0.0163680
756.812	0.0163955
756.890	0.0165293
756.968	0.0164442
757.046	0.0165650
757.124	0.0166570
757.203	0.0166069
757.281	0.0166646
757.359	0.0166550
757.437	0.0166795
757.515	0.0166576
757.593	0.0164687
757.671	0.0165573
757.749	0.0164165
757.828	0.0165461
757.906	0.0165293
757.984	0.0162967
758.062	0.0164886
758.140	0.0163869
758.218	0.0164300
758.296	0.0164184
758.374	0.0162810
758.453	0.0161237
758.531	0.0163651
758.609	0.0162161
758.687	0.0161855
758.765	0.0162897
758.843	0.0162546
758.921	0.0162955
758.999	0.0163492
759.078	0.0163589
759.156	0.0164774
759.234	0.0164742
759.312	0.0165970
759.390	0.0166737
759.468	0.0166355
759.546	0.0165634
759.624	0.0167339
759.703	0.0166155
759.781	0.0166605
759.859	0.0165739
759.937	0.0166158
760.015	0.0167619
760.093	0.0166779
760.171	0.0166608
760.249	0.0166871
760.328	0.0166878
760.406	0.0165511
760.484	0.0167274
760.562	0.0165808
760.640	0.0165192
760.718	0.0164984
760.796	0.0164212
760.874	0.0164955
760.953	0.0164859
761.031	0.0163397
761.109	0.0163804
761.187	0.0163422
761.265	0.0162488
761.343	0.0162756
761.421	0.0162323
761.499	0.0161729
761.578	0.0163648
761.656	0.0162642
761.734	0.0163953
761.812	0.0162445
761.890	0.0162903
761.968	0.0163831
762.046	0.0163979
762.124	0.0165697
762.203	0.0165571
762.281	0.0166166
762.359	0.0166086
762.437	0.0166895
762.515	0.0168006
762.593	0.0168017
762.671	0.0169386
762.749	0.0167444
762.828	0.0168255
762.906	0.0167812
762.984	0.0167587
763.062	0.0168751
763.140	0.0166824
763.218	0.0165638
763.296	0.0166495
763.374	0.0165924
763.453	0.0163701
763.531	0.0163089
763.609	0.0164750
763.687	0.0164315
763.765	0.0164164
763.843	0.0162132
763.921	0.0161361
763.999	0.0162590
764.078	0.0162706
764.156	0.0161504
764.234	0.0163324
764.312	0.0162614
764.390	0.0161105
764.468	0.0159880
764.546	0.0160379
764.624	0.0162212
764.703	0.0161281
764.781	0.0162320
764.859	0.0161711
764.937	0.0163685
765.015	0.0164487
765.093	0.0163920
765.171	0.0166370
765.249	0.0168169
765.328	0.0168683
765.406	0.0168791
765.484	0.0169010
765.562	0.0169521
765.640	0.0171061
765.718	0.0170744
765.796	0.0171706
765.874	0.0170573
765.953	0.0170350
766.031	0.0170627
766.109	0.0170493
766.187	0.0170860
766.265	0.0169297
766.343	0.0167503
766.421	0.0166997
766.499	0.0167033
766.578	0.0166167
766.656	0.0164828
766.734	0.0162894
766.812	0.0161620
766.890	0.0161915
766.968	0.0159459
767.046	0.0159937
767.124	0.0158826
767.203	0.0159431
767.281	0.0159050
767.359	0.0159260
767.437	0.0161486
767.515	0.0162268
767.593	0.0161530
767.671	0.0164243
767.749	0.0163397
767.828	0.0164646
767.906	0.0164764
767.984	0.0165820
768.062	0.0165829
768.140	0.0165404
768.218	0.0166171
768.296	0.0167581
768.374	0.0165610
768.453	0.0164756
768.531	0.0165291
768.609	0.0166705
768.687	0.0165895
768.765	0.0168288
768.843	0.0168336
768.921	0.0167590
768.999	0.0169202
769.078	0.0170335
769.156	0.0168530
769.234	0.0168842
769.312	0.0169611
769.390	0.0169677
769.468	0.0167580
769.546	0.0169122
769.624	0.0168750
769.703	0.0167493
769.781	0.0167321
769.859	0.0166183
769.937	0.0164933
770.015	0.0165613
770.093	0.0165315
770.171	0.0163817
770.249	0.0164381
770.328	0.0163944
770.406	0.0162751
770.484	0.0161758
770.562	0.0161166
770.640	0.0161760
770.718	0.0161057
770.796	0.0161489
770.874	0.0160067
770.953	0.0160085
771.031	0.0161021
771.109	0.0162340
771.187	0.0161001
771.265	0.0161944
771.343	0.0163400
771.421	0.0162308
771.499	0.0163454
771.578	0.0165214
771.656	0.0165261
771.734	0.0165388
771.812	0.0164391
771.890	0.0165788
771.968	0.0164370
772.046	0.0166587
772.124	0.0166145
772.203	0.0165020
772.281	0.0166901
772.359	0.0166055
772.437	0.0165545
772.515	0.0165243
772.593	0.0164276
772.671	0.0164472
772.749	0.0162672
772.828	0.0162639
772.906	0.0162128
772.984	0.0160618
773.062	0.0161839
773.140	0.0162455
773.218	0.0161523
773.296	0.0161987
773.374	0.0164524
773.453	0.0165488
773.531	0.0166388
773.609	0.0166044
773.687	0.0166962
773.765	0.0167582
773.843	0.0168017
773.921	0.0168707
773.999	0.0168385
774.078	0.0167796
774.156	0.0170231
774.234	0.0167857
774.312	0.0167198
774.390	0.0167810
774.468	0.0166650
774.546	0.0167004
774.624	0.0165671
774.703	0.0166427
774.781	0.0167179
774.859	0.0166059
774.937	0.0164622
775.015	0.0165961
775.093	0.0165042
775.171	0.0165571
775.249	0.0165142
775.328	0.0164842
775.406	0.0165007
775.484	0.0164125
775.562	0.0165508
775.640	0.0165610
775.718	0.0163833
775.796	0.0162269
775.874	0.0162243
775.953	0.0161752
776.031	0.0159273
776.109	0.0160840
776.187	0.0159496
776.265	0.0159514
776.343	0.0157449
776.421	0.0157712
776.499	0.0157809
776.578	0.0155209
776.656	0.0155987
776.734	0.0155891
776.812	0.0156931
776.890	0.0157784
776.968	0.0159031
777.046	0.0158308
777.124	0.0160389
777.203	0.0160646
777.281	0.0159913
777.359	0.0161338
777.437	0.0163505
777.515	0.0166129
777.593	0.0166148
777.671	0.0167669
777.749	0.0168764
777.828	0.0169532
777.906	0.0168903
777.984	0.0170098
778.062	0.0171645
778.140	0.0173472
778.218	0.0173168
778.296	0.0173236
778.374	0.0172278
778.453	0.0173029
778.531	0.0172882
778.609	0.0172980
778.687	0.0172571
778.765	0.0171710
778.843	0.0171482
778.921	0.0169783
778.999	0.0168553
779.078	0.0167320
779.156	0.0166534
779.234	0.0165501
779.312	0.0164121
779.390	0.0162695
779.468	0.0161532
779.546	0.0160779
779.624	0.0160863
779.703	0.0159978
779.781	0.0159304
779.859	0.0160275
779.937	0.0160651
780.015	0.0159019
780.093	0.0160245
780.171	0.0158787
780.249	0.0160339
780.328	0.0160826
780.406	0.0160515
780.484	0.0162556
780.562	0.0160853
780.640	0.0162408
780.718	0.0161554
780.796	0.0163012
780.874	0.0163865
780.953	0.0162846
781.031	0.0163637
781.109	0.0163092
781.187	0.0163615
781.265	0.0163321
781.343	0.0162669
781.421	0.0163517
781.499	0.0162788
781.578	0.0162345
781.656	0.0161552
781.734	0.0162434
781.812	0.0164486
781.890	0.0164227
781.968	0.0163639
782.046	0.0163863
782.124	0.0164951
782.203	0.0164112
782.281	0.0165012
782.359	0.0165636
782.437	0.0165617
782.515	0.0166023
782.593	0.0165407
782.671	0.0167004
782.749	0.0165533
782.828	0.0165711
782.906	0.0168320
782.984	0.0168752
783.062	0.0168797
783.140	0.0168726
783.218	0.0170277
783.296	0.0170541
783.374	0.0169724
783.453	0.0170945
783.531	0.0173520
783.609	0.0170717
783.687	0.0171967
783.765	0.0170913
783.843	0.0170540
783.921	0.0169381
783.999	0.0170835
784.078	0.0170753
784.156	0.0167946
784.234	0.0169146
784.312	0.0167885
784.390	0.0166758
784.468	0.0165486
784.546	0.0164655
784.624	0.0162957
784.703	0.0162702
784.781	0.0162224
784.859	0.0158517
784.937	0.0159716
785.015	0.0158750
785.093	0.0156510
785.171	0.0155483
785.249	0.0155746
785.328	0.0154706
785.406	0.0154086
785.484	0.0154977
785.562	0.0155751
785.640	0.0155820
785.718	0.0155365
785.796	0.0158152
785.874	0.0157523
785.953	0.0158427
786.031	0.0160282
786.109	0.0161623
786.187	0.0163522
786.265	0.0165192
786.343	0.0165578
786.421	0.0167809
786.499	0.0168705
786.578	0.0169101
786.656	0.0171268
786.734	0.0170867
786.812	0.0171292
786.890	0.0171516
786.968	0.0171210
787.046	0.0171468
787.124	0.0172029
787.203	0.0171881
787.281	0.0169982
787.359	0.0171673
787.437	0.0172593
787.515	0.0171736
787.593	0.0170953
787.671	0.0173599
787.749	0.0173967
787.828	0.0172649
787.906	0.0172660
787.984	0.0172576
788.062	0.0170550
788.140	0.0171343
788.218	0.0170345
788.296	0.0169138
788.374	0.0168205
788.453	0.0165603
788.531	0.0164004
788.609	0.0164088
788.687	0.0163017
788.765	0.0161754
788.843	0.0161258
788.921	0.0157777
788.999	0.0157359
789.078	0.0157215
789.156	0.0156170
789.234	0.0156021
789.312	0.0156413
789.390	0.0156850
789.468	0.0157016
789.546	0.0157695
789.624	0.0159690
789.703	0.0159281
789.781	0.0160691
789.859	0.0160920
789.937	0.0161160
790.015	0.0161866
790.093	0.0161823
790.171	0.0160889
790.249	0.0161317
790.328	0.0161882
790.406	0.0161465
790.484	0.0162495
790.562	0.0163187
790.640	0.0162164
790.718	0.0161969
790.796	0.0162039
790.874	0.0163494
790.953	0.0164115
791.031	0.0164871
791.109	0.0166153
791.187	0.0167869
791.265	0.0168082
791.343	0.0169173
791.421	0.0170273
791.499	0.0172832
791.578	0.0172876
791.656	0.0172271
791.734	0.0174057
791.812	0.0175568
791.890	0.0175603
791.968	0.0174932
792.046	0.0174686
792.124	0.0174208
792.203	0.0173915
792.281	0.0175148
792.359	0.0174191
792.437	0.0174358
792.515	0.0172366
792.593	0.0170837
792.671	0.0170211
792.749	0.0169608
792.828	0.0167259
792.906	0.0165627
792.984	0.0164107
793.062	0.0162032
793.140	0.0162140
793.218	0.0158997
793.296	0.0158801
793.374	0.0157686
793.453	0.0156016
793.531	0.0155077
793.609	0.0155450
793.687	0.0152436
793.765	0.0153239
793.843	0.0154046
793.921	0.0152454
793.999	0.0153902
794.078	0.0153266
794.156	0.0154393
794.234	0.0154857
794.312	0.0154969
794.390	0.0156887
794.468	0.0155578
794.546	0.0156727
794.624	0.0157992
794.703	0.0158795
794.781	0.0158585
794.859	0.0159860
794.937	0.0161054
795.015	0.0162412
795.093	0.0162489
795.171	0.0163854
795.249	0.0165718
795.328	0.0166712
795.406	0.0167721
795.484	0.0170924
795.562	0.0172206
795.640	0.0173481
795.718	0.0174318
795.796	0.0174576
795.874	0.0175279
795.953	0.0174325
796.031	0.0174318
796.109	0.0174716
796.187	0.0173183
796.265	0.0173644
796.343	0.0172842
796.421	0.0171694
796.499	0.0169574
796.578	0.0170585
796.656	0.0169855
796.734	0.0169571
796.812	0.0168589
796.890	0.0166885
796.968	0.0168913
797.046	0.0168330
797.124	0.0166051
797.203	0.0164832
797.281	0.0164522
797.359	0.0164259
797.437	0.0163930
797.515	0.0161617
797.593	0.0160815
797.671	0.0161594
797.749	0.0160188
797.828	0.0159061
797.906	0.0158579
797.984	0.0158138
798.062	0.0157558
798.140	0.0157770
798.218	0.0156196
798.296	0.0156087
798.374	0.0155181
798.453	0.0155134
798.531	0.0155659
798.609	0.0156398
798.687	0.0155917
798.765	0.0157554
798.843	0.0158449
798.921	0.0158781
798.999	0.0159756
799.078	0.0160639
799.156	0.0160944
799.234	0.0160464
799.312	0.0160660
799.390	0.0161801
799.468	0.0162759
799.546	0.0163014
799.624	0.0161606
799.703	0.0162860
799.781	0.0163699
799.859	0.0163883
799.937	0.0165473
800.015	0.0167545
800.093	0.0168859
800.171	0.0168690
800.249	0.0169664
800.328	0.0170675
800.406	0.0171838
800.484	0.0173940
800.562	0.0173757
800.640	0.0172885
800.718	0.0173641
800.796	0.0173972
800.874	0.0172581
800.953	0.0171395
801.031	0.0170197
801.109	0.0169228
801.187	0.0168040
801.265	0.0167439
801.343	0.0164752
801.421	0.0164747
801.499	0.0163338
801.578	0.0162549
801.656	0.0161454
801.734	0.0160266
801.812	0.0160549
801.890	0.0160000
801.968	0.0160560
802.046	0.0159489
802.124	0.0160867
802.203	0.0162415
802.281	0.0161376
802.359	0.0162683
802.437	0.0164567
802.515	0.0164630
802.593	0.0163326
802.671	0.0164149
802.749	0.0164024
802.828	0.0162899
802.906	0.0163367
802.984	0.0162123
803.062	0.0162698
803.140	0.0161423
803.218	0.0161564
803.296	0.0161552
803.374	0.0161105
803.453	0.0161590
803.531	0.0160778
803.609	0.0160538
803.687	0.0161591
803.765	0.0160355
803.843	0.0160768
803.921	0.0160342
803.999	0.0163165
804.078	0.0163078
804.156	0.0163634
804.234	0.0164262
804.312	0.0164088
804.390	0.0165110
804.468	0.0165464
804.546	0.0168913
804.624	0.0168285
804.703	0.0167709
804.781	0.0168963
804.859	0.0170616
804.937	0.0171317
805.015	0.0171408
805.093	0.0172668
805.171	0.0170050
805.249	0.0170404
805.328	0.0170002
805.406	0.0169611
805.484	0.0168866
805.562	0.0168227
805.640	0.0167670
805.718	0.0165047
805.796	0.0162812
805.874	0.0162839
805.953	0.0162254
806.031	0.0161500
806.109	0.0162218
806.187	0.0161712
806.265	0.0161557
806.343	0.0161322
806.421	0.0162122
806.499	0.0161082
806.578	0.0161258
806.656	0.0163760
806.734	0.0163988
806.812	0.0162955
806.890	0.0162843
806.968	0.0163121
807.046	0.0162058
807.124	0.0162433
807.203	0.0162601
807.281	0.0163123
807.359	0.0163171
807.437	0.0161094
807.515	0.0161061
807.593	0.0161134
807.671	0.0160304
807.749	0.0159866
807.828	0.0160329
807.906	0.0159602
807.984	0.0160991
808.062	0.0161764
808.140	0.0162652
808.218	0.0163393
808.296	0.0164387
808.374	0.0165892
808.453	0.0166623
808.531	0.0168441
808.609	0.0169726
808.687	0.0171042
808.765	0.0172913
808.843	0.0171808
808.921	0.0173380
808.999	0.0174036
809.078	0.0173618
809.156	0.0173132
809.234	0.0170990
809.312	0.0174597
809.390	0.0171905
809.468	0.0171762
809.546	0.0171204
809.624	0.0169542
809.703	0.0168145
809.781	0.0166811
809.859	0.0167142
809.937	0.0165425
810.015	0.0164861
810.093	0.0163003
810.171	0.0161231
810.249	0.0160896
810.328	0.0160397
810.406	0.0160333
810.484	0.0160150
810.562	0.0160812
810.640	0.0159220
810.718	0.0160424
810.796	0.0160533
810.874	0.0159940
810.953	0.0162406
811.031	0.0161911
811.109	0.0162423
811.187	0.0163248
811.265	0.0161797
811.343	0.0166422
811.421	0.0164944
811.499	0.0165372
811.578	0.0165784
811.656	0.0167994
811.734	0.0167177
811.812	0.0167612
811.890	0.0167217
811.968	0.0166689
812.046	0.0168119
812.124	0.0167576
812.203	0.0168393
812.281	0.0166419
812.359	0.0165987
812.437	0.0166908
812.515	0.0166261
812.593	0.0164359
812.671	0.0164899
812.749	0.0165617
812.828	0.0164986
812.906	0.0162587
812.984	0.0162344
813.062	0.0161655
813.140	0.0163568
813.218	0.0160176
813.296	0.0162144
813.374	0.0160888
813.453	0.0161312
813.531	0.0160484
813.609	0.0159780
813.687	0.0162624
813.765	0.0163072
813.843	0.0163515
813.921	0.0163205
813.999	0.0165067
814.078	0.0166041
814.156	0.0165412
814.234	0.0168032
814.312	0.0168527
814.390	0.0168006
814.468	0.0169588
814.546	0.0169946
814.624	0.0170767
814.703	0.0170546
814.781	0.0171475
814.859	0.0171507
814.937	0.0171942
815.015	0.0170861
815.093	0.0169109
815.171	0.0169450
815.249	0.0167977
815.328	0.0168697
815.406	0.0167511
815.484	0.0168198
815.562	0.0166389
815.640	0.0164641
815.718	0.0164016
815.796	0.0163634
815.874	0.0164500
815.953	0.0164291
816.031	0.0163362
816.109	0.0162250
816.187	0.0162544
816.265	0.0162003
816.343	0.0161912
816.421	0.0161497
816.499	0.0161546
816.578	0.0160226
816.656	0.0160393
816.734	0.0160745
816.812	0.0161153
816.890	0.0160762
816.968	0.0162239
817.046	0.0161517
817.124	0.0162893
817.203	0.0164672
817.281	0.0165773
817.359	0.0164846
817.437	0.0166860
817.515	0.0165627
817.593	0.0164816
817.671	0.0163628
817.749	0.0164082
817.828	0.0163538
817.906	0.0164709
817.984	0.0162900
818.062	0.0161900
818.140	0.0161926
818.218	0.0163153
818.296	0.0160434
818.374	0.0160361
818.453	0.0160001
818.531	0.0160085
818.609	0.0160437
818.687	0.0161520
818.765	0.0160149
818.843	0.0160161
818.921	0.0160301
818.999	0.0161944
819.078	0.0161194
819.156	0.0161169
819.234	0.0163072
819.312	0.0162218
819.390	0.0162589
819.468	0.0163694
819.546	0.0164956
819.624	0.0166093
819.703	0.0166078
819.781	0.0166515
819.859	0.0166867
819.937	0.0166111
820.015	0.0167731
820.093	0.0167635
820.171	0.0166673
820.249	0.0167910
820.328	0.0167426
820.406	0.0168791
820.484	0.0168449
820.562	0.0167676
820.640	0.0167964
820.718	0.0168385
820.796	0.0168234
820.874	0.0168536
820.953	0.0166926
821.031	0.0166876
821.109	0.0167501
821.187	0.0165740
821.265	0.0165627
821.343	0.0166742
821.421	0.0164691
821.499	0.0163768
821.578	0.0163166
821.656	0.0163700
821.734	0.0163506
821.812	0.0162624
821.890	0.0162305
821.968	0.0162074
822.046	0.0161665
822.124	0.0160864
822.203	0.0160772
822.281	0.0160764
822.359	0.0161293
822.437	0.0160932
822.515	0.0163021
822.593	0.0162104
822.671	0.0161100
822.749	0.0160268
822.828	0.0161048
822.906	0.0160553
822.984	0.0162370
823.062	0.0162054
823.140	0.0162025
823.218	0.0163102
823.296	0.0162644
823.374	0.0162030
823.453	0.0162543
823.531	0.0161388
823.609	0.0163058
823.687	0.0163522
823.765	0.0164310
823.843	0.0163645
823.921	0.0165272
823.999	0.0164705
824.078	0.0164652
824.156	0.0164773
824.234	0.0163824
824.312	0.0164655
824.390	0.0164540
824.468	0.0163583
824.546	0.0165007
824.624	0.0164583
824.703	0.0163374
824.781	0.0164281
824.859	0.0164131
824.937	0.0164337
825.015	0.0163212
825.093	0.0162863
825.171	0.0162447
825.249	0.0161602
825.328	0.0162045
825.406	0.0162302
825.484	0.0161447
825.562	0.0164012
825.640	0.0163619
825.718	0.0163882
825.796	0.0163702
825.874	0.0165800
825.953	0.0165514
826.031	0.0165606
826.109	0.0165484
826.187	0.0166129
826.265	0.0167276
826.343	0.0168884
826.421	0.0167124
826.499	0.0165535
826.578	0.0166554
826.656	0.0167186
826.734	0.0166834
826.812	0.0166678
826.890	0.0167339
826.968	0.0165947
827.046	0.0164738
827.124	0.0165828
827.203	0.0166354
827.281	0.0164953
827.359	0.0165257
827.437	0.0165055
827.515	0.0163139
827.593	0.0163960
827.671	0.0164778
827.749	0.0163190
827.828	0.0164552
827.906	0.0164121
827.984	0.0162950
828.062	0.0162521
828.140	0.0163065
828.218	0.0163131
828.296	0.0163129
828.374	0.0164246
828.453	0.0164583
828.531	0.0164801
828.609	0.0165318
828.687	0.0164228
828.765	0.0166147
828.843	0.0165900
828.921	0.0166223
828.999	0.0166524
829.078	0.0165756
829.156	0.0167612
829.234	0.0165575
829.312	0.0166110
829.390	0.0166277
829.468	0.0165261
829.546	0.0165009
829.624	0.0164368
829.703	0.0165208
829.781	0.0164195
829.859	0.0164912
829.937	0.0164342
830.015	0.0164957
830.093	0.0164243
830.171	0.0165176
830.249	0.0162838
830.328	0.0163222
830.406	0.0164439
830.484	0.0163629
830.562	0.0163245
830.640	0.0163346
830.718	0.0161074
830.796	0.0162523
830.874	0.0163374
830.953	0.0162805
831.031	0.0164720
831.109	0.0162521
831.187	0.0162990
831.265	0.0163765
831.343	0.0164036
831.421	0.0162791
831.499	0.0164230
831.578	0.0164470
831.656	0.0164780
831.734	0.0165292
831.812	0.0165932
831.890	0.0163661
831.968	0.0165543
832.046	0.0166012
832.124	0.0166670
832.203	0.0165936
832.281	0.0166539
832.359	0.0166372
832.437	0.0166320
832.515	0.0166451
832.593	0.0165758
832.671	0.0168130
832.749	0.0168396
832.828	0.0167213
832.906	0.0167113
832.984	0.0167818
833.062	0.0167393
833.140	0.0167894
833.218	0.0166756
833.296	0.0168269
833.374	0.0167654
833.453	0.0168094
833.531	0.0168663
833.609	0.0169410
833.687	0.0168150
833.765	0.0166518
833.843	0.0165813
833.921	0.0167856
833.999	0.0167653
834.078	0.0166267
834.156	0.0165658
834.234	0.0164780
834.312	0.0163612
834.390	0.0163638
834.468	0.0162646
834.546	0.0162318
834.624	0.0163927
834.703	0.0162032
834.781	0.0161057
834.859	0.0160564
834.937	0.0161343
835.015	0.0162599
835.093	0.0161707
835.171	0.0161518
835.249	0.0163239
835.328	0.0163165
835.406	0.0164668
835.484	0.0162790
835.562	0.0163380
835.640	0.0163779
835.718	0.0164624
835.796	0.0165177
835.874	0.0164434
835.953	0.0164502
836.031	0.0165202
836.109	0.0164703
836.187	0.0163405
836.265	0.0165958
836.343	0.0165866
836.421	0.0163539
836.499	0.0164805
836.578	0.0165028
836.656	0.0164783
836.734	0.0165038
836.812	0.0165447
836.890	0.0165537
836.968	0.0166206
837.046	0.0164002
837.124	0.0165512
837.203	0.0166123
837.281	0.0165257
837.359	0.0165868
837.437	0.0166745
837.515	0.0166462
837.593	0.0167033
837.671	0.0164836
837.749	0.0166216
837.828	0.0165367
837.906	0.0165968
837.984	0.0165474
838.062	0.0165498
838.140	0.0164534
838.218	0.0164556
838.296	0.0164700
838.374	0.0164944
838.453	0.0164432
838.531	0.0164288
838.609	0.0163881
838.687	0.0164304
838.765	0.0164632
838.843	0.0164483
838.921	0.0166218
838.999	0.0164787
839.078	0.0165063
839.156	0.0165327
839.234	0.0165536
839.312	0.0166644
839.390	0.0168703
839.468	0.0168060
839.546	0.0168191
839.624	0.0167606
839.703	0.0167276
839.781	0.0168087
839.859	0.0167876
839.937	0.0167426
840.015	0.0168275
840.093	0.0169097
840.171	0.0166686
840.249	0.0166228
840.328	0.0167700
840.406	0.0167419
840.484	0.0167113
840.562	0.0165551
840.640	0.0164658
840.718	0.0165047
840.796	0.0165744
840.874	0.0164876
840.953	0.0165287
841.031	0.0165243
841.109	0.0165038
841.187	0.0165843
841.265	0.0164666
841.343	0.0164602
841.421	0.0163703
841.499	0.0164740
841.578	0.0163617
841.656	0.0164495
841.734	0.0162244
841.812	0.0163736
841.890	0.0163435
841.968	0.0162704
842.046	0.0162130
842.124	0.0161759
842.203	0.0161630
842.281	0.0161836
842.359	0.0162236
842.437	0.0162067
842.515	0.0163141
842.593	0.0161925
842.671	0.0162036
842.749	0.0162670
842.828	0.0162175
842.906	0.0161877
842.984	0.0162495
843.062	0.0163921
843.140	0.0163844
843.218	0.0164841
843.296	0.0164832
843.374	0.0164604
843.453	0.0163999
843.531	0.0165436
843.609	0.0165443
843.687	0.0164185
843.765	0.0166217
843.843	0.0164698
843.921	0.0164574
843.999	0.0164959
844.078	0.0165216
844.156	0.0164916
844.234	0.0163963
844.312	0.0165580
844.390	0.0165911
844.468	0.0165413
844.546	0.0165339
844.624	0.0165421
844.703	0.0165302
844.781	0.0166038
844.859	0.0168153
844.937	0.0168829
845.015	0.0167544
845.093	0.0166927
845.171	0.0168587
845.249	0.0167141
845.328	0.0167714
845.406	0.0166508
845.484	0.0166943
845.562	0.0165496
845.640	0.0165630
845.718	0.0166727
845.796	0.0166499
845.874	0.0166508
845.953	0.0166721
846.031	0.0166267
846.109	0.0165442
846.187	0.0166320
846.265	0.0167257
846.343	0.0166718
846.421	0.0164709
846.499	0.0165178
846.578	0.0164651
846.656	0.0166132
846.734	0.0166084
846.812	0.0165552
846.890	0.0165984
846.968	0.0163007
847.046	0.0165295
847.124	0.0165067
847.203	0.0163124
847.281	0.0164312
847.359	0.0165125
847.437	0.0165006
847.515	0.0163943
847.593	0.0163129
847.671	0.0162812
847.749	0.0164667
847.828	0.0163858
847.906	0.0163273
847.984	0.0161245
848.062	0.0161603
848.140	0.0162043
848.218	0.0161726
848.296	0.0161458
848.374	0.0160311
848.453	0.0162415
848.531	0.0161159
848.609	0.0161333
848.687	0.0161424
848.765	0.0163754
848.843	0.0164714
848.921	0.0164109
848.999	0.0162928
849.078	0.0163999
849.156	0.0164252
849.234	0.0164573
849.312	0.0164698
849.390	0.0164227
849.468	0.0165104
849.546	0.0164067
849.624	0.0165205
849.703	0.0164986
849.781	0.0164396
849.859	0.0165731
849.937	0.0164135
850.015	0.0162315
850.093	0.0164363
850.171	0.0163167
850.249	0.0162354
850.328	0.0163939
850.406	0.0163324
850.484	0.0162316
850.562	0.0163976
850.640	0.0163927
850.718	0.0163240
850.796	0.0162865
850.874	0.0162305
850.953	0.0164078
851.031	0.0163803
851.109	0.0163110
851.187	0.0164333
851.265	0.0165887
851.343	0.0164501
851.421	0.0166060
851.499	0.0164992
851.578	0.0163805
851.656	0.0164680
851.734	0.0165268
851.812	0.0165711
851.890	0.0166611
851.968	0.0165021
852.046	0.0166489
852.124	0.0166428
852.203	0.0165431
852.281	0.0166752
852.359	0.0165624
852.437	0.0164585
852.515	0.0164077
852.593	0.0165013
852.671	0.0164491
852.749	0.0162912
852.828	0.0162849
852.906	0.0164347
852.984	0.0165479
853.062	0.0162355
853.140	0.0163366
853.218	0.0163746
853.296	0.0162969
853.374	0.0163389
853.453	0.0162656
853.531	0.0162168
853.609	0.0162730
853.687	0.0163125
853.765	0.0163034
853.843	0.0162483
853.921	0.0163109
853.999	0.0163450
854.078	0.0162509
854.156	0.0162773
854.234	0.0162669
854.312	0.0162555
854.390	0.0161990
854.468	0.0162080
854.546	0.0161504
854.624	0.0161674
854.703	0.0160840
854.781	0.0161584
854.859	0.0160422
854.937	0.0161277
855.015	0.0160896
855.093	0.0162811
855.171	0.0163493
855.249	0.0161939
855.328	0.0161190
855.406	0.0163728
855.484	0.0163043
855.562	0.0163139
855.640	0.0162820
855.718	0.0163725
855.796	0.0163908
855.874	0.0163599
855.953	0.0162531
856.031	0.0164604
856.109	0.0165510
856.187	0.0166636
856.265	0.0164942
856.343	0.0166496
856.421	0.0166809
856.499	0.0166556
856.578	0.0165596
856.656	0.0166420
856.734	0.0166988
856.812	0.0167229
856.890	0.0165939
856.968	0.0166898
857.046	0.0166051
857.124	0.0165238
857.203	0.0164503
857.281	0.0165884
857.359	0.0166477
857.437	0.0165527
857.515	0.0164928
857.593	0.0164825
857.671	0.0164896
857.749	0.0165396
857.828	0.0166088
857.906	0.0166575
857.984	0.0166357
858.062	0.0165137
858.140	0.0165466
858.218	0.0166299
858.296	0.0165882
858.374	0.0163931
858.453	0.0163417
858.531	0.0164883
858.609	0.0165874
858.687	0.0163528
858.765	0.0163860
858.843	0.0164994
858.921	0.0164420
858.999	0.0164790
859.078	0.0164104
859.156	0.0164585
859.234	0.0165713
859.312	0.0165466
859.390	0.0166128
859.468	0.0164957
859.546	0.0165478
859.624	0.0165497
859.703	0.0165783
859.781	0.0165260
859.859	0.0164748
859.937	0.0165620
860.015	0.0164554
860.093	0.0164861
860.171	0.0164178
860.249	0.0165154
860.328	0.0163808
860.406	0.0163145
860.484	0.0164400
860.562	0.0165191
860.640	0.0163985
860.718	0.0164454
860.796	0.0163634
860.874	0.0164660
860.953	0.0164173
861.031	0.0164470
861.109	0.0163595
861.187	0.0164548
861.265	0.0164487
861.343	0.0164914
861.421	0.0163329
861.499	0.0163285
861.578	0.0164529
861.656	0.0163975
861.734	0.0162963
861.812	0.0164023
861.890	0.0164491
861.968	0.0164133
862.046	0.0163760
862.124	0.0163684
862.203	0.0163561
862.281	0.0165690
862.359	0.0164322
862.437	0.0165102
862.515	0.0166660
862.593	0.0166941
862.671	0.0166331
862.749	0.0166362
862.828	0.0166856
862.906	0.0166277
862.984	0.0167543
863.062	0.0167018
863.140	0.0166788
863.218	0.0166978
863.296	0.0167017
863.374	0.0166889
863.453	0.0168073
863.531	0.0166656
863.609	0.0165822
863.687	0.0165969
863.765	0.0166572
863.843	0.0165677
863.921	0.0164941
863.999	0.0165731
864.078	0.0165856
864.156	0.0164931
864.234	0.0165155
864.312	0.0164511
864.390	0.0164307
864.468	0.0165060
864.546	0.0165476
864.624	0.0166154
864.703	0.0165279
864.781	0.0165071
864.859	0.0167602
864.937	0.0165497
865.015	0.0166829
865.093	0.0167058
865.171	0.0168062
865.249	0.0166936
865.328	0.0167204
865.406	0.0168221
865.484	0.0168735
865.562	0.0168122
865.640	0.0166690
865.718	0.0167941
865.796	0.0168349
865.874	0.0166628
865.953	0.0165672
866.031	0.0164906
866.109	0.0166151
866.187	0.0165057
866.265	0.0164497
866.343	0.0163085
866.421	0.0164927
866.499	0.0165314
866.578	0.0164820
866.656	0.0165107
866.734	0.0164382
866.812	0.0164108
866.890	0.0163406
866.968	0.0163368
867.046	0.0163428
867.124	0.0164108
867.203	0.0164770
867.281	0.0163854
867.359	0.0163438
867.437	0.0164029
867.515	0.0162480
867.593	0.0162319
867.671	0.0162337
867.749	0.0163197
867.828	0.0162927
867.906	0.0163716
867.984	0.0162904
868.062	0.0162875
868.140	0.0164590
868.218	0.0162212
868.296	0.0164254
868.374	0.0163933
868.453	0.0164152
868.531	0.0162650
868.609	0.0163161
868.687	0.0164704
868.765	0.0163954
868.843	0.0164916
868.921	0.0164998
868.999	0.0164552
869.078	0.0166386
869.156	0.0165427
869.234	0.0164959
869.312	0.0166854
869.390	0.0166125
869.468	0.0166604
869.546	0.0166675
869.624	0.0166838
869.703	0.0166387
869.781	0.0166646
869.859	0.0165514
869.937	0.0166685
870.015	0.0166291
870.093	0.0165020
870.171	0.0165063
870.249	0.0164841
870.328	0.0163758
870.406	0.0165575
870.484	0.0165284
870.562	0.0164861
870.640	0.0166113
870.718	0.0165931
870.796	0.0165266
870.874	0.0165659
870.953	0.0167818
871.031	0.0167008
871.109	0.0166969
871.187	0.0167062
871.265	0.0165728
871.343	0.0167475
871.421	0.0166158
871.499	0.0166679
871.578	0.0167766
871.656	0.0166805
871.734	0.0167223
871.812	0.0165773
871.890	0.0166637
871.968	0.0167006
872.046	0.0164540
872.124	0.0164323
872.203	0.0164601
872.281	0.0164270
872.359	0.0162827
872.437	0.0164047
872.515	0.0162611
872.593	0.0163143
872.671	0.0162707
872.749	0.0162309
872.828	0.0162885
872.906	0.0162989
872.984	0.0162127
873.062	0.0163684
873.140	0.0163161
873.218	0.0162832
873.296	0.0163476
873.374	0.0163978
873.453	0.0163498
873.531	0.0162858
873.609	0.0163593
873.687	0.0162267
873.765	0.0162232
873.843	0.0163621
873.921	0.0164255
873.999	0.0164003
874.078	0.0164679
874.156	0.0165443
874.234	0.0163246
874.312	0.0165255
874.390	0.0164921
874.468	0.0164409
874.546	0.0163640
874.624	0.0162811
874.703	0.0166075
874.781	0.0164187
874.859	0.0165106
874.937	0.0164862
875.015	0.0164683
875.093	0.0165079
875.171	0.0163656
875.249	0.0163412
875.328	0.0163164
875.406	0.0164845
875.484	0.0165758
875.562	0.0165430
875.640	0.0165479
875.718	0.0164835
875.796	0.0166435
875.874	0.0164870
875.953	0.0164801
876.031	0.0164541
876.109	0.0164301
876.187	0.0164133
876.265	0.0164796
876.343	0.0163784
876.421	0.0163013
876.499	0.0163738
876.578	0.0162403
876.656	0.0162164
876.734	0.0161961
876.812	0.0161599
876.890	0.0162428
876.968	0.0163056
877.046	0.0162318
877.124	0.0162436
877.203	0.0162451
877.281	0.0161880
877.359	0.0163068
877.437	0.0162173
877.515	0.0161910
877.593	0.0163448
877.671	0.0163453
877.749	0.0162623
877.828	0.0163245
877.906	0.0164680
877.984	0.0164387
878.062	0.0163580
878.140	0.0162625
878.218	0.0162524
878.296	0.0163483
878.374	0.0163654
878.453	0.0163982
878.531	0.0163416
878.609	0.0162724
878.687	0.0161743
878.765	0.0163209
878.843	0.0162782
878.921	0.0164539
878.999	0.0163585
879.078	0.0163204
879.156	0.0162598
879.234	0.0164344
879.312	0.0164433
879.390	0.0164523
879.468	0.0163728
879.546	0.0164427
879.624	0.0164635
879.703	0.0164669
879.781	0.0165282
879.859	0.0164353
879.937	0.0166383
880.015	0.0166358
880.093	0.0166498
880.171	0.0165351
880.249	0.0165503
880.328	0.0164986
880.406	0.0165102
880.484	0.0164473
880.562	0.0163394
880.640	0.0164942
880.718	0.0164475
880.796	0.0164615
880.874	0.0162712
880.953	0.0163821
881.031	0.0164896
881.109	0.0162835
881.187	0.0162879
881.265	0.0164925
881.343	0.0163694
881.421	0.0162511
881.499	0.0164149
881.578	0.0164153
881.656	0.0164028
881.734	0.0163003
881.812	0.0163551
881.890	0.0162621
881.968	0.0163966
882.046	0.0162798
882.124	0.0162407
882.203	0.0164164
882.281	0.0162687
882.359	0.0162319
882.437	0.0162173
882.515	0.0163301
882.593	0.0160942
882.671	0.0162534
882.749	0.0162450
882.828	0.0163750
882.906	0.0163402
882.984	0.0163223
883.062	0.0163470
883.140	0.0162706
883.218	0.0163670
883.296	0.0165079
883.374	0.0165453
883.453	0.0166470
883.531	0.0166138
883.609	0.0165987
883.687	0.0165102
883.765	0.0166072
883.843	0.0168237
883.921	0.0166575
883.999	0.0165319
884.078	0.0166582
884.156	0.0166185
884.234	0.0168280
884.312	0.0167643
884.390	0.0166668
884.468	0.0166627
884.546	0.0165847
884.624	0.0167182
884.703	0.0166485
884.781	0.0167935
884.859	0.0166045
884.937	0.0164431
885.015	0.0165739
885.093	0.0166050
885.171	0.0165612
885.249	0.0165563
885.328	0.0164721
885.406	0.0163341
885.484	0.0164748
885.562	0.0163572
885.640	0.0164349
885.718	0.0163879
885.796	0.0164294
885.874	0.0163223
885.953	0.0164242
886.031	0.0165250
886.109	0.0165116
886.187	0.0164502
886.265	0.0165125
886.343	0.0164863
886.421	0.0163410
886.499	0.0165408
886.578	0.0164667
886.656	0.0166057
886.734	0.0164640
886.812	0.0164403
886.890	0.0164091
886.968	0.0163522
887.046	0.0164107
887.124	0.0164249
887.203	0.0164003
887.281	0.0164095
887.359	0.0164556
887.437	0.0165703
887.515	0.0164668
887.593	0.0165969
887.671	0.0165697
887.749	0.0166035
887.828	0.0166935
887.906	0.0166605
887.984	0.0167847
888.062	0.0167897
888.140	0.0167706
888.218	0.0167554
888.296	0.0167527
888.374	0.0166808
888.453	0.0166006
888.531	0.0167321
888.609	0.0166003
888.687	0.0165816
888.765	0.0165195
888.843	0.0165121
888.921	0.0165413
888.999	0.0164717
889.078	0.0165595
889.156	0.0164924
889.234	0.0165332
889.312	0.0165308
889.390	0.0164660
889.468	0.0164608
889.546	0.0166418
889.624	0.0165429
889.703	0.0165472
889.781	0.0166030
889.859	0.0165372
889.937	0.0165536
890.015	0.0164380
890.093	0.0167243
890.171	0.0166509
890.249	0.0166405
890.328	0.0166154
890.406	0.0164516
890.484	0.0164415
890.562	0.0164911
890.640	0.0165176
890.718	0.0164754
890.796	0.0163728
890.874	0.0163365
890.953	0.0164204
891.031	0.0162838
891.109	0.0162694
891.187	0.0162981
891.265	0.0162846
891.343	0.0164200
891.421	0.0163496
891.499	0.0163020
891.578	0.0164066
891.656	0.0164262
891.734	0.0164720
891.812	0.0165340
891.890	0.0165372
891.968	0.0165002
892.046	0.0165749
892.124	0.0166844
892.203	0.0166428
892.281	0.0167780
892.359	0.0168009
892.437	0.0167390
892.515	0.0167403
892.593	0.0167873
892.671	0.0168005
892.749	0.0168226
892.828	0.0167973
892.906	0.0168399
892.984	0.0167559
893.062	0.0166868
893.140	0.0165334
893.218	0.0165594
893.296	0.0165998
893.374	0.0166069
893.453	0.0164300
893.531	0.0164226
893.609	0.0163790
893.687	0.0163597
893.765	0.0163906
893.843	0.0163643
893.921	0.0164218
893.999	0.0166190
894.078	0.0165725
894.156	0.0165801
894.234	0.0165844
894.312	0.0165995
894.390	0.0165945
894.468	0.0165044
894.546	0.0165052
894.624	0.0165205
894.703	0.0163644
894.781	0.0163023
894.859	0.0163708
894.937	0.0163170
895.015	0.0162717
895.093	0.0161813
895.171	0.0162994
895.249	0.0163303
895.328	0.0162237
895.406	0.0163535
895.484	0.0164684
895.562	0.0163609
895.640	0.0161912
895.718	0.0163065
895.796	0.0162781
895.874	0.0164916
895.953	0.0163828
896.031	0.0165456
896.109	0.0165591
896.187	0.0166017
896.265	0.0164724
896.343	0.0166943
896.421	0.0167204
896.499	0.0166164
896.578	0.0167082
896.656	0.0165458
896.734	0.0166487
896.812	0.0167357
896.890	0.0166054
896.968	0.0166814
897.046	0.0165317
897.124	0.0165774
897.203	0.0166080
897.281	0.0165422
897.359	0.0164310
897.437	0.0164805
897.515	0.0163055
897.593	0.0164188
897.671	0.0163512
897.749	0.0163525
897.828	0.0163210
897.906	0.0164899
897.984	0.0164603
898.062	0.0164173
898.140	0.0165108
898.218	0.0164273
898.296	0.0165800
898.374	0.0164443
898.453	0.0164239
898.531	0.0165925
898.609	0.0166315
898.687	0.0164931
898.765	0.0164765
898.843	0.0165007
898.921	0.0165261
898.999	0.0164712
899.078	0.0164840
899.156	0.0165470
899.234	0.0165101
899.312	0.0164963
899.390	0.0164343
899.468	0.0164083
899.546	0.0164787
899.624	0.0163390
899.703	0.0162950
899.781	0.0164418
899.859	0.0164473
899.937	0.0163745
900.015	0.0163155
900.093	0.0164672
900.171	0.0163744
900.249	0.0162970
900.328	0.0163335
900.406	0.0164877
900.484	0.0164726
900.562	0.0163589
900.640	0.0165137
900.718	0.0164988
900.796	0.0164999
900.874	0.0164530
900.953	0.0164346
901.031	0.0164124
901.109	0.0162529
901.187	0.0163620
901.265	0.0164302
901.343	0.0163651
901.421	0.0162054
901.499	0.0163168
901.578	0.0161770
901.656	0.0162798
901.734	0.0162393
901.812	0.0162904
901.890	0.0164860
901.968	0.0164909
902.046	0.0164502
902.124	0.0164273
902.203	0.0165392
902.281	0.0164646
902.359	0.0163602
902.437	0.0165304
902.515	0.0163834
902.593	0.0164820
902.671	0.0165442
902.749	0.0164779
902.828	0.0165302
902.906	0.0165688
902.984	0.0164982
903.062	0.0165596
903.140	0.0165524
903.218	0.0165929
903.296	0.0165594
903.374	0.0164447
903.453	0.0165189
903.531	0.0165035
903.609	0.0165255
903.687	0.0163763
903.765	0.0165068
903.843	0.0164846
903.921	0.0165372
903.999	0.0165044
904.078	0.0164402
904.156	0.0165400
904.234	0.0165852
904.312	0.0163519
904.390	0.0164269
904.468	0.0165348
904.546	0.0164413
904.624	0.0166123
904.703	0.0164386
904.781	0.0164760
904.859	0.0165664
904.937	0.0164510
905.015	0.0164974
905.093	0.0164413
905.171	0.0164098
905.249	0.0166003
905.328	0.0165917
905.406	0.0163745
905.484	0.0163627
905.562	0.0164013
905.640	0.0164855
905.718	0.0164178
905.796	0.0163743
905.874	0.0164017
905.953	0.0163905
906.031	0.0164687
906.109	0.0164505
906.187	0.0164047
906.265	0.0163914
906.343	0.0163880
906.421	0.0163369
906.499	0.0163974
906.578	0.0164668
906.656	0.0165533
906.734	0.0166077
906.812	0.0165874
906.890	0.0164763
906.968	0.0163895
907.046	0.0165532
907.124	0.0165635
907.203	0.0166124
907.281	0.0165505
907.359	0.0164342
907.437	0.0165891
907.515	0.0164604
907.593	0.0164974
907.671	0.0164337
907.749	0.0163721
907.828	0.0164887
907.906	0.0164564
907.984	0.0164524
908.062	0.0164034
908.140	0.0163819
908.218	0.0163853
908.296	0.0163720
908.374	0.0163774
908.453	0.0163631
908.531	0.0163551
908.609	0.0163980
908.687	0.0164949
908.765	0.0164921
908.843	0.0165011
908.921	0.0164835
908.999	0.0164346
909.078	0.0165175
909.156	0.0166671
909.234	0.0164678
909.312	0.0166070
909.390	0.0165882
909.468	0.0164545
909.546	0.0166299
909.624	0.0165247
909.703	0.0165234
909.781	0.0165781
909.859	0.0165105
909.937	0.0166018
910.015	0.0165066
910.093	0.0165286
910.171	0.0165823
910.249	0.0164713
910.328	0.0164572
910.406	0.0164001
910.484	0.0164279
910.562	0.0165285
910.640	0.0165202
910.718	0.0165462
910.796	0.0166582
910.874	0.0165170
910.953	0.0164032
911.031	0.0165460
911.109	0.0165692
911.187	0.0164285
911.265	0.0164338
911.343	0.0166644
911.421	0.0167141
911.499	0.0164587
911.578	0.0164500
911.656	0.0165253
911.734	0.0165959
911.812	0.0166374
911.890	0.0167435
911.968	0.0165479
912.046	0.0165543
912.124	0.0165543
912.203	0.0164822
912.281	0.0164491
912.359	0.0165739
912.437	0.0164418
912.515	0.0164927
912.593	0.0164290
912.671	0.0163890
912.749	0.0164721
912.828	0.0164291
912.906	0.0164375
912.984	0.0164490
913.062	0.0163764
913.140	0.0163817
913.218	0.0164914
913.296	0.0163158
913.374	0.0163423
913.453	0.0163851
913.531	0.0163226
913.609	0.0162666
913.687	0.0163278
913.765	0.0164761
913.843	0.0163615
913.921	0.0163732
913.999	0.0163068
914.078	0.0165155
914.156	0.0164562
914.234	0.0162457
914.312	0.0164333
914.390	0.0165100
914.468	0.0164364
914.546	0.0164140
914.624	0.0163966
914.703	0.0165925
914.781	0.0165562
914.859	0.0164923
914.937	0.0164403
915.015	0.0165916
915.093	0.0165643
915.171	0.0165291
915.249	0.0165743
915.328	0.0165519
915.406	0.0165647
915.484	0.0165784
915.562	0.0165990
915.640	0.0165615
915.718	0.0163852
915.796	0.0166157
915.874	0.0166161
915.953	0.0166840
916.031	0.0167100
916.109	0.0165813
916.187	0.0166219
916.265	0.0166000
916.343	0.0165783
916.421	0.0165634
916.499	0.0165208
916.578	0.0164467
916.656	0.0165913
916.734	0.0165846
916.812	0.0166026
916.890	0.0166035
916.968	0.0164611
917.046	0.0166010
917.124	0.0166489
917.203	0.0165810
917.281	0.0165166
917.359	0.0166769
917.437	0.0166167
917.515	0.0164450
917.593	0.0166564
917.671	0.0165781
917.749	0.0165433
917.828	0.0165486
917.906	0.0164785
917.984	0.0164333
918.062	0.0163877
918.140	0.0164979
918.218	0.0163966
918.296	0.0163807
918.374	0.0163297
918.453	0.0163413
918.531	0.0162703
918.609	0.0163786
918.687	0.0163892
918.765	0.0164522
918.843	0.0163617
918.921	0.0164241
918.999	0.0165338
919.078	0.0163817
919.156	0.0163494
919.234	0.0165823
919.312	0.0165677
919.390	0.0164592
919.468	0.0165005
919.546	0.0165816
919.624	0.0164256
919.703	0.0163808
919.781	0.0163345
919.859	0.0165381
919.937	0.0164223
