06/10/2022	18:52:20	Ver.	4.1	UNKNOWN
Optical Delay	600.015094	Delta X		0.078125	Sweeps	1	Scan Rate	0/0
Coordinates	Axis 1	NaN	Axis 2	NaN	Axis 3	NaN	Axis 4	NaN	Axis 5	NaN	Axis 6	0.000000
TX Power	0.000000	RX Power	0.000000

600.015	0.0161803
600.093	0.0162702
600.171	0.0162309
600.249	0.0162365
600.328	0.0161642
600.406	0.0162880
600.484	0.0162674
600.562	0.0162744
600.640	0.0161864
600.718	0.0161664
600.796	0.0162520
600.874	0.0163448
600.953	0.0161921
601.031	0.0161560
601.109	0.0162218
601.187	0.0161942
601.265	0.0162004
601.343	0.0161864
601.421	0.0162879
601.499	0.0162132
601.578	0.0161321
601.656	0.0162157
601.734	0.0162422
601.812	0.0162822
601.890	0.0161313
601.968	0.0161344
602.046	0.0162432
602.124	0.0162953
602.203	0.0161440
602.281	0.0162314
602.359	0.0161845
602.437	0.0162408
602.515	0.0161503
602.593	0.0161965
602.671	0.0163744
602.749	0.0161177
602.828	0.0161978
602.906	0.0163781
602.984	0.0162080
603.062	0.0160966
603.140	0.0161852
603.218	0.0163283
603.296	0.0162352
603.374	0.0162421
603.453	0.0162894
603.531	0.0161964
603.609	0.0162556
603.687	0.0162263
603.765	0.0162740
603.843	0.0162653
603.921	0.0162166
603.999	0.0160964
604.078	0.0162653
604.156	0.0163628
604.234	0.0161275
604.312	0.0161796
604.390	0.0161800
604.468	0.0160602
604.546	0.0162500
604.624	0.0162381
604.703	0.0161339
604.781	0.0161558
604.859	0.0161817
604.937	0.0162849
605.015	0.0159879
605.093	0.0160669
605.171	0.0161926
605.249	0.0161983
605.328	0.0160831
605.406	0.0161224
605.484	0.0160616
605.562	0.0161659
605.640	0.0161073
605.718	0.0161729
605.796	0.0160932
605.874	0.0160789
605.953	0.0162197
606.031	0.0162065
606.109	0.0162064
606.187	0.0160351
606.265	0.0160564
606.343	0.0159914
606.421	0.0160806
606.499	0.0161502
606.578	0.0162766
606.656	0.0160719
606.734	0.0162392
606.812	0.0162206
606.890	0.0161422
606.968	0.0161580
607.046	0.0161467
607.124	0.0162588
607.203	0.0163795
607.281	0.0161353
607.359	0.0161485
607.437	0.0160185
607.515	0.0160888
607.593	0.0161017
607.671	0.0160811
607.749	0.0161298
607.828	0.0161162
607.906	0.0160827
607.984	0.0161227
608.062	0.0160907
608.140	0.0161219
608.218	0.0161915
608.296	0.0162341
608.374	0.0160934
608.453	0.0160645
608.531	0.0162519
608.609	0.0161401
608.687	0.0162740
608.765	0.0162350
608.843	0.0161597
608.921	0.0161961
608.999	0.0161134
609.078	0.0161482
609.156	0.0160851
609.234	0.0160947
609.312	0.0161047
609.390	0.0160753
609.468	0.0161561
609.546	0.0161297
609.624	0.0162132
609.703	0.0161238
609.781	0.0161565
609.859	0.0161038
609.937	0.0162133
610.015	0.0162005
610.093	0.0161537
610.171	0.0162622
610.249	0.0162313
610.328	0.0160762
610.406	0.0161966
610.484	0.0160837
610.562	0.0159784
610.640	0.0160895
610.718	0.0162096
610.796	0.0162658
610.874	0.0161913
610.953	0.0160910
611.031	0.0161053
611.109	0.0161963
611.187	0.0161295
611.265	0.0161845
611.343	0.0160946
611.421	0.0161349
611.499	0.0160931
611.578	0.0161478
611.656	0.0160619
611.734	0.0162484
611.812	0.0161517
611.890	0.0160780
611.968	0.0161576
612.046	0.0161459
612.124	0.0161021
612.203	0.0161568
612.281	0.0161353
612.359	0.0162195
612.437	0.0161021
612.515	0.0160487
612.593	0.0161607
612.671	0.0162062
612.749	0.0161742
612.828	0.0161626
612.906	0.0161304
612.984	0.0161285
613.062	0.0162292
613.140	0.0162708
613.218	0.0161846
613.296	0.0161625
613.374	0.0161588
613.453	0.0161808
613.531	0.0161362
613.609	0.0159981
613.687	0.0160605
613.765	0.0160643
613.843	0.0161208
613.921	0.0160004
613.999	0.0161387
614.078	0.0161787
614.156	0.0161048
614.234	0.0161607
614.312	0.0161496
614.390	0.0160937
614.468	0.0161906
614.546	0.0161764
614.624	0.0162044
614.703	0.0161596
614.781	0.0161551
614.859	0.0159929
614.937	0.0161390
615.015	0.0161471
615.093	0.0161191
615.171	0.0162520
615.249	0.0160191
615.328	0.0162251
615.406	0.0161443
615.484	0.0161399
615.562	0.0162648
615.640	0.0161577
615.718	0.0161835
615.796	0.0161428
615.874	0.0161689
615.953	0.0162159
616.031	0.0162412
616.109	0.0161246
616.187	0.0162389
616.265	0.0162521
616.343	0.0160989
616.421	0.0161627
616.499	0.0162549
616.578	0.0162841
616.656	0.0161985
616.734	0.0161848
616.812	0.0161553
616.890	0.0161697
616.968	0.0162126
617.046	0.0160748
617.124	0.0160619
617.203	0.0160966
617.281	0.0161987
617.359	0.0161123
617.437	0.0162170
617.515	0.0159595
617.593	0.0161406
617.671	0.0161709
617.749	0.0161665
617.828	0.0161160
617.906	0.0158824
617.984	0.0161224
618.062	0.0161292
618.140	0.0160098
618.218	0.0160634
618.296	0.0161457
618.374	0.0161171
618.453	0.0160184
618.531	0.0161566
618.609	0.0162441
618.687	0.0160590
618.765	0.0160037
618.843	0.0161482
618.921	0.0162147
618.999	0.0160488
619.078	0.0161224
619.156	0.0161403
619.234	0.0160577
619.312	0.0162062
619.390	0.0162601
619.468	0.0162608
619.546	0.0160529
619.624	0.0160135
619.703	0.0161221
619.781	0.0162065
619.859	0.0162119
619.937	0.0161912
620.015	0.0161826
620.093	0.0161345
620.171	0.0160361
620.249	0.0161131
620.328	0.0162506
620.406	0.0161049
620.484	0.0162014
620.562	0.0161226
620.640	0.0160572
620.718	0.0162071
620.796	0.0162451
620.874	0.0161806
620.953	0.0161256
621.031	0.0161723
621.109	0.0160033
621.187	0.0161829
621.265	0.0161124
621.343	0.0161877
621.421	0.0161180
621.499	0.0161012
621.578	0.0162180
621.656	0.0161369
621.734	0.0161662
621.812	0.0161112
621.890	0.0161143
621.968	0.0160572
622.046	0.0163198
622.124	0.0162202
622.203	0.0162054
622.281	0.0161765
622.359	0.0160962
622.437	0.0161864
622.515	0.0162289
622.593	0.0161266
622.671	0.0160407
622.749	0.0161318
622.828	0.0162450
622.906	0.0161732
622.984	0.0161823
623.062	0.0160500
623.140	0.0161867
623.218	0.0161604
623.296	0.0160674
623.374	0.0161173
623.453	0.0160645
623.531	0.0162545
623.609	0.0162389
623.687	0.0162418
623.765	0.0161107
623.843	0.0162189
623.921	0.0162341
623.999	0.0159945
624.078	0.0161088
624.156	0.0161939
624.234	0.0161575
624.312	0.0161029
624.390	0.0161462
624.468	0.0161658
624.546	0.0162486
624.624	0.0160860
624.703	0.0161311
624.781	0.0161958
624.859	0.0161741
624.937	0.0162325
625.015	0.0162090
625.093	0.0160926
625.171	0.0161980
625.249	0.0161662
625.328	0.0162200
625.406	0.0160148
625.484	0.0162270
625.562	0.0162233
625.640	0.0162546
625.718	0.0162872
625.796	0.0160670
625.874	0.0160666
625.953	0.0161196
626.031	0.0161272
626.109	0.0161456
626.187	0.0161523
626.265	0.0161710
626.343	0.0161259
626.421	0.0162875
626.499	0.0162623
626.578	0.0161647
626.656	0.0160662
626.734	0.0161952
626.812	0.0161320
626.890	0.0161302
626.968	0.0161620
627.046	0.0160686
627.124	0.0161318
627.203	0.0162998
627.281	0.0161691
627.359	0.0161462
627.437	0.0162265
627.515	0.0161843
627.593	0.0160551
627.671	0.0160872
627.749	0.0161971
627.828	0.0160771
627.906	0.0161655
627.984	0.0161865
628.062	0.0161716
628.140	0.0161338
628.218	0.0162440
628.296	0.0161783
628.374	0.0161732
628.453	0.0161139
628.531	0.0161618
628.609	0.0162749
628.687	0.0161006
628.765	0.0160761
628.843	0.0163456
628.921	0.0162358
628.999	0.0159900
629.078	0.0160995
629.156	0.0162471
629.234	0.0161767
629.312	0.0162281
629.390	0.0160956
629.468	0.0162056
629.546	0.0161861
629.624	0.0162177
629.703	0.0162085
629.781	0.0161646
629.859	0.0161088
629.937	0.0161255
630.015	0.0161773
630.093	0.0161015
630.171	0.0161290
630.249	0.0160159
630.328	0.0159955
630.406	0.0162308
630.484	0.0160306
630.562	0.0161665
630.640	0.0160702
630.718	0.0161977
630.796	0.0161603
630.874	0.0161116
630.953	0.0161092
631.031	0.0162032
631.109	0.0162544
631.187	0.0160680
631.265	0.0161699
631.343	0.0161189
631.421	0.0161093
631.499	0.0162291
631.578	0.0161046
631.656	0.0160880
631.734	0.0161575
631.812	0.0161073
631.890	0.0161964
631.968	0.0161839
632.046	0.0161452
632.124	0.0161736
632.203	0.0161505
632.281	0.0160005
632.359	0.0162057
632.437	0.0160559
632.515	0.0162122
632.593	0.0160860
632.671	0.0161309
632.749	0.0162215
632.828	0.0160126
632.906	0.0161888
632.984	0.0161032
633.062	0.0162218
633.140	0.0162493
633.218	0.0161915
633.296	0.0160378
633.374	0.0161239
633.453	0.0161695
633.531	0.0162339
633.609	0.0160503
633.687	0.0161335
633.765	0.0160297
633.843	0.0161116
633.921	0.0161430
633.999	0.0160801
634.078	0.0161390
634.156	0.0162800
634.234	0.0161845
634.312	0.0161021
634.390	0.0162295
634.468	0.0161744
634.546	0.0162032
634.624	0.0161569
634.703	0.0161331
634.781	0.0162871
634.859	0.0162637
634.937	0.0161826
635.015	0.0161966
635.093	0.0162601
635.171	0.0162455
635.249	0.0161262
635.328	0.0161577
635.406	0.0161016
635.484	0.0161324
635.562	0.0160844
635.640	0.0160228
635.718	0.0161598
635.796	0.0160313
635.874	0.0162692
635.953	0.0161292
636.031	0.0161380
636.109	0.0162002
636.187	0.0160740
636.265	0.0161214
636.343	0.0161376
636.421	0.0161643
636.499	0.0162936
636.578	0.0160944
636.656	0.0162270
636.734	0.0162105
636.812	0.0162148
636.890	0.0161414
636.968	0.0162418
637.046	0.0161970
637.124	0.0161044
637.203	0.0162440
637.281	0.0160717
637.359	0.0161183
637.437	0.0161830
637.515	0.0161013
637.593	0.0162097
637.671	0.0161523
637.749	0.0161301
637.828	0.0162486
637.906	0.0161140
637.984	0.0160410
638.062	0.0161357
638.140	0.0162103
638.218	0.0162979
638.296	0.0162312
638.374	0.0161258
638.453	0.0161337
638.531	0.0161899
638.609	0.0162595
638.687	0.0161486
638.765	0.0162639
638.843	0.0162116
638.921	0.0161453
638.999	0.0161752
639.078	0.0161681
639.156	0.0162442
639.234	0.0161938
639.312	0.0161356
639.390	0.0162422
639.468	0.0160870
639.546	0.0161584
639.624	0.0161517
639.703	0.0162277
639.781	0.0161582
639.859	0.0161846
639.937	0.0161201
640.015	0.0163229
640.093	0.0162778
640.171	0.0161362
640.249	0.0161478
640.328	0.0161472
640.406	0.0161472
640.484	0.0162748
640.562	0.0161620
640.640	0.0161330
640.718	0.0161185
640.796	0.0160753
640.874	0.0160496
640.953	0.0161297
641.031	0.0161084
641.109	0.0162309
641.187	0.0161944
641.265	0.0160507
641.343	0.0160567
641.421	0.0160381
641.499	0.0160941
641.578	0.0162774
641.656	0.0162383
641.734	0.0161677
641.812	0.0162278
641.890	0.0160139
641.968	0.0161337
642.046	0.0160217
642.124	0.0162350
642.203	0.0160029
642.281	0.0161501
642.359	0.0160348
642.437	0.0161404
642.515	0.0161541
642.593	0.0161298
642.671	0.0161161
642.749	0.0161760
642.828	0.0162256
642.906	0.0160710
642.984	0.0160572
643.062	0.0162543
643.140	0.0161324
643.218	0.0160789
643.296	0.0162121
643.374	0.0161592
643.453	0.0162417
643.531	0.0161013
643.609	0.0162118
643.687	0.0162460
643.765	0.0161843
643.843	0.0161620
643.921	0.0163412
643.999	0.0161408
644.078	0.0161184
644.156	0.0160543
644.234	0.0161780
644.312	0.0162543
644.390	0.0161880
644.468	0.0161742
644.546	0.0163152
644.624	0.0160412
644.703	0.0160601
644.781	0.0162217
644.859	0.0161364
644.937	0.0161137
645.015	0.0160811
645.093	0.0160560
645.171	0.0161913
645.249	0.0162412
645.328	0.0163020
645.406	0.0160448
645.484	0.0160494
645.562	0.0161939
645.640	0.0161317
645.718	0.0161803
645.796	0.0161644
645.874	0.0161693
645.953	0.0162115
646.031	0.0162212
646.109	0.0160863
646.187	0.0162198
646.265	0.0161134
646.343	0.0161681
646.421	0.0161232
646.499	0.0161049
646.578	0.0162057
646.656	0.0162071
646.734	0.0160133
646.812	0.0161658
646.890	0.0161090
646.968	0.0161377
647.046	0.0160262
647.124	0.0161115
647.203	0.0160792
647.281	0.0162145
647.359	0.0161646
647.437	0.0162176
647.515	0.0163325
647.593	0.0163145
647.671	0.0162643
647.749	0.0161697
647.828	0.0161555
647.906	0.0162193
647.984	0.0160689
648.062	0.0160754
648.140	0.0161501
648.218	0.0162444
648.296	0.0161626
648.374	0.0162339
648.453	0.0163154
648.531	0.0161632
648.609	0.0161877
648.687	0.0162537
648.765	0.0162527
648.843	0.0161635
648.921	0.0163533
648.999	0.0160340
649.078	0.0160644
649.156	0.0160806
649.234	0.0162051
649.312	0.0162837
649.390	0.0160662
649.468	0.0160555
649.546	0.0163631
649.624	0.0163603
649.703	0.0162366
649.781	0.0162006
649.859	0.0161201
649.937	0.0162118
650.015	0.0162247
650.093	0.0161672
650.171	0.0161446
650.249	0.0162703
650.328	0.0161869
650.406	0.0161052
650.484	0.0162239
650.562	0.0161748
650.640	0.0160876
650.718	0.0161528
650.796	0.0163473
650.874	0.0161034
650.953	0.0160942
651.031	0.0160940
651.109	0.0162733
651.187	0.0163367
651.265	0.0161581
651.343	0.0161338
651.421	0.0160880
651.499	0.0161760
651.578	0.0161411
651.656	0.0161291
651.734	0.0160397
651.812	0.0161859
651.890	0.0161662
651.968	0.0162402
652.046	0.0160836
652.124	0.0161751
652.203	0.0162167
652.281	0.0162098
652.359	0.0161402
652.437	0.0161413
652.515	0.0162244
652.593	0.0161895
652.671	0.0161603
652.749	0.0162626
652.828	0.0160976
652.906	0.0160927
652.984	0.0161288
653.062	0.0163020
653.140	0.0162309
653.218	0.0161520
653.296	0.0162228
653.374	0.0162724
653.453	0.0161330
653.531	0.0161269
653.609	0.0163156
653.687	0.0163268
653.765	0.0162395
653.843	0.0161694
653.921	0.0161848
653.999	0.0162794
654.078	0.0161242
654.156	0.0161283
654.234	0.0162450
654.312	0.0161739
654.390	0.0161131
654.468	0.0161147
654.546	0.0162493
654.624	0.0161973
654.703	0.0162722
654.781	0.0162226
654.859	0.0161452
654.937	0.0162637
655.015	0.0161450
655.093	0.0162988
655.171	0.0162307
655.249	0.0161031
655.328	0.0161953
655.406	0.0162458
655.484	0.0163334
655.562	0.0162309
655.640	0.0160907
655.718	0.0162505
655.796	0.0162742
655.874	0.0162055
655.953	0.0162628
656.031	0.0162128
656.109	0.0161250
656.187	0.0159997
656.265	0.0160575
656.343	0.0162045
656.421	0.0161927
656.499	0.0162475
656.578	0.0161284
656.656	0.0162456
656.734	0.0162035
656.812	0.0161645
656.890	0.0162034
656.968	0.0163086
657.046	0.0162070
657.124	0.0161316
657.203	0.0161546
657.281	0.0161726
657.359	0.0162103
657.437	0.0161948
657.515	0.0161686
657.593	0.0161553
657.671	0.0159803
657.749	0.0162062
657.828	0.0162152
657.906	0.0163268
657.984	0.0161568
658.062	0.0161067
658.140	0.0161878
658.218	0.0160628
658.296	0.0161375
658.374	0.0163228
658.453	0.0161164
658.531	0.0161261
658.609	0.0162059
658.687	0.0161237
658.765	0.0162756
658.843	0.0162377
658.921	0.0161784
658.999	0.0162611
659.078	0.0161794
659.156	0.0161613
659.234	0.0161593
659.312	0.0161930
659.390	0.0162006
659.468	0.0161764
659.546	0.0160830
659.624	0.0160135
659.703	0.0160980
659.781	0.0163860
659.859	0.0161066
659.937	0.0160202
660.015	0.0161643
660.093	0.0162668
660.171	0.0160771
660.249	0.0160993
660.328	0.0161142
660.406	0.0161864
660.484	0.0161133
660.562	0.0162772
660.640	0.0162421
660.718	0.0160835
660.796	0.0162745
660.874	0.0161552
660.953	0.0161768
661.031	0.0162419
661.109	0.0161758
661.187	0.0160885
661.265	0.0160403
661.343	0.0161355
661.421	0.0162513
661.499	0.0159505
661.578	0.0159870
661.656	0.0161648
661.734	0.0163431
661.812	0.0162481
661.890	0.0162341
661.968	0.0161467
662.046	0.0161313
662.124	0.0162472
662.203	0.0162303
662.281	0.0162080
662.359	0.0161664
662.437	0.0162672
662.515	0.0161378
662.593	0.0160709
662.671	0.0162202
662.749	0.0162168
662.828	0.0161784
662.906	0.0160905
662.984	0.0160828
663.062	0.0162374
663.140	0.0161956
663.218	0.0161465
663.296	0.0160358
663.374	0.0161402
663.453	0.0162348
663.531	0.0161816
663.609	0.0161230
663.687	0.0160749
663.765	0.0162047
663.843	0.0162951
663.921	0.0161526
663.999	0.0161066
664.078	0.0160753
664.156	0.0161924
664.234	0.0162677
664.312	0.0159899
664.390	0.0162566
664.468	0.0162008
664.546	0.0161020
664.624	0.0161789
664.703	0.0161971
664.781	0.0161382
664.859	0.0160220
664.937	0.0162114
665.015	0.0161997
665.093	0.0162348
665.171	0.0162437
665.249	0.0161485
665.328	0.0162409
665.406	0.0162589
665.484	0.0161856
665.562	0.0162067
665.640	0.0161562
665.718	0.0161230
665.796	0.0161166
665.874	0.0162252
665.953	0.0163183
666.031	0.0161516
666.109	0.0161993
666.187	0.0161548
666.265	0.0161332
666.343	0.0160864
666.421	0.0162508
666.499	0.0162789
666.578	0.0162521
666.656	0.0161353
666.734	0.0162128
666.812	0.0161082
666.890	0.0162701
666.968	0.0162675
667.046	0.0160757
667.124	0.0162520
667.203	0.0162602
667.281	0.0161795
667.359	0.0161840
667.437	0.0162409
667.515	0.0161550
667.593	0.0161223
667.671	0.0160603
667.749	0.0160640
667.828	0.0162749
667.906	0.0161738
667.984	0.0161093
668.062	0.0161808
668.140	0.0161277
668.218	0.0159978
668.296	0.0161283
668.374	0.0161953
668.453	0.0162498
668.531	0.0163007
668.609	0.0162391
668.687	0.0161742
668.765	0.0161842
668.843	0.0161389
668.921	0.0161676
668.999	0.0161291
669.078	0.0162727
669.156	0.0163177
669.234	0.0161788
669.312	0.0162797
669.390	0.0163109
669.468	0.0161436
669.546	0.0162967
669.624	0.0161845
669.703	0.0162509
669.781	0.0162234
669.859	0.0163036
669.937	0.0163969
670.015	0.0162627
670.093	0.0162517
670.171	0.0164037
670.249	0.0162797
670.328	0.0161421
670.406	0.0163032
670.484	0.0162702
670.562	0.0161698
670.640	0.0161362
670.718	0.0161935
670.796	0.0163175
670.874	0.0162462
670.953	0.0162570
671.031	0.0162510
671.109	0.0162434
671.187	0.0162738
671.265	0.0163226
671.343	0.0162681
671.421	0.0162577
671.499	0.0162234
671.578	0.0161456
671.656	0.0162934
671.734	0.0162541
671.812	0.0161900
671.890	0.0162508
671.968	0.0162480
672.046	0.0162863
672.124	0.0160921
672.203	0.0162402
672.281	0.0161640
672.359	0.0162667
672.437	0.0162605
672.515	0.0162121
672.593	0.0162222
672.671	0.0162226
672.749	0.0161708
672.828	0.0162281
672.906	0.0162109
672.984	0.0161718
673.062	0.0161388
673.140	0.0161541
673.218	0.0161697
673.296	0.0161192
673.374	0.0163037
673.453	0.0162025
673.531	0.0161363
673.609	0.0162968
673.687	0.0161590
673.765	0.0161930
673.843	0.0162682
673.921	0.0161546
673.999	0.0162840
674.078	0.0162434
674.156	0.0162345
674.234	0.0161623
674.312	0.0161811
674.390	0.0160831
674.468	0.0160821
674.546	0.0163711
674.624	0.0161674
674.703	0.0162139
674.781	0.0161173
674.859	0.0162394
674.937	0.0163242
675.015	0.0162556
675.093	0.0161800
675.171	0.0162889
675.249	0.0161963
675.328	0.0162444
675.406	0.0161901
675.484	0.0162106
675.562	0.0163233
675.640	0.0162757
675.718	0.0160957
675.796	0.0161427
675.874	0.0161422
675.953	0.0161169
676.031	0.0162982
676.109	0.0161137
676.187	0.0161760
676.265	0.0163099
676.343	0.0163038
676.421	0.0162135
676.499	0.0162808
676.578	0.0162415
676.656	0.0162450
676.734	0.0161779
676.812	0.0161676
676.890	0.0161709
676.968	0.0161072
677.046	0.0162408
677.124	0.0163667
677.203	0.0162237
677.281	0.0161046
677.359	0.0161327
677.437	0.0161885
677.515	0.0161532
677.593	0.0161019
677.671	0.0162096
677.749	0.0162525
677.828	0.0161710
677.906	0.0161881
677.984	0.0161533
678.062	0.0161991
678.140	0.0160581
678.218	0.0161142
678.296	0.0162041
678.374	0.0162463
678.453	0.0162590
678.531	0.0160773
678.609	0.0160661
678.687	0.0162575
678.765	0.0161926
678.843	0.0161156
678.921	0.0161962
678.999	0.0160789
679.078	0.0162691
679.156	0.0161877
679.234	0.0160745
679.312	0.0162312
679.390	0.0162068
679.468	0.0161855
679.546	0.0160109
679.624	0.0161644
679.703	0.0162807
679.781	0.0162502
679.859	0.0161198
679.937	0.0161285
680.015	0.0162157
680.093	0.0161898
680.171	0.0161688
680.249	0.0162609
680.328	0.0161400
680.406	0.0160946
680.484	0.0160959
680.562	0.0162120
680.640	0.0161206
680.718	0.0162070
680.796	0.0161765
680.874	0.0161308
680.953	0.0160757
681.031	0.0161061
681.109	0.0161031
681.187	0.0162374
681.265	0.0161839
681.343	0.0161823
681.421	0.0163467
681.499	0.0162325
681.578	0.0162177
681.656	0.0162694
681.734	0.0161910
681.812	0.0162905
681.890	0.0161316
681.968	0.0161752
682.046	0.0161609
682.124	0.0162613
682.203	0.0161897
682.281	0.0162141
682.359	0.0161757
682.437	0.0161307
682.515	0.0161671
682.593	0.0160838
682.671	0.0160762
682.749	0.0162003
682.828	0.0162699
682.906	0.0161774
682.984	0.0160604
683.062	0.0160622
683.140	0.0161385
683.218	0.0162139
683.296	0.0163492
683.374	0.0162608
683.453	0.0162228
683.531	0.0160677
683.609	0.0161601
683.687	0.0160239
683.765	0.0162704
683.843	0.0162083
683.921	0.0160468
683.999	0.0160743
684.078	0.0160987
684.156	0.0161880
684.234	0.0161119
684.312	0.0160331
684.390	0.0160487
684.468	0.0161296
684.546	0.0162063
684.624	0.0161502
684.703	0.0161974
684.781	0.0159686
684.859	0.0161954
684.937	0.0163217
685.015	0.0162142
685.093	0.0162153
685.171	0.0160764
685.249	0.0162507
685.328	0.0160327
685.406	0.0161898
685.484	0.0162312
685.562	0.0159959
685.640	0.0161814
685.718	0.0161612
685.796	0.0161971
685.874	0.0162018
685.953	0.0162923
686.031	0.0162573
686.109	0.0162732
686.187	0.0161965
686.265	0.0162511
686.343	0.0160799
686.421	0.0161626
686.499	0.0160960
686.578	0.0161217
686.656	0.0161033
686.734	0.0159828
686.812	0.0162092
686.890	0.0162000
686.968	0.0162123
687.046	0.0161387
687.124	0.0160248
687.203	0.0161626
687.281	0.0161678
687.359	0.0161015
687.437	0.0161908
687.515	0.0161024
687.593	0.0160807
687.671	0.0162086
687.749	0.0161987
687.828	0.0160720
687.906	0.0161098
687.984	0.0161691
688.062	0.0160576
688.140	0.0163473
688.218	0.0162011
688.296	0.0163089
688.374	0.0161768
688.453	0.0161258
688.531	0.0161415
688.609	0.0163029
688.687	0.0161094
688.765	0.0162086
688.843	0.0161887
688.921	0.0162617
688.999	0.0161962
689.078	0.0162008
689.156	0.0161927
689.234	0.0160500
689.312	0.0160345
689.390	0.0161826
689.468	0.0161793
689.546	0.0161904
689.624	0.0161513
689.703	0.0161666
689.781	0.0163007
689.859	0.0160916
689.937	0.0162057
690.015	0.0162363
690.093	0.0161399
690.171	0.0161469
690.249	0.0161900
690.328	0.0161024
690.406	0.0161331
690.484	0.0161477
690.562	0.0162119
690.640	0.0161019
690.718	0.0163191
690.796	0.0161418
690.874	0.0160845
690.953	0.0161336
691.031	0.0160789
691.109	0.0160857
691.187	0.0161185
691.265	0.0161800
691.343	0.0162566
691.421	0.0162246
691.499	0.0162039
691.578	0.0160712
691.656	0.0161723
691.734	0.0161047
691.812	0.0161572
691.890	0.0160704
691.968	0.0160242
692.046	0.0162356
692.124	0.0161843
692.203	0.0161069
692.281	0.0160088
692.359	0.0161433
692.437	0.0161497
692.515	0.0161415
692.593	0.0161049
692.671	0.0163425
692.749	0.0162508
692.828	0.0161452
692.906	0.0161273
692.984	0.0162534
693.062	0.0162073
693.140	0.0160653
693.218	0.0162264
693.296	0.0161312
693.374	0.0161372
693.453	0.0161037
693.531	0.0161847
693.609	0.0161624
693.687	0.0162171
693.765	0.0162665
693.843	0.0162463
693.921	0.0161884
693.999	0.0161542
694.078	0.0161766
694.156	0.0161593
694.234	0.0160307
694.312	0.0161936
694.390	0.0161924
694.468	0.0161239
694.546	0.0162201
694.624	0.0162208
694.703	0.0160874
694.781	0.0161410
694.859	0.0161719
694.937	0.0162643
695.015	0.0162708
695.093	0.0162601
695.171	0.0161298
695.249	0.0161803
695.328	0.0161122
695.406	0.0162887
695.484	0.0162424
695.562	0.0162152
695.640	0.0161695
695.718	0.0161090
695.796	0.0161185
695.874	0.0161853
695.953	0.0161156
696.031	0.0162440
696.109	0.0162530
696.187	0.0161600
696.265	0.0161160
696.343	0.0162331
696.421	0.0162334
696.499	0.0159824
696.578	0.0160477
696.656	0.0162269
696.734	0.0160690
696.812	0.0161362
696.890	0.0160860
696.968	0.0161581
697.046	0.0162103
697.124	0.0161058
697.203	0.0162431
697.281	0.0160094
697.359	0.0160678
697.437	0.0161582
697.515	0.0161800
697.593	0.0162964
697.671	0.0162288
697.749	0.0162894
697.828	0.0161407
697.906	0.0160729
697.984	0.0162669
698.062	0.0162315
698.140	0.0161894
698.218	0.0161099
698.296	0.0162181
698.374	0.0162109
698.453	0.0162831
698.531	0.0161021
698.609	0.0160587
698.687	0.0162965
698.765	0.0161257
698.843	0.0161008
698.921	0.0161264
698.999	0.0161554
699.078	0.0161546
699.156	0.0161449
699.234	0.0161974
699.312	0.0160657
699.390	0.0160256
699.468	0.0159888
699.546	0.0161547
699.624	0.0161945
699.703	0.0161192
699.781	0.0162411
699.859	0.0161414
699.937	0.0161802
700.015	0.0162862
700.093	0.0162093
700.171	0.0160386
700.249	0.0161143
700.328	0.0161892
700.406	0.0161034
700.484	0.0161179
700.562	0.0160559
700.640	0.0162144
700.718	0.0161217
700.796	0.0161133
700.874	0.0161178
700.953	0.0162065
701.031	0.0161974
701.109	0.0162132
701.187	0.0162551
701.265	0.0162261
701.343	0.0163018
701.421	0.0160888
701.499	0.0160549
701.578	0.0163329
701.656	0.0161761
701.734	0.0161882
701.812	0.0163310
701.890	0.0162814
701.968	0.0160790
702.046	0.0161551
702.124	0.0161990
702.203	0.0161867
702.281	0.0162141
702.359	0.0162026
702.437	0.0162801
702.515	0.0161391
702.593	0.0162286
702.671	0.0161391
702.749	0.0161241
702.828	0.0161945
702.906	0.0161819
702.984	0.0163026
703.062	0.0163425
703.140	0.0161318
703.218	0.0163503
703.296	0.0160942
703.374	0.0162773
703.453	0.0160849
703.531	0.0163331
703.609	0.0163660
703.687	0.0161645
703.765	0.0161909
703.843	0.0161853
703.921	0.0161742
703.999	0.0161817
704.078	0.0160932
704.156	0.0161826
704.234	0.0160895
704.312	0.0162045
704.390	0.0161834
704.468	0.0160896
704.546	0.0160360
704.624	0.0161401
704.703	0.0162054
704.781	0.0161863
704.859	0.0161091
704.937	0.0161781
705.015	0.0162502
705.093	0.0162133
705.171	0.0161295
705.249	0.0161652
705.328	0.0163422
705.406	0.0162070
705.484	0.0161293
705.562	0.0161023
705.640	0.0161250
705.718	0.0162455
705.796	0.0160859
705.874	0.0162409
705.953	0.0161646
706.031	0.0162291
706.109	0.0161211
706.187	0.0162022
706.265	0.0162771
706.343	0.0163016
706.421	0.0162675
706.499	0.0163711
706.578	0.0163411
706.656	0.0162402
706.734	0.0163431
706.812	0.0161985
706.890	0.0162304
706.968	0.0163279
707.046	0.0164111
707.124	0.0163715
707.203	0.0161396
707.281	0.0162005
707.359	0.0161887
707.437	0.0162893
707.515	0.0161946
707.593	0.0160480
707.671	0.0161258
707.749	0.0161091
707.828	0.0162577
707.906	0.0159030
707.984	0.0159199
708.062	0.0159917
708.140	0.0159875
708.218	0.0160084
708.296	0.0159898
708.374	0.0160983
708.453	0.0160753
708.531	0.0159051
708.609	0.0159956
708.687	0.0160130
708.765	0.0160107
708.843	0.0159416
708.921	0.0160439
708.999	0.0160866
709.078	0.0161150
709.156	0.0162033
709.234	0.0161456
709.312	0.0163367
709.390	0.0161220
709.468	0.0162933
709.546	0.0162342
709.624	0.0163905
709.703	0.0163636
709.781	0.0163353
709.859	0.0162725
709.937	0.0161050
710.015	0.0163780
710.093	0.0163770
710.171	0.0162496
710.249	0.0160523
710.328	0.0162000
710.406	0.0163765
710.484	0.0161616
710.562	0.0161692
710.640	0.0163091
710.718	0.0162581
710.796	0.0161685
710.874	0.0161089
710.953	0.0161610
711.031	0.0159874
711.109	0.0162651
711.187	0.0161066
711.265	0.0160329
711.343	0.0161546
711.421	0.0160180
711.499	0.0160755
711.578	0.0159290
711.656	0.0158926
711.734	0.0160001
711.812	0.0161170
711.890	0.0160410
711.968	0.0160001
712.046	0.0160230
712.124	0.0159151
712.203	0.0160656
712.281	0.0160159
712.359	0.0159082
712.437	0.0159657
712.515	0.0160560
712.593	0.0160539
712.671	0.0160439
712.749	0.0159650
712.828	0.0158690
712.906	0.0161008
712.984	0.0160892
713.062	0.0161002
713.140	0.0161623
713.218	0.0161539
713.296	0.0161253
713.374	0.0160693
713.453	0.0161974
713.531	0.0162950
713.609	0.0161787
713.687	0.0161392
713.765	0.0162408
713.843	0.0163977
713.921	0.0162979
713.999	0.0162795
714.078	0.0164143
714.156	0.0162418
714.234	0.0162737
714.312	0.0163972
714.390	0.0162395
714.468	0.0161779
714.546	0.0162996
714.624	0.0162571
714.703	0.0161879
714.781	0.0161613
714.859	0.0160386
714.937	0.0160217
715.015	0.0160921
715.093	0.0159180
715.171	0.0160370
715.249	0.0160708
715.328	0.0159975
715.406	0.0159104
715.484	0.0157849
715.562	0.0160301
715.640	0.0160246
715.718	0.0159666
715.796	0.0159543
715.874	0.0159686
715.953	0.0160472
716.031	0.0160303
716.109	0.0160307
716.187	0.0161538
716.265	0.0159610
716.343	0.0161020
716.421	0.0159916
716.499	0.0160022
716.578	0.0162257
716.656	0.0160279
716.734	0.0161409
716.812	0.0159461
716.890	0.0161926
716.968	0.0161858
717.046	0.0160981
717.124	0.0160905
717.203	0.0160856
717.281	0.0161078
717.359	0.0162067
717.437	0.0161237
717.515	0.0162485
717.593	0.0160156
717.671	0.0161421
717.749	0.0163095
717.828	0.0160770
717.906	0.0163924
717.984	0.0162386
718.062	0.0162037
718.140	0.0162685
718.218	0.0162375
718.296	0.0162595
718.374	0.0162630
718.453	0.0161024
718.531	0.0162366
718.609	0.0162016
718.687	0.0161586
718.765	0.0159721
718.843	0.0160830
718.921	0.0161412
718.999	0.0159338
719.078	0.0161813
719.156	0.0161214
719.234	0.0159998
719.312	0.0160801
719.390	0.0159803
719.468	0.0159505
719.546	0.0159933
719.624	0.0160088
719.703	0.0159587
719.781	0.0161234
719.859	0.0160848
719.937	0.0159605
720.015	0.0160770
720.093	0.0161105
720.171	0.0160448
720.249	0.0160474
720.328	0.0161312
720.406	0.0160666
720.484	0.0162272
720.562	0.0161009
720.640	0.0161121
720.718	0.0160663
720.796	0.0159579
720.874	0.0161137
720.953	0.0160481
721.031	0.0161396
721.109	0.0160583
721.187	0.0160443
721.265	0.0161768
721.343	0.0160933
721.421	0.0161210
721.499	0.0161111
721.578	0.0161101
721.656	0.0161670
721.734	0.0161939
721.812	0.0162160
721.890	0.0161617
721.968	0.0160971
722.046	0.0163631
722.124	0.0163445
722.203	0.0161984
722.281	0.0161301
722.359	0.0161369
722.437	0.0163007
722.515	0.0161855
722.593	0.0159956
722.671	0.0160706
722.749	0.0161234
722.828	0.0161047
722.906	0.0160488
722.984	0.0161618
723.062	0.0161382
723.140	0.0160639
723.218	0.0160806
723.296	0.0160535
723.374	0.0160448
723.453	0.0160071
723.531	0.0160927
723.609	0.0160781
723.687	0.0159437
723.765	0.0160180
723.843	0.0160063
723.921	0.0159084
723.999	0.0159083
724.078	0.0160358
724.156	0.0158842
724.234	0.0159346
724.312	0.0159329
724.390	0.0160008
724.468	0.0161300
724.546	0.0160179
724.624	0.0160255
724.703	0.0162955
724.781	0.0162345
724.859	0.0162737
724.937	0.0163686
725.015	0.0164558
725.093	0.0163751
725.171	0.0164848
725.249	0.0165608
725.328	0.0165517
725.406	0.0165269
725.484	0.0163187
725.562	0.0163440
725.640	0.0162501
725.718	0.0161722
725.796	0.0161448
725.874	0.0161895
725.953	0.0159470
726.031	0.0160625
726.109	0.0158824
726.187	0.0158450
726.265	0.0158881
726.343	0.0158474
726.421	0.0158669
726.499	0.0157984
726.578	0.0158862
726.656	0.0159525
726.734	0.0161344
726.812	0.0161810
726.890	0.0160995
726.968	0.0161825
727.046	0.0161485
727.124	0.0162004
727.203	0.0163960
727.281	0.0163580
727.359	0.0165170
727.437	0.0164330
727.515	0.0165066
727.593	0.0163615
727.671	0.0163574
727.749	0.0163902
727.828	0.0163380
727.906	0.0162531
727.984	0.0162640
728.062	0.0161899
728.140	0.0162417
728.218	0.0160758
728.296	0.0160538
728.374	0.0159316
728.453	0.0160281
728.531	0.0160867
728.609	0.0159303
728.687	0.0160565
728.765	0.0160003
728.843	0.0160039
728.921	0.0161853
728.999	0.0161645
729.078	0.0159939
729.156	0.0161674
729.234	0.0162619
729.312	0.0161881
729.390	0.0162212
729.468	0.0164285
729.546	0.0163129
729.624	0.0161765
729.703	0.0164391
729.781	0.0163979
729.859	0.0162232
729.937	0.0163095
730.015	0.0162470
730.093	0.0161168
730.171	0.0162064
730.249	0.0162713
730.328	0.0161636
730.406	0.0161829
730.484	0.0160484
730.562	0.0159792
730.640	0.0161225
730.718	0.0160579
730.796	0.0160780
730.874	0.0161752
730.953	0.0161597
731.031	0.0161187
731.109	0.0161057
731.187	0.0161919
731.265	0.0160409
731.343	0.0161884
731.421	0.0162735
731.499	0.0162827
731.578	0.0160920
731.656	0.0161356
731.734	0.0162305
731.812	0.0161928
731.890	0.0162170
731.968	0.0161186
732.046	0.0162403
732.124	0.0162067
732.203	0.0162798
732.281	0.0162068
732.359	0.0161205
732.437	0.0162017
732.515	0.0161743
732.593	0.0161693
732.671	0.0162415
732.749	0.0162357
732.828	0.0161597
732.906	0.0161198
732.984	0.0160767
733.062	0.0161483
733.140	0.0161842
733.218	0.0161712
733.296	0.0161446
733.374	0.0160197
733.453	0.0161556
733.531	0.0161774
733.609	0.0161740
733.687	0.0161854
733.765	0.0160970
733.843	0.0160654
733.921	0.0162978
733.999	0.0161211
734.078	0.0162416
734.156	0.0160224
734.234	0.0162273
734.312	0.0162424
734.390	0.0162239
734.468	0.0162679
734.546	0.0161707
734.624	0.0162519
734.703	0.0161927
734.781	0.0162626
734.859	0.0162314
734.937	0.0163261
735.015	0.0161658
735.093	0.0161546
735.171	0.0161613
735.249	0.0161469
735.328	0.0160677
735.406	0.0163052
735.484	0.0163041
735.562	0.0161991
735.640	0.0161514
735.718	0.0161203
735.796	0.0162839
735.874	0.0162868
735.953	0.0163593
736.031	0.0161134
736.109	0.0162507
736.187	0.0163336
736.265	0.0161253
736.343	0.0161624
736.421	0.0162091
736.499	0.0160873
736.578	0.0162859
736.656	0.0161169
736.734	0.0161230
736.812	0.0163379
736.890	0.0161946
736.968	0.0162029
737.046	0.0161375
737.124	0.0160808
737.203	0.0161034
737.281	0.0161456
737.359	0.0161671
737.437	0.0162072
737.515	0.0161304
737.593	0.0159904
737.671	0.0161387
737.749	0.0162715
737.828	0.0160235
737.906	0.0159283
737.984	0.0160159
738.062	0.0161069
738.140	0.0160125
738.218	0.0161618
738.296	0.0161243
738.374	0.0160513
738.453	0.0160479
738.531	0.0160569
738.609	0.0161559
738.687	0.0162059
738.765	0.0160403
738.843	0.0161622
738.921	0.0160461
738.999	0.0161250
739.078	0.0164081
739.156	0.0161167
739.234	0.0160976
739.312	0.0161507
739.390	0.0162905
739.468	0.0161968
739.546	0.0161362
739.624	0.0161707
739.703	0.0161186
739.781	0.0161728
739.859	0.0161173
739.937	0.0163789
740.015	0.0162037
740.093	0.0161774
740.171	0.0162105
740.249	0.0161639
740.328	0.0161829
740.406	0.0161857
740.484	0.0162314
740.562	0.0161190
740.640	0.0162350
740.718	0.0161758
740.796	0.0161189
740.874	0.0161227
740.953	0.0162526
741.031	0.0161846
741.109	0.0161774
741.187	0.0161179
741.265	0.0161684
741.343	0.0161826
741.421	0.0159892
741.499	0.0159815
741.578	0.0161507
741.656	0.0159943
741.734	0.0161124
741.812	0.0161842
741.890	0.0160324
741.968	0.0161110
742.046	0.0161166
742.124	0.0160706
742.203	0.0160615
742.281	0.0160315
742.359	0.0160722
742.437	0.0161649
742.515	0.0160056
742.593	0.0160500
742.671	0.0160310
742.749	0.0161876
742.828	0.0161216
742.906	0.0161445
742.984	0.0162598
743.062	0.0159883
743.140	0.0161031
743.218	0.0161016
743.296	0.0162671
743.374	0.0161082
743.453	0.0161972
743.531	0.0161996
743.609	0.0162857
743.687	0.0163616
743.765	0.0162671
743.843	0.0160658
743.921	0.0162315
743.999	0.0161126
744.078	0.0162028
744.156	0.0162009
744.234	0.0161723
744.312	0.0162376
744.390	0.0162243
744.468	0.0162287
744.546	0.0161690
744.624	0.0162280
744.703	0.0162491
744.781	0.0160507
744.859	0.0162128
744.937	0.0162450
745.015	0.0162526
745.093	0.0160938
745.171	0.0160071
745.249	0.0161388
745.328	0.0162675
745.406	0.0161913
745.484	0.0160734
745.562	0.0160035
745.640	0.0161700
745.718	0.0160434
745.796	0.0162309
745.874	0.0162563
745.953	0.0162679
746.031	0.0162379
746.109	0.0161661
746.187	0.0160515
746.265	0.0161235
746.343	0.0161942
746.421	0.0160090
746.499	0.0160536
746.578	0.0161131
746.656	0.0162866
746.734	0.0161819
746.812	0.0160840
746.890	0.0161301
746.968	0.0162137
747.046	0.0161413
747.124	0.0160559
747.203	0.0162231
747.281	0.0162879
747.359	0.0162544
747.437	0.0162676
747.515	0.0161859
747.593	0.0161420
747.671	0.0162536
747.749	0.0161546
747.828	0.0162877
747.906	0.0161893
747.984	0.0162665
748.062	0.0164257
748.140	0.0162865
748.218	0.0161951
748.296	0.0161834
748.374	0.0161552
748.453	0.0162683
748.531	0.0161922
748.609	0.0162698
748.687	0.0161770
748.765	0.0162769
748.843	0.0163163
748.921	0.0160931
748.999	0.0160441
749.078	0.0161868
749.156	0.0161727
749.234	0.0162146
749.312	0.0162244
749.390	0.0161735
749.468	0.0161378
749.546	0.0162071
749.624	0.0161664
749.703	0.0163080
749.781	0.0161442
749.859	0.0161229
749.937	0.0162442
750.015	0.0162495
750.093	0.0161713
750.171	0.0160516
750.249	0.0162017
750.328	0.0162180
750.406	0.0161333
750.484	0.0161802
750.562	0.0162506
750.640	0.0161797
750.718	0.0163199
750.796	0.0161096
750.874	0.0161369
750.953	0.0162491
751.031	0.0162890
751.109	0.0163990
751.187	0.0160240
751.265	0.0161639
751.343	0.0163544
751.421	0.0161770
751.499	0.0162820
751.578	0.0162127
751.656	0.0162492
751.734	0.0162155
751.812	0.0161807
751.890	0.0163145
751.968	0.0162350
752.046	0.0161015
752.124	0.0162524
752.203	0.0162386
752.281	0.0162644
752.359	0.0161797
752.437	0.0162138
752.515	0.0162297
752.593	0.0162045
752.671	0.0162041
752.749	0.0161845
752.828	0.0160445
752.906	0.0159694
752.984	0.0162502
753.062	0.0162605
753.140	0.0160871
753.218	0.0161529
753.296	0.0160074
753.374	0.0160435
753.453	0.0162413
753.531	0.0162138
753.609	0.0162238
753.687	0.0161402
753.765	0.0161333
753.843	0.0162670
753.921	0.0160991
753.999	0.0160797
754.078	0.0161818
754.156	0.0160898
754.234	0.0161792
754.312	0.0161185
754.390	0.0162157
754.468	0.0162886
754.546	0.0161224
754.624	0.0161240
754.703	0.0161608
754.781	0.0162678
754.859	0.0162724
754.937	0.0161978
755.015	0.0162572
755.093	0.0162535
755.171	0.0162529
755.249	0.0163020
755.328	0.0162546
755.406	0.0162612
755.484	0.0163248
755.562	0.0162289
755.640	0.0161772
755.718	0.0163117
755.796	0.0161517
755.874	0.0161115
755.953	0.0159390
756.031	0.0162587
756.109	0.0162377
756.187	0.0164230
756.265	0.0163467
756.343	0.0162466
756.421	0.0162905
756.499	0.0162868
756.578	0.0163029
756.656	0.0164662
756.734	0.0162465
756.812	0.0163921
756.890	0.0163486
756.968	0.0164452
757.046	0.0163837
757.124	0.0163464
757.203	0.0164587
757.281	0.0162861
757.359	0.0161931
757.437	0.0161377
757.515	0.0162303
757.593	0.0161909
757.671	0.0163313
757.749	0.0160860
757.828	0.0161177
757.906	0.0160561
757.984	0.0158458
758.062	0.0160558
758.140	0.0160879
758.218	0.0160696
758.296	0.0160574
758.374	0.0160677
758.453	0.0160070
758.531	0.0161314
758.609	0.0161887
758.687	0.0161517
758.765	0.0163378
758.843	0.0161816
758.921	0.0163015
758.999	0.0164865
759.078	0.0161995
759.156	0.0164934
759.234	0.0164829
759.312	0.0165322
759.390	0.0164252
759.468	0.0164228
759.546	0.0165166
759.624	0.0164743
759.703	0.0164629
759.781	0.0163743
759.859	0.0163255
759.937	0.0163596
760.015	0.0163557
760.093	0.0163522
760.171	0.0163033
760.249	0.0163341
760.328	0.0162724
760.406	0.0162398
760.484	0.0162421
760.562	0.0161069
760.640	0.0160154
760.718	0.0159851
760.796	0.0158955
760.874	0.0159483
760.953	0.0160677
761.031	0.0157593
761.109	0.0158511
761.187	0.0157289
761.265	0.0160077
761.343	0.0158698
761.421	0.0158698
761.499	0.0159476
761.578	0.0159878
761.656	0.0160536
761.734	0.0159784
761.812	0.0161984
761.890	0.0161606
761.968	0.0161697
762.046	0.0161664
762.124	0.0162614
762.203	0.0163337
762.281	0.0164008
762.359	0.0163644
762.437	0.0164736
762.515	0.0164540
762.593	0.0165469
762.671	0.0164951
762.749	0.0164639
762.828	0.0165711
762.906	0.0164965
762.984	0.0164960
763.062	0.0162972
763.140	0.0162578
763.218	0.0164131
763.296	0.0163692
763.374	0.0161891
763.453	0.0162013
763.531	0.0160107
763.609	0.0160146
763.687	0.0161510
763.765	0.0159353
763.843	0.0157980
763.921	0.0158644
763.999	0.0159855
764.078	0.0158653
764.156	0.0156808
764.234	0.0159058
764.312	0.0159147
764.390	0.0158811
764.468	0.0158044
764.546	0.0158231
764.624	0.0158854
764.703	0.0158076
764.781	0.0159844
764.859	0.0159658
764.937	0.0160124
765.015	0.0162389
765.093	0.0161773
765.171	0.0163736
765.249	0.0165314
765.328	0.0164998
765.406	0.0165924
765.484	0.0164403
765.562	0.0166952
765.640	0.0165805
765.718	0.0166006
765.796	0.0165318
765.874	0.0165362
765.953	0.0165445
766.031	0.0164788
766.109	0.0164027
766.187	0.0164700
766.265	0.0163773
766.343	0.0161440
766.421	0.0160135
766.499	0.0161310
766.578	0.0159399
766.656	0.0159402
766.734	0.0158643
766.812	0.0158128
766.890	0.0156866
766.968	0.0155841
767.046	0.0155657
767.124	0.0156161
767.203	0.0156443
767.281	0.0157121
767.359	0.0159089
767.437	0.0157764
767.515	0.0158482
767.593	0.0158469
767.671	0.0161348
767.749	0.0161501
767.828	0.0160664
767.906	0.0161500
767.984	0.0163129
768.062	0.0162637
768.140	0.0163570
768.218	0.0162740
768.296	0.0162256
768.374	0.0161697
768.453	0.0163613
768.531	0.0166107
768.609	0.0162660
768.687	0.0164235
768.765	0.0164343
768.843	0.0163939
768.921	0.0165775
768.999	0.0167181
769.078	0.0165731
769.156	0.0165108
769.234	0.0166911
769.312	0.0164953
769.390	0.0165334
769.468	0.0165194
769.546	0.0163753
769.624	0.0164454
769.703	0.0163016
769.781	0.0162054
769.859	0.0163555
769.937	0.0162180
770.015	0.0160791
770.093	0.0160250
770.171	0.0161182
770.249	0.0161011
770.328	0.0158984
770.406	0.0159525
770.484	0.0157332
770.562	0.0158931
770.640	0.0159814
770.718	0.0158217
770.796	0.0158112
770.874	0.0157286
770.953	0.0158144
771.031	0.0158833
771.109	0.0158134
771.187	0.0158726
771.265	0.0159219
771.343	0.0160583
771.421	0.0160989
771.499	0.0161645
771.578	0.0163509
771.656	0.0163438
771.734	0.0162788
771.812	0.0162571
771.890	0.0163474
771.968	0.0163915
772.046	0.0163485
772.124	0.0163604
772.203	0.0163219
772.281	0.0164169
772.359	0.0164359
772.437	0.0164083
772.515	0.0163302
772.593	0.0163352
772.671	0.0162021
772.749	0.0162143
772.828	0.0163615
772.906	0.0162301
772.984	0.0160178
773.062	0.0161664
773.140	0.0160642
773.218	0.0160680
773.296	0.0161540
773.374	0.0160938
773.453	0.0164256
773.531	0.0163739
773.609	0.0164831
773.687	0.0166373
773.765	0.0163579
773.843	0.0164732
773.921	0.0167113
773.999	0.0165772
774.078	0.0163011
774.156	0.0165199
774.234	0.0163865
774.312	0.0162519
774.390	0.0163378
774.468	0.0163003
774.546	0.0161906
774.624	0.0162187
774.703	0.0161422
774.781	0.0161716
774.859	0.0162211
774.937	0.0161430
775.015	0.0161502
775.093	0.0160742
775.171	0.0161623
775.249	0.0162394
775.328	0.0161089
775.406	0.0161529
775.484	0.0161499
775.562	0.0162045
775.640	0.0162983
775.718	0.0162702
775.796	0.0162858
775.874	0.0163276
775.953	0.0163508
776.031	0.0163309
776.109	0.0162727
776.187	0.0161516
776.265	0.0160880
776.343	0.0161450
776.421	0.0161065
776.499	0.0160272
776.578	0.0159892
776.656	0.0158047
776.734	0.0159162
776.812	0.0158103
776.890	0.0158208
776.968	0.0157893
777.046	0.0157979
777.124	0.0156410
777.203	0.0157486
777.281	0.0157040
777.359	0.0158133
777.437	0.0159658
777.515	0.0160908
777.593	0.0161153
777.671	0.0163911
777.749	0.0163917
777.828	0.0165989
777.906	0.0167153
777.984	0.0167249
778.062	0.0170332
778.140	0.0171005
778.218	0.0171169
778.296	0.0172456
778.374	0.0172958
778.453	0.0171850
778.531	0.0172099
778.609	0.0172315
778.687	0.0170662
778.765	0.0168899
778.843	0.0168786
778.921	0.0167437
778.999	0.0164978
779.078	0.0164816
779.156	0.0163869
779.234	0.0162062
779.312	0.0160328
779.390	0.0160346
779.468	0.0158276
779.546	0.0157324
779.624	0.0156673
779.703	0.0157578
779.781	0.0156188
779.859	0.0156613
779.937	0.0155839
780.015	0.0157442
780.093	0.0156615
780.171	0.0156495
780.249	0.0155871
780.328	0.0157216
780.406	0.0159352
780.484	0.0159175
780.562	0.0159268
780.640	0.0158602
780.718	0.0160598
780.796	0.0161351
780.874	0.0161417
780.953	0.0161743
781.031	0.0162325
781.109	0.0160386
781.187	0.0162950
781.265	0.0161545
781.343	0.0162933
781.421	0.0161100
781.499	0.0161998
781.578	0.0162553
781.656	0.0162804
781.734	0.0159813
781.812	0.0161285
781.890	0.0161539
781.968	0.0160079
782.046	0.0163863
782.124	0.0161960
782.203	0.0163288
782.281	0.0162596
782.359	0.0163361
782.437	0.0164835
782.515	0.0164493
782.593	0.0165477
782.671	0.0164671
782.749	0.0164149
782.828	0.0165712
782.906	0.0165938
782.984	0.0166741
783.062	0.0165781
783.140	0.0165392
783.218	0.0165612
783.296	0.0165722
783.374	0.0164376
783.453	0.0164610
783.531	0.0164001
783.609	0.0163180
783.687	0.0162065
783.765	0.0163728
783.843	0.0161773
783.921	0.0163004
783.999	0.0162425
784.078	0.0162871
784.156	0.0163605
784.234	0.0162500
784.312	0.0160748
784.390	0.0161124
784.468	0.0162766
784.546	0.0162120
784.624	0.0160229
784.703	0.0160469
784.781	0.0159338
784.859	0.0158865
784.937	0.0158621
785.015	0.0157450
785.093	0.0156461
785.171	0.0156431
785.249	0.0153701
785.328	0.0154909
785.406	0.0153886
785.484	0.0154049
785.562	0.0153830
785.640	0.0153951
785.718	0.0153769
785.796	0.0154033
785.874	0.0154700
785.953	0.0153825
786.031	0.0155110
786.109	0.0158057
786.187	0.0156381
786.265	0.0158166
786.343	0.0158975
786.421	0.0160175
786.499	0.0161559
786.578	0.0162068
786.656	0.0164005
786.734	0.0165406
786.812	0.0165385
786.890	0.0167319
786.968	0.0167905
787.046	0.0167317
787.124	0.0168115
787.203	0.0168289
787.281	0.0169761
787.359	0.0168963
787.437	0.0169717
787.515	0.0168555
787.593	0.0169851
787.671	0.0170222
787.749	0.0169775
787.828	0.0169065
787.906	0.0169939
787.984	0.0168659
788.062	0.0169140
788.140	0.0166593
788.218	0.0166846
788.296	0.0164466
788.374	0.0163588
788.453	0.0163375
788.531	0.0161451
788.609	0.0159862
788.687	0.0158394
788.765	0.0155384
788.843	0.0154379
788.921	0.0154552
788.999	0.0154279
789.078	0.0153014
789.156	0.0152053
789.234	0.0151965
789.312	0.0152186
789.390	0.0150658
789.468	0.0149812
789.546	0.0151905
789.624	0.0151384
789.703	0.0152280
789.781	0.0153427
789.859	0.0154729
789.937	0.0155227
790.015	0.0155769
790.093	0.0156477
790.171	0.0157900
790.249	0.0159408
790.328	0.0160280
790.406	0.0160149
790.484	0.0161753
790.562	0.0162352
790.640	0.0163903
790.718	0.0163169
790.796	0.0162960
790.874	0.0163122
790.953	0.0163892
791.031	0.0164168
791.109	0.0165811
791.187	0.0164523
791.265	0.0167523
791.343	0.0166447
791.421	0.0165666
791.499	0.0165981
791.578	0.0166205
791.656	0.0167227
791.734	0.0166330
791.812	0.0166506
791.890	0.0167850
791.968	0.0168324
792.046	0.0167688
792.124	0.0165778
792.203	0.0168143
792.281	0.0167578
792.359	0.0165981
792.437	0.0166593
792.515	0.0167745
792.593	0.0166267
792.671	0.0165844
792.749	0.0164548
792.828	0.0164640
792.906	0.0163994
792.984	0.0162976
793.062	0.0162748
793.140	0.0162140
793.218	0.0160932
793.296	0.0160286
793.374	0.0160530
793.453	0.0159557
793.531	0.0157652
793.609	0.0157093
793.687	0.0155488
793.765	0.0154586
793.843	0.0155747
793.921	0.0153333
793.999	0.0152552
794.078	0.0151823
794.156	0.0151356
794.234	0.0151317
794.312	0.0151248
794.390	0.0152802
794.468	0.0151322
794.546	0.0151476
794.624	0.0153809
794.703	0.0154556
794.781	0.0156210
794.859	0.0156203
794.937	0.0158353
795.015	0.0157932
795.093	0.0159010
795.171	0.0160815
795.249	0.0161169
795.328	0.0161374
795.406	0.0164795
795.484	0.0163958
795.562	0.0164417
795.640	0.0165209
795.718	0.0166632
795.796	0.0167230
795.874	0.0169105
795.953	0.0168624
796.031	0.0171580
796.109	0.0172287
796.187	0.0171166
796.265	0.0171357
796.343	0.0172487
796.421	0.0174199
796.499	0.0173280
796.578	0.0172533
796.656	0.0172297
796.734	0.0171515
796.812	0.0171048
796.890	0.0168664
796.968	0.0169262
797.046	0.0167757
797.124	0.0165491
797.203	0.0165784
797.281	0.0163301
797.359	0.0160996
797.437	0.0161217
797.515	0.0160632
797.593	0.0160226
797.671	0.0157971
797.749	0.0157063
797.828	0.0156641
797.906	0.0156831
797.984	0.0157688
798.062	0.0157093
798.140	0.0157229
798.218	0.0155885
798.296	0.0154076
798.374	0.0155769
798.453	0.0154691
798.531	0.0154020
798.609	0.0153673
798.687	0.0154351
798.765	0.0155196
798.843	0.0154196
798.921	0.0154587
798.999	0.0155737
799.078	0.0155820
799.156	0.0154158
799.234	0.0156547
799.312	0.0158158
799.390	0.0158730
799.468	0.0158579
799.546	0.0159193
799.624	0.0159381
799.703	0.0161446
799.781	0.0160872
799.859	0.0161662
799.937	0.0163100
800.015	0.0162312
800.093	0.0164672
800.171	0.0165510
800.249	0.0167297
800.328	0.0167908
800.406	0.0168045
800.484	0.0170107
800.562	0.0170844
800.640	0.0170491
800.718	0.0171691
800.796	0.0171827
800.874	0.0172163
800.953	0.0172610
801.031	0.0171909
801.109	0.0171125
801.187	0.0169916
801.265	0.0169517
801.343	0.0170335
801.421	0.0167866
801.499	0.0167371
801.578	0.0166077
801.656	0.0164220
801.734	0.0163226
801.812	0.0163657
801.890	0.0161585
801.968	0.0158743
802.046	0.0157610
802.124	0.0156784
802.203	0.0157211
802.281	0.0157403
802.359	0.0156335
802.437	0.0156297
802.515	0.0156849
802.593	0.0155993
802.671	0.0155994
802.749	0.0156870
802.828	0.0158154
802.906	0.0157650
802.984	0.0158498
803.062	0.0159266
803.140	0.0158558
803.218	0.0159036
803.296	0.0160486
803.374	0.0162144
803.453	0.0159886
803.531	0.0160282
803.609	0.0160824
803.687	0.0159937
803.765	0.0159249
803.843	0.0158902
803.921	0.0158325
803.999	0.0157194
804.078	0.0157997
804.156	0.0158335
804.234	0.0157142
804.312	0.0158642
804.390	0.0158760
804.468	0.0159476
804.546	0.0160712
804.624	0.0161723
804.703	0.0163148
804.781	0.0163819
804.859	0.0163721
804.937	0.0165305
805.015	0.0165582
805.093	0.0166679
805.171	0.0167288
805.249	0.0168589
805.328	0.0169073
805.406	0.0167628
805.484	0.0169003
805.562	0.0167776
805.640	0.0166232
805.718	0.0167010
805.796	0.0166885
805.874	0.0165009
805.953	0.0163589
806.031	0.0163492
806.109	0.0162160
806.187	0.0163641
806.265	0.0159850
806.343	0.0160590
806.421	0.0161301
806.499	0.0160280
806.578	0.0158911
806.656	0.0158141
806.734	0.0157838
806.812	0.0156937
806.890	0.0157940
806.968	0.0157301
807.046	0.0158242
807.124	0.0158574
807.203	0.0156693
807.281	0.0159182
807.359	0.0159742
807.437	0.0160725
807.515	0.0160648
807.593	0.0160103
807.671	0.0160430
807.749	0.0160604
807.828	0.0161803
807.906	0.0161919
807.984	0.0160791
808.062	0.0162171
808.140	0.0159931
808.218	0.0159452
808.296	0.0159599
808.374	0.0160081
808.453	0.0159438
808.531	0.0160302
808.609	0.0159718
808.687	0.0160419
808.765	0.0160386
808.843	0.0160019
808.921	0.0159728
808.999	0.0161448
809.078	0.0162596
809.156	0.0161420
809.234	0.0162873
809.312	0.0161478
809.390	0.0162756
809.468	0.0163720
809.546	0.0164500
809.624	0.0163299
809.703	0.0162821
809.781	0.0162515
809.859	0.0163761
809.937	0.0164674
810.015	0.0165025
810.093	0.0164333
810.171	0.0164436
810.249	0.0165392
810.328	0.0164864
810.406	0.0164743
810.484	0.0165172
810.562	0.0163994
810.640	0.0163493
810.718	0.0163705
810.796	0.0163782
810.874	0.0163034
810.953	0.0161203
811.031	0.0159566
811.109	0.0159279
811.187	0.0159840
811.265	0.0159338
811.343	0.0157769
811.421	0.0158872
811.499	0.0156881
811.578	0.0155825
811.656	0.0155904
811.734	0.0155764
811.812	0.0154532
811.890	0.0152260
811.968	0.0152621
812.046	0.0155186
812.124	0.0153917
812.203	0.0155241
812.281	0.0155362
812.359	0.0155788
812.437	0.0157210
812.515	0.0158071
812.593	0.0158078
812.671	0.0159425
812.749	0.0161714
812.828	0.0162694
812.906	0.0163713
812.984	0.0165954
813.062	0.0164745
813.140	0.0166617
813.218	0.0167740
813.296	0.0166770
813.374	0.0167654
813.453	0.0167682
813.531	0.0167490
813.609	0.0167203
813.687	0.0165484
813.765	0.0165844
813.843	0.0164223
813.921	0.0165115
813.999	0.0163162
814.078	0.0162731
814.156	0.0160950
814.234	0.0159164
814.312	0.0160136
814.390	0.0159028
814.468	0.0156846
814.546	0.0156428
814.624	0.0157281
814.703	0.0157337
814.781	0.0157333
814.859	0.0155640
814.937	0.0156667
815.015	0.0158335
815.093	0.0157970
815.171	0.0158760
815.249	0.0160144
815.328	0.0160181
815.406	0.0162099
815.484	0.0161617
815.562	0.0162516
815.640	0.0164059
815.718	0.0164984
815.796	0.0166586
815.874	0.0166711
815.953	0.0166568
816.031	0.0166326
816.109	0.0168317
816.187	0.0165128
816.265	0.0165462
816.343	0.0164855
816.421	0.0164748
816.499	0.0164538
816.578	0.0162312
816.656	0.0162495
816.734	0.0161786
816.812	0.0160166
816.890	0.0159797
816.968	0.0161226
817.046	0.0159415
817.124	0.0158916
817.203	0.0159162
817.281	0.0158099
817.359	0.0157979
817.437	0.0158330
817.515	0.0158077
817.593	0.0158185
817.671	0.0157195
817.749	0.0158813
817.828	0.0157725
817.906	0.0159196
817.984	0.0157868
818.062	0.0157432
818.140	0.0158329
818.218	0.0159035
818.296	0.0159648
818.374	0.0159074
818.453	0.0159299
818.531	0.0160294
818.609	0.0160848
818.687	0.0161322
818.765	0.0161286
818.843	0.0163008
818.921	0.0161511
818.999	0.0162157
819.078	0.0163948
819.156	0.0163625
819.234	0.0162670
819.312	0.0163606
819.390	0.0164599
819.468	0.0165724
819.546	0.0164729
819.624	0.0164043
819.703	0.0164759
819.781	0.0166679
819.859	0.0164230
819.937	0.0165512
820.015	0.0163563
820.093	0.0164515
820.171	0.0164967
820.249	0.0164901
820.328	0.0164429
820.406	0.0163788
820.484	0.0161214
820.562	0.0162939
820.640	0.0162631
820.718	0.0163338
820.796	0.0162360
820.874	0.0163479
820.953	0.0161570
821.031	0.0161512
821.109	0.0162347
821.187	0.0162688
821.265	0.0161277
821.343	0.0162521
821.421	0.0163837
821.499	0.0163147
821.578	0.0163775
821.656	0.0163985
821.734	0.0165147
821.812	0.0162170
821.890	0.0163102
821.968	0.0162605
822.046	0.0163837
822.124	0.0164327
822.203	0.0163227
822.281	0.0162878
822.359	0.0162728
822.437	0.0162642
822.515	0.0162434
822.593	0.0162141
822.671	0.0161891
822.749	0.0159975
822.828	0.0160280
822.906	0.0159240
822.984	0.0159383
823.062	0.0157494
823.140	0.0158080
823.218	0.0157451
823.296	0.0157909
823.374	0.0157744
823.453	0.0156612
823.531	0.0155799
823.609	0.0156496
823.687	0.0158112
823.765	0.0157169
823.843	0.0158283
823.921	0.0158891
823.999	0.0159310
824.078	0.0160070
824.156	0.0160709
824.234	0.0161260
824.312	0.0161208
824.390	0.0162643
824.468	0.0163203
824.546	0.0162885
824.624	0.0163219
824.703	0.0163692
824.781	0.0164790
824.859	0.0165511
824.937	0.0164223
825.015	0.0164821
825.093	0.0164049
825.171	0.0164323
825.249	0.0165390
825.328	0.0165205
825.406	0.0164259
825.484	0.0165176
825.562	0.0165785
825.640	0.0164397
825.718	0.0164954
825.796	0.0165328
825.874	0.0166091
825.953	0.0165097
826.031	0.0165025
826.109	0.0164970
826.187	0.0164520
826.265	0.0166017
826.343	0.0164253
826.421	0.0162248
826.499	0.0162442
826.578	0.0164082
826.656	0.0162423
826.734	0.0162624
826.812	0.0163662
826.890	0.0162422
826.968	0.0162984
827.046	0.0162247
827.124	0.0161384
827.203	0.0161745
827.281	0.0163039
827.359	0.0164294
827.437	0.0162794
827.515	0.0160940
827.593	0.0162752
827.671	0.0163182
827.749	0.0162916
827.828	0.0161416
827.906	0.0160886
827.984	0.0161370
828.062	0.0159793
828.140	0.0160277
828.218	0.0161474
828.296	0.0160788
828.374	0.0160349
828.453	0.0160695
828.531	0.0160847
828.609	0.0161404
828.687	0.0160452
828.765	0.0160070
828.843	0.0161726
828.921	0.0161231
828.999	0.0161094
829.078	0.0159708
829.156	0.0160323
829.234	0.0159743
829.312	0.0160247
829.390	0.0160357
829.468	0.0160862
829.546	0.0161534
829.624	0.0160282
829.703	0.0161084
829.781	0.0161126
829.859	0.0161756
829.937	0.0162543
830.015	0.0162508
830.093	0.0162960
830.171	0.0163025
830.249	0.0161330
830.328	0.0161645
830.406	0.0162130
830.484	0.0161571
830.562	0.0160512
830.640	0.0163310
830.718	0.0162630
830.796	0.0161249
830.874	0.0163372
830.953	0.0162955
831.031	0.0163628
831.109	0.0164180
831.187	0.0164613
831.265	0.0164053
831.343	0.0164700
831.421	0.0165244
831.499	0.0166361
831.578	0.0165586
831.656	0.0164778
831.734	0.0163915
831.812	0.0164147
831.890	0.0165060
831.968	0.0165334
832.046	0.0163306
832.124	0.0163097
832.203	0.0162428
832.281	0.0163442
832.359	0.0161701
832.437	0.0160677
832.515	0.0161500
832.593	0.0161510
832.671	0.0161148
832.749	0.0160116
832.828	0.0160044
832.906	0.0159324
832.984	0.0160599
833.062	0.0160275
833.140	0.0160560
833.218	0.0159514
833.296	0.0160464
833.374	0.0162186
833.453	0.0161259
833.531	0.0162254
833.609	0.0162056
833.687	0.0162807
833.765	0.0162527
833.843	0.0163419
833.921	0.0162965
833.999	0.0162733
834.078	0.0162181
834.156	0.0164406
834.234	0.0163739
834.312	0.0164398
834.390	0.0163187
834.468	0.0163619
834.546	0.0163353
834.624	0.0163100
834.703	0.0163151
834.781	0.0162653
834.859	0.0161392
834.937	0.0161866
835.015	0.0161558
835.093	0.0161651
835.171	0.0160922
835.249	0.0160675
835.328	0.0160943
835.406	0.0159148
835.484	0.0160198
835.562	0.0161642
835.640	0.0159196
835.718	0.0158040
835.796	0.0158870
835.874	0.0159792
835.953	0.0159403
836.031	0.0158932
836.109	0.0158474
836.187	0.0158761
836.265	0.0159431
836.343	0.0160018
836.421	0.0158760
836.499	0.0158347
836.578	0.0158721
836.656	0.0160109
836.734	0.0159970
836.812	0.0159221
836.890	0.0160057
836.968	0.0160720
837.046	0.0162038
837.124	0.0161874
837.203	0.0160234
837.281	0.0161861
837.359	0.0162492
837.437	0.0162699
837.515	0.0162253
837.593	0.0163197
837.671	0.0163526
837.749	0.0164196
837.828	0.0163460
837.906	0.0164863
837.984	0.0164497
838.062	0.0163892
838.140	0.0164536
838.218	0.0165614
838.296	0.0164857
838.374	0.0164956
838.453	0.0165208
838.531	0.0163570
838.609	0.0162828
838.687	0.0163629
838.765	0.0163036
838.843	0.0161852
838.921	0.0162263
838.999	0.0160377
839.078	0.0161077
839.156	0.0159843
839.234	0.0158819
839.312	0.0157748
839.390	0.0159238
839.468	0.0159212
839.546	0.0159225
839.624	0.0159155
839.703	0.0158353
839.781	0.0159715
839.859	0.0159329
839.937	0.0159850
840.015	0.0159694
840.093	0.0159781
840.171	0.0160167
840.249	0.0160046
840.328	0.0161117
840.406	0.0162687
840.484	0.0161060
840.562	0.0162487
840.640	0.0161555
840.718	0.0162299
840.796	0.0162897
840.874	0.0163096
840.953	0.0162758
841.031	0.0162349
841.109	0.0161638
841.187	0.0162849
841.265	0.0161685
841.343	0.0161372
841.421	0.0162521
841.499	0.0160387
841.578	0.0161687
841.656	0.0161430
841.734	0.0160830
841.812	0.0159986
841.890	0.0157854
841.968	0.0160224
842.046	0.0158163
842.124	0.0158064
842.203	0.0158463
842.281	0.0158690
842.359	0.0158952
842.437	0.0158276
842.515	0.0159299
842.593	0.0160074
842.671	0.0159425
842.749	0.0159753
842.828	0.0159094
842.906	0.0160292
842.984	0.0160620
843.062	0.0161051
843.140	0.0161916
843.218	0.0161179
843.296	0.0163189
843.374	0.0161833
843.453	0.0162315
843.531	0.0162744
843.609	0.0162580
843.687	0.0162201
843.765	0.0163136
843.843	0.0162212
843.921	0.0161481
843.999	0.0162355
844.078	0.0161872
844.156	0.0161776
844.234	0.0162760
844.312	0.0161198
844.390	0.0162617
844.468	0.0163126
844.546	0.0162800
844.624	0.0162675
844.703	0.0162568
844.781	0.0162557
844.859	0.0162155
844.937	0.0162389
845.015	0.0162558
845.093	0.0161291
845.171	0.0161626
845.249	0.0164375
845.328	0.0163389
845.406	0.0160829
845.484	0.0160764
845.562	0.0163384
845.640	0.0162479
845.718	0.0161175
845.796	0.0162055
845.874	0.0162048
845.953	0.0161963
846.031	0.0161724
846.109	0.0162436
846.187	0.0162282
846.265	0.0160785
846.343	0.0162158
846.421	0.0161528
846.499	0.0160545
846.578	0.0161758
846.656	0.0162372
846.734	0.0161475
846.812	0.0161055
846.890	0.0161842
846.968	0.0161855
847.046	0.0160591
847.124	0.0163532
847.203	0.0161285
847.281	0.0162711
847.359	0.0162685
847.437	0.0162020
847.515	0.0161599
847.593	0.0161900
847.671	0.0162194
847.749	0.0160652
847.828	0.0160593
847.906	0.0161494
847.984	0.0160909
848.062	0.0160883
848.140	0.0159931
848.218	0.0160677
848.296	0.0159949
848.374	0.0160241
848.453	0.0160087
848.531	0.0162032
848.609	0.0159805
848.687	0.0160338
848.765	0.0161436
848.843	0.0160137
848.921	0.0160658
848.999	0.0161005
849.078	0.0161040
849.156	0.0161799
849.234	0.0162074
849.312	0.0161639
849.390	0.0160528
849.468	0.0161760
849.546	0.0163400
849.624	0.0162163
849.703	0.0162595
849.781	0.0162975
849.859	0.0161705
849.937	0.0162041
850.015	0.0162617
850.093	0.0163106
850.171	0.0162674
850.249	0.0163682
850.328	0.0161646
850.406	0.0162566
850.484	0.0162152
850.562	0.0163524
850.640	0.0162449
850.718	0.0163330
850.796	0.0162959
850.874	0.0163490
850.953	0.0162327
851.031	0.0162786
851.109	0.0162418
851.187	0.0162141
851.265	0.0164475
851.343	0.0162645
851.421	0.0162137
851.499	0.0163387
851.578	0.0161412
851.656	0.0162884
851.734	0.0162864
851.812	0.0162165
851.890	0.0163682
851.968	0.0163104
852.046	0.0163644
852.124	0.0162962
852.203	0.0163270
852.281	0.0163229
852.359	0.0164207
852.437	0.0165413
852.515	0.0165641
852.593	0.0163622
852.671	0.0164629
852.749	0.0165078
852.828	0.0164491
852.906	0.0164390
852.984	0.0164801
853.062	0.0163318
853.140	0.0163573
853.218	0.0163632
853.296	0.0162260
853.374	0.0164095
853.453	0.0163428
853.531	0.0162043
853.609	0.0160165
853.687	0.0161713
853.765	0.0162252
853.843	0.0160323
853.921	0.0161588
853.999	0.0162707
854.078	0.0161516
854.156	0.0161723
854.234	0.0160956
854.312	0.0160724
854.390	0.0161142
854.468	0.0160212
854.546	0.0159820
854.624	0.0159185
854.703	0.0159534
854.781	0.0161169
854.859	0.0160816
854.937	0.0160819
855.015	0.0160036
855.093	0.0159844
855.171	0.0159827
855.249	0.0161435
855.328	0.0163232
855.406	0.0162288
855.484	0.0161355
855.562	0.0161964
855.640	0.0162045
855.718	0.0161703
855.796	0.0162893
855.874	0.0162320
855.953	0.0162460
856.031	0.0164906
856.109	0.0163804
856.187	0.0162235
856.265	0.0162909
856.343	0.0162592
856.421	0.0161501
856.499	0.0162254
856.578	0.0162732
856.656	0.0162405
856.734	0.0162632
856.812	0.0163082
856.890	0.0163557
856.968	0.0162454
857.046	0.0162030
857.124	0.0162582
857.203	0.0164186
857.281	0.0163538
857.359	0.0162484
857.437	0.0162746
857.515	0.0163194
857.593	0.0162286
857.671	0.0164575
857.749	0.0163707
857.828	0.0163542
857.906	0.0163927
857.984	0.0162531
858.062	0.0164462
858.140	0.0164966
858.218	0.0163000
858.296	0.0162627
858.374	0.0162708
858.453	0.0162478
858.531	0.0162556
858.609	0.0163558
858.687	0.0163403
858.765	0.0162917
858.843	0.0162366
858.921	0.0163013
858.999	0.0162479
859.078	0.0160738
859.156	0.0161378
859.234	0.0161086
859.312	0.0161584
859.390	0.0162025
859.468	0.0160184
859.546	0.0160659
859.624	0.0160198
859.703	0.0160332
859.781	0.0159264
859.859	0.0160089
859.937	0.0160150
860.015	0.0160867
860.093	0.0161819
860.171	0.0160056
860.249	0.0159205
860.328	0.0159308
860.406	0.0158238
860.484	0.0159288
860.562	0.0159333
860.640	0.0159976
860.718	0.0160220
860.796	0.0161152
860.874	0.0159172
860.953	0.0160224
861.031	0.0161135
861.109	0.0159893
861.187	0.0161735
861.265	0.0161697
861.343	0.0162147
861.421	0.0162583
861.499	0.0163371
861.578	0.0163257
861.656	0.0161830
861.734	0.0163333
861.812	0.0163696
861.890	0.0162730
861.968	0.0163112
862.046	0.0163772
862.124	0.0161352
862.203	0.0161314
862.281	0.0162766
862.359	0.0162904
862.437	0.0161224
862.515	0.0160890
862.593	0.0161917
862.671	0.0160728
862.749	0.0161822
862.828	0.0162471
862.906	0.0163352
862.984	0.0160976
863.062	0.0163167
863.140	0.0163245
863.218	0.0161987
863.296	0.0161855
863.374	0.0162712
863.453	0.0162945
863.531	0.0161447
863.609	0.0161269
863.687	0.0161411
863.765	0.0160994
863.843	0.0161478
863.921	0.0161507
863.999	0.0161977
864.078	0.0161124
864.156	0.0162386
864.234	0.0161356
864.312	0.0160297
864.390	0.0161270
864.468	0.0160495
864.546	0.0160631
864.624	0.0159940
864.703	0.0159264
864.781	0.0160617
864.859	0.0159687
864.937	0.0160693
865.015	0.0160005
865.093	0.0159601
865.171	0.0159898
865.249	0.0158044
865.328	0.0159845
865.406	0.0161351
865.484	0.0159826
865.562	0.0160566
865.640	0.0162188
865.718	0.0162100
865.796	0.0162376
865.874	0.0162716
865.953	0.0160645
866.031	0.0161700
866.109	0.0163806
866.187	0.0161618
866.265	0.0161610
866.343	0.0160949
866.421	0.0160986
866.499	0.0162112
866.578	0.0161082
866.656	0.0160201
866.734	0.0160360
866.812	0.0159956
866.890	0.0158765
866.968	0.0158849
867.046	0.0159470
867.124	0.0159726
867.203	0.0159702
867.281	0.0159786
867.359	0.0159755
867.437	0.0159949
867.515	0.0161929
867.593	0.0160014
867.671	0.0160567
867.749	0.0159472
867.828	0.0160115
867.906	0.0160219
867.984	0.0159865
868.062	0.0160296
868.140	0.0159876
868.218	0.0160493
868.296	0.0161223
868.374	0.0159396
868.453	0.0160217
868.531	0.0160712
868.609	0.0160217
868.687	0.0161781
868.765	0.0161526
868.843	0.0160978
868.921	0.0162158
868.999	0.0161545
869.078	0.0162312
869.156	0.0162594
869.234	0.0162218
869.312	0.0162164
869.390	0.0161773
869.468	0.0162473
869.546	0.0162092
869.624	0.0161945
869.703	0.0162946
869.781	0.0161908
869.859	0.0162318
869.937	0.0162241
870.015	0.0160506
870.093	0.0161745
870.171	0.0161319
870.249	0.0163360
870.328	0.0161647
870.406	0.0161298
870.484	0.0162001
870.562	0.0160770
870.640	0.0160352
870.718	0.0160840
870.796	0.0161124
870.874	0.0161171
870.953	0.0160435
871.031	0.0160070
871.109	0.0159406
871.187	0.0159084
871.265	0.0158521
871.343	0.0160519
871.421	0.0161097
871.499	0.0159917
871.578	0.0160592
871.656	0.0161649
871.734	0.0161037
871.812	0.0160860
871.890	0.0161389
871.968	0.0161723
872.046	0.0161287
872.124	0.0162605
872.203	0.0160902
872.281	0.0163197
872.359	0.0162069
872.437	0.0162074
872.515	0.0161404
872.593	0.0160448
872.671	0.0160481
872.749	0.0161894
872.828	0.0160491
872.906	0.0160529
872.984	0.0159885
873.062	0.0160703
873.140	0.0161794
873.218	0.0160492
873.296	0.0160735
873.374	0.0159369
873.453	0.0160361
873.531	0.0160973
873.609	0.0160206
873.687	0.0161344
873.765	0.0159805
873.843	0.0159537
873.921	0.0161990
873.999	0.0161291
874.078	0.0160088
874.156	0.0160718
874.234	0.0161212
874.312	0.0160838
874.390	0.0161521
874.468	0.0163391
874.546	0.0162218
874.624	0.0161411
874.703	0.0161768
874.781	0.0162856
874.859	0.0162154
874.937	0.0162991
875.015	0.0164100
875.093	0.0163321
875.171	0.0163399
875.249	0.0164176
875.328	0.0163545
875.406	0.0163401
875.484	0.0162511
875.562	0.0164000
875.640	0.0163546
875.718	0.0162918
875.796	0.0163551
875.874	0.0162170
875.953	0.0163107
876.031	0.0163329
876.109	0.0162742
876.187	0.0162627
876.265	0.0162691
876.343	0.0161804
876.421	0.0162603
876.499	0.0160514
876.578	0.0161278
876.656	0.0162028
876.734	0.0161272
876.812	0.0159689
876.890	0.0161735
876.968	0.0161467
877.046	0.0160393
877.124	0.0160777
877.203	0.0159784
877.281	0.0160818
877.359	0.0161250
877.437	0.0160665
877.515	0.0161002
877.593	0.0162118
877.671	0.0161105
877.749	0.0161716
877.828	0.0162362
877.906	0.0163440
877.984	0.0163386
878.062	0.0163539
878.140	0.0163734
878.218	0.0164515
878.296	0.0163100
878.374	0.0163744
878.453	0.0162736
878.531	0.0161123
878.609	0.0161716
878.687	0.0163744
878.765	0.0164066
878.843	0.0161703
878.921	0.0161253
878.999	0.0162070
879.078	0.0162060
879.156	0.0161884
879.234	0.0161081
879.312	0.0161563
879.390	0.0161081
879.468	0.0161693
879.546	0.0161409
879.624	0.0161579
879.703	0.0162377
879.781	0.0161691
879.859	0.0161517
879.937	0.0160406
880.015	0.0160917
880.093	0.0161189
880.171	0.0161657
880.249	0.0161172
880.328	0.0163067
880.406	0.0162046
880.484	0.0159891
880.562	0.0161562
880.640	0.0162304
880.718	0.0160678
880.796	0.0161330
880.874	0.0163200
880.953	0.0163012
881.031	0.0163239
881.109	0.0162775
881.187	0.0162218
881.265	0.0162610
881.343	0.0162530
881.421	0.0162214
881.499	0.0164108
881.578	0.0162012
881.656	0.0162207
881.734	0.0162582
881.812	0.0162542
881.890	0.0162946
881.968	0.0162611
882.046	0.0162542
882.124	0.0160768
882.203	0.0162442
882.281	0.0162750
882.359	0.0162687
882.437	0.0161375
882.515	0.0161416
882.593	0.0162358
882.671	0.0161028
882.749	0.0162299
882.828	0.0159685
882.906	0.0159900
882.984	0.0161612
883.062	0.0161352
883.140	0.0159562
883.218	0.0160106
883.296	0.0161763
883.374	0.0160929
883.453	0.0161806
883.531	0.0162521
883.609	0.0162154
883.687	0.0161051
883.765	0.0162831
883.843	0.0163194
883.921	0.0162254
883.999	0.0163503
884.078	0.0164579
884.156	0.0164408
884.234	0.0165304
884.312	0.0164944
884.390	0.0164153
884.468	0.0164069
884.546	0.0163254
884.624	0.0163228
884.703	0.0161145
884.781	0.0163796
884.859	0.0162852
884.937	0.0161579
885.015	0.0161918
885.093	0.0161089
885.171	0.0162077
885.249	0.0161778
885.328	0.0160368
885.406	0.0160993
885.484	0.0160410
885.562	0.0159470
885.640	0.0160199
885.718	0.0159426
885.796	0.0158578
885.874	0.0158958
885.953	0.0158911
886.031	0.0159782
886.109	0.0158913
886.187	0.0158860
886.265	0.0158633
886.343	0.0160160
886.421	0.0159607
886.499	0.0158565
886.578	0.0159345
886.656	0.0160307
886.734	0.0161636
886.812	0.0159998
886.890	0.0160582
886.968	0.0161349
887.046	0.0162011
887.124	0.0161356
887.203	0.0161149
887.281	0.0162109
887.359	0.0161847
887.437	0.0160274
887.515	0.0161853
887.593	0.0163075
887.671	0.0162930
887.749	0.0162148
887.828	0.0162266
887.906	0.0162164
887.984	0.0162475
888.062	0.0164212
888.140	0.0162624
888.218	0.0162651
888.296	0.0162528
888.374	0.0163453
888.453	0.0164006
888.531	0.0163487
888.609	0.0164429
888.687	0.0163147
888.765	0.0162592
888.843	0.0161755
888.921	0.0161436
888.999	0.0162690
889.078	0.0162941
889.156	0.0160818
889.234	0.0162163
889.312	0.0160629
889.390	0.0160299
889.468	0.0161234
889.546	0.0161272
889.624	0.0160285
889.703	0.0161427
889.781	0.0161935
889.859	0.0161054
889.937	0.0159485
890.015	0.0161407
890.093	0.0163615
890.171	0.0161177
890.249	0.0161481
890.328	0.0161909
890.406	0.0160859
890.484	0.0160172
890.562	0.0160894
890.640	0.0161423
890.718	0.0160173
890.796	0.0161610
890.874	0.0161834
890.953	0.0159724
891.031	0.0159810
891.109	0.0160447
891.187	0.0160155
891.265	0.0159465
891.343	0.0158896
891.421	0.0160439
891.499	0.0159757
891.578	0.0158422
891.656	0.0159176
891.734	0.0160440
891.812	0.0160429
891.890	0.0160938
891.968	0.0161414
892.046	0.0161034
892.124	0.0160583
892.203	0.0160626
892.281	0.0161017
892.359	0.0161237
892.437	0.0161385
892.515	0.0162062
892.593	0.0162473
892.671	0.0163035
892.749	0.0163518
892.828	0.0163171
892.906	0.0163715
892.984	0.0164979
893.062	0.0164783
893.140	0.0162360
893.218	0.0163707
893.296	0.0164017
893.374	0.0162803
893.453	0.0163651
893.531	0.0161769
893.609	0.0162155
893.687	0.0161992
893.765	0.0162203
893.843	0.0162404
893.921	0.0160728
893.999	0.0162170
894.078	0.0161847
894.156	0.0162285
894.234	0.0161863
894.312	0.0161837
894.390	0.0161016
894.468	0.0162127
894.546	0.0162000
894.624	0.0161812
894.703	0.0161202
894.781	0.0161777
894.859	0.0161880
894.937	0.0160622
895.015	0.0160548
895.093	0.0160415
895.171	0.0160127
895.249	0.0160641
895.328	0.0159172
895.406	0.0158817
895.484	0.0159743
895.562	0.0158237
895.640	0.0160839
895.718	0.0160113
895.796	0.0158965
895.874	0.0158575
895.953	0.0158017
896.031	0.0158826
896.109	0.0160385
896.187	0.0161201
896.265	0.0160506
896.343	0.0161005
896.421	0.0160809
896.499	0.0161828
896.578	0.0160139
896.656	0.0162186
896.734	0.0163303
896.812	0.0162934
896.890	0.0162320
896.968	0.0163834
897.046	0.0163168
897.124	0.0161987
897.203	0.0162801
897.281	0.0162081
897.359	0.0162739
897.437	0.0161636
897.515	0.0163339
897.593	0.0163229
897.671	0.0162560
897.749	0.0161430
897.828	0.0162956
897.906	0.0162529
897.984	0.0161005
898.062	0.0162270
898.140	0.0162777
898.218	0.0162640
898.296	0.0162093
898.374	0.0161823
898.453	0.0161834
898.531	0.0161938
898.609	0.0162881
898.687	0.0164056
898.765	0.0161512
898.843	0.0162632
898.921	0.0161898
898.999	0.0161397
899.078	0.0162586
899.156	0.0162061
899.234	0.0163181
899.312	0.0162611
899.390	0.0162193
899.468	0.0161266
899.546	0.0163046
899.624	0.0161781
899.703	0.0161178
899.781	0.0160216
899.859	0.0160864
899.937	0.0161237
900.015	0.0162631
900.093	0.0161379
900.171	0.0160049
900.249	0.0161034
900.328	0.0162735
900.406	0.0162247
900.484	0.0161544
900.562	0.0162243
900.640	0.0161905
900.718	0.0162508
900.796	0.0162888
900.874	0.0162941
900.953	0.0163297
901.031	0.0164675
901.109	0.0163143
901.187	0.0162176
901.265	0.0162559
901.343	0.0163599
901.421	0.0162298
901.499	0.0160955
901.578	0.0161097
901.656	0.0161852
901.734	0.0162351
901.812	0.0161216
901.890	0.0160596
901.968	0.0161597
902.046	0.0161330
902.124	0.0159871
902.203	0.0162376
902.281	0.0160484
902.359	0.0161201
902.437	0.0161143
902.515	0.0161669
902.593	0.0162930
902.671	0.0161651
902.749	0.0162159
902.828	0.0162368
902.906	0.0161925
902.984	0.0162847
903.062	0.0163070
903.140	0.0162052
903.218	0.0162106
903.296	0.0162085
903.374	0.0162474
903.453	0.0162354
903.531	0.0162611
903.609	0.0160224
903.687	0.0161618
903.765	0.0163246
903.843	0.0162722
903.921	0.0161102
903.999	0.0161284
904.078	0.0163320
904.156	0.0161478
904.234	0.0160979
904.312	0.0162887
904.390	0.0163100
904.468	0.0162499
904.546	0.0162224
904.624	0.0163353
904.703	0.0162926
904.781	0.0162733
904.859	0.0162282
904.937	0.0163219
905.015	0.0164821
905.093	0.0163469
905.171	0.0162743
905.249	0.0164026
905.328	0.0164482
905.406	0.0164114
905.484	0.0164020
905.562	0.0161727
905.640	0.0162116
905.718	0.0162517
905.796	0.0162506
905.874	0.0163189
905.953	0.0161265
906.031	0.0162688
906.109	0.0162501
906.187	0.0161078
906.265	0.0159863
906.343	0.0160055
906.421	0.0161983
906.499	0.0160370
906.578	0.0160474
906.656	0.0160204
906.734	0.0160417
906.812	0.0161939
906.890	0.0160168
906.968	0.0160691
907.046	0.0161250
907.124	0.0161410
907.203	0.0160567
907.281	0.0161674
907.359	0.0162171
907.437	0.0161700
907.515	0.0161163
907.593	0.0162701
907.671	0.0163423
907.749	0.0162625
907.828	0.0162055
907.906	0.0162290
907.984	0.0160529
908.062	0.0162059
908.140	0.0161890
908.218	0.0161037
908.296	0.0161421
908.374	0.0162325
908.453	0.0161526
908.531	0.0161002
908.609	0.0161425
908.687	0.0160364
908.765	0.0160012
908.843	0.0161110
908.921	0.0162218
908.999	0.0161266
909.078	0.0161375
909.156	0.0162065
909.234	0.0162801
909.312	0.0163553
909.390	0.0162366
909.468	0.0163194
909.546	0.0162715
909.624	0.0162989
909.703	0.0162592
909.781	0.0163779
909.859	0.0164038
909.937	0.0163429
910.015	0.0163738
910.093	0.0161975
910.171	0.0163579
910.249	0.0162415
910.328	0.0161939
910.406	0.0163786
910.484	0.0163288
910.562	0.0161529
910.640	0.0161298
910.718	0.0161761
910.796	0.0162830
910.874	0.0160847
910.953	0.0161224
911.031	0.0162112
911.109	0.0160543
911.187	0.0161736
911.265	0.0161529
911.343	0.0162359
911.421	0.0161378
911.499	0.0161579
911.578	0.0161964
911.656	0.0162991
911.734	0.0161949
911.812	0.0160906
911.890	0.0161674
911.968	0.0162024
912.046	0.0160818
912.124	0.0161989
912.203	0.0161713
912.281	0.0162676
912.359	0.0160263
912.437	0.0162217
912.515	0.0162234
912.593	0.0161316
912.671	0.0161633
912.749	0.0160784
912.828	0.0161022
912.906	0.0161829
912.984	0.0160549
913.062	0.0160812
913.140	0.0159637
913.218	0.0160207
913.296	0.0161669
913.374	0.0161406
913.453	0.0161369
913.531	0.0162637
913.609	0.0163043
913.687	0.0161224
913.765	0.0161507
913.843	0.0161957
913.921	0.0162648
913.999	0.0162028
914.078	0.0160439
914.156	0.0160603
914.234	0.0160609
914.312	0.0159939
914.390	0.0160650
914.468	0.0160567
914.546	0.0160294
914.624	0.0161115
914.703	0.0159050
914.781	0.0161469
914.859	0.0160847
914.937	0.0161484
915.015	0.0161293
915.093	0.0163852
915.171	0.0161819
915.249	0.0161653
915.328	0.0164424
915.406	0.0161089
915.484	0.0162996
915.562	0.0163211
915.640	0.0162415
915.718	0.0162011
915.796	0.0163255
915.874	0.0162830
915.953	0.0163322
916.031	0.0162946
916.109	0.0163140
916.187	0.0162312
916.265	0.0162429
916.343	0.0161691
916.421	0.0164874
916.499	0.0162484
916.578	0.0163828
916.656	0.0162852
916.734	0.0162625
916.812	0.0163570
916.890	0.0163150
916.968	0.0163878
917.046	0.0162271
917.124	0.0162881
917.203	0.0162932
917.281	0.0162852
917.359	0.0162919
917.437	0.0163168
917.515	0.0163598
917.593	0.0162444
917.671	0.0161252
917.749	0.0161649
917.828	0.0163060
917.906	0.0163600
917.984	0.0162840
918.062	0.0163219
918.140	0.0163364
918.218	0.0162857
918.296	0.0163307
918.374	0.0162760
918.453	0.0164231
918.531	0.0163061
918.609	0.0161192
918.687	0.0161686
918.765	0.0162881
918.843	0.0162335
918.921	0.0161747
918.999	0.0162536
919.078	0.0161200
919.156	0.0160213
919.234	0.0162219
919.312	0.0161127
919.390	0.0161623
919.468	0.0161445
919.546	0.0161196
919.624	0.0160672
919.703	0.0160423
919.781	0.0161563
919.859	0.0161639
919.937	0.0159840
