06/10/2022	18:54:05	Ver.	4.1	UNKNOWN
Optical Delay	600.015094	Delta X		0.078125	Sweeps	1	Scan Rate	0/0
Coordinates	Axis 1	NaN	Axis 2	NaN	Axis 3	NaN	Axis 4	NaN	Axis 5	NaN	Axis 6	0.000000
TX Power	0.000000	RX Power	0.000000

600.015	0.0164868
600.093	0.0165714
600.171	0.0164814
600.249	0.0165274
600.328	0.0166502
600.406	0.0163929
600.484	0.0164156
600.562	0.0165315
600.640	0.0164774
600.718	0.0164363
600.796	0.0164149
600.874	0.0164743
600.953	0.0165036
601.031	0.0164907
601.109	0.0164671
601.187	0.0166071
601.265	0.0165883
601.343	0.0165321
601.421	0.0165992
601.499	0.0165477
601.578	0.0164675
601.656	0.0164342
601.734	0.0164874
601.812	0.0164282
601.890	0.0163383
601.968	0.0163663
602.046	0.0163931
602.124	0.0164807
602.203	0.0164817
602.281	0.0165935
602.359	0.0165092
602.437	0.0163805
602.515	0.0164024
602.593	0.0164812
602.671	0.0166076
602.749	0.0164277
602.828	0.0164523
602.906	0.0165720
602.984	0.0164429
603.062	0.0164113
603.140	0.0165649
603.218	0.0165353
603.296	0.0165292
603.374	0.0164688
603.453	0.0165258
603.531	0.0164639
603.609	0.0164915
603.687	0.0165656
603.765	0.0165292
603.843	0.0164745
603.921	0.0164809
603.999	0.0165910
604.078	0.0164867
604.156	0.0165225
604.234	0.0167061
604.312	0.0165511
604.390	0.0166238
604.468	0.0165675
604.546	0.0164753
604.624	0.0165784
604.703	0.0165466
604.781	0.0165647
604.859	0.0165092
604.937	0.0164067
605.015	0.0165256
605.093	0.0166047
605.171	0.0165638
605.249	0.0165636
605.328	0.0165498
605.406	0.0164913
605.484	0.0165707
605.562	0.0165185
605.640	0.0165359
605.718	0.0165184
605.796	0.0166344
605.874	0.0164737
605.953	0.0165363
606.031	0.0164917
606.109	0.0165338
606.187	0.0165656
606.265	0.0165431
606.343	0.0165126
606.421	0.0163983
606.499	0.0164582
606.578	0.0165285
606.656	0.0164941
606.734	0.0165888
606.812	0.0165197
606.890	0.0165506
606.968	0.0163194
607.046	0.0164788
607.124	0.0164922
607.203	0.0166770
607.281	0.0165101
607.359	0.0165380
607.437	0.0164142
607.515	0.0165226
607.593	0.0164101
607.671	0.0164432
607.749	0.0167989
607.828	0.0164960
607.906	0.0164790
607.984	0.0165635
608.062	0.0164726
608.140	0.0164756
608.218	0.0164812
608.296	0.0165825
608.374	0.0166481
608.453	0.0165388
608.531	0.0164317
608.609	0.0164674
608.687	0.0165240
608.765	0.0164894
608.843	0.0165047
608.921	0.0166563
608.999	0.0164891
609.078	0.0166427
609.156	0.0165920
609.234	0.0166509
609.312	0.0166266
609.390	0.0166283
609.468	0.0166341
609.546	0.0167368
609.624	0.0166007
609.703	0.0165304
609.781	0.0166373
609.859	0.0165501
609.937	0.0164925
610.015	0.0164018
610.093	0.0165158
610.171	0.0166433
610.249	0.0165781
610.328	0.0164147
610.406	0.0164653
610.484	0.0166187
610.562	0.0165273
610.640	0.0165075
610.718	0.0165887
610.796	0.0165514
610.874	0.0164948
610.953	0.0165759
611.031	0.0165729
611.109	0.0164300
611.187	0.0164500
611.265	0.0164799
611.343	0.0165204
611.421	0.0165337
611.499	0.0165350
611.578	0.0166137
611.656	0.0165643
611.734	0.0167088
611.812	0.0165641
611.890	0.0166769
611.968	0.0166193
612.046	0.0165707
612.124	0.0166545
612.203	0.0166272
612.281	0.0165134
612.359	0.0165185
612.437	0.0164459
612.515	0.0165611
612.593	0.0166496
612.671	0.0166363
612.749	0.0165369
612.828	0.0165141
612.906	0.0165559
612.984	0.0164941
613.062	0.0164455
613.140	0.0165348
613.218	0.0165308
613.296	0.0166358
613.374	0.0165736
613.453	0.0165575
613.531	0.0166374
613.609	0.0166011
613.687	0.0167032
613.765	0.0166132
613.843	0.0166376
613.921	0.0166747
613.999	0.0165715
614.078	0.0166135
614.156	0.0165678
614.234	0.0167235
614.312	0.0164590
614.390	0.0166412
614.468	0.0164738
614.546	0.0164934
614.624	0.0165935
614.703	0.0166123
614.781	0.0166570
614.859	0.0165707
614.937	0.0165136
615.015	0.0166054
615.093	0.0164825
615.171	0.0166172
615.249	0.0165439
615.328	0.0166048
615.406	0.0166335
615.484	0.0164764
615.562	0.0164869
615.640	0.0165354
615.718	0.0165662
615.796	0.0164435
615.874	0.0165033
615.953	0.0164833
616.031	0.0166356
616.109	0.0166091
616.187	0.0165288
616.265	0.0165385
616.343	0.0165089
616.421	0.0165621
616.499	0.0165285
616.578	0.0166219
616.656	0.0165901
616.734	0.0164100
616.812	0.0165192
616.890	0.0165202
616.968	0.0164547
617.046	0.0164961
617.124	0.0166640
617.203	0.0164985
617.281	0.0164544
617.359	0.0165867
617.437	0.0165839
617.515	0.0165556
617.593	0.0165130
617.671	0.0165507
617.749	0.0165368
617.828	0.0165216
617.906	0.0165671
617.984	0.0164803
618.062	0.0164860
618.140	0.0164914
618.218	0.0164578
618.296	0.0166718
618.374	0.0166238
618.453	0.0165326
618.531	0.0165685
618.609	0.0164211
618.687	0.0166292
618.765	0.0164687
618.843	0.0164811
618.921	0.0166592
618.999	0.0164750
619.078	0.0165131
619.156	0.0164346
619.234	0.0165523
619.312	0.0166386
619.390	0.0165379
619.468	0.0163595
619.546	0.0164403
619.624	0.0164845
619.703	0.0164826
619.781	0.0165224
619.859	0.0165025
619.937	0.0165665
620.015	0.0164576
620.093	0.0162848
620.171	0.0164289
620.249	0.0165744
620.328	0.0165374
620.406	0.0165903
620.484	0.0164869
620.562	0.0165749
620.640	0.0164793
620.718	0.0165103
620.796	0.0166220
620.874	0.0165025
620.953	0.0165652
621.031	0.0165797
621.109	0.0166714
621.187	0.0166381
621.265	0.0164909
621.343	0.0166375
621.421	0.0165395
621.499	0.0165981
621.578	0.0167088
621.656	0.0165801
621.734	0.0163247
621.812	0.0164152
621.890	0.0166638
621.968	0.0166841
622.046	0.0165295
622.124	0.0165189
622.203	0.0164274
622.281	0.0164563
622.359	0.0165343
622.437	0.0166556
622.515	0.0164391
622.593	0.0165424
622.671	0.0166068
622.749	0.0164694
622.828	0.0164727
622.906	0.0165439
622.984	0.0164864
623.062	0.0165586
623.140	0.0164758
623.218	0.0164668
623.296	0.0165136
623.374	0.0165442
623.453	0.0164977
623.531	0.0164776
623.609	0.0165092
623.687	0.0164166
623.765	0.0166085
623.843	0.0166068
623.921	0.0164324
623.999	0.0165235
624.078	0.0164498
624.156	0.0165446
624.234	0.0164879
624.312	0.0164029
624.390	0.0166309
624.468	0.0165279
624.546	0.0164956
624.624	0.0163978
624.703	0.0165339
624.781	0.0164621
624.859	0.0165249
624.937	0.0165491
625.015	0.0165146
625.093	0.0164639
625.171	0.0164629
625.249	0.0165929
625.328	0.0165632
625.406	0.0164253
625.484	0.0164511
625.562	0.0165822
625.640	0.0165476
625.718	0.0165335
625.796	0.0165986
625.874	0.0166022
625.953	0.0164828
626.031	0.0164684
626.109	0.0164594
626.187	0.0164481
626.265	0.0165988
626.343	0.0164595
626.421	0.0165108
626.499	0.0165948
626.578	0.0164310
626.656	0.0165096
626.734	0.0165343
626.812	0.0166593
626.890	0.0165382
626.968	0.0165382
627.046	0.0164872
627.124	0.0164993
627.203	0.0166226
627.281	0.0165104
627.359	0.0164071
627.437	0.0164691
627.515	0.0167633
627.593	0.0165040
627.671	0.0165886
627.749	0.0165781
627.828	0.0165067
627.906	0.0163653
627.984	0.0164949
628.062	0.0165292
628.140	0.0163961
628.218	0.0164156
628.296	0.0166024
628.374	0.0165912
628.453	0.0167088
628.531	0.0164484
628.609	0.0164552
628.687	0.0166389
628.765	0.0166432
628.843	0.0164761
628.921	0.0163795
628.999	0.0165751
629.078	0.0166566
629.156	0.0164646
629.234	0.0165289
629.312	0.0164596
629.390	0.0165449
629.468	0.0165552
629.546	0.0165318
629.624	0.0166801
629.703	0.0165469
629.781	0.0165627
629.859	0.0167394
629.937	0.0165672
630.015	0.0165771
630.093	0.0165968
630.171	0.0166258
630.249	0.0165628
630.328	0.0166491
630.406	0.0166103
630.484	0.0164373
630.562	0.0167336
630.640	0.0166682
630.718	0.0165780
630.796	0.0165415
630.874	0.0165215
630.953	0.0166260
631.031	0.0164802
631.109	0.0165407
631.187	0.0165865
631.265	0.0165060
631.343	0.0164699
631.421	0.0166566
631.499	0.0164980
631.578	0.0165561
631.656	0.0166004
631.734	0.0165520
631.812	0.0166362
631.890	0.0165694
631.968	0.0166027
632.046	0.0165609
632.124	0.0166100
632.203	0.0167519
632.281	0.0166520
632.359	0.0164643
632.437	0.0165679
632.515	0.0167979
632.593	0.0165153
632.671	0.0165743
632.749	0.0166333
632.828	0.0166418
632.906	0.0164227
632.984	0.0165125
633.062	0.0166942
633.140	0.0166546
633.218	0.0165483
633.296	0.0166144
633.374	0.0164940
633.453	0.0166287
633.531	0.0166634
633.609	0.0166176
633.687	0.0167168
633.765	0.0166113
633.843	0.0166023
633.921	0.0166023
633.999	0.0165683
634.078	0.0165823
634.156	0.0164853
634.234	0.0165733
634.312	0.0166563
634.390	0.0165651
634.468	0.0167389
634.546	0.0164995
634.624	0.0164849
634.703	0.0167014
634.781	0.0166342
634.859	0.0165199
634.937	0.0165118
635.015	0.0165358
635.093	0.0165923
635.171	0.0165822
635.249	0.0166163
635.328	0.0167779
635.406	0.0166250
635.484	0.0166278
635.562	0.0164297
635.640	0.0164045
635.718	0.0166631
635.796	0.0164796
635.874	0.0166016
635.953	0.0165570
636.031	0.0166218
636.109	0.0165913
636.187	0.0166130
636.265	0.0165086
636.343	0.0166737
636.421	0.0164822
636.499	0.0165863
636.578	0.0164859
636.656	0.0165341
636.734	0.0164932
636.812	0.0165565
636.890	0.0164034
636.968	0.0166052
637.046	0.0166734
637.124	0.0166332
637.203	0.0165168
637.281	0.0165699
637.359	0.0165405
637.437	0.0165093
637.515	0.0166964
637.593	0.0164705
637.671	0.0166850
637.749	0.0164936
637.828	0.0165883
637.906	0.0165347
637.984	0.0165856
638.062	0.0166275
638.140	0.0165546
638.218	0.0165100
638.296	0.0165913
638.374	0.0167239
638.453	0.0165341
638.531	0.0164747
638.609	0.0164806
638.687	0.0164153
638.765	0.0164930
638.843	0.0165974
638.921	0.0165531
638.999	0.0165787
639.078	0.0164587
639.156	0.0165903
639.234	0.0164304
639.312	0.0166215
639.390	0.0166618
639.468	0.0165178
639.546	0.0164826
639.624	0.0166120
639.703	0.0166134
639.781	0.0165314
639.859	0.0164494
639.937	0.0165680
640.015	0.0167126
640.093	0.0165631
640.171	0.0164815
640.249	0.0166241
640.328	0.0165667
640.406	0.0167109
640.484	0.0165897
640.562	0.0165874
640.640	0.0165604
640.718	0.0167873
640.796	0.0164972
640.874	0.0165709
640.953	0.0165461
641.031	0.0166359
641.109	0.0165917
641.187	0.0164880
641.265	0.0166277
641.343	0.0166042
641.421	0.0166473
641.499	0.0164299
641.578	0.0166280
641.656	0.0166753
641.734	0.0164834
641.812	0.0165505
641.890	0.0166472
641.968	0.0165972
642.046	0.0165462
642.124	0.0166508
642.203	0.0165236
642.281	0.0166737
642.359	0.0166719
642.437	0.0166131
642.515	0.0166936
642.593	0.0165746
642.671	0.0165710
642.749	0.0166306
642.828	0.0164783
642.906	0.0166209
642.984	0.0165511
643.062	0.0167487
643.140	0.0165654
643.218	0.0165392
643.296	0.0163760
643.374	0.0164320
643.453	0.0165790
643.531	0.0165418
643.609	0.0165660
643.687	0.0165603
643.765	0.0166557
643.843	0.0165371
643.921	0.0166112
643.999	0.0165010
644.078	0.0166071
644.156	0.0164785
644.234	0.0165401
644.312	0.0164944
644.390	0.0165734
644.468	0.0165601
644.546	0.0165124
644.624	0.0164651
644.703	0.0166581
644.781	0.0166813
644.859	0.0167342
644.937	0.0165829
645.015	0.0165428
645.093	0.0166316
645.171	0.0165134
645.249	0.0165950
645.328	0.0165739
645.406	0.0166431
645.484	0.0164980
645.562	0.0165829
645.640	0.0165647
645.718	0.0166653
645.796	0.0165587
645.874	0.0165302
645.953	0.0166223
646.031	0.0163754
646.109	0.0165815
646.187	0.0166378
646.265	0.0166803
646.343	0.0165816
646.421	0.0164606
646.499	0.0166447
646.578	0.0165182
646.656	0.0164372
646.734	0.0165030
646.812	0.0165285
646.890	0.0166012
646.968	0.0165443
647.046	0.0166140
647.124	0.0165274
647.203	0.0163859
647.281	0.0165290
647.359	0.0165802
647.437	0.0165025
647.515	0.0165751
647.593	0.0164540
647.671	0.0166766
647.749	0.0165347
647.828	0.0165468
647.906	0.0164562
647.984	0.0165495
648.062	0.0164909
648.140	0.0164974
648.218	0.0164682
648.296	0.0165307
648.374	0.0165131
648.453	0.0166190
648.531	0.0165026
648.609	0.0165779
648.687	0.0165534
648.765	0.0166606
648.843	0.0166180
648.921	0.0165472
648.999	0.0165814
649.078	0.0165057
649.156	0.0165807
649.234	0.0165343
649.312	0.0167039
649.390	0.0165486
649.468	0.0166615
649.546	0.0166216
649.624	0.0165058
649.703	0.0166064
649.781	0.0166132
649.859	0.0167095
649.937	0.0166055
650.015	0.0166666
650.093	0.0165426
650.171	0.0165822
650.249	0.0166042
650.328	0.0165536
650.406	0.0166080
650.484	0.0165774
650.562	0.0165850
650.640	0.0166044
650.718	0.0165627
650.796	0.0164587
650.874	0.0165845
650.953	0.0167081
651.031	0.0164856
651.109	0.0166296
651.187	0.0166360
651.265	0.0166024
651.343	0.0166135
651.421	0.0165520
651.499	0.0165255
651.578	0.0165868
651.656	0.0165870
651.734	0.0165494
651.812	0.0165755
651.890	0.0165852
651.968	0.0165183
652.046	0.0167419
652.124	0.0165328
652.203	0.0166129
652.281	0.0164339
652.359	0.0165176
652.437	0.0166171
652.515	0.0165744
652.593	0.0165939
652.671	0.0166811
652.749	0.0166720
652.828	0.0166338
652.906	0.0166065
652.984	0.0166370
653.062	0.0165527
653.140	0.0165340
653.218	0.0166798
653.296	0.0165490
653.374	0.0165351
653.453	0.0166820
653.531	0.0167187
653.609	0.0165968
653.687	0.0166924
653.765	0.0164965
653.843	0.0165717
653.921	0.0166947
653.999	0.0166508
654.078	0.0165244
654.156	0.0167382
654.234	0.0166516
654.312	0.0164195
654.390	0.0165740
654.468	0.0166735
654.546	0.0165035
654.624	0.0166222
654.703	0.0167573
654.781	0.0164904
654.859	0.0165615
654.937	0.0165827
655.015	0.0166072
655.093	0.0166409
655.171	0.0166728
655.249	0.0165118
655.328	0.0167060
655.406	0.0164869
655.484	0.0166248
655.562	0.0165840
655.640	0.0166779
655.718	0.0165825
655.796	0.0167097
655.874	0.0165882
655.953	0.0165676
656.031	0.0166602
656.109	0.0165977
656.187	0.0165741
656.265	0.0167539
656.343	0.0166597
656.421	0.0166176
656.499	0.0166142
656.578	0.0164680
656.656	0.0164935
656.734	0.0165267
656.812	0.0164983
656.890	0.0167113
656.968	0.0166025
657.046	0.0164588
657.124	0.0166089
657.203	0.0166497
657.281	0.0166183
657.359	0.0165855
657.437	0.0165498
657.515	0.0166695
657.593	0.0166579
657.671	0.0165736
657.749	0.0165679
657.828	0.0165639
657.906	0.0165942
657.984	0.0165921
658.062	0.0164509
658.140	0.0165434
658.218	0.0164981
658.296	0.0165522
658.374	0.0166140
658.453	0.0165445
658.531	0.0164746
658.609	0.0164962
658.687	0.0164899
658.765	0.0166473
658.843	0.0166386
658.921	0.0165356
658.999	0.0166441
659.078	0.0164714
659.156	0.0165816
659.234	0.0165768
659.312	0.0164656
659.390	0.0165398
659.468	0.0165891
659.546	0.0165877
659.624	0.0164957
659.703	0.0164716
659.781	0.0166743
659.859	0.0165651
659.937	0.0165134
660.015	0.0165787
660.093	0.0165650
660.171	0.0165697
660.249	0.0165362
660.328	0.0165175
660.406	0.0164971
660.484	0.0166151
660.562	0.0164880
660.640	0.0164243
660.718	0.0164973
660.796	0.0165971
660.874	0.0165681
660.953	0.0163807
661.031	0.0165327
661.109	0.0165413
661.187	0.0165459
661.265	0.0165812
661.343	0.0165450
661.421	0.0166184
661.499	0.0165416
661.578	0.0166082
661.656	0.0166039
661.734	0.0165492
661.812	0.0166611
661.890	0.0164967
661.968	0.0166342
662.046	0.0164142
662.124	0.0163943
662.203	0.0166035
662.281	0.0164618
662.359	0.0165147
662.437	0.0164538
662.515	0.0163567
662.593	0.0165249
662.671	0.0165244
662.749	0.0165941
662.828	0.0165295
662.906	0.0165544
662.984	0.0165618
663.062	0.0164589
663.140	0.0165359
663.218	0.0165887
663.296	0.0165368
663.374	0.0165084
663.453	0.0165596
663.531	0.0164355
663.609	0.0166087
663.687	0.0164842
663.765	0.0165142
663.843	0.0165135
663.921	0.0166742
663.999	0.0165509
664.078	0.0166147
664.156	0.0166096
664.234	0.0164452
664.312	0.0165082
664.390	0.0166003
664.468	0.0165970
664.546	0.0164131
664.624	0.0165882
664.703	0.0166294
664.781	0.0164549
664.859	0.0167043
664.937	0.0165234
665.015	0.0165390
665.093	0.0164005
665.171	0.0164459
665.249	0.0164868
665.328	0.0164931
665.406	0.0165566
665.484	0.0167310
665.562	0.0165202
665.640	0.0164777
665.718	0.0166953
665.796	0.0166920
665.874	0.0165983
665.953	0.0165051
666.031	0.0164542
666.109	0.0165402
666.187	0.0164932
666.265	0.0165678
666.343	0.0165670
666.421	0.0166127
666.499	0.0166411
666.578	0.0165900
666.656	0.0166211
666.734	0.0166189
666.812	0.0166078
666.890	0.0164471
666.968	0.0166482
667.046	0.0166686
667.124	0.0165894
667.203	0.0163971
667.281	0.0165396
667.359	0.0165410
667.437	0.0165293
667.515	0.0164135
667.593	0.0164899
667.671	0.0166061
667.749	0.0165620
667.828	0.0164869
667.906	0.0165479
667.984	0.0165593
668.062	0.0166646
668.140	0.0165386
668.218	0.0165841
668.296	0.0166485
668.374	0.0166134
668.453	0.0164995
668.531	0.0166618
668.609	0.0166892
668.687	0.0165543
668.765	0.0164876
668.843	0.0165527
668.921	0.0164779
668.999	0.0164493
669.078	0.0167153
669.156	0.0165583
669.234	0.0165471
669.312	0.0165701
669.390	0.0165377
669.468	0.0166325
669.546	0.0166473
669.624	0.0164841
669.703	0.0164928
669.781	0.0166242
669.859	0.0165398
669.937	0.0165239
670.015	0.0164851
670.093	0.0166938
670.171	0.0166000
670.249	0.0163778
670.328	0.0165842
670.406	0.0167095
670.484	0.0166734
670.562	0.0165134
670.640	0.0164802
670.718	0.0164805
670.796	0.0164175
670.874	0.0167411
670.953	0.0166589
671.031	0.0166149
671.109	0.0165971
671.187	0.0166871
671.265	0.0166393
671.343	0.0165965
671.421	0.0166442
671.499	0.0166248
671.578	0.0166378
671.656	0.0165585
671.734	0.0165707
671.812	0.0166595
671.890	0.0165567
671.968	0.0165591
672.046	0.0166708
672.124	0.0166603
672.203	0.0166010
672.281	0.0165658
672.359	0.0165940
672.437	0.0164799
672.515	0.0165993
672.593	0.0166875
672.671	0.0166007
672.749	0.0165290
672.828	0.0165165
672.906	0.0165446
672.984	0.0166061
673.062	0.0165733
673.140	0.0165668
673.218	0.0164502
673.296	0.0167188
673.374	0.0165327
673.453	0.0164657
673.531	0.0167403
673.609	0.0167283
673.687	0.0167068
673.765	0.0166660
673.843	0.0166548
673.921	0.0166022
673.999	0.0166143
674.078	0.0166003
674.156	0.0165688
674.234	0.0165749
674.312	0.0166369
674.390	0.0165176
674.468	0.0165882
674.546	0.0165762
674.624	0.0166135
674.703	0.0166104
674.781	0.0166145
674.859	0.0166607
674.937	0.0164980
675.015	0.0166045
675.093	0.0165873
675.171	0.0165219
675.249	0.0165882
675.328	0.0166489
675.406	0.0164565
675.484	0.0165292
675.562	0.0165634
675.640	0.0168087
675.718	0.0166209
675.796	0.0165788
675.874	0.0166795
675.953	0.0166452
676.031	0.0164888
676.109	0.0165359
676.187	0.0166596
676.265	0.0165472
676.343	0.0165176
676.421	0.0163546
676.499	0.0165141
676.578	0.0165828
676.656	0.0167458
676.734	0.0166264
676.812	0.0166602
676.890	0.0165550
676.968	0.0166149
677.046	0.0165596
677.124	0.0165498
677.203	0.0165670
677.281	0.0166396
677.359	0.0167121
677.437	0.0166088
677.515	0.0165535
677.593	0.0165820
677.671	0.0165449
677.749	0.0166964
677.828	0.0165754
677.906	0.0165633
677.984	0.0165719
678.062	0.0165598
678.140	0.0166439
678.218	0.0165374
678.296	0.0164532
678.374	0.0165207
678.453	0.0167352
678.531	0.0165299
678.609	0.0164296
678.687	0.0165525
678.765	0.0166009
678.843	0.0164443
678.921	0.0165654
678.999	0.0164446
679.078	0.0164926
679.156	0.0165157
679.234	0.0166106
679.312	0.0166746
679.390	0.0166307
679.468	0.0165343
679.546	0.0165292
679.624	0.0165268
679.703	0.0165298
679.781	0.0166953
679.859	0.0165153
679.937	0.0164957
680.015	0.0165005
680.093	0.0165580
680.171	0.0164913
680.249	0.0164629
680.328	0.0166258
680.406	0.0164342
680.484	0.0165614
680.562	0.0166365
680.640	0.0166978
680.718	0.0166397
680.796	0.0165842
680.874	0.0164768
680.953	0.0165979
681.031	0.0165902
681.109	0.0164700
681.187	0.0164287
681.265	0.0166835
681.343	0.0165084
681.421	0.0165598
681.499	0.0166898
681.578	0.0164915
681.656	0.0165419
681.734	0.0166388
681.812	0.0165236
681.890	0.0166151
681.968	0.0166289
682.046	0.0164928
682.124	0.0165814
682.203	0.0164632
682.281	0.0167009
682.359	0.0165429
682.437	0.0166141
682.515	0.0164617
682.593	0.0165466
682.671	0.0166455
682.749	0.0164950
682.828	0.0164920
682.906	0.0165408
682.984	0.0165290
683.062	0.0165267
683.140	0.0165373
683.218	0.0163924
683.296	0.0164596
683.374	0.0165868
683.453	0.0165352
683.531	0.0165295
683.609	0.0165558
683.687	0.0165927
683.765	0.0165933
683.843	0.0165703
683.921	0.0165591
683.999	0.0164856
684.078	0.0165986
684.156	0.0165076
684.234	0.0165101
684.312	0.0164639
684.390	0.0165323
684.468	0.0165040
684.546	0.0165338
684.624	0.0166590
684.703	0.0164664
684.781	0.0165387
684.859	0.0166190
684.937	0.0164678
685.015	0.0164395
685.093	0.0164999
685.171	0.0165689
685.249	0.0165357
685.328	0.0166106
685.406	0.0164973
685.484	0.0164872
685.562	0.0165797
685.640	0.0166332
685.718	0.0165253
685.796	0.0165453
685.874	0.0163444
685.953	0.0165116
686.031	0.0166712
686.109	0.0165765
686.187	0.0165519
686.265	0.0165232
686.343	0.0166368
686.421	0.0165220
686.499	0.0165398
686.578	0.0165031
686.656	0.0164772
686.734	0.0165224
686.812	0.0166595
686.890	0.0165582
686.968	0.0164972
687.046	0.0165163
687.124	0.0164406
687.203	0.0164124
687.281	0.0166364
687.359	0.0164375
687.437	0.0165538
687.515	0.0166786
687.593	0.0166006
687.671	0.0164732
687.749	0.0164648
687.828	0.0164728
687.906	0.0165582
687.984	0.0165352
688.062	0.0165269
688.140	0.0165422
688.218	0.0164751
688.296	0.0166441
688.374	0.0165038
688.453	0.0164667
688.531	0.0164894
688.609	0.0166323
688.687	0.0165282
688.765	0.0164828
688.843	0.0165224
688.921	0.0165602
688.999	0.0164931
689.078	0.0164373
689.156	0.0165714
689.234	0.0164629
689.312	0.0165810
689.390	0.0166058
689.468	0.0165245
689.546	0.0166093
689.624	0.0164959
689.703	0.0165749
689.781	0.0165945
689.859	0.0166935
689.937	0.0165417
690.015	0.0165298
690.093	0.0165908
690.171	0.0166725
690.249	0.0165623
690.328	0.0166454
690.406	0.0166785
690.484	0.0166273
690.562	0.0164741
690.640	0.0165594
690.718	0.0165118
690.796	0.0166525
690.874	0.0167091
690.953	0.0166142
691.031	0.0165311
691.109	0.0164479
691.187	0.0165901
691.265	0.0164887
691.343	0.0164385
691.421	0.0165550
691.499	0.0167250
691.578	0.0165221
691.656	0.0166000
691.734	0.0164444
691.812	0.0165408
691.890	0.0166252
691.968	0.0165089
692.046	0.0165202
692.124	0.0166307
692.203	0.0165085
692.281	0.0166260
692.359	0.0165078
692.437	0.0165199
692.515	0.0165848
692.593	0.0165025
692.671	0.0165243
692.749	0.0165573
692.828	0.0164379
692.906	0.0166623
692.984	0.0166199
693.062	0.0165131
693.140	0.0165519
693.218	0.0164900
693.296	0.0165134
693.374	0.0164710
693.453	0.0166290
693.531	0.0166260
693.609	0.0165781
693.687	0.0165757
693.765	0.0165783
693.843	0.0165642
693.921	0.0165804
693.999	0.0165716
694.078	0.0166055
694.156	0.0165730
694.234	0.0166373
694.312	0.0165473
694.390	0.0165894
694.468	0.0166257
694.546	0.0166187
694.624	0.0166746
694.703	0.0166776
694.781	0.0167012
694.859	0.0165581
694.937	0.0166531
695.015	0.0165825
695.093	0.0165945
695.171	0.0166949
695.249	0.0165755
695.328	0.0166889
695.406	0.0165842
695.484	0.0167352
695.562	0.0164829
695.640	0.0164094
695.718	0.0166129
695.796	0.0164486
695.874	0.0165549
695.953	0.0166619
696.031	0.0166934
696.109	0.0165658
696.187	0.0166673
696.265	0.0165865
696.343	0.0166031
696.421	0.0165844
696.499	0.0166744
696.578	0.0165816
696.656	0.0166354
696.734	0.0166309
696.812	0.0166377
696.890	0.0167410
696.968	0.0167516
697.046	0.0166064
697.124	0.0166164
697.203	0.0165129
697.281	0.0165980
697.359	0.0165614
697.437	0.0167523
697.515	0.0165439
697.593	0.0166421
697.671	0.0167562
697.749	0.0165076
697.828	0.0164583
697.906	0.0166792
697.984	0.0166440
698.062	0.0166196
698.140	0.0166363
698.218	0.0166150
698.296	0.0167063
698.374	0.0166978
698.453	0.0166536
698.531	0.0166595
698.609	0.0164619
698.687	0.0165678
698.765	0.0164896
698.843	0.0165535
698.921	0.0164536
698.999	0.0165298
699.078	0.0165218
699.156	0.0165923
699.234	0.0165899
699.312	0.0168417
699.390	0.0165889
699.468	0.0164849
699.546	0.0166122
699.624	0.0165633
699.703	0.0166331
699.781	0.0167020
699.859	0.0166003
699.937	0.0166044
700.015	0.0166798
700.093	0.0167887
700.171	0.0165881
700.249	0.0165226
700.328	0.0166953
700.406	0.0166241
700.484	0.0166522
700.562	0.0165984
700.640	0.0166273
700.718	0.0166090
700.796	0.0166503
700.874	0.0165696
700.953	0.0165290
701.031	0.0165588
701.109	0.0167406
701.187	0.0167024
701.265	0.0166943
701.343	0.0165303
701.421	0.0166498
701.499	0.0167641
701.578	0.0167160
701.656	0.0165011
701.734	0.0166225
701.812	0.0166541
701.890	0.0166844
701.968	0.0165343
702.046	0.0164007
702.124	0.0166347
702.203	0.0165730
702.281	0.0164771
702.359	0.0165186
702.437	0.0162812
702.515	0.0163877
702.593	0.0164864
702.671	0.0164639
702.749	0.0163625
702.828	0.0165322
702.906	0.0165004
702.984	0.0164197
703.062	0.0165662
703.140	0.0164270
703.218	0.0163913
703.296	0.0162902
703.374	0.0165751
703.453	0.0165235
703.531	0.0164703
703.609	0.0165785
703.687	0.0164915
703.765	0.0165413
703.843	0.0164845
703.921	0.0165871
703.999	0.0167085
704.078	0.0166279
704.156	0.0166592
704.234	0.0166422
704.312	0.0167513
704.390	0.0165628
704.468	0.0166366
704.546	0.0165525
704.624	0.0165832
704.703	0.0166222
704.781	0.0165979
704.859	0.0165144
704.937	0.0165533
705.015	0.0165513
705.093	0.0165317
705.171	0.0165579
705.249	0.0163855
705.328	0.0165156
705.406	0.0166377
705.484	0.0165519
705.562	0.0166140
705.640	0.0165514
705.718	0.0165127
705.796	0.0165269
705.874	0.0164738
705.953	0.0165417
706.031	0.0166472
706.109	0.0164023
706.187	0.0164837
706.265	0.0165336
706.343	0.0165410
706.421	0.0164885
706.499	0.0164751
706.578	0.0164570
706.656	0.0164171
706.734	0.0164378
706.812	0.0164986
706.890	0.0164324
706.968	0.0164716
707.046	0.0165578
707.124	0.0165239
707.203	0.0163184
707.281	0.0164248
707.359	0.0163508
707.437	0.0164808
707.515	0.0165770
707.593	0.0165245
707.671	0.0165670
707.749	0.0166185
707.828	0.0165717
707.906	0.0165567
707.984	0.0165784
708.062	0.0166485
708.140	0.0166618
708.218	0.0166883
708.296	0.0165063
708.374	0.0167210
708.453	0.0168385
708.531	0.0166996
708.609	0.0167014
708.687	0.0165745
708.765	0.0165550
708.843	0.0166567
708.921	0.0166485
708.999	0.0165818
709.078	0.0167113
709.156	0.0165801
709.234	0.0165797
709.312	0.0166267
709.390	0.0166190
709.468	0.0164388
709.546	0.0166133
709.624	0.0165706
709.703	0.0165246
709.781	0.0167427
709.859	0.0164392
709.937	0.0165226
710.015	0.0164857
710.093	0.0165586
710.171	0.0164704
710.249	0.0165712
710.328	0.0166043
710.406	0.0166145
710.484	0.0165492
710.562	0.0166163
710.640	0.0166391
710.718	0.0165282
710.796	0.0164821
710.874	0.0166558
710.953	0.0165453
711.031	0.0165770
711.109	0.0165721
711.187	0.0167503
711.265	0.0165254
711.343	0.0164892
711.421	0.0166919
711.499	0.0167213
711.578	0.0166554
711.656	0.0165854
711.734	0.0165189
711.812	0.0165382
711.890	0.0166110
711.968	0.0166661
712.046	0.0166164
712.124	0.0165520
712.203	0.0165942
712.281	0.0167051
712.359	0.0166225
712.437	0.0165800
712.515	0.0166925
712.593	0.0168005
712.671	0.0167891
712.749	0.0167574
712.828	0.0166006
712.906	0.0165688
712.984	0.0167448
713.062	0.0167314
713.140	0.0166097
713.218	0.0166246
713.296	0.0166935
713.374	0.0166716
713.453	0.0167077
713.531	0.0167817
713.609	0.0167163
713.687	0.0165334
713.765	0.0165829
713.843	0.0165321
713.921	0.0166524
713.999	0.0165445
714.078	0.0163745
714.156	0.0164667
714.234	0.0165884
714.312	0.0167232
714.390	0.0166039
714.468	0.0167610
714.546	0.0165593
714.624	0.0165263
714.703	0.0164729
714.781	0.0166134
714.859	0.0166142
714.937	0.0166309
715.015	0.0165551
715.093	0.0165691
715.171	0.0165894
715.249	0.0166240
715.328	0.0166608
715.406	0.0166219
715.484	0.0166225
715.562	0.0165702
715.640	0.0166091
715.718	0.0164993
715.796	0.0166056
715.874	0.0166368
715.953	0.0166857
716.031	0.0164986
716.109	0.0165895
716.187	0.0165297
716.265	0.0166856
716.343	0.0166457
716.421	0.0164804
716.499	0.0165308
716.578	0.0166851
716.656	0.0166586
716.734	0.0165738
716.812	0.0165752
716.890	0.0168246
716.968	0.0167494
717.046	0.0166946
717.124	0.0165768
717.203	0.0166019
717.281	0.0166858
717.359	0.0165871
717.437	0.0165138
717.515	0.0165599
717.593	0.0167159
717.671	0.0165585
717.749	0.0165258
717.828	0.0165250
717.906	0.0165174
717.984	0.0165807
718.062	0.0165738
718.140	0.0164923
718.218	0.0165351
718.296	0.0164840
718.374	0.0165771
718.453	0.0165352
718.531	0.0164855
718.609	0.0165508
718.687	0.0165609
718.765	0.0163966
718.843	0.0163444
718.921	0.0166551
718.999	0.0164166
719.078	0.0164783
719.156	0.0164513
719.234	0.0165884
719.312	0.0165359
719.390	0.0165598
719.468	0.0166090
719.546	0.0167134
719.624	0.0167634
719.703	0.0166257
719.781	0.0166852
719.859	0.0168277
719.937	0.0168095
720.015	0.0166653
720.093	0.0166999
720.171	0.0167268
720.249	0.0167558
720.328	0.0166560
720.406	0.0166835
720.484	0.0166019
720.562	0.0165337
720.640	0.0164163
720.718	0.0164549
720.796	0.0163049
720.874	0.0161590
720.953	0.0163505
721.031	0.0163244
721.109	0.0163667
721.187	0.0163430
721.265	0.0163711
721.343	0.0163410
721.421	0.0164079
721.499	0.0165272
721.578	0.0166033
721.656	0.0165733
721.734	0.0164816
721.812	0.0166328
721.890	0.0166830
721.968	0.0167487
722.046	0.0167752
722.124	0.0167810
722.203	0.0168168
722.281	0.0168470
722.359	0.0167121
722.437	0.0166987
722.515	0.0167317
722.593	0.0166420
722.671	0.0165760
722.749	0.0166717
722.828	0.0164331
722.906	0.0165281
722.984	0.0163982
723.062	0.0165971
723.140	0.0165384
723.218	0.0163801
723.296	0.0163351
723.374	0.0164972
723.453	0.0165371
723.531	0.0165623
723.609	0.0165852
723.687	0.0165769
723.765	0.0166470
723.843	0.0164992
723.921	0.0165560
723.999	0.0166367
724.078	0.0165575
724.156	0.0168258
724.234	0.0166927
724.312	0.0166506
724.390	0.0168131
724.468	0.0168194
724.546	0.0166660
724.624	0.0167136
724.703	0.0168328
724.781	0.0166895
724.859	0.0168216
724.937	0.0166412
725.015	0.0165477
725.093	0.0165965
725.171	0.0165387
725.249	0.0166473
725.328	0.0164668
725.406	0.0164211
725.484	0.0164813
725.562	0.0165373
725.640	0.0164880
725.718	0.0165809
725.796	0.0165275
725.874	0.0165466
725.953	0.0165945
726.031	0.0166885
726.109	0.0166597
726.187	0.0165710
726.265	0.0166550
726.343	0.0165765
726.421	0.0167138
726.499	0.0166946
726.578	0.0166432
726.656	0.0166568
726.734	0.0166281
726.812	0.0166145
726.890	0.0167545
726.968	0.0165862
727.046	0.0165481
727.124	0.0166472
727.203	0.0166996
727.281	0.0166335
727.359	0.0165748
727.437	0.0166222
727.515	0.0166238
727.593	0.0165823
727.671	0.0164922
727.749	0.0165955
727.828	0.0166425
727.906	0.0164202
727.984	0.0165002
728.062	0.0165779
728.140	0.0166319
728.218	0.0164484
728.296	0.0165321
728.374	0.0166670
728.453	0.0166204
728.531	0.0165179
728.609	0.0166402
728.687	0.0166238
728.765	0.0165055
728.843	0.0165524
728.921	0.0167278
728.999	0.0165656
729.078	0.0166360
729.156	0.0166235
729.234	0.0165851
729.312	0.0164555
729.390	0.0166121
729.468	0.0165570
729.546	0.0164329
729.624	0.0165481
729.703	0.0165009
729.781	0.0164600
729.859	0.0165242
729.937	0.0164425
730.015	0.0165063
730.093	0.0165285
730.171	0.0165175
730.249	0.0165551
730.328	0.0164847
730.406	0.0165356
730.484	0.0165308
730.562	0.0165948
730.640	0.0165691
730.718	0.0165163
730.796	0.0165403
730.874	0.0166650
730.953	0.0164579
731.031	0.0165075
731.109	0.0165412
731.187	0.0166400
731.265	0.0164511
731.343	0.0164700
731.421	0.0164739
731.499	0.0165099
731.578	0.0165998
731.656	0.0165181
731.734	0.0166100
731.812	0.0167042
731.890	0.0164128
731.968	0.0164629
732.046	0.0165014
732.124	0.0164703
732.203	0.0165096
732.281	0.0164429
732.359	0.0164941
732.437	0.0164970
732.515	0.0165424
732.593	0.0165259
732.671	0.0165090
732.749	0.0165083
732.828	0.0165775
732.906	0.0165382
732.984	0.0164470
733.062	0.0165664
733.140	0.0165940
733.218	0.0164186
733.296	0.0165031
733.374	0.0165763
733.453	0.0165128
733.531	0.0166644
733.609	0.0165560
733.687	0.0167111
733.765	0.0165073
733.843	0.0165389
733.921	0.0165687
733.999	0.0164660
734.078	0.0164566
734.156	0.0166186
734.234	0.0165800
734.312	0.0165619
734.390	0.0164084
734.468	0.0166055
734.546	0.0167390
734.624	0.0165919
734.703	0.0165413
734.781	0.0166028
734.859	0.0167305
734.937	0.0165225
735.015	0.0166219
735.093	0.0166096
735.171	0.0166433
735.249	0.0166135
735.328	0.0165816
735.406	0.0166653
735.484	0.0165640
735.562	0.0164268
735.640	0.0165575
735.718	0.0166058
735.796	0.0165052
735.874	0.0166578
735.953	0.0164850
736.031	0.0165183
736.109	0.0164957
736.187	0.0165443
736.265	0.0165929
736.343	0.0165089
736.421	0.0165327
736.499	0.0164366
736.578	0.0165658
736.656	0.0165144
736.734	0.0165986
736.812	0.0165170
736.890	0.0165685
736.968	0.0163606
737.046	0.0165841
737.124	0.0165475
737.203	0.0164752
737.281	0.0164310
737.359	0.0163984
737.437	0.0164756
737.515	0.0165328
737.593	0.0163930
737.671	0.0164184
737.749	0.0164204
737.828	0.0164176
737.906	0.0165291
737.984	0.0164329
738.062	0.0165292
738.140	0.0164743
738.218	0.0164596
738.296	0.0164233
738.374	0.0165137
738.453	0.0164766
738.531	0.0164631
738.609	0.0165675
738.687	0.0164844
738.765	0.0165179
738.843	0.0163999
738.921	0.0166211
738.999	0.0164702
739.078	0.0164614
739.156	0.0164725
739.234	0.0165843
739.312	0.0166376
739.390	0.0164726
739.468	0.0165833
739.546	0.0165852
739.624	0.0164414
739.703	0.0165184
739.781	0.0165053
739.859	0.0164911
739.937	0.0165159
740.015	0.0165285
740.093	0.0165346
740.171	0.0165917
740.249	0.0164988
740.328	0.0164834
740.406	0.0164809
740.484	0.0166106
740.562	0.0163657
740.640	0.0164347
740.718	0.0165681
740.796	0.0165159
740.874	0.0165579
740.953	0.0165021
741.031	0.0164890
741.109	0.0165632
741.187	0.0165308
741.265	0.0164990
741.343	0.0166344
741.421	0.0166068
741.499	0.0164691
741.578	0.0164688
741.656	0.0164963
741.734	0.0164552
741.812	0.0165218
741.890	0.0164706
741.968	0.0164850
742.046	0.0165842
742.124	0.0164482
742.203	0.0165887
742.281	0.0165670
742.359	0.0164887
742.437	0.0165432
742.515	0.0164625
742.593	0.0165822
742.671	0.0167034
742.749	0.0164702
742.828	0.0165252
742.906	0.0165661
742.984	0.0165680
743.062	0.0165045
743.140	0.0165030
743.218	0.0166624
743.296	0.0166753
743.374	0.0165748
743.453	0.0166231
743.531	0.0166300
743.609	0.0166034
743.687	0.0165365
743.765	0.0165627
743.843	0.0165577
743.921	0.0166796
743.999	0.0166475
744.078	0.0166913
744.156	0.0167155
744.234	0.0166760
744.312	0.0166075
744.390	0.0165913
744.468	0.0166322
744.546	0.0164653
744.624	0.0164491
744.703	0.0166914
744.781	0.0166754
744.859	0.0165154
744.937	0.0166249
745.015	0.0166995
745.093	0.0166045
745.171	0.0166270
745.249	0.0165971
745.328	0.0166861
745.406	0.0164909
745.484	0.0165879
745.562	0.0166253
745.640	0.0166004
745.718	0.0166047
745.796	0.0165982
745.874	0.0165745
745.953	0.0165946
746.031	0.0165900
746.109	0.0165615
746.187	0.0165636
746.265	0.0165779
746.343	0.0165723
746.421	0.0164986
746.499	0.0164623
746.578	0.0164129
746.656	0.0166618
746.734	0.0166347
746.812	0.0165771
746.890	0.0165875
746.968	0.0163843
747.046	0.0164287
747.124	0.0164463
747.203	0.0165172
747.281	0.0165076
747.359	0.0164891
747.437	0.0165450
747.515	0.0163914
747.593	0.0165330
747.671	0.0166593
747.749	0.0165379
747.828	0.0165543
747.906	0.0165402
747.984	0.0166023
748.062	0.0165482
748.140	0.0166749
748.218	0.0164384
748.296	0.0165236
748.374	0.0165718
748.453	0.0164091
748.531	0.0165046
748.609	0.0165078
748.687	0.0165042
748.765	0.0165391
748.843	0.0165662
748.921	0.0166180
748.999	0.0164668
749.078	0.0165450
749.156	0.0165206
749.234	0.0164126
749.312	0.0165350
749.390	0.0165683
749.468	0.0165611
749.546	0.0165625
749.624	0.0165534
749.703	0.0164416
749.781	0.0165089
749.859	0.0166816
749.937	0.0164255
750.015	0.0165868
750.093	0.0165063
750.171	0.0167160
750.249	0.0165056
750.328	0.0164924
750.406	0.0166709
750.484	0.0167459
750.562	0.0165948
750.640	0.0165764
750.718	0.0166476
750.796	0.0165969
750.874	0.0166879
750.953	0.0165723
751.031	0.0166042
751.109	0.0166022
751.187	0.0166252
751.265	0.0165427
751.343	0.0165723
751.421	0.0166020
751.499	0.0165221
751.578	0.0165633
751.656	0.0165840
751.734	0.0165260
751.812	0.0165561
751.890	0.0165380
751.968	0.0166608
752.046	0.0165335
752.124	0.0165255
752.203	0.0165930
752.281	0.0166689
752.359	0.0165623
752.437	0.0164711
752.515	0.0164934
752.593	0.0166457
752.671	0.0165397
752.749	0.0166886
752.828	0.0166418
752.906	0.0164880
752.984	0.0165885
753.062	0.0166674
753.140	0.0166312
753.218	0.0166530
753.296	0.0166235
753.374	0.0166479
753.453	0.0166489
753.531	0.0167047
753.609	0.0166882
753.687	0.0165707
753.765	0.0165219
753.843	0.0165232
753.921	0.0165229
753.999	0.0165204
754.078	0.0165291
754.156	0.0167057
754.234	0.0166737
754.312	0.0166467
754.390	0.0166592
754.468	0.0166153
754.546	0.0165582
754.624	0.0165229
754.703	0.0166041
754.781	0.0164619
754.859	0.0165453
754.937	0.0164571
755.015	0.0165366
755.093	0.0164791
755.171	0.0165981
755.249	0.0164449
755.328	0.0162099
755.406	0.0163641
755.484	0.0164497
755.562	0.0163654
755.640	0.0162305
755.718	0.0163172
755.796	0.0164214
755.874	0.0164367
755.953	0.0165092
756.031	0.0164781
756.109	0.0164339
756.187	0.0165231
756.265	0.0164966
756.343	0.0167290
756.421	0.0164825
756.499	0.0165877
756.578	0.0166239
756.656	0.0166148
756.734	0.0165518
756.812	0.0165495
756.890	0.0165781
756.968	0.0164478
757.046	0.0165735
757.124	0.0164843
757.203	0.0164252
757.281	0.0163806
757.359	0.0164233
757.437	0.0165265
757.515	0.0163635
757.593	0.0165108
757.671	0.0161911
757.749	0.0164330
757.828	0.0165704
757.906	0.0164996
757.984	0.0165860
758.062	0.0163873
758.140	0.0164817
758.218	0.0164882
758.296	0.0165192
758.374	0.0166164
758.453	0.0166191
758.531	0.0164840
758.609	0.0166021
758.687	0.0166636
758.765	0.0166909
758.843	0.0165823
758.921	0.0165823
758.999	0.0167566
759.078	0.0167103
759.156	0.0165008
759.234	0.0164587
759.312	0.0165578
759.390	0.0164264
759.468	0.0163967
759.546	0.0163520
759.624	0.0164862
759.703	0.0165541
759.781	0.0164603
759.859	0.0165614
759.937	0.0164520
760.015	0.0163850
760.093	0.0164194
760.171	0.0163176
760.249	0.0164479
760.328	0.0162639
760.406	0.0163307
760.484	0.0162888
760.562	0.0162555
760.640	0.0161928
760.718	0.0163182
760.796	0.0162415
760.874	0.0160816
760.953	0.0163450
761.031	0.0163351
761.109	0.0162966
761.187	0.0164027
761.265	0.0164299
761.343	0.0164303
761.421	0.0165085
761.499	0.0165844
761.578	0.0167894
761.656	0.0166820
761.734	0.0166862
761.812	0.0169947
761.890	0.0169303
761.968	0.0169027
762.046	0.0168906
762.124	0.0168835
762.203	0.0167638
762.281	0.0168827
762.359	0.0168196
762.437	0.0168577
762.515	0.0167529
762.593	0.0167809
762.671	0.0167257
762.749	0.0166498
762.828	0.0167029
762.906	0.0166732
762.984	0.0166215
763.062	0.0166335
763.140	0.0166931
763.218	0.0164653
763.296	0.0163826
763.374	0.0164328
763.453	0.0163792
763.531	0.0164445
763.609	0.0163577
763.687	0.0161372
763.765	0.0161121
763.843	0.0161905
763.921	0.0161629
763.999	0.0162933
764.078	0.0162083
764.156	0.0161821
764.234	0.0162949
764.312	0.0165561
764.390	0.0163829
764.468	0.0164883
764.546	0.0165830
764.624	0.0165327
764.703	0.0166309
764.781	0.0167303
764.859	0.0166072
764.937	0.0166605
765.015	0.0166666
765.093	0.0166723
765.171	0.0166962
765.249	0.0167695
765.328	0.0169424
765.406	0.0168987
765.484	0.0168824
765.562	0.0168323
765.640	0.0167187
765.718	0.0169272
765.796	0.0168660
765.874	0.0168072
765.953	0.0166907
766.031	0.0167085
766.109	0.0166469
766.187	0.0168217
766.265	0.0167651
766.343	0.0167264
766.421	0.0165794
766.499	0.0167327
766.578	0.0166838
766.656	0.0165560
766.734	0.0166504
766.812	0.0164899
766.890	0.0165414
766.968	0.0164232
767.046	0.0164701
767.124	0.0164236
767.203	0.0162938
767.281	0.0163598
767.359	0.0162744
767.437	0.0163487
767.515	0.0162766
767.593	0.0163100
767.671	0.0163419
767.749	0.0162731
767.828	0.0163768
767.906	0.0164501
767.984	0.0163125
768.062	0.0165128
768.140	0.0165446
768.218	0.0167009
768.296	0.0166699
768.374	0.0165804
768.453	0.0168502
768.531	0.0169317
768.609	0.0168367
768.687	0.0168460
768.765	0.0170911
768.843	0.0170707
768.921	0.0170486
768.999	0.0169028
769.078	0.0170689
769.156	0.0169938
769.234	0.0170476
769.312	0.0170135
769.390	0.0168276
769.468	0.0167776
769.546	0.0167024
769.624	0.0165501
769.703	0.0164202
769.781	0.0165022
769.859	0.0164016
769.937	0.0165391
770.015	0.0162086
770.093	0.0162560
770.171	0.0162129
770.249	0.0162985
770.328	0.0163085
770.406	0.0162058
770.484	0.0162137
770.562	0.0162865
770.640	0.0162026
770.718	0.0162441
770.796	0.0162798
770.874	0.0162759
770.953	0.0162216
771.031	0.0162215
771.109	0.0164497
771.187	0.0164497
771.265	0.0165135
771.343	0.0164680
771.421	0.0167149
771.499	0.0166838
771.578	0.0165904
771.656	0.0165856
771.734	0.0167435
771.812	0.0165977
771.890	0.0166982
771.968	0.0167128
772.046	0.0166687
772.124	0.0167511
772.203	0.0167408
772.281	0.0168816
772.359	0.0168093
772.437	0.0167588
772.515	0.0168793
772.593	0.0169375
772.671	0.0170053
772.749	0.0169130
772.828	0.0171085
772.906	0.0169702
772.984	0.0168229
773.062	0.0169790
773.140	0.0167702
773.218	0.0167654
773.296	0.0169501
773.374	0.0169027
773.453	0.0167673
773.531	0.0166721
773.609	0.0167244
773.687	0.0166489
773.765	0.0165288
773.843	0.0166180
773.921	0.0165695
773.999	0.0162233
774.078	0.0162455
774.156	0.0161833
774.234	0.0160973
774.312	0.0162014
774.390	0.0162440
774.468	0.0162700
774.546	0.0160762
774.624	0.0160947
774.703	0.0161381
774.781	0.0161308
774.859	0.0161320
774.937	0.0163040
775.015	0.0163387
775.093	0.0163126
775.171	0.0164714
775.249	0.0163655
775.328	0.0164055
775.406	0.0164413
775.484	0.0164503
775.562	0.0165928
775.640	0.0164614
775.718	0.0164732
775.796	0.0165585
775.874	0.0167923
775.953	0.0166772
776.031	0.0165584
776.109	0.0166565
776.187	0.0167439
776.265	0.0165888
776.343	0.0165730
776.421	0.0164423
776.499	0.0165957
776.578	0.0165238
776.656	0.0166001
776.734	0.0164440
776.812	0.0166442
776.890	0.0165391
776.968	0.0166858
777.046	0.0166109
777.124	0.0167393
777.203	0.0167313
777.281	0.0167777
777.359	0.0168719
777.437	0.0168414
777.515	0.0168597
777.593	0.0169406
777.671	0.0166904
777.749	0.0164512
777.828	0.0165388
777.906	0.0165788
777.984	0.0165385
778.062	0.0163348
778.140	0.0163669
778.218	0.0162811
778.296	0.0163218
778.374	0.0162392
778.453	0.0163574
778.531	0.0162070
778.609	0.0163185
778.687	0.0162541
778.765	0.0161407
778.843	0.0162320
778.921	0.0162830
778.999	0.0162108
779.078	0.0163196
779.156	0.0164896
779.234	0.0165350
779.312	0.0166906
779.390	0.0168070
779.468	0.0168060
779.546	0.0168164
779.624	0.0169845
779.703	0.0169218
779.781	0.0169299
779.859	0.0169491
779.937	0.0169530
780.015	0.0168322
780.093	0.0168980
780.171	0.0166751
780.249	0.0167612
780.328	0.0166255
780.406	0.0164823
780.484	0.0165426
780.562	0.0165553
780.640	0.0163192
780.718	0.0163021
780.796	0.0162753
780.874	0.0162203
780.953	0.0161896
781.031	0.0161215
781.109	0.0160613
781.187	0.0161176
781.265	0.0160880
781.343	0.0160519
781.421	0.0160275
781.499	0.0160025
781.578	0.0161132
781.656	0.0161474
781.734	0.0162255
781.812	0.0163512
781.890	0.0162959
781.968	0.0164478
782.046	0.0165392
782.124	0.0166460
782.203	0.0167138
782.281	0.0168633
782.359	0.0170862
782.437	0.0169009
782.515	0.0169819
782.593	0.0171387
782.671	0.0170803
782.749	0.0171409
782.828	0.0171851
782.906	0.0170288
782.984	0.0171534
783.062	0.0172282
783.140	0.0172451
783.218	0.0171475
783.296	0.0171049
783.374	0.0170132
783.453	0.0170899
783.531	0.0169408
783.609	0.0168897
783.687	0.0168104
783.765	0.0166920
783.843	0.0167005
783.921	0.0164658
783.999	0.0164775
784.078	0.0163080
784.156	0.0161975
784.234	0.0162688
784.312	0.0162041
784.390	0.0160895
784.468	0.0159840
784.546	0.0159527
784.624	0.0160278
784.703	0.0159109
784.781	0.0159089
784.859	0.0159283
784.937	0.0159960
785.015	0.0160006
785.093	0.0159968
785.171	0.0160628
785.249	0.0161169
785.328	0.0161718
785.406	0.0162175
785.484	0.0162749
785.562	0.0163476
785.640	0.0164372
785.718	0.0164297
785.796	0.0164156
785.874	0.0165315
785.953	0.0166375
786.031	0.0167102
786.109	0.0166541
786.187	0.0167563
786.265	0.0166506
786.343	0.0167906
786.421	0.0167450
786.499	0.0167937
786.578	0.0168695
786.656	0.0168420
786.734	0.0168765
786.812	0.0168533
786.890	0.0168557
786.968	0.0169067
787.046	0.0168647
787.124	0.0169161
787.203	0.0169779
787.281	0.0168575
787.359	0.0169872
787.437	0.0168941
787.515	0.0168456
787.593	0.0169041
787.671	0.0166662
787.749	0.0168052
787.828	0.0168507
787.906	0.0167722
787.984	0.0166862
788.062	0.0166727
788.140	0.0164732
788.218	0.0163882
788.296	0.0164045
788.374	0.0163909
788.453	0.0162605
788.531	0.0161541
788.609	0.0162762
788.687	0.0162315
788.765	0.0161414
788.843	0.0161790
788.921	0.0163046
788.999	0.0162790
789.078	0.0164238
789.156	0.0164463
789.234	0.0163748
789.312	0.0164914
789.390	0.0166138
789.468	0.0165720
789.546	0.0167533
789.624	0.0167813
789.703	0.0167115
789.781	0.0167664
789.859	0.0167180
789.937	0.0168970
790.015	0.0167773
790.093	0.0167468
790.171	0.0165948
790.249	0.0167156
790.328	0.0165796
790.406	0.0164809
790.484	0.0163988
790.562	0.0162193
790.640	0.0161719
790.718	0.0161754
790.796	0.0160711
790.874	0.0160001
790.953	0.0160439
791.031	0.0159808
791.109	0.0159653
791.187	0.0160625
791.265	0.0161292
791.343	0.0160234
791.421	0.0163823
791.499	0.0164434
791.578	0.0165010
791.656	0.0165836
791.734	0.0166904
791.812	0.0167443
791.890	0.0168653
791.968	0.0169356
792.046	0.0170861
792.124	0.0171873
792.203	0.0170815
792.281	0.0171487
792.359	0.0171426
792.437	0.0170538
792.515	0.0172053
792.593	0.0172151
792.671	0.0173095
792.749	0.0174001
792.828	0.0173341
792.906	0.0171844
792.984	0.0171163
793.062	0.0171332
793.140	0.0170621
793.218	0.0170113
793.296	0.0170535
793.374	0.0169450
793.453	0.0168806
793.531	0.0168511
793.609	0.0168779
793.687	0.0167870
793.765	0.0165265
793.843	0.0164899
793.921	0.0164744
793.999	0.0163662
794.078	0.0163084
794.156	0.0161607
794.234	0.0161431
794.312	0.0161361
794.390	0.0159341
794.468	0.0160673
794.546	0.0159122
794.624	0.0157301
794.703	0.0159695
794.781	0.0159283
794.859	0.0158863
794.937	0.0159586
795.015	0.0159747
795.093	0.0159550
795.171	0.0161357
795.249	0.0164404
795.328	0.0163084
795.406	0.0163408
795.484	0.0165417
795.562	0.0164892
795.640	0.0165123
795.718	0.0166729
795.796	0.0167353
795.874	0.0167317
795.953	0.0167634
796.031	0.0167463
796.109	0.0168246
796.187	0.0167732
796.265	0.0166872
796.343	0.0168452
796.421	0.0167492
796.499	0.0168443
796.578	0.0167110
796.656	0.0167898
796.734	0.0167171
796.812	0.0166866
796.890	0.0166846
796.968	0.0168293
797.046	0.0168700
797.124	0.0168419
797.203	0.0169263
797.281	0.0169513
797.359	0.0170616
797.437	0.0169604
797.515	0.0170484
797.593	0.0172013
797.671	0.0172381
797.749	0.0171252
797.828	0.0173022
797.906	0.0172729
797.984	0.0170586
798.062	0.0170591
798.140	0.0170495
798.218	0.0169836
798.296	0.0169036
798.374	0.0167616
798.453	0.0166167
798.531	0.0168181
798.609	0.0166223
798.687	0.0164960
798.765	0.0163056
798.843	0.0162960
798.921	0.0162643
798.999	0.0160949
799.078	0.0160006
799.156	0.0160095
799.234	0.0160020
799.312	0.0159572
799.390	0.0158790
799.468	0.0159007
799.546	0.0157202
799.624	0.0158830
799.703	0.0158600
799.781	0.0158884
799.859	0.0158407
799.937	0.0158682
800.015	0.0158835
800.093	0.0159232
800.171	0.0161784
800.249	0.0160999
800.328	0.0160824
800.406	0.0163283
800.484	0.0162859
800.562	0.0164288
800.640	0.0165058
800.718	0.0165796
800.796	0.0166614
800.874	0.0167331
800.953	0.0168845
801.031	0.0168584
801.109	0.0169971
801.187	0.0171542
801.265	0.0170440
801.343	0.0171877
801.421	0.0172515
801.499	0.0173329
801.578	0.0173208
801.656	0.0173475
801.734	0.0175394
801.812	0.0173666
801.890	0.0172791
801.968	0.0174924
802.046	0.0173460
802.124	0.0173722
802.203	0.0173311
802.281	0.0172681
802.359	0.0171699
802.437	0.0171635
802.515	0.0171188
802.593	0.0169600
802.671	0.0168596
802.749	0.0167438
802.828	0.0166254
802.906	0.0165754
802.984	0.0163580
803.062	0.0163360
803.140	0.0162478
803.218	0.0160912
803.296	0.0160506
803.374	0.0160153
803.453	0.0158690
803.531	0.0159412
803.609	0.0159465
803.687	0.0159792
803.765	0.0161226
803.843	0.0160843
803.921	0.0160608
803.999	0.0162998
804.078	0.0162630
804.156	0.0163162
804.234	0.0162962
804.312	0.0163700
804.390	0.0162661
804.468	0.0164478
804.546	0.0164475
804.624	0.0163896
804.703	0.0163165
804.781	0.0163950
804.859	0.0163664
804.937	0.0163802
805.015	0.0163792
805.093	0.0162579
805.171	0.0163390
805.249	0.0163055
805.328	0.0161782
805.406	0.0164162
805.484	0.0163238
805.562	0.0163571
805.640	0.0163362
805.718	0.0165457
805.796	0.0165733
805.874	0.0166460
805.953	0.0167464
806.031	0.0168353
806.109	0.0167268
806.187	0.0169297
806.265	0.0168282
806.343	0.0168320
806.421	0.0168473
806.499	0.0170187
806.578	0.0171996
806.656	0.0170425
806.734	0.0170033
806.812	0.0171318
806.890	0.0172736
806.968	0.0171092
807.046	0.0170834
807.124	0.0171221
807.203	0.0169255
807.281	0.0170586
807.359	0.0171476
807.437	0.0171620
807.515	0.0169682
807.593	0.0169265
807.671	0.0171120
807.749	0.0168484
807.828	0.0167954
807.906	0.0167264
807.984	0.0166908
808.062	0.0166493
808.140	0.0166302
808.218	0.0165663
808.296	0.0163567
808.374	0.0161597
808.453	0.0159823
808.531	0.0160820
808.609	0.0159073
808.687	0.0157787
808.765	0.0158395
808.843	0.0157164
808.921	0.0156342
808.999	0.0157279
809.078	0.0157547
809.156	0.0157101
809.234	0.0158947
809.312	0.0157990
809.390	0.0159231
809.468	0.0159038
809.546	0.0161622
809.624	0.0163115
809.703	0.0165425
809.781	0.0164623
809.859	0.0167377
809.937	0.0168320
810.015	0.0168666
810.093	0.0168152
810.171	0.0168262
810.249	0.0168709
810.328	0.0168613
810.406	0.0167124
810.484	0.0167890
810.562	0.0166123
810.640	0.0165829
810.718	0.0164804
810.796	0.0164969
810.874	0.0166053
810.953	0.0165187
811.031	0.0166888
811.109	0.0167837
811.187	0.0167194
811.265	0.0168488
811.343	0.0169056
811.421	0.0169930
811.499	0.0171405
811.578	0.0172126
811.656	0.0170693
811.734	0.0172199
811.812	0.0171434
811.890	0.0173136
811.968	0.0171835
812.046	0.0171908
812.124	0.0170974
812.203	0.0169521
812.281	0.0169878
812.359	0.0168474
812.437	0.0167014
812.515	0.0165501
812.593	0.0165530
812.671	0.0165453
812.749	0.0164030
812.828	0.0163838
812.906	0.0162357
812.984	0.0162582
813.062	0.0163390
813.140	0.0162315
813.218	0.0163064
813.296	0.0160934
813.374	0.0161410
813.453	0.0162452
813.531	0.0161262
813.609	0.0161363
813.687	0.0161597
813.765	0.0161339
813.843	0.0161350
813.921	0.0162684
813.999	0.0163192
814.078	0.0164053
814.156	0.0165523
814.234	0.0166569
814.312	0.0165911
814.390	0.0166105
814.468	0.0170847
814.546	0.0167294
814.624	0.0165891
814.703	0.0167369
814.781	0.0167797
814.859	0.0167199
814.937	0.0168572
815.015	0.0166351
815.093	0.0166595
815.171	0.0165125
815.249	0.0166934
815.328	0.0166744
815.406	0.0165774
815.484	0.0165372
815.562	0.0164839
815.640	0.0165234
815.718	0.0165058
815.796	0.0164592
815.874	0.0166413
815.953	0.0165085
816.031	0.0164909
816.109	0.0164823
816.187	0.0165830
816.265	0.0165511
816.343	0.0165430
816.421	0.0166202
816.499	0.0164266
816.578	0.0165875
816.656	0.0165939
816.734	0.0165950
816.812	0.0166597
816.890	0.0167640
816.968	0.0169265
817.046	0.0169727
817.124	0.0169870
817.203	0.0169916
817.281	0.0170972
817.359	0.0170651
817.437	0.0170728
817.515	0.0170668
817.593	0.0170815
817.671	0.0169796
817.749	0.0169922
817.828	0.0168919
817.906	0.0169293
817.984	0.0167257
818.062	0.0164196
818.140	0.0164799
818.218	0.0164121
818.296	0.0163676
818.374	0.0161420
818.453	0.0160472
818.531	0.0160374
818.609	0.0160658
818.687	0.0157298
818.765	0.0156131
818.843	0.0158118
818.921	0.0158080
818.999	0.0157777
819.078	0.0158752
819.156	0.0159372
819.234	0.0159844
819.312	0.0160638
819.390	0.0160562
819.468	0.0161588
819.546	0.0164027
819.624	0.0165450
819.703	0.0166558
819.781	0.0166798
819.859	0.0169474
819.937	0.0169855
820.015	0.0171980
820.093	0.0172855
820.171	0.0172900
820.249	0.0174844
820.328	0.0174493
820.406	0.0174139
820.484	0.0172237
820.562	0.0174847
820.640	0.0173307
820.718	0.0174197
820.796	0.0171308
820.874	0.0172334
820.953	0.0169941
821.031	0.0170139
821.109	0.0167321
821.187	0.0168301
821.265	0.0165273
821.343	0.0164731
821.421	0.0164497
821.499	0.0163698
821.578	0.0162505
821.656	0.0162395
821.734	0.0162321
821.812	0.0161366
821.890	0.0161900
821.968	0.0161235
822.046	0.0162789
822.124	0.0160126
822.203	0.0161132
822.281	0.0159562
822.359	0.0161147
822.437	0.0161181
822.515	0.0160300
822.593	0.0161034
822.671	0.0161565
822.749	0.0161559
822.828	0.0162793
822.906	0.0164156
822.984	0.0164494
823.062	0.0163791
823.140	0.0165810
823.218	0.0167109
823.296	0.0167352
823.374	0.0167134
823.453	0.0167719
823.531	0.0167800
823.609	0.0168272
823.687	0.0167886
823.765	0.0168792
823.843	0.0170538
823.921	0.0168949
823.999	0.0170329
824.078	0.0168813
824.156	0.0167225
824.234	0.0167805
824.312	0.0167839
824.390	0.0167174
824.468	0.0166248
824.546	0.0167596
824.624	0.0167403
824.703	0.0166788
824.781	0.0166857
824.859	0.0166360
824.937	0.0166878
825.015	0.0166328
825.093	0.0164617
825.171	0.0165143
825.249	0.0162857
825.328	0.0163091
825.406	0.0166352
825.484	0.0165645
825.562	0.0165287
825.640	0.0164205
825.718	0.0165182
825.796	0.0165039
825.874	0.0165923
825.953	0.0164952
826.031	0.0164779
826.109	0.0164877
826.187	0.0165303
826.265	0.0165224
826.343	0.0166759
826.421	0.0165916
826.499	0.0164754
826.578	0.0165948
826.656	0.0166039
826.734	0.0166229
826.812	0.0165683
826.890	0.0167121
826.968	0.0168157
827.046	0.0166340
827.124	0.0166401
827.203	0.0167430
827.281	0.0167603
827.359	0.0166908
827.437	0.0166833
827.515	0.0167097
827.593	0.0165709
827.671	0.0165937
827.749	0.0167087
827.828	0.0167082
827.906	0.0166253
827.984	0.0166844
828.062	0.0166759
828.140	0.0166322
828.218	0.0167004
828.296	0.0165463
828.374	0.0165522
828.453	0.0164980
828.531	0.0165331
828.609	0.0165342
828.687	0.0166170
828.765	0.0165554
828.843	0.0164413
828.921	0.0164474
828.999	0.0164108
829.078	0.0165762
829.156	0.0163894
829.234	0.0163477
829.312	0.0163556
829.390	0.0162419
829.468	0.0163171
829.546	0.0160971
829.624	0.0162383
829.703	0.0163416
829.781	0.0163718
829.859	0.0162495
829.937	0.0163335
830.015	0.0162709
830.093	0.0164509
830.171	0.0164465
830.249	0.0165879
830.328	0.0165732
830.406	0.0166792
830.484	0.0166476
830.562	0.0166269
830.640	0.0165945
830.718	0.0166264
830.796	0.0165927
830.874	0.0167262
830.953	0.0166647
831.031	0.0165481
831.109	0.0165905
831.187	0.0165200
831.265	0.0165874
831.343	0.0165249
831.421	0.0167262
831.499	0.0166451
831.578	0.0166175
831.656	0.0167377
831.734	0.0165839
831.812	0.0164679
831.890	0.0164738
831.968	0.0167486
832.046	0.0166475
832.124	0.0165572
832.203	0.0165919
832.281	0.0166593
832.359	0.0166148
832.437	0.0165118
832.515	0.0164619
832.593	0.0164171
832.671	0.0164959
832.749	0.0163116
832.828	0.0164360
832.906	0.0165411
832.984	0.0162605
833.062	0.0163782
833.140	0.0165020
833.218	0.0165141
833.296	0.0164359
833.374	0.0164021
833.453	0.0166920
833.531	0.0163666
833.609	0.0166659
833.687	0.0166044
833.765	0.0165215
833.843	0.0164786
833.921	0.0165736
833.999	0.0166840
834.078	0.0165543
834.156	0.0165816
834.234	0.0166396
834.312	0.0165666
834.390	0.0166146
834.468	0.0163934
834.546	0.0164934
834.624	0.0165685
834.703	0.0166312
834.781	0.0165782
834.859	0.0165276
834.937	0.0165423
835.015	0.0164809
835.093	0.0164745
835.171	0.0163875
835.249	0.0164425
835.328	0.0163754
835.406	0.0163955
835.484	0.0163645
835.562	0.0163982
835.640	0.0164004
835.718	0.0163818
835.796	0.0165392
835.874	0.0163934
835.953	0.0163000
836.031	0.0163608
836.109	0.0164725
836.187	0.0164004
836.265	0.0162927
836.343	0.0164233
836.421	0.0165106
836.499	0.0164536
836.578	0.0164016
836.656	0.0163196
836.734	0.0163470
836.812	0.0164235
836.890	0.0163860
836.968	0.0162778
837.046	0.0163637
837.124	0.0164131
837.203	0.0164077
837.281	0.0164884
837.359	0.0165273
837.437	0.0164233
837.515	0.0165233
837.593	0.0166040
837.671	0.0166514
837.749	0.0166922
837.828	0.0167046
837.906	0.0167832
837.984	0.0168483
838.062	0.0168375
838.140	0.0169996
838.218	0.0167870
838.296	0.0169024
838.374	0.0170438
838.453	0.0169457
838.531	0.0169807
838.609	0.0168746
838.687	0.0169650
838.765	0.0168838
838.843	0.0169114
838.921	0.0168703
838.999	0.0169300
839.078	0.0167697
839.156	0.0166060
839.234	0.0166496
839.312	0.0165453
839.390	0.0164565
839.468	0.0164607
839.546	0.0163963
839.624	0.0163587
839.703	0.0163007
839.781	0.0163691
839.859	0.0162238
839.937	0.0161411
840.015	0.0161463
840.093	0.0160976
840.171	0.0160137
840.249	0.0159501
840.328	0.0160842
840.406	0.0159562
840.484	0.0159752
840.562	0.0160848
840.640	0.0161599
840.718	0.0160065
840.796	0.0161022
840.874	0.0161990
840.953	0.0161761
841.031	0.0163028
841.109	0.0162337
841.187	0.0162655
841.265	0.0164634
841.343	0.0164713
841.421	0.0165751
841.499	0.0165284
841.578	0.0166544
841.656	0.0165865
841.734	0.0167470
841.812	0.0167146
841.890	0.0168765
841.968	0.0169601
842.046	0.0168784
842.124	0.0168902
842.203	0.0170281
842.281	0.0169075
842.359	0.0170497
842.437	0.0168371
842.515	0.0169361
842.593	0.0168832
842.671	0.0169156
842.749	0.0169661
842.828	0.0167966
842.906	0.0169059
842.984	0.0166785
843.062	0.0167138
843.140	0.0167139
843.218	0.0167077
843.296	0.0166546
843.374	0.0165970
843.453	0.0165913
843.531	0.0165893
843.609	0.0165884
843.687	0.0165434
843.765	0.0164390
843.843	0.0165533
843.921	0.0165875
843.999	0.0164884
844.078	0.0164148
844.156	0.0165832
844.234	0.0166505
844.312	0.0166565
844.390	0.0166815
844.468	0.0165337
844.546	0.0166821
844.624	0.0167124
844.703	0.0167168
844.781	0.0166897
844.859	0.0167747
844.937	0.0166373
845.015	0.0166906
845.093	0.0167339
845.171	0.0167228
845.249	0.0168400
845.328	0.0166177
845.406	0.0165090
845.484	0.0166553
845.562	0.0166669
845.640	0.0165311
845.718	0.0165323
845.796	0.0164705
845.874	0.0165062
845.953	0.0162656
846.031	0.0163300
846.109	0.0165663
846.187	0.0163576
846.265	0.0163336
846.343	0.0163434
846.421	0.0163456
846.499	0.0163647
846.578	0.0163586
846.656	0.0163724
846.734	0.0164601
846.812	0.0163663
846.890	0.0163428
846.968	0.0163596
847.046	0.0163176
847.124	0.0164806
847.203	0.0165584
847.281	0.0164264
847.359	0.0166053
847.437	0.0165520
847.515	0.0164248
847.593	0.0164906
847.671	0.0164693
847.749	0.0166457
847.828	0.0166776
847.906	0.0165645
847.984	0.0165959
848.062	0.0167141
848.140	0.0167385
848.218	0.0166628
848.296	0.0166943
848.374	0.0166718
848.453	0.0168799
848.531	0.0167708
848.609	0.0167878
848.687	0.0167612
848.765	0.0167571
848.843	0.0167396
848.921	0.0167986
848.999	0.0166376
849.078	0.0165838
849.156	0.0167502
849.234	0.0167796
849.312	0.0166370
849.390	0.0167284
849.468	0.0165903
849.546	0.0164948
849.624	0.0165534
849.703	0.0165749
849.781	0.0164149
849.859	0.0165028
849.937	0.0167171
850.015	0.0165593
850.093	0.0164912
850.171	0.0164089
850.249	0.0165072
850.328	0.0165948
850.406	0.0164339
850.484	0.0163828
850.562	0.0164477
850.640	0.0163600
850.718	0.0163328
850.796	0.0165585
850.874	0.0166307
850.953	0.0162882
851.031	0.0164252
851.109	0.0166333
851.187	0.0164494
851.265	0.0165151
851.343	0.0164803
851.421	0.0164828
851.499	0.0167591
851.578	0.0167388
851.656	0.0166650
851.734	0.0168348
851.812	0.0167618
851.890	0.0166509
851.968	0.0167805
852.046	0.0167632
852.124	0.0167303
852.203	0.0168050
852.281	0.0168342
852.359	0.0164937
852.437	0.0164928
852.515	0.0166673
852.593	0.0166077
852.671	0.0164741
852.749	0.0165442
852.828	0.0165658
852.906	0.0165313
852.984	0.0165261
853.062	0.0165811
853.140	0.0164896
853.218	0.0161768
853.296	0.0163337
853.374	0.0163645
853.453	0.0164669
853.531	0.0163894
853.609	0.0163493
853.687	0.0162773
853.765	0.0162984
853.843	0.0162698
853.921	0.0163741
853.999	0.0164626
854.078	0.0163049
854.156	0.0163717
854.234	0.0164760
854.312	0.0164186
854.390	0.0164354
854.468	0.0164395
854.546	0.0165006
854.624	0.0165813
854.703	0.0164719
854.781	0.0166113
854.859	0.0166135
854.937	0.0165945
855.015	0.0165731
855.093	0.0166199
855.171	0.0166010
855.249	0.0166212
855.328	0.0165440
855.406	0.0165000
855.484	0.0164980
855.562	0.0166177
855.640	0.0166070
855.718	0.0166259
855.796	0.0165778
855.874	0.0165974
855.953	0.0166078
856.031	0.0164070
856.109	0.0165202
856.187	0.0165752
856.265	0.0164033
856.343	0.0165158
856.421	0.0165542
856.499	0.0165959
856.578	0.0162933
856.656	0.0164581
856.734	0.0164681
856.812	0.0165111
856.890	0.0164986
856.968	0.0165642
857.046	0.0164594
857.124	0.0164053
857.203	0.0164077
857.281	0.0163961
857.359	0.0165296
857.437	0.0164933
857.515	0.0164470
857.593	0.0165091
857.671	0.0164177
857.749	0.0165159
857.828	0.0165007
857.906	0.0165827
857.984	0.0164785
858.062	0.0165821
858.140	0.0164312
858.218	0.0164323
858.296	0.0165075
858.374	0.0164771
858.453	0.0163404
858.531	0.0164381
858.609	0.0163597
858.687	0.0164558
858.765	0.0164677
858.843	0.0163383
858.921	0.0164011
858.999	0.0163708
859.078	0.0164740
859.156	0.0164504
859.234	0.0162067
859.312	0.0163779
859.390	0.0165170
859.468	0.0164587
859.546	0.0165135
859.624	0.0164565
859.703	0.0163769
859.781	0.0164877
859.859	0.0165329
859.937	0.0163290
860.015	0.0165018
860.093	0.0165106
860.171	0.0164800
860.249	0.0164005
860.328	0.0164397
860.406	0.0164912
860.484	0.0165025
860.562	0.0164953
860.640	0.0164472
860.718	0.0165229
860.796	0.0165541
860.874	0.0165681
860.953	0.0165653
861.031	0.0164978
861.109	0.0164388
861.187	0.0165788
861.265	0.0164834
861.343	0.0165649
861.421	0.0165954
861.499	0.0165211
861.578	0.0165554
861.656	0.0164155
861.734	0.0164632
861.812	0.0165258
861.890	0.0165092
861.968	0.0165540
862.046	0.0165441
862.124	0.0165669
862.203	0.0166318
862.281	0.0167244
862.359	0.0166489
862.437	0.0166820
862.515	0.0165911
862.593	0.0166432
862.671	0.0166713
862.749	0.0167326
862.828	0.0166198
862.906	0.0167507
862.984	0.0167567
863.062	0.0165866
863.140	0.0166248
863.218	0.0166290
863.296	0.0165997
863.374	0.0166291
863.453	0.0165602
863.531	0.0165517
863.609	0.0166230
863.687	0.0166157
863.765	0.0164854
863.843	0.0163675
863.921	0.0165775
863.999	0.0164581
864.078	0.0165007
864.156	0.0166020
864.234	0.0165849
864.312	0.0165468
864.390	0.0166023
864.468	0.0165823
864.546	0.0166824
864.624	0.0166714
864.703	0.0166068
864.781	0.0165368
864.859	0.0166272
864.937	0.0166091
865.015	0.0164375
865.093	0.0165421
865.171	0.0165602
865.249	0.0164398
865.328	0.0164717
865.406	0.0166092
865.484	0.0166805
865.562	0.0164764
865.640	0.0167281
865.718	0.0165817
865.796	0.0165646
865.874	0.0166887
865.953	0.0166727
866.031	0.0167260
866.109	0.0165797
866.187	0.0166426
866.265	0.0166727
866.343	0.0167768
866.421	0.0166149
866.499	0.0166181
866.578	0.0166761
866.656	0.0167809
866.734	0.0167107
866.812	0.0166687
866.890	0.0166759
866.968	0.0166331
867.046	0.0166096
867.124	0.0164571
867.203	0.0165776
867.281	0.0165662
867.359	0.0165506
867.437	0.0167251
867.515	0.0166108
867.593	0.0165744
867.671	0.0163660
867.749	0.0164893
867.828	0.0164880
867.906	0.0165136
867.984	0.0165368
868.062	0.0166112
868.140	0.0165704
868.218	0.0165878
868.296	0.0165629
868.374	0.0166524
868.453	0.0165230
868.531	0.0165476
868.609	0.0166076
868.687	0.0166808
868.765	0.0166189
868.843	0.0164411
868.921	0.0164925
868.999	0.0164899
869.078	0.0165591
869.156	0.0163616
869.234	0.0164232
869.312	0.0163882
869.390	0.0165376
869.468	0.0166154
869.546	0.0165025
869.624	0.0164380
869.703	0.0167052
869.781	0.0165721
869.859	0.0164491
869.937	0.0165472
870.015	0.0166141
870.093	0.0166496
870.171	0.0167508
870.249	0.0166331
870.328	0.0165562
870.406	0.0165627
870.484	0.0165742
870.562	0.0165728
870.640	0.0165704
870.718	0.0166028
870.796	0.0166370
870.874	0.0165746
870.953	0.0166334
871.031	0.0165202
871.109	0.0164880
871.187	0.0166177
871.265	0.0165138
871.343	0.0164794
871.421	0.0166700
871.499	0.0166082
871.578	0.0166373
871.656	0.0164310
871.734	0.0165147
871.812	0.0166859
871.890	0.0165363
871.968	0.0163433
872.046	0.0165660
872.124	0.0164663
872.203	0.0165194
872.281	0.0165269
872.359	0.0165056
872.437	0.0163932
872.515	0.0163924
872.593	0.0164191
872.671	0.0165776
872.749	0.0164528
872.828	0.0164687
872.906	0.0164725
872.984	0.0165298
873.062	0.0166128
873.140	0.0165298
873.218	0.0165855
873.296	0.0165771
873.374	0.0166594
873.453	0.0166654
873.531	0.0166474
873.609	0.0167184
873.687	0.0165662
873.765	0.0166528
873.843	0.0166190
873.921	0.0165392
873.999	0.0165211
874.078	0.0164809
874.156	0.0165141
874.234	0.0165684
874.312	0.0164277
874.390	0.0164385
874.468	0.0164451
874.546	0.0164034
874.624	0.0164737
874.703	0.0163889
874.781	0.0163557
874.859	0.0165667
874.937	0.0164511
875.015	0.0163789
875.093	0.0164928
875.171	0.0164385
875.249	0.0164748
875.328	0.0165717
875.406	0.0164450
875.484	0.0165144
875.562	0.0165596
875.640	0.0166244
875.718	0.0167358
875.796	0.0167240
875.874	0.0166633
875.953	0.0165632
876.031	0.0165790
876.109	0.0166498
876.187	0.0165172
876.265	0.0166518
876.343	0.0166095
876.421	0.0167159
876.499	0.0166111
876.578	0.0166264
876.656	0.0166248
876.734	0.0166273
876.812	0.0165347
876.890	0.0166878
876.968	0.0166573
877.046	0.0166802
877.124	0.0165726
877.203	0.0165703
877.281	0.0165646
877.359	0.0165842
877.437	0.0165888
877.515	0.0165231
877.593	0.0164964
877.671	0.0164629
877.749	0.0164705
877.828	0.0164791
877.906	0.0164286
877.984	0.0164994
878.062	0.0163650
878.140	0.0164034
878.218	0.0163760
878.296	0.0163057
878.374	0.0164563
878.453	0.0163575
878.531	0.0163349
878.609	0.0163593
878.687	0.0164590
878.765	0.0164616
878.843	0.0164892
878.921	0.0164207
878.999	0.0166629
879.078	0.0165237
879.156	0.0164171
879.234	0.0165922
879.312	0.0165601
879.390	0.0166345
879.468	0.0165878
879.546	0.0166702
879.624	0.0167536
879.703	0.0167254
879.781	0.0166924
879.859	0.0166495
879.937	0.0167905
880.015	0.0167401
880.093	0.0167101
880.171	0.0167800
880.249	0.0165170
880.328	0.0166995
880.406	0.0168018
880.484	0.0165845
880.562	0.0166531
880.640	0.0165554
880.718	0.0165908
880.796	0.0166479
880.874	0.0165918
880.953	0.0165958
881.031	0.0165250
881.109	0.0166181
881.187	0.0164937
881.265	0.0164840
881.343	0.0166020
881.421	0.0164611
881.499	0.0165370
881.578	0.0165831
881.656	0.0165530
881.734	0.0165402
881.812	0.0165806
881.890	0.0166709
881.968	0.0166561
882.046	0.0165710
882.124	0.0165522
882.203	0.0166302
882.281	0.0166906
882.359	0.0166366
882.437	0.0166275
882.515	0.0166628
882.593	0.0167110
882.671	0.0165679
882.749	0.0165014
882.828	0.0166613
882.906	0.0167595
882.984	0.0165767
883.062	0.0165570
883.140	0.0165709
883.218	0.0165977
883.296	0.0165434
883.374	0.0165326
883.453	0.0165954
883.531	0.0166684
883.609	0.0166184
883.687	0.0164613
883.765	0.0165416
883.843	0.0167532
883.921	0.0166157
883.999	0.0165443
884.078	0.0164632
884.156	0.0164989
884.234	0.0165852
884.312	0.0164533
884.390	0.0165411
884.468	0.0164956
884.546	0.0164255
884.624	0.0163229
884.703	0.0164678
884.781	0.0163796
884.859	0.0164220
884.937	0.0163765
885.015	0.0164011
885.093	0.0164847
885.171	0.0165472
885.249	0.0165053
885.328	0.0165379
885.406	0.0165398
885.484	0.0164500
885.562	0.0163850
885.640	0.0166080
885.718	0.0165807
885.796	0.0166536
885.874	0.0166010
885.953	0.0166319
886.031	0.0166609
886.109	0.0165432
886.187	0.0166995
886.265	0.0167346
886.343	0.0165360
886.421	0.0165446
886.499	0.0164803
886.578	0.0166223
886.656	0.0165333
886.734	0.0165810
886.812	0.0164704
886.890	0.0164442
886.968	0.0164897
887.046	0.0163498
887.124	0.0166113
887.203	0.0165266
887.281	0.0164388
887.359	0.0164712
887.437	0.0166576
887.515	0.0164590
887.593	0.0165175
887.671	0.0165931
887.749	0.0166238
887.828	0.0166921
887.906	0.0166298
887.984	0.0164988
888.062	0.0166525
888.140	0.0166173
888.218	0.0167413
888.296	0.0166624
888.374	0.0166029
888.453	0.0165614
888.531	0.0166641
888.609	0.0166080
888.687	0.0166705
888.765	0.0166620
888.843	0.0167403
888.921	0.0165723
888.999	0.0165649
889.078	0.0165421
889.156	0.0166953
889.234	0.0165821
889.312	0.0166143
889.390	0.0165354
889.468	0.0165945
889.546	0.0165403
889.624	0.0166532
889.703	0.0166094
889.781	0.0165327
889.859	0.0166121
889.937	0.0164488
890.015	0.0164304
890.093	0.0164446
890.171	0.0165986
890.249	0.0166502
890.328	0.0165502
890.406	0.0165292
890.484	0.0165402
890.562	0.0164667
890.640	0.0165710
890.718	0.0164395
890.796	0.0164014
890.874	0.0164660
890.953	0.0164673
891.031	0.0165247
891.109	0.0164782
891.187	0.0162514
891.265	0.0163280
891.343	0.0164526
891.421	0.0164203
891.499	0.0164458
891.578	0.0164240
891.656	0.0165126
891.734	0.0164381
891.812	0.0164183
891.890	0.0164834
891.968	0.0165343
892.046	0.0164416
892.124	0.0165608
892.203	0.0165260
892.281	0.0165024
892.359	0.0166483
892.437	0.0167085
892.515	0.0166203
892.593	0.0163971
892.671	0.0164426
892.749	0.0164181
892.828	0.0163592
892.906	0.0164330
892.984	0.0164600
893.062	0.0165443
893.140	0.0163996
893.218	0.0164445
893.296	0.0163297
893.374	0.0163949
893.453	0.0164845
893.531	0.0163932
893.609	0.0164143
893.687	0.0164259
893.765	0.0164040
893.843	0.0164353
893.921	0.0166800
893.999	0.0166511
894.078	0.0163562
894.156	0.0165735
894.234	0.0166500
894.312	0.0166748
894.390	0.0166052
894.468	0.0166969
894.546	0.0166390
894.624	0.0166267
894.703	0.0166327
894.781	0.0165311
894.859	0.0166940
894.937	0.0166211
895.015	0.0166234
895.093	0.0167245
895.171	0.0164894
895.249	0.0165485
895.328	0.0165930
895.406	0.0166885
895.484	0.0165684
895.562	0.0165449
895.640	0.0164559
895.718	0.0166151
895.796	0.0165108
895.874	0.0165913
895.953	0.0165186
896.031	0.0164111
896.109	0.0164438
896.187	0.0164631
896.265	0.0164339
896.343	0.0164403
896.421	0.0164023
896.499	0.0164650
896.578	0.0164195
896.656	0.0164034
896.734	0.0163805
896.812	0.0162390
896.890	0.0163664
896.968	0.0163504
897.046	0.0165290
897.124	0.0165256
897.203	0.0163016
897.281	0.0164149
897.359	0.0163610
897.437	0.0163220
897.515	0.0165866
897.593	0.0164623
897.671	0.0164954
897.749	0.0164636
897.828	0.0163768
897.906	0.0165000
897.984	0.0165492
898.062	0.0166552
898.140	0.0165841
898.218	0.0166005
898.296	0.0166551
898.374	0.0166762
898.453	0.0166750
898.531	0.0168924
898.609	0.0167876
898.687	0.0166309
898.765	0.0166654
898.843	0.0167046
898.921	0.0165311
898.999	0.0167130
899.078	0.0167403
899.156	0.0165135
899.234	0.0166155
899.312	0.0166512
899.390	0.0165358
899.468	0.0164950
899.546	0.0166891
899.624	0.0165960
899.703	0.0166399
899.781	0.0166879
899.859	0.0165446
899.937	0.0165857
900.015	0.0164474
900.093	0.0165398
900.171	0.0164848
900.249	0.0165469
900.328	0.0164770
900.406	0.0166153
900.484	0.0165720
900.562	0.0165513
900.640	0.0164909
900.718	0.0165005
900.796	0.0165992
900.874	0.0166328
900.953	0.0165733
901.031	0.0165477
901.109	0.0165626
901.187	0.0166048
901.265	0.0167205
901.343	0.0165710
901.421	0.0166004
901.499	0.0167693
901.578	0.0167458
901.656	0.0166965
901.734	0.0167186
901.812	0.0165465
901.890	0.0166355
901.968	0.0166437
902.046	0.0166724
902.124	0.0167191
902.203	0.0166863
902.281	0.0166283
902.359	0.0166199
902.437	0.0166525
902.515	0.0166373
902.593	0.0165881
902.671	0.0166729
902.749	0.0166933
902.828	0.0166323
902.906	0.0167023
902.984	0.0167985
903.062	0.0166248
903.140	0.0167862
903.218	0.0167462
903.296	0.0167630
903.374	0.0166224
903.453	0.0166733
903.531	0.0166331
903.609	0.0167148
903.687	0.0166923
903.765	0.0166281
903.843	0.0165697
903.921	0.0166174
903.999	0.0166675
904.078	0.0166297
904.156	0.0167038
904.234	0.0167682
904.312	0.0166016
904.390	0.0167271
904.468	0.0167194
904.546	0.0167798
904.624	0.0167584
904.703	0.0166959
904.781	0.0167004
904.859	0.0166503
904.937	0.0166331
905.015	0.0166105
905.093	0.0166038
905.171	0.0164387
905.249	0.0165871
905.328	0.0165878
905.406	0.0164204
905.484	0.0164586
905.562	0.0163863
905.640	0.0164158
905.718	0.0164094
905.796	0.0165575
905.874	0.0164249
905.953	0.0162792
906.031	0.0163842
906.109	0.0163002
906.187	0.0164127
906.265	0.0164127
906.343	0.0163631
906.421	0.0164987
906.499	0.0163993
906.578	0.0164740
906.656	0.0165202
906.734	0.0166098
906.812	0.0165333
906.890	0.0164044
906.968	0.0165628
907.046	0.0165956
907.124	0.0166090
907.203	0.0166182
907.281	0.0166895
907.359	0.0166926
907.437	0.0167801
907.515	0.0167312
907.593	0.0167427
907.671	0.0167713
907.749	0.0167766
907.828	0.0166954
907.906	0.0168246
907.984	0.0168040
908.062	0.0167696
908.140	0.0167356
908.218	0.0167024
908.296	0.0168549
908.374	0.0168008
908.453	0.0166415
908.531	0.0167422
908.609	0.0167135
908.687	0.0166151
908.765	0.0165588
908.843	0.0166064
908.921	0.0166725
908.999	0.0166709
909.078	0.0165910
909.156	0.0165820
909.234	0.0165658
909.312	0.0165324
909.390	0.0164324
909.468	0.0165774
909.546	0.0164204
909.624	0.0163945
909.703	0.0164833
909.781	0.0165363
909.859	0.0164343
909.937	0.0164050
910.015	0.0164507
910.093	0.0163895
910.171	0.0164303
910.249	0.0164176
910.328	0.0163439
910.406	0.0163268
910.484	0.0164422
910.562	0.0165202
910.640	0.0165080
910.718	0.0165698
910.796	0.0164971
910.874	0.0164987
910.953	0.0165575
911.031	0.0164721
911.109	0.0165246
911.187	0.0164572
911.265	0.0164724
911.343	0.0165068
911.421	0.0166521
911.499	0.0165414
911.578	0.0165034
911.656	0.0164042
911.734	0.0163683
911.812	0.0165446
911.890	0.0164845
911.968	0.0164439
912.046	0.0164787
912.124	0.0164709
912.203	0.0165396
912.281	0.0164088
912.359	0.0164433
912.437	0.0165494
912.515	0.0164925
912.593	0.0164060
912.671	0.0164466
912.749	0.0164918
912.828	0.0165292
912.906	0.0165910
912.984	0.0165718
913.062	0.0164689
913.140	0.0164503
913.218	0.0165201
913.296	0.0165514
913.374	0.0165469
913.453	0.0165068
913.531	0.0165979
913.609	0.0165195
913.687	0.0166692
913.765	0.0167564
913.843	0.0166171
913.921	0.0165544
913.999	0.0167423
914.078	0.0165826
914.156	0.0165677
914.234	0.0167545
914.312	0.0169474
914.390	0.0166301
914.468	0.0166271
914.546	0.0167172
914.624	0.0166602
914.703	0.0166358
914.781	0.0165460
914.859	0.0164881
914.937	0.0166253
915.015	0.0166152
915.093	0.0166062
915.171	0.0165543
915.249	0.0164504
915.328	0.0164398
915.406	0.0164404
915.484	0.0163939
915.562	0.0162865
915.640	0.0164332
915.718	0.0163724
915.796	0.0162890
915.874	0.0163058
915.953	0.0161141
916.031	0.0162401
916.109	0.0161826
916.187	0.0163640
916.265	0.0163998
916.343	0.0162627
916.421	0.0162576
916.499	0.0162246
916.578	0.0162800
916.656	0.0163534
916.734	0.0164563
916.812	0.0164197
916.890	0.0164137
916.968	0.0165672
917.046	0.0165257
917.124	0.0165022
917.203	0.0165780
917.281	0.0164254
917.359	0.0166140
917.437	0.0165586
917.515	0.0166030
917.593	0.0165430
917.671	0.0166320
917.749	0.0166027
917.828	0.0165816
917.906	0.0166180
917.984	0.0166404
918.062	0.0165166
918.140	0.0164896
918.218	0.0165717
918.296	0.0164960
918.374	0.0166687
918.453	0.0166891
918.531	0.0163727
918.609	0.0165222
918.687	0.0164113
918.765	0.0165076
918.843	0.0164431
918.921	0.0164658
918.999	0.0164989
919.078	0.0164288
919.156	0.0164563
919.234	0.0163525
919.312	0.0164318
919.390	0.0165547
919.468	0.0164554
919.546	0.0163312
919.624	0.0163303
919.703	0.0164066
919.781	0.0164645
919.859	0.0162672
919.937	0.0164661
