05/04/2022	20:51:01	Ver.	4.1	UNKNOWN
Optical Delay	678.996401	Delta X		0.078125	Sweeps	1	Scan Rate	0/0
Coordinates	Axis 1	NaN	Axis 2	NaN	Axis 3	NaN	Axis 4	NaN	Axis 5	NaN	Axis 6	0.000000
TX Power	0.000000	RX Power	0.000000

678.996	0.0137229
679.075	0.0137840
679.153	0.0136459
679.231	0.0137485
679.309	0.0138412
679.387	0.0137892
679.465	0.0137587
679.543	0.0136826
679.621	0.0136198
679.700	0.0136008
679.778	0.0138423
679.856	0.0136537
679.934	0.0138628
680.012	0.0136938
680.090	0.0135976
680.168	0.0135352
680.246	0.0137531
680.325	0.0137932
680.403	0.0138077
680.481	0.0136540
680.559	0.0136617
680.637	0.0138533
680.715	0.0138146
680.793	0.0137848
680.871	0.0135807
680.950	0.0136629
681.028	0.0137550
681.106	0.0138554
681.184	0.0137640
681.262	0.0137679
681.340	0.0136483
681.418	0.0136610
681.496	0.0136758
681.575	0.0136643
681.653	0.0138696
681.731	0.0137298
681.809	0.0137515
681.887	0.0136651
681.965	0.0137667
682.043	0.0138432
682.121	0.0137003
682.200	0.0137186
682.278	0.0137776
682.356	0.0136971
682.434	0.0136153
682.512	0.0136711
682.590	0.0137056
682.668	0.0137841
682.746	0.0136942
682.825	0.0137702
682.903	0.0136404
682.981	0.0135850
683.059	0.0135937
683.137	0.0138641
683.215	0.0138230
683.293	0.0138326
683.371	0.0138028
683.450	0.0138442
683.528	0.0138251
683.606	0.0138055
683.684	0.0137353
683.762	0.0137192
683.840	0.0138070
683.918	0.0138862
683.996	0.0137345
684.075	0.0137196
684.153	0.0137212
684.231	0.0138628
684.309	0.0136599
684.387	0.0138123
684.465	0.0137490
684.543	0.0136466
684.621	0.0138554
684.700	0.0137789
684.778	0.0137313
684.856	0.0137425
684.934	0.0137157
685.012	0.0138618
685.090	0.0137801
685.168	0.0138271
685.246	0.0136063
685.325	0.0139975
685.403	0.0136966
685.481	0.0136783
685.559	0.0138047
685.637	0.0137640
685.715	0.0136713
685.793	0.0136742
685.871	0.0136833
685.950	0.0138422
686.028	0.0137331
686.106	0.0135893
686.184	0.0138090
686.262	0.0137431
686.340	0.0137584
686.418	0.0138418
686.496	0.0137776
686.575	0.0136812
686.653	0.0137574
686.731	0.0137276
686.809	0.0137640
686.887	0.0137647
686.965	0.0138793
687.043	0.0137635
687.121	0.0136584
687.200	0.0137486
687.278	0.0138069
687.356	0.0138943
687.434	0.0137526
687.512	0.0137874
687.590	0.0136993
687.668	0.0136816
687.746	0.0137807
687.825	0.0138220
687.903	0.0137657
687.981	0.0137412
688.059	0.0139337
688.137	0.0137100
688.215	0.0136610
688.293	0.0137651
688.371	0.0138045
688.450	0.0137984
688.528	0.0138183
688.606	0.0138554
688.684	0.0137524
688.762	0.0137913
688.840	0.0136501
688.918	0.0137698
688.996	0.0136728
689.075	0.0137763
689.153	0.0136985
689.231	0.0138013
689.309	0.0138427
689.387	0.0138270
689.465	0.0138458
689.543	0.0138198
689.621	0.0138624
689.700	0.0136681
689.778	0.0136832
689.856	0.0138434
689.934	0.0137832
690.012	0.0138306
690.090	0.0137896
690.168	0.0138163
690.246	0.0137215
690.325	0.0137272
690.403	0.0137323
690.481	0.0137789
690.559	0.0137701
690.637	0.0137907
690.715	0.0136905
690.793	0.0138509
690.871	0.0138081
690.950	0.0137440
691.028	0.0138606
691.106	0.0137121
691.184	0.0138138
691.262	0.0138281
691.340	0.0138605
691.418	0.0137753
691.496	0.0139108
691.575	0.0137900
691.653	0.0137761
691.731	0.0137077
691.809	0.0137988
691.887	0.0137498
691.965	0.0138950
692.043	0.0137650
692.121	0.0137875
692.200	0.0137391
692.278	0.0138058
692.356	0.0137094
692.434	0.0137654
692.512	0.0138599
692.590	0.0138876
692.668	0.0136346
692.746	0.0138426
692.825	0.0138770
692.903	0.0138083
692.981	0.0136861
693.059	0.0137552
693.137	0.0136771
693.215	0.0138125
693.293	0.0137688
693.371	0.0137163
693.450	0.0137103
693.528	0.0137615
693.606	0.0137327
693.684	0.0137742
693.762	0.0137549
693.840	0.0138506
693.918	0.0138807
693.996	0.0137363
694.075	0.0137643
694.153	0.0137210
694.231	0.0137440
694.309	0.0137302
694.387	0.0137326
694.465	0.0137924
694.543	0.0136842
694.621	0.0137881
694.700	0.0137354
694.778	0.0137946
694.856	0.0138290
694.934	0.0138187
695.012	0.0136828
695.090	0.0137726
695.168	0.0137821
695.246	0.0137865
695.325	0.0137549
695.403	0.0138377
695.481	0.0137536
695.559	0.0137459
695.637	0.0136826
695.715	0.0137775
695.793	0.0137631
695.871	0.0136806
695.950	0.0138114
696.028	0.0136475
696.106	0.0138461
696.184	0.0136798
696.262	0.0136773
696.340	0.0137492
696.418	0.0137035
696.496	0.0138960
696.575	0.0137996
696.653	0.0136825
696.731	0.0138212
696.809	0.0138633
696.887	0.0138659
696.965	0.0138544
697.043	0.0137297
697.121	0.0137289
697.200	0.0136618
697.278	0.0137943
697.356	0.0138310
697.434	0.0138645
697.512	0.0136390
697.590	0.0137510
697.668	0.0139079
697.746	0.0138525
697.825	0.0136553
697.903	0.0138031
697.981	0.0137964
698.059	0.0137170
698.137	0.0135505
698.215	0.0137505
698.293	0.0138071
698.371	0.0137061
698.450	0.0137901
698.528	0.0137604
698.606	0.0137096
698.684	0.0135288
698.762	0.0135950
698.840	0.0137641
698.918	0.0137857
698.996	0.0138470
699.075	0.0137553
699.153	0.0136775
699.231	0.0138182
699.309	0.0137654
699.387	0.0138658
699.465	0.0138048
699.543	0.0137236
699.621	0.0136845
699.700	0.0136767
699.778	0.0137621
699.856	0.0138464
699.934	0.0137594
700.012	0.0137852
700.090	0.0137555
700.168	0.0136555
700.246	0.0137563
700.325	0.0137685
700.403	0.0137691
700.481	0.0137222
700.559	0.0137224
700.637	0.0137148
700.715	0.0137485
700.793	0.0137786
700.871	0.0138234
700.950	0.0137323
701.028	0.0137953
701.106	0.0137870
701.184	0.0136650
701.262	0.0136604
701.340	0.0136726
701.418	0.0137088
701.496	0.0135705
701.575	0.0136994
701.653	0.0137235
701.731	0.0135785
701.809	0.0137042
701.887	0.0138025
701.965	0.0138214
702.043	0.0136678
702.121	0.0136555
702.200	0.0136676
702.278	0.0137370
702.356	0.0137780
702.434	0.0137894
702.512	0.0137538
702.590	0.0137885
702.668	0.0137419
702.746	0.0136120
702.825	0.0135754
702.903	0.0135477
702.981	0.0137401
703.059	0.0137196
703.137	0.0135857
703.215	0.0137119
703.293	0.0136826
703.371	0.0138167
703.450	0.0137003
703.528	0.0137136
703.606	0.0136005
703.684	0.0136847
703.762	0.0136281
703.840	0.0135204
703.918	0.0135853
703.996	0.0137609
704.075	0.0137978
704.153	0.0136459
704.231	0.0136622
704.309	0.0136878
704.387	0.0136707
704.465	0.0138257
704.543	0.0136320
704.621	0.0135095
704.700	0.0136800
704.778	0.0136723
704.856	0.0137032
704.934	0.0137021
705.012	0.0137283
705.090	0.0136542
705.168	0.0137437
705.246	0.0136510
705.325	0.0136141
705.403	0.0137153
705.481	0.0136707
705.559	0.0136826
705.637	0.0136681
705.715	0.0136819
705.793	0.0137156
705.871	0.0137522
705.950	0.0136537
706.028	0.0136436
706.106	0.0136973
706.184	0.0137081
706.262	0.0136323
706.340	0.0136626
706.418	0.0136599
706.496	0.0136347
706.575	0.0136493
706.653	0.0137774
706.731	0.0136546
706.809	0.0136563
706.887	0.0136926
706.965	0.0136480
707.043	0.0135203
707.121	0.0136794
707.200	0.0137813
707.278	0.0137008
707.356	0.0136543
707.434	0.0137240
707.512	0.0136620
707.590	0.0137002
707.668	0.0137797
707.746	0.0137650
707.825	0.0135917
707.903	0.0136177
707.981	0.0137780
708.059	0.0137580
708.137	0.0137486
708.215	0.0137730
708.293	0.0137374
708.371	0.0136284
708.450	0.0136269
708.528	0.0136226
708.606	0.0136504
708.684	0.0138212
708.762	0.0137212
708.840	0.0135524
708.918	0.0136251
708.996	0.0137148
709.075	0.0138021
709.153	0.0137521
709.231	0.0137466
709.309	0.0135653
709.387	0.0136302
709.465	0.0137759
709.543	0.0137052
709.621	0.0138179
709.700	0.0137961
709.778	0.0137070
709.856	0.0136984
709.934	0.0136839
710.012	0.0137751
710.090	0.0137135
710.168	0.0137070
710.246	0.0137048
710.325	0.0137704
710.403	0.0137941
710.481	0.0137448
710.559	0.0137162
710.637	0.0136520
710.715	0.0134729
710.793	0.0137913
710.871	0.0137195
710.950	0.0136713
711.028	0.0137436
711.106	0.0137683
711.184	0.0136143
711.262	0.0137341
711.340	0.0137832
711.418	0.0136175
711.496	0.0138327
711.575	0.0138483
711.653	0.0137692
711.731	0.0137537
711.809	0.0137547
711.887	0.0139035
711.965	0.0138313
712.043	0.0137206
712.121	0.0137270
712.200	0.0138269
712.278	0.0139481
712.356	0.0140440
712.434	0.0138868
712.512	0.0139582
712.590	0.0138663
712.668	0.0137488
712.746	0.0135860
712.825	0.0134348
712.903	0.0135554
712.981	0.0135475
713.059	0.0135077
713.137	0.0135936
713.215	0.0136478
713.293	0.0139162
713.371	0.0140623
713.450	0.0140973
713.528	0.0142573
713.606	0.0141602
713.684	0.0142010
713.762	0.0141457
713.840	0.0139860
713.918	0.0138599
713.996	0.0137849
714.075	0.0138580
714.153	0.0138074
714.231	0.0136879
714.309	0.0137951
714.387	0.0138132
714.465	0.0137104
714.543	0.0136366
714.621	0.0138470
714.700	0.0136062
714.778	0.0137593
714.856	0.0136875
714.934	0.0138482
715.012	0.0137227
715.090	0.0136066
715.168	0.0136945
715.246	0.0137104
715.325	0.0137079
715.403	0.0135176
715.481	0.0136204
715.559	0.0137125
715.637	0.0136541
715.715	0.0134245
715.793	0.0133331
715.871	0.0134525
715.950	0.0133394
716.028	0.0134141
716.106	0.0136823
716.184	0.0136122
716.262	0.0137723
716.340	0.0140515
716.418	0.0141596
716.496	0.0142899
716.575	0.0144401
716.653	0.0142347
716.731	0.0141685
716.809	0.0138525
716.887	0.0135658
716.965	0.0132673
717.043	0.0130363
717.121	0.0128420
717.200	0.0126200
717.278	0.0122813
717.356	0.0123639
717.434	0.0127930
717.512	0.0127418
717.590	0.0130534
717.668	0.0133741
717.746	0.0137118
717.825	0.0139987
717.903	0.0144110
717.981	0.0146336
718.059	0.0146084
718.137	0.0146555
718.215	0.0146579
718.293	0.0147334
718.371	0.0147150
718.450	0.0145186
718.528	0.0142899
718.606	0.0142989
718.684	0.0141154
718.762	0.0138390
718.840	0.0136323
718.918	0.0135294
718.996	0.0134077
719.075	0.0133468
719.153	0.0134438
719.231	0.0136031
719.309	0.0137688
719.387	0.0138895
719.465	0.0140668
719.543	0.0140965
719.621	0.0142214
719.700	0.0142340
719.778	0.0143768
719.856	0.0143185
719.934	0.0140788
720.012	0.0138530
720.090	0.0135397
720.168	0.0131244
720.246	0.0130178
720.325	0.0128867
720.403	0.0126496
720.481	0.0125806
720.559	0.0125632
720.637	0.0128555
720.715	0.0131812
720.793	0.0132918
720.871	0.0136411
720.950	0.0139625
721.028	0.0142992
721.106	0.0145020
721.184	0.0143586
721.262	0.0144809
721.340	0.0145213
721.418	0.0143359
721.496	0.0141231
721.575	0.0138408
721.653	0.0137318
721.731	0.0134692
721.809	0.0131314
721.887	0.0131372
721.965	0.0131757
722.043	0.0129959
722.121	0.0131902
722.200	0.0132677
722.278	0.0133138
722.356	0.0135393
722.434	0.0136400
722.512	0.0136598
722.590	0.0140247
722.668	0.0141215
722.746	0.0141910
722.825	0.0142145
722.903	0.0142386
722.981	0.0143930
723.059	0.0142024
723.137	0.0140638
723.215	0.0139834
723.293	0.0137750
723.371	0.0134380
723.450	0.0133069
723.528	0.0133791
723.606	0.0132534
723.684	0.0130579
723.762	0.0131582
723.840	0.0132019
723.918	0.0135642
723.996	0.0137630
724.075	0.0139294
724.153	0.0140508
724.231	0.0141169
724.309	0.0143911
724.387	0.0144063
724.465	0.0145024
724.543	0.0146673
724.621	0.0146809
724.700	0.0146503
724.778	0.0144981
724.856	0.0143346
724.934	0.0141455
725.012	0.0140368
725.090	0.0137947
725.168	0.0135575
725.246	0.0133094
725.325	0.0132225
725.403	0.0130933
725.481	0.0130119
725.559	0.0128513
725.637	0.0129124
725.715	0.0132225
725.793	0.0132420
725.871	0.0133962
725.950	0.0136330
726.028	0.0137685
726.106	0.0138464
726.184	0.0139653
726.262	0.0139445
726.340	0.0142614
726.418	0.0143372
726.496	0.0143822
726.575	0.0142654
726.653	0.0141014
726.731	0.0141686
726.809	0.0139143
726.887	0.0137640
726.965	0.0137604
727.043	0.0134459
727.121	0.0131884
727.200	0.0129183
727.278	0.0128324
727.356	0.0130219
727.434	0.0130845
727.512	0.0130582
727.590	0.0131667
727.668	0.0132441
727.746	0.0136104
727.825	0.0136723
727.903	0.0138923
727.981	0.0140211
728.059	0.0142291
728.137	0.0144170
728.215	0.0145077
728.293	0.0146152
728.371	0.0145024
728.450	0.0145917
728.528	0.0143913
728.606	0.0141376
728.684	0.0140676
728.762	0.0137276
728.840	0.0135323
728.918	0.0133559
728.996	0.0133372
729.075	0.0133853
729.153	0.0130756
729.231	0.0131522
729.309	0.0133863
729.387	0.0134485
729.465	0.0134859
729.543	0.0136194
729.621	0.0137458
729.700	0.0139182
729.778	0.0140837
729.856	0.0141126
729.934	0.0143777
730.012	0.0143533
730.090	0.0143660
730.168	0.0143937
730.246	0.0141180
730.325	0.0141602
730.403	0.0139833
730.481	0.0139197
730.559	0.0138515
730.637	0.0138607
730.715	0.0137972
730.793	0.0136955
730.871	0.0134604
730.950	0.0135427
731.028	0.0133994
731.106	0.0135118
731.184	0.0134917
731.262	0.0135444
731.340	0.0136008
731.418	0.0136551
731.496	0.0137410
731.575	0.0136758
731.653	0.0135501
731.731	0.0137798
731.809	0.0137457
731.887	0.0135606
731.965	0.0135744
732.043	0.0136073
732.121	0.0135719
732.200	0.0136582
732.278	0.0135661
732.356	0.0134891
732.434	0.0135075
732.512	0.0136572
732.590	0.0137261
732.668	0.0139042
732.746	0.0137785
732.825	0.0137873
732.903	0.0138360
732.981	0.0136163
733.059	0.0138072
733.137	0.0137216
733.215	0.0137185
733.293	0.0135992
733.371	0.0135490
733.450	0.0134834
733.528	0.0135696
733.606	0.0135647
733.684	0.0134360
733.762	0.0134645
733.840	0.0134733
733.918	0.0134930
733.996	0.0135205
734.075	0.0135497
734.153	0.0136884
734.231	0.0136787
734.309	0.0137272
734.387	0.0137104
734.465	0.0137987
734.543	0.0139123
734.621	0.0137500
734.700	0.0137901
734.778	0.0138067
734.856	0.0138234
734.934	0.0136850
735.012	0.0136431
735.090	0.0134866
735.168	0.0136933
735.246	0.0137099
735.325	0.0137610
735.403	0.0136569
735.481	0.0135928
735.559	0.0136037
735.637	0.0137086
735.715	0.0136198
735.793	0.0138338
735.871	0.0137980
735.950	0.0138494
736.028	0.0137749
736.106	0.0138123
736.184	0.0137427
736.262	0.0136971
736.340	0.0137173
736.418	0.0136728
736.496	0.0137643
736.575	0.0136954
736.653	0.0136110
736.731	0.0137077
736.809	0.0136990
736.887	0.0138373
736.965	0.0137135
737.043	0.0136235
737.121	0.0137855
737.200	0.0138819
737.278	0.0136518
737.356	0.0136177
737.434	0.0136244
737.512	0.0136420
737.590	0.0135944
737.668	0.0135406
737.746	0.0136228
737.825	0.0135473
737.903	0.0137439
737.981	0.0138047
738.059	0.0137696
738.137	0.0138712
738.215	0.0138727
738.293	0.0138364
738.371	0.0139893
738.450	0.0140229
738.528	0.0140080
738.606	0.0140940
738.684	0.0138474
738.762	0.0138351
738.840	0.0138132
738.918	0.0137798
738.996	0.0136623
739.075	0.0137064
739.153	0.0135061
739.231	0.0134386
739.309	0.0135229
739.387	0.0136153
739.465	0.0135101
739.543	0.0135053
739.621	0.0135587
739.700	0.0138235
739.778	0.0138889
739.856	0.0139671
739.934	0.0140347
740.012	0.0140576
740.090	0.0140813
740.168	0.0141190
740.246	0.0140174
740.325	0.0140868
740.403	0.0139335
740.481	0.0137621
740.559	0.0137962
740.637	0.0137524
740.715	0.0134547
740.793	0.0134013
740.871	0.0135140
740.950	0.0135240
741.028	0.0134066
741.106	0.0134343
741.184	0.0135291
741.262	0.0135467
741.340	0.0134824
741.418	0.0135903
741.496	0.0136556
741.575	0.0137012
741.653	0.0136749
741.731	0.0136254
741.809	0.0137655
741.887	0.0135236
741.965	0.0135336
742.043	0.0135707
742.121	0.0136800
742.200	0.0136645
742.278	0.0136370
742.356	0.0136341
742.434	0.0137933
742.512	0.0138870
742.590	0.0139132
742.668	0.0138410
742.746	0.0139076
742.825	0.0141142
742.903	0.0141583
742.981	0.0141672
743.059	0.0140241
743.137	0.0141102
743.215	0.0140000
743.293	0.0139444
743.371	0.0138285
743.450	0.0138760
743.528	0.0136862
743.606	0.0135201
743.684	0.0135801
743.762	0.0134806
743.840	0.0135757
743.918	0.0134473
743.996	0.0134901
744.075	0.0135585
744.153	0.0136350
744.231	0.0135339
744.309	0.0135921
744.387	0.0137859
744.465	0.0137563
744.543	0.0137937
744.621	0.0138226
744.700	0.0137274
744.778	0.0138716
744.856	0.0139011
744.934	0.0138558
745.012	0.0139465
745.090	0.0138617
745.168	0.0138325
745.246	0.0139014
745.325	0.0138957
745.403	0.0138236
745.481	0.0138517
745.559	0.0137594
745.637	0.0138793
745.715	0.0137584
745.793	0.0137141
745.871	0.0137067
745.950	0.0136078
746.028	0.0133660
746.106	0.0135624
746.184	0.0135054
746.262	0.0132984
746.340	0.0134322
746.418	0.0135431
746.496	0.0134977
746.575	0.0134692
746.653	0.0138018
746.731	0.0136876
746.809	0.0137760
746.887	0.0138308
746.965	0.0137370
747.043	0.0139922
747.121	0.0139997
747.200	0.0139863
747.278	0.0139444
747.356	0.0140458
747.434	0.0140308
747.512	0.0140586
747.590	0.0139095
747.668	0.0138100
747.746	0.0138678
747.825	0.0137495
747.903	0.0137180
747.981	0.0134779
748.059	0.0133782
748.137	0.0134755
748.215	0.0134971
748.293	0.0133527
748.371	0.0136026
748.450	0.0136765
748.528	0.0136610
748.606	0.0137620
748.684	0.0139767
748.762	0.0137424
748.840	0.0140191
748.918	0.0140588
748.996	0.0140543
749.075	0.0140741
749.153	0.0141258
749.231	0.0140776
749.309	0.0139669
749.387	0.0140048
749.465	0.0139943
749.543	0.0139510
749.621	0.0137444
749.700	0.0136884
749.778	0.0136453
749.856	0.0135610
749.934	0.0135841
750.012	0.0137206
750.090	0.0137153
750.168	0.0136098
750.246	0.0137515
750.325	0.0137587
750.403	0.0137516
750.481	0.0139651
750.559	0.0139836
750.637	0.0139056
750.715	0.0139901
750.793	0.0139495
750.871	0.0139398
750.950	0.0139375
751.028	0.0138255
751.106	0.0136611
751.184	0.0137398
751.262	0.0136656
751.340	0.0135701
751.418	0.0135168
751.496	0.0134816
751.575	0.0134303
751.653	0.0133031
751.731	0.0135448
751.809	0.0135709
751.887	0.0133795
751.965	0.0137186
752.043	0.0136631
752.121	0.0136301
752.200	0.0138192
752.278	0.0137733
752.356	0.0137702
752.434	0.0137955
752.512	0.0137919
752.590	0.0138891
752.668	0.0138631
752.746	0.0137346
752.825	0.0138330
752.903	0.0138419
752.981	0.0136504
753.059	0.0137279
753.137	0.0135909
753.215	0.0136964
753.293	0.0136593
753.371	0.0136234
753.450	0.0137833
753.528	0.0136452
753.606	0.0135941
753.684	0.0137388
753.762	0.0137143
753.840	0.0135966
753.918	0.0136062
753.996	0.0136710
754.075	0.0137816
754.153	0.0137314
754.231	0.0136980
754.309	0.0135228
754.387	0.0137676
754.465	0.0138957
754.543	0.0139653
754.621	0.0139553
754.700	0.0139049
754.778	0.0138646
754.856	0.0141296
754.934	0.0140641
755.012	0.0140852
755.090	0.0140560
755.168	0.0139576
755.246	0.0139021
755.325	0.0139607
755.403	0.0137396
755.481	0.0137910
755.559	0.0135941
755.637	0.0136591
755.715	0.0135461
755.793	0.0135854
755.871	0.0135068
755.950	0.0135502
756.028	0.0136069
756.106	0.0136226
756.184	0.0136998
756.262	0.0136541
756.340	0.0136334
756.418	0.0139239
756.496	0.0139040
756.575	0.0138076
756.653	0.0139484
756.731	0.0139113
756.809	0.0139452
756.887	0.0138467
756.965	0.0138766
757.043	0.0138239
757.121	0.0138348
757.200	0.0136683
757.278	0.0137885
757.356	0.0137458
757.434	0.0136298
757.512	0.0135815
757.590	0.0137099
757.668	0.0136626
757.746	0.0135937
757.825	0.0136484
757.903	0.0137852
757.981	0.0136969
758.059	0.0136694
758.137	0.0137092
758.215	0.0136192
758.293	0.0136873
758.371	0.0137234
758.450	0.0137150
758.528	0.0136407
758.606	0.0136804
758.684	0.0136800
758.762	0.0136742
758.840	0.0135935
758.918	0.0136105
758.996	0.0136570
759.075	0.0135416
759.153	0.0136659
759.231	0.0135713
759.309	0.0138007
759.387	0.0137471
759.465	0.0137311
759.543	0.0137899
759.621	0.0137173
759.700	0.0137920
759.778	0.0136159
759.856	0.0137037
759.934	0.0137682
760.012	0.0136642
760.090	0.0137569
760.168	0.0135092
760.246	0.0134730
760.325	0.0136316
760.403	0.0137059
760.481	0.0137032
760.559	0.0136494
760.637	0.0134901
760.715	0.0138303
760.793	0.0135815
760.871	0.0136071
760.950	0.0137398
761.028	0.0138237
761.106	0.0138460
761.184	0.0138856
761.262	0.0137751
761.340	0.0138841
761.418	0.0138019
761.496	0.0137981
761.575	0.0137359
761.653	0.0138982
761.731	0.0137054
761.809	0.0137138
761.887	0.0136860
761.965	0.0137319
762.043	0.0135915
762.121	0.0138073
762.200	0.0136031
762.278	0.0137180
762.356	0.0136231
762.434	0.0137724
762.512	0.0137299
762.590	0.0138252
762.668	0.0139021
762.746	0.0139935
762.825	0.0139462
762.903	0.0138976
762.981	0.0140392
763.059	0.0138801
763.137	0.0137228
763.215	0.0137678
763.293	0.0137820
763.371	0.0138428
763.450	0.0137222
763.528	0.0137453
763.606	0.0136954
763.684	0.0137453
763.762	0.0137180
763.840	0.0136037
763.918	0.0135904
763.996	0.0138498
764.075	0.0136301
764.153	0.0136620
764.231	0.0135966
764.309	0.0137636
764.387	0.0138715
764.465	0.0137460
764.543	0.0136478
764.621	0.0135622
764.700	0.0137037
764.778	0.0138419
764.856	0.0138760
764.934	0.0138738
765.012	0.0137775
765.090	0.0138097
765.168	0.0137529
765.246	0.0138429
765.325	0.0137192
765.403	0.0137067
765.481	0.0136680
765.559	0.0137251
765.637	0.0136842
765.715	0.0136693
765.793	0.0134989
765.871	0.0136142
765.950	0.0137194
766.028	0.0135658
766.106	0.0135995
766.184	0.0136216
766.262	0.0134938
766.340	0.0136432
766.418	0.0137739
766.496	0.0134496
766.575	0.0135639
766.653	0.0137611
766.731	0.0136785
766.809	0.0138971
766.887	0.0138020
766.965	0.0136131
767.043	0.0137511
767.121	0.0138464
767.200	0.0137881
767.278	0.0136129
767.356	0.0136309
767.434	0.0138236
767.512	0.0138329
767.590	0.0137264
767.668	0.0137805
767.746	0.0137438
767.825	0.0135244
767.903	0.0135712
767.981	0.0136699
768.059	0.0137112
768.137	0.0136516
768.215	0.0135569
768.293	0.0137537
768.371	0.0138033
768.450	0.0136855
768.528	0.0136273
768.606	0.0135599
768.684	0.0137772
768.762	0.0137664
768.840	0.0136222
768.918	0.0138555
768.996	0.0137382
769.075	0.0137827
769.153	0.0137812
769.231	0.0136984
769.309	0.0136405
769.387	0.0136690
769.465	0.0136230
769.543	0.0134648
769.621	0.0136796
769.700	0.0136190
769.778	0.0137257
769.856	0.0136603
769.934	0.0137350
770.012	0.0138252
770.090	0.0136797
770.168	0.0137478
770.246	0.0138238
770.325	0.0137066
770.403	0.0138298
770.481	0.0137726
770.559	0.0138075
770.637	0.0138173
770.715	0.0137757
770.793	0.0137229
770.871	0.0138793
770.950	0.0139045
771.028	0.0137274
771.106	0.0137006
771.184	0.0137876
771.262	0.0137300
771.340	0.0137224
771.418	0.0137679
771.496	0.0136802
771.575	0.0137738
771.653	0.0137182
771.731	0.0136372
771.809	0.0137518
771.887	0.0137103
771.965	0.0136509
772.043	0.0137917
772.121	0.0138779
772.200	0.0137703
772.278	0.0136020
772.356	0.0137835
772.434	0.0138357
772.512	0.0137347
772.590	0.0137284
772.668	0.0137254
772.746	0.0137868
772.825	0.0138805
772.903	0.0137142
772.981	0.0136433
773.059	0.0137788
773.137	0.0137183
773.215	0.0137630
773.293	0.0136385
773.371	0.0136791
773.450	0.0137236
773.528	0.0138260
773.606	0.0136322
773.684	0.0136383
773.762	0.0138472
773.840	0.0137263
773.918	0.0137051
773.996	0.0136961
774.075	0.0136656
774.153	0.0137619
774.231	0.0137224
774.309	0.0137264
774.387	0.0137463
774.465	0.0137270
774.543	0.0137766
774.621	0.0136567
774.700	0.0136709
774.778	0.0136127
774.856	0.0137630
774.934	0.0137989
775.012	0.0138473
775.090	0.0136795
775.168	0.0136082
775.246	0.0138026
775.325	0.0139296
775.403	0.0137794
775.481	0.0138208
775.559	0.0137180
775.637	0.0135973
775.715	0.0137144
775.793	0.0137568
775.871	0.0137596
775.950	0.0137390
776.028	0.0137997
776.106	0.0138078
776.184	0.0136874
776.262	0.0136779
776.340	0.0137518
776.418	0.0137058
776.496	0.0138183
776.575	0.0138474
776.653	0.0138329
776.731	0.0137106
776.809	0.0137983
776.887	0.0137457
776.965	0.0137505
777.043	0.0137440
777.121	0.0138820
777.200	0.0138147
777.278	0.0137780
777.356	0.0136465
777.434	0.0138906
777.512	0.0137429
777.590	0.0137179
777.668	0.0137157
777.746	0.0136695
777.825	0.0138070
777.903	0.0138225
777.981	0.0137411
778.059	0.0138798
778.137	0.0137698
778.215	0.0138260
778.293	0.0137242
778.371	0.0137763
778.450	0.0139240
778.528	0.0138438
778.606	0.0137373
778.684	0.0136890
778.762	0.0138705
778.840	0.0136565
778.918	0.0137894
778.996	0.0138151
779.075	0.0137734
779.153	0.0137518
779.231	0.0137127
779.309	0.0137847
779.387	0.0137968
779.465	0.0138803
779.543	0.0138535
779.621	0.0137829
779.700	0.0138633
779.778	0.0138110
779.856	0.0137920
779.934	0.0138024
780.012	0.0137519
780.090	0.0138491
780.168	0.0137528
780.246	0.0137624
780.325	0.0137138
780.403	0.0137809
780.481	0.0138285
780.559	0.0138409
780.637	0.0138506
780.715	0.0138130
780.793	0.0139574
780.871	0.0138814
780.950	0.0138837
781.028	0.0139010
781.106	0.0138012
781.184	0.0138419
781.262	0.0138350
781.340	0.0135955
781.418	0.0137388
781.496	0.0138102
781.575	0.0136813
781.653	0.0137438
781.731	0.0136943
781.809	0.0136816
781.887	0.0136713
781.965	0.0137141
782.043	0.0137454
782.121	0.0136855
782.200	0.0136931
782.278	0.0137480
782.356	0.0136830
782.434	0.0136019
782.512	0.0137825
782.590	0.0138760
782.668	0.0137255
782.746	0.0137498
782.825	0.0136703
782.903	0.0136157
782.981	0.0138389
783.059	0.0137525
783.137	0.0137965
783.215	0.0137814
783.293	0.0137309
783.371	0.0137550
783.450	0.0137408
783.528	0.0137318
783.606	0.0137295
783.684	0.0137811
783.762	0.0137448
783.840	0.0136681
783.918	0.0136357
783.996	0.0136623
784.075	0.0137044
784.153	0.0137056
784.231	0.0137042
784.309	0.0136194
784.387	0.0137803
784.465	0.0137743
784.543	0.0137976
784.621	0.0138110
784.700	0.0137759
784.778	0.0137260
784.856	0.0138874
784.934	0.0138036
785.012	0.0137160
785.090	0.0137482
785.168	0.0137016
785.246	0.0137502
785.325	0.0138644
785.403	0.0137170
785.481	0.0136465
785.559	0.0136846
785.637	0.0137076
785.715	0.0137876
785.793	0.0136524
785.871	0.0137447
785.950	0.0139497
786.028	0.0137127
786.106	0.0137975
786.184	0.0138824
786.262	0.0137044
786.340	0.0136903
786.418	0.0136958
786.496	0.0138031
786.575	0.0136497
786.653	0.0138730
786.731	0.0138008
786.809	0.0136871
786.887	0.0137796
786.965	0.0137207
787.043	0.0137592
787.121	0.0137311
787.200	0.0137872
787.278	0.0137595
787.356	0.0137691
787.434	0.0136706
787.512	0.0137594
787.590	0.0138287
787.668	0.0138853
787.746	0.0137960
787.825	0.0137932
787.903	0.0138625
787.981	0.0136186
788.059	0.0137328
788.137	0.0137941
788.215	0.0138419
788.293	0.0138427
788.371	0.0138097
788.450	0.0136166
788.528	0.0136577
788.606	0.0137070
788.684	0.0137761
788.762	0.0137241
788.840	0.0137846
788.918	0.0137036
788.996	0.0137776
789.075	0.0136561
789.153	0.0137411
789.231	0.0136862
789.309	0.0137652
789.387	0.0137004
789.465	0.0137874
789.543	0.0137601
789.621	0.0137233
789.700	0.0138351
789.778	0.0136338
789.856	0.0137307
789.934	0.0138410
790.012	0.0137466
790.090	0.0138456
790.168	0.0137959
790.246	0.0137757
790.325	0.0138223
790.403	0.0137162
790.481	0.0136731
790.559	0.0138434
790.637	0.0138681
790.715	0.0138756
790.793	0.0139477
790.871	0.0136819
790.950	0.0137518
791.028	0.0138519
791.106	0.0138154
791.184	0.0137846
791.262	0.0138299
791.340	0.0138218
791.418	0.0137735
791.496	0.0137475
791.575	0.0137748
791.653	0.0137589
791.731	0.0137671
791.809	0.0137543
791.887	0.0138083
791.965	0.0138207
792.043	0.0137690
792.121	0.0137434
792.200	0.0138461
792.278	0.0138058
792.356	0.0137114
792.434	0.0138081
792.512	0.0138109
792.590	0.0136812
792.668	0.0137624
792.746	0.0137892
792.825	0.0137653
792.903	0.0136588
792.981	0.0137538
793.059	0.0138112
793.137	0.0138744
793.215	0.0137071
793.293	0.0137878
793.371	0.0137011
793.450	0.0138584
793.528	0.0139474
793.606	0.0138676
793.684	0.0137613
793.762	0.0137991
793.840	0.0137846
793.918	0.0139010
793.996	0.0138169
794.075	0.0139233
794.153	0.0138112
794.231	0.0138816
794.309	0.0138081
794.387	0.0136827
794.465	0.0137318
794.543	0.0138506
794.621	0.0137833
794.700	0.0137029
794.778	0.0136923
794.856	0.0138548
794.934	0.0138619
795.012	0.0136604
795.090	0.0137172
795.168	0.0138219
795.246	0.0137535
795.325	0.0138779
795.403	0.0138144
795.481	0.0137791
795.559	0.0137704
795.637	0.0138826
795.715	0.0137547
795.793	0.0136119
795.871	0.0138358
795.950	0.0138452
796.028	0.0137157
796.106	0.0138074
796.184	0.0136360
796.262	0.0137749
796.340	0.0136259
796.418	0.0136405
796.496	0.0137438
796.575	0.0137268
796.653	0.0137611
796.731	0.0137025
796.809	0.0136784
796.887	0.0136174
796.965	0.0137206
797.043	0.0136918
797.121	0.0136319
797.200	0.0135989
797.278	0.0138113
797.356	0.0138023
797.434	0.0136732
797.512	0.0137504
797.590	0.0136533
797.668	0.0137232
797.746	0.0137351
797.825	0.0137221
797.903	0.0136751
797.981	0.0138145
798.059	0.0136821
798.137	0.0136031
798.215	0.0137341
798.293	0.0137189
798.371	0.0138010
798.450	0.0136819
798.528	0.0136772
798.606	0.0136111
798.684	0.0137840
798.762	0.0136721
798.840	0.0137276
798.918	0.0137988
798.996	0.0136867
799.075	0.0138113
799.153	0.0137220
799.231	0.0138533
799.309	0.0137965
799.387	0.0138007
799.465	0.0137567
799.543	0.0136246
799.621	0.0137128
799.700	0.0137309
799.778	0.0137170
799.856	0.0137686
799.934	0.0136893
800.012	0.0135576
800.090	0.0136720
800.168	0.0138435
800.246	0.0139284
800.325	0.0136549
800.403	0.0136382
800.481	0.0137849
800.559	0.0138522
800.637	0.0137264
800.715	0.0137375
800.793	0.0137186
800.871	0.0138766
800.950	0.0139568
801.028	0.0137380
801.106	0.0136960
801.184	0.0138645
801.262	0.0137788
801.340	0.0136680
801.418	0.0136842
801.496	0.0137714
801.575	0.0138672
801.653	0.0137011
801.731	0.0136081
801.809	0.0137386
801.887	0.0138614
801.965	0.0137234
802.043	0.0136377
802.121	0.0137506
802.200	0.0138313
802.278	0.0136515
802.356	0.0136547
802.434	0.0138621
802.512	0.0138677
802.590	0.0137437
802.668	0.0137283
802.746	0.0138011
802.825	0.0138210
802.903	0.0138644
802.981	0.0137361
803.059	0.0139073
803.137	0.0137284
803.215	0.0138588
803.293	0.0138905
803.371	0.0137416
803.450	0.0137875
803.528	0.0137230
803.606	0.0137400
803.684	0.0138150
803.762	0.0138120
803.840	0.0137795
803.918	0.0138347
803.996	0.0136966
804.075	0.0136973
804.153	0.0138071
804.231	0.0138265
804.309	0.0136338
804.387	0.0137124
804.465	0.0137648
804.543	0.0136906
804.621	0.0137422
804.700	0.0136650
804.778	0.0136618
804.856	0.0138336
804.934	0.0138520
805.012	0.0136453
805.090	0.0138403
805.168	0.0136993
805.246	0.0136664
805.325	0.0137369
805.403	0.0138693
805.481	0.0137610
805.559	0.0137424
805.637	0.0138585
805.715	0.0136906
805.793	0.0136966
805.871	0.0137515
805.950	0.0137400
806.028	0.0137263
806.106	0.0138511
806.184	0.0137894
806.262	0.0136150
806.340	0.0137718
806.418	0.0138432
806.496	0.0139184
806.575	0.0137749
806.653	0.0138391
806.731	0.0136625
806.809	0.0137607
806.887	0.0137785
806.965	0.0138202
807.043	0.0137653
807.121	0.0136833
807.200	0.0137701
807.278	0.0136964
807.356	0.0136472
807.434	0.0137491
807.512	0.0137061
807.590	0.0135472
807.668	0.0137012
807.746	0.0137204
807.825	0.0138414
807.903	0.0137365
807.981	0.0138046
808.059	0.0139496
808.137	0.0137825
808.215	0.0137595
808.293	0.0138288
808.371	0.0136942
808.450	0.0138033
808.528	0.0138377
808.606	0.0138701
808.684	0.0137758
808.762	0.0137109
808.840	0.0138738
808.918	0.0137616
808.996	0.0137956
809.075	0.0137676
809.153	0.0137054
809.231	0.0137793
809.309	0.0138111
809.387	0.0137354
809.465	0.0136514
809.543	0.0137339
809.621	0.0136841
809.700	0.0138111
809.778	0.0137334
809.856	0.0138179
809.934	0.0137781
810.012	0.0137251
810.090	0.0137348
810.168	0.0136845
810.246	0.0137434
810.325	0.0137281
810.403	0.0138245
810.481	0.0138078
810.559	0.0137739
810.637	0.0137274
810.715	0.0136364
810.793	0.0137005
810.871	0.0137473
810.950	0.0138254
811.028	0.0137437
811.106	0.0138121
811.184	0.0138057
811.262	0.0138316
811.340	0.0138344
811.418	0.0137636
811.496	0.0137545
811.575	0.0136108
811.653	0.0137013
811.731	0.0135416
811.809	0.0137373
811.887	0.0138003
811.965	0.0137074
812.043	0.0137714
812.121	0.0137152
812.200	0.0137109
812.278	0.0136749
812.356	0.0137159
812.434	0.0136683
812.512	0.0136353
812.590	0.0137397
812.668	0.0137197
812.746	0.0136914
812.825	0.0136379
812.903	0.0136855
812.981	0.0137779
813.059	0.0136918
813.137	0.0136794
813.215	0.0136536
813.293	0.0137304
813.371	0.0136735
813.450	0.0137003
813.528	0.0137360
813.606	0.0135641
813.684	0.0136375
813.762	0.0137770
813.840	0.0137524
813.918	0.0137486
813.996	0.0138818
814.075	0.0137408
814.153	0.0137630
814.231	0.0137948
814.309	0.0138005
814.387	0.0138140
814.465	0.0138435
814.543	0.0137878
814.621	0.0138949
814.700	0.0138746
814.778	0.0138349
814.856	0.0136439
814.934	0.0138431
815.012	0.0139211
815.090	0.0137832
815.168	0.0138750
815.246	0.0138175
815.325	0.0138172
815.403	0.0138177
815.481	0.0137577
815.559	0.0139430
815.637	0.0138268
815.715	0.0137840
815.793	0.0137169
815.871	0.0136855
815.950	0.0138291
816.028	0.0137286
816.106	0.0136613
816.184	0.0138451
816.262	0.0137927
816.340	0.0138268
816.418	0.0135572
816.496	0.0135800
816.575	0.0137820
816.653	0.0137343
816.731	0.0137357
816.809	0.0135448
816.887	0.0138044
816.965	0.0136120
817.043	0.0137903
817.121	0.0137375
817.200	0.0136959
817.278	0.0137632
817.356	0.0137775
817.434	0.0138184
817.512	0.0137428
817.590	0.0137128
817.668	0.0136951
817.746	0.0135884
817.825	0.0138741
817.903	0.0137693
817.981	0.0137759
818.059	0.0136322
818.137	0.0136632
818.215	0.0137612
818.293	0.0136264
818.371	0.0137810
818.450	0.0136794
818.528	0.0136720
818.606	0.0137568
818.684	0.0136904
818.762	0.0135767
818.840	0.0137407
818.918	0.0136090
818.996	0.0136989
819.075	0.0136774
819.153	0.0136964
819.231	0.0136637
819.309	0.0135950
819.387	0.0136161
819.465	0.0135113
819.543	0.0137495
819.621	0.0136282
819.700	0.0137090
819.778	0.0137354
819.856	0.0136927
819.934	0.0136612
820.012	0.0136591
820.090	0.0138142
820.168	0.0135280
820.246	0.0136131
820.325	0.0137591
820.403	0.0136022
820.481	0.0136760
820.559	0.0136990
820.637	0.0136733
820.715	0.0137857
820.793	0.0137186
820.871	0.0136364
820.950	0.0136229
821.028	0.0134765
821.106	0.0136824
821.184	0.0136553
821.262	0.0136435
821.340	0.0136605
821.418	0.0136787
821.496	0.0137099
821.575	0.0136039
821.653	0.0137016
821.731	0.0137212
821.809	0.0137794
821.887	0.0137997
821.965	0.0135538
822.043	0.0136707
822.121	0.0137372
822.200	0.0136816
822.278	0.0138422
822.356	0.0136314
822.434	0.0136867
822.512	0.0137949
822.590	0.0138260
822.668	0.0136282
822.746	0.0137257
822.825	0.0137198
822.903	0.0137398
822.981	0.0137786
823.059	0.0136334
823.137	0.0138014
823.215	0.0137392
823.293	0.0137944
823.371	0.0136236
823.450	0.0136733
823.528	0.0137056
823.606	0.0137009
823.684	0.0137226
823.762	0.0136943
823.840	0.0136825
823.918	0.0137186
823.996	0.0138132
824.075	0.0138590
824.153	0.0138667
824.231	0.0137778
824.309	0.0136913
824.387	0.0137057
824.465	0.0138016
824.543	0.0138885
824.621	0.0137762
824.700	0.0137685
824.778	0.0137408
824.856	0.0138669
824.934	0.0136856
825.012	0.0136956
825.090	0.0137265
825.168	0.0136581
825.246	0.0135720
825.325	0.0135927
825.403	0.0137204
825.481	0.0137961
825.559	0.0138351
825.637	0.0137154
825.715	0.0138775
825.793	0.0136314
825.871	0.0137156
825.950	0.0137902
826.028	0.0137099
826.106	0.0137304
826.184	0.0137848
826.262	0.0137906
826.340	0.0139441
826.418	0.0138815
826.496	0.0138321
826.575	0.0138234
826.653	0.0138081
826.731	0.0137325
826.809	0.0138016
826.887	0.0137280
826.965	0.0138310
827.043	0.0138173
827.121	0.0136770
827.200	0.0137597
827.278	0.0139789
827.356	0.0137887
827.434	0.0138058
827.512	0.0136665
827.590	0.0136857
827.668	0.0138462
827.746	0.0138200
827.825	0.0137442
827.903	0.0138233
827.981	0.0136256
828.059	0.0139421
828.137	0.0136587
828.215	0.0136828
828.293	0.0137663
828.371	0.0137974
828.450	0.0137257
828.528	0.0136965
828.606	0.0136524
828.684	0.0136880
828.762	0.0136826
828.840	0.0135990
828.918	0.0137070
828.996	0.0135648
829.075	0.0136446
829.153	0.0137422
829.231	0.0137333
829.309	0.0137247
829.387	0.0137845
829.465	0.0137363
829.543	0.0136596
829.621	0.0137430
829.700	0.0137360
829.778	0.0137220
829.856	0.0137241
829.934	0.0136954
830.012	0.0136399
830.090	0.0135768
830.168	0.0136521
830.246	0.0136411
830.325	0.0137993
830.403	0.0137202
830.481	0.0136858
830.559	0.0136794
830.637	0.0137033
830.715	0.0136358
830.793	0.0138274
830.871	0.0136313
830.950	0.0136969
831.028	0.0137273
831.106	0.0136570
831.184	0.0136638
831.262	0.0135550
831.340	0.0136085
831.418	0.0136819
831.496	0.0135807
831.575	0.0135854
831.653	0.0135932
831.731	0.0135931
831.809	0.0137455
831.887	0.0138161
831.965	0.0137257
832.043	0.0138066
832.121	0.0136919
832.200	0.0137793
832.278	0.0136153
832.356	0.0137582
832.434	0.0138198
832.512	0.0137343
832.590	0.0139143
832.668	0.0136895
832.746	0.0137740
832.825	0.0136324
832.903	0.0137873
832.981	0.0136359
833.059	0.0136677
833.137	0.0136428
833.215	0.0137947
833.293	0.0136471
833.371	0.0136317
833.450	0.0136720
833.528	0.0135825
833.606	0.0137490
833.684	0.0136726
833.762	0.0135461
833.840	0.0135242
833.918	0.0137417
833.996	0.0136723
834.075	0.0136635
834.153	0.0137102
834.231	0.0137202
834.309	0.0136409
834.387	0.0138276
834.465	0.0138917
834.543	0.0137705
834.621	0.0136848
834.700	0.0137885
834.778	0.0138264
834.856	0.0138149
834.934	0.0137349
835.012	0.0137544
835.090	0.0136929
835.168	0.0137263
835.246	0.0135990
835.325	0.0136240
835.403	0.0136359
835.481	0.0135922
835.559	0.0136611
835.637	0.0137923
835.715	0.0137292
835.793	0.0136565
835.871	0.0137187
835.950	0.0137661
836.028	0.0137279
836.106	0.0139133
836.184	0.0137862
836.262	0.0137409
836.340	0.0138441
836.418	0.0137965
836.496	0.0137621
836.575	0.0137864
836.653	0.0137685
836.731	0.0137311
836.809	0.0136510
836.887	0.0138588
836.965	0.0137556
837.043	0.0136509
837.121	0.0137428
837.200	0.0137608
837.278	0.0137772
837.356	0.0137426
837.434	0.0136752
837.512	0.0137409
837.590	0.0137291
837.668	0.0137616
837.746	0.0137707
837.825	0.0137599
837.903	0.0137445
837.981	0.0136155
838.059	0.0135323
838.137	0.0136702
838.215	0.0135741
838.293	0.0137052
838.371	0.0137070
838.450	0.0137171
838.528	0.0135352
838.606	0.0137254
838.684	0.0136855
838.762	0.0138211
838.840	0.0137014
838.918	0.0137238
838.996	0.0137498
839.075	0.0137593
839.153	0.0136989
839.231	0.0137943
839.309	0.0136286
839.387	0.0137788
839.465	0.0137277
839.543	0.0137251
839.621	0.0137099
839.700	0.0137598
839.778	0.0136752
839.856	0.0135484
839.934	0.0135838
840.012	0.0134990
840.090	0.0134496
840.168	0.0135613
840.246	0.0138210
840.325	0.0135962
840.403	0.0136607
840.481	0.0135896
840.559	0.0137312
840.637	0.0139338
840.715	0.0137511
840.793	0.0137237
840.871	0.0136926
840.950	0.0137267
841.028	0.0138760
841.106	0.0138407
841.184	0.0137953
841.262	0.0136703
841.340	0.0136311
841.418	0.0136317
841.496	0.0136029
841.575	0.0136043
841.653	0.0135944
841.731	0.0137476
841.809	0.0135081
841.887	0.0134387
841.965	0.0136838
842.043	0.0137222
842.121	0.0137822
842.200	0.0137137
842.278	0.0138049
842.356	0.0137153
842.434	0.0136286
842.512	0.0137398
842.590	0.0138801
842.668	0.0137592
842.746	0.0137283
842.825	0.0138926
842.903	0.0137411
842.981	0.0138649
843.059	0.0137476
843.137	0.0136794
843.215	0.0137234
843.293	0.0138065
843.371	0.0137436
843.450	0.0137307
843.528	0.0136388
843.606	0.0136523
843.684	0.0138190
843.762	0.0137366
843.840	0.0137903
843.918	0.0138576
843.996	0.0136357
844.075	0.0138495
844.153	0.0137307
844.231	0.0137934
844.309	0.0137105
844.387	0.0136780
844.465	0.0137357
844.543	0.0137868
844.621	0.0136549
844.700	0.0137876
844.778	0.0136334
844.856	0.0136674
844.934	0.0137215
845.012	0.0136575
845.090	0.0138145
845.168	0.0136500
845.246	0.0135351
845.325	0.0137672
845.403	0.0137932
845.481	0.0136917
845.559	0.0136106
845.637	0.0136365
845.715	0.0138782
845.793	0.0138055
845.871	0.0137642
845.950	0.0137138
846.028	0.0136908
846.106	0.0138117
846.184	0.0137257
846.262	0.0136893
846.340	0.0137100
846.418	0.0135952
846.496	0.0136266
846.575	0.0137065
846.653	0.0138264
846.731	0.0137169
846.809	0.0137563
846.887	0.0137823
846.965	0.0137083
847.043	0.0137933
847.121	0.0137897
847.200	0.0136580
847.278	0.0137401
847.356	0.0138696
847.434	0.0137901
847.512	0.0137067
847.590	0.0137750
847.668	0.0136230
847.746	0.0137926
847.825	0.0137933
847.903	0.0135579
847.981	0.0136726
848.059	0.0137138
848.137	0.0136580
848.215	0.0136967
848.293	0.0136573
848.371	0.0138125
848.450	0.0136024
848.528	0.0136772
848.606	0.0137259
848.684	0.0135397
848.762	0.0136121
848.840	0.0137379
848.918	0.0137872
848.996	0.0136918
849.075	0.0138222
849.153	0.0137125
849.231	0.0138066
849.309	0.0137054
849.387	0.0136539
849.465	0.0137408
849.543	0.0137879
849.621	0.0135983
849.700	0.0137483
849.778	0.0137021
849.856	0.0136123
849.934	0.0136714
850.012	0.0136909
850.090	0.0137009
850.168	0.0137724
850.246	0.0137341
850.325	0.0136379
850.403	0.0137518
850.481	0.0135234
850.559	0.0136903
850.637	0.0137021
850.715	0.0137605
850.793	0.0136903
850.871	0.0137109
850.950	0.0137489
851.028	0.0138393
851.106	0.0138408
851.184	0.0137408
851.262	0.0137401
851.340	0.0139420
851.418	0.0139052
851.496	0.0136456
851.575	0.0137225
851.653	0.0137383
851.731	0.0137659
851.809	0.0137473
851.887	0.0137066
851.965	0.0137452
852.043	0.0137419
852.121	0.0136568
852.200	0.0136523
852.278	0.0137560
852.356	0.0138422
852.434	0.0136953
852.512	0.0137570
852.590	0.0137131
852.668	0.0138429
852.746	0.0137599
852.825	0.0137215
852.903	0.0137060
852.981	0.0137343
853.059	0.0137998
853.137	0.0136501
853.215	0.0137956
853.293	0.0136772
853.371	0.0136823
853.450	0.0137605
853.528	0.0137599
853.606	0.0137697
853.684	0.0136304
853.762	0.0134967
853.840	0.0137309
853.918	0.0136604
853.996	0.0137996
854.075	0.0135903
854.153	0.0137949
854.231	0.0137017
854.309	0.0137291
854.387	0.0137251
854.465	0.0138617
854.543	0.0137569
854.621	0.0136780
854.700	0.0136509
854.778	0.0137806
854.856	0.0138230
854.934	0.0137383
855.012	0.0136670
855.090	0.0137411
855.168	0.0136063
855.246	0.0137574
855.325	0.0137991
855.403	0.0138293
855.481	0.0136237
855.559	0.0138945
855.637	0.0138143
855.715	0.0137807
855.793	0.0137191
855.871	0.0137928
855.950	0.0137633
856.028	0.0135807
856.106	0.0137877
856.184	0.0138033
856.262	0.0137624
856.340	0.0137304
856.418	0.0138621
856.496	0.0138854
856.575	0.0138601
856.653	0.0136086
856.731	0.0136720
856.809	0.0137785
856.887	0.0138318
856.965	0.0137563
857.043	0.0139438
857.121	0.0137726
857.200	0.0138200
857.278	0.0137823
857.356	0.0138544
857.434	0.0137487
857.512	0.0137030
857.590	0.0137840
857.668	0.0139059
857.746	0.0139507
857.825	0.0136568
857.903	0.0136050
857.981	0.0137315
858.059	0.0137505
858.137	0.0139176
858.215	0.0137708
858.293	0.0137822
858.371	0.0137128
858.450	0.0138920
858.528	0.0138421
858.606	0.0138146
858.684	0.0136790
858.762	0.0137730
858.840	0.0136660
858.918	0.0138152
858.996	0.0138708
859.075	0.0137472
859.153	0.0136936
859.231	0.0137875
859.309	0.0137811
859.387	0.0139210
859.465	0.0138206
859.543	0.0138264
859.621	0.0137843
859.700	0.0136494
859.778	0.0136724
859.856	0.0138087
859.934	0.0139448
860.012	0.0138299
860.090	0.0138079
860.168	0.0137448
860.246	0.0136511
860.325	0.0137164
860.403	0.0137125
860.481	0.0137352
860.559	0.0136938
860.637	0.0138395
860.715	0.0137584
860.793	0.0138156
860.871	0.0137036
860.950	0.0138455
861.028	0.0138078
861.106	0.0136973
861.184	0.0137802
861.262	0.0137792
861.340	0.0137930
861.418	0.0136887
861.496	0.0137051
861.575	0.0138152
861.653	0.0137525
861.731	0.0135887
861.809	0.0137448
861.887	0.0138641
861.965	0.0136293
862.043	0.0136722
862.121	0.0137321
862.200	0.0139049
862.278	0.0138622
862.356	0.0138357
862.434	0.0138075
862.512	0.0136808
862.590	0.0136272
862.668	0.0137792
862.746	0.0137247
862.825	0.0136497
862.903	0.0136722
862.981	0.0136532
863.059	0.0137166
863.137	0.0135876
863.215	0.0136847
863.293	0.0135526
863.371	0.0135766
863.450	0.0135394
863.528	0.0136996
863.606	0.0139026
863.684	0.0137791
863.762	0.0137426
863.840	0.0135719
863.918	0.0137151
863.996	0.0137380
864.075	0.0136977
864.153	0.0137586
864.231	0.0135502
864.309	0.0136043
864.387	0.0135655
864.465	0.0136723
864.543	0.0138293
864.621	0.0137180
864.700	0.0135969
864.778	0.0137263
864.856	0.0137196
864.934	0.0136654
865.012	0.0136511
865.090	0.0136938
865.168	0.0135391
865.246	0.0136617
865.325	0.0136801
865.403	0.0137276
865.481	0.0135893
865.559	0.0137260
865.637	0.0136894
865.715	0.0137026
865.793	0.0136589
865.871	0.0137309
865.950	0.0137561
866.028	0.0137582
866.106	0.0138303
866.184	0.0137615
866.262	0.0137044
866.340	0.0138764
866.418	0.0137588
866.496	0.0138248
866.575	0.0137719
866.653	0.0137988
866.731	0.0137936
866.809	0.0137802
866.887	0.0137152
866.965	0.0137766
867.043	0.0137009
867.121	0.0137740
867.200	0.0137730
867.278	0.0137564
867.356	0.0136441
867.434	0.0135695
867.512	0.0138605
867.590	0.0136715
867.668	0.0136722
867.746	0.0136706
867.825	0.0137426
867.903	0.0136197
867.981	0.0138675
868.059	0.0136401
868.137	0.0135915
868.215	0.0137341
868.293	0.0137439
868.371	0.0137433
868.450	0.0136057
868.528	0.0137254
868.606	0.0136854
868.684	0.0136913
868.762	0.0137633
868.840	0.0136977
868.918	0.0136870
868.996	0.0136938
869.075	0.0137671
869.153	0.0137582
869.231	0.0137489
869.309	0.0136823
869.387	0.0136664
869.465	0.0138959
869.543	0.0137774
869.621	0.0137209
869.700	0.0136440
869.778	0.0136324
869.856	0.0136749
869.934	0.0137134
870.012	0.0136179
870.090	0.0136510
870.168	0.0136440
870.246	0.0136376
870.325	0.0136724
870.403	0.0137832
870.481	0.0137823
870.559	0.0137037
870.637	0.0137949
870.715	0.0138142
870.793	0.0138207
870.871	0.0137195
870.950	0.0137199
871.028	0.0137035
871.106	0.0136480
871.184	0.0138729
871.262	0.0139530
871.340	0.0136810
871.418	0.0137516
871.496	0.0137118
871.575	0.0136187
871.653	0.0137498
871.731	0.0137641
871.809	0.0138136
871.887	0.0138680
871.965	0.0138241
872.043	0.0137173
872.121	0.0137221
872.200	0.0137699
872.278	0.0138616
872.356	0.0137970
872.434	0.0139319
872.512	0.0138435
872.590	0.0137466
872.668	0.0137926
872.746	0.0138117
872.825	0.0138475
872.903	0.0138601
872.981	0.0137292
873.059	0.0138128
873.137	0.0138853
873.215	0.0138907
873.293	0.0138235
873.371	0.0137955
873.450	0.0138520
873.528	0.0137241
873.606	0.0137391
873.684	0.0137099
873.762	0.0137106
873.840	0.0138336
873.918	0.0137803
873.996	0.0136933
874.075	0.0138025
874.153	0.0135682
874.231	0.0136716
874.309	0.0136879
874.387	0.0137005
874.465	0.0138506
874.543	0.0137861
874.621	0.0137063
874.700	0.0137141
874.778	0.0136887
874.856	0.0138700
874.934	0.0136330
875.012	0.0137746
875.090	0.0137981
875.168	0.0137210
875.246	0.0138396
875.325	0.0137231
875.403	0.0138786
875.481	0.0136758
875.559	0.0136853
875.637	0.0137272
875.715	0.0136360
875.793	0.0136926
875.871	0.0136583
875.950	0.0136697
876.028	0.0137820
876.106	0.0137984
876.184	0.0137167
876.262	0.0137311
876.340	0.0138179
876.418	0.0137525
876.496	0.0136723
876.575	0.0137070
876.653	0.0138174
876.731	0.0138371
876.809	0.0138023
876.887	0.0136958
876.965	0.0137208
877.043	0.0137337
877.121	0.0137370
877.200	0.0136474
877.278	0.0136535
877.356	0.0138551
877.434	0.0137241
877.512	0.0138069
877.590	0.0137299
877.668	0.0136711
877.746	0.0137942
877.825	0.0137481
877.903	0.0138120
877.981	0.0137147
878.059	0.0137505
878.137	0.0137106
878.215	0.0136880
878.293	0.0136993
878.371	0.0137135
878.450	0.0136311
878.528	0.0138162
878.606	0.0136636
878.684	0.0136967
878.762	0.0137619
878.840	0.0137345
878.918	0.0137088
878.996	0.0137360
879.075	0.0138159
879.153	0.0137145
879.231	0.0137534
879.309	0.0138148
879.387	0.0138035
879.465	0.0137271
879.543	0.0136526
879.621	0.0136366
879.700	0.0136916
879.778	0.0136725
879.856	0.0137528
879.934	0.0137599
880.012	0.0137361
880.090	0.0137297
880.168	0.0138541
880.246	0.0138857
880.325	0.0137214
880.403	0.0137766
880.481	0.0136969
880.559	0.0136964
880.637	0.0137290
880.715	0.0136304
880.793	0.0137999
880.871	0.0136147
880.950	0.0135513
881.028	0.0137533
881.106	0.0138119
881.184	0.0136057
881.262	0.0139036
881.340	0.0137386
881.418	0.0137164
881.496	0.0138097
881.575	0.0138326
881.653	0.0138200
881.731	0.0138007
881.809	0.0137669
881.887	0.0137807
881.965	0.0139311
882.043	0.0136794
882.121	0.0137054
882.200	0.0137198
882.278	0.0136939
882.356	0.0137918
882.434	0.0137929
882.512	0.0136758
882.590	0.0138200
882.668	0.0137507
882.746	0.0137080
882.825	0.0136384
882.903	0.0137498
882.981	0.0137715
883.059	0.0137256
883.137	0.0137482
883.215	0.0137654
883.293	0.0138780
883.371	0.0138139
883.450	0.0138898
883.528	0.0137169
883.606	0.0136434
883.684	0.0137177
883.762	0.0138114
883.840	0.0136384
883.918	0.0137503
883.996	0.0138374
884.075	0.0136882
884.153	0.0137530
884.231	0.0137262
884.309	0.0137146
884.387	0.0137941
884.465	0.0137005
884.543	0.0137199
884.621	0.0137315
884.700	0.0137411
884.778	0.0137673
884.856	0.0137379
884.934	0.0137923
885.012	0.0138059
885.090	0.0138371
885.168	0.0138248
885.246	0.0138399
885.325	0.0138179
885.403	0.0137710
885.481	0.0138171
885.559	0.0138811
885.637	0.0137003
885.715	0.0138669
885.793	0.0135926
885.871	0.0138300
885.950	0.0137934
886.028	0.0137930
886.106	0.0136975
886.184	0.0136682
886.262	0.0137189
886.340	0.0137531
886.418	0.0137653
886.496	0.0138298
886.575	0.0138269
886.653	0.0137512
886.731	0.0137012
886.809	0.0137573
886.887	0.0139190
886.965	0.0136858
887.043	0.0138805
887.121	0.0138145
887.200	0.0137172
887.278	0.0137134
887.356	0.0138058
887.434	0.0138052
887.512	0.0137228
887.590	0.0137384
887.668	0.0136683
887.746	0.0137222
887.825	0.0137418
887.903	0.0136303
887.981	0.0138235
888.059	0.0138055
888.137	0.0136830
888.215	0.0136869
888.293	0.0135969
888.371	0.0137913
888.450	0.0138303
888.528	0.0136591
888.606	0.0137801
888.684	0.0136434
888.762	0.0135796
888.840	0.0137950
888.918	0.0136449
888.996	0.0137497
889.075	0.0136893
889.153	0.0136250
889.231	0.0137894
889.309	0.0137482
889.387	0.0136914
889.465	0.0136149
889.543	0.0138243
889.621	0.0138210
889.700	0.0137543
889.778	0.0136008
889.856	0.0136903
889.934	0.0138187
890.012	0.0138145
890.090	0.0136614
890.168	0.0137145
890.246	0.0136591
890.325	0.0136697
890.403	0.0136711
890.481	0.0136134
890.559	0.0137305
890.637	0.0136987
890.715	0.0136440
890.793	0.0136762
890.871	0.0135062
890.950	0.0137070
891.028	0.0136864
891.106	0.0135542
891.184	0.0137166
891.262	0.0137493
891.340	0.0136481
891.418	0.0136133
891.496	0.0136272
891.575	0.0136257
891.653	0.0137073
891.731	0.0136335
891.809	0.0136749
891.887	0.0138741
891.965	0.0137187
892.043	0.0136606
892.121	0.0135346
892.200	0.0136563
892.278	0.0137052
892.356	0.0135275
892.434	0.0137233
892.512	0.0136057
892.590	0.0136832
892.668	0.0135506
892.746	0.0137588
892.825	0.0136967
892.903	0.0136898
892.981	0.0136252
893.059	0.0137425
893.137	0.0136301
893.215	0.0138498
893.293	0.0136661
893.371	0.0137132
893.450	0.0137689
893.528	0.0137947
893.606	0.0136527
893.684	0.0136901
893.762	0.0138349
893.840	0.0137657
893.918	0.0136817
893.996	0.0138154
894.075	0.0136223
894.153	0.0138486
894.231	0.0138486
894.309	0.0137025
894.387	0.0137366
894.465	0.0137593
894.543	0.0137479
894.621	0.0137243
894.700	0.0137604
894.778	0.0137708
894.856	0.0136770
894.934	0.0137778
895.012	0.0137708
895.090	0.0138000
895.168	0.0137739
895.246	0.0136977
895.325	0.0138255
895.403	0.0137871
895.481	0.0137033
895.559	0.0137082
895.637	0.0138078
895.715	0.0137213
895.793	0.0136862
895.871	0.0136775
895.950	0.0137936
896.028	0.0137912
896.106	0.0137390
896.184	0.0137600
896.262	0.0138425
896.340	0.0138599
896.418	0.0137549
896.496	0.0136874
896.575	0.0137532
896.653	0.0136120
896.731	0.0137086
896.809	0.0137351
896.887	0.0137293
896.965	0.0137326
897.043	0.0137720
897.121	0.0136444
897.200	0.0137787
897.278	0.0138393
897.356	0.0137209
897.434	0.0137242
897.512	0.0137613
897.590	0.0135841
897.668	0.0138228
897.746	0.0137348
897.825	0.0136555
897.903	0.0137136
897.981	0.0138751
898.059	0.0138094
898.137	0.0137414
898.215	0.0137693
898.293	0.0136701
898.371	0.0138445
898.450	0.0138305
898.528	0.0137310
898.606	0.0138358
898.684	0.0138681
898.762	0.0137341
898.840	0.0137877
898.918	0.0137727
898.996	0.0136781
899.075	0.0136902
899.153	0.0136168
899.231	0.0138602
899.309	0.0137415
899.387	0.0137724
899.465	0.0137594
899.543	0.0136610
899.621	0.0136964
899.700	0.0136922
899.778	0.0136704
899.856	0.0136407
899.934	0.0136424
900.012	0.0136866
900.090	0.0137415
900.168	0.0137903
900.246	0.0136604
900.325	0.0135689
900.403	0.0137658
900.481	0.0137106
900.559	0.0137247
900.637	0.0136581
900.715	0.0136422
900.793	0.0137495
900.871	0.0135846
900.950	0.0138147
901.028	0.0137218
901.106	0.0135500
901.184	0.0138445
901.262	0.0137162
901.340	0.0135938
901.418	0.0136947
901.496	0.0135889
901.575	0.0137677
901.653	0.0135764
901.731	0.0136379
901.809	0.0137282
901.887	0.0135458
901.965	0.0136501
902.043	0.0137032
902.121	0.0135870
902.200	0.0137247
902.278	0.0136763
902.356	0.0134947
902.434	0.0137080
902.512	0.0135863
902.590	0.0136787
902.668	0.0137659
902.746	0.0137019
902.825	0.0136942
902.903	0.0137180
902.981	0.0135876
903.059	0.0137982
903.137	0.0135905
903.215	0.0137714
903.293	0.0137928
903.371	0.0137272
903.450	0.0136611
903.528	0.0136635
903.606	0.0137481
903.684	0.0137199
903.762	0.0137663
903.840	0.0138045
903.918	0.0137337
903.996	0.0136837
904.075	0.0136563
904.153	0.0136914
904.231	0.0137528
904.309	0.0138264
904.387	0.0137479
904.465	0.0136177
904.543	0.0136420
904.621	0.0136517
904.700	0.0136563
904.778	0.0137315
904.856	0.0137122
904.934	0.0138120
905.012	0.0137941
905.090	0.0138663
905.168	0.0138174
905.246	0.0137967
905.325	0.0137993
905.403	0.0138586
905.481	0.0138680
905.559	0.0137705
905.637	0.0136951
905.715	0.0137849
905.793	0.0138738
905.871	0.0137985
905.950	0.0137040
906.028	0.0137489
906.106	0.0139063
906.184	0.0136884
906.262	0.0137989
906.340	0.0137189
906.418	0.0136189
906.496	0.0136740
906.575	0.0137075
906.653	0.0136610
906.731	0.0138542
906.809	0.0135790
906.887	0.0138219
906.965	0.0139079
907.043	0.0137193
907.121	0.0136949
907.200	0.0137642
907.278	0.0138109
907.356	0.0136285
907.434	0.0137773
907.512	0.0137811
907.590	0.0138244
907.668	0.0138054
907.746	0.0137756
907.825	0.0137867
907.903	0.0136008
907.981	0.0138818
908.059	0.0138641
908.137	0.0137046
908.215	0.0136871
908.293	0.0137962
908.371	0.0138672
908.450	0.0138454
908.528	0.0138210
908.606	0.0137881
908.684	0.0138058
908.762	0.0136880
908.840	0.0135819
908.918	0.0136877
908.996	0.0137016
909.075	0.0136741
909.153	0.0137014
909.231	0.0136607
909.309	0.0137805
909.387	0.0137654
909.465	0.0138326
909.543	0.0139275
909.621	0.0138762
909.700	0.0137899
909.778	0.0139525
909.856	0.0138561
909.934	0.0138554
910.012	0.0136868
910.090	0.0137586
910.168	0.0138300
910.246	0.0137074
910.325	0.0137709
910.403	0.0137879
910.481	0.0137136
910.559	0.0136283
910.637	0.0136131
910.715	0.0136182
910.793	0.0137439
910.871	0.0138007
910.950	0.0136401
911.028	0.0137272
911.106	0.0137225
911.184	0.0137113
911.262	0.0136842
911.340	0.0136476
911.418	0.0137808
911.496	0.0137458
911.575	0.0136517
911.653	0.0138565
911.731	0.0137498
911.809	0.0136008
911.887	0.0136555
911.965	0.0135487
912.043	0.0135699
912.121	0.0136777
912.200	0.0136809
912.278	0.0134962
912.356	0.0135965
912.434	0.0136689
912.512	0.0137500
912.590	0.0137943
912.668	0.0138877
912.746	0.0138185
912.825	0.0139202
912.903	0.0138036
912.981	0.0138082
913.059	0.0138274
913.137	0.0137711
913.215	0.0137319
913.293	0.0136552
913.371	0.0137691
913.450	0.0136850
913.528	0.0136615
913.606	0.0137273
913.684	0.0135600
913.762	0.0135309
913.840	0.0134373
913.918	0.0136699
913.996	0.0136578
914.075	0.0136225
914.153	0.0137561
914.231	0.0135580
914.309	0.0136739
914.387	0.0137075
914.465	0.0137814
914.543	0.0138123
914.621	0.0138554
914.700	0.0137264
914.778	0.0137498
914.856	0.0135915
914.934	0.0135573
915.012	0.0137144
915.090	0.0137110
915.168	0.0137242
915.246	0.0137366
915.325	0.0136195
915.403	0.0135779
915.481	0.0136768
915.559	0.0138162
915.637	0.0137264
915.715	0.0136312
915.793	0.0136721
915.871	0.0138812
915.950	0.0137252
916.028	0.0137199
916.106	0.0138840
916.184	0.0140234
916.262	0.0139079
916.340	0.0138845
916.418	0.0138373
916.496	0.0138031
916.575	0.0138844
916.653	0.0137717
916.731	0.0137060
916.809	0.0137996
916.887	0.0136880
916.965	0.0136141
917.043	0.0136031
917.121	0.0136989
917.200	0.0137518
917.278	0.0135751
917.356	0.0136446
917.434	0.0136239
917.512	0.0137319
917.590	0.0137582
917.668	0.0138121
917.746	0.0137489
917.825	0.0137779
917.903	0.0138492
917.981	0.0139713
918.059	0.0140202
918.137	0.0139728
918.215	0.0139227
918.293	0.0139363
918.371	0.0139356
918.450	0.0138432
918.528	0.0139093
918.606	0.0137930
918.684	0.0137025
918.762	0.0136539
918.840	0.0136749
918.918	0.0136845
918.996	0.0137036
919.075	0.0136960
919.153	0.0136699
919.231	0.0136943
919.309	0.0138332
919.387	0.0139826
919.465	0.0136887
919.543	0.0137693
919.621	0.0138773
919.700	0.0138837
919.778	0.0138399
919.856	0.0137818
919.934	0.0138747
920.012	0.0138390
920.090	0.0138954
920.168	0.0138184
920.246	0.0137811
920.325	0.0139159
920.403	0.0137849
920.481	0.0138879
920.559	0.0137274
920.637	0.0137128
920.715	0.0137392
920.793	0.0138390
920.871	0.0137268
920.950	0.0137792
921.028	0.0138151
921.106	0.0138030
921.184	0.0136741
921.262	0.0138561
921.340	0.0137191
921.418	0.0137219
921.496	0.0137189
921.575	0.0137722
921.653	0.0136723
921.731	0.0136837
921.809	0.0138858
921.887	0.0138300
921.965	0.0137383
922.043	0.0135108
922.121	0.0137454
922.200	0.0137588
922.278	0.0137113
922.356	0.0136281
922.434	0.0138046
922.512	0.0137553
922.590	0.0135836
922.668	0.0137986
922.746	0.0137811
922.825	0.0136827
922.903	0.0137769
922.981	0.0137994
923.059	0.0136846
923.137	0.0135741
923.215	0.0137221
923.293	0.0137177
923.371	0.0136297
923.450	0.0138518
923.528	0.0137939
923.606	0.0136842
923.684	0.0137182
923.762	0.0137318
923.840	0.0136974
923.918	0.0138071
923.996	0.0136609
924.075	0.0137937
924.153	0.0137867
924.231	0.0136202
924.309	0.0137260
924.387	0.0137345
924.465	0.0136539
924.543	0.0137203
924.621	0.0136040
924.700	0.0136836
924.778	0.0136343
924.856	0.0136746
924.934	0.0136230
925.012	0.0137046
925.090	0.0137630
925.168	0.0137170
925.246	0.0137164
925.325	0.0137285
925.403	0.0136786
925.481	0.0137649
925.559	0.0137877
925.637	0.0135876
925.715	0.0137051
925.793	0.0137827
925.871	0.0138402
925.950	0.0136868
926.028	0.0136384
926.106	0.0139061
926.184	0.0138276
926.262	0.0136536
926.340	0.0137727
926.418	0.0136809
926.496	0.0137085
926.575	0.0137417
926.653	0.0136969
926.731	0.0137994
926.809	0.0138108
926.887	0.0137358
926.965	0.0136875
927.043	0.0138612
927.121	0.0137442
927.200	0.0136726
927.278	0.0136624
927.356	0.0136492
927.434	0.0139150
927.512	0.0137334
927.590	0.0137876
927.668	0.0138033
927.746	0.0137875
927.825	0.0138359
927.903	0.0136592
927.981	0.0137377
928.059	0.0136365
928.137	0.0137389
928.215	0.0137962
928.293	0.0137918
928.371	0.0136682
928.450	0.0136687
928.528	0.0137334
928.606	0.0136415
928.684	0.0137235
928.762	0.0137656
928.840	0.0139066
928.918	0.0137280
928.996	0.0137341
929.075	0.0137051
929.153	0.0137473
929.231	0.0135779
929.309	0.0137582
929.387	0.0136644
929.465	0.0136976
929.543	0.0136314
929.621	0.0138065
929.700	0.0136927
929.778	0.0136008
929.856	0.0136616
929.934	0.0137358
930.012	0.0139678
930.090	0.0137928
930.168	0.0137724
930.246	0.0138657
930.325	0.0138303
930.403	0.0137859
930.481	0.0138417
930.559	0.0137641
930.637	0.0138104
930.715	0.0137692
930.793	0.0137191
930.871	0.0135966
930.950	0.0137341
931.028	0.0137524
931.106	0.0139566
931.184	0.0138456
931.262	0.0136714
931.340	0.0137627
931.418	0.0137738
931.496	0.0137582
931.575	0.0137735
931.653	0.0137974
931.731	0.0139298
931.809	0.0137963
931.887	0.0138078
931.965	0.0138041
932.043	0.0137160
932.121	0.0136432
932.200	0.0137041
932.278	0.0136641
932.356	0.0137951
932.434	0.0136728
932.512	0.0136829
932.590	0.0136213
932.668	0.0137457
932.746	0.0135814
932.825	0.0136646
932.903	0.0136612
932.981	0.0137461
933.059	0.0137685
933.137	0.0136851
933.215	0.0137571
933.293	0.0137221
933.371	0.0136808
933.450	0.0135717
933.528	0.0136710
933.606	0.0136484
933.684	0.0137280
933.762	0.0136826
933.840	0.0135858
933.918	0.0138164
933.996	0.0136368
934.075	0.0136332
934.153	0.0136753
934.231	0.0137009
934.309	0.0136450
934.387	0.0137412
934.465	0.0137013
934.543	0.0137751
934.621	0.0136451
934.700	0.0136393
934.778	0.0137181
934.856	0.0136623
934.934	0.0136326
935.012	0.0136331
935.090	0.0136449
935.168	0.0135513
935.246	0.0134574
935.325	0.0136130
935.403	0.0135848
935.481	0.0137099
935.559	0.0137245
935.637	0.0135870
935.715	0.0134202
935.793	0.0137442
935.871	0.0136730
935.950	0.0136109
936.028	0.0138191
936.106	0.0137239
936.184	0.0137209
936.262	0.0136466
936.340	0.0138807
936.418	0.0139083
936.496	0.0136591
936.575	0.0137762
936.653	0.0137166
936.731	0.0137931
936.809	0.0137898
936.887	0.0136848
936.965	0.0138471
937.043	0.0138158
937.121	0.0137309
937.200	0.0136880
937.278	0.0136990
937.356	0.0138259
937.434	0.0137157
937.512	0.0138345
937.590	0.0137185
937.668	0.0137534
937.746	0.0137540
937.825	0.0137952
937.903	0.0136858
937.981	0.0137464
938.059	0.0138107
938.137	0.0137630
938.215	0.0137548
938.293	0.0137276
938.371	0.0139154
938.450	0.0137602
938.528	0.0137537
938.606	0.0137550
938.684	0.0138049
938.762	0.0138508
938.840	0.0137803
938.918	0.0137416
938.996	0.0137825
939.075	0.0136418
939.153	0.0138053
939.231	0.0137204
939.309	0.0136328
939.387	0.0137798
939.465	0.0137549
939.543	0.0135919
939.621	0.0136362
939.700	0.0138084
939.778	0.0137211
939.856	0.0138493
939.934	0.0137879
940.012	0.0137185
940.090	0.0137067
940.168	0.0137925
940.246	0.0139898
940.325	0.0136814
940.403	0.0138773
940.481	0.0138377
940.559	0.0138618
940.637	0.0139198
940.715	0.0138531
940.793	0.0137753
940.871	0.0138205
940.950	0.0138319
941.028	0.0137449
941.106	0.0136343
941.184	0.0136785
941.262	0.0137571
941.340	0.0137373
941.418	0.0137700
941.496	0.0137683
941.575	0.0137280
941.653	0.0137492
941.731	0.0138511
941.809	0.0137454
941.887	0.0137820
941.965	0.0137682
942.043	0.0137685
942.121	0.0138007
942.200	0.0138428
942.278	0.0137579
942.356	0.0137550
942.434	0.0138707
942.512	0.0138766
942.590	0.0138316
942.668	0.0137581
942.746	0.0137695
942.825	0.0137443
942.903	0.0137958
942.981	0.0137298
943.059	0.0137564
943.137	0.0137620
943.215	0.0137548
943.293	0.0137485
943.371	0.0137890
943.450	0.0136676
943.528	0.0137001
943.606	0.0137117
943.684	0.0137700
943.762	0.0136875
943.840	0.0138620
943.918	0.0137761
943.996	0.0137236
944.075	0.0137374
944.153	0.0137095
944.231	0.0136516
944.309	0.0138435
944.387	0.0138367
944.465	0.0137303
944.543	0.0136401
944.621	0.0138464
944.700	0.0137069
944.778	0.0136250
944.856	0.0137853
944.934	0.0137395
945.012	0.0136713
945.090	0.0137131
945.168	0.0137299
945.246	0.0137492
945.325	0.0136812
945.403	0.0136530
945.481	0.0136745
945.559	0.0137482
945.637	0.0138121
945.715	0.0136957
945.793	0.0137716
945.871	0.0137919
945.950	0.0136592
946.028	0.0136354
946.106	0.0137381
946.184	0.0137236
946.262	0.0137805
946.340	0.0138123
946.418	0.0137919
946.496	0.0137806
946.575	0.0136886
946.653	0.0137114
946.731	0.0136822
946.809	0.0137924
946.887	0.0137019
946.965	0.0135495
947.043	0.0136922
947.121	0.0137164
947.200	0.0136857
947.278	0.0137202
947.356	0.0137379
947.434	0.0136503
947.512	0.0137337
947.590	0.0136330
947.668	0.0136777
947.746	0.0137197
947.825	0.0137998
947.903	0.0136630
947.981	0.0136199
948.059	0.0137469
948.137	0.0137301
948.215	0.0137779
948.293	0.0137889
948.371	0.0138623
948.450	0.0137578
948.528	0.0138215
948.606	0.0138311
948.684	0.0137242
948.762	0.0136602
948.840	0.0137637
948.918	0.0137840
948.996	0.0138439
949.075	0.0137659
949.153	0.0137325
949.231	0.0138316
949.309	0.0137605
949.387	0.0137057
949.465	0.0137005
949.543	0.0137612
949.621	0.0136555
949.700	0.0137548
949.778	0.0137313
949.856	0.0136057
949.934	0.0137038
950.012	0.0137086
950.090	0.0136957
950.168	0.0137434
950.246	0.0135052
950.325	0.0136995
950.403	0.0136860
950.481	0.0137316
950.559	0.0137724
950.637	0.0136394
950.715	0.0138505
950.793	0.0136233
950.871	0.0137299
950.950	0.0137404
951.028	0.0137241
951.106	0.0137701
951.184	0.0138860
951.262	0.0138384
951.340	0.0138118
951.418	0.0136770
951.496	0.0137829
951.575	0.0137160
951.653	0.0136805
951.731	0.0138203
951.809	0.0137724
951.887	0.0136810
951.965	0.0137009
952.043	0.0136730
952.121	0.0137907
952.200	0.0137585
952.278	0.0139363
952.356	0.0136649
952.434	0.0137317
952.512	0.0137633
952.590	0.0137456
952.668	0.0137528
952.746	0.0137730
952.825	0.0137763
952.903	0.0138167
952.981	0.0138222
953.059	0.0138654
953.137	0.0137032
953.215	0.0137917
953.293	0.0137846
953.371	0.0136633
953.450	0.0136498
953.528	0.0138783
953.606	0.0137508
953.684	0.0138386
953.762	0.0137410
953.840	0.0138169
953.918	0.0137934
953.996	0.0137225
954.075	0.0137944
954.153	0.0137212
954.231	0.0136498
954.309	0.0136325
954.387	0.0138406
954.465	0.0138112
954.543	0.0137402
954.621	0.0137712
954.700	0.0137299
954.778	0.0135957
954.856	0.0137610
954.934	0.0137067
955.012	0.0136613
955.090	0.0135632
955.168	0.0136628
955.246	0.0136067
955.325	0.0137096
955.403	0.0136726
955.481	0.0138092
955.559	0.0136577
955.637	0.0136272
955.715	0.0137725
955.793	0.0137138
955.871	0.0137943
955.950	0.0135471
956.028	0.0137847
956.106	0.0137398
956.184	0.0136932
956.262	0.0137241
956.340	0.0137772
956.418	0.0136465
956.496	0.0136372
956.575	0.0136932
956.653	0.0137298
956.731	0.0138304
956.809	0.0137846
956.887	0.0135538
956.965	0.0137690
957.043	0.0137128
957.121	0.0137021
957.200	0.0136944
957.278	0.0136686
957.356	0.0137107
957.434	0.0136253
957.512	0.0136879
957.590	0.0137149
957.668	0.0136676
957.746	0.0136697
957.825	0.0137509
957.903	0.0136700
957.981	0.0136469
958.059	0.0136827
958.137	0.0135532
958.215	0.0135987
958.293	0.0136906
958.371	0.0137107
958.450	0.0137937
958.528	0.0136361
958.606	0.0136312
958.684	0.0137219
958.762	0.0136357
958.840	0.0137378
958.918	0.0136147
958.996	0.0137125
959.075	0.0138093
959.153	0.0137673
959.231	0.0138065
959.309	0.0138105
959.387	0.0137830
959.465	0.0137167
959.543	0.0138330
959.621	0.0137728
959.700	0.0137020
959.778	0.0136488
959.856	0.0137480
959.934	0.0137296
960.012	0.0138065
960.090	0.0137267
960.168	0.0135999
960.246	0.0135766
960.325	0.0136623
960.403	0.0138716
960.481	0.0137487
960.559	0.0136889
960.637	0.0137136
960.715	0.0138160
960.793	0.0138081
960.871	0.0137781
960.950	0.0136972
961.028	0.0138282
961.106	0.0139325
961.184	0.0138273
961.262	0.0136686
961.340	0.0137067
961.418	0.0137086
961.496	0.0137263
961.575	0.0137326
961.653	0.0137270
961.731	0.0136465
961.809	0.0136621
961.887	0.0138190
961.965	0.0136724
962.043	0.0138599
962.121	0.0137380
962.200	0.0137234
962.278	0.0137564
962.356	0.0138400
962.434	0.0137740
962.512	0.0137194
962.590	0.0136781
962.668	0.0137165
962.746	0.0137270
962.825	0.0138441
962.903	0.0138216
962.981	0.0138636
963.059	0.0137084
963.137	0.0137263
963.215	0.0138027
963.293	0.0136282
963.371	0.0137433
963.450	0.0136452
963.528	0.0138505
963.606	0.0137852
963.684	0.0138236
963.762	0.0138255
963.840	0.0137975
963.918	0.0138441
963.996	0.0137931
964.075	0.0137273
964.153	0.0138065
964.231	0.0139202
964.309	0.0137729
964.387	0.0138072
964.465	0.0138300
964.543	0.0136507
964.621	0.0137231
964.700	0.0137374
964.778	0.0137271
964.856	0.0137660
964.934	0.0136616
965.012	0.0138522
965.090	0.0138900
965.168	0.0137267
965.246	0.0136784
965.325	0.0137802
965.403	0.0137378
965.481	0.0137572
965.559	0.0137990
965.637	0.0137325
965.715	0.0135696
965.793	0.0136478
965.871	0.0135690
965.950	0.0136065
966.028	0.0138268
966.106	0.0137978
966.184	0.0136075
966.262	0.0137223
966.340	0.0137868
966.418	0.0136985
966.496	0.0136849
966.575	0.0138145
966.653	0.0138030
966.731	0.0136819
966.809	0.0137433
966.887	0.0137007
966.965	0.0137133
967.043	0.0136938
967.121	0.0136793
967.200	0.0136877
967.278	0.0135484
967.356	0.0136002
967.434	0.0137460
967.512	0.0137763
967.590	0.0136934
967.668	0.0136436
967.746	0.0136584
967.825	0.0138369
967.903	0.0136200
967.981	0.0136947
968.059	0.0137331
968.137	0.0138132
968.215	0.0138483
968.293	0.0137862
968.371	0.0138184
968.450	0.0137708
968.528	0.0137486
968.606	0.0137906
968.684	0.0138118
968.762	0.0136742
968.840	0.0137265
968.918	0.0139343
968.996	0.0137791
969.075	0.0136450
969.153	0.0138325
969.231	0.0138065
969.309	0.0137021
969.387	0.0136634
969.465	0.0137950
969.543	0.0138212
969.621	0.0138073
969.700	0.0137414
969.778	0.0137296
969.856	0.0136791
969.934	0.0136563
970.012	0.0137582
970.090	0.0137580
970.168	0.0136293
970.246	0.0138168
970.325	0.0138410
970.403	0.0136942
970.481	0.0135024
970.559	0.0136091
970.637	0.0137581
970.715	0.0136744
970.793	0.0136738
970.871	0.0136327
970.950	0.0136114
971.028	0.0137646
971.106	0.0137042
971.184	0.0136989
971.262	0.0137181
971.340	0.0136147
971.418	0.0136337
971.496	0.0137787
971.575	0.0136813
971.653	0.0137110
971.731	0.0136493
971.809	0.0137225
971.887	0.0136170
971.965	0.0136336
972.043	0.0136260
972.121	0.0136031
972.200	0.0137992
972.278	0.0135718
972.356	0.0137642
972.434	0.0137471
972.512	0.0138578
972.590	0.0137359
972.668	0.0136237
972.746	0.0137683
972.825	0.0137806
972.903	0.0136424
972.981	0.0136581
973.059	0.0138062
973.137	0.0138492
973.215	0.0136947
973.293	0.0136855
973.371	0.0136230
973.450	0.0136348
973.528	0.0136605
973.606	0.0136516
973.684	0.0135204
973.762	0.0138606
973.840	0.0136925
973.918	0.0135635
973.996	0.0136699
974.075	0.0137013
974.153	0.0137318
974.231	0.0137723
974.309	0.0139288
974.387	0.0136688
974.465	0.0136942
974.543	0.0138342
974.621	0.0136974
974.700	0.0137152
974.778	0.0137867
974.856	0.0138112
974.934	0.0138215
975.012	0.0138396
975.090	0.0137061
975.168	0.0137262
975.246	0.0137383
975.325	0.0136845
975.403	0.0138625
975.481	0.0137202
975.559	0.0138425
975.637	0.0138043
975.715	0.0138564
975.793	0.0138073
975.871	0.0137762
975.950	0.0137695
976.028	0.0137347
976.106	0.0136436
976.184	0.0137543
976.262	0.0138987
976.340	0.0138246
976.418	0.0138023
976.496	0.0136185
976.575	0.0138015
976.653	0.0138577
976.731	0.0136510
976.809	0.0137327
976.887	0.0138418
976.965	0.0138859
977.043	0.0137495
977.121	0.0138738
977.200	0.0137300
977.278	0.0137463
977.356	0.0136706
977.434	0.0137537
977.512	0.0137406
977.590	0.0138585
977.668	0.0138759
977.746	0.0138876
977.825	0.0137596
977.903	0.0137865
977.981	0.0137821
978.059	0.0138538
978.137	0.0138424
978.215	0.0136631
978.293	0.0135541
978.371	0.0138132
978.450	0.0137500
978.528	0.0136758
978.606	0.0136069
978.684	0.0137674
978.762	0.0137079
978.840	0.0137244
978.918	0.0136811
978.996	0.0135835
979.075	0.0136443
979.153	0.0137183
979.231	0.0137241
979.309	0.0138046
979.387	0.0137059
979.465	0.0136443
979.543	0.0138231
979.621	0.0136514
979.700	0.0137035
979.778	0.0137836
979.856	0.0137701
979.934	0.0136396
980.012	0.0137554
980.090	0.0136754
980.168	0.0137064
980.246	0.0136523
980.325	0.0137038
980.403	0.0137985
980.481	0.0137113
980.559	0.0136367
980.637	0.0135802
980.715	0.0136801
980.793	0.0137480
980.871	0.0136526
980.950	0.0136508
981.028	0.0136909
981.106	0.0137524
981.184	0.0136012
981.262	0.0136205
981.340	0.0135580
981.418	0.0136710
981.496	0.0136963
981.575	0.0136749
981.653	0.0136768
981.731	0.0137689
981.809	0.0136549
981.887	0.0137299
981.965	0.0136531
982.043	0.0137138
982.121	0.0136978
982.200	0.0136978
982.278	0.0136621
982.356	0.0136606
982.434	0.0137106
982.512	0.0135792
982.590	0.0136375
982.668	0.0135905
982.746	0.0137560
982.825	0.0137868
982.903	0.0139288
982.981	0.0137556
983.059	0.0137692
983.137	0.0137012
983.215	0.0136805
983.293	0.0136446
983.371	0.0136642
983.450	0.0136844
983.528	0.0139087
983.606	0.0137359
983.684	0.0137540
983.762	0.0136169
983.840	0.0136926
983.918	0.0139347
983.996	0.0136677
984.075	0.0135802
984.153	0.0135964
984.231	0.0137349
984.309	0.0137531
984.387	0.0138407
984.465	0.0136934
984.543	0.0137229
984.621	0.0137517
984.700	0.0137591
984.778	0.0136795
984.856	0.0137521
984.934	0.0138470
985.012	0.0137692
985.090	0.0137374
985.168	0.0137978
985.246	0.0136213
985.325	0.0138005
985.403	0.0138608
985.481	0.0138406
985.559	0.0137679
985.637	0.0137368
985.715	0.0137573
985.793	0.0138648
985.871	0.0136684
985.950	0.0138697
986.028	0.0138408
986.106	0.0137453
986.184	0.0137025
986.262	0.0137437
986.340	0.0137094
986.418	0.0136716
986.496	0.0137279
986.575	0.0136490
986.653	0.0137125
986.731	0.0137313
986.809	0.0137437
986.887	0.0136147
986.965	0.0136591
987.043	0.0137143
987.121	0.0137865
987.200	0.0137090
987.278	0.0136356
987.356	0.0137440
987.434	0.0136638
987.512	0.0136575
987.590	0.0136420
987.668	0.0136175
987.746	0.0136291
987.825	0.0136440
987.903	0.0137737
987.981	0.0137078
988.059	0.0136991
988.137	0.0138664
988.215	0.0136993
988.293	0.0137798
988.371	0.0137517
988.450	0.0137151
988.528	0.0136891
988.606	0.0136859
988.684	0.0136092
988.762	0.0138584
988.840	0.0138156
988.918	0.0136575
988.996	0.0135114
989.075	0.0135612
989.153	0.0135796
989.231	0.0137334
989.309	0.0135909
989.387	0.0136639
989.465	0.0136588
989.543	0.0137334
989.621	0.0137034
989.700	0.0137876
989.778	0.0136092
989.856	0.0136777
989.934	0.0138354
990.012	0.0137163
990.090	0.0136856
990.168	0.0137877
990.246	0.0137721
990.325	0.0137379
990.403	0.0136581
990.481	0.0136931
990.559	0.0137669
990.637	0.0136895
990.715	0.0135508
990.793	0.0137115
990.871	0.0137341
990.950	0.0135966
991.028	0.0137360
991.106	0.0136606
991.184	0.0136169
991.262	0.0137261
991.340	0.0138529
991.418	0.0135554
991.496	0.0137611
991.575	0.0138388
991.653	0.0136461
991.731	0.0135889
991.809	0.0136511
991.887	0.0138714
991.965	0.0137817
992.043	0.0137621
992.121	0.0138757
992.200	0.0137679
992.278	0.0137517
992.356	0.0137100
992.434	0.0136885
992.512	0.0136694
992.590	0.0137169
992.668	0.0135870
992.746	0.0137547
992.825	0.0137165
992.903	0.0138300
992.981	0.0136948
993.059	0.0136640
993.137	0.0137616
993.215	0.0138319
993.293	0.0136362
993.371	0.0137764
993.450	0.0137720
993.528	0.0136337
993.606	0.0137334
993.684	0.0136655
993.762	0.0137192
993.840	0.0136826
993.918	0.0136624
993.996	0.0138882
994.075	0.0136130
994.153	0.0136217
994.231	0.0137518
994.309	0.0136407
994.387	0.0137197
994.465	0.0137529
994.543	0.0136785
994.621	0.0136915
994.700	0.0135925
994.778	0.0136485
994.856	0.0137463
994.934	0.0136742
995.012	0.0136805
995.090	0.0135844
995.168	0.0136718
995.246	0.0138505
995.325	0.0136633
995.403	0.0136624
995.481	0.0137836
995.559	0.0137568
995.637	0.0137202
995.715	0.0136662
995.793	0.0136488
995.871	0.0136714
995.950	0.0135143
996.028	0.0136651
996.106	0.0137755
996.184	0.0137983
996.262	0.0135988
996.340	0.0136377
996.418	0.0135454
996.496	0.0136402
996.575	0.0135653
996.653	0.0137393
996.731	0.0135748
996.809	0.0136925
996.887	0.0136343
996.965	0.0136161
997.043	0.0136758
997.121	0.0136756
997.200	0.0137884
997.278	0.0137264
997.356	0.0136298
997.434	0.0136660
997.512	0.0137000
997.590	0.0137292
997.668	0.0136353
997.746	0.0136331
997.825	0.0136936
997.903	0.0136308
997.981	0.0136298
998.059	0.0137501
998.137	0.0136349
998.215	0.0135625
998.293	0.0137257
998.371	0.0137411
998.450	0.0134963
998.528	0.0136212
998.606	0.0136629
998.684	0.0136528
998.762	0.0135658
998.840	0.0137255
998.918	0.0136459
