05/04/2022	21:43:24	Ver.	4.1	UNKNOWN
Optical Delay	678.989730	Delta X		0.078125	Sweeps	1	Scan Rate	0/0
Coordinates	Axis 1	NaN	Axis 2	NaN	Axis 3	NaN	Axis 4	NaN	Axis 5	NaN	Axis 6	0.000000
TX Power	0.000000	RX Power	0.000000

678.990	0.0139387
679.068	0.0141177
679.146	0.0139804
679.224	0.0140988
679.302	0.0140940
679.380	0.0141255
679.458	0.0140766
679.537	0.0139503
679.615	0.0140888
679.693	0.0142123
679.771	0.0141983
679.849	0.0139801
679.927	0.0140145
680.005	0.0139753
680.083	0.0139828
680.162	0.0137823
680.240	0.0138194
680.318	0.0138739
680.396	0.0138112
680.474	0.0137698
680.552	0.0137883
680.630	0.0139133
680.708	0.0138456
680.787	0.0139478
680.865	0.0141839
680.943	0.0140604
681.021	0.0139980
681.099	0.0139773
681.177	0.0139745
681.255	0.0138150
681.333	0.0137615
681.412	0.0136541
681.490	0.0135977
681.568	0.0135574
681.646	0.0134319
681.724	0.0136737
681.802	0.0136352
681.880	0.0136897
681.958	0.0139359
682.037	0.0141598
682.115	0.0142160
682.193	0.0144335
682.271	0.0145899
682.349	0.0145074
682.427	0.0146855
682.505	0.0146385
682.583	0.0143217
682.662	0.0141534
682.740	0.0138071
682.818	0.0135982
682.896	0.0132732
682.974	0.0130198
683.052	0.0129450
683.130	0.0126534
683.208	0.0125262
683.287	0.0125004
683.365	0.0125930
683.443	0.0128528
683.521	0.0130939
683.599	0.0133765
683.677	0.0136871
683.755	0.0141576
683.833	0.0145259
683.912	0.0147326
683.990	0.0148016
684.068	0.0149215
684.146	0.0149771
684.224	0.0150216
684.302	0.0148755
684.380	0.0147448
684.458	0.0144310
684.537	0.0143761
684.615	0.0142204
684.693	0.0138689
684.771	0.0137685
684.849	0.0137016
684.927	0.0137550
685.005	0.0136936
685.083	0.0137275
685.162	0.0138727
685.240	0.0140205
685.318	0.0139359
685.396	0.0141093
685.474	0.0141371
685.552	0.0139764
685.630	0.0139758
685.708	0.0137894
685.787	0.0136523
685.865	0.0134837
685.943	0.0134264
686.021	0.0132714
686.099	0.0131223
686.177	0.0129088
686.255	0.0129684
686.333	0.0131874
686.412	0.0132616
686.490	0.0134412
686.568	0.0138287
686.646	0.0139555
686.724	0.0142188
686.802	0.0144843
686.880	0.0147101
686.958	0.0148694
687.037	0.0149838
687.115	0.0149340
687.193	0.0149739
687.271	0.0148663
687.349	0.0149019
687.427	0.0147326
687.505	0.0143609
687.583	0.0142382
687.662	0.0142465
687.740	0.0138792
687.818	0.0136319
687.896	0.0134392
687.974	0.0132399
688.052	0.0134599
688.130	0.0132478
688.208	0.0130645
688.287	0.0131224
688.365	0.0133392
688.443	0.0133117
688.521	0.0132640
688.599	0.0133940
688.677	0.0133472
688.755	0.0134913
688.833	0.0130880
688.912	0.0133220
688.990	0.0134003
689.068	0.0135043
689.146	0.0135426
689.224	0.0134644
689.302	0.0134978
689.380	0.0139434
689.458	0.0140036
689.537	0.0142029
689.615	0.0143807
689.693	0.0145105
689.771	0.0145252
689.849	0.0145718
689.927	0.0147898
690.005	0.0147368
690.083	0.0147423
690.162	0.0147603
690.240	0.0147065
690.318	0.0145018
690.396	0.0143931
690.474	0.0140618
690.552	0.0140694
690.630	0.0139228
690.708	0.0136898
690.787	0.0134998
690.865	0.0135497
690.943	0.0135814
691.021	0.0134554
691.099	0.0135498
691.177	0.0135040
691.255	0.0135110
691.333	0.0135414
691.412	0.0137666
691.490	0.0136610
691.568	0.0138754
691.646	0.0138708
691.724	0.0138705
691.802	0.0139453
691.880	0.0136871
691.958	0.0138573
692.037	0.0136982
692.115	0.0137659
692.193	0.0138421
692.271	0.0137726
692.349	0.0138914
692.427	0.0139253
692.505	0.0139532
692.583	0.0141160
692.662	0.0140742
692.740	0.0140163
692.818	0.0141152
692.896	0.0141819
692.974	0.0141882
693.052	0.0141589
693.130	0.0140910
693.208	0.0141046
693.287	0.0141317
693.365	0.0139376
693.443	0.0137893
693.521	0.0138464
693.599	0.0135754
693.677	0.0134576
693.755	0.0134636
693.833	0.0134803
693.912	0.0133868
693.990	0.0134239
694.068	0.0135078
694.146	0.0137215
694.224	0.0138303
694.302	0.0142764
694.380	0.0143235
694.458	0.0144901
694.537	0.0145763
694.615	0.0147173
694.693	0.0148403
694.771	0.0147031
694.849	0.0146751
694.927	0.0144493
695.005	0.0140553
695.083	0.0140025
695.162	0.0138631
695.240	0.0135011
695.318	0.0134176
695.396	0.0132018
695.474	0.0130913
695.552	0.0129449
695.630	0.0130827
695.708	0.0131172
695.787	0.0134269
695.865	0.0134737
695.943	0.0137355
696.021	0.0138055
696.099	0.0141483
696.177	0.0142934
696.255	0.0142956
696.333	0.0142912
696.412	0.0143810
696.490	0.0142503
696.568	0.0141399
696.646	0.0140276
696.724	0.0138422
696.802	0.0136839
696.880	0.0138202
696.958	0.0138570
697.037	0.0138402
697.115	0.0138461
697.193	0.0138963
697.271	0.0139097
697.349	0.0140606
697.427	0.0141213
697.505	0.0142978
697.583	0.0141509
697.662	0.0141960
697.740	0.0141848
697.818	0.0140173
697.896	0.0140782
697.974	0.0139170
698.052	0.0137015
698.130	0.0135831
698.208	0.0134356
698.287	0.0134085
698.365	0.0133192
698.443	0.0133559
698.521	0.0133720
698.599	0.0134903
698.677	0.0137901
698.755	0.0137666
698.833	0.0140075
698.912	0.0141920
698.990	0.0143082
699.068	0.0144535
699.146	0.0143670
699.224	0.0144131
699.302	0.0142398
699.380	0.0142873
699.458	0.0140373
699.537	0.0138121
699.615	0.0136777
699.693	0.0136681
699.771	0.0133681
699.849	0.0133706
699.927	0.0133811
700.005	0.0134391
700.083	0.0132601
700.162	0.0132771
700.240	0.0135429
700.318	0.0134857
700.396	0.0135405
700.474	0.0136072
700.552	0.0136144
700.630	0.0137713
700.708	0.0138174
700.787	0.0138599
700.865	0.0137794
700.943	0.0139072
701.021	0.0140210
701.099	0.0139565
701.177	0.0141446
701.255	0.0141042
701.333	0.0141504
701.412	0.0143034
701.490	0.0143553
701.568	0.0144954
701.646	0.0145579
701.724	0.0145796
701.802	0.0145413
701.880	0.0143549
701.958	0.0145010
702.037	0.0142486
702.115	0.0142439
702.193	0.0141891
702.271	0.0140030
702.349	0.0138777
702.427	0.0137440
702.505	0.0135908
702.583	0.0135516
702.662	0.0135398
702.740	0.0134386
702.818	0.0133783
702.896	0.0134737
702.974	0.0134134
703.052	0.0133748
703.130	0.0135628
703.208	0.0135416
703.287	0.0135023
703.365	0.0135866
703.443	0.0134331
703.521	0.0135081
703.599	0.0135230
703.677	0.0136697
703.755	0.0135931
703.833	0.0135777
703.912	0.0138038
703.990	0.0136665
704.068	0.0136773
704.146	0.0140134
704.224	0.0139715
704.302	0.0141708
704.380	0.0141914
704.458	0.0140341
704.537	0.0141478
704.615	0.0142953
704.693	0.0140977
704.771	0.0141652
704.849	0.0141092
704.927	0.0139419
705.005	0.0138078
705.083	0.0138986
705.162	0.0138921
705.240	0.0138432
705.318	0.0137798
705.396	0.0136575
705.474	0.0136964
705.552	0.0137514
705.630	0.0138221
705.708	0.0137594
705.787	0.0138020
705.865	0.0138819
705.943	0.0138937
706.021	0.0139975
706.099	0.0138744
706.177	0.0138286
706.255	0.0138267
706.333	0.0136996
706.412	0.0137076
706.490	0.0136950
706.568	0.0137129
706.646	0.0137575
706.724	0.0136675
706.802	0.0136407
706.880	0.0137369
706.958	0.0135809
707.037	0.0137270
707.115	0.0138070
707.193	0.0135073
707.271	0.0135920
707.349	0.0137405
707.427	0.0136201
707.505	0.0135968
707.583	0.0136641
707.662	0.0137096
707.740	0.0136051
707.818	0.0137556
707.896	0.0137580
707.974	0.0138229
708.052	0.0138080
708.130	0.0138482
708.208	0.0138689
708.287	0.0139854
708.365	0.0138556
708.443	0.0139317
708.521	0.0140821
708.599	0.0139368
708.677	0.0140733
708.755	0.0140673
708.833	0.0140321
708.912	0.0140479
708.990	0.0139932
709.068	0.0140357
709.146	0.0140482
709.224	0.0139812
709.302	0.0140826
709.380	0.0139774
709.458	0.0139206
709.537	0.0138227
709.615	0.0136585
709.693	0.0138233
709.771	0.0136252
709.849	0.0138622
709.927	0.0135971
710.005	0.0135667
710.083	0.0136287
710.162	0.0135356
710.240	0.0137172
710.318	0.0136475
710.396	0.0135600
710.474	0.0138284
710.552	0.0138084
710.630	0.0137450
710.708	0.0138453
710.787	0.0139230
710.865	0.0138027
710.943	0.0138089
711.021	0.0138880
711.099	0.0138588
711.177	0.0139013
711.255	0.0138969
711.333	0.0138439
711.412	0.0136933
711.490	0.0138055
711.568	0.0140375
711.646	0.0137852
711.724	0.0137197
711.802	0.0139532
711.880	0.0138015
711.958	0.0139126
712.037	0.0138089
712.115	0.0138810
712.193	0.0139368
712.271	0.0140694
712.349	0.0139809
712.427	0.0139230
712.505	0.0140071
712.583	0.0139555
712.662	0.0139346
712.740	0.0139278
712.818	0.0140539
712.896	0.0140849
712.974	0.0139325
713.052	0.0140579
713.130	0.0141225
713.208	0.0140084
713.287	0.0139673
713.365	0.0140712
713.443	0.0141026
713.521	0.0139065
713.599	0.0138141
713.677	0.0136586
713.755	0.0138976
713.833	0.0137382
713.912	0.0136240
713.990	0.0135283
714.068	0.0135538
714.146	0.0133828
714.224	0.0133175
714.302	0.0132471
714.380	0.0132851
714.458	0.0133601
714.537	0.0134461
714.615	0.0134606
714.693	0.0134986
714.771	0.0135659
714.849	0.0136329
714.927	0.0138066
715.005	0.0139872
715.083	0.0142165
715.162	0.0142818
715.240	0.0142882
715.318	0.0145158
715.396	0.0145374
715.474	0.0144218
715.552	0.0144335
715.630	0.0143887
715.708	0.0141658
715.787	0.0141390
715.865	0.0141162
715.943	0.0139413
716.021	0.0140128
716.099	0.0137750
716.177	0.0135679
716.255	0.0135058
716.333	0.0135403
716.412	0.0133876
716.490	0.0134078
716.568	0.0134032
716.646	0.0131801
716.724	0.0134219
716.802	0.0133752
716.880	0.0134102
716.958	0.0136607
717.037	0.0135398
717.115	0.0135496
717.193	0.0137685
717.271	0.0137996
717.349	0.0138761
717.427	0.0139913
717.505	0.0138899
717.583	0.0140937
717.662	0.0139504
717.740	0.0141107
717.818	0.0143442
717.896	0.0140527
717.974	0.0141006
718.052	0.0143166
718.130	0.0143416
718.208	0.0142741
718.287	0.0140706
718.365	0.0140288
718.443	0.0140945
718.521	0.0139909
718.599	0.0140032
718.677	0.0139558
718.755	0.0137795
718.833	0.0137383
718.912	0.0136988
718.990	0.0136679
719.068	0.0135569
719.146	0.0134319
719.224	0.0135551
719.302	0.0134826
719.380	0.0135421
719.458	0.0135458
719.537	0.0136339
719.615	0.0136848
719.693	0.0137395
719.771	0.0137119
719.849	0.0138493
719.927	0.0138676
720.005	0.0138341
720.083	0.0139623
720.162	0.0139429
720.240	0.0141097
720.318	0.0140752
720.396	0.0140758
720.474	0.0141480
720.552	0.0140901
720.630	0.0141375
720.708	0.0140907
720.787	0.0139977
720.865	0.0139889
720.943	0.0141409
721.021	0.0141919
721.099	0.0138193
721.177	0.0136908
721.255	0.0138181
721.333	0.0138522
721.412	0.0137139
721.490	0.0136600
721.568	0.0135281
721.646	0.0135231
721.724	0.0133399
721.802	0.0133769
721.880	0.0136616
721.958	0.0137422
722.037	0.0135959
722.115	0.0135303
722.193	0.0136829
722.271	0.0137270
722.349	0.0139207
722.427	0.0139754
722.505	0.0139261
722.583	0.0140198
722.662	0.0142066
722.740	0.0142033
722.818	0.0141062
722.896	0.0143668
722.974	0.0143991
723.052	0.0142676
723.130	0.0141161
723.208	0.0142017
723.287	0.0141730
723.365	0.0139771
723.443	0.0140260
723.521	0.0139814
723.599	0.0138789
723.677	0.0139493
723.755	0.0138762
723.833	0.0137584
723.912	0.0136881
723.990	0.0134295
724.068	0.0135569
724.146	0.0135744
724.224	0.0135129
724.302	0.0135983
724.380	0.0135654
724.458	0.0135973
724.537	0.0135432
724.615	0.0135074
724.693	0.0135506
724.771	0.0136832
724.849	0.0137397
724.927	0.0137437
725.005	0.0138844
725.083	0.0140885
725.162	0.0141299
725.240	0.0140925
725.318	0.0142821
725.396	0.0141723
725.474	0.0142379
725.552	0.0142838
725.630	0.0144167
725.708	0.0143963
725.787	0.0143343
725.865	0.0143508
725.943	0.0142099
726.021	0.0142612
726.099	0.0141669
726.177	0.0139756
726.255	0.0139793
726.333	0.0139174
726.412	0.0139255
726.490	0.0137640
726.568	0.0135979
726.646	0.0136696
726.724	0.0137300
726.802	0.0136070
726.880	0.0136266
726.958	0.0136035
727.037	0.0137592
727.115	0.0137952
727.193	0.0137424
727.271	0.0138280
727.349	0.0138020
727.427	0.0138983
727.505	0.0140572
727.583	0.0139789
727.662	0.0140417
727.740	0.0141189
727.818	0.0139838
727.896	0.0140075
727.974	0.0139741
728.052	0.0139068
728.130	0.0138904
728.208	0.0139409
728.287	0.0140817
728.365	0.0140660
728.443	0.0139393
728.521	0.0140096
728.599	0.0140192
728.677	0.0140644
728.755	0.0139279
728.833	0.0139539
728.912	0.0137589
728.990	0.0137805
729.068	0.0139700
729.146	0.0137572
729.224	0.0136662
729.302	0.0138719
729.380	0.0137392
729.458	0.0136662
729.537	0.0136804
729.615	0.0137164
729.693	0.0136987
729.771	0.0137601
729.849	0.0138513
729.927	0.0139551
730.005	0.0140385
730.083	0.0139912
730.162	0.0138467
730.240	0.0139526
730.318	0.0139540
730.396	0.0138373
730.474	0.0139722
730.552	0.0139410
730.630	0.0140003
730.708	0.0138444
730.787	0.0136819
730.865	0.0139016
730.943	0.0138191
731.021	0.0138470
731.099	0.0138554
731.177	0.0137103
731.255	0.0137223
731.333	0.0137671
731.412	0.0137188
731.490	0.0136829
731.568	0.0136390
731.646	0.0136462
731.724	0.0136067
731.802	0.0138017
731.880	0.0136163
731.958	0.0135667
732.037	0.0137154
732.115	0.0136997
732.193	0.0136897
732.271	0.0136704
732.349	0.0137629
732.427	0.0135916
732.505	0.0136656
732.583	0.0136607
732.662	0.0138452
732.740	0.0138812
732.818	0.0138433
732.896	0.0139671
732.974	0.0139130
733.052	0.0140372
733.130	0.0140759
733.208	0.0140254
733.287	0.0139343
733.365	0.0139671
733.443	0.0140725
733.521	0.0140618
733.599	0.0139904
733.677	0.0139764
733.755	0.0140176
733.833	0.0140507
733.912	0.0140064
733.990	0.0138662
734.068	0.0138751
734.146	0.0138229
734.224	0.0136658
734.302	0.0137075
734.380	0.0136900
734.458	0.0137635
734.537	0.0135565
734.615	0.0137776
734.693	0.0135261
734.771	0.0136357
734.849	0.0135194
734.927	0.0135886
735.005	0.0138188
735.083	0.0138846
735.162	0.0140064
735.240	0.0137291
735.318	0.0137849
735.396	0.0138952
735.474	0.0139411
735.552	0.0139816
735.630	0.0139206
735.708	0.0140254
735.787	0.0140228
735.865	0.0140376
735.943	0.0139692
736.021	0.0140414
736.099	0.0140013
736.177	0.0141147
736.255	0.0138875
736.333	0.0141400
736.412	0.0140603
736.490	0.0138851
736.568	0.0139626
736.646	0.0139630
736.724	0.0137629
736.802	0.0138928
736.880	0.0140516
736.958	0.0139194
737.037	0.0137322
737.115	0.0138564
737.193	0.0139124
737.271	0.0138724
737.349	0.0139384
737.427	0.0139816
737.505	0.0139526
737.583	0.0138136
737.662	0.0139093
737.740	0.0140552
737.818	0.0141528
737.896	0.0140291
737.974	0.0140932
738.052	0.0140780
738.130	0.0141621
738.208	0.0140845
738.287	0.0140805
738.365	0.0140395
738.443	0.0140066
738.521	0.0141245
738.599	0.0139767
738.677	0.0139638
738.755	0.0139317
738.833	0.0138368
738.912	0.0140094
738.990	0.0139397
739.068	0.0138847
739.146	0.0139120
739.224	0.0140171
739.302	0.0139495
739.380	0.0139358
739.458	0.0140208
739.537	0.0139312
739.615	0.0138223
739.693	0.0137324
739.771	0.0137843
739.849	0.0138609
739.927	0.0138809
740.005	0.0138266
740.083	0.0140112
740.162	0.0139745
740.240	0.0139793
740.318	0.0141253
740.396	0.0140803
740.474	0.0139796
740.552	0.0141006
740.630	0.0141168
740.708	0.0141215
740.787	0.0141599
740.865	0.0141238
740.943	0.0142089
741.021	0.0139750
741.099	0.0140778
741.177	0.0142058
741.255	0.0141674
741.333	0.0140193
741.412	0.0139375
741.490	0.0140058
741.568	0.0139351
741.646	0.0139885
741.724	0.0137244
741.802	0.0137957
741.880	0.0138470
741.958	0.0138766
742.037	0.0137010
742.115	0.0136731
742.193	0.0137244
742.271	0.0138792
742.349	0.0138459
742.427	0.0138152
742.505	0.0136684
742.583	0.0139451
742.662	0.0137925
742.740	0.0137708
742.818	0.0139237
742.896	0.0139445
742.974	0.0139177
743.052	0.0138854
743.130	0.0138956
743.208	0.0140826
743.287	0.0140114
743.365	0.0140582
743.443	0.0139124
743.521	0.0138970
743.599	0.0140217
743.677	0.0139704
743.755	0.0140498
743.833	0.0139127
743.912	0.0138294
743.990	0.0138869
744.068	0.0139713
744.146	0.0139305
744.224	0.0137853
744.302	0.0137900
744.380	0.0137546
744.458	0.0138821
744.537	0.0136369
744.615	0.0137325
744.693	0.0137817
744.771	0.0137045
744.849	0.0137044
744.927	0.0139307
745.005	0.0136895
745.083	0.0138862
745.162	0.0137951
745.240	0.0137864
745.318	0.0138416
745.396	0.0138792
745.474	0.0138067
745.552	0.0138453
745.630	0.0139024
745.708	0.0139119
745.787	0.0139122
745.865	0.0140556
745.943	0.0140488
746.021	0.0140007
746.099	0.0139014
746.177	0.0138682
746.255	0.0139017
746.333	0.0138146
746.412	0.0139845
746.490	0.0139469
746.568	0.0138635
746.646	0.0138376
746.724	0.0137901
746.802	0.0139883
746.880	0.0138265
746.958	0.0137528
747.037	0.0137898
747.115	0.0137035
747.193	0.0139215
747.271	0.0138731
747.349	0.0138819
747.427	0.0137658
747.505	0.0138763
747.583	0.0138604
747.662	0.0140052
747.740	0.0139066
747.818	0.0138089
747.896	0.0139075
747.974	0.0139853
748.052	0.0139588
748.130	0.0139267
748.208	0.0138816
748.287	0.0140987
748.365	0.0141927
748.443	0.0139172
748.521	0.0139802
748.599	0.0140068
748.677	0.0139278
748.755	0.0139381
748.833	0.0140663
748.912	0.0140017
748.990	0.0138924
749.068	0.0138668
749.146	0.0137448
749.224	0.0138341
749.302	0.0138305
749.380	0.0136971
749.458	0.0138477
749.537	0.0137719
749.615	0.0138222
749.693	0.0137696
749.771	0.0137799
749.849	0.0138802
749.927	0.0138536
750.005	0.0139826
750.083	0.0138996
750.162	0.0139069
750.240	0.0140516
750.318	0.0139521
750.396	0.0139509
750.474	0.0139791
750.552	0.0139439
750.630	0.0140823
750.708	0.0140714
750.787	0.0140554
750.865	0.0139561
750.943	0.0140254
751.021	0.0139846
751.099	0.0139960
751.177	0.0139597
751.255	0.0139503
751.333	0.0140936
751.412	0.0140340
751.490	0.0139798
751.568	0.0139614
751.646	0.0139022
751.724	0.0140404
751.802	0.0139828
751.880	0.0138622
751.958	0.0138248
752.037	0.0139236
752.115	0.0139130
752.193	0.0139269
752.271	0.0138342
752.349	0.0138947
752.427	0.0140338
752.505	0.0138782
752.583	0.0139896
752.662	0.0140110
752.740	0.0138929
752.818	0.0139124
752.896	0.0139507
752.974	0.0139190
753.052	0.0139671
753.130	0.0139733
753.208	0.0139500
753.287	0.0140852
753.365	0.0139747
753.443	0.0139520
753.521	0.0139223
753.599	0.0138342
753.677	0.0139839
753.755	0.0140977
753.833	0.0140924
753.912	0.0140259
753.990	0.0138696
754.068	0.0138998
754.146	0.0139876
754.224	0.0138103
754.302	0.0139519
754.380	0.0138788
754.458	0.0139439
754.537	0.0140072
754.615	0.0139568
754.693	0.0139035
754.771	0.0139091
754.849	0.0139309
754.927	0.0139581
755.005	0.0139227
755.083	0.0139577
755.162	0.0140628
755.240	0.0139402
755.318	0.0139381
755.396	0.0140268
755.474	0.0139640
755.552	0.0139075
755.630	0.0140070
755.708	0.0140305
755.787	0.0139452
755.865	0.0140250
755.943	0.0140968
756.021	0.0140589
756.099	0.0139426
756.177	0.0140636
756.255	0.0140368
756.333	0.0140455
756.412	0.0140236
756.490	0.0140008
756.568	0.0140259
756.646	0.0140100
756.724	0.0139433
756.802	0.0139438
756.880	0.0140205
756.958	0.0139830
757.037	0.0139252
757.115	0.0138871
757.193	0.0139471
757.271	0.0137872
757.349	0.0138885
757.427	0.0138374
757.505	0.0138383
757.583	0.0139282
757.662	0.0138638
757.740	0.0138641
757.818	0.0138843
757.896	0.0138945
757.974	0.0138932
758.052	0.0140094
758.130	0.0138556
758.208	0.0140128
758.287	0.0141103
758.365	0.0141151
758.443	0.0140694
758.521	0.0141017
758.599	0.0140543
758.677	0.0139994
758.755	0.0141470
758.833	0.0140034
758.912	0.0141424
758.990	0.0139632
759.068	0.0140150
759.146	0.0140926
759.224	0.0139630
759.302	0.0139208
759.380	0.0140073
759.458	0.0141245
759.537	0.0140435
759.615	0.0139846
759.693	0.0140447
759.771	0.0139190
759.849	0.0140145
759.927	0.0138654
760.005	0.0138564
760.083	0.0138961
760.162	0.0139648
760.240	0.0138845
760.318	0.0139809
760.396	0.0139812
760.474	0.0138092
760.552	0.0139268
760.630	0.0139825
760.708	0.0139755
760.787	0.0138409
760.865	0.0138507
760.943	0.0139523
761.021	0.0139261
761.099	0.0138654
761.177	0.0139035
761.255	0.0139088
761.333	0.0140284
761.412	0.0138129
761.490	0.0139217
761.568	0.0140498
761.646	0.0139697
761.724	0.0139922
761.802	0.0140382
761.880	0.0139219
761.958	0.0138828
762.037	0.0139429
762.115	0.0139621
762.193	0.0139179
762.271	0.0139746
762.349	0.0139713
762.427	0.0140297
762.505	0.0139812
762.583	0.0138332
762.662	0.0140098
762.740	0.0139379
762.818	0.0140366
762.896	0.0139944
762.974	0.0140144
763.052	0.0139428
763.130	0.0141016
763.208	0.0140771
763.287	0.0140221
763.365	0.0140105
763.443	0.0140741
763.521	0.0140516
763.599	0.0140301
763.677	0.0140186
763.755	0.0140527
763.833	0.0140346
763.912	0.0139711
763.990	0.0141140
764.068	0.0141364
764.146	0.0139867
764.224	0.0140501
764.302	0.0140683
764.380	0.0140873
764.458	0.0139587
764.537	0.0140319
764.615	0.0139226
764.693	0.0138865
764.771	0.0139282
764.849	0.0140245
764.927	0.0139482
765.005	0.0139317
765.083	0.0138875
765.162	0.0137962
765.240	0.0138384
765.318	0.0139084
765.396	0.0140201
765.474	0.0140369
765.552	0.0138931
765.630	0.0138684
765.708	0.0140006
765.787	0.0139754
765.865	0.0138374
765.943	0.0139413
766.021	0.0140819
766.099	0.0139856
766.177	0.0139764
766.255	0.0140008
766.333	0.0140094
766.412	0.0140211
766.490	0.0139802
766.568	0.0140791
766.646	0.0138097
766.724	0.0139103
766.802	0.0139762
766.880	0.0139318
766.958	0.0138756
767.037	0.0137571
767.115	0.0138437
767.193	0.0138457
767.271	0.0138543
767.349	0.0139184
767.427	0.0137325
767.505	0.0137615
767.583	0.0137614
767.662	0.0137851
767.740	0.0138189
767.818	0.0137011
767.896	0.0138860
767.974	0.0138062
768.052	0.0139108
768.130	0.0139602
768.208	0.0139227
768.287	0.0138166
768.365	0.0138829
768.443	0.0137664
768.521	0.0138047
768.599	0.0138936
768.677	0.0138486
768.755	0.0139661
768.833	0.0139849
768.912	0.0138220
768.990	0.0139114
769.068	0.0139693
769.146	0.0139592
769.224	0.0139146
769.302	0.0139103
769.380	0.0138474
769.458	0.0137875
769.537	0.0137627
769.615	0.0138766
769.693	0.0138576
769.771	0.0138235
769.849	0.0137959
769.927	0.0139059
770.005	0.0137677
770.083	0.0137820
770.162	0.0136930
770.240	0.0138351
770.318	0.0138084
770.396	0.0138554
770.474	0.0139444
770.552	0.0139219
770.630	0.0138565
770.708	0.0138255
770.787	0.0138567
770.865	0.0137785
770.943	0.0139931
771.021	0.0139572
771.099	0.0139426
771.177	0.0139385
771.255	0.0138589
771.333	0.0138239
771.412	0.0138119
771.490	0.0138306
771.568	0.0137870
771.646	0.0137261
771.724	0.0137979
771.802	0.0138755
771.880	0.0138938
771.958	0.0137775
772.037	0.0138435
772.115	0.0138373
772.193	0.0139297
772.271	0.0138797
772.349	0.0138268
772.427	0.0138470
772.505	0.0139255
772.583	0.0139158
772.662	0.0139805
772.740	0.0138586
772.818	0.0137298
772.896	0.0139819
772.974	0.0139141
773.052	0.0139612
773.130	0.0139435
773.208	0.0138228
773.287	0.0139264
773.365	0.0138001
773.443	0.0137050
773.521	0.0137820
773.599	0.0139621
773.677	0.0137917
773.755	0.0138227
773.833	0.0138984
773.912	0.0138293
773.990	0.0140162
774.068	0.0139023
774.146	0.0138377
774.224	0.0137920
774.302	0.0138667
774.380	0.0138048
774.458	0.0137930
774.537	0.0137376
774.615	0.0136979
774.693	0.0138743
774.771	0.0138083
774.849	0.0138193
774.927	0.0137676
775.005	0.0137409
775.083	0.0139263
775.162	0.0138385
775.240	0.0138411
775.318	0.0138830
775.396	0.0139128
775.474	0.0139003
775.552	0.0138283
775.630	0.0138196
775.708	0.0138962
775.787	0.0139629
775.865	0.0139160
775.943	0.0138112
776.021	0.0139298
776.099	0.0137881
776.177	0.0139660
776.255	0.0137619
776.333	0.0138473
776.412	0.0139346
776.490	0.0138272
776.568	0.0139200
776.646	0.0139348
776.724	0.0139482
776.802	0.0139981
776.880	0.0141685
776.958	0.0139212
777.037	0.0138885
777.115	0.0140643
777.193	0.0139468
777.271	0.0138937
777.349	0.0137923
777.427	0.0138435
777.505	0.0137923
777.583	0.0137415
777.662	0.0138428
777.740	0.0139216
777.818	0.0138158
777.896	0.0139120
777.974	0.0139076
778.052	0.0138812
778.130	0.0138942
778.208	0.0139314
778.287	0.0139648
778.365	0.0138173
778.443	0.0140712
778.521	0.0139213
778.599	0.0139311
778.677	0.0139956
778.755	0.0137550
778.833	0.0138972
778.912	0.0137720
778.990	0.0138426
779.068	0.0139742
779.146	0.0137742
779.224	0.0138504
779.302	0.0138966
779.380	0.0138396
779.458	0.0138364
779.537	0.0138125
779.615	0.0138662
779.693	0.0138921
779.771	0.0138055
779.849	0.0137364
779.927	0.0137266
780.005	0.0138700
780.083	0.0138393
780.162	0.0138728
780.240	0.0139093
780.318	0.0138759
780.396	0.0139853
780.474	0.0138737
780.552	0.0139204
780.630	0.0139178
780.708	0.0139870
780.787	0.0139413
780.865	0.0139185
780.943	0.0139292
781.021	0.0139847
781.099	0.0139926
781.177	0.0140254
781.255	0.0139766
781.333	0.0138840
781.412	0.0138183
781.490	0.0139132
781.568	0.0138577
781.646	0.0139612
781.724	0.0140125
781.802	0.0139728
781.880	0.0139833
781.958	0.0138759
782.037	0.0139126
782.115	0.0138846
782.193	0.0139709
782.271	0.0139090
782.349	0.0138074
782.427	0.0138895
782.505	0.0139273
782.583	0.0139627
782.662	0.0140121
782.740	0.0140916
782.818	0.0140630
782.896	0.0140015
782.974	0.0140381
783.052	0.0141568
783.130	0.0140609
783.208	0.0140430
783.287	0.0141635
783.365	0.0139879
783.443	0.0139960
783.521	0.0140840
783.599	0.0140800
783.677	0.0141245
783.755	0.0140686
783.833	0.0139916
783.912	0.0139680
783.990	0.0139477
784.068	0.0138845
784.146	0.0138741
784.224	0.0139358
784.302	0.0139315
784.380	0.0139578
784.458	0.0139881
784.537	0.0140157
784.615	0.0138931
784.693	0.0138369
784.771	0.0139620
784.849	0.0138914
784.927	0.0139269
785.005	0.0139883
785.083	0.0140475
785.162	0.0139828
785.240	0.0140266
785.318	0.0141091
785.396	0.0140018
785.474	0.0140122
785.552	0.0141354
785.630	0.0140094
785.708	0.0139974
785.787	0.0140761
785.865	0.0139981
785.943	0.0139490
786.021	0.0140334
786.099	0.0139203
786.177	0.0140529
786.255	0.0139820
786.333	0.0140077
786.412	0.0137263
786.490	0.0139930
786.568	0.0138654
786.646	0.0139883
786.724	0.0139617
786.802	0.0139931
786.880	0.0139690
786.958	0.0138896
787.037	0.0139104
787.115	0.0140120
787.193	0.0140301
787.271	0.0138665
787.349	0.0138995
787.427	0.0138651
787.505	0.0138917
787.583	0.0139707
787.662	0.0139490
787.740	0.0138014
787.818	0.0137599
787.896	0.0138835
787.974	0.0139171
788.052	0.0139668
788.130	0.0139559
788.208	0.0139687
788.287	0.0138626
788.365	0.0138136
788.443	0.0139026
788.521	0.0138766
788.599	0.0138482
788.677	0.0138333
788.755	0.0138592
788.833	0.0138853
788.912	0.0139577
788.990	0.0138657
789.068	0.0138601
789.146	0.0137701
789.224	0.0137695
789.302	0.0138248
789.380	0.0138799
789.458	0.0139091
789.537	0.0138676
789.615	0.0139474
789.693	0.0139227
789.771	0.0138332
789.849	0.0139684
789.927	0.0138309
790.005	0.0138610
790.083	0.0138267
790.162	0.0139548
790.240	0.0138463
790.318	0.0139067
790.396	0.0140177
790.474	0.0138327
790.552	0.0138559
790.630	0.0138914
790.708	0.0138979
790.787	0.0138866
790.865	0.0138765
790.943	0.0140339
791.021	0.0138749
791.099	0.0137912
791.177	0.0137870
791.255	0.0138287
791.333	0.0139322
791.412	0.0138161
791.490	0.0138874
791.568	0.0139182
791.646	0.0139411
791.724	0.0139534
791.802	0.0137987
791.880	0.0138792
791.958	0.0139032
792.037	0.0138918
792.115	0.0137280
792.193	0.0139373
792.271	0.0139416
792.349	0.0138656
792.427	0.0139440
792.505	0.0140287
792.583	0.0140180
792.662	0.0140018
792.740	0.0140065
792.818	0.0140650
792.896	0.0138972
792.974	0.0140081
793.052	0.0140078
793.130	0.0139204
793.208	0.0138509
793.287	0.0139360
793.365	0.0139445
793.443	0.0138028
793.521	0.0138367
793.599	0.0138913
793.677	0.0138934
793.755	0.0137331
793.833	0.0137943
793.912	0.0138486
793.990	0.0138000
794.068	0.0136988
794.146	0.0137022
794.224	0.0138636
794.302	0.0138305
794.380	0.0135957
794.458	0.0136864
794.537	0.0137318
794.615	0.0137286
794.693	0.0137141
794.771	0.0137289
794.849	0.0137093
794.927	0.0137842
795.005	0.0136497
795.083	0.0139897
795.162	0.0140491
795.240	0.0137915
795.318	0.0137734
795.396	0.0138927
795.474	0.0137434
795.552	0.0138636
795.630	0.0138766
795.708	0.0138895
795.787	0.0138318
795.865	0.0138593
795.943	0.0138583
796.021	0.0137130
796.099	0.0138216
796.177	0.0138509
796.255	0.0138868
796.333	0.0139305
796.412	0.0137186
796.490	0.0138449
796.568	0.0137582
796.646	0.0139760
796.724	0.0138277
796.802	0.0137787
796.880	0.0138351
796.958	0.0137811
797.037	0.0139022
797.115	0.0138999
797.193	0.0138853
797.271	0.0139152
797.349	0.0138087
797.427	0.0138422
797.505	0.0139506
797.583	0.0138316
797.662	0.0138060
797.740	0.0137968
797.818	0.0139333
797.896	0.0138454
797.974	0.0138692
798.052	0.0138513
798.130	0.0138985
798.208	0.0139245
798.287	0.0138628
798.365	0.0138982
798.443	0.0139784
798.521	0.0138529
798.599	0.0138219
798.677	0.0139384
798.755	0.0138699
798.833	0.0137997
798.912	0.0137775
798.990	0.0138336
799.068	0.0137299
799.146	0.0137941
799.224	0.0138431
799.302	0.0137289
799.380	0.0137744
799.458	0.0138529
799.537	0.0136984
799.615	0.0136675
799.693	0.0137399
799.771	0.0137627
799.849	0.0138558
799.927	0.0138120
800.005	0.0137743
800.083	0.0137300
800.162	0.0137685
800.240	0.0139104
800.318	0.0138850
800.396	0.0140057
800.474	0.0138707
800.552	0.0137704
800.630	0.0138494
800.708	0.0137960
800.787	0.0139204
800.865	0.0138540
800.943	0.0136897
801.021	0.0137694
801.099	0.0138841
801.177	0.0138263
801.255	0.0137598
801.333	0.0138648
801.412	0.0139068
801.490	0.0138332
801.568	0.0137656
801.646	0.0138926
801.724	0.0139023
801.802	0.0138519
801.880	0.0137119
801.958	0.0138345
802.037	0.0138056
802.115	0.0137431
802.193	0.0138046
802.271	0.0138123
802.349	0.0137731
802.427	0.0137275
802.505	0.0136300
802.583	0.0138257
802.662	0.0139494
802.740	0.0138284
802.818	0.0138893
802.896	0.0137902
802.974	0.0138166
803.052	0.0137125
803.130	0.0138065
803.208	0.0137547
803.287	0.0137624
803.365	0.0136760
803.443	0.0138035
803.521	0.0137643
803.599	0.0136653
803.677	0.0137125
803.755	0.0139181
803.833	0.0139510
803.912	0.0138185
803.990	0.0139511
804.068	0.0139002
804.146	0.0138676
804.224	0.0139387
804.302	0.0138511
804.380	0.0137868
804.458	0.0139919
804.537	0.0140326
804.615	0.0139725
804.693	0.0139739
804.771	0.0139358
804.849	0.0137275
804.927	0.0139858
805.005	0.0140334
805.083	0.0139157
805.162	0.0138366
805.240	0.0139472
805.318	0.0139031
805.396	0.0140545
805.474	0.0140098
805.552	0.0139255
805.630	0.0138648
805.708	0.0138394
805.787	0.0139800
805.865	0.0137982
805.943	0.0139086
806.021	0.0138786
806.099	0.0138209
806.177	0.0138412
806.255	0.0138288
806.333	0.0138692
806.412	0.0138738
806.490	0.0137910
806.568	0.0138181
806.646	0.0138775
806.724	0.0139330
806.802	0.0138472
806.880	0.0138733
806.958	0.0138531
807.037	0.0138898
807.115	0.0137965
807.193	0.0138319
807.271	0.0139651
807.349	0.0140387
807.427	0.0138690
807.505	0.0138432
807.583	0.0139268
807.662	0.0138911
807.740	0.0139059
807.818	0.0137771
807.896	0.0137589
807.974	0.0137909
808.052	0.0137688
808.130	0.0137497
808.208	0.0138028
808.287	0.0139024
808.365	0.0138248
808.443	0.0140085
808.521	0.0139116
808.599	0.0138451
808.677	0.0139051
808.755	0.0139609
808.833	0.0138242
808.912	0.0137148
808.990	0.0140246
809.068	0.0141058
809.146	0.0139201
809.224	0.0138400
809.302	0.0139725
809.380	0.0138828
809.458	0.0139639
809.537	0.0138577
809.615	0.0140069
809.693	0.0139552
809.771	0.0137749
809.849	0.0139266
809.927	0.0138505
810.005	0.0138470
810.083	0.0138431
810.162	0.0138732
810.240	0.0140480
810.318	0.0139033
810.396	0.0138657
810.474	0.0139053
810.552	0.0138766
810.630	0.0138795
810.708	0.0139119
810.787	0.0139478
810.865	0.0140149
810.943	0.0140059
811.021	0.0140056
811.099	0.0139952
811.177	0.0140862
811.255	0.0139465
811.333	0.0139394
811.412	0.0139574
811.490	0.0139941
811.568	0.0142339
811.646	0.0141509
811.724	0.0141001
811.802	0.0140903
811.880	0.0141371
811.958	0.0138892
812.037	0.0139117
812.115	0.0139523
812.193	0.0140583
812.271	0.0140737
812.349	0.0139430
812.427	0.0139472
812.505	0.0139893
812.583	0.0139694
812.662	0.0139856
812.740	0.0139917
812.818	0.0140139
812.896	0.0139212
812.974	0.0138959
813.052	0.0137682
813.130	0.0139176
813.208	0.0139738
813.287	0.0138532
813.365	0.0139295
813.443	0.0138715
813.521	0.0138410
813.599	0.0140211
813.677	0.0140196
813.755	0.0139972
813.833	0.0140981
813.912	0.0139152
813.990	0.0139484
814.068	0.0139525
814.146	0.0139668
814.224	0.0139205
814.302	0.0139526
814.380	0.0138454
814.458	0.0138842
814.537	0.0138847
814.615	0.0138712
814.693	0.0138280
814.771	0.0137915
814.849	0.0139159
814.927	0.0139423
815.005	0.0138625
815.083	0.0138899
815.162	0.0138951
815.240	0.0137952
815.318	0.0137310
815.396	0.0137864
815.474	0.0137433
815.552	0.0137364
815.630	0.0137896
815.708	0.0137453
815.787	0.0137563
815.865	0.0138577
815.943	0.0138345
816.021	0.0138980
816.099	0.0139777
816.177	0.0137893
816.255	0.0138570
816.333	0.0139369
816.412	0.0139406
816.490	0.0139225
816.568	0.0138779
816.646	0.0138755
816.724	0.0139207
816.802	0.0139197
816.880	0.0139786
816.958	0.0137897
817.037	0.0138883
817.115	0.0139713
817.193	0.0139155
817.271	0.0139447
817.349	0.0140611
817.427	0.0139067
817.505	0.0138586
817.583	0.0138434
817.662	0.0137550
817.740	0.0140188
817.818	0.0139217
817.896	0.0137885
817.974	0.0138844
818.052	0.0138775
818.130	0.0138068
818.208	0.0138139
818.287	0.0138006
818.365	0.0138315
818.443	0.0138008
818.521	0.0138530
818.599	0.0140221
818.677	0.0139117
818.755	0.0138525
818.833	0.0137960
818.912	0.0137943
818.990	0.0140354
819.068	0.0139758
819.146	0.0138742
819.224	0.0137914
819.302	0.0138632
819.380	0.0139854
819.458	0.0138793
819.537	0.0139924
819.615	0.0140236
819.693	0.0138699
819.771	0.0137425
819.849	0.0140130
819.927	0.0139178
820.005	0.0138371
820.083	0.0139143
820.162	0.0139377
820.240	0.0138291
820.318	0.0138810
820.396	0.0139058
820.474	0.0137489
820.552	0.0139426
820.630	0.0138139
820.708	0.0137512
820.787	0.0138715
820.865	0.0138446
820.943	0.0137357
821.021	0.0138627
821.099	0.0138274
821.177	0.0137669
821.255	0.0138520
821.333	0.0138847
821.412	0.0136992
821.490	0.0137491
821.568	0.0137926
821.646	0.0138470
821.724	0.0137955
821.802	0.0138250
821.880	0.0136667
821.958	0.0135772
822.037	0.0137508
822.115	0.0136623
822.193	0.0138423
822.271	0.0136765
822.349	0.0137797
822.427	0.0138581
822.505	0.0138476
822.583	0.0138602
822.662	0.0137725
822.740	0.0138817
822.818	0.0139684
822.896	0.0138416
822.974	0.0136667
823.052	0.0137783
823.130	0.0138400
823.208	0.0137486
823.287	0.0137840
823.365	0.0137960
823.443	0.0137379
823.521	0.0139279
823.599	0.0137756
823.677	0.0137162
823.755	0.0136802
823.833	0.0138493
823.912	0.0137738
823.990	0.0137087
824.068	0.0137406
824.146	0.0139352
824.224	0.0139585
824.302	0.0139427
824.380	0.0138933
824.458	0.0139468
824.537	0.0139947
824.615	0.0139362
824.693	0.0138702
824.771	0.0139423
824.849	0.0139838
824.927	0.0138380
825.005	0.0138519
825.083	0.0138416
825.162	0.0139497
825.240	0.0139543
825.318	0.0139444
825.396	0.0138453
825.474	0.0139565
825.552	0.0140720
825.630	0.0138998
825.708	0.0138405
825.787	0.0139879
825.865	0.0139184
825.943	0.0139240
826.021	0.0140328
826.099	0.0140063
826.177	0.0139790
826.255	0.0140147
826.333	0.0140015
826.412	0.0140269
826.490	0.0139154
826.568	0.0137397
826.646	0.0139371
826.724	0.0139857
826.802	0.0140357
826.880	0.0139034
826.958	0.0138714
827.037	0.0139962
827.115	0.0138802
827.193	0.0138528
827.271	0.0139481
827.349	0.0138781
827.427	0.0138781
827.505	0.0140229
827.583	0.0139252
827.662	0.0141119
827.740	0.0138486
827.818	0.0138364
827.896	0.0138718
827.974	0.0139661
828.052	0.0139241
828.130	0.0138730
828.208	0.0139516
828.287	0.0138769
828.365	0.0140272
828.443	0.0139050
828.521	0.0140198
828.599	0.0140050
828.677	0.0138793
828.755	0.0140549
828.833	0.0139193
828.912	0.0138776
828.990	0.0139838
829.068	0.0139631
829.146	0.0138564
829.224	0.0139432
829.302	0.0140413
829.380	0.0139825
829.458	0.0139453
829.537	0.0139849
829.615	0.0138685
829.693	0.0139510
829.771	0.0139526
829.849	0.0137631
829.927	0.0137833
830.005	0.0140155
830.083	0.0139058
830.162	0.0139775
830.240	0.0138689
830.318	0.0139823
830.396	0.0139100
830.474	0.0139812
830.552	0.0139441
830.630	0.0139984
830.708	0.0139481
830.787	0.0138797
830.865	0.0140352
830.943	0.0140725
831.021	0.0139105
831.099	0.0139742
831.177	0.0139153
831.255	0.0138480
831.333	0.0139568
831.412	0.0139763
831.490	0.0138789
831.568	0.0137640
831.646	0.0138063
831.724	0.0138959
831.802	0.0139458
831.880	0.0139828
831.958	0.0138601
832.037	0.0140533
832.115	0.0138570
832.193	0.0139274
832.271	0.0139230
832.349	0.0138998
832.427	0.0139571
832.505	0.0138791
832.583	0.0138247
832.662	0.0139156
832.740	0.0140003
832.818	0.0139280
832.896	0.0139594
832.974	0.0138520
833.052	0.0139258
833.130	0.0140273
833.208	0.0138297
833.287	0.0138019
833.365	0.0140408
833.443	0.0138552
833.521	0.0137592
833.599	0.0139482
833.677	0.0139388
833.755	0.0139569
833.833	0.0139668
833.912	0.0139101
833.990	0.0138229
834.068	0.0137841
834.146	0.0139500
834.224	0.0140524
834.302	0.0140423
834.380	0.0138185
834.458	0.0138552
834.537	0.0139922
834.615	0.0140038
834.693	0.0139852
834.771	0.0140358
834.849	0.0140315
834.927	0.0141382
835.005	0.0139922
835.083	0.0140623
835.162	0.0138866
835.240	0.0140070
835.318	0.0140656
835.396	0.0139558
835.474	0.0139201
835.552	0.0140453
835.630	0.0140598
835.708	0.0139319
835.787	0.0140142
835.865	0.0140155
835.943	0.0140001
836.021	0.0139985
836.099	0.0139120
836.177	0.0138898
836.255	0.0139467
836.333	0.0139636
836.412	0.0140819
836.490	0.0139132
836.568	0.0139159
836.646	0.0140668
836.724	0.0139939
836.802	0.0139325
836.880	0.0139666
836.958	0.0139665
837.037	0.0139456
837.115	0.0139822
837.193	0.0138739
837.271	0.0139480
837.349	0.0140524
837.427	0.0138212
837.505	0.0139096
837.583	0.0139512
837.662	0.0139338
837.740	0.0139176
837.818	0.0139975
837.896	0.0139591
837.974	0.0139577
838.052	0.0139104
838.130	0.0140011
838.208	0.0138229
838.287	0.0138430
838.365	0.0139610
838.443	0.0138390
838.521	0.0138050
838.599	0.0139140
838.677	0.0139503
838.755	0.0138402
838.833	0.0137801
838.912	0.0138437
838.990	0.0138647
839.068	0.0137645
839.146	0.0138809
839.224	0.0139837
839.302	0.0140615
839.380	0.0138661
839.458	0.0138665
839.537	0.0137554
839.615	0.0137697
839.693	0.0138979
839.771	0.0139008
839.849	0.0138938
839.927	0.0140329
840.005	0.0138543
840.083	0.0137695
840.162	0.0139748
840.240	0.0140080
840.318	0.0137870
840.396	0.0138441
840.474	0.0138751
840.552	0.0139726
840.630	0.0139646
840.708	0.0137685
840.787	0.0139464
840.865	0.0140205
840.943	0.0138595
841.021	0.0138444
841.099	0.0139057
841.177	0.0139066
841.255	0.0138666
841.333	0.0138379
841.412	0.0138425
841.490	0.0139378
841.568	0.0139000
841.646	0.0137522
841.724	0.0138757
841.802	0.0139507
841.880	0.0139238
841.958	0.0138933
842.037	0.0138662
842.115	0.0139682
842.193	0.0138032
842.271	0.0138729
842.349	0.0139670
842.427	0.0138982
842.505	0.0139788
842.583	0.0138034
842.662	0.0137006
842.740	0.0139139
842.818	0.0138091
842.896	0.0137187
842.974	0.0139047
843.052	0.0138163
843.130	0.0139794
843.208	0.0139346
843.287	0.0137476
843.365	0.0138198
843.443	0.0138369
843.521	0.0139982
843.599	0.0137415
843.677	0.0136909
843.755	0.0137974
843.833	0.0138720
843.912	0.0136620
843.990	0.0138931
844.068	0.0138126
844.146	0.0138839
844.224	0.0137823
844.302	0.0139461
844.380	0.0137759
844.458	0.0138715
844.537	0.0138034
844.615	0.0137952
844.693	0.0137894
844.771	0.0138816
844.849	0.0137329
844.927	0.0138217
845.005	0.0137806
845.083	0.0136408
845.162	0.0137753
845.240	0.0138550
845.318	0.0138029
845.396	0.0137600
845.474	0.0138379
845.552	0.0138818
845.630	0.0138183
845.708	0.0137906
845.787	0.0139489
845.865	0.0139704
845.943	0.0138424
846.021	0.0139003
846.099	0.0139982
846.177	0.0138111
846.255	0.0137182
846.333	0.0138621
846.412	0.0138802
846.490	0.0138407
846.568	0.0138213
846.646	0.0138586
846.724	0.0139336
846.802	0.0137994
846.880	0.0138417
846.958	0.0138629
847.037	0.0138467
847.115	0.0139069
847.193	0.0139209
847.271	0.0138882
847.349	0.0139088
847.427	0.0139474
847.505	0.0138929
847.583	0.0137898
847.662	0.0138770
847.740	0.0140018
847.818	0.0138396
847.896	0.0139469
847.974	0.0138171
848.052	0.0138258
848.130	0.0137749
848.208	0.0139619
848.287	0.0140254
848.365	0.0137779
848.443	0.0137973
848.521	0.0139184
848.599	0.0138438
848.677	0.0137947
848.755	0.0139310
848.833	0.0138897
848.912	0.0139067
848.990	0.0138420
849.068	0.0138333
849.146	0.0139960
849.224	0.0139024
849.302	0.0138507
849.380	0.0139034
849.458	0.0137917
849.537	0.0139702
849.615	0.0138911
849.693	0.0139346
849.771	0.0138890
849.849	0.0140839
849.927	0.0138492
850.005	0.0140266
850.083	0.0138676
850.162	0.0140149
850.240	0.0138291
850.318	0.0139611
850.396	0.0139986
850.474	0.0139780
850.552	0.0139423
850.630	0.0139010
850.708	0.0140517
850.787	0.0140501
850.865	0.0139742
850.943	0.0139513
851.021	0.0138689
851.099	0.0140211
851.177	0.0138402
851.255	0.0139230
851.333	0.0139668
851.412	0.0139606
851.490	0.0140911
851.568	0.0138837
851.646	0.0138631
851.724	0.0140000
851.802	0.0138939
851.880	0.0138856
851.958	0.0139118
852.037	0.0138959
852.115	0.0137100
852.193	0.0139134
852.271	0.0139038
852.349	0.0137943
852.427	0.0138847
852.505	0.0139577
852.583	0.0138682
852.662	0.0139074
852.740	0.0139434
852.818	0.0139176
852.896	0.0139670
852.974	0.0138592
853.052	0.0139082
853.130	0.0138979
853.208	0.0140341
853.287	0.0139043
853.365	0.0138981
853.443	0.0140224
853.521	0.0139731
853.599	0.0140099
853.677	0.0138583
853.755	0.0139987
853.833	0.0139638
853.912	0.0139664
853.990	0.0139932
854.068	0.0139914
854.146	0.0139360
854.224	0.0139954
854.302	0.0139281
854.380	0.0137917
854.458	0.0139377
854.537	0.0139750
854.615	0.0138126
854.693	0.0138826
854.771	0.0137278
854.849	0.0139709
854.927	0.0139508
855.005	0.0139414
855.083	0.0139464
855.162	0.0140150
855.240	0.0138579
855.318	0.0138197
855.396	0.0139964
855.474	0.0138280
855.552	0.0139243
855.630	0.0139308
855.708	0.0139342
855.787	0.0138633
855.865	0.0139483
855.943	0.0138320
856.021	0.0139513
856.099	0.0139577
856.177	0.0138276
856.255	0.0137300
856.333	0.0139078
856.412	0.0139149
856.490	0.0138808
856.568	0.0138830
856.646	0.0139805
856.724	0.0139140
856.802	0.0139448
856.880	0.0137789
856.958	0.0139383
857.037	0.0138581
857.115	0.0137850
857.193	0.0138639
857.271	0.0138497
857.349	0.0139059
857.427	0.0138670
857.505	0.0139460
857.583	0.0138557
857.662	0.0136868
857.740	0.0139048
857.818	0.0138673
857.896	0.0138940
857.974	0.0139213
858.052	0.0139488
858.130	0.0137990
858.208	0.0139803
858.287	0.0139034
858.365	0.0138995
858.443	0.0139668
858.521	0.0139709
858.599	0.0139879
858.677	0.0137840
858.755	0.0138080
858.833	0.0139999
858.912	0.0137906
858.990	0.0139605
859.068	0.0139405
859.146	0.0138632
859.224	0.0137768
859.302	0.0138551
859.380	0.0138248
859.458	0.0138967
859.537	0.0139050
859.615	0.0139183
859.693	0.0138638
859.771	0.0139562
859.849	0.0138847
859.927	0.0139323
860.005	0.0138202
860.083	0.0138593
860.162	0.0139322
860.240	0.0138655
860.318	0.0139192
860.396	0.0138768
860.474	0.0139195
860.552	0.0139705
860.630	0.0139661
860.708	0.0139611
860.787	0.0138557
860.865	0.0140031
860.943	0.0140454
861.021	0.0138575
861.099	0.0139840
861.177	0.0139112
861.255	0.0139208
861.333	0.0139530
861.412	0.0138965
861.490	0.0138224
861.568	0.0138249
861.646	0.0137884
861.724	0.0140292
861.802	0.0138544
861.880	0.0138596
861.958	0.0138531
862.037	0.0139773
862.115	0.0138669
862.193	0.0137340
862.271	0.0138241
862.349	0.0138405
862.427	0.0138332
862.505	0.0136771
862.583	0.0139458
862.662	0.0139075
862.740	0.0139383
862.818	0.0139184
862.896	0.0137891
862.974	0.0137591
863.052	0.0139262
863.130	0.0140356
863.208	0.0138427
863.287	0.0138083
863.365	0.0137569
863.443	0.0138793
863.521	0.0139201
863.599	0.0136598
863.677	0.0137839
863.755	0.0138440
863.833	0.0138157
863.912	0.0137537
863.990	0.0137887
864.068	0.0138223
864.146	0.0137980
864.224	0.0138218
864.302	0.0137051
864.380	0.0138235
864.458	0.0136757
864.537	0.0137995
864.615	0.0136172
864.693	0.0137191
864.771	0.0136761
864.849	0.0137870
864.927	0.0136852
865.005	0.0137525
865.083	0.0137718
865.162	0.0137801
865.240	0.0136733
865.318	0.0137218
865.396	0.0137881
865.474	0.0138245
865.552	0.0137341
865.630	0.0138434
865.708	0.0138750
865.787	0.0137161
865.865	0.0138742
865.943	0.0138800
866.021	0.0138730
866.099	0.0138400
866.177	0.0139806
866.255	0.0138573
866.333	0.0138807
866.412	0.0138492
866.490	0.0139088
866.568	0.0139686
866.646	0.0139050
866.724	0.0139030
866.802	0.0138870
866.880	0.0137932
866.958	0.0138364
867.037	0.0138740
867.115	0.0139349
867.193	0.0139695
867.271	0.0137856
867.349	0.0139053
867.427	0.0139082
867.505	0.0138809
867.583	0.0140711
867.662	0.0140115
867.740	0.0139124
867.818	0.0139730
867.896	0.0138427
867.974	0.0139795
868.052	0.0138137
868.130	0.0138457
868.208	0.0138850
868.287	0.0138610
868.365	0.0137314
868.443	0.0139077
868.521	0.0139182
868.599	0.0138242
868.677	0.0138190
868.755	0.0138197
868.833	0.0138966
868.912	0.0138679
868.990	0.0139050
869.068	0.0139316
869.146	0.0137259
869.224	0.0139639
869.302	0.0136726
869.380	0.0138557
869.458	0.0138686
869.537	0.0139709
869.615	0.0138644
869.693	0.0136898
869.771	0.0139344
869.849	0.0137580
869.927	0.0139592
870.005	0.0139472
870.083	0.0138153
870.162	0.0137393
870.240	0.0137514
870.318	0.0138392
870.396	0.0139118
870.474	0.0138964
870.552	0.0140299
870.630	0.0138454
870.708	0.0138609
870.787	0.0137578
870.865	0.0139804
870.943	0.0137755
871.021	0.0138804
871.099	0.0139243
871.177	0.0139531
871.255	0.0137646
871.333	0.0137197
871.412	0.0137937
871.490	0.0138505
871.568	0.0138284
871.646	0.0138075
871.724	0.0138412
871.802	0.0138991
871.880	0.0138771
871.958	0.0138931
872.037	0.0138728
872.115	0.0138414
872.193	0.0139780
872.271	0.0139433
872.349	0.0137710
872.427	0.0138966
872.505	0.0138423
872.583	0.0138715
872.662	0.0139486
872.740	0.0137804
872.818	0.0139033
872.896	0.0138288
872.974	0.0138235
873.052	0.0138596
873.130	0.0138689
873.208	0.0140471
873.287	0.0139185
873.365	0.0140717
873.443	0.0138772
873.521	0.0138402
873.599	0.0138152
873.677	0.0138309
873.755	0.0138627
873.833	0.0140871
873.912	0.0139335
873.990	0.0138612
874.068	0.0139136
874.146	0.0138941
874.224	0.0139820
874.302	0.0141106
874.380	0.0139031
874.458	0.0139098
874.537	0.0138140
874.615	0.0139385
874.693	0.0138509
874.771	0.0138786
874.849	0.0138293
874.927	0.0139783
875.005	0.0139703
875.083	0.0139321
875.162	0.0139359
875.240	0.0139442
875.318	0.0140186
875.396	0.0139608
875.474	0.0140645
875.552	0.0140909
875.630	0.0139671
875.708	0.0138103
875.787	0.0138811
875.865	0.0139329
875.943	0.0139085
876.021	0.0141011
876.099	0.0140832
876.177	0.0137658
876.255	0.0137138
876.333	0.0139166
876.412	0.0138788
876.490	0.0137962
876.568	0.0138091
876.646	0.0138017
876.724	0.0138515
876.802	0.0136752
876.880	0.0138094
876.958	0.0138721
877.037	0.0138251
877.115	0.0136745
877.193	0.0137712
877.271	0.0138731
877.349	0.0139063
877.427	0.0139872
877.505	0.0138303
877.583	0.0137481
877.662	0.0138966
877.740	0.0138338
877.818	0.0137493
877.896	0.0137373
877.974	0.0136231
878.052	0.0138181
878.130	0.0137677
878.208	0.0137954
878.287	0.0138403
878.365	0.0139246
878.443	0.0138313
878.521	0.0139227
878.599	0.0138477
878.677	0.0138822
878.755	0.0137826
878.833	0.0137813
878.912	0.0138190
878.990	0.0137958
879.068	0.0137318
879.146	0.0137432
879.224	0.0137250
879.302	0.0137698
879.380	0.0137054
879.458	0.0137534
879.537	0.0136291
879.615	0.0137614
879.693	0.0137188
879.771	0.0137914
879.849	0.0138246
879.927	0.0138673
880.005	0.0137520
880.083	0.0137704
880.162	0.0138089
880.240	0.0137917
880.318	0.0139012
880.396	0.0139448
880.474	0.0139169
880.552	0.0138931
880.630	0.0139051
880.708	0.0137865
880.787	0.0138686
880.865	0.0138496
880.943	0.0139181
881.021	0.0139693
881.099	0.0138585
881.177	0.0137811
881.255	0.0138814
881.333	0.0139497
881.412	0.0138998
881.490	0.0139180
881.568	0.0138641
881.646	0.0138708
881.724	0.0140128
881.802	0.0138129
881.880	0.0139640
881.958	0.0139568
882.037	0.0137845
882.115	0.0139484
882.193	0.0139090
882.271	0.0137868
882.349	0.0137205
882.427	0.0138403
882.505	0.0137629
882.583	0.0138038
882.662	0.0137549
882.740	0.0137276
882.818	0.0138197
882.896	0.0138927
882.974	0.0136971
883.052	0.0137966
883.130	0.0139250
883.208	0.0138022
883.287	0.0138206
883.365	0.0138461
883.443	0.0137801
883.521	0.0138782
883.599	0.0137296
883.677	0.0138278
883.755	0.0138458
883.833	0.0138749
883.912	0.0138588
883.990	0.0140116
884.068	0.0138937
884.146	0.0137177
884.224	0.0137926
884.302	0.0138889
884.380	0.0139329
884.458	0.0139639
884.537	0.0140366
884.615	0.0139077
884.693	0.0138937
884.771	0.0139342
884.849	0.0140130
884.927	0.0139511
885.005	0.0140495
885.083	0.0139358
885.162	0.0139364
885.240	0.0138766
885.318	0.0140422
885.396	0.0139899
885.474	0.0139216
885.552	0.0139319
885.630	0.0140894
885.708	0.0138982
885.787	0.0139603
885.865	0.0140491
885.943	0.0139240
886.021	0.0139211
886.099	0.0139301
886.177	0.0139508
886.255	0.0138889
886.333	0.0139409
886.412	0.0141213
886.490	0.0140027
886.568	0.0139709
886.646	0.0139045
886.724	0.0139445
886.802	0.0138758
886.880	0.0139142
886.958	0.0139570
887.037	0.0138317
887.115	0.0138426
887.193	0.0138387
887.271	0.0138831
887.349	0.0139690
887.427	0.0139534
887.505	0.0137876
887.583	0.0139784
887.662	0.0139223
887.740	0.0140981
887.818	0.0139849
887.896	0.0138943
887.974	0.0140977
888.052	0.0140472
888.130	0.0139429
888.208	0.0139810
888.287	0.0138280
888.365	0.0139859
888.443	0.0139453
888.521	0.0139194
888.599	0.0138143
888.677	0.0139188
888.755	0.0138748
888.833	0.0137120
888.912	0.0138227
888.990	0.0140801
889.068	0.0139487
889.146	0.0140144
889.224	0.0138353
889.302	0.0139100
889.380	0.0138384
889.458	0.0139256
889.537	0.0140783
889.615	0.0137881
889.693	0.0139495
889.771	0.0138696
889.849	0.0139143
889.927	0.0137980
890.005	0.0138716
890.083	0.0138698
890.162	0.0138858
890.240	0.0140453
890.318	0.0140836
890.396	0.0139862
890.474	0.0140712
890.552	0.0140529
890.630	0.0140556
890.708	0.0139301
890.787	0.0141683
890.865	0.0142113
890.943	0.0141571
891.021	0.0138905
891.099	0.0141816
891.177	0.0141064
891.255	0.0139453
891.333	0.0141073
891.412	0.0140549
891.490	0.0138990
891.568	0.0139932
891.646	0.0139709
891.724	0.0139613
891.802	0.0138821
891.880	0.0139314
891.958	0.0140318
892.037	0.0140070
892.115	0.0139965
892.193	0.0139672
892.271	0.0140691
892.349	0.0141161
892.427	0.0140260
892.505	0.0140548
892.583	0.0140802
892.662	0.0139813
892.740	0.0138928
892.818	0.0139404
892.896	0.0139941
892.974	0.0139075
893.052	0.0140096
893.130	0.0141129
893.208	0.0140304
893.287	0.0140617
893.365	0.0140118
893.443	0.0139598
893.521	0.0139178
893.599	0.0140398
893.677	0.0140132
893.755	0.0140119
893.833	0.0140163
893.912	0.0139780
893.990	0.0139644
894.068	0.0139898
894.146	0.0139925
894.224	0.0138690
894.302	0.0140802
894.380	0.0140706
894.458	0.0139364
894.537	0.0140945
894.615	0.0140919
894.693	0.0140248
894.771	0.0138907
894.849	0.0139610
894.927	0.0140927
895.005	0.0140965
895.083	0.0140984
895.162	0.0141048
895.240	0.0140352
895.318	0.0139513
895.396	0.0141457
895.474	0.0142287
895.552	0.0140439
895.630	0.0139285
895.708	0.0140183
895.787	0.0140821
895.865	0.0141496
895.943	0.0139622
896.021	0.0141392
896.099	0.0139619
896.177	0.0140413
896.255	0.0139074
896.333	0.0139134
896.412	0.0140114
896.490	0.0138805
896.568	0.0139448
896.646	0.0138503
896.724	0.0139054
896.802	0.0139559
896.880	0.0139142
896.958	0.0139419
897.037	0.0139146
897.115	0.0138088
897.193	0.0137644
897.271	0.0137973
897.349	0.0139068
897.427	0.0138098
897.505	0.0140543
897.583	0.0140161
897.662	0.0138313
897.740	0.0139650
897.818	0.0137947
897.896	0.0138837
897.974	0.0139559
898.052	0.0137564
898.130	0.0139178
898.208	0.0137984
898.287	0.0137735
898.365	0.0138422
898.443	0.0139206
898.521	0.0139735
898.599	0.0138545
898.677	0.0138889
898.755	0.0139317
898.833	0.0138826
898.912	0.0139583
898.990	0.0138811
899.068	0.0137765
899.146	0.0138775
899.224	0.0138437
899.302	0.0138046
899.380	0.0137812
899.458	0.0138566
899.537	0.0138435
899.615	0.0138529
899.693	0.0137865
899.771	0.0137292
899.849	0.0138230
899.927	0.0137320
900.005	0.0138364
900.083	0.0138133
900.162	0.0138187
900.240	0.0139253
900.318	0.0139015
900.396	0.0138166
900.474	0.0138693
900.552	0.0139664
900.630	0.0138778
900.708	0.0137232
900.787	0.0137633
900.865	0.0138521
900.943	0.0139291
901.021	0.0138255
901.099	0.0136984
901.177	0.0138061
901.255	0.0137906
901.333	0.0138650
901.412	0.0137397
901.490	0.0137733
901.568	0.0137209
901.646	0.0137184
901.724	0.0138636
901.802	0.0137852
901.880	0.0137883
901.958	0.0138382
902.037	0.0138048
902.115	0.0136523
902.193	0.0136678
902.271	0.0137153
902.349	0.0137511
902.427	0.0138436
902.505	0.0137677
902.583	0.0137340
902.662	0.0138616
902.740	0.0138017
902.818	0.0136673
902.896	0.0136555
902.974	0.0138472
903.052	0.0137421
903.130	0.0137099
903.208	0.0137970
903.287	0.0137565
903.365	0.0138947
903.443	0.0137206
903.521	0.0138312
903.599	0.0138058
903.677	0.0137372
903.755	0.0137403
903.833	0.0138631
903.912	0.0138348
903.990	0.0137942
904.068	0.0137389
904.146	0.0137605
904.224	0.0138124
904.302	0.0138513
904.380	0.0138450
904.458	0.0136623
904.537	0.0137609
904.615	0.0137584
904.693	0.0138284
904.771	0.0136973
904.849	0.0135399
904.927	0.0137769
905.005	0.0138608
905.083	0.0137627
905.162	0.0139099
905.240	0.0138303
905.318	0.0138171
905.396	0.0139301
905.474	0.0138049
905.552	0.0138522
905.630	0.0138113
905.708	0.0139348
905.787	0.0139133
905.865	0.0137554
905.943	0.0139172
906.021	0.0139542
906.099	0.0137360
906.177	0.0139875
906.255	0.0140247
906.333	0.0139220
906.412	0.0137846
906.490	0.0137611
906.568	0.0139555
906.646	0.0139922
906.724	0.0139333
906.802	0.0140125
906.880	0.0139728
906.958	0.0139495
907.037	0.0140379
907.115	0.0139612
907.193	0.0139967
907.271	0.0140701
907.349	0.0139376
907.427	0.0140058
907.505	0.0140910
907.583	0.0139307
907.662	0.0139865
907.740	0.0142204
907.818	0.0140132
907.896	0.0139190
907.974	0.0140737
908.052	0.0141548
908.130	0.0140333
908.208	0.0141462
908.287	0.0142256
908.365	0.0140289
908.443	0.0140672
908.521	0.0141763
908.599	0.0140002
908.677	0.0142096
908.755	0.0141253
908.833	0.0141216
908.912	0.0141143
908.990	0.0140524
909.068	0.0139960
909.146	0.0141836
909.224	0.0140866
909.302	0.0141396
909.380	0.0141459
909.458	0.0139811
909.537	0.0141404
909.615	0.0141503
909.693	0.0140851
909.771	0.0141040
909.849	0.0140538
909.927	0.0139348
910.005	0.0141592
910.083	0.0140899
910.162	0.0140821
910.240	0.0140629
910.318	0.0140339
910.396	0.0140983
910.474	0.0141077
910.552	0.0140200
910.630	0.0140282
910.708	0.0140612
910.787	0.0140753
910.865	0.0140079
910.943	0.0138976
911.021	0.0139782
911.099	0.0141299
911.177	0.0140623
911.255	0.0140868
911.333	0.0140819
911.412	0.0140402
911.490	0.0140214
911.568	0.0141423
911.646	0.0139320
911.724	0.0139946
911.802	0.0141605
911.880	0.0141264
911.958	0.0141097
912.037	0.0140498
912.115	0.0139207
912.193	0.0139532
912.271	0.0139922
912.349	0.0140842
912.427	0.0139495
912.505	0.0140290
912.583	0.0139391
912.662	0.0140546
912.740	0.0140800
912.818	0.0139114
912.896	0.0138596
912.974	0.0139948
913.052	0.0140611
913.130	0.0138574
913.208	0.0137778
913.287	0.0138567
913.365	0.0140703
913.443	0.0138999
913.521	0.0139229
913.599	0.0140002
913.677	0.0138935
913.755	0.0138292
913.833	0.0140124
913.912	0.0138599
913.990	0.0138632
914.068	0.0140228
914.146	0.0139030
914.224	0.0138322
914.302	0.0139071
914.380	0.0139402
914.458	0.0140071
914.537	0.0140626
914.615	0.0139544
914.693	0.0140208
914.771	0.0139889
914.849	0.0139640
914.927	0.0139149
915.005	0.0140012
915.083	0.0139804
915.162	0.0140458
915.240	0.0141098
915.318	0.0140034
915.396	0.0139436
915.474	0.0140644
915.552	0.0139903
915.630	0.0140663
915.708	0.0140799
915.787	0.0140783
915.865	0.0139972
915.943	0.0140742
916.021	0.0139635
916.099	0.0140697
916.177	0.0141711
916.255	0.0140197
916.333	0.0140945
916.412	0.0140070
916.490	0.0140997
916.568	0.0141275
916.646	0.0143362
916.724	0.0140173
916.802	0.0140159
916.880	0.0141487
916.958	0.0141518
917.037	0.0140370
917.115	0.0140548
917.193	0.0142622
917.271	0.0141022
917.349	0.0140906
917.427	0.0141277
917.505	0.0140573
917.583	0.0141288
917.662	0.0140684
917.740	0.0141630
917.818	0.0140735
917.896	0.0139292
917.974	0.0139603
918.052	0.0139738
918.130	0.0140457
918.208	0.0140034
918.287	0.0139583
918.365	0.0140350
918.443	0.0140251
918.521	0.0139464
918.599	0.0139569
918.677	0.0139899
918.755	0.0140334
918.833	0.0140135
918.912	0.0138818
918.990	0.0141214
919.068	0.0141267
919.146	0.0140874
919.224	0.0140120
919.302	0.0140657
919.380	0.0140218
919.458	0.0141089
919.537	0.0140617
919.615	0.0139041
919.693	0.0140419
919.771	0.0141579
919.849	0.0140403
919.927	0.0141276
920.005	0.0139939
920.083	0.0139405
920.162	0.0139829
920.240	0.0139633
920.318	0.0139804
920.396	0.0140113
920.474	0.0139223
920.552	0.0139485
920.630	0.0140301
920.708	0.0139874
920.787	0.0138030
920.865	0.0139857
920.943	0.0139209
921.021	0.0139381
921.099	0.0138627
921.177	0.0138701
921.255	0.0139495
921.333	0.0139269
921.412	0.0137696
921.490	0.0138342
921.568	0.0138844
921.646	0.0141176
921.724	0.0137807
921.802	0.0137190
921.880	0.0139645
921.958	0.0139449
922.037	0.0138181
922.115	0.0138980
922.193	0.0139541
922.271	0.0138867
922.349	0.0138481
922.427	0.0138259
922.505	0.0139191
922.583	0.0138721
922.662	0.0138962
922.740	0.0138905
922.818	0.0137894
922.896	0.0137067
922.974	0.0138461
923.052	0.0138094
923.130	0.0137718
923.208	0.0138345
923.287	0.0138640
923.365	0.0136816
923.443	0.0138572
923.521	0.0137281
923.599	0.0138731
923.677	0.0138309
923.755	0.0137234
923.833	0.0137647
923.912	0.0137005
923.990	0.0137559
924.068	0.0138526
924.146	0.0139779
924.224	0.0137756
924.302	0.0137222
924.380	0.0138628
924.458	0.0138884
924.537	0.0139506
924.615	0.0139170
924.693	0.0138763
924.771	0.0137266
924.849	0.0137983
924.927	0.0139809
925.005	0.0138022
925.083	0.0138657
925.162	0.0138698
925.240	0.0138856
925.318	0.0139812
925.396	0.0138916
925.474	0.0139523
925.552	0.0139281
925.630	0.0138564
925.708	0.0139096
925.787	0.0138546
925.865	0.0138469
925.943	0.0138494
926.021	0.0138454
926.099	0.0137427
926.177	0.0138317
926.255	0.0139246
926.333	0.0137610
926.412	0.0138741
926.490	0.0138557
926.568	0.0138659
926.646	0.0138000
926.724	0.0138948
926.802	0.0138012
926.880	0.0137875
926.958	0.0137796
927.037	0.0139019
927.115	0.0139443
927.193	0.0136909
927.271	0.0138454
927.349	0.0140234
927.427	0.0139293
927.505	0.0138470
927.583	0.0140967
927.662	0.0138049
927.740	0.0139294
927.818	0.0140007
927.896	0.0139364
927.974	0.0137853
928.052	0.0138650
928.130	0.0139166
928.208	0.0139670
928.287	0.0139565
928.365	0.0140012
928.443	0.0138088
928.521	0.0138016
928.599	0.0139858
928.677	0.0139758
928.755	0.0138358
928.833	0.0139375
928.912	0.0138384
928.990	0.0139325
929.068	0.0139210
929.146	0.0138814
929.224	0.0139979
929.302	0.0139454
929.380	0.0140599
929.458	0.0138556
929.537	0.0138673
929.615	0.0140548
929.693	0.0140690
929.771	0.0139783
929.849	0.0140170
929.927	0.0138969
930.005	0.0141252
930.083	0.0140662
930.162	0.0141047
930.240	0.0140155
930.318	0.0140340
930.396	0.0139229
930.474	0.0141822
930.552	0.0140595
930.630	0.0139484
930.708	0.0139305
930.787	0.0139160
930.865	0.0140104
930.943	0.0140492
931.021	0.0138708
931.099	0.0138756
931.177	0.0139739
931.255	0.0140526
931.333	0.0138280
931.412	0.0139866
931.490	0.0140019
931.568	0.0139886
931.646	0.0138107
931.724	0.0138557
931.802	0.0140280
931.880	0.0141276
931.958	0.0140258
932.037	0.0139545
932.115	0.0139631
932.193	0.0139805
932.271	0.0139083
932.349	0.0138677
932.427	0.0138123
932.505	0.0138835
932.583	0.0140176
932.662	0.0138811
932.740	0.0137523
932.818	0.0138775
932.896	0.0140024
932.974	0.0138586
933.052	0.0139590
933.130	0.0138954
933.208	0.0139293
933.287	0.0140190
933.365	0.0138277
933.443	0.0137241
933.521	0.0139546
933.599	0.0138783
933.677	0.0138411
933.755	0.0138786
933.833	0.0139009
933.912	0.0138010
933.990	0.0136672
934.068	0.0138077
934.146	0.0138524
934.224	0.0138113
934.302	0.0137926
934.380	0.0138763
934.458	0.0138123
934.537	0.0139359
934.615	0.0138841
934.693	0.0136962
934.771	0.0139108
934.849	0.0138438
934.927	0.0136898
935.005	0.0137737
935.083	0.0139540
935.162	0.0137490
935.240	0.0138175
935.318	0.0139303
935.396	0.0138834
935.474	0.0138488
935.552	0.0139370
935.630	0.0138660
935.708	0.0139530
935.787	0.0138332
935.865	0.0140186
935.943	0.0138779
936.021	0.0138580
936.099	0.0139523
936.177	0.0139982
936.255	0.0140205
936.333	0.0138921
936.412	0.0139591
936.490	0.0139191
936.568	0.0138935
936.646	0.0140023
936.724	0.0139725
936.802	0.0140833
936.880	0.0138773
936.958	0.0139711
937.037	0.0139697
937.115	0.0140160
937.193	0.0140453
937.271	0.0139519
937.349	0.0139037
937.427	0.0140520
937.505	0.0141404
937.583	0.0138704
937.662	0.0140298
937.740	0.0140459
937.818	0.0140478
937.896	0.0139854
937.974	0.0138569
938.052	0.0138775
938.130	0.0139746
938.208	0.0140299
938.287	0.0138003
938.365	0.0138200
938.443	0.0139546
938.521	0.0139442
938.599	0.0139902
938.677	0.0140661
938.755	0.0139029
938.833	0.0138255
938.912	0.0139919
938.990	0.0140888
939.068	0.0139400
939.146	0.0137415
939.224	0.0138489
939.302	0.0140192
939.380	0.0141151
939.458	0.0139635
939.537	0.0139731
939.615	0.0140498
939.693	0.0139667
939.771	0.0139277
939.849	0.0139042
939.927	0.0140410
940.005	0.0140430
940.083	0.0138625
940.162	0.0139510
940.240	0.0139893
940.318	0.0139249
940.396	0.0138377
940.474	0.0138968
940.552	0.0140646
940.630	0.0139294
940.708	0.0139103
940.787	0.0140225
940.865	0.0141519
940.943	0.0140102
941.021	0.0138588
941.099	0.0138776
941.177	0.0138348
941.255	0.0139407
941.333	0.0140366
941.412	0.0139250
941.490	0.0139154
941.568	0.0139195
941.646	0.0139916
941.724	0.0140663
941.802	0.0139871
941.880	0.0139210
941.958	0.0139164
942.037	0.0138363
942.115	0.0140705
942.193	0.0140958
942.271	0.0138914
942.349	0.0138708
942.427	0.0139240
942.505	0.0139398
942.583	0.0138867
942.662	0.0138055
942.740	0.0138274
942.818	0.0139687
942.896	0.0139823
942.974	0.0138648
943.052	0.0137873
943.130	0.0139375
943.208	0.0138666
943.287	0.0138493
943.365	0.0138103
943.443	0.0138556
943.521	0.0138415
943.599	0.0137916
943.677	0.0137595
943.755	0.0138504
943.833	0.0139091
943.912	0.0137685
943.990	0.0138741
944.068	0.0137694
944.146	0.0139392
944.224	0.0138799
944.302	0.0137560
944.380	0.0138438
944.458	0.0138254
944.537	0.0138813
944.615	0.0139595
944.693	0.0137435
944.771	0.0136722
944.849	0.0139111
944.927	0.0138956
945.005	0.0138323
945.083	0.0137505
945.162	0.0138099
945.240	0.0138089
945.318	0.0138250
945.396	0.0137131
945.474	0.0137075
945.552	0.0137646
945.630	0.0137573
945.708	0.0137959
945.787	0.0138625
945.865	0.0138512
945.943	0.0138725
946.021	0.0138172
946.099	0.0139091
946.177	0.0138628
946.255	0.0138767
946.333	0.0139700
946.412	0.0139578
946.490	0.0139514
946.568	0.0139405
946.646	0.0138795
946.724	0.0139160
946.802	0.0140749
946.880	0.0138663
946.958	0.0139167
947.037	0.0141281
947.115	0.0139491
947.193	0.0137843
947.271	0.0137525
947.349	0.0139591
947.427	0.0139467
947.505	0.0139407
947.583	0.0139089
947.662	0.0139989
947.740	0.0137447
947.818	0.0138644
947.896	0.0138837
947.974	0.0139661
948.052	0.0140673
948.130	0.0138323
948.208	0.0138894
948.287	0.0139847
948.365	0.0138612
948.443	0.0138738
948.521	0.0140163
948.599	0.0139489
948.677	0.0139443
948.755	0.0139724
948.833	0.0140008
948.912	0.0138828
948.990	0.0138838
949.068	0.0140436
949.146	0.0139507
949.224	0.0138965
949.302	0.0138445
949.380	0.0139148
949.458	0.0139867
949.537	0.0138920
949.615	0.0139419
949.693	0.0138873
949.771	0.0138362
949.849	0.0140936
949.927	0.0140459
950.005	0.0138674
950.083	0.0140068
950.162	0.0139159
950.240	0.0139564
950.318	0.0139890
950.396	0.0140228
950.474	0.0140602
950.552	0.0140540
950.630	0.0139597
950.708	0.0139063
950.787	0.0139825
950.865	0.0139274
950.943	0.0139643
951.021	0.0140041
951.099	0.0139989
951.177	0.0139387
951.255	0.0139957
951.333	0.0139008
951.412	0.0138477
951.490	0.0138625
951.568	0.0139339
951.646	0.0138929
951.724	0.0139484
951.802	0.0139754
951.880	0.0139595
951.958	0.0138317
952.037	0.0139371
952.115	0.0138887
952.193	0.0138276
952.271	0.0138719
952.349	0.0137836
952.427	0.0139021
952.505	0.0138919
952.583	0.0136736
952.662	0.0137816
952.740	0.0137560
952.818	0.0138560
952.896	0.0140460
952.974	0.0139847
953.052	0.0139156
953.130	0.0139604
953.208	0.0139334
953.287	0.0138348
953.365	0.0137855
953.443	0.0138219
953.521	0.0138522
953.599	0.0139135
953.677	0.0139196
953.755	0.0138210
953.833	0.0138397
953.912	0.0139474
953.990	0.0139320
954.068	0.0139987
954.146	0.0139571
954.224	0.0139800
954.302	0.0139268
954.380	0.0138502
954.458	0.0138574
954.537	0.0138208
954.615	0.0138865
954.693	0.0139320
954.771	0.0138041
954.849	0.0138529
954.927	0.0137828
955.005	0.0137807
955.083	0.0137064
955.162	0.0136723
955.240	0.0137915
955.318	0.0137936
955.396	0.0137493
955.474	0.0137373
955.552	0.0135329
955.630	0.0137014
955.708	0.0137105
955.787	0.0136879
955.865	0.0136348
955.943	0.0137292
956.021	0.0137148
956.099	0.0137058
956.177	0.0135352
956.255	0.0136797
956.333	0.0137105
956.412	0.0138430
956.490	0.0137346
956.568	0.0137351
956.646	0.0137965
956.724	0.0136461
956.802	0.0137151
956.880	0.0135872
956.958	0.0136993
957.037	0.0138150
957.115	0.0137126
957.193	0.0137123
957.271	0.0136505
957.349	0.0137809
957.427	0.0137261
957.505	0.0136920
957.583	0.0135796
957.662	0.0136613
957.740	0.0136703
957.818	0.0136945
957.896	0.0137542
957.974	0.0138191
958.052	0.0136620
958.130	0.0135980
958.208	0.0137327
958.287	0.0136955
958.365	0.0136631
958.443	0.0137411
958.521	0.0136392
958.599	0.0137011
958.677	0.0137772
958.755	0.0136278
958.833	0.0137244
958.912	0.0139016
958.990	0.0137342
959.068	0.0138290
959.146	0.0138464
959.224	0.0138151
959.302	0.0139316
959.380	0.0136485
959.458	0.0137920
959.537	0.0137211
959.615	0.0136953
959.693	0.0138412
959.771	0.0138300
959.849	0.0137663
959.927	0.0138754
960.005	0.0137328
960.083	0.0138614
960.162	0.0137388
960.240	0.0137725
960.318	0.0137485
960.396	0.0136556
960.474	0.0138393
960.552	0.0138534
960.630	0.0137160
960.708	0.0138106
960.787	0.0138398
960.865	0.0136947
960.943	0.0138370
961.021	0.0138330
961.099	0.0138659
961.177	0.0137309
961.255	0.0138209
961.333	0.0136716
961.412	0.0138189
961.490	0.0138416
961.568	0.0138484
961.646	0.0138738
961.724	0.0139035
961.802	0.0138057
961.880	0.0138618
961.958	0.0137714
962.037	0.0140086
962.115	0.0140150
962.193	0.0138233
962.271	0.0137969
962.349	0.0138577
962.427	0.0139542
962.505	0.0139584
962.583	0.0138490
962.662	0.0139907
962.740	0.0138477
962.818	0.0137048
962.896	0.0136391
962.974	0.0137719
963.052	0.0137277
963.130	0.0138179
963.208	0.0137791
963.287	0.0137914
963.365	0.0137928
963.443	0.0137653
963.521	0.0138746
963.599	0.0137470
963.677	0.0137370
963.755	0.0138277
963.833	0.0138181
963.912	0.0136485
963.990	0.0138086
964.068	0.0137932
964.146	0.0137868
964.224	0.0138514
964.302	0.0138582
964.380	0.0137347
964.458	0.0138137
964.537	0.0138939
964.615	0.0138507
964.693	0.0138531
964.771	0.0138367
964.849	0.0137428
964.927	0.0139806
965.005	0.0137744
965.083	0.0136867
965.162	0.0137597
965.240	0.0138649
965.318	0.0139632
965.396	0.0139162
965.474	0.0139816
965.552	0.0138350
965.630	0.0137445
965.708	0.0138511
965.787	0.0138248
965.865	0.0137486
965.943	0.0138887
966.021	0.0136983
966.099	0.0136906
966.177	0.0138835
966.255	0.0137811
966.333	0.0137514
966.412	0.0136183
966.490	0.0137784
966.568	0.0137794
966.646	0.0137032
966.724	0.0137289
966.802	0.0140239
966.880	0.0139824
966.958	0.0136624
967.037	0.0136639
967.115	0.0138045
967.193	0.0139074
967.271	0.0138528
967.349	0.0137167
967.427	0.0137273
967.505	0.0137554
967.583	0.0138234
967.662	0.0138155
967.740	0.0137601
967.818	0.0138174
967.896	0.0139217
967.974	0.0138771
968.052	0.0138297
968.130	0.0138715
968.208	0.0138124
968.287	0.0139108
968.365	0.0138938
968.443	0.0139709
968.521	0.0138669
968.599	0.0139512
968.677	0.0140638
968.755	0.0139632
968.833	0.0139927
968.912	0.0140513
968.990	0.0139980
969.068	0.0139716
969.146	0.0139639
969.224	0.0139503
969.302	0.0139386
969.380	0.0138977
969.458	0.0138992
969.537	0.0140164
969.615	0.0139149
969.693	0.0140484
969.771	0.0140029
969.849	0.0140054
969.927	0.0139222
970.005	0.0138774
970.083	0.0138669
970.162	0.0140002
970.240	0.0140810
970.318	0.0138773
970.396	0.0139309
970.474	0.0139353
970.552	0.0138258
970.630	0.0139142
970.708	0.0138511
970.787	0.0138765
970.865	0.0138020
970.943	0.0138301
971.021	0.0137952
971.099	0.0138004
971.177	0.0139452
971.255	0.0140046
971.333	0.0137525
971.412	0.0137330
971.490	0.0136336
971.568	0.0139169
971.646	0.0138371
971.724	0.0138394
971.802	0.0137714
971.880	0.0137830
971.958	0.0138651
972.037	0.0138943
972.115	0.0138412
972.193	0.0138957
972.271	0.0138129
972.349	0.0138473
972.427	0.0138876
972.505	0.0138107
972.583	0.0139220
972.662	0.0139021
972.740	0.0138790
972.818	0.0139443
972.896	0.0138882
972.974	0.0139142
973.052	0.0138307
973.130	0.0137615
973.208	0.0138799
973.287	0.0138811
973.365	0.0137695
973.443	0.0137705
973.521	0.0138378
973.599	0.0137354
973.677	0.0138150
973.755	0.0138667
973.833	0.0138174
973.912	0.0137834
973.990	0.0139072
974.068	0.0137627
974.146	0.0138786
974.224	0.0136977
974.302	0.0138555
974.380	0.0139574
974.458	0.0139598
974.537	0.0138671
974.615	0.0138955
974.693	0.0139500
974.771	0.0138622
974.849	0.0138529
974.927	0.0138580
975.005	0.0139533
975.083	0.0139874
975.162	0.0139306
975.240	0.0140517
975.318	0.0139497
975.396	0.0138312
975.474	0.0140239
975.552	0.0140103
975.630	0.0138761
975.708	0.0139580
975.787	0.0140215
975.865	0.0139996
975.943	0.0140589
976.021	0.0138692
976.099	0.0139726
976.177	0.0139805
976.255	0.0138985
976.333	0.0138730
976.412	0.0138305
976.490	0.0138761
976.568	0.0138641
976.646	0.0139437
976.724	0.0139872
976.802	0.0139095
976.880	0.0139440
976.958	0.0139990
977.037	0.0139515
977.115	0.0140306
977.193	0.0139997
977.271	0.0139574
977.349	0.0138405
977.427	0.0138287
977.505	0.0138469
977.583	0.0139574
977.662	0.0138998
977.740	0.0141222
977.818	0.0140125
977.896	0.0139072
977.974	0.0138555
978.052	0.0140037
978.130	0.0138384
978.208	0.0140009
978.287	0.0140134
978.365	0.0139827
978.443	0.0139956
978.521	0.0137691
978.599	0.0138974
978.677	0.0139351
978.755	0.0139857
978.833	0.0137444
978.912	0.0138187
978.990	0.0137344
979.068	0.0138563
979.146	0.0138867
979.224	0.0138605
979.302	0.0137885
979.380	0.0139555
979.458	0.0137893
979.537	0.0139590
979.615	0.0138659
979.693	0.0138937
979.771	0.0137994
979.849	0.0138994
979.927	0.0139502
980.005	0.0137904
980.083	0.0136797
980.162	0.0138528
980.240	0.0139454
980.318	0.0138167
980.396	0.0139272
980.474	0.0139513
980.552	0.0139096
980.630	0.0139658
980.708	0.0139030
980.787	0.0140085
980.865	0.0138868
980.943	0.0138724
981.021	0.0138303
981.099	0.0139641
981.177	0.0138462
981.255	0.0137722
981.333	0.0139021
981.412	0.0138815
981.490	0.0138986
981.568	0.0138329
981.646	0.0137032
981.724	0.0138198
981.802	0.0138232
981.880	0.0139706
981.958	0.0137844
982.037	0.0137083
982.115	0.0136674
982.193	0.0137276
982.271	0.0136656
982.349	0.0138154
982.427	0.0138795
982.505	0.0137791
982.583	0.0138282
982.662	0.0138034
982.740	0.0137318
982.818	0.0136767
982.896	0.0137183
982.974	0.0138423
983.052	0.0137624
983.130	0.0137180
983.208	0.0137475
983.287	0.0137999
983.365	0.0137437
983.443	0.0137322
983.521	0.0136974
983.599	0.0137967
983.677	0.0138290
983.755	0.0137874
983.833	0.0137669
983.912	0.0136659
983.990	0.0138458
984.068	0.0139539
984.146	0.0138940
984.224	0.0138127
984.302	0.0137934
984.380	0.0138979
984.458	0.0138693
984.537	0.0137762
984.615	0.0139994
984.693	0.0139294
984.771	0.0139099
984.849	0.0139294
984.927	0.0138513
985.005	0.0138650
985.083	0.0139378
985.162	0.0139661
985.240	0.0139697
985.318	0.0139729
985.396	0.0139175
985.474	0.0140057
985.552	0.0139796
985.630	0.0140195
985.708	0.0140157
985.787	0.0139242
985.865	0.0140280
985.943	0.0138624
986.021	0.0139437
986.099	0.0140110
986.177	0.0139405
986.255	0.0139523
986.333	0.0139319
986.412	0.0138816
986.490	0.0139640
986.568	0.0139812
986.646	0.0139242
986.724	0.0138593
986.802	0.0140245
986.880	0.0139758
986.958	0.0139663
987.037	0.0139396
987.115	0.0140011
987.193	0.0139534
987.271	0.0139346
987.349	0.0139126
987.427	0.0138757
987.505	0.0139602
987.583	0.0140464
987.662	0.0139000
987.740	0.0139575
987.818	0.0140056
987.896	0.0139893
987.974	0.0140644
988.052	0.0139346
988.130	0.0139979
988.208	0.0140054
988.287	0.0139561
988.365	0.0139854
988.443	0.0139826
988.521	0.0139378
988.599	0.0140081
988.677	0.0139289
988.755	0.0140071
988.833	0.0139539
988.912	0.0137929
988.990	0.0138779
989.068	0.0139447
989.146	0.0138957
989.224	0.0139194
989.302	0.0140231
989.380	0.0139134
989.458	0.0139803
989.537	0.0138147
989.615	0.0136787
989.693	0.0139648
989.771	0.0138716
989.849	0.0138410
989.927	0.0138909
990.005	0.0139395
990.083	0.0139250
990.162	0.0138678
990.240	0.0140168
990.318	0.0140073
990.396	0.0139870
990.474	0.0138900
990.552	0.0138897
990.630	0.0138890
990.708	0.0138680
990.787	0.0139011
990.865	0.0139390
990.943	0.0137138
991.021	0.0137946
991.099	0.0137836
991.177	0.0138023
991.255	0.0138329
991.333	0.0138335
991.412	0.0138566
991.490	0.0138084
991.568	0.0137931
991.646	0.0138693
991.724	0.0139487
991.802	0.0139344
991.880	0.0138676
991.958	0.0139854
992.037	0.0138520
992.115	0.0139539
992.193	0.0139395
992.271	0.0139739
992.349	0.0139716
992.427	0.0139566
992.505	0.0140215
992.583	0.0139262
992.662	0.0138242
992.740	0.0140916
992.818	0.0139216
992.896	0.0139845
992.974	0.0140257
993.052	0.0139594
993.130	0.0140052
993.208	0.0141625
993.287	0.0139476
993.365	0.0140172
993.443	0.0141319
993.521	0.0140531
993.599	0.0139946
993.677	0.0139378
993.755	0.0140291
993.833	0.0138409
993.912	0.0138707
993.990	0.0139778
994.068	0.0138806
994.146	0.0138857
994.224	0.0138460
994.302	0.0138559
994.380	0.0139600
994.458	0.0138870
994.537	0.0139594
994.615	0.0140967
994.693	0.0138006
994.771	0.0138985
994.849	0.0139206
994.927	0.0139058
995.005	0.0140103
995.083	0.0140652
995.162	0.0141373
995.240	0.0138826
995.318	0.0139976
995.396	0.0139048
995.474	0.0139168
995.552	0.0140291
995.630	0.0140463
995.708	0.0140030
995.787	0.0140315
995.865	0.0139859
995.943	0.0139654
996.021	0.0139347
996.099	0.0138142
996.177	0.0139182
996.255	0.0138734
996.333	0.0139022
996.412	0.0138112
996.490	0.0138309
996.568	0.0140028
996.646	0.0138876
996.724	0.0139089
996.802	0.0138588
996.880	0.0137630
996.958	0.0138040
997.037	0.0138531
997.115	0.0138380
997.193	0.0138825
997.271	0.0137661
997.349	0.0138843
997.427	0.0138567
997.505	0.0138549
997.583	0.0137719
997.662	0.0139167
997.740	0.0138920
997.818	0.0137171
997.896	0.0138116
997.974	0.0138747
998.052	0.0138190
998.130	0.0139139
998.208	0.0138862
998.287	0.0138048
998.365	0.0138309
998.443	0.0140194
998.521	0.0138977
998.599	0.0138492
998.677	0.0139654
998.755	0.0139165
998.833	0.0138225
998.912	0.0137971
