05/04/2022	20:49:21	Ver.	4.1	UNKNOWN
Optical Delay	679.003072	Delta X		0.078125	Sweeps	1	Scan Rate	0/0
Coordinates	Axis 1	NaN	Axis 2	NaN	Axis 3	NaN	Axis 4	NaN	Axis 5	NaN	Axis 6	0.000000
TX Power	0.000000	RX Power	0.000000

679.003	0.0139595
679.081	0.0138206
679.159	0.0139742
679.237	0.0139261
679.316	0.0138455
679.394	0.0138945
679.472	0.0138058
679.550	0.0138926
679.628	0.0139156
679.706	0.0139922
679.784	0.0139358
679.862	0.0138835
679.941	0.0138007
680.019	0.0139111
680.097	0.0139008
680.175	0.0138763
680.253	0.0139500
680.331	0.0139254
680.409	0.0137473
680.487	0.0139604
680.566	0.0140240
680.644	0.0138667
680.722	0.0139894
680.800	0.0139706
680.878	0.0138888
680.956	0.0138908
681.034	0.0140075
681.112	0.0139642
681.191	0.0138548
681.269	0.0139749
681.347	0.0138268
681.425	0.0140403
681.503	0.0139591
681.581	0.0140006
681.659	0.0138735
681.737	0.0138818
681.816	0.0139450
681.894	0.0138388
681.972	0.0140102
682.050	0.0139086
682.128	0.0139600
682.206	0.0138911
682.284	0.0140353
682.362	0.0140831
682.441	0.0139680
682.519	0.0139395
682.597	0.0139529
682.675	0.0138657
682.753	0.0139439
682.831	0.0140021
682.909	0.0140740
682.987	0.0140337
683.066	0.0138266
683.144	0.0140701
683.222	0.0139571
683.300	0.0139783
683.378	0.0139671
683.456	0.0139308
683.534	0.0139108
683.612	0.0140314
683.691	0.0138857
683.769	0.0139845
683.847	0.0138982
683.925	0.0138457
684.003	0.0139558
684.081	0.0138063
684.159	0.0139880
684.237	0.0138824
684.316	0.0140517
684.394	0.0138609
684.472	0.0139102
684.550	0.0138387
684.628	0.0138895
684.706	0.0138969
684.784	0.0139293
684.862	0.0139288
684.941	0.0139021
685.019	0.0139095
685.097	0.0138382
685.175	0.0139211
685.253	0.0138869
685.331	0.0137543
685.409	0.0140438
685.487	0.0140047
685.566	0.0139461
685.644	0.0138505
685.722	0.0138129
685.800	0.0139480
685.878	0.0139128
685.956	0.0140569
686.034	0.0139226
686.112	0.0139914
686.191	0.0137650
686.269	0.0138073
686.347	0.0138858
686.425	0.0138500
686.503	0.0139616
686.581	0.0139868
686.659	0.0139743
686.737	0.0139499
686.816	0.0140080
686.894	0.0139663
686.972	0.0140141
687.050	0.0139412
687.128	0.0138373
687.206	0.0139007
687.284	0.0140628
687.362	0.0139788
687.441	0.0138335
687.519	0.0140536
687.597	0.0139609
687.675	0.0139672
687.753	0.0140271
687.831	0.0138920
687.909	0.0139467
687.987	0.0138567
688.066	0.0139198
688.144	0.0138814
688.222	0.0138417
688.300	0.0140511
688.378	0.0139539
688.456	0.0140831
688.534	0.0139837
688.612	0.0139059
688.691	0.0140096
688.769	0.0139682
688.847	0.0139243
688.925	0.0139259
689.003	0.0140144
689.081	0.0138464
689.159	0.0141249
689.237	0.0140423
689.316	0.0140988
689.394	0.0139314
689.472	0.0137186
689.550	0.0140057
689.628	0.0139213
689.706	0.0138991
689.784	0.0138953
689.862	0.0139162
689.941	0.0138586
690.019	0.0141349
690.097	0.0140213
690.175	0.0138276
690.253	0.0140452
690.331	0.0139881
690.409	0.0139529
690.487	0.0139434
690.566	0.0139136
690.644	0.0140533
690.722	0.0139932
690.800	0.0139994
690.878	0.0140245
690.956	0.0138747
691.034	0.0139874
691.112	0.0139683
691.191	0.0138994
691.269	0.0138697
691.347	0.0139677
691.425	0.0138718
691.503	0.0140648
691.581	0.0138376
691.659	0.0139071
691.737	0.0140375
691.816	0.0138185
691.894	0.0139082
691.972	0.0139572
692.050	0.0139201
692.128	0.0139481
692.206	0.0138529
692.284	0.0139571
692.362	0.0139579
692.441	0.0139559
692.519	0.0139297
692.597	0.0138873
692.675	0.0140200
692.753	0.0139480
692.831	0.0138899
692.909	0.0140208
692.987	0.0139290
693.066	0.0138704
693.144	0.0139327
693.222	0.0140265
693.300	0.0139320
693.378	0.0137194
693.456	0.0138400
693.534	0.0139148
693.612	0.0139452
693.691	0.0139323
693.769	0.0139824
693.847	0.0138790
693.925	0.0139753
694.003	0.0138751
694.081	0.0138730
694.159	0.0139245
694.237	0.0139793
694.316	0.0140099
694.394	0.0139024
694.472	0.0139417
694.550	0.0139990
694.628	0.0140317
694.706	0.0140379
694.784	0.0140141
694.862	0.0139964
694.941	0.0139609
695.019	0.0139719
695.097	0.0140365
695.175	0.0139364
695.253	0.0139575
695.331	0.0138394
695.409	0.0138132
695.487	0.0139801
695.566	0.0139627
695.644	0.0139295
695.722	0.0138284
695.800	0.0139987
695.878	0.0139671
695.956	0.0138153
696.034	0.0137871
696.112	0.0138857
696.191	0.0139169
696.269	0.0140006
696.347	0.0139262
696.425	0.0139718
696.503	0.0139893
696.581	0.0138596
696.659	0.0139155
696.737	0.0139342
696.816	0.0140625
696.894	0.0141201
696.972	0.0139600
697.050	0.0138279
697.128	0.0138676
697.206	0.0138699
697.284	0.0139246
697.362	0.0139459
697.441	0.0140048
697.519	0.0138731
697.597	0.0138869
697.675	0.0140375
697.753	0.0138250
697.831	0.0139098
697.909	0.0139909
697.987	0.0140086
698.066	0.0137166
698.144	0.0138940
698.222	0.0138999
698.300	0.0138416
698.378	0.0137513
698.456	0.0138192
698.534	0.0139326
698.612	0.0140575
698.691	0.0140492
698.769	0.0138871
698.847	0.0138837
698.925	0.0140285
699.003	0.0139973
699.081	0.0140515
699.159	0.0139610
699.237	0.0140447
699.316	0.0139517
699.394	0.0138270
699.472	0.0138801
699.550	0.0140100
699.628	0.0140350
699.706	0.0140327
699.784	0.0139523
699.862	0.0138421
699.941	0.0139641
700.019	0.0139960
700.097	0.0139394
700.175	0.0139500
700.253	0.0139059
700.331	0.0138302
700.409	0.0138591
700.487	0.0138937
700.566	0.0138824
700.644	0.0139436
700.722	0.0139407
700.800	0.0138586
700.878	0.0137721
700.956	0.0139504
701.034	0.0140244
701.112	0.0138964
701.191	0.0138795
701.269	0.0139121
701.347	0.0139998
701.425	0.0140144
701.503	0.0138033
701.581	0.0138995
701.659	0.0140316
701.737	0.0138641
701.816	0.0139063
701.894	0.0139266
701.972	0.0140705
702.050	0.0139447
702.128	0.0139404
702.206	0.0139122
702.284	0.0139238
702.362	0.0138653
702.441	0.0137997
702.519	0.0139088
702.597	0.0139874
702.675	0.0138876
702.753	0.0138262
702.831	0.0139077
702.909	0.0139474
702.987	0.0139208
703.066	0.0138725
703.144	0.0138649
703.222	0.0138818
703.300	0.0139900
703.378	0.0138039
703.456	0.0139060
703.534	0.0139182
703.612	0.0139610
703.691	0.0137957
703.769	0.0138882
703.847	0.0139513
703.925	0.0138419
704.003	0.0139393
704.081	0.0138104
704.159	0.0138087
704.237	0.0139114
704.316	0.0139781
704.394	0.0138505
704.472	0.0140230
704.550	0.0139372
704.628	0.0138111
704.706	0.0139485
704.784	0.0137831
704.862	0.0138942
704.941	0.0139984
705.019	0.0139479
705.097	0.0138638
705.175	0.0139159
705.253	0.0139557
705.331	0.0138332
705.409	0.0139672
705.487	0.0139117
705.566	0.0138723
705.644	0.0137981
705.722	0.0139893
705.800	0.0140044
705.878	0.0138750
705.956	0.0138207
706.034	0.0139094
706.112	0.0138923
706.191	0.0138333
706.269	0.0138729
706.347	0.0141054
706.425	0.0139292
706.503	0.0138271
706.581	0.0139225
706.659	0.0138808
706.737	0.0138444
706.816	0.0138668
706.894	0.0139616
706.972	0.0139149
707.050	0.0138786
707.128	0.0139138
707.206	0.0139265
707.284	0.0138924
707.362	0.0139756
707.441	0.0139735
707.519	0.0139313
707.597	0.0138639
707.675	0.0138796
707.753	0.0138264
707.831	0.0138441
707.909	0.0139644
707.987	0.0139373
708.066	0.0138083
708.144	0.0138660
708.222	0.0138929
708.300	0.0138838
708.378	0.0138705
708.456	0.0138342
708.534	0.0137531
708.612	0.0138921
708.691	0.0138485
708.769	0.0138295
708.847	0.0138904
708.925	0.0138541
709.003	0.0138815
709.081	0.0138474
709.159	0.0138969
709.237	0.0139257
709.316	0.0140135
709.394	0.0139164
709.472	0.0137881
709.550	0.0138210
709.628	0.0139221
709.706	0.0139333
709.784	0.0138298
709.862	0.0139511
709.941	0.0139403
710.019	0.0139271
710.097	0.0139478
710.175	0.0139587
710.253	0.0138904
710.331	0.0138107
710.409	0.0138642
710.487	0.0139048
710.566	0.0139336
710.644	0.0139361
710.722	0.0140234
710.800	0.0139354
710.878	0.0139365
710.956	0.0138140
711.034	0.0138947
711.112	0.0139006
711.191	0.0138034
711.269	0.0140572
711.347	0.0140115
711.425	0.0139925
711.503	0.0139864
711.581	0.0137836
711.659	0.0138722
711.737	0.0139360
711.816	0.0140179
711.894	0.0139207
711.972	0.0139271
712.050	0.0140146
712.128	0.0138972
712.206	0.0139895
712.284	0.0137982
712.362	0.0139191
712.441	0.0140337
712.519	0.0139849
712.597	0.0139242
712.675	0.0141420
712.753	0.0137994
712.831	0.0137614
712.909	0.0139098
712.987	0.0140890
713.066	0.0139065
713.144	0.0139143
713.222	0.0138187
713.300	0.0139569
713.378	0.0139787
713.456	0.0139356
713.534	0.0141061
713.612	0.0140844
713.691	0.0139707
713.769	0.0138200
713.847	0.0140835
713.925	0.0139439
714.003	0.0139857
714.081	0.0139840
714.159	0.0139612
714.237	0.0139319
714.316	0.0140598
714.394	0.0141093
714.472	0.0140536
714.550	0.0142108
714.628	0.0141054
714.706	0.0140456
714.784	0.0141029
714.862	0.0140900
714.941	0.0138937
715.019	0.0139573
715.097	0.0137468
715.175	0.0137563
715.253	0.0136724
715.331	0.0136863
715.409	0.0136880
715.487	0.0136262
715.566	0.0135973
715.644	0.0135637
715.722	0.0135294
715.800	0.0137011
715.878	0.0137547
715.956	0.0137875
716.034	0.0137913
716.112	0.0138573
716.191	0.0139156
716.269	0.0141356
716.347	0.0141389
716.425	0.0140453
716.503	0.0139994
716.581	0.0140541
716.659	0.0140788
716.737	0.0139371
716.816	0.0138872
716.894	0.0138242
716.972	0.0138819
717.050	0.0136880
717.128	0.0135435
717.206	0.0136112
717.284	0.0134946
717.362	0.0135570
717.441	0.0136285
717.519	0.0136586
717.597	0.0137310
717.675	0.0137242
717.753	0.0139069
717.831	0.0138120
717.909	0.0140257
717.987	0.0140624
718.066	0.0139141
718.144	0.0140426
718.222	0.0139757
718.300	0.0139633
718.378	0.0139312
718.456	0.0138541
718.534	0.0137377
718.612	0.0136535
718.691	0.0137189
718.769	0.0137997
718.847	0.0138667
718.925	0.0139230
719.003	0.0140437
719.081	0.0140154
719.159	0.0141995
719.237	0.0143292
719.316	0.0144006
719.394	0.0143930
719.472	0.0144672
719.550	0.0146569
719.628	0.0146366
719.706	0.0146526
719.784	0.0144083
719.862	0.0143708
719.941	0.0141415
720.019	0.0139933
720.097	0.0141087
720.175	0.0136697
720.253	0.0137038
720.331	0.0135336
720.409	0.0134740
720.487	0.0134190
720.566	0.0133721
720.644	0.0134213
720.722	0.0135809
720.800	0.0136933
720.878	0.0138642
720.956	0.0139572
721.034	0.0138835
721.112	0.0139460
721.191	0.0140154
721.269	0.0139220
721.347	0.0139636
721.425	0.0138636
721.503	0.0137907
721.581	0.0136479
721.659	0.0136649
721.737	0.0136514
721.816	0.0135754
721.894	0.0136694
721.972	0.0137626
722.050	0.0137735
722.128	0.0137041
722.206	0.0138896
722.284	0.0139211
722.362	0.0140157
722.441	0.0141658
722.519	0.0142513
722.597	0.0143776
722.675	0.0142068
722.753	0.0141428
722.831	0.0142430
722.909	0.0142625
722.987	0.0141493
723.066	0.0139686
723.144	0.0138936
723.222	0.0138690
723.300	0.0137072
723.378	0.0138507
723.456	0.0137464
723.534	0.0136920
723.612	0.0137663
723.691	0.0138753
723.769	0.0137040
723.847	0.0137833
723.925	0.0139101
724.003	0.0140153
724.081	0.0140779
724.159	0.0141164
724.237	0.0142476
724.316	0.0143233
724.394	0.0144537
724.472	0.0142015
724.550	0.0143661
724.628	0.0145004
724.706	0.0143709
724.784	0.0141034
724.862	0.0142112
724.941	0.0141761
725.019	0.0141802
725.097	0.0141653
725.175	0.0139830
725.253	0.0138007
725.331	0.0138367
725.409	0.0139117
725.487	0.0139583
725.566	0.0138991
725.644	0.0138212
725.722	0.0139575
725.800	0.0141290
725.878	0.0140856
725.956	0.0140445
726.034	0.0140832
726.112	0.0140585
726.191	0.0143294
726.269	0.0142095
726.347	0.0140650
726.425	0.0139970
726.503	0.0139938
726.581	0.0139592
726.659	0.0138012
726.737	0.0135976
726.816	0.0137347
726.894	0.0137620
726.972	0.0135795
727.050	0.0136578
727.128	0.0137184
727.206	0.0137647
727.284	0.0136298
727.362	0.0136674
727.441	0.0138393
727.519	0.0136727
727.597	0.0138853
727.675	0.0139853
727.753	0.0141930
727.831	0.0142360
727.909	0.0141721
727.987	0.0142854
728.066	0.0142838
728.144	0.0142559
728.222	0.0141114
728.300	0.0143284
728.378	0.0141072
728.456	0.0140316
728.534	0.0139479
728.612	0.0138108
728.691	0.0136652
728.769	0.0136562
728.847	0.0136717
728.925	0.0137902
729.003	0.0136693
729.081	0.0137902
729.159	0.0138841
729.237	0.0139370
729.316	0.0139754
729.394	0.0140871
729.472	0.0141245
729.550	0.0141455
729.628	0.0141123
729.706	0.0140767
729.784	0.0142203
729.862	0.0141411
729.941	0.0143385
730.019	0.0143172
730.097	0.0140797
730.175	0.0141008
730.253	0.0140359
730.331	0.0139657
730.409	0.0139324
730.487	0.0138857
730.566	0.0138284
730.644	0.0139130
730.722	0.0139312
730.800	0.0137619
730.878	0.0138836
730.956	0.0139989
731.034	0.0141015
731.112	0.0140055
731.191	0.0140895
731.269	0.0140803
731.347	0.0140510
731.425	0.0140759
731.503	0.0140372
731.581	0.0141281
731.659	0.0140114
731.737	0.0138271
731.816	0.0138044
731.894	0.0138791
731.972	0.0139205
732.050	0.0138786
732.128	0.0137366
732.206	0.0137569
732.284	0.0138026
732.362	0.0136971
732.441	0.0137459
732.519	0.0137022
732.597	0.0136325
732.675	0.0137608
732.753	0.0138184
732.831	0.0137936
732.909	0.0138127
732.987	0.0138843
733.066	0.0137015
733.144	0.0139711
733.222	0.0138385
733.300	0.0137828
733.378	0.0137908
733.456	0.0138119
733.534	0.0138207
733.612	0.0138844
733.691	0.0138535
733.769	0.0138934
733.847	0.0140803
733.925	0.0141898
734.003	0.0139635
734.081	0.0139808
734.159	0.0140195
734.237	0.0140703
734.316	0.0141771
734.394	0.0141314
734.472	0.0141150
734.550	0.0139848
734.628	0.0139569
734.706	0.0139967
734.784	0.0140266
734.862	0.0140720
734.941	0.0139816
735.019	0.0139110
735.097	0.0138525
735.175	0.0138076
735.253	0.0138941
735.331	0.0138235
735.409	0.0138674
735.487	0.0140147
735.566	0.0138987
735.644	0.0138993
735.722	0.0138468
735.800	0.0137939
735.878	0.0139017
735.956	0.0139947
736.034	0.0139731
736.112	0.0139555
736.191	0.0140939
736.269	0.0140700
736.347	0.0140056
736.425	0.0140122
736.503	0.0140691
736.581	0.0140168
736.659	0.0139646
736.737	0.0138392
736.816	0.0139005
736.894	0.0139931
736.972	0.0139461
737.050	0.0138935
737.128	0.0139295
737.206	0.0136985
737.284	0.0137564
737.362	0.0137868
737.441	0.0136974
737.519	0.0136799
737.597	0.0136596
737.675	0.0136250
737.753	0.0137296
737.831	0.0137997
737.909	0.0137396
737.987	0.0138420
738.066	0.0139151
738.144	0.0138642
738.222	0.0139104
738.300	0.0139870
738.378	0.0139078
738.456	0.0139925
738.534	0.0139590
738.612	0.0139239
738.691	0.0139789
738.769	0.0140058
738.847	0.0138967
738.925	0.0139175
739.003	0.0139072
739.081	0.0139214
739.159	0.0138408
739.237	0.0138879
739.316	0.0138750
739.394	0.0137723
739.472	0.0139033
739.550	0.0140327
739.628	0.0138936
739.706	0.0138703
739.784	0.0139600
739.862	0.0139690
739.941	0.0139728
740.019	0.0140429
740.097	0.0141146
740.175	0.0141450
740.253	0.0139899
740.331	0.0140650
740.409	0.0141250
740.487	0.0140490
740.566	0.0139952
740.644	0.0140539
740.722	0.0139239
740.800	0.0139730
740.878	0.0139788
740.956	0.0140735
741.034	0.0140402
741.112	0.0138548
741.191	0.0138622
741.269	0.0139626
741.347	0.0139339
741.425	0.0140594
741.503	0.0138765
741.581	0.0138151
741.659	0.0137525
741.737	0.0137906
741.816	0.0138689
741.894	0.0137310
741.972	0.0135255
742.050	0.0137348
742.128	0.0138464
742.206	0.0137328
742.284	0.0136745
742.362	0.0138004
742.441	0.0138400
742.519	0.0138794
742.597	0.0139462
742.675	0.0140144
742.753	0.0140066
742.831	0.0140457
742.909	0.0140823
742.987	0.0141402
743.066	0.0140010
743.144	0.0141525
743.222	0.0141326
743.300	0.0140383
743.378	0.0141518
743.456	0.0141231
743.534	0.0139840
743.612	0.0139767
743.691	0.0141108
743.769	0.0139272
743.847	0.0139732
743.925	0.0140070
744.003	0.0139668
744.081	0.0140197
744.159	0.0139001
744.237	0.0139320
744.316	0.0140216
744.394	0.0139256
744.472	0.0139548
744.550	0.0138460
744.628	0.0138091
744.706	0.0139101
744.784	0.0138575
744.862	0.0138419
744.941	0.0139677
745.019	0.0139568
745.097	0.0138640
745.175	0.0138411
745.253	0.0139539
745.331	0.0139242
745.409	0.0139594
745.487	0.0138613
745.566	0.0140940
745.644	0.0141920
745.722	0.0140961
745.800	0.0139347
745.878	0.0139914
745.956	0.0140384
746.034	0.0140031
746.112	0.0140045
746.191	0.0140159
746.269	0.0138590
746.347	0.0138481
746.425	0.0139907
746.503	0.0140126
746.581	0.0140086
746.659	0.0140212
746.737	0.0139932
746.816	0.0140049
746.894	0.0141337
746.972	0.0141031
747.050	0.0139899
747.128	0.0140839
747.206	0.0140597
747.284	0.0139367
747.362	0.0140209
747.441	0.0139335
747.519	0.0138432
747.597	0.0140325
747.675	0.0140105
747.753	0.0139375
747.831	0.0139845
747.909	0.0138777
747.987	0.0138724
748.066	0.0138944
748.144	0.0139437
748.222	0.0139715
748.300	0.0138530
748.378	0.0138977
748.456	0.0139487
748.534	0.0140369
748.612	0.0140467
748.691	0.0140688
748.769	0.0140668
748.847	0.0140046
748.925	0.0140291
749.003	0.0139481
749.081	0.0139523
749.159	0.0139823
749.237	0.0138370
749.316	0.0139461
749.394	0.0139393
749.472	0.0137712
749.550	0.0137154
749.628	0.0137424
749.706	0.0137579
749.784	0.0138726
749.862	0.0137537
749.941	0.0139493
750.019	0.0137625
750.097	0.0138117
750.175	0.0138522
750.253	0.0139733
750.331	0.0138976
750.409	0.0138744
750.487	0.0139275
750.566	0.0139532
750.644	0.0140518
750.722	0.0141222
750.800	0.0140733
750.878	0.0140695
750.956	0.0140534
751.034	0.0140112
751.112	0.0140604
751.191	0.0141259
751.269	0.0139086
751.347	0.0138843
751.425	0.0138107
751.503	0.0140279
751.581	0.0138995
751.659	0.0138446
751.737	0.0139435
751.816	0.0139378
751.894	0.0139143
751.972	0.0138365
752.050	0.0138812
752.128	0.0139355
752.206	0.0138551
752.284	0.0139323
752.362	0.0140120
752.441	0.0139674
752.519	0.0139219
752.597	0.0139137
752.675	0.0139640
752.753	0.0138810
752.831	0.0139832
752.909	0.0138818
752.987	0.0138694
753.066	0.0139352
753.144	0.0140846
753.222	0.0139156
753.300	0.0139827
753.378	0.0139214
753.456	0.0139376
753.534	0.0139253
753.612	0.0141766
753.691	0.0140152
753.769	0.0138877
753.847	0.0139328
753.925	0.0138851
754.003	0.0139207
754.081	0.0137996
754.159	0.0138867
754.237	0.0138221
754.316	0.0138235
754.394	0.0139063
754.472	0.0139627
754.550	0.0138195
754.628	0.0138613
754.706	0.0138372
754.784	0.0139318
754.862	0.0139938
754.941	0.0138801
755.019	0.0140173
755.097	0.0139223
755.175	0.0139470
755.253	0.0138582
755.331	0.0139050
755.409	0.0138451
755.487	0.0139565
755.566	0.0139515
755.644	0.0139368
755.722	0.0138792
755.800	0.0139178
755.878	0.0138737
755.956	0.0139076
756.034	0.0137891
756.112	0.0138129
756.191	0.0138895
756.269	0.0138148
756.347	0.0139456
756.425	0.0141168
756.503	0.0138766
756.581	0.0139417
756.659	0.0139281
756.737	0.0140514
756.816	0.0139050
756.894	0.0138465
756.972	0.0139157
757.050	0.0138995
757.128	0.0139310
757.206	0.0139719
757.284	0.0140024
757.362	0.0138396
757.441	0.0139007
757.519	0.0138891
757.597	0.0139619
757.675	0.0139750
757.753	0.0140942
757.831	0.0140087
757.909	0.0141770
757.987	0.0139761
758.066	0.0139640
758.144	0.0141202
758.222	0.0139832
758.300	0.0141351
758.378	0.0140620
758.456	0.0141242
758.534	0.0140150
758.612	0.0141006
758.691	0.0142356
758.769	0.0140043
758.847	0.0140083
758.925	0.0140702
759.003	0.0139600
759.081	0.0138255
759.159	0.0141025
759.237	0.0140603
759.316	0.0139934
759.394	0.0140422
759.472	0.0139868
759.550	0.0139188
759.628	0.0138696
759.706	0.0140195
759.784	0.0139928
759.862	0.0139157
759.941	0.0139433
760.019	0.0138474
760.097	0.0137728
760.175	0.0137856
760.253	0.0138471
760.331	0.0137070
760.409	0.0137295
760.487	0.0139456
760.566	0.0138770
760.644	0.0139831
760.722	0.0138161
760.800	0.0139360
760.878	0.0139493
760.956	0.0138380
761.034	0.0138990
761.112	0.0140556
761.191	0.0139166
761.269	0.0140987
761.347	0.0140199
761.425	0.0140334
761.503	0.0139658
761.581	0.0139988
761.659	0.0138350
761.737	0.0138245
761.816	0.0138982
761.894	0.0138368
761.972	0.0139003
762.050	0.0139276
762.128	0.0139647
762.206	0.0140364
762.284	0.0140456
762.362	0.0140593
762.441	0.0140041
762.519	0.0140366
762.597	0.0139374
762.675	0.0139899
762.753	0.0141120
762.831	0.0139909
762.909	0.0139816
762.987	0.0140388
763.066	0.0139736
763.144	0.0139819
763.222	0.0138905
763.300	0.0140952
763.378	0.0140573
763.456	0.0139912
763.534	0.0138524
763.612	0.0139986
763.691	0.0139780
763.769	0.0139791
763.847	0.0139606
763.925	0.0138729
764.003	0.0139698
764.081	0.0138464
764.159	0.0138876
764.237	0.0139469
764.316	0.0138961
764.394	0.0140308
764.472	0.0138573
764.550	0.0138573
764.628	0.0139286
764.706	0.0138139
764.784	0.0138879
764.862	0.0138290
764.941	0.0139389
765.019	0.0138857
765.097	0.0140084
765.175	0.0139639
765.253	0.0138985
765.331	0.0140184
765.409	0.0140647
765.487	0.0139312
765.566	0.0138204
765.644	0.0139042
765.722	0.0138335
765.800	0.0139999
765.878	0.0139293
765.956	0.0139771
766.034	0.0139553
766.112	0.0139070
766.191	0.0140022
766.269	0.0137357
766.347	0.0138801
766.425	0.0139894
766.503	0.0137503
766.581	0.0136924
766.659	0.0138156
766.737	0.0138480
766.816	0.0138844
766.894	0.0139282
766.972	0.0138574
767.050	0.0138254
767.128	0.0138924
767.206	0.0137994
767.284	0.0138393
767.362	0.0140015
767.441	0.0138808
767.519	0.0139060
767.597	0.0140132
767.675	0.0139054
767.753	0.0139179
767.831	0.0139905
767.909	0.0138161
767.987	0.0139367
768.066	0.0139475
768.144	0.0139555
768.222	0.0139561
768.300	0.0140401
768.378	0.0140393
768.456	0.0140243
768.534	0.0139267
768.612	0.0140476
768.691	0.0140480
768.769	0.0139000
768.847	0.0141018
768.925	0.0139951
769.003	0.0138409
769.081	0.0139365
769.159	0.0140551
769.237	0.0139988
769.316	0.0138282
769.394	0.0139919
769.472	0.0139835
769.550	0.0139589
769.628	0.0138731
769.706	0.0140089
769.784	0.0139053
769.862	0.0139886
769.941	0.0138703
770.019	0.0140503
770.097	0.0140247
770.175	0.0139249
770.253	0.0138828
770.331	0.0138650
770.409	0.0139633
770.487	0.0138737
770.566	0.0138927
770.644	0.0139079
770.722	0.0140350
770.800	0.0138148
770.878	0.0138371
770.956	0.0138703
771.034	0.0138464
771.112	0.0137875
771.191	0.0140559
771.269	0.0140247
771.347	0.0138957
771.425	0.0138662
771.503	0.0139246
771.581	0.0139613
771.659	0.0138617
771.737	0.0138855
771.816	0.0139175
771.894	0.0138924
771.972	0.0138069
772.050	0.0138850
772.128	0.0140495
772.206	0.0139217
772.284	0.0138171
772.362	0.0138996
772.441	0.0137014
772.519	0.0138745
772.597	0.0139732
772.675	0.0139649
772.753	0.0138481
772.831	0.0138087
772.909	0.0139169
772.987	0.0137393
773.066	0.0138332
773.144	0.0138720
773.222	0.0140084
773.300	0.0139072
773.378	0.0139967
773.456	0.0140185
773.534	0.0138921
773.612	0.0139218
773.691	0.0139048
773.769	0.0139310
773.847	0.0139388
773.925	0.0139455
774.003	0.0139787
774.081	0.0140356
774.159	0.0139917
774.237	0.0139705
774.316	0.0138655
774.394	0.0139243
774.472	0.0138877
774.550	0.0139734
774.628	0.0139014
774.706	0.0138981
774.784	0.0139687
774.862	0.0139095
774.941	0.0139227
775.019	0.0138436
775.097	0.0138940
775.175	0.0137818
775.253	0.0138303
775.331	0.0140063
775.409	0.0138219
775.487	0.0137944
775.566	0.0137237
775.644	0.0138884
775.722	0.0139150
775.800	0.0139823
775.878	0.0138360
775.956	0.0138963
776.034	0.0138111
776.112	0.0140100
776.191	0.0140759
776.269	0.0139229
776.347	0.0138195
776.425	0.0140298
776.503	0.0138742
776.581	0.0139900
776.659	0.0139468
776.737	0.0139638
776.816	0.0139918
776.894	0.0139135
776.972	0.0138855
777.050	0.0138170
777.128	0.0139501
777.206	0.0138825
777.284	0.0139751
777.362	0.0138453
777.441	0.0138197
777.519	0.0138490
777.597	0.0139779
777.675	0.0139796
777.753	0.0138932
777.831	0.0138396
777.909	0.0137835
777.987	0.0138820
778.066	0.0139133
778.144	0.0138983
778.222	0.0139206
778.300	0.0138404
778.378	0.0138575
778.456	0.0140089
778.534	0.0138747
778.612	0.0138044
778.691	0.0139179
778.769	0.0138316
778.847	0.0138610
778.925	0.0139748
779.003	0.0139504
779.081	0.0139331
779.159	0.0140849
779.237	0.0138878
779.316	0.0139561
779.394	0.0140274
779.472	0.0138350
779.550	0.0139603
779.628	0.0139226
779.706	0.0139097
779.784	0.0139349
779.862	0.0139156
779.941	0.0139073
780.019	0.0140252
780.097	0.0139944
780.175	0.0139465
780.253	0.0139325
780.331	0.0138524
780.409	0.0139554
780.487	0.0139156
780.566	0.0139599
780.644	0.0140694
780.722	0.0141467
780.800	0.0140137
780.878	0.0139929
780.956	0.0138255
781.034	0.0139127
781.112	0.0139315
781.191	0.0140137
781.269	0.0140102
781.347	0.0139590
781.425	0.0137930
781.503	0.0140146
781.581	0.0139754
781.659	0.0139986
781.737	0.0140580
781.816	0.0139949
781.894	0.0140076
781.972	0.0138185
782.050	0.0139439
782.128	0.0138932
782.206	0.0139533
782.284	0.0138596
782.362	0.0138473
782.441	0.0139043
782.519	0.0139547
782.597	0.0139860
782.675	0.0139356
782.753	0.0138866
782.831	0.0139335
782.909	0.0138606
782.987	0.0137457
783.066	0.0139092
783.144	0.0139317
783.222	0.0139507
783.300	0.0139283
783.378	0.0139254
783.456	0.0138492
783.534	0.0139116
783.612	0.0138268
783.691	0.0139318
783.769	0.0139127
783.847	0.0139861
783.925	0.0138287
784.003	0.0139710
784.081	0.0139828
784.159	0.0140119
784.237	0.0139586
784.316	0.0138721
784.394	0.0138763
784.472	0.0139297
784.550	0.0139941
784.628	0.0139790
784.706	0.0139217
784.784	0.0138719
784.862	0.0139600
784.941	0.0140045
785.019	0.0139478
785.097	0.0138847
785.175	0.0138957
785.253	0.0139235
785.331	0.0139046
785.409	0.0140261
785.487	0.0140087
785.566	0.0139812
785.644	0.0139319
785.722	0.0138992
785.800	0.0138507
785.878	0.0139510
785.956	0.0138889
786.034	0.0139309
786.112	0.0140128
786.191	0.0138913
786.269	0.0139683
786.347	0.0140108
786.425	0.0140662
786.503	0.0138840
786.581	0.0141188
786.659	0.0140878
786.737	0.0139136
786.816	0.0140880
786.894	0.0139403
786.972	0.0141953
787.050	0.0140449
787.128	0.0138307
787.206	0.0140424
787.284	0.0139898
787.362	0.0139292
787.441	0.0139190
787.519	0.0139889
787.597	0.0138624
787.675	0.0138824
787.753	0.0139920
787.831	0.0137541
787.909	0.0138316
787.987	0.0139179
788.066	0.0139290
788.144	0.0138908
788.222	0.0139919
788.300	0.0139471
788.378	0.0138875
788.456	0.0139765
788.534	0.0139878
788.612	0.0139511
788.691	0.0139114
788.769	0.0139636
788.847	0.0138972
788.925	0.0138267
789.003	0.0138913
789.081	0.0139407
789.159	0.0140221
789.237	0.0139426
789.316	0.0140514
789.394	0.0140164
789.472	0.0138914
789.550	0.0139894
789.628	0.0139809
789.706	0.0139116
789.784	0.0140338
789.862	0.0138432
789.941	0.0138933
790.019	0.0138239
790.097	0.0140458
790.175	0.0139010
790.253	0.0140155
790.331	0.0139536
790.409	0.0138933
790.487	0.0138871
790.566	0.0139640
790.644	0.0139084
790.722	0.0139699
790.800	0.0138166
790.878	0.0139429
790.956	0.0138804
791.034	0.0139206
791.112	0.0140220
791.191	0.0140307
791.269	0.0139770
791.347	0.0139132
791.425	0.0139352
791.503	0.0139613
791.581	0.0139340
791.659	0.0139373
791.737	0.0140262
791.816	0.0138216
791.894	0.0139613
791.972	0.0139124
792.050	0.0138992
792.128	0.0138947
792.206	0.0139995
792.284	0.0139218
792.362	0.0138401
792.441	0.0140121
792.519	0.0141226
792.597	0.0139229
792.675	0.0137658
792.753	0.0139158
792.831	0.0139550
792.909	0.0140020
792.987	0.0139674
793.066	0.0138840
793.144	0.0138590
793.222	0.0138119
793.300	0.0139114
793.378	0.0139548
793.456	0.0140005
793.534	0.0139507
793.612	0.0138678
793.691	0.0138329
793.769	0.0139719
793.847	0.0140075
793.925	0.0139611
794.003	0.0139393
794.081	0.0139986
794.159	0.0139883
794.237	0.0139966
794.316	0.0139758
794.394	0.0138740
794.472	0.0139270
794.550	0.0139571
794.628	0.0139535
794.706	0.0139647
794.784	0.0141259
794.862	0.0139497
794.941	0.0138869
795.019	0.0139801
795.097	0.0139469
795.175	0.0139546
795.253	0.0138314
795.331	0.0138398
795.409	0.0138800
795.487	0.0139309
795.566	0.0139816
795.644	0.0138807
795.722	0.0138976
795.800	0.0139069
795.878	0.0139030
795.956	0.0139200
796.034	0.0140367
796.112	0.0138901
796.191	0.0138571
796.269	0.0138772
796.347	0.0139762
796.425	0.0139526
796.503	0.0140083
796.581	0.0140383
796.659	0.0138922
796.737	0.0140008
796.816	0.0139646
796.894	0.0138592
796.972	0.0138902
797.050	0.0138827
797.128	0.0140308
797.206	0.0139828
797.284	0.0139671
797.362	0.0138799
797.441	0.0140144
797.519	0.0138577
797.597	0.0138531
797.675	0.0139420
797.753	0.0138724
797.831	0.0137670
797.909	0.0139022
797.987	0.0140233
798.066	0.0139491
798.144	0.0138032
798.222	0.0138046
798.300	0.0139390
798.378	0.0138247
798.456	0.0140005
798.534	0.0138437
798.612	0.0139410
798.691	0.0138006
798.769	0.0137340
798.847	0.0139484
798.925	0.0138789
799.003	0.0137661
799.081	0.0138145
799.159	0.0139801
799.237	0.0139485
799.316	0.0137476
799.394	0.0140010
799.472	0.0139650
799.550	0.0138304
799.628	0.0139698
799.706	0.0139678
799.784	0.0138804
799.862	0.0139207
799.941	0.0138236
800.019	0.0137112
800.097	0.0139716
800.175	0.0138055
800.253	0.0138041
800.331	0.0137885
800.409	0.0137048
800.487	0.0138428
800.566	0.0138646
800.644	0.0138619
800.722	0.0139798
800.800	0.0138802
800.878	0.0140257
800.956	0.0138378
801.034	0.0139568
801.112	0.0138774
801.191	0.0138921
801.269	0.0138699
801.347	0.0137306
801.425	0.0139066
801.503	0.0140079
801.581	0.0139648
801.659	0.0139206
801.737	0.0138686
801.816	0.0138303
801.894	0.0138702
801.972	0.0138375
802.050	0.0140186
802.128	0.0139437
802.206	0.0139018
802.284	0.0139243
802.362	0.0140665
802.441	0.0139069
802.519	0.0138201
802.597	0.0138439
802.675	0.0138494
802.753	0.0139671
802.831	0.0140126
802.909	0.0139839
802.987	0.0139534
803.066	0.0139294
803.144	0.0138847
803.222	0.0138456
803.300	0.0139500
803.378	0.0139846
803.456	0.0137439
803.534	0.0138718
803.612	0.0138397
803.691	0.0137800
803.769	0.0138775
803.847	0.0139143
803.925	0.0138902
804.003	0.0139478
804.081	0.0140657
804.159	0.0139117
804.237	0.0138614
804.316	0.0139700
804.394	0.0139524
804.472	0.0138387
804.550	0.0139169
804.628	0.0139817
804.706	0.0139605
804.784	0.0139386
804.862	0.0138557
804.941	0.0139651
805.019	0.0139640
805.097	0.0140377
805.175	0.0138811
805.253	0.0139207
805.331	0.0139983
805.409	0.0139483
805.487	0.0140108
805.566	0.0139426
805.644	0.0139014
805.722	0.0140309
805.800	0.0139391
805.878	0.0139452
805.956	0.0140576
806.034	0.0138421
806.112	0.0140250
806.191	0.0139603
806.269	0.0140308
806.347	0.0140417
806.425	0.0140586
806.503	0.0139678
806.581	0.0140460
806.659	0.0139751
806.737	0.0139877
806.816	0.0140269
806.894	0.0140356
806.972	0.0138652
807.050	0.0140565
807.128	0.0140308
807.206	0.0140356
807.284	0.0138976
807.362	0.0139117
807.441	0.0140573
807.519	0.0138956
807.597	0.0139857
807.675	0.0138853
807.753	0.0138026
807.831	0.0139864
807.909	0.0140184
807.987	0.0139165
808.066	0.0138519
808.144	0.0138979
808.222	0.0138504
808.300	0.0138462
808.378	0.0138908
808.456	0.0138945
808.534	0.0139998
808.612	0.0140109
808.691	0.0138015
808.769	0.0139385
808.847	0.0140546
808.925	0.0140190
809.003	0.0140341
809.081	0.0139329
809.159	0.0139687
809.237	0.0139066
809.316	0.0139141
809.394	0.0139236
809.472	0.0140471
809.550	0.0140072
809.628	0.0138649
809.706	0.0138877
809.784	0.0138953
809.862	0.0138480
809.941	0.0138903
810.019	0.0139649
810.097	0.0139796
810.175	0.0139458
810.253	0.0138031
810.331	0.0138102
810.409	0.0138811
810.487	0.0139011
810.566	0.0139021
810.644	0.0138826
810.722	0.0137877
810.800	0.0137173
810.878	0.0138253
810.956	0.0139317
811.034	0.0139395
811.112	0.0139325
811.191	0.0139040
811.269	0.0138209
811.347	0.0139288
811.425	0.0138931
811.503	0.0140720
811.581	0.0141047
811.659	0.0138420
811.737	0.0139009
811.816	0.0138789
811.894	0.0140442
811.972	0.0140977
812.050	0.0139846
812.128	0.0137505
812.206	0.0138975
812.284	0.0138859
812.362	0.0138642
812.441	0.0138633
812.519	0.0139374
812.597	0.0138483
812.675	0.0138708
812.753	0.0138588
812.831	0.0138300
812.909	0.0138531
812.987	0.0138142
813.066	0.0139952
813.144	0.0138583
813.222	0.0138363
813.300	0.0139948
813.378	0.0139493
813.456	0.0139785
813.534	0.0139020
813.612	0.0138488
813.691	0.0137965
813.769	0.0139673
813.847	0.0137882
813.925	0.0139081
814.003	0.0138734
814.081	0.0138682
814.159	0.0138364
814.237	0.0137921
814.316	0.0139200
814.394	0.0139610
814.472	0.0137629
814.550	0.0137068
814.628	0.0138927
814.706	0.0139619
814.784	0.0137984
814.862	0.0137398
814.941	0.0139122
815.019	0.0138974
815.097	0.0138309
815.175	0.0138393
815.253	0.0140446
815.331	0.0139104
815.409	0.0137981
815.487	0.0138502
815.566	0.0138594
815.644	0.0139315
815.722	0.0139483
815.800	0.0139708
815.878	0.0139076
815.956	0.0138500
816.034	0.0138346
816.112	0.0139482
816.191	0.0139914
816.269	0.0139140
816.347	0.0139531
816.425	0.0138124
816.503	0.0138448
816.581	0.0139291
816.659	0.0139777
816.737	0.0138785
816.816	0.0139240
816.894	0.0140394
816.972	0.0138481
817.050	0.0139632
817.128	0.0138966
817.206	0.0138239
817.284	0.0139052
817.362	0.0138818
817.441	0.0139314
817.519	0.0138523
817.597	0.0138840
817.675	0.0140443
817.753	0.0139658
817.831	0.0139157
817.909	0.0139877
817.987	0.0139193
818.066	0.0139792
818.144	0.0139259
818.222	0.0139771
818.300	0.0139354
818.378	0.0140089
818.456	0.0140184
818.534	0.0140565
818.612	0.0140848
818.691	0.0139316
818.769	0.0138793
818.847	0.0139270
818.925	0.0138366
819.003	0.0139682
819.081	0.0139117
819.159	0.0139982
819.237	0.0138773
819.316	0.0139243
819.394	0.0139526
819.472	0.0139116
819.550	0.0137992
819.628	0.0139842
819.706	0.0140351
819.784	0.0139807
819.862	0.0139124
819.941	0.0139693
820.019	0.0138559
820.097	0.0138887
820.175	0.0139233
820.253	0.0139116
820.331	0.0138644
820.409	0.0138129
820.487	0.0138995
820.566	0.0139546
820.644	0.0140725
820.722	0.0139824
820.800	0.0138353
820.878	0.0138521
820.956	0.0138329
821.034	0.0137280
821.112	0.0138591
821.191	0.0140086
821.269	0.0138396
821.347	0.0138142
821.425	0.0139270
821.503	0.0137632
821.581	0.0138567
821.659	0.0139018
821.737	0.0138446
821.816	0.0138096
821.894	0.0137844
821.972	0.0138936
822.050	0.0138584
822.128	0.0139722
822.206	0.0139006
822.284	0.0138641
822.362	0.0138354
822.441	0.0138883
822.519	0.0137643
822.597	0.0138140
822.675	0.0138229
822.753	0.0139045
822.831	0.0138946
822.909	0.0136651
822.987	0.0137450
823.066	0.0137892
823.144	0.0138224
823.222	0.0137100
823.300	0.0139377
823.378	0.0139535
823.456	0.0138528
823.534	0.0137305
823.612	0.0137216
823.691	0.0140002
823.769	0.0137325
823.847	0.0138738
823.925	0.0138181
824.003	0.0138053
824.081	0.0139063
824.159	0.0139793
824.237	0.0138619
824.316	0.0139143
824.394	0.0138182
824.472	0.0138668
824.550	0.0139151
824.628	0.0138213
824.706	0.0138875
824.784	0.0138710
824.862	0.0138242
824.941	0.0140022
825.019	0.0139112
825.097	0.0137960
825.175	0.0139169
825.253	0.0139189
825.331	0.0139576
825.409	0.0139912
825.487	0.0139861
825.566	0.0139024
825.644	0.0139590
825.722	0.0138557
825.800	0.0139744
825.878	0.0140448
825.956	0.0139397
826.034	0.0139856
826.112	0.0138915
826.191	0.0138985
826.269	0.0139452
826.347	0.0141204
826.425	0.0140255
826.503	0.0139332
826.581	0.0138955
826.659	0.0141001
826.737	0.0139418
826.816	0.0139731
826.894	0.0139299
826.972	0.0139349
827.050	0.0139607
827.128	0.0140518
827.206	0.0139565
827.284	0.0139365
827.362	0.0140015
827.441	0.0139482
827.519	0.0140046
827.597	0.0140304
827.675	0.0140739
827.753	0.0139058
827.831	0.0140061
827.909	0.0139608
827.987	0.0139819
828.066	0.0140071
828.144	0.0138120
828.222	0.0139452
828.300	0.0140014
828.378	0.0140128
828.456	0.0139246
828.534	0.0140601
828.612	0.0140260
828.691	0.0138816
828.769	0.0139510
828.847	0.0139644
828.925	0.0138560
829.003	0.0138425
829.081	0.0139351
829.159	0.0139636
829.237	0.0138612
829.316	0.0138477
829.394	0.0139316
829.472	0.0139928
829.550	0.0139731
829.628	0.0139847
829.706	0.0138290
829.784	0.0139380
829.862	0.0139539
829.941	0.0138897
830.019	0.0137901
830.097	0.0139133
830.175	0.0137072
830.253	0.0137208
830.331	0.0139274
830.409	0.0138689
830.487	0.0138542
830.566	0.0138425
830.644	0.0138999
830.722	0.0139368
830.800	0.0138824
830.878	0.0138880
830.956	0.0138184
831.034	0.0139391
831.112	0.0138364
831.191	0.0138065
831.269	0.0137525
831.347	0.0137089
831.425	0.0137968
831.503	0.0138687
831.581	0.0137048
831.659	0.0137569
831.737	0.0137737
831.816	0.0138633
831.894	0.0136772
831.972	0.0138646
832.050	0.0137708
832.128	0.0139210
832.206	0.0139222
832.284	0.0139348
832.362	0.0136749
832.441	0.0136811
832.519	0.0138399
832.597	0.0136633
832.675	0.0138394
832.753	0.0137178
832.831	0.0138407
832.909	0.0137449
832.987	0.0139317
833.066	0.0139248
833.144	0.0138329
833.222	0.0137921
833.300	0.0138329
833.378	0.0139576
833.456	0.0139594
833.534	0.0139921
833.612	0.0139048
833.691	0.0137857
833.769	0.0139183
833.847	0.0138705
833.925	0.0139178
834.003	0.0139212
834.081	0.0138752
834.159	0.0139733
834.237	0.0138049
834.316	0.0138357
834.394	0.0138351
834.472	0.0139488
834.550	0.0139574
834.628	0.0137975
834.706	0.0139523
834.784	0.0139012
834.862	0.0138248
834.941	0.0139790
835.019	0.0137682
835.097	0.0137503
835.175	0.0139157
835.253	0.0139142
835.331	0.0138921
835.409	0.0138131
835.487	0.0137671
835.566	0.0138731
835.644	0.0139204
835.722	0.0138421
835.800	0.0139452
835.878	0.0139410
835.956	0.0138276
836.034	0.0138207
836.112	0.0140072
836.191	0.0139970
836.269	0.0139307
836.347	0.0139156
836.425	0.0139965
836.503	0.0137946
836.581	0.0138783
836.659	0.0138773
836.737	0.0138657
836.816	0.0139810
836.894	0.0139206
836.972	0.0140647
837.050	0.0139030
837.128	0.0139693
837.206	0.0139272
837.284	0.0139815
837.362	0.0139431
837.441	0.0140304
837.519	0.0139638
837.597	0.0140752
837.675	0.0139816
837.753	0.0138430
837.831	0.0139055
837.909	0.0139212
837.987	0.0139204
838.066	0.0139523
838.144	0.0139981
838.222	0.0140292
838.300	0.0140845
838.378	0.0139752
838.456	0.0138715
838.534	0.0140022
838.612	0.0138963
838.691	0.0139741
838.769	0.0139981
838.847	0.0139927
838.925	0.0137459
839.003	0.0137154
839.081	0.0139816
839.159	0.0139429
839.237	0.0139053
839.316	0.0140256
839.394	0.0140218
839.472	0.0138470
839.550	0.0138396
839.628	0.0139006
839.706	0.0139904
839.784	0.0137891
839.862	0.0138087
839.941	0.0138754
840.019	0.0138821
840.097	0.0138071
840.175	0.0138081
840.253	0.0138174
840.331	0.0137403
840.409	0.0139430
840.487	0.0138113
840.566	0.0139011
840.644	0.0137132
840.722	0.0139965
840.800	0.0139873
840.878	0.0138515
840.956	0.0138213
841.034	0.0138184
841.112	0.0138882
841.191	0.0139297
841.269	0.0139769
841.347	0.0139327
841.425	0.0137931
841.503	0.0139244
841.581	0.0138600
841.659	0.0137613
841.737	0.0138918
841.816	0.0138594
841.894	0.0139494
841.972	0.0139449
842.050	0.0139060
842.128	0.0138616
842.206	0.0138395
842.284	0.0139703
842.362	0.0140349
842.441	0.0139035
842.519	0.0138625
842.597	0.0139034
842.675	0.0138689
842.753	0.0139137
842.831	0.0137162
842.909	0.0138502
842.987	0.0138348
843.066	0.0139646
843.144	0.0139009
843.222	0.0139373
843.300	0.0138322
843.378	0.0139459
843.456	0.0137345
843.534	0.0139261
843.612	0.0140891
843.691	0.0139357
843.769	0.0138506
843.847	0.0138868
843.925	0.0140221
844.003	0.0137859
844.081	0.0138806
844.159	0.0139378
844.237	0.0139838
844.316	0.0138497
844.394	0.0138309
844.472	0.0138568
844.550	0.0139576
844.628	0.0139229
844.706	0.0138612
844.784	0.0138275
844.862	0.0139218
844.941	0.0138502
845.019	0.0138280
845.097	0.0140118
845.175	0.0140005
845.253	0.0139317
845.331	0.0139575
845.409	0.0139491
845.487	0.0140517
845.566	0.0139423
845.644	0.0139213
845.722	0.0139226
845.800	0.0138850
845.878	0.0139685
845.956	0.0138437
846.034	0.0138345
846.112	0.0139524
846.191	0.0140295
846.269	0.0138552
846.347	0.0139298
846.425	0.0139107
846.503	0.0138680
846.581	0.0138648
846.659	0.0138340
846.737	0.0140162
846.816	0.0139732
846.894	0.0140774
846.972	0.0140513
847.050	0.0139239
847.128	0.0140779
847.206	0.0139984
847.284	0.0139740
847.362	0.0140402
847.441	0.0140126
847.519	0.0140169
847.597	0.0139830
847.675	0.0139046
847.753	0.0139111
847.831	0.0139873
847.909	0.0140880
847.987	0.0140958
848.066	0.0140405
848.144	0.0138949
848.222	0.0138625
848.300	0.0140038
848.378	0.0138657
848.456	0.0139269
848.534	0.0139909
848.612	0.0140388
848.691	0.0140405
848.769	0.0139550
848.847	0.0139510
848.925	0.0138604
849.003	0.0138615
849.081	0.0139252
849.159	0.0139718
849.237	0.0138214
849.316	0.0140260
849.394	0.0137439
849.472	0.0137731
849.550	0.0139068
849.628	0.0139559
849.706	0.0140006
849.784	0.0138929
849.862	0.0140356
849.941	0.0138584
850.019	0.0138207
850.097	0.0138869
850.175	0.0138343
850.253	0.0139575
850.331	0.0137978
850.409	0.0139513
850.487	0.0139667
850.566	0.0138525
850.644	0.0140952
850.722	0.0139140
850.800	0.0140126
850.878	0.0139601
850.956	0.0140197
851.034	0.0140012
851.112	0.0138871
851.191	0.0140751
851.269	0.0140009
851.347	0.0138070
851.425	0.0138914
851.503	0.0138820
851.581	0.0138770
851.659	0.0139089
851.737	0.0138535
851.816	0.0139816
851.894	0.0137465
851.972	0.0139133
852.050	0.0138828
852.128	0.0140678
852.206	0.0139841
852.284	0.0140242
852.362	0.0139680
852.441	0.0139465
852.519	0.0140178
852.597	0.0139426
852.675	0.0140260
852.753	0.0140688
852.831	0.0139944
852.909	0.0139690
852.987	0.0139754
853.066	0.0138731
853.144	0.0140168
853.222	0.0140381
853.300	0.0138374
853.378	0.0138540
853.456	0.0140382
853.534	0.0139813
853.612	0.0138625
853.691	0.0139072
853.769	0.0139704
853.847	0.0139194
853.925	0.0140929
854.003	0.0138688
854.081	0.0138239
854.159	0.0140224
854.237	0.0139923
854.316	0.0138791
854.394	0.0137877
854.472	0.0139200
854.550	0.0138755
854.628	0.0138418
854.706	0.0139709
854.784	0.0140601
854.862	0.0139790
854.941	0.0139915
855.019	0.0138961
855.097	0.0139496
855.175	0.0138821
855.253	0.0138332
855.331	0.0138692
855.409	0.0139656
855.487	0.0139138
855.566	0.0139160
855.644	0.0140746
855.722	0.0140779
855.800	0.0138915
855.878	0.0139845
855.956	0.0139256
856.034	0.0139424
856.112	0.0140196
856.191	0.0138480
856.269	0.0138468
856.347	0.0140228
856.425	0.0140378
856.503	0.0139635
856.581	0.0138929
856.659	0.0139086
856.737	0.0139290
856.816	0.0140353
856.894	0.0138203
856.972	0.0139375
857.050	0.0137630
857.128	0.0139794
857.206	0.0140556
857.284	0.0139854
857.362	0.0139854
857.441	0.0138759
857.519	0.0140388
857.597	0.0139127
857.675	0.0139406
857.753	0.0139690
857.831	0.0138373
857.909	0.0139289
857.987	0.0139975
858.066	0.0139002
858.144	0.0139815
858.222	0.0140768
858.300	0.0138802
858.378	0.0139124
858.456	0.0139229
858.534	0.0139225
858.612	0.0139897
858.691	0.0138315
858.769	0.0138798
858.847	0.0138746
858.925	0.0138985
859.003	0.0139133
859.081	0.0139371
859.159	0.0139993
859.237	0.0138766
859.316	0.0139744
859.394	0.0139758
859.472	0.0139068
859.550	0.0141151
859.628	0.0139431
859.706	0.0139213
859.784	0.0139059
859.862	0.0138738
859.941	0.0139558
860.019	0.0139753
860.097	0.0140165
860.175	0.0138178
860.253	0.0140179
860.331	0.0139641
860.409	0.0139156
860.487	0.0137813
860.566	0.0139732
860.644	0.0140534
860.722	0.0141160
860.800	0.0139865
860.878	0.0138815
860.956	0.0139124
861.034	0.0141041
861.112	0.0138895
861.191	0.0139117
861.269	0.0138892
861.347	0.0139313
861.425	0.0140264
861.503	0.0140054
861.581	0.0139806
861.659	0.0139015
861.737	0.0138931
861.816	0.0138644
861.894	0.0139697
861.972	0.0138415
862.050	0.0139449
862.128	0.0140530
862.206	0.0139239
862.284	0.0138288
862.362	0.0141093
862.441	0.0139575
862.519	0.0140601
862.597	0.0139208
862.675	0.0138663
862.753	0.0140617
862.831	0.0139447
862.909	0.0139706
862.987	0.0138787
863.066	0.0139642
863.144	0.0138350
863.222	0.0139388
863.300	0.0137667
863.378	0.0139026
863.456	0.0138425
863.534	0.0138862
863.612	0.0138638
863.691	0.0138494
863.769	0.0139645
863.847	0.0138493
863.925	0.0139265
864.003	0.0138837
864.081	0.0138639
864.159	0.0139057
864.237	0.0139874
864.316	0.0139381
864.394	0.0138779
864.472	0.0140223
864.550	0.0138644
864.628	0.0137193
864.706	0.0137795
864.784	0.0138943
864.862	0.0139565
864.941	0.0140261
865.019	0.0139209
865.097	0.0138425
865.175	0.0139463
865.253	0.0139231
865.331	0.0139878
865.409	0.0139162
865.487	0.0140102
865.566	0.0139416
865.644	0.0138491
865.722	0.0138764
865.800	0.0138230
865.878	0.0140737
865.956	0.0139019
866.034	0.0138580
866.112	0.0139312
866.191	0.0139977
866.269	0.0139623
866.347	0.0139799
866.425	0.0138862
866.503	0.0138602
866.581	0.0138972
866.659	0.0138940
866.737	0.0139523
866.816	0.0140627
866.894	0.0138790
866.972	0.0139824
867.050	0.0139307
867.128	0.0139312
867.206	0.0138741
867.284	0.0139067
867.362	0.0138886
867.441	0.0140012
867.519	0.0139185
867.597	0.0138766
867.675	0.0139840
867.753	0.0138280
867.831	0.0138899
867.909	0.0139875
867.987	0.0138445
868.066	0.0139280
868.144	0.0139228
868.222	0.0140525
868.300	0.0139631
868.378	0.0139663
868.456	0.0140361
868.534	0.0138277
868.612	0.0139035
868.691	0.0138890
868.769	0.0139293
868.847	0.0139105
868.925	0.0138886
869.003	0.0137462
869.081	0.0137354
869.159	0.0138505
869.237	0.0138544
869.316	0.0138483
869.394	0.0138946
869.472	0.0138223
869.550	0.0138349
869.628	0.0138501
869.706	0.0139158
869.784	0.0138831
869.862	0.0139122
869.941	0.0139275
870.019	0.0139421
870.097	0.0139059
870.175	0.0139990
870.253	0.0138774
870.331	0.0139703
870.409	0.0139040
870.487	0.0139265
870.566	0.0138970
870.644	0.0138165
870.722	0.0139767
870.800	0.0137884
870.878	0.0138563
870.956	0.0138642
871.034	0.0141491
871.112	0.0138319
871.191	0.0139009
871.269	0.0139664
871.347	0.0139348
871.425	0.0137669
871.503	0.0138609
871.581	0.0140359
871.659	0.0139635
871.737	0.0139397
871.816	0.0139613
871.894	0.0137300
871.972	0.0138249
872.050	0.0139511
872.128	0.0139296
872.206	0.0139223
872.284	0.0139073
872.362	0.0137806
872.441	0.0139646
872.519	0.0139165
872.597	0.0138525
872.675	0.0139465
872.753	0.0139471
872.831	0.0138909
872.909	0.0139890
872.987	0.0139261
873.066	0.0139252
873.144	0.0139159
873.222	0.0140394
873.300	0.0139481
873.378	0.0140013
873.456	0.0138035
873.534	0.0138811
873.612	0.0139240
873.691	0.0138906
873.769	0.0141155
873.847	0.0139068
873.925	0.0138224
874.003	0.0139648
874.081	0.0138117
874.159	0.0138274
874.237	0.0139018
874.316	0.0140442
874.394	0.0139249
874.472	0.0139445
874.550	0.0138074
874.628	0.0137878
874.706	0.0139598
874.784	0.0139527
874.862	0.0138773
874.941	0.0139890
875.019	0.0139079
875.097	0.0139474
875.175	0.0138552
875.253	0.0140087
875.331	0.0140316
875.409	0.0139491
875.487	0.0139517
875.566	0.0140589
875.644	0.0140445
875.722	0.0140205
875.800	0.0139783
875.878	0.0139249
875.956	0.0139050
876.034	0.0139565
876.112	0.0138410
876.191	0.0139288
876.269	0.0140088
876.347	0.0140044
876.425	0.0140713
876.503	0.0139452
876.581	0.0139482
876.659	0.0140356
876.737	0.0139715
876.816	0.0139238
876.894	0.0138748
876.972	0.0139056
877.050	0.0138643
877.128	0.0139419
877.206	0.0139945
877.284	0.0140528
877.362	0.0140348
877.441	0.0138801
877.519	0.0139407
877.597	0.0139007
877.675	0.0138782
877.753	0.0139407
877.831	0.0138522
877.909	0.0139048
877.987	0.0138486
878.066	0.0139156
878.144	0.0138607
878.222	0.0139862
878.300	0.0139271
878.378	0.0139368
878.456	0.0140197
878.534	0.0141006
878.612	0.0139433
878.691	0.0138132
878.769	0.0139034
878.847	0.0139801
878.925	0.0138189
879.003	0.0138386
879.081	0.0139842
879.159	0.0138898
879.237	0.0138644
879.316	0.0139440
879.394	0.0139085
879.472	0.0138451
879.550	0.0139161
879.628	0.0137949
879.706	0.0138783
879.784	0.0138501
879.862	0.0138107
879.941	0.0138053
880.019	0.0137927
880.097	0.0137815
880.175	0.0139264
880.253	0.0139759
880.331	0.0139570
880.409	0.0138635
880.487	0.0138874
880.566	0.0139205
880.644	0.0139552
880.722	0.0138326
880.800	0.0139217
880.878	0.0138473
880.956	0.0138166
881.034	0.0139236
881.112	0.0139832
881.191	0.0138927
881.269	0.0139130
881.347	0.0137934
881.425	0.0140325
881.503	0.0138053
881.581	0.0139156
881.659	0.0139608
881.737	0.0138931
881.816	0.0139449
881.894	0.0139921
881.972	0.0139748
882.050	0.0139697
882.128	0.0139687
882.206	0.0139378
882.284	0.0140260
882.362	0.0139111
882.441	0.0139940
882.519	0.0139127
882.597	0.0139221
882.675	0.0139989
882.753	0.0139988
882.831	0.0139928
882.909	0.0140179
882.987	0.0140881
883.066	0.0141416
883.144	0.0139149
883.222	0.0139095
883.300	0.0139897
883.378	0.0139706
883.456	0.0140118
883.534	0.0139098
883.612	0.0139436
883.691	0.0140049
883.769	0.0139766
883.847	0.0138902
883.925	0.0138725
884.003	0.0138889
884.081	0.0139964
884.159	0.0138483
884.237	0.0140016
884.316	0.0139407
884.394	0.0139021
884.472	0.0139134
884.550	0.0138104
884.628	0.0138885
884.706	0.0139857
884.784	0.0140656
884.862	0.0138483
884.941	0.0138311
885.019	0.0139638
885.097	0.0139529
885.175	0.0139111
885.253	0.0139850
885.331	0.0139023
885.409	0.0138847
885.487	0.0139886
885.566	0.0138602
885.644	0.0139140
885.722	0.0139404
885.800	0.0139025
885.878	0.0139103
885.956	0.0138956
886.034	0.0139894
886.112	0.0139136
886.191	0.0140011
886.269	0.0139289
886.347	0.0139732
886.425	0.0139310
886.503	0.0140231
886.581	0.0138657
886.659	0.0139233
886.737	0.0139725
886.816	0.0139317
886.894	0.0139457
886.972	0.0139991
887.050	0.0140824
887.128	0.0138687
887.206	0.0139049
887.284	0.0139973
887.362	0.0140087
887.441	0.0137948
887.519	0.0139007
887.597	0.0138474
887.675	0.0138555
887.753	0.0138984
887.831	0.0139719
887.909	0.0139082
887.987	0.0139955
888.066	0.0139095
888.144	0.0139262
888.222	0.0138676
888.300	0.0139745
888.378	0.0138352
888.456	0.0138727
888.534	0.0139513
888.612	0.0138692
888.691	0.0140191
888.769	0.0140393
888.847	0.0138583
888.925	0.0138618
889.003	0.0139157
889.081	0.0137651
889.159	0.0138654
889.237	0.0139657
889.316	0.0140568
889.394	0.0138769
889.472	0.0138393
889.550	0.0140427
889.628	0.0140073
889.706	0.0139254
889.784	0.0140359
889.862	0.0139588
889.941	0.0138527
890.019	0.0139237
890.097	0.0139188
890.175	0.0139823
890.253	0.0138705
890.331	0.0137553
890.409	0.0138548
890.487	0.0139779
890.566	0.0140369
890.644	0.0138579
890.722	0.0139012
890.800	0.0140263
890.878	0.0137917
890.956	0.0137585
891.034	0.0139805
891.112	0.0137363
891.191	0.0138674
891.269	0.0139018
891.347	0.0138248
891.425	0.0138054
891.503	0.0138754
891.581	0.0137461
891.659	0.0138921
891.737	0.0138688
891.816	0.0139249
891.894	0.0138172
891.972	0.0138854
892.050	0.0138506
892.128	0.0138326
892.206	0.0137711
892.284	0.0137731
892.362	0.0138671
892.441	0.0139013
892.519	0.0139185
892.597	0.0138117
892.675	0.0137760
892.753	0.0138358
892.831	0.0137838
892.909	0.0138701
892.987	0.0139339
893.066	0.0140068
893.144	0.0138622
893.222	0.0139558
893.300	0.0139115
893.378	0.0138878
893.456	0.0139857
893.534	0.0138169
893.612	0.0138896
893.691	0.0139479
893.769	0.0139294
893.847	0.0139333
893.925	0.0139053
894.003	0.0139579
894.081	0.0138341
894.159	0.0138772
894.237	0.0140032
894.316	0.0138980
894.394	0.0140174
894.472	0.0139803
894.550	0.0138670
894.628	0.0139418
894.706	0.0138655
894.784	0.0138667
894.862	0.0139603
894.941	0.0139878
895.019	0.0139792
895.097	0.0138576
895.175	0.0139398
895.253	0.0139469
895.331	0.0138918
895.409	0.0139012
895.487	0.0140034
895.566	0.0139165
895.644	0.0138918
895.722	0.0139063
895.800	0.0138557
895.878	0.0137914
895.956	0.0138822
896.034	0.0139240
896.112	0.0139437
896.191	0.0139936
896.269	0.0139426
896.347	0.0138694
896.425	0.0139053
896.503	0.0140864
896.581	0.0139544
896.659	0.0140338
896.737	0.0140359
896.816	0.0140249
896.894	0.0139118
896.972	0.0139629
897.050	0.0139365
897.128	0.0138527
897.206	0.0140009
897.284	0.0139573
897.362	0.0139925
897.441	0.0140215
897.519	0.0139722
897.597	0.0139430
897.675	0.0140073
897.753	0.0140600
897.831	0.0139113
897.909	0.0139307
897.987	0.0139519
898.066	0.0138860
898.144	0.0138868
898.222	0.0139735
898.300	0.0140375
898.378	0.0139265
898.456	0.0139651
898.534	0.0138904
898.612	0.0138184
898.691	0.0138313
898.769	0.0137871
898.847	0.0139063
898.925	0.0139824
899.003	0.0138698
899.081	0.0139129
899.159	0.0138361
899.237	0.0139454
899.316	0.0139846
899.394	0.0138496
899.472	0.0139688
899.550	0.0139465
899.628	0.0139285
899.706	0.0139326
899.784	0.0140450
899.862	0.0139114
899.941	0.0139744
900.019	0.0140745
900.097	0.0139839
900.175	0.0139780
900.253	0.0138807
900.331	0.0139143
900.409	0.0139146
900.487	0.0139229
900.566	0.0140158
900.644	0.0139361
900.722	0.0139059
900.800	0.0140115
900.878	0.0138837
900.956	0.0139298
901.034	0.0138819
901.112	0.0138010
901.191	0.0138923
901.269	0.0138759
901.347	0.0138638
901.425	0.0139401
901.503	0.0140206
901.581	0.0137438
901.659	0.0137274
901.737	0.0138815
901.816	0.0139072
901.894	0.0138686
901.972	0.0138532
902.050	0.0138345
902.128	0.0139442
902.206	0.0139265
902.284	0.0138826
902.362	0.0139223
902.441	0.0139072
902.519	0.0137891
902.597	0.0138004
902.675	0.0138441
902.753	0.0138908
902.831	0.0139211
902.909	0.0138343
902.987	0.0137902
903.066	0.0137882
903.144	0.0138674
903.222	0.0139439
903.300	0.0138466
903.378	0.0138083
903.456	0.0138734
903.534	0.0138412
903.612	0.0139401
903.691	0.0138888
903.769	0.0138757
903.847	0.0139354
903.925	0.0138712
904.003	0.0138857
904.081	0.0139439
904.159	0.0138873
904.237	0.0137319
904.316	0.0138336
904.394	0.0138882
904.472	0.0138501
904.550	0.0139006
904.628	0.0138371
904.706	0.0138996
904.784	0.0138900
904.862	0.0139111
904.941	0.0138920
905.019	0.0138785
905.097	0.0138277
905.175	0.0138039
905.253	0.0139888
905.331	0.0137443
905.409	0.0138202
905.487	0.0138122
905.566	0.0139033
905.644	0.0137984
905.722	0.0139445
905.800	0.0139597
905.878	0.0140226
905.956	0.0139108
906.034	0.0138841
906.112	0.0140406
906.191	0.0139514
906.269	0.0139252
906.347	0.0139454
906.425	0.0140245
906.503	0.0139797
906.581	0.0139142
906.659	0.0139719
906.737	0.0140247
906.816	0.0139363
906.894	0.0139266
906.972	0.0137877
907.050	0.0139539
907.128	0.0139769
907.206	0.0139909
907.284	0.0138383
907.362	0.0138700
907.441	0.0138901
907.519	0.0138689
907.597	0.0139793
907.675	0.0140347
907.753	0.0138567
907.831	0.0139599
907.909	0.0140298
907.987	0.0139388
908.066	0.0139577
908.144	0.0139185
908.222	0.0138991
908.300	0.0139993
908.378	0.0139889
908.456	0.0139643
908.534	0.0140168
908.612	0.0139877
908.691	0.0140090
908.769	0.0139709
908.847	0.0139964
908.925	0.0139690
909.003	0.0138988
909.081	0.0139017
909.159	0.0138960
909.237	0.0138799
909.316	0.0138573
909.394	0.0141240
909.472	0.0139194
909.550	0.0139577
909.628	0.0138959
909.706	0.0139121
909.784	0.0139063
909.862	0.0139035
909.941	0.0139485
910.019	0.0138084
910.097	0.0139764
910.175	0.0139335
910.253	0.0139473
910.331	0.0137905
910.409	0.0137680
910.487	0.0138074
910.566	0.0138368
910.644	0.0139441
910.722	0.0138917
910.800	0.0139046
910.878	0.0139897
910.956	0.0139117
911.034	0.0140187
911.112	0.0139383
911.191	0.0139016
911.269	0.0140151
911.347	0.0138193
911.425	0.0138271
911.503	0.0139326
911.581	0.0139758
911.659	0.0137978
911.737	0.0137287
911.816	0.0136771
911.894	0.0139986
911.972	0.0139183
912.050	0.0138407
912.128	0.0140154
912.206	0.0138399
912.284	0.0138158
912.362	0.0139069
912.441	0.0139381
912.519	0.0138083
912.597	0.0139058
912.675	0.0138480
912.753	0.0138795
912.831	0.0138914
912.909	0.0139712
912.987	0.0139452
913.066	0.0139001
913.144	0.0138686
913.222	0.0139904
913.300	0.0138917
913.378	0.0139647
913.456	0.0138361
913.534	0.0137628
913.612	0.0138692
913.691	0.0139373
913.769	0.0139776
913.847	0.0140583
913.925	0.0141228
914.003	0.0138155
914.081	0.0138088
914.159	0.0138661
914.237	0.0139696
914.316	0.0138826
914.394	0.0139165
914.472	0.0139598
914.550	0.0139223
914.628	0.0136917
914.706	0.0137448
914.784	0.0139678
914.862	0.0138635
914.941	0.0137953
915.019	0.0138441
915.097	0.0137325
915.175	0.0137942
915.253	0.0139309
915.331	0.0137804
915.409	0.0138172
915.487	0.0139436
915.566	0.0138593
915.644	0.0139672
915.722	0.0138746
915.800	0.0137561
915.878	0.0138639
915.956	0.0140469
916.034	0.0139272
916.112	0.0138601
916.191	0.0138597
916.269	0.0139099
916.347	0.0138772
916.425	0.0139751
916.503	0.0139727
916.581	0.0139427
916.659	0.0139870
916.737	0.0138935
916.816	0.0138255
916.894	0.0139420
916.972	0.0139253
917.050	0.0139092
917.128	0.0139980
917.206	0.0139134
917.284	0.0139833
917.362	0.0139474
917.441	0.0138646
917.519	0.0138599
917.597	0.0140210
917.675	0.0138830
917.753	0.0139264
917.831	0.0139046
917.909	0.0139194
917.987	0.0137860
918.066	0.0139024
918.144	0.0140170
918.222	0.0140557
918.300	0.0137585
918.378	0.0138403
918.456	0.0138283
918.534	0.0139369
918.612	0.0138821
918.691	0.0139516
918.769	0.0139305
918.847	0.0138375
918.925	0.0139210
919.003	0.0139581
919.081	0.0140791
919.159	0.0140675
919.237	0.0138675
919.316	0.0138667
919.394	0.0140443
919.472	0.0140748
919.550	0.0140794
919.628	0.0139299
919.706	0.0140675
919.784	0.0138578
919.862	0.0138641
919.941	0.0138931
920.019	0.0139290
920.097	0.0139624
920.175	0.0138984
920.253	0.0138197
920.331	0.0139880
920.409	0.0140671
920.487	0.0140145
920.566	0.0140614
920.644	0.0137717
920.722	0.0140379
920.800	0.0138416
920.878	0.0138630
920.956	0.0139294
921.034	0.0138970
921.112	0.0139548
921.191	0.0139943
921.269	0.0139254
921.347	0.0138645
921.425	0.0139101
921.503	0.0139280
921.581	0.0140001
921.659	0.0138857
921.737	0.0139331
921.816	0.0139693
921.894	0.0140173
921.972	0.0139527
922.050	0.0139092
922.128	0.0138351
922.206	0.0140164
922.284	0.0139234
922.362	0.0138833
922.441	0.0139898
922.519	0.0138809
922.597	0.0138532
922.675	0.0139124
922.753	0.0139050
922.831	0.0139829
922.909	0.0138784
922.987	0.0137965
923.066	0.0139403
923.144	0.0139137
923.222	0.0139668
923.300	0.0138482
923.378	0.0138970
923.456	0.0139867
923.534	0.0139954
923.612	0.0138428
923.691	0.0139439
923.769	0.0138121
923.847	0.0138653
923.925	0.0139600
924.003	0.0139037
924.081	0.0139293
924.159	0.0140575
924.237	0.0139471
924.316	0.0140073
924.394	0.0140078
924.472	0.0139310
924.550	0.0139880
924.628	0.0139732
924.706	0.0139011
924.784	0.0139137
924.862	0.0139619
924.941	0.0137895
925.019	0.0139186
925.097	0.0138960
925.175	0.0136745
925.253	0.0138847
925.331	0.0138499
925.409	0.0138666
925.487	0.0139507
925.566	0.0138280
925.644	0.0138336
925.722	0.0138732
925.800	0.0138247
925.878	0.0139210
925.956	0.0139567
926.034	0.0138968
926.112	0.0139042
926.191	0.0137986
926.269	0.0139658
926.347	0.0138016
926.425	0.0138478
926.503	0.0140652
926.581	0.0137662
926.659	0.0138214
926.737	0.0137035
926.816	0.0139160
926.894	0.0137748
926.972	0.0137865
927.050	0.0137870
927.128	0.0138582
927.206	0.0139407
927.284	0.0138878
927.362	0.0139587
927.441	0.0138036
927.519	0.0139050
927.597	0.0139027
927.675	0.0139878
927.753	0.0139904
927.831	0.0139117
927.909	0.0140341
927.987	0.0139839
928.066	0.0138206
928.144	0.0139629
928.222	0.0138531
928.300	0.0139410
928.378	0.0140027
928.456	0.0140086
928.534	0.0139948
928.612	0.0140087
928.691	0.0140171
928.769	0.0137790
928.847	0.0139908
928.925	0.0138761
929.003	0.0138821
929.081	0.0138961
929.159	0.0140381
929.237	0.0139452
929.316	0.0137463
929.394	0.0137669
929.472	0.0138988
929.550	0.0137989
929.628	0.0138380
929.706	0.0139247
929.784	0.0140019
929.862	0.0138298
929.941	0.0138889
930.019	0.0140277
930.097	0.0139672
930.175	0.0140220
930.253	0.0138390
930.331	0.0139423
930.409	0.0140048
930.487	0.0138792
930.566	0.0139775
930.644	0.0139399
930.722	0.0139288
930.800	0.0140447
930.878	0.0139153
930.956	0.0139485
931.034	0.0139443
931.112	0.0138851
931.191	0.0139257
931.269	0.0138638
931.347	0.0138342
931.425	0.0138239
931.503	0.0138649
931.581	0.0139455
931.659	0.0139054
931.737	0.0138618
931.816	0.0139218
931.894	0.0139270
931.972	0.0138505
932.050	0.0137932
932.128	0.0139120
932.206	0.0139022
932.284	0.0137989
932.362	0.0139139
932.441	0.0138605
932.519	0.0139349
932.597	0.0138148
932.675	0.0138833
932.753	0.0138625
932.831	0.0138744
932.909	0.0139972
932.987	0.0138030
933.066	0.0138659
933.144	0.0139145
933.222	0.0139085
933.300	0.0139731
933.378	0.0139017
933.456	0.0137955
933.534	0.0138566
933.612	0.0138701
933.691	0.0139208
933.769	0.0138531
933.847	0.0136683
933.925	0.0139189
934.003	0.0138661
934.081	0.0139270
934.159	0.0138212
934.237	0.0138293
934.316	0.0136904
934.394	0.0138828
934.472	0.0138354
934.550	0.0137276
934.628	0.0138052
934.706	0.0138621
934.784	0.0139288
934.862	0.0139703
934.941	0.0138246
935.019	0.0139077
935.097	0.0137340
935.175	0.0138218
935.253	0.0138644
935.331	0.0139095
935.409	0.0139236
935.487	0.0138897
935.566	0.0138567
935.644	0.0138923
935.722	0.0139440
935.800	0.0137491
935.878	0.0139583
935.956	0.0139038
936.034	0.0139478
936.112	0.0139583
936.191	0.0138580
936.269	0.0138865
936.347	0.0138737
936.425	0.0137970
936.503	0.0138400
936.581	0.0137466
936.659	0.0138129
936.737	0.0138115
936.816	0.0138111
936.894	0.0138707
936.972	0.0137709
937.050	0.0137989
937.128	0.0140685
937.206	0.0137976
937.284	0.0137962
937.362	0.0140010
937.441	0.0139158
937.519	0.0139403
937.597	0.0139056
937.675	0.0138354
937.753	0.0139622
937.831	0.0138274
937.909	0.0138432
937.987	0.0138174
938.066	0.0138786
938.144	0.0139558
938.222	0.0137735
938.300	0.0138658
938.378	0.0139156
938.456	0.0138518
938.534	0.0139844
938.612	0.0140387
938.691	0.0138319
938.769	0.0139400
938.847	0.0139915
938.925	0.0140356
939.003	0.0139188
939.081	0.0138313
939.159	0.0138226
939.237	0.0138450
939.316	0.0139522
939.394	0.0140357
939.472	0.0138586
939.550	0.0139488
939.628	0.0138654
939.706	0.0139695
939.784	0.0139358
939.862	0.0138663
939.941	0.0139069
940.019	0.0137473
940.097	0.0138589
940.175	0.0139540
940.253	0.0140112
940.331	0.0139668
940.409	0.0138963
940.487	0.0137386
940.566	0.0138232
940.644	0.0139431
940.722	0.0139467
940.800	0.0139384
940.878	0.0139580
940.956	0.0138399
941.034	0.0138947
941.112	0.0139129
941.191	0.0138070
941.269	0.0139411
941.347	0.0139085
941.425	0.0139172
941.503	0.0137846
941.581	0.0138665
941.659	0.0138577
941.737	0.0139812
941.816	0.0139529
941.894	0.0138911
941.972	0.0138972
942.050	0.0139143
942.128	0.0139131
942.206	0.0139236
942.284	0.0138412
942.362	0.0138761
942.441	0.0140215
942.519	0.0139029
942.597	0.0139449
942.675	0.0140105
942.753	0.0140028
942.831	0.0140287
942.909	0.0139971
942.987	0.0139098
943.066	0.0138593
943.144	0.0138683
943.222	0.0140131
943.300	0.0139435
943.378	0.0139118
943.456	0.0139364
943.534	0.0138902
943.612	0.0139897
943.691	0.0140106
943.769	0.0139776
943.847	0.0138802
943.925	0.0139210
944.003	0.0139737
944.081	0.0140436
944.159	0.0138476
944.237	0.0138285
944.316	0.0139582
944.394	0.0139715
944.472	0.0137962
944.550	0.0138783
944.628	0.0139915
944.706	0.0139879
944.784	0.0139418
944.862	0.0137849
944.941	0.0138013
945.019	0.0139128
945.097	0.0138748
945.175	0.0137217
945.253	0.0140163
945.331	0.0139444
945.409	0.0137150
945.487	0.0138956
945.566	0.0138588
945.644	0.0139149
945.722	0.0138208
945.800	0.0138375
945.878	0.0138661
945.956	0.0139555
946.034	0.0140188
946.112	0.0138795
946.191	0.0138566
946.269	0.0138688
946.347	0.0138633
946.425	0.0138678
946.503	0.0136406
946.581	0.0138988
946.659	0.0139701
946.737	0.0137913
946.816	0.0138402
946.894	0.0138687
946.972	0.0138252
947.050	0.0138895
947.128	0.0139740
947.206	0.0138145
947.284	0.0137775
947.362	0.0138850
947.441	0.0140454
947.519	0.0138542
947.597	0.0138337
947.675	0.0139468
947.753	0.0140615
947.831	0.0138801
947.909	0.0137976
947.987	0.0138544
948.066	0.0138631
948.144	0.0138371
948.222	0.0137611
948.300	0.0138586
948.378	0.0139621
948.456	0.0139683
948.534	0.0139935
948.612	0.0138988
948.691	0.0140003
948.769	0.0139378
948.847	0.0139134
948.925	0.0138904
949.003	0.0138797
949.081	0.0137725
949.159	0.0138932
949.237	0.0139219
949.316	0.0139655
949.394	0.0140080
949.472	0.0140309
949.550	0.0139173
949.628	0.0138161
949.706	0.0140006
949.784	0.0139558
949.862	0.0139217
949.941	0.0138021
950.019	0.0139014
950.097	0.0140652
950.175	0.0139951
950.253	0.0140260
950.331	0.0139040
950.409	0.0138732
950.487	0.0138052
950.566	0.0139416
950.644	0.0139638
950.722	0.0139211
950.800	0.0139900
950.878	0.0139387
950.956	0.0138064
951.034	0.0138425
951.112	0.0138510
951.191	0.0139818
951.269	0.0140882
951.347	0.0139539
951.425	0.0139555
951.503	0.0139593
951.581	0.0139457
951.659	0.0138737
951.737	0.0138916
951.816	0.0141115
951.894	0.0141132
951.972	0.0139238
952.050	0.0140115
952.128	0.0140491
952.206	0.0140081
952.284	0.0140022
952.362	0.0139452
952.441	0.0139635
952.519	0.0139567
952.597	0.0140600
952.675	0.0139833
952.753	0.0139709
952.831	0.0139724
952.909	0.0140056
952.987	0.0139409
953.066	0.0139101
953.144	0.0140569
953.222	0.0140532
953.300	0.0140675
953.378	0.0140429
953.456	0.0139860
953.534	0.0140519
953.612	0.0138832
953.691	0.0139640
953.769	0.0139658
953.847	0.0140081
953.925	0.0140156
954.003	0.0139925
954.081	0.0139420
954.159	0.0140561
954.237	0.0140025
954.316	0.0140575
954.394	0.0139540
954.472	0.0138865
954.550	0.0139223
954.628	0.0139008
954.706	0.0139843
954.784	0.0139914
954.862	0.0138896
954.941	0.0139075
955.019	0.0138567
955.097	0.0138786
955.175	0.0139069
955.253	0.0138362
955.331	0.0138094
955.409	0.0139581
955.487	0.0139774
955.566	0.0137933
955.644	0.0140106
955.722	0.0138271
955.800	0.0137566
955.878	0.0139542
955.956	0.0139498
956.034	0.0138000
956.112	0.0138932
956.191	0.0139024
956.269	0.0139073
956.347	0.0139156
956.425	0.0140075
956.503	0.0139788
956.581	0.0138911
956.659	0.0139433
956.737	0.0139593
956.816	0.0139583
956.894	0.0139143
956.972	0.0139622
957.050	0.0139012
957.128	0.0140394
957.206	0.0138629
957.284	0.0138454
957.362	0.0138849
957.441	0.0139290
957.519	0.0139885
957.597	0.0141128
957.675	0.0140560
957.753	0.0138657
957.831	0.0139590
957.909	0.0139211
957.987	0.0139254
958.066	0.0138884
958.144	0.0139730
958.222	0.0139927
958.300	0.0139568
958.378	0.0138963
958.456	0.0139479
958.534	0.0138763
958.612	0.0138037
958.691	0.0138937
958.769	0.0138616
958.847	0.0139052
958.925	0.0138446
959.003	0.0139694
959.081	0.0139131
959.159	0.0137460
959.237	0.0139745
959.316	0.0139628
959.394	0.0138673
959.472	0.0138444
959.550	0.0139848
959.628	0.0140136
959.706	0.0137696
959.784	0.0139109
959.862	0.0140058
959.941	0.0138454
960.019	0.0139528
960.097	0.0138813
960.175	0.0138197
960.253	0.0139649
960.331	0.0139471
960.409	0.0137971
960.487	0.0137534
960.566	0.0138905
960.644	0.0139635
960.722	0.0138985
960.800	0.0138722
960.878	0.0138844
960.956	0.0139504
961.034	0.0137536
961.112	0.0136876
961.191	0.0138910
961.269	0.0139248
961.347	0.0138630
961.425	0.0137775
961.503	0.0137397
961.581	0.0139903
961.659	0.0138712
961.737	0.0139584
961.816	0.0139778
961.894	0.0138912
961.972	0.0139658
962.050	0.0138336
962.128	0.0139134
962.206	0.0139691
962.284	0.0139548
962.362	0.0139424
962.441	0.0140746
962.519	0.0140116
962.597	0.0139612
962.675	0.0137698
962.753	0.0138555
962.831	0.0140583
962.909	0.0139734
962.987	0.0138979
963.066	0.0139593
963.144	0.0139845
963.222	0.0138557
963.300	0.0138224
963.378	0.0139384
963.456	0.0139227
963.534	0.0139953
963.612	0.0140499
963.691	0.0140419
963.769	0.0139940
963.847	0.0140187
963.925	0.0139594
964.003	0.0139089
964.081	0.0138616
964.159	0.0138875
964.237	0.0139245
964.316	0.0139052
964.394	0.0140043
964.472	0.0141463
964.550	0.0140414
964.628	0.0139785
964.706	0.0139743
964.784	0.0139995
964.862	0.0139544
964.941	0.0139223
965.019	0.0140482
965.097	0.0139633
965.175	0.0138348
965.253	0.0139047
965.331	0.0139980
965.409	0.0140821
965.487	0.0140163
965.566	0.0138886
965.644	0.0140546
965.722	0.0138632
965.800	0.0138586
965.878	0.0139587
965.956	0.0140622
966.034	0.0140389
966.112	0.0140745
966.191	0.0138641
966.269	0.0138403
966.347	0.0139912
966.425	0.0139599
966.503	0.0140077
966.581	0.0139918
966.659	0.0140556
966.737	0.0139967
966.816	0.0139504
966.894	0.0140824
966.972	0.0139602
967.050	0.0139062
967.128	0.0139281
967.206	0.0139709
967.284	0.0139568
967.362	0.0140295
967.441	0.0139687
967.519	0.0139679
967.597	0.0139248
967.675	0.0139359
967.753	0.0139464
967.831	0.0139307
967.909	0.0140687
967.987	0.0139864
968.066	0.0140031
968.144	0.0140324
968.222	0.0139783
968.300	0.0139625
968.378	0.0139744
968.456	0.0138798
968.534	0.0139136
968.612	0.0139822
968.691	0.0139027
968.769	0.0139740
968.847	0.0138773
968.925	0.0138975
969.003	0.0138709
969.081	0.0139288
969.159	0.0139561
969.237	0.0139250
969.316	0.0139773
969.394	0.0137617
969.472	0.0138834
969.550	0.0139135
969.628	0.0139420
969.706	0.0138596
969.784	0.0137827
969.862	0.0139014
969.941	0.0138808
970.019	0.0139524
970.097	0.0138438
970.175	0.0138645
970.253	0.0139374
970.331	0.0137527
970.409	0.0139510
970.487	0.0138134
970.566	0.0139077
970.644	0.0138618
970.722	0.0139246
970.800	0.0139246
970.878	0.0138322
970.956	0.0139194
971.034	0.0137271
971.112	0.0138424
971.191	0.0138554
971.269	0.0138273
971.347	0.0138136
971.425	0.0138560
971.503	0.0138535
971.581	0.0137669
971.659	0.0138188
971.737	0.0137259
971.816	0.0138031
971.894	0.0138062
971.972	0.0139256
972.050	0.0136744
972.128	0.0138271
972.206	0.0138857
972.284	0.0138448
972.362	0.0138416
972.441	0.0139639
972.519	0.0136832
972.597	0.0138282
972.675	0.0138866
972.753	0.0138528
972.831	0.0137531
972.909	0.0138748
972.987	0.0138695
973.066	0.0139363
973.144	0.0140242
973.222	0.0138889
973.300	0.0137869
973.378	0.0137580
973.456	0.0139353
973.534	0.0138097
973.612	0.0138350
973.691	0.0139024
973.769	0.0139484
973.847	0.0137942
973.925	0.0138599
974.003	0.0137887
974.081	0.0139040
974.159	0.0138465
974.237	0.0138892
974.316	0.0140908
974.394	0.0139304
974.472	0.0138198
974.550	0.0138163
974.628	0.0138596
974.706	0.0138925
974.784	0.0139339
974.862	0.0140725
974.941	0.0139832
975.019	0.0139483
975.097	0.0139771
975.175	0.0139818
975.253	0.0140107
975.331	0.0139842
975.409	0.0139222
975.487	0.0139117
975.566	0.0140295
975.644	0.0139694
975.722	0.0139941
975.800	0.0140235
975.878	0.0140136
975.956	0.0139807
976.034	0.0138988
976.112	0.0140389
976.191	0.0139714
976.269	0.0138971
976.347	0.0138945
976.425	0.0139740
976.503	0.0139480
976.581	0.0139684
976.659	0.0140308
976.737	0.0142241
976.816	0.0138850
976.894	0.0137914
976.972	0.0140746
977.050	0.0141385
977.128	0.0140156
977.206	0.0139828
977.284	0.0138573
977.362	0.0140395
977.441	0.0140529
977.519	0.0140077
977.597	0.0140258
977.675	0.0139578
977.753	0.0139058
977.831	0.0140590
977.909	0.0141302
977.987	0.0137647
978.066	0.0139183
978.144	0.0139471
978.222	0.0139685
978.300	0.0140391
978.378	0.0140028
978.456	0.0140598
978.534	0.0138808
978.612	0.0139330
978.691	0.0139751
978.769	0.0139390
978.847	0.0139693
978.925	0.0139397
979.003	0.0140758
979.081	0.0140924
979.159	0.0138986
979.237	0.0137318
979.316	0.0140135
979.394	0.0140217
979.472	0.0138878
979.550	0.0139664
979.628	0.0139137
979.706	0.0140088
979.784	0.0140137
979.862	0.0139846
979.941	0.0138496
980.019	0.0139243
980.097	0.0138888
980.175	0.0139069
980.253	0.0139964
980.331	0.0140844
980.409	0.0139050
980.487	0.0138580
980.566	0.0138181
980.644	0.0138429
980.722	0.0138762
980.800	0.0139329
980.878	0.0140374
980.956	0.0138148
981.034	0.0138353
981.112	0.0138049
981.191	0.0138956
981.269	0.0139375
981.347	0.0138467
981.425	0.0138083
981.503	0.0138737
981.581	0.0139352
981.659	0.0138956
981.737	0.0139290
981.816	0.0138666
981.894	0.0139729
981.972	0.0137575
982.050	0.0138679
982.128	0.0139561
982.206	0.0139832
982.284	0.0138260
982.362	0.0138710
982.441	0.0139886
982.519	0.0139056
982.597	0.0139347
982.675	0.0139011
982.753	0.0137861
982.831	0.0137811
982.909	0.0140504
982.987	0.0138870
983.066	0.0139893
983.144	0.0138809
983.222	0.0138476
983.300	0.0137830
983.378	0.0138607
983.456	0.0138976
983.534	0.0138129
983.612	0.0139748
983.691	0.0139268
983.769	0.0138847
983.847	0.0138699
983.925	0.0140125
984.003	0.0139678
984.081	0.0138940
984.159	0.0139294
984.237	0.0139362
984.316	0.0139928
984.394	0.0139194
984.472	0.0139075
984.550	0.0139371
984.628	0.0139704
984.706	0.0139174
984.784	0.0138696
984.862	0.0140131
984.941	0.0140650
985.019	0.0139574
985.097	0.0139627
985.175	0.0140119
985.253	0.0138964
985.331	0.0141019
985.409	0.0139397
985.487	0.0140240
985.566	0.0140392
985.644	0.0139522
985.722	0.0140944
985.800	0.0140536
985.878	0.0138271
985.956	0.0139550
986.034	0.0140501
986.112	0.0138759
986.191	0.0140000
986.269	0.0140415
986.347	0.0140150
986.425	0.0140777
986.503	0.0140278
986.581	0.0139189
986.659	0.0139445
986.737	0.0139471
986.816	0.0139714
986.894	0.0139460
986.972	0.0140423
987.050	0.0140088
987.128	0.0139256
987.206	0.0138989
987.284	0.0139381
987.362	0.0139678
987.441	0.0139564
987.519	0.0139219
987.597	0.0139246
987.675	0.0140198
987.753	0.0141400
987.831	0.0138631
987.909	0.0138940
987.987	0.0139428
988.066	0.0140356
988.144	0.0140129
988.222	0.0138699
988.300	0.0139800
988.378	0.0139700
988.456	0.0138322
988.534	0.0139481
988.612	0.0139706
988.691	0.0139117
988.769	0.0139246
988.847	0.0140221
988.925	0.0139353
989.003	0.0139165
989.081	0.0138537
989.159	0.0138805
989.237	0.0139113
989.316	0.0139887
989.394	0.0139703
989.472	0.0139585
989.550	0.0139449
989.628	0.0137457
989.706	0.0138538
989.784	0.0139052
989.862	0.0139527
989.941	0.0139220
990.019	0.0139564
990.097	0.0138428
990.175	0.0138300
990.253	0.0139620
990.331	0.0138521
990.409	0.0139448
990.487	0.0139548
990.566	0.0138431
990.644	0.0139796
990.722	0.0137935
990.800	0.0140192
990.878	0.0138773
990.956	0.0138818
991.034	0.0140148
991.112	0.0140047
991.191	0.0138960
991.269	0.0140285
991.347	0.0140001
991.425	0.0139198
991.503	0.0138229
991.581	0.0137591
991.659	0.0139512
991.737	0.0138940
991.816	0.0142042
991.894	0.0139669
991.972	0.0138503
992.050	0.0138307
992.128	0.0139594
992.206	0.0138360
992.284	0.0139782
992.362	0.0137992
992.441	0.0138380
992.519	0.0138474
992.597	0.0139594
992.675	0.0138244
992.753	0.0138947
992.831	0.0139412
992.909	0.0139258
992.987	0.0137979
993.066	0.0139420
993.144	0.0139061
993.222	0.0139371
993.300	0.0138454
993.378	0.0139214
993.456	0.0141135
993.534	0.0138655
993.612	0.0139041
993.691	0.0139151
993.769	0.0139038
993.847	0.0138702
993.925	0.0140435
994.003	0.0139778
994.081	0.0139085
994.159	0.0138061
994.237	0.0139703
994.316	0.0139361
994.394	0.0139322
994.472	0.0137675
994.550	0.0138672
994.628	0.0139361
994.706	0.0139028
994.784	0.0139068
994.862	0.0139034
994.941	0.0139154
995.019	0.0138757
995.097	0.0140347
995.175	0.0139746
995.253	0.0139569
995.331	0.0140224
995.409	0.0139828
995.487	0.0138707
995.566	0.0139429
995.644	0.0138796
995.722	0.0139931
995.800	0.0139287
995.878	0.0138023
995.956	0.0139491
996.034	0.0140041
996.112	0.0139470
996.191	0.0139261
996.269	0.0139156
996.347	0.0140317
996.425	0.0139743
996.503	0.0139268
996.581	0.0138879
996.659	0.0138596
996.737	0.0141178
996.816	0.0140195
996.894	0.0139255
996.972	0.0140501
997.050	0.0139192
997.128	0.0138262
997.206	0.0138520
997.284	0.0139639
997.362	0.0139564
997.441	0.0138454
997.519	0.0137789
997.597	0.0139404
997.675	0.0138200
997.753	0.0138822
997.831	0.0138749
997.909	0.0137053
997.987	0.0137524
998.066	0.0138708
998.144	0.0138673
998.222	0.0139835
998.300	0.0138432
998.378	0.0138873
998.456	0.0139011
998.534	0.0137798
998.612	0.0138274
998.691	0.0139190
998.769	0.0136897
998.847	0.0137983
998.925	0.0139096
