05/07/2022	17:33:13	Ver.	4.1	UNKNOWN
Optical Delay	639.989416	Delta X		0.078125	Sweeps	1	Scan Rate	0/0
Coordinates	Axis 1	NaN	Axis 2	NaN	Axis 3	NaN	Axis 4	NaN	Axis 5	NaN	Axis 6	0.000000
TX Power	0.000000	RX Power	0.000000

639.989	0.0135112
640.068	0.0133672
640.146	0.0132664
640.224	0.0133172
640.302	0.0134102
640.380	0.0133195
640.458	0.0135014
640.536	0.0134727
640.614	0.0133527
640.693	0.0133804
640.771	0.0133929
640.849	0.0133463
640.927	0.0132835
641.005	0.0133554
641.083	0.0133324
641.161	0.0133783
641.239	0.0133569
641.318	0.0134780
641.396	0.0134834
641.474	0.0133733
641.552	0.0133540
641.630	0.0134969
641.708	0.0133891
641.786	0.0135919
641.864	0.0135089
641.943	0.0134005
642.021	0.0134726
642.099	0.0135222
642.177	0.0133937
642.255	0.0133107
642.333	0.0134579
642.411	0.0133818
642.489	0.0133682
642.568	0.0132579
642.646	0.0133046
642.724	0.0131394
642.802	0.0134410
642.880	0.0133047
642.958	0.0132460
643.036	0.0132964
643.114	0.0133624
643.193	0.0133910
643.271	0.0133646
643.349	0.0133932
643.427	0.0133987
643.505	0.0134364
643.583	0.0132120
643.661	0.0133164
643.739	0.0135316
643.818	0.0133272
643.896	0.0132980
643.974	0.0135015
644.052	0.0133661
644.130	0.0134235
644.208	0.0133732
644.286	0.0134056
644.364	0.0133361
644.443	0.0134017
644.521	0.0134705
644.599	0.0134981
644.677	0.0133990
644.755	0.0133861
644.833	0.0134976
644.911	0.0135381
644.989	0.0134343
645.068	0.0135403
645.146	0.0134726
645.224	0.0135354
645.302	0.0136325
645.380	0.0135273
645.458	0.0134830
645.536	0.0135403
645.614	0.0134893
645.693	0.0134610
645.771	0.0134682
645.849	0.0133395
645.927	0.0133296
646.005	0.0132918
646.083	0.0133680
646.161	0.0132781
646.239	0.0132353
646.318	0.0132043
646.396	0.0132565
646.474	0.0132892
646.552	0.0133244
646.630	0.0133126
646.708	0.0132067
646.786	0.0134772
646.864	0.0132941
646.943	0.0133057
647.021	0.0133649
647.099	0.0134995
647.177	0.0133385
647.255	0.0133836
647.333	0.0135710
647.411	0.0134459
647.489	0.0136687
647.568	0.0134238
647.646	0.0134563
647.724	0.0136356
647.802	0.0136093
647.880	0.0135389
647.958	0.0136258
648.036	0.0137094
648.114	0.0137385
648.193	0.0136227
648.271	0.0135777
648.349	0.0136217
648.427	0.0135094
648.505	0.0135809
648.583	0.0136153
648.661	0.0135963
648.739	0.0134362
648.818	0.0133797
648.896	0.0133671
648.974	0.0133662
649.052	0.0133415
649.130	0.0134704
649.208	0.0132108
649.286	0.0132040
649.364	0.0130627
649.443	0.0131168
649.521	0.0131853
649.599	0.0131103
649.677	0.0130663
649.755	0.0130730
649.833	0.0132051
649.911	0.0131131
649.989	0.0131072
650.068	0.0133218
650.146	0.0133150
650.224	0.0132644
650.302	0.0134514
650.380	0.0134903
650.458	0.0136540
650.536	0.0137308
650.614	0.0137007
650.693	0.0136580
650.771	0.0136375
650.849	0.0138176
650.927	0.0139397
651.005	0.0139262
651.083	0.0141798
651.161	0.0141711
651.239	0.0141342
651.318	0.0143252
651.396	0.0142799
651.474	0.0141834
651.552	0.0142236
651.630	0.0142934
651.708	0.0142432
651.786	0.0142104
651.864	0.0140503
651.943	0.0138429
652.021	0.0138260
652.099	0.0136700
652.177	0.0137233
652.255	0.0134620
652.333	0.0133192
652.411	0.0132093
652.489	0.0130291
652.568	0.0128690
652.646	0.0125963
652.724	0.0127121
652.802	0.0124256
652.880	0.0124363
652.958	0.0125251
653.036	0.0123826
653.114	0.0124140
653.193	0.0125262
653.271	0.0125468
653.349	0.0124980
653.427	0.0125583
653.505	0.0127480
653.583	0.0129591
653.661	0.0130772
653.739	0.0133015
653.818	0.0133607
653.896	0.0135623
653.974	0.0137871
654.052	0.0138245
654.130	0.0141946
654.208	0.0142191
654.286	0.0143232
654.364	0.0144743
654.443	0.0146544
654.521	0.0149064
654.599	0.0149385
654.677	0.0150001
654.755	0.0150455
654.833	0.0149680
654.911	0.0150572
654.989	0.0149609
655.068	0.0149839
655.146	0.0149474
655.224	0.0147780
655.302	0.0145869
655.380	0.0143296
655.458	0.0140656
655.536	0.0140342
655.614	0.0136124
655.693	0.0134682
655.771	0.0131415
655.849	0.0129655
655.927	0.0128009
656.005	0.0124864
656.083	0.0123380
656.161	0.0122146
656.239	0.0118674
656.318	0.0119616
656.396	0.0117014
656.474	0.0114661
656.552	0.0115485
656.630	0.0116884
656.708	0.0116717
656.786	0.0115913
656.864	0.0118143
656.943	0.0119242
657.021	0.0121106
657.099	0.0123457
657.177	0.0124850
657.255	0.0127293
657.333	0.0129012
657.411	0.0131389
657.489	0.0134740
657.568	0.0137816
657.646	0.0141074
657.724	0.0143301
657.802	0.0144321
657.880	0.0145638
657.958	0.0149115
658.036	0.0150356
658.114	0.0152267
658.193	0.0153104
658.271	0.0153890
658.349	0.0154088
658.427	0.0153572
658.505	0.0154291
658.583	0.0153394
658.661	0.0151342
658.739	0.0150101
658.818	0.0149146
658.896	0.0147592
658.974	0.0145904
659.052	0.0143837
659.130	0.0141172
659.208	0.0138486
659.286	0.0137315
659.364	0.0134766
659.443	0.0133602
659.521	0.0130972
659.599	0.0128322
659.677	0.0128394
659.755	0.0128068
659.833	0.0125821
659.911	0.0123147
659.989	0.0123179
660.068	0.0121956
660.146	0.0121907
660.224	0.0121488
660.302	0.0120957
660.380	0.0121821
660.458	0.0120256
660.536	0.0121338
660.614	0.0120276
660.693	0.0121497
660.771	0.0121481
660.849	0.0122081
660.927	0.0122172
661.005	0.0122536
661.083	0.0123533
661.161	0.0124682
661.239	0.0125626
661.318	0.0125677
661.396	0.0127514
661.474	0.0129356
661.552	0.0129522
661.630	0.0130846
661.708	0.0133148
661.786	0.0136343
661.864	0.0136721
661.943	0.0138297
662.021	0.0140199
662.099	0.0141277
662.177	0.0141764
662.255	0.0145921
662.333	0.0148277
662.411	0.0148814
662.489	0.0148647
662.568	0.0151693
662.646	0.0153135
662.724	0.0152634
662.802	0.0152793
662.880	0.0154333
662.958	0.0152450
663.036	0.0153426
663.114	0.0152448
663.193	0.0151226
663.271	0.0150271
663.349	0.0148603
663.427	0.0146870
663.505	0.0145918
663.583	0.0143744
663.661	0.0143211
663.739	0.0140000
663.818	0.0137662
663.896	0.0134778
663.974	0.0133164
664.052	0.0129707
664.130	0.0127791
664.208	0.0123945
664.286	0.0121064
664.364	0.0119015
664.443	0.0116451
664.521	0.0114889
664.599	0.0113014
664.677	0.0110804
664.755	0.0110020
664.833	0.0109811
664.911	0.0108405
664.989	0.0108939
665.068	0.0108607
665.146	0.0111033
665.224	0.0112401
665.302	0.0112678
665.380	0.0115594
665.458	0.0116653
665.536	0.0118272
665.614	0.0121741
665.693	0.0123673
665.771	0.0126633
665.849	0.0130192
665.927	0.0133121
666.005	0.0136231
666.083	0.0137977
666.161	0.0140617
666.239	0.0143438
666.318	0.0145490
666.396	0.0148109
666.474	0.0150867
666.552	0.0152538
666.630	0.0153978
666.708	0.0154626
666.786	0.0155772
666.864	0.0157108
666.943	0.0157813
667.021	0.0158298
667.099	0.0158491
667.177	0.0157544
667.255	0.0157152
667.333	0.0157607
667.411	0.0154642
667.489	0.0154404
667.568	0.0152868
667.646	0.0150737
667.724	0.0148576
667.802	0.0147002
667.880	0.0144572
667.958	0.0141838
668.036	0.0138951
668.114	0.0137222
668.193	0.0135729
668.271	0.0131165
668.349	0.0128892
668.427	0.0125523
668.505	0.0124775
668.583	0.0121151
668.661	0.0119958
668.739	0.0117147
668.818	0.0115861
668.896	0.0115478
668.974	0.0112563
669.052	0.0112791
669.130	0.0109911
669.208	0.0111074
669.286	0.0112305
669.364	0.0112559
669.443	0.0113060
669.521	0.0115277
669.599	0.0114458
669.677	0.0116943
669.755	0.0118049
669.833	0.0119788
669.911	0.0122000
669.989	0.0123387
670.068	0.0126060
670.146	0.0129176
670.224	0.0132648
670.302	0.0132673
670.380	0.0134742
670.458	0.0139266
670.536	0.0139159
670.614	0.0141717
670.693	0.0144123
670.771	0.0144382
670.849	0.0146753
670.927	0.0148012
671.005	0.0148637
671.083	0.0151283
671.161	0.0150948
671.239	0.0151804
671.318	0.0153357
671.396	0.0153853
671.474	0.0155460
671.552	0.0153996
671.630	0.0154427
671.708	0.0153828
671.786	0.0154101
671.864	0.0153542
671.943	0.0153802
672.021	0.0152905
672.099	0.0151284
672.177	0.0150578
672.255	0.0149339
672.333	0.0148285
672.411	0.0146071
672.489	0.0145733
672.568	0.0142443
672.646	0.0142052
672.724	0.0139883
672.802	0.0137543
672.880	0.0135085
672.958	0.0132447
673.036	0.0127396
673.114	0.0125640
673.193	0.0123614
673.271	0.0120180
673.349	0.0118074
673.427	0.0114525
673.505	0.0113013
673.583	0.0110555
673.661	0.0109270
673.739	0.0106654
673.818	0.0106647
673.896	0.0106528
673.974	0.0106897
674.052	0.0105467
674.130	0.0107948
674.208	0.0109131
674.286	0.0110975
674.364	0.0113889
674.443	0.0116856
674.521	0.0120008
674.599	0.0123252
674.677	0.0127333
674.755	0.0130949
674.833	0.0134612
674.911	0.0139723
674.989	0.0144223
675.068	0.0147067
675.146	0.0151016
675.224	0.0155534
675.302	0.0157268
675.380	0.0158572
675.458	0.0159776
675.536	0.0163371
675.614	0.0163424
675.693	0.0164647
675.771	0.0163129
675.849	0.0161755
675.927	0.0161049
676.005	0.0158010
676.083	0.0154204
676.161	0.0152316
676.239	0.0149530
676.318	0.0145985
676.396	0.0141366
676.474	0.0138701
676.552	0.0136761
676.630	0.0132060
676.708	0.0127989
676.786	0.0127140
676.864	0.0122872
676.943	0.0120140
677.021	0.0119395
677.099	0.0119067
677.177	0.0117955
677.255	0.0119189
677.333	0.0117316
677.411	0.0120178
677.489	0.0121556
677.568	0.0121914
677.646	0.0124377
677.724	0.0126159
677.802	0.0128301
677.880	0.0131721
677.958	0.0131978
678.036	0.0136092
678.114	0.0138198
678.193	0.0138667
678.271	0.0140903
678.349	0.0141994
678.427	0.0141410
678.505	0.0142450
678.583	0.0142983
678.661	0.0142875
678.739	0.0140549
678.818	0.0138876
678.896	0.0139561
678.974	0.0139152
679.052	0.0136206
679.130	0.0133887
679.208	0.0133187
679.286	0.0132271
679.364	0.0130238
679.443	0.0129665
679.521	0.0128721
679.599	0.0127020
679.677	0.0127521
679.755	0.0126862
679.833	0.0128024
679.911	0.0128294
679.989	0.0129207
680.068	0.0130465
680.146	0.0131517
680.224	0.0133193
680.302	0.0135154
680.380	0.0135992
680.458	0.0139393
680.536	0.0140889
680.614	0.0142886
680.693	0.0144866
680.771	0.0145873
680.849	0.0146419
680.927	0.0146282
681.005	0.0147264
681.083	0.0148060
681.161	0.0147724
681.239	0.0147022
681.318	0.0144804
681.396	0.0144775
681.474	0.0142514
681.552	0.0142864
681.630	0.0141218
681.708	0.0137086
681.786	0.0134814
681.864	0.0131553
681.943	0.0130767
682.021	0.0129138
682.099	0.0128374
682.177	0.0126199
682.255	0.0123545
682.333	0.0124049
682.411	0.0122592
682.489	0.0123608
682.568	0.0126299
682.646	0.0125397
682.724	0.0125973
682.802	0.0127269
682.880	0.0129357
682.958	0.0132710
683.036	0.0132686
683.114	0.0134607
683.193	0.0135580
683.271	0.0138589
683.349	0.0139910
683.427	0.0141309
683.505	0.0142569
683.583	0.0141919
683.661	0.0142641
683.739	0.0141988
683.818	0.0142590
683.896	0.0141801
683.974	0.0141195
684.052	0.0139070
684.130	0.0138235
684.208	0.0135005
684.286	0.0132582
684.364	0.0132726
684.443	0.0130859
684.521	0.0127245
684.599	0.0126523
684.677	0.0123657
684.755	0.0121845
684.833	0.0122076
684.911	0.0122803
684.989	0.0122394
685.068	0.0122292
685.146	0.0123804
685.224	0.0124246
685.302	0.0124247
685.380	0.0128575
685.458	0.0128676
685.536	0.0131832
685.614	0.0135632
685.693	0.0137465
685.771	0.0140150
685.849	0.0142493
685.927	0.0146331
686.005	0.0147253
686.083	0.0149403
686.161	0.0152233
686.239	0.0153707
686.318	0.0153011
686.396	0.0155211
686.474	0.0155462
686.552	0.0154957
686.630	0.0154431
686.708	0.0153063
686.786	0.0148367
686.864	0.0148113
686.943	0.0144646
687.021	0.0140516
687.099	0.0137404
687.177	0.0133040
687.255	0.0129041
687.333	0.0126059
687.411	0.0122232
687.489	0.0119408
687.568	0.0117152
687.646	0.0112576
687.724	0.0112669
687.802	0.0110390
687.880	0.0110479
687.958	0.0109409
688.036	0.0108215
688.114	0.0110949
688.193	0.0112177
688.271	0.0112913
688.349	0.0114005
688.427	0.0118523
688.505	0.0120971
688.583	0.0123321
688.661	0.0125401
688.739	0.0128768
688.818	0.0132950
688.896	0.0137655
688.974	0.0140945
689.052	0.0142616
689.130	0.0145328
689.208	0.0148080
689.286	0.0150420
689.364	0.0151321
689.443	0.0153075
689.521	0.0153752
689.599	0.0154802
689.677	0.0152940
689.755	0.0152151
689.833	0.0153764
689.911	0.0152448
689.989	0.0149048
690.068	0.0149245
690.146	0.0145865
690.224	0.0143884
690.302	0.0142567
690.380	0.0141902
690.458	0.0139352
690.536	0.0139400
690.614	0.0136404
690.693	0.0136478
690.771	0.0135928
690.849	0.0134119
690.927	0.0132789
691.005	0.0133090
691.083	0.0132984
691.161	0.0132279
691.239	0.0132822
691.318	0.0132302
691.396	0.0134170
691.474	0.0131908
691.552	0.0134289
691.630	0.0134850
691.708	0.0134077
691.786	0.0133624
691.864	0.0132769
691.943	0.0133663
692.021	0.0134187
692.099	0.0131672
692.177	0.0130931
692.255	0.0131213
692.333	0.0129719
692.411	0.0128825
692.489	0.0128495
692.568	0.0126212
692.646	0.0124933
692.724	0.0125743
692.802	0.0124142
692.880	0.0121223
692.958	0.0122262
693.036	0.0123595
693.114	0.0121184
693.193	0.0122374
693.271	0.0123792
693.349	0.0124135
693.427	0.0123774
693.505	0.0124356
693.583	0.0125777
693.661	0.0127829
693.739	0.0130027
693.818	0.0131516
693.896	0.0133860
693.974	0.0134872
694.052	0.0135309
694.130	0.0138276
694.208	0.0140934
694.286	0.0140746
694.364	0.0142709
694.443	0.0144756
694.521	0.0145615
694.599	0.0146414
694.677	0.0147156
694.755	0.0148924
694.833	0.0149904
694.911	0.0149556
694.989	0.0149510
695.068	0.0150890
695.146	0.0148895
695.224	0.0149454
695.302	0.0149847
695.380	0.0149417
695.458	0.0147946
695.536	0.0146827
695.614	0.0146507
695.693	0.0145376
695.771	0.0143649
695.849	0.0143163
695.927	0.0140767
696.005	0.0139494
696.083	0.0136465
696.161	0.0138014
696.239	0.0135498
696.318	0.0133271
696.396	0.0132686
696.474	0.0131693
696.552	0.0131957
696.630	0.0129726
696.708	0.0127946
696.786	0.0128578
696.864	0.0127319
696.943	0.0125625
697.021	0.0125496
697.099	0.0124513
697.177	0.0124634
697.255	0.0124905
697.333	0.0126148
697.411	0.0125243
697.489	0.0125021
697.568	0.0126564
697.646	0.0127760
697.724	0.0128118
697.802	0.0128717
697.880	0.0128579
697.958	0.0130070
698.036	0.0131113
698.114	0.0132094
698.193	0.0133637
698.271	0.0134452
698.349	0.0135827
698.427	0.0137125
698.505	0.0137161
698.583	0.0138192
698.661	0.0138108
698.739	0.0139415
698.818	0.0138526
698.896	0.0136977
698.974	0.0138588
699.052	0.0139314
699.130	0.0137807
699.208	0.0136366
699.286	0.0136086
699.364	0.0137763
699.443	0.0136734
699.521	0.0136952
699.599	0.0136156
699.677	0.0134159
699.755	0.0133413
699.833	0.0133204
699.911	0.0132263
699.989	0.0131879
700.068	0.0132546
700.146	0.0130870
700.224	0.0130351
700.302	0.0129633
700.380	0.0131173
700.458	0.0130648
700.536	0.0131226
700.614	0.0133025
700.693	0.0133183
700.771	0.0133147
700.849	0.0133966
700.927	0.0136086
701.005	0.0137294
701.083	0.0136552
701.161	0.0140024
701.239	0.0141443
701.318	0.0141232
701.396	0.0143402
701.474	0.0144164
701.552	0.0145850
701.630	0.0144836
701.708	0.0146164
701.786	0.0146826
701.864	0.0146439
701.943	0.0147704
702.021	0.0146591
702.099	0.0145325
702.177	0.0143340
702.255	0.0143140
702.333	0.0142010
702.411	0.0140901
702.489	0.0137263
702.568	0.0136853
702.646	0.0137003
702.724	0.0133963
702.802	0.0131335
702.880	0.0130110
702.958	0.0130189
703.036	0.0129427
703.114	0.0128928
703.193	0.0127113
703.271	0.0126768
703.349	0.0125112
703.427	0.0126647
703.505	0.0123942
703.583	0.0125380
703.661	0.0127158
703.739	0.0125473
703.818	0.0126604
703.896	0.0128901
703.974	0.0127551
704.052	0.0127190
704.130	0.0128271
704.208	0.0129736
704.286	0.0130605
704.364	0.0129649
704.443	0.0129674
704.521	0.0131053
704.599	0.0131641
704.677	0.0132201
704.755	0.0131837
704.833	0.0131071
704.911	0.0132266
704.989	0.0132075
705.068	0.0134196
705.146	0.0134258
705.224	0.0133353
705.302	0.0133395
705.380	0.0132996
705.458	0.0133447
705.536	0.0133978
705.614	0.0135182
705.693	0.0134647
705.771	0.0135362
705.849	0.0135275
705.927	0.0135462
706.005	0.0136108
706.083	0.0136616
706.161	0.0136555
706.239	0.0137398
706.318	0.0137644
706.396	0.0140349
706.474	0.0140668
706.552	0.0141653
706.630	0.0140916
706.708	0.0142224
706.786	0.0145076
706.864	0.0145262
706.943	0.0146209
707.021	0.0147784
707.099	0.0148244
707.177	0.0149219
707.255	0.0147426
707.333	0.0149200
707.411	0.0150256
707.489	0.0148566
707.568	0.0148341
707.646	0.0147967
707.724	0.0146582
707.802	0.0144205
707.880	0.0144885
707.958	0.0142423
708.036	0.0140008
708.114	0.0139618
708.193	0.0137587
708.271	0.0134955
708.349	0.0133414
708.427	0.0132336
708.505	0.0130157
708.583	0.0127616
708.661	0.0125842
708.739	0.0123713
708.818	0.0123341
708.896	0.0121918
708.974	0.0122165
709.052	0.0121635
709.130	0.0120581
709.208	0.0119500
709.286	0.0121268
709.364	0.0121676
709.443	0.0121904
709.521	0.0122725
709.599	0.0122964
709.677	0.0125238
709.755	0.0125781
709.833	0.0127007
709.911	0.0128044
709.989	0.0128756
710.068	0.0130308
710.146	0.0131402
710.224	0.0132394
710.302	0.0133849
710.380	0.0134911
710.458	0.0135311
710.536	0.0136316
710.614	0.0137852
710.693	0.0139626
710.771	0.0138464
710.849	0.0139947
710.927	0.0141270
711.005	0.0138826
711.083	0.0140085
711.161	0.0138145
711.239	0.0140533
711.318	0.0138840
711.396	0.0139100
711.474	0.0138003
711.552	0.0136243
711.630	0.0136109
711.708	0.0136896
711.786	0.0135173
711.864	0.0134940
711.943	0.0134606
712.021	0.0134502
712.099	0.0132060
712.177	0.0133185
712.255	0.0132910
712.333	0.0134166
712.411	0.0132294
712.489	0.0134009
712.568	0.0135490
712.646	0.0137097
712.724	0.0136765
712.802	0.0138065
712.880	0.0137812
712.958	0.0140134
713.036	0.0139359
713.114	0.0141444
713.193	0.0142717
713.271	0.0143356
713.349	0.0143819
713.427	0.0143192
713.505	0.0144991
713.583	0.0144958
713.661	0.0142315
713.739	0.0143617
713.818	0.0142493
713.896	0.0143290
713.974	0.0142309
714.052	0.0140939
714.130	0.0141469
714.208	0.0139566
714.286	0.0138573
714.364	0.0135838
714.443	0.0134106
714.521	0.0134853
714.599	0.0133407
714.677	0.0130803
714.755	0.0131554
714.833	0.0129575
714.911	0.0129000
714.989	0.0128587
715.068	0.0126984
715.146	0.0126477
715.224	0.0127211
715.302	0.0125019
715.380	0.0125312
715.458	0.0124854
715.536	0.0125679
715.614	0.0127571
715.693	0.0125732
715.771	0.0126548
715.849	0.0126301
715.927	0.0125912
716.005	0.0127274
716.083	0.0128830
716.161	0.0128488
716.239	0.0130163
716.318	0.0132013
716.396	0.0130327
716.474	0.0130758
716.552	0.0130685
716.630	0.0132935
716.708	0.0133070
716.786	0.0133857
716.864	0.0134679
716.943	0.0134867
717.021	0.0135629
717.099	0.0135285
717.177	0.0136379
717.255	0.0135822
717.333	0.0136849
717.411	0.0137101
717.489	0.0136604
717.568	0.0138011
717.646	0.0137554
717.724	0.0136998
717.802	0.0137390
717.880	0.0138351
717.958	0.0138362
718.036	0.0139108
718.114	0.0138549
718.193	0.0139317
718.271	0.0138769
718.349	0.0138115
718.427	0.0139678
718.505	0.0140418
718.583	0.0138090
718.661	0.0138931
718.739	0.0136932
718.818	0.0138502
718.896	0.0139247
718.974	0.0138396
719.052	0.0139008
719.130	0.0138313
719.208	0.0138120
719.286	0.0136681
719.364	0.0138161
719.443	0.0139050
719.521	0.0136665
719.599	0.0137093
719.677	0.0136230
719.755	0.0135739
719.833	0.0135979
719.911	0.0136603
719.989	0.0135602
720.068	0.0135075
720.146	0.0135664
720.224	0.0135059
720.302	0.0135441
720.380	0.0135638
720.458	0.0135938
720.536	0.0134396
720.614	0.0135017
720.693	0.0134650
720.771	0.0134384
720.849	0.0134600
720.927	0.0133728
721.005	0.0132526
721.083	0.0134618
721.161	0.0135213
721.239	0.0133707
721.318	0.0132283
721.396	0.0129688
721.474	0.0130415
721.552	0.0131026
721.630	0.0130116
721.708	0.0128263
721.786	0.0128574
721.864	0.0127857
721.943	0.0129426
722.021	0.0127197
722.099	0.0127735
722.177	0.0127838
722.255	0.0127953
722.333	0.0128860
722.411	0.0129081
722.489	0.0127236
722.568	0.0130049
722.646	0.0129204
722.724	0.0130264
722.802	0.0129987
722.880	0.0131250
722.958	0.0130481
723.036	0.0131281
723.114	0.0132005
723.193	0.0134436
723.271	0.0133483
723.349	0.0135469
723.427	0.0136285
723.505	0.0136445
723.583	0.0136246
723.661	0.0137302
723.739	0.0138498
723.818	0.0138515
723.896	0.0137904
723.974	0.0137811
724.052	0.0138156
724.130	0.0138597
724.208	0.0139082
724.286	0.0137785
724.364	0.0140103
724.443	0.0137685
724.521	0.0137414
724.599	0.0138950
724.677	0.0138612
724.755	0.0137319
724.833	0.0138226
724.911	0.0138885
724.989	0.0137675
725.068	0.0137647
725.146	0.0138443
725.224	0.0137983
725.302	0.0137856
725.380	0.0139050
725.458	0.0138460
725.536	0.0138230
725.614	0.0139056
725.693	0.0140616
725.771	0.0140228
725.849	0.0139399
725.927	0.0138360
726.005	0.0138976
726.083	0.0138390
726.161	0.0137968
726.239	0.0136063
726.318	0.0137125
726.396	0.0136570
726.474	0.0136391
726.552	0.0135550
726.630	0.0136317
726.708	0.0134383
726.786	0.0133652
726.864	0.0132507
726.943	0.0133098
727.021	0.0132793
727.099	0.0131631
727.177	0.0131863
727.255	0.0130363
727.333	0.0130814
727.411	0.0131172
727.489	0.0130607
727.568	0.0129659
727.646	0.0130141
727.724	0.0130318
727.802	0.0129774
727.880	0.0130447
727.958	0.0130683
728.036	0.0130673
728.114	0.0130225
728.193	0.0131951
728.271	0.0131340
728.349	0.0132698
728.427	0.0132260
728.505	0.0132368
728.583	0.0133260
728.661	0.0132761
728.739	0.0133788
728.818	0.0134808
728.896	0.0132552
728.974	0.0134486
729.052	0.0135710
729.130	0.0136272
729.208	0.0137548
729.286	0.0137209
729.364	0.0136234
729.443	0.0137806
729.521	0.0137772
729.599	0.0136969
729.677	0.0138289
729.755	0.0137656
729.833	0.0137077
729.911	0.0136707
729.989	0.0136282
730.068	0.0137109
730.146	0.0137058
730.224	0.0135002
730.302	0.0135590
730.380	0.0135490
730.458	0.0134592
730.536	0.0135252
730.614	0.0134464
730.693	0.0134071
730.771	0.0133654
730.849	0.0133742
730.927	0.0135468
731.005	0.0135056
731.083	0.0136169
731.161	0.0136358
731.239	0.0137746
731.318	0.0136778
731.396	0.0137596
731.474	0.0138204
731.552	0.0139697
731.630	0.0139233
731.708	0.0139635
731.786	0.0139299
731.864	0.0138803
731.943	0.0140910
732.021	0.0141866
732.099	0.0140654
732.177	0.0138998
732.255	0.0139347
732.333	0.0137908
732.411	0.0137469
732.489	0.0138200
732.568	0.0136753
732.646	0.0136338
732.724	0.0135954
732.802	0.0135094
732.880	0.0134352
732.958	0.0133610
733.036	0.0133348
733.114	0.0131731
733.193	0.0131999
733.271	0.0132328
733.349	0.0132765
733.427	0.0131492
733.505	0.0133234
733.583	0.0132201
733.661	0.0132745
733.739	0.0131874
733.818	0.0132603
733.896	0.0131564
733.974	0.0132023
734.052	0.0132560
734.130	0.0132111
734.208	0.0131614
734.286	0.0130885
734.364	0.0131548
734.443	0.0132676
734.521	0.0130927
734.599	0.0132306
734.677	0.0131400
734.755	0.0131892
734.833	0.0131710
734.911	0.0130834
734.989	0.0131880
735.068	0.0131319
735.146	0.0130605
735.224	0.0130656
735.302	0.0130935
735.380	0.0132429
735.458	0.0131361
735.536	0.0131641
735.614	0.0131750
735.693	0.0133109
735.771	0.0131413
735.849	0.0131301
735.927	0.0134299
736.005	0.0133971
736.083	0.0133520
736.161	0.0131987
736.239	0.0131400
736.318	0.0130856
736.396	0.0130814
736.474	0.0134164
736.552	0.0133011
736.630	0.0133471
736.708	0.0133543
736.786	0.0134769
736.864	0.0134006
736.943	0.0133162
737.021	0.0135648
737.099	0.0135533
737.177	0.0135150
737.255	0.0136424
737.333	0.0137428
737.411	0.0137391
737.489	0.0135908
737.568	0.0137112
737.646	0.0138291
737.724	0.0137305
737.802	0.0137334
737.880	0.0137305
737.958	0.0137230
738.036	0.0138264
738.114	0.0139075
738.193	0.0140035
738.271	0.0139273
738.349	0.0138145
738.427	0.0137196
738.505	0.0137907
738.583	0.0139254
738.661	0.0137595
738.739	0.0136988
738.818	0.0136752
738.896	0.0136675
738.974	0.0136021
739.052	0.0136032
739.130	0.0135013
739.208	0.0133295
739.286	0.0134232
739.364	0.0133140
739.443	0.0131821
739.521	0.0130537
739.599	0.0130472
739.677	0.0131982
739.755	0.0130856
739.833	0.0131384
739.911	0.0129164
739.989	0.0128564
740.068	0.0130261
740.146	0.0130288
740.224	0.0129954
740.302	0.0130170
740.380	0.0130937
740.458	0.0131172
740.536	0.0129959
740.614	0.0129246
740.693	0.0130777
740.771	0.0131256
740.849	0.0130096
740.927	0.0131545
741.005	0.0130598
741.083	0.0130220
741.161	0.0130690
741.239	0.0131042
741.318	0.0130286
741.396	0.0130640
741.474	0.0130685
741.552	0.0130412
741.630	0.0131983
741.708	0.0130489
741.786	0.0131438
741.864	0.0130778
741.943	0.0131612
742.021	0.0133693
742.099	0.0131863
742.177	0.0132042
742.255	0.0133369
742.333	0.0133672
742.411	0.0134515
742.489	0.0134657
742.568	0.0134046
742.646	0.0134491
742.724	0.0135085
742.802	0.0136181
742.880	0.0136635
742.958	0.0136228
743.036	0.0137073
743.114	0.0138653
743.193	0.0136221
743.271	0.0136632
743.349	0.0136044
743.427	0.0135948
743.505	0.0137057
743.583	0.0135378
743.661	0.0135041
743.739	0.0134596
743.818	0.0135793
743.896	0.0134537
743.974	0.0136244
744.052	0.0134089
744.130	0.0133216
744.208	0.0135529
744.286	0.0135889
744.364	0.0134969
744.443	0.0135809
744.521	0.0136125
744.599	0.0134561
744.677	0.0136512
744.755	0.0136456
744.833	0.0137181
744.911	0.0136305
744.989	0.0137105
745.068	0.0136256
745.146	0.0136749
745.224	0.0138476
745.302	0.0137785
745.380	0.0138471
745.458	0.0137205
745.536	0.0136086
745.614	0.0137637
745.693	0.0135957
745.771	0.0136678
745.849	0.0134557
745.927	0.0135600
746.005	0.0135924
746.083	0.0134338
746.161	0.0133087
746.239	0.0133671
746.318	0.0134055
746.396	0.0133975
746.474	0.0134912
746.552	0.0133891
746.630	0.0131760
746.708	0.0133843
746.786	0.0133346
746.864	0.0132578
746.943	0.0133939
747.021	0.0134724
747.099	0.0133643
747.177	0.0133347
747.255	0.0133051
747.333	0.0132052
747.411	0.0132918
747.489	0.0132755
747.568	0.0133873
747.646	0.0132205
747.724	0.0132198
747.802	0.0132349
747.880	0.0133398
747.958	0.0132204
748.036	0.0132443
748.114	0.0133302
748.193	0.0132026
748.271	0.0132334
748.349	0.0132458
748.427	0.0135003
748.505	0.0133362
748.583	0.0133214
748.661	0.0134061
748.739	0.0134422
748.818	0.0132641
748.896	0.0134102
748.974	0.0134638
749.052	0.0134396
749.130	0.0135073
749.208	0.0134061
749.286	0.0136123
749.364	0.0135290
749.443	0.0135702
749.521	0.0134358
749.599	0.0134909
749.677	0.0134193
749.755	0.0135668
749.833	0.0135475
749.911	0.0135932
749.989	0.0135758
750.068	0.0135207
750.146	0.0135445
750.224	0.0135963
750.302	0.0136036
750.380	0.0136784
750.458	0.0135662
750.536	0.0136180
750.614	0.0136804
750.693	0.0137771
750.771	0.0136605
750.849	0.0136162
750.927	0.0137169
751.005	0.0138412
751.083	0.0138454
751.161	0.0137138
751.239	0.0138689
751.318	0.0138758
751.396	0.0139293
751.474	0.0140249
751.552	0.0140254
751.630	0.0140296
751.708	0.0138190
751.786	0.0139957
751.864	0.0140045
751.943	0.0138443
752.021	0.0138278
752.099	0.0137868
752.177	0.0137737
752.255	0.0137509
752.333	0.0135522
752.411	0.0135712
752.489	0.0135405
752.568	0.0134014
752.646	0.0132984
752.724	0.0132397
752.802	0.0131468
752.880	0.0131934
752.958	0.0131981
753.036	0.0131255
753.114	0.0130304
753.193	0.0129324
753.271	0.0129874
753.349	0.0130920
753.427	0.0131066
753.505	0.0129774
753.583	0.0130044
753.661	0.0130190
753.739	0.0132110
753.818	0.0131335
753.896	0.0132257
753.974	0.0130296
754.052	0.0132011
754.130	0.0131017
754.208	0.0130878
754.286	0.0133925
754.364	0.0132887
754.443	0.0132227
754.521	0.0132599
754.599	0.0132552
754.677	0.0133588
754.755	0.0134027
754.833	0.0134539
754.911	0.0135767
754.989	0.0135398
755.068	0.0136325
755.146	0.0136875
755.224	0.0136349
755.302	0.0137305
755.380	0.0138911
755.458	0.0138076
755.536	0.0138996
755.614	0.0138662
755.693	0.0140001
755.771	0.0138290
755.849	0.0137448
755.927	0.0137128
756.005	0.0138804
756.083	0.0137711
756.161	0.0136396
756.239	0.0137135
756.318	0.0135746
756.396	0.0134748
756.474	0.0136565
756.552	0.0135128
756.630	0.0135136
756.708	0.0134502
756.786	0.0132980
756.864	0.0133044
756.943	0.0133486
757.021	0.0133347
757.099	0.0132510
757.177	0.0131958
757.255	0.0132198
757.333	0.0132777
757.411	0.0131787
757.489	0.0132938
757.568	0.0132330
757.646	0.0131565
757.724	0.0131883
757.802	0.0132333
757.880	0.0132844
757.958	0.0133352
758.036	0.0134679
758.114	0.0133207
758.193	0.0134329
758.271	0.0134042
758.349	0.0133926
758.427	0.0133674
758.505	0.0133822
758.583	0.0134698
758.661	0.0134646
758.739	0.0134133
758.818	0.0134351
758.896	0.0135423
758.974	0.0137467
759.052	0.0135805
759.130	0.0136242
759.208	0.0136182
759.286	0.0136322
759.364	0.0136198
759.443	0.0136414
759.521	0.0136205
759.599	0.0136413
759.677	0.0134172
759.755	0.0136281
759.833	0.0136399
759.911	0.0135902
759.989	0.0134921
760.068	0.0134727
760.146	0.0134492
760.224	0.0133810
760.302	0.0135121
760.380	0.0134115
760.458	0.0133848
760.536	0.0134683
760.614	0.0133723
760.693	0.0133807
760.771	0.0132983
760.849	0.0131889
760.927	0.0132484
761.005	0.0130717
761.083	0.0131210
761.161	0.0132020
761.239	0.0130981
761.318	0.0129367
761.396	0.0131493
761.474	0.0130103
761.552	0.0129646
761.630	0.0129563
761.708	0.0128848
761.786	0.0130507
761.864	0.0129404
761.943	0.0130351
762.021	0.0130010
762.099	0.0130678
762.177	0.0130795
762.255	0.0131827
762.333	0.0133224
762.411	0.0132361
762.489	0.0132420
762.568	0.0134959
762.646	0.0134633
762.724	0.0133893
762.802	0.0137586
762.880	0.0136851
762.958	0.0136442
763.036	0.0138113
763.114	0.0137892
763.193	0.0138603
763.271	0.0138696
763.349	0.0140495
763.427	0.0139285
763.505	0.0138409
763.583	0.0138168
763.661	0.0140067
763.739	0.0139407
763.818	0.0138954
763.896	0.0138073
763.974	0.0139488
764.052	0.0138687
764.130	0.0138462
764.208	0.0137994
764.286	0.0137231
764.364	0.0138631
764.443	0.0139618
764.521	0.0136288
764.599	0.0138393
764.677	0.0138345
764.755	0.0137163
764.833	0.0137640
764.911	0.0137212
764.989	0.0136770
765.068	0.0135339
765.146	0.0135433
765.224	0.0135152
765.302	0.0135143
765.380	0.0134164
765.458	0.0133572
765.536	0.0133640
765.614	0.0134437
765.693	0.0131668
765.771	0.0131840
765.849	0.0131744
765.927	0.0130106
766.005	0.0130906
766.083	0.0131177
766.161	0.0130613
766.239	0.0130944
766.318	0.0128448
766.396	0.0130498
766.474	0.0129726
766.552	0.0130099
766.630	0.0128725
766.708	0.0130563
766.786	0.0131780
766.864	0.0130991
766.943	0.0130789
767.021	0.0132140
767.099	0.0132007
767.177	0.0132388
767.255	0.0132808
767.333	0.0134557
767.411	0.0134953
767.489	0.0135049
767.568	0.0135928
767.646	0.0135577
767.724	0.0135160
767.802	0.0134829
767.880	0.0135708
767.958	0.0137031
768.036	0.0136450
768.114	0.0134842
768.193	0.0136740
768.271	0.0136514
768.349	0.0136410
768.427	0.0137217
768.505	0.0136450
768.583	0.0138084
768.661	0.0138749
768.739	0.0136391
768.818	0.0137448
768.896	0.0138350
768.974	0.0136921
769.052	0.0137299
769.130	0.0137745
769.208	0.0138189
769.286	0.0137959
769.364	0.0138731
769.443	0.0137585
769.521	0.0137574
769.599	0.0138145
769.677	0.0136285
769.755	0.0137215
769.833	0.0136249
769.911	0.0136722
769.989	0.0135512
770.068	0.0135130
770.146	0.0135292
770.224	0.0133779
770.302	0.0134876
770.380	0.0133842
770.458	0.0133900
770.536	0.0132211
770.614	0.0132401
770.693	0.0134850
770.771	0.0134451
770.849	0.0132482
770.927	0.0132968
771.005	0.0133453
771.083	0.0135368
771.161	0.0134292
771.239	0.0134481
771.318	0.0135617
771.396	0.0133572
771.474	0.0134792
771.552	0.0135072
771.630	0.0136026
771.708	0.0134528
771.786	0.0134704
771.864	0.0135714
771.943	0.0136485
772.021	0.0136060
772.099	0.0135735
772.177	0.0135851
772.255	0.0134364
772.333	0.0134877
772.411	0.0136197
772.489	0.0136155
772.568	0.0136549
772.646	0.0135944
772.724	0.0137731
772.802	0.0135081
772.880	0.0136053
772.958	0.0136131
773.036	0.0135669
773.114	0.0134640
773.193	0.0135665
773.271	0.0135037
773.349	0.0135950
773.427	0.0134175
773.505	0.0134935
773.583	0.0133483
773.661	0.0132759
773.739	0.0133558
773.818	0.0134013
773.896	0.0134133
773.974	0.0133203
774.052	0.0133496
774.130	0.0132163
774.208	0.0132938
774.286	0.0134009
774.364	0.0133698
774.443	0.0133440
774.521	0.0133341
774.599	0.0133687
774.677	0.0131866
774.755	0.0133208
774.833	0.0133326
774.911	0.0135088
774.989	0.0135009
775.068	0.0135072
775.146	0.0134808
775.224	0.0135995
775.302	0.0134296
775.380	0.0134921
775.458	0.0135488
775.536	0.0135634
775.614	0.0136214
775.693	0.0134853
775.771	0.0135866
775.849	0.0136156
775.927	0.0135327
776.005	0.0135714
776.083	0.0134415
776.161	0.0133931
776.239	0.0135259
776.318	0.0134892
776.396	0.0135308
776.474	0.0136136
776.552	0.0135426
776.630	0.0135318
776.708	0.0134596
776.786	0.0134983
776.864	0.0134093
776.943	0.0133593
777.021	0.0132741
777.099	0.0133877
777.177	0.0133744
777.255	0.0132959
777.333	0.0133393
777.411	0.0134377
777.489	0.0132210
777.568	0.0133485
777.646	0.0133556
777.724	0.0133253
777.802	0.0136456
777.880	0.0134402
777.958	0.0134602
778.036	0.0135387
778.114	0.0135564
778.193	0.0136290
778.271	0.0135987
778.349	0.0136277
778.427	0.0135737
778.505	0.0136414
778.583	0.0136258
778.661	0.0136649
778.739	0.0136810
778.818	0.0136019
778.896	0.0135770
778.974	0.0134828
779.052	0.0134673
779.130	0.0135285
779.208	0.0134763
779.286	0.0133968
779.364	0.0134417
779.443	0.0134688
779.521	0.0135213
779.599	0.0133625
779.677	0.0134284
779.755	0.0135527
779.833	0.0133759
779.911	0.0135449
779.989	0.0134462
780.068	0.0134523
780.146	0.0135217
780.224	0.0134798
780.302	0.0136345
780.380	0.0134663
780.458	0.0134531
780.536	0.0134725
780.614	0.0135692
780.693	0.0135798
780.771	0.0136028
780.849	0.0134682
780.927	0.0134737
781.005	0.0135191
781.083	0.0136293
781.161	0.0135141
781.239	0.0133607
781.318	0.0133551
781.396	0.0133521
781.474	0.0133463
781.552	0.0133356
781.630	0.0134889
781.708	0.0133871
781.786	0.0134173
781.864	0.0134134
781.943	0.0132838
782.021	0.0133711
782.099	0.0132908
782.177	0.0133945
782.255	0.0134615
782.333	0.0134084
782.411	0.0134348
782.489	0.0134849
782.568	0.0135206
782.646	0.0134441
782.724	0.0134704
782.802	0.0136193
782.880	0.0137126
782.958	0.0136578
783.036	0.0136031
783.114	0.0136570
783.193	0.0136808
783.271	0.0137687
783.349	0.0137169
783.427	0.0138139
783.505	0.0137873
783.583	0.0138199
783.661	0.0138032
783.739	0.0137460
783.818	0.0137718
783.896	0.0136707
783.974	0.0136669
784.052	0.0136837
784.130	0.0137415
784.208	0.0135769
784.286	0.0135382
784.364	0.0136551
784.443	0.0136732
784.521	0.0135815
784.599	0.0133891
784.677	0.0134942
784.755	0.0134766
784.833	0.0135276
784.911	0.0134408
784.989	0.0134248
785.068	0.0135174
785.146	0.0133520
785.224	0.0134406
785.302	0.0135043
785.380	0.0135173
785.458	0.0135934
785.536	0.0135196
785.614	0.0136311
785.693	0.0134316
785.771	0.0133506
785.849	0.0134779
785.927	0.0136035
786.005	0.0135447
786.083	0.0136205
786.161	0.0135374
786.239	0.0137371
786.318	0.0135013
786.396	0.0134504
786.474	0.0136106
786.552	0.0135593
786.630	0.0134930
786.708	0.0133867
786.786	0.0134938
786.864	0.0133417
786.943	0.0135448
787.021	0.0135572
787.099	0.0136655
787.177	0.0136255
787.255	0.0136178
787.333	0.0135375
787.411	0.0134314
787.489	0.0136095
787.568	0.0134915
787.646	0.0136618
787.724	0.0134686
787.802	0.0134644
787.880	0.0135547
787.958	0.0134911
788.036	0.0136405
788.114	0.0135163
788.193	0.0135961
788.271	0.0135316
788.349	0.0135063
788.427	0.0135538
788.505	0.0135564
788.583	0.0135061
788.661	0.0135406
788.739	0.0134734
788.818	0.0134763
788.896	0.0135185
788.974	0.0136713
789.052	0.0135973
789.130	0.0134138
789.208	0.0136353
789.286	0.0136446
789.364	0.0134751
789.443	0.0135155
789.521	0.0134859
789.599	0.0135522
789.677	0.0134951
789.755	0.0135586
789.833	0.0135118
789.911	0.0135983
789.989	0.0133981
790.068	0.0135777
790.146	0.0135854
790.224	0.0134894
790.302	0.0135472
790.380	0.0134949
790.458	0.0134769
790.536	0.0134450
790.614	0.0135641
790.693	0.0134823
790.771	0.0135532
790.849	0.0135302
790.927	0.0135239
791.005	0.0135103
791.083	0.0135940
791.161	0.0135110
791.239	0.0136771
791.318	0.0135564
791.396	0.0135294
791.474	0.0135727
791.552	0.0136955
791.630	0.0136118
791.708	0.0138065
791.786	0.0137285
791.864	0.0136623
791.943	0.0135475
792.021	0.0137397
792.099	0.0136317
792.177	0.0137292
792.255	0.0136876
792.333	0.0137133
792.411	0.0136981
792.489	0.0136459
792.568	0.0135790
792.646	0.0135844
792.724	0.0134351
792.802	0.0133527
792.880	0.0135059
792.958	0.0134145
793.036	0.0134879
793.114	0.0135188
793.193	0.0132231
793.271	0.0132792
793.349	0.0133279
793.427	0.0132797
793.505	0.0133604
793.583	0.0131454
793.661	0.0133163
793.739	0.0132053
793.818	0.0132022
793.896	0.0133472
793.974	0.0132755
794.052	0.0132093
794.130	0.0133116
794.208	0.0133065
794.286	0.0132861
794.364	0.0133160
794.443	0.0130804
794.521	0.0131183
794.599	0.0132943
794.677	0.0131036
794.755	0.0132729
794.833	0.0132883
794.911	0.0131409
794.989	0.0132369
795.068	0.0132782
795.146	0.0132461
795.224	0.0132308
795.302	0.0133471
795.380	0.0132935
795.458	0.0133657
795.536	0.0134437
795.614	0.0131853
795.693	0.0134862
795.771	0.0134593
795.849	0.0134149
795.927	0.0133620
796.005	0.0133783
796.083	0.0133438
796.161	0.0135708
796.239	0.0135101
796.318	0.0135635
796.396	0.0134808
796.474	0.0135429
796.552	0.0135888
796.630	0.0135767
796.708	0.0136349
796.786	0.0135479
796.864	0.0134171
796.943	0.0137055
797.021	0.0135511
797.099	0.0135136
797.177	0.0136607
797.255	0.0137275
797.333	0.0138358
797.411	0.0135954
797.489	0.0134740
797.568	0.0135913
797.646	0.0136300
797.724	0.0136337
797.802	0.0136763
797.880	0.0134611
797.958	0.0135766
798.036	0.0135226
798.114	0.0134532
798.193	0.0135773
798.271	0.0134888
798.349	0.0135485
798.427	0.0137244
798.505	0.0136337
798.583	0.0136068
798.661	0.0136806
798.739	0.0135560
798.818	0.0134662
798.896	0.0134888
798.974	0.0134735
799.052	0.0134622
799.130	0.0133557
799.208	0.0131995
799.286	0.0133372
799.364	0.0134177
799.443	0.0132575
799.521	0.0134344
799.599	0.0133366
799.677	0.0133372
799.755	0.0131519
799.833	0.0131972
799.911	0.0131673
799.989	0.0133665
800.068	0.0131530
800.146	0.0133148
800.224	0.0132584
800.302	0.0134305
800.380	0.0132936
800.458	0.0134174
800.536	0.0134499
800.614	0.0134418
800.693	0.0135497
800.771	0.0133930
800.849	0.0134383
800.927	0.0133923
801.005	0.0134763
801.083	0.0133207
801.161	0.0133246
801.239	0.0133360
801.318	0.0133668
801.396	0.0132451
801.474	0.0132761
801.552	0.0133228
801.630	0.0133893
801.708	0.0133418
801.786	0.0134329
801.864	0.0132793
801.943	0.0134148
802.021	0.0133380
802.099	0.0133379
802.177	0.0133859
802.255	0.0133210
802.333	0.0133537
802.411	0.0135114
802.489	0.0133196
802.568	0.0133994
802.646	0.0134384
802.724	0.0134327
802.802	0.0134326
802.880	0.0134656
802.958	0.0134867
803.036	0.0134898
803.114	0.0135598
803.193	0.0135685
803.271	0.0135431
803.349	0.0135001
803.427	0.0137417
803.505	0.0136731
803.583	0.0137683
803.661	0.0138335
803.739	0.0138628
803.818	0.0137762
803.896	0.0137498
803.974	0.0138136
804.052	0.0140051
804.130	0.0139316
804.208	0.0139188
804.286	0.0137828
804.364	0.0137901
804.443	0.0138467
804.521	0.0139125
804.599	0.0137892
804.677	0.0139069
804.755	0.0138738
804.833	0.0138297
804.911	0.0137040
804.989	0.0138482
805.068	0.0136290
805.146	0.0136978
805.224	0.0135641
805.302	0.0136184
805.380	0.0135670
805.458	0.0134599
805.536	0.0136134
805.614	0.0134256
805.693	0.0133240
805.771	0.0133793
805.849	0.0132846
805.927	0.0133353
806.005	0.0132599
806.083	0.0132220
806.161	0.0133461
806.239	0.0132853
806.318	0.0131731
806.396	0.0132873
806.474	0.0132528
806.552	0.0132612
806.630	0.0132746
806.708	0.0131409
806.786	0.0133636
806.864	0.0131601
806.943	0.0132439
807.021	0.0133859
807.099	0.0133951
807.177	0.0133021
807.255	0.0134098
807.333	0.0133516
807.411	0.0133926
807.489	0.0133442
807.568	0.0133857
807.646	0.0133749
807.724	0.0134808
807.802	0.0135922
807.880	0.0134428
807.958	0.0136053
808.036	0.0135577
808.114	0.0135783
808.193	0.0135567
808.271	0.0135365
808.349	0.0135658
808.427	0.0134943
808.505	0.0134796
808.583	0.0135252
808.661	0.0135201
808.739	0.0135887
808.818	0.0136156
808.896	0.0135789
808.974	0.0132887
809.052	0.0133735
809.130	0.0134801
809.208	0.0134435
809.286	0.0134864
809.364	0.0135980
809.443	0.0136160
809.521	0.0135960
809.599	0.0135738
809.677	0.0137701
809.755	0.0136483
809.833	0.0136314
809.911	0.0139417
809.989	0.0138588
810.068	0.0138506
810.146	0.0137566
810.224	0.0136298
810.302	0.0137501
810.380	0.0138174
810.458	0.0139207
810.536	0.0136120
810.614	0.0136939
810.693	0.0136456
810.771	0.0135944
810.849	0.0135709
810.927	0.0134792
811.005	0.0137224
811.083	0.0135239
811.161	0.0133583
811.239	0.0134135
811.318	0.0132966
811.396	0.0132717
811.474	0.0132356
811.552	0.0133276
811.630	0.0133847
811.708	0.0132324
811.786	0.0132037
811.864	0.0132233
811.943	0.0132255
812.021	0.0133348
812.099	0.0132578
812.177	0.0134377
812.255	0.0133845
812.333	0.0135175
812.411	0.0133489
812.489	0.0133671
812.568	0.0134434
812.646	0.0131956
812.724	0.0133355
812.802	0.0134911
812.880	0.0132774
812.958	0.0134270
813.036	0.0134148
813.114	0.0133620
813.193	0.0134559
813.271	0.0134228
813.349	0.0133441
813.427	0.0132793
813.505	0.0133704
813.583	0.0133856
813.661	0.0133689
813.739	0.0134052
813.818	0.0134465
813.896	0.0133267
813.974	0.0133321
814.052	0.0132761
814.130	0.0134014
814.208	0.0135230
814.286	0.0134485
814.364	0.0133699
814.443	0.0134634
814.521	0.0134927
814.599	0.0135150
814.677	0.0136467
814.755	0.0135339
814.833	0.0135423
814.911	0.0135979
814.989	0.0135452
815.068	0.0135699
815.146	0.0135015
815.224	0.0136579
815.302	0.0137003
815.380	0.0136491
815.458	0.0137423
815.536	0.0136121
815.614	0.0136698
815.693	0.0137155
815.771	0.0136693
815.849	0.0135949
815.927	0.0136116
816.005	0.0135668
816.083	0.0135486
816.161	0.0135087
816.239	0.0134849
816.318	0.0134185
816.396	0.0134798
816.474	0.0133390
816.552	0.0133461
816.630	0.0134090
816.708	0.0134097
816.786	0.0133252
816.864	0.0131856
816.943	0.0132546
817.021	0.0132247
817.099	0.0132821
817.177	0.0133273
817.255	0.0134295
817.333	0.0133215
817.411	0.0133165
817.489	0.0132480
817.568	0.0134875
817.646	0.0133754
817.724	0.0132467
817.802	0.0131189
817.880	0.0131850
817.958	0.0134408
818.036	0.0134536
818.114	0.0133319
818.193	0.0133079
818.271	0.0132075
818.349	0.0134058
818.427	0.0133641
818.505	0.0131772
818.583	0.0131927
818.661	0.0133091
818.739	0.0133375
818.818	0.0132922
818.896	0.0132092
818.974	0.0132534
819.052	0.0132300
819.130	0.0133089
819.208	0.0133788
819.286	0.0132289
819.364	0.0132570
819.443	0.0133366
819.521	0.0132558
819.599	0.0132110
819.677	0.0133372
819.755	0.0133618
819.833	0.0133057
819.911	0.0132440
819.989	0.0134084
820.068	0.0132814
820.146	0.0133634
820.224	0.0134218
820.302	0.0134127
820.380	0.0133698
820.458	0.0134563
820.536	0.0134978
820.614	0.0134714
820.693	0.0135378
820.771	0.0135277
820.849	0.0135435
820.927	0.0136635
821.005	0.0137551
821.083	0.0136307
821.161	0.0135889
821.239	0.0136184
821.318	0.0134758
821.396	0.0136475
821.474	0.0136710
821.552	0.0135248
821.630	0.0133746
821.708	0.0136334
821.786	0.0135810
821.864	0.0134315
821.943	0.0134145
822.021	0.0134925
822.099	0.0134586
822.177	0.0134268
822.255	0.0133022
822.333	0.0132550
822.411	0.0133490
822.489	0.0134550
822.568	0.0133023
822.646	0.0135780
822.724	0.0134602
822.802	0.0134469
822.880	0.0134708
822.958	0.0134383
823.036	0.0132283
823.114	0.0133152
823.193	0.0133182
823.271	0.0134463
823.349	0.0134088
823.427	0.0133566
823.505	0.0134009
823.583	0.0133488
823.661	0.0133109
823.739	0.0132150
823.818	0.0132024
823.896	0.0132716
823.974	0.0132776
824.052	0.0132635
824.130	0.0131558
824.208	0.0130669
824.286	0.0133465
824.364	0.0132681
824.443	0.0133447
824.521	0.0132845
824.599	0.0132066
824.677	0.0132192
824.755	0.0133620
824.833	0.0134322
824.911	0.0134294
824.989	0.0134488
825.068	0.0133594
825.146	0.0132795
825.224	0.0132846
825.302	0.0135083
825.380	0.0132640
825.458	0.0134133
825.536	0.0133609
825.614	0.0132816
825.693	0.0133080
825.771	0.0133555
825.849	0.0135258
825.927	0.0133376
826.005	0.0133987
826.083	0.0134692
826.161	0.0133611
826.239	0.0133166
826.318	0.0134596
826.396	0.0133942
826.474	0.0134013
826.552	0.0133826
826.630	0.0134952
826.708	0.0134565
826.786	0.0133624
826.864	0.0134580
826.943	0.0135152
827.021	0.0135025
827.099	0.0132722
827.177	0.0135136
827.255	0.0134629
827.333	0.0133050
827.411	0.0134737
827.489	0.0134529
827.568	0.0134931
827.646	0.0135650
827.724	0.0136560
827.802	0.0136565
827.880	0.0137099
827.958	0.0135326
828.036	0.0136326
828.114	0.0137270
828.193	0.0137468
828.271	0.0138046
828.349	0.0137229
828.427	0.0137741
828.505	0.0138229
828.583	0.0137362
828.661	0.0136452
828.739	0.0136497
828.818	0.0136166
828.896	0.0135706
828.974	0.0135013
829.052	0.0134275
829.130	0.0134443
829.208	0.0134539
829.286	0.0135535
829.364	0.0133434
829.443	0.0132912
829.521	0.0133496
829.599	0.0133064
829.677	0.0134174
829.755	0.0132947
829.833	0.0133542
829.911	0.0133253
829.989	0.0132945
830.068	0.0133785
830.146	0.0134266
830.224	0.0132850
830.302	0.0133060
830.380	0.0134940
830.458	0.0133426
830.536	0.0133908
830.614	0.0135342
830.693	0.0134229
830.771	0.0133943
830.849	0.0134138
830.927	0.0133604
831.005	0.0134148
831.083	0.0134080
831.161	0.0134127
831.239	0.0133570
831.318	0.0133743
831.396	0.0133951
831.474	0.0132978
831.552	0.0133755
831.630	0.0135937
831.708	0.0136778
831.786	0.0135126
831.864	0.0135961
831.943	0.0135034
832.021	0.0135488
832.099	0.0135159
832.177	0.0136169
832.255	0.0137415
832.333	0.0134908
832.411	0.0135332
832.489	0.0136481
832.568	0.0136243
832.646	0.0134341
832.724	0.0135847
832.802	0.0135536
832.880	0.0136709
832.958	0.0135157
833.036	0.0135216
833.114	0.0135773
833.193	0.0135220
833.271	0.0135217
833.349	0.0135655
833.427	0.0135258
833.505	0.0135303
833.583	0.0135832
833.661	0.0135416
833.739	0.0135934
833.818	0.0136101
833.896	0.0136259
833.974	0.0135662
834.052	0.0136406
834.130	0.0135995
834.208	0.0137091
834.286	0.0136858
834.364	0.0136351
834.443	0.0135288
834.521	0.0136750
834.599	0.0135803
834.677	0.0135509
834.755	0.0134892
834.833	0.0134705
834.911	0.0135171
834.989	0.0135957
835.068	0.0134391
835.146	0.0133405
835.224	0.0134160
835.302	0.0132903
835.380	0.0132580
835.458	0.0132034
835.536	0.0131844
835.614	0.0132627
835.693	0.0132743
835.771	0.0131416
835.849	0.0130470
835.927	0.0131380
836.005	0.0132282
836.083	0.0131675
836.161	0.0131070
836.239	0.0132227
836.318	0.0132037
836.396	0.0131702
836.474	0.0131052
836.552	0.0132902
836.630	0.0133215
836.708	0.0132966
836.786	0.0132967
836.864	0.0132986
836.943	0.0133705
837.021	0.0133742
837.099	0.0134975
837.177	0.0134296
837.255	0.0134882
837.333	0.0134871
837.411	0.0133378
837.489	0.0134001
837.568	0.0134265
837.646	0.0133806
837.724	0.0133677
837.802	0.0134127
837.880	0.0133533
837.958	0.0132845
838.036	0.0134666
838.114	0.0132236
838.193	0.0133704
838.271	0.0133831
838.349	0.0132908
838.427	0.0131123
838.505	0.0133484
838.583	0.0133411
838.661	0.0132076
838.739	0.0133532
838.818	0.0132634
838.896	0.0133774
838.974	0.0135120
839.052	0.0133001
839.130	0.0134118
839.208	0.0133352
839.286	0.0135532
839.364	0.0135805
839.443	0.0133542
839.521	0.0135683
839.599	0.0137154
839.677	0.0134817
839.755	0.0135514
839.833	0.0135219
839.911	0.0135622
839.989	0.0134891
840.068	0.0135942
840.146	0.0135842
840.224	0.0135988
840.302	0.0135845
840.380	0.0135110
840.458	0.0135317
840.536	0.0135287
840.614	0.0134690
840.693	0.0133626
840.771	0.0134054
840.849	0.0133885
840.927	0.0133569
841.005	0.0132055
841.083	0.0132440
841.161	0.0132464
841.239	0.0133704
841.318	0.0133373
841.396	0.0132124
841.474	0.0133131
841.552	0.0132432
841.630	0.0132500
841.708	0.0132934
841.786	0.0131901
841.864	0.0133160
841.943	0.0132166
842.021	0.0131482
842.099	0.0133893
842.177	0.0132505
842.255	0.0132488
842.333	0.0133836
842.411	0.0133640
842.489	0.0133709
842.568	0.0133871
842.646	0.0134663
842.724	0.0135119
842.802	0.0134211
842.880	0.0132650
842.958	0.0132944
843.036	0.0133422
843.114	0.0134330
843.193	0.0134200
843.271	0.0133242
843.349	0.0133599
843.427	0.0134022
843.505	0.0133139
843.583	0.0133215
843.661	0.0133366
843.739	0.0132156
843.818	0.0132079
843.896	0.0134774
843.974	0.0133270
844.052	0.0133555
844.130	0.0132516
844.208	0.0132356
844.286	0.0132980
844.364	0.0133286
844.443	0.0133041
844.521	0.0133794
844.599	0.0135024
844.677	0.0133642
844.755	0.0133245
844.833	0.0133456
844.911	0.0134050
844.989	0.0134447
845.068	0.0134283
845.146	0.0134529
845.224	0.0135712
845.302	0.0135509
845.380	0.0134930
845.458	0.0137605
845.536	0.0136150
845.614	0.0134258
845.693	0.0135541
845.771	0.0135575
845.849	0.0135032
845.927	0.0135390
846.005	0.0135314
846.083	0.0135557
846.161	0.0136542
846.239	0.0136491
846.318	0.0136844
846.396	0.0135278
846.474	0.0136088
846.552	0.0136818
846.630	0.0135091
846.708	0.0135399
846.786	0.0136926
846.864	0.0136175
846.943	0.0135965
847.021	0.0135553
847.099	0.0135854
847.177	0.0135764
847.255	0.0134481
847.333	0.0133070
847.411	0.0133870
847.489	0.0133909
847.568	0.0134819
847.646	0.0134883
847.724	0.0132883
847.802	0.0133551
847.880	0.0132738
847.958	0.0132259
848.036	0.0130331
848.114	0.0132034
848.193	0.0132272
848.271	0.0132698
848.349	0.0132787
848.427	0.0133101
848.505	0.0130804
848.583	0.0132472
848.661	0.0132777
848.739	0.0132020
848.818	0.0132212
848.896	0.0133439
848.974	0.0134104
849.052	0.0133714
849.130	0.0135597
849.208	0.0135056
849.286	0.0134834
849.364	0.0135115
849.443	0.0134938
849.521	0.0134995
849.599	0.0136213
849.677	0.0136597
849.755	0.0137206
849.833	0.0137532
849.911	0.0136538
849.989	0.0136676
850.068	0.0137704
850.146	0.0135244
850.224	0.0136843
850.302	0.0136217
850.380	0.0135389
850.458	0.0136487
850.536	0.0136577
850.614	0.0136372
850.693	0.0135178
850.771	0.0135428
850.849	0.0135194
850.927	0.0134695
851.005	0.0133872
851.083	0.0135588
851.161	0.0134472
851.239	0.0133365
851.318	0.0134132
851.396	0.0133627
851.474	0.0133148
851.552	0.0133604
851.630	0.0133138
851.708	0.0133670
851.786	0.0134530
851.864	0.0133026
851.943	0.0134417
852.021	0.0134084
852.099	0.0135347
852.177	0.0133733
852.255	0.0134859
852.333	0.0134512
852.411	0.0135075
852.489	0.0134503
852.568	0.0135429
852.646	0.0135165
852.724	0.0134311
852.802	0.0134300
852.880	0.0133533
852.958	0.0134344
853.036	0.0135789
853.114	0.0135989
853.193	0.0136208
853.271	0.0134091
853.349	0.0135195
853.427	0.0136217
853.505	0.0134689
853.583	0.0134766
853.661	0.0136781
853.739	0.0136481
853.818	0.0134923
853.896	0.0134312
853.974	0.0134988
854.052	0.0136874
854.130	0.0135671
854.208	0.0135577
854.286	0.0136620
854.364	0.0136582
854.443	0.0136402
854.521	0.0135046
854.599	0.0135604
854.677	0.0134370
854.755	0.0135775
854.833	0.0135712
854.911	0.0135603
854.989	0.0134942
855.068	0.0133780
855.146	0.0133021
855.224	0.0133369
855.302	0.0134366
855.380	0.0132861
855.458	0.0133976
855.536	0.0132837
855.614	0.0133018
855.693	0.0132658
855.771	0.0132399
855.849	0.0133036
855.927	0.0133286
856.005	0.0132491
856.083	0.0132539
856.161	0.0132545
856.239	0.0134028
856.318	0.0133937
856.396	0.0132034
856.474	0.0133774
856.552	0.0134371
856.630	0.0134348
856.708	0.0133041
856.786	0.0133033
856.864	0.0134258
856.943	0.0135451
857.021	0.0133324
857.099	0.0135182
857.177	0.0134740
857.255	0.0135172
857.333	0.0134504
857.411	0.0134640
857.489	0.0135291
857.568	0.0134136
857.646	0.0135403
857.724	0.0134403
857.802	0.0134780
857.880	0.0134151
857.958	0.0135085
858.036	0.0135099
858.114	0.0136209
858.193	0.0135514
858.271	0.0134457
858.349	0.0134505
858.427	0.0135078
858.505	0.0135222
858.583	0.0135455
858.661	0.0135840
858.739	0.0135567
858.818	0.0135041
858.896	0.0135662
858.974	0.0135404
859.052	0.0136416
859.130	0.0136301
859.208	0.0134956
859.286	0.0135977
859.364	0.0135419
859.443	0.0135873
859.521	0.0133669
859.599	0.0134048
859.677	0.0134388
859.755	0.0133974
859.833	0.0132796
859.911	0.0133504
859.989	0.0132701
860.068	0.0133426
860.146	0.0133708
860.224	0.0133225
860.302	0.0132219
860.380	0.0131114
860.458	0.0130926
860.536	0.0131205
860.614	0.0131364
860.693	0.0131278
860.771	0.0132245
860.849	0.0130404
860.927	0.0130691
861.005	0.0132800
861.083	0.0131984
861.161	0.0132343
861.239	0.0133541
861.318	0.0134202
861.396	0.0132780
861.474	0.0133381
861.552	0.0134740
861.630	0.0134092
861.708	0.0134766
861.786	0.0136340
861.864	0.0136337
861.943	0.0136242
862.021	0.0136494
862.099	0.0137373
862.177	0.0137087
862.255	0.0137198
862.333	0.0137756
862.411	0.0137305
862.489	0.0138643
862.568	0.0138164
862.646	0.0137143
862.724	0.0139449
862.802	0.0137704
862.880	0.0137859
862.958	0.0137504
863.036	0.0137175
863.114	0.0136251
863.193	0.0138047
863.271	0.0138841
863.349	0.0136709
863.427	0.0135598
863.505	0.0136285
863.583	0.0136273
863.661	0.0136781
863.739	0.0135984
863.818	0.0135616
863.896	0.0135010
863.974	0.0134572
864.052	0.0133579
864.130	0.0133483
864.208	0.0133801
864.286	0.0135635
864.364	0.0134645
864.443	0.0134018
864.521	0.0134413
864.599	0.0132900
864.677	0.0133076
864.755	0.0133856
864.833	0.0132804
864.911	0.0132809
864.989	0.0134534
865.068	0.0133541
865.146	0.0133208
865.224	0.0133456
865.302	0.0133848
865.380	0.0133524
865.458	0.0134547
865.536	0.0133050
865.614	0.0134426
865.693	0.0135210
865.771	0.0135441
865.849	0.0135857
865.927	0.0135162
866.005	0.0135115
866.083	0.0136263
866.161	0.0135261
866.239	0.0134846
866.318	0.0135482
866.396	0.0135947
866.474	0.0135757
866.552	0.0137112
866.630	0.0136702
866.708	0.0136227
866.786	0.0137951
866.864	0.0137362
866.943	0.0137164
867.021	0.0136219
867.099	0.0137348
867.177	0.0136073
867.255	0.0136249
867.333	0.0136103
867.411	0.0134396
867.489	0.0136125
867.568	0.0135194
867.646	0.0135197
867.724	0.0134204
867.802	0.0135350
867.880	0.0135444
867.958	0.0133097
868.036	0.0132834
868.114	0.0133086
868.193	0.0132721
868.271	0.0132384
868.349	0.0133136
868.427	0.0132463
868.505	0.0133636
868.583	0.0132660
868.661	0.0131004
868.739	0.0131297
868.818	0.0133063
868.896	0.0132807
868.974	0.0133113
869.052	0.0133269
869.130	0.0134152
869.208	0.0134676
869.286	0.0133169
869.364	0.0134003
869.443	0.0135501
869.521	0.0134109
869.599	0.0134966
869.677	0.0135449
869.755	0.0135108
869.833	0.0137183
869.911	0.0137622
869.989	0.0136800
870.068	0.0135423
870.146	0.0135845
870.224	0.0136263
870.302	0.0134851
870.380	0.0135549
870.458	0.0136656
870.536	0.0136751
870.614	0.0136331
870.693	0.0134366
870.771	0.0135043
870.849	0.0134097
870.927	0.0134531
871.005	0.0134329
871.083	0.0133723
871.161	0.0134633
871.239	0.0134792
871.318	0.0135167
871.396	0.0134966
871.474	0.0133034
871.552	0.0133189
871.630	0.0133894
871.708	0.0132209
871.786	0.0131901
871.864	0.0133002
871.943	0.0133949
872.021	0.0131647
872.099	0.0131955
872.177	0.0132334
872.255	0.0132227
872.333	0.0133109
872.411	0.0132195
872.489	0.0132677
872.568	0.0132207
872.646	0.0135043
872.724	0.0133994
872.802	0.0134755
872.880	0.0135240
872.958	0.0135207
873.036	0.0134212
873.114	0.0134052
873.193	0.0135660
873.271	0.0136830
873.349	0.0135566
873.427	0.0135853
873.505	0.0135629
873.583	0.0136547
873.661	0.0136781
873.739	0.0135109
873.818	0.0134828
873.896	0.0135388
873.974	0.0136106
874.052	0.0135050
874.130	0.0135381
874.208	0.0137162
874.286	0.0136598
874.364	0.0136811
874.443	0.0135772
874.521	0.0135822
874.599	0.0135048
874.677	0.0135315
874.755	0.0136057
874.833	0.0135985
874.911	0.0135667
874.989	0.0136114
875.068	0.0135188
875.146	0.0134937
875.224	0.0135997
875.302	0.0134514
875.380	0.0135100
875.458	0.0134818
875.536	0.0135067
875.614	0.0134866
875.693	0.0134533
875.771	0.0133796
875.849	0.0133972
875.927	0.0134490
876.005	0.0133044
876.083	0.0133539
876.161	0.0133538
876.239	0.0132927
876.318	0.0133905
876.396	0.0132760
876.474	0.0133338
876.552	0.0133840
876.630	0.0133879
876.708	0.0135136
876.786	0.0133978
876.864	0.0133169
876.943	0.0133572
877.021	0.0134315
877.099	0.0133738
877.177	0.0135876
877.255	0.0135599
877.333	0.0134966
877.411	0.0135732
877.489	0.0136095
877.568	0.0135934
877.646	0.0134840
877.724	0.0135934
877.802	0.0137331
877.880	0.0135995
877.958	0.0136030
878.036	0.0136145
878.114	0.0137157
878.193	0.0138687
878.271	0.0137004
878.349	0.0136511
878.427	0.0136279
878.505	0.0136730
878.583	0.0137293
878.661	0.0137128
878.739	0.0134550
878.818	0.0135217
878.896	0.0135004
878.974	0.0136097
879.052	0.0135608
879.130	0.0136819
879.208	0.0135735
879.286	0.0133263
879.364	0.0132903
879.443	0.0134616
879.521	0.0134444
879.599	0.0132434
879.677	0.0133780
879.755	0.0133604
879.833	0.0134936
879.911	0.0134521
879.989	0.0134357
880.068	0.0132867
880.146	0.0133485
880.224	0.0133628
880.302	0.0134228
880.380	0.0134009
880.458	0.0132544
880.536	0.0133742
880.614	0.0134895
880.693	0.0136024
880.771	0.0135440
880.849	0.0133725
880.927	0.0135538
881.005	0.0134771
881.083	0.0133307
881.161	0.0135205
881.239	0.0135929
881.318	0.0136716
881.396	0.0137690
881.474	0.0136067
881.552	0.0136752
881.630	0.0136281
881.708	0.0136126
881.786	0.0136613
881.864	0.0137324
881.943	0.0134486
882.021	0.0136706
882.099	0.0137276
882.177	0.0135048
882.255	0.0135323
882.333	0.0135883
882.411	0.0135994
882.489	0.0135280
882.568	0.0135426
882.646	0.0135880
882.724	0.0135216
882.802	0.0136991
882.880	0.0134139
882.958	0.0134738
883.036	0.0135416
883.114	0.0135435
883.193	0.0134493
883.271	0.0134484
883.349	0.0132793
883.427	0.0134908
883.505	0.0133884
883.583	0.0134666
883.661	0.0133597
883.739	0.0133940
883.818	0.0132275
883.896	0.0133103
883.974	0.0133674
884.052	0.0133383
884.130	0.0133118
884.208	0.0132567
884.286	0.0132352
884.364	0.0134004
884.443	0.0131588
884.521	0.0132691
884.599	0.0132800
884.677	0.0132527
884.755	0.0133772
884.833	0.0132893
884.911	0.0133935
884.989	0.0133554
885.068	0.0133613
885.146	0.0133749
885.224	0.0134234
885.302	0.0133865
885.380	0.0134508
885.458	0.0133892
885.536	0.0134306
885.614	0.0133952
885.693	0.0135706
885.771	0.0134161
885.849	0.0136246
885.927	0.0134703
886.005	0.0134777
886.083	0.0135985
886.161	0.0135393
886.239	0.0136068
886.318	0.0134629
886.396	0.0136398
886.474	0.0135035
886.552	0.0135411
886.630	0.0135321
886.708	0.0135773
886.786	0.0137437
886.864	0.0137871
886.943	0.0136553
887.021	0.0135934
887.099	0.0136098
887.177	0.0135876
887.255	0.0135753
887.333	0.0137290
887.411	0.0136517
887.489	0.0135683
887.568	0.0134760
887.646	0.0133653
887.724	0.0135184
887.802	0.0134395
887.880	0.0134576
887.958	0.0136028
888.036	0.0134923
888.114	0.0134373
888.193	0.0133842
888.271	0.0133855
888.349	0.0133154
888.427	0.0133879
888.505	0.0131904
888.583	0.0131556
888.661	0.0134206
888.739	0.0133768
888.818	0.0130899
888.896	0.0130248
888.974	0.0131022
889.052	0.0131889
889.130	0.0131841
889.208	0.0131068
889.286	0.0131123
889.364	0.0133626
889.443	0.0131824
889.521	0.0131632
889.599	0.0134054
889.677	0.0133501
889.755	0.0131899
889.833	0.0134413
889.911	0.0132996
889.989	0.0133295
890.068	0.0134653
890.146	0.0135949
890.224	0.0135513
890.302	0.0136140
890.380	0.0134686
890.458	0.0135253
890.536	0.0136098
890.614	0.0134129
890.693	0.0135474
890.771	0.0136160
890.849	0.0135972
890.927	0.0135552
891.005	0.0136768
891.083	0.0137040
891.161	0.0136363
891.239	0.0135376
891.318	0.0134930
891.396	0.0135651
891.474	0.0135262
891.552	0.0136089
891.630	0.0136067
891.708	0.0135533
891.786	0.0135649
891.864	0.0133708
891.943	0.0133778
892.021	0.0135065
892.099	0.0134506
892.177	0.0135441
892.255	0.0134337
892.333	0.0133591
892.411	0.0134309
892.489	0.0134284
892.568	0.0134013
892.646	0.0134578
892.724	0.0133541
892.802	0.0134826
892.880	0.0133578
892.958	0.0135458
893.036	0.0135949
893.114	0.0134874
893.193	0.0134714
893.271	0.0136613
893.349	0.0135323
893.427	0.0135491
893.505	0.0136838
893.583	0.0135288
893.661	0.0135373
893.739	0.0136500
893.818	0.0136033
893.896	0.0135833
893.974	0.0136183
894.052	0.0135988
894.130	0.0134727
894.208	0.0134597
894.286	0.0134788
894.364	0.0134178
894.443	0.0135364
894.521	0.0134617
894.599	0.0133923
894.677	0.0133414
894.755	0.0134354
894.833	0.0134676
894.911	0.0133475
894.989	0.0133243
895.068	0.0134634
895.146	0.0133618
895.224	0.0134289
895.302	0.0133639
895.380	0.0133970
895.458	0.0134505
895.536	0.0133563
895.614	0.0135609
895.693	0.0133967
895.771	0.0132761
895.849	0.0133738
895.927	0.0134436
896.005	0.0133643
896.083	0.0134547
896.161	0.0134914
896.239	0.0134475
896.318	0.0135504
896.396	0.0135063
896.474	0.0134615
896.552	0.0135367
896.630	0.0135760
896.708	0.0134907
896.786	0.0135777
896.864	0.0134666
896.943	0.0135004
897.021	0.0136589
897.099	0.0134710
897.177	0.0134716
897.255	0.0136076
897.333	0.0136504
897.411	0.0135207
897.489	0.0136449
897.568	0.0136162
897.646	0.0134681
897.724	0.0135262
897.802	0.0134479
897.880	0.0135722
897.958	0.0134772
898.036	0.0135022
898.114	0.0135435
898.193	0.0133957
898.271	0.0134793
898.349	0.0134367
898.427	0.0134995
898.505	0.0134476
898.583	0.0133873
898.661	0.0133252
898.739	0.0132782
898.818	0.0133956
898.896	0.0133987
898.974	0.0134070
899.052	0.0133957
899.130	0.0134835
899.208	0.0135186
899.286	0.0133644
899.364	0.0134874
899.443	0.0135426
899.521	0.0135368
899.599	0.0133250
899.677	0.0134454
899.755	0.0135262
899.833	0.0135028
899.911	0.0134782
899.989	0.0133981
900.068	0.0133290
900.146	0.0134662
900.224	0.0134990
900.302	0.0135115
900.380	0.0136150
900.458	0.0133842
900.536	0.0133171
900.614	0.0134444
900.693	0.0134003
900.771	0.0135121
900.849	0.0133797
900.927	0.0133388
901.005	0.0134293
901.083	0.0135620
901.161	0.0134032
901.239	0.0134470
901.318	0.0134470
901.396	0.0136192
901.474	0.0135700
901.552	0.0134673
901.630	0.0134831
901.708	0.0135147
901.786	0.0134549
901.864	0.0137091
901.943	0.0136052
902.021	0.0134766
902.099	0.0136139
902.177	0.0136997
902.255	0.0135900
902.333	0.0136401
902.411	0.0136013
902.489	0.0136676
902.568	0.0136861
902.646	0.0136089
902.724	0.0137015
902.802	0.0135772
902.880	0.0135313
902.958	0.0134316
903.036	0.0135579
903.114	0.0135329
903.193	0.0134218
903.271	0.0134232
903.349	0.0133453
903.427	0.0133181
903.505	0.0134583
903.583	0.0133432
903.661	0.0134579
903.739	0.0134309
903.818	0.0132669
903.896	0.0132706
903.974	0.0132166
904.052	0.0132800
904.130	0.0132859
904.208	0.0132640
904.286	0.0133233
904.364	0.0134185
904.443	0.0133968
904.521	0.0134230
904.599	0.0133938
904.677	0.0133880
904.755	0.0134721
904.833	0.0135096
904.911	0.0134003
904.989	0.0134311
905.068	0.0135313
905.146	0.0136740
905.224	0.0136871
905.302	0.0135456
905.380	0.0136627
905.458	0.0134235
905.536	0.0135642
905.614	0.0134981
905.693	0.0135590
905.771	0.0136006
905.849	0.0134810
905.927	0.0134862
906.005	0.0135844
906.083	0.0135701
906.161	0.0134811
906.239	0.0133943
906.318	0.0134955
906.396	0.0135001
906.474	0.0134560
906.552	0.0134537
906.630	0.0135203
906.708	0.0134341
906.786	0.0133985
906.864	0.0135396
906.943	0.0134077
907.021	0.0133474
907.099	0.0132706
907.177	0.0134016
907.255	0.0133836
907.333	0.0134930
907.411	0.0133099
907.489	0.0132562
907.568	0.0133970
907.646	0.0134588
907.724	0.0134724
907.802	0.0132758
907.880	0.0132827
907.958	0.0133379
908.036	0.0134270
908.114	0.0132092
908.193	0.0130946
908.271	0.0133218
908.349	0.0133376
908.427	0.0132089
908.505	0.0135004
908.583	0.0133031
908.661	0.0133619
908.739	0.0134489
908.818	0.0133356
908.896	0.0132880
908.974	0.0131728
909.052	0.0133350
909.130	0.0134246
909.208	0.0133274
909.286	0.0132540
909.364	0.0133619
909.443	0.0132753
909.521	0.0133565
909.599	0.0134404
909.677	0.0133946
909.755	0.0134424
909.833	0.0133442
909.911	0.0133601
909.989	0.0134274
910.068	0.0135342
910.146	0.0134193
910.224	0.0134379
910.302	0.0133101
910.380	0.0134493
910.458	0.0134605
910.536	0.0134245
910.614	0.0134317
910.693	0.0134467
910.771	0.0134425
910.849	0.0134138
910.927	0.0133820
911.005	0.0134437
911.083	0.0132880
911.161	0.0132953
911.239	0.0135339
911.318	0.0134073
911.396	0.0133550
911.474	0.0133889
911.552	0.0133177
911.630	0.0133025
911.708	0.0131882
911.786	0.0132818
911.864	0.0133843
911.943	0.0132774
912.021	0.0133179
912.099	0.0133871
912.177	0.0132996
912.255	0.0133076
912.333	0.0133943
912.411	0.0133481
912.489	0.0133612
912.568	0.0132926
912.646	0.0134377
912.724	0.0133559
912.802	0.0132038
912.880	0.0133405
912.958	0.0134201
913.036	0.0134499
913.114	0.0133617
913.193	0.0133636
913.271	0.0133217
913.349	0.0133783
913.427	0.0133120
913.505	0.0134502
913.583	0.0133341
913.661	0.0133562
913.739	0.0133344
913.818	0.0134802
913.896	0.0133655
913.974	0.0133795
914.052	0.0134549
914.130	0.0134595
914.208	0.0135223
914.286	0.0135259
914.364	0.0134200
914.443	0.0135971
914.521	0.0133923
914.599	0.0132790
914.677	0.0136276
914.755	0.0136217
914.833	0.0136025
914.911	0.0135279
914.989	0.0135429
915.068	0.0136807
915.146	0.0136648
915.224	0.0134245
915.302	0.0134838
915.380	0.0136361
915.458	0.0136160
915.536	0.0135187
915.614	0.0136422
915.693	0.0136832
915.771	0.0136077
915.849	0.0134975
915.927	0.0135223
916.005	0.0135607
916.083	0.0135581
916.161	0.0135268
916.239	0.0134076
916.318	0.0135100
916.396	0.0134251
916.474	0.0133241
916.552	0.0133467
916.630	0.0133962
916.708	0.0134309
916.786	0.0132887
916.864	0.0134170
916.943	0.0132374
917.021	0.0131805
917.099	0.0133802
917.177	0.0133537
917.255	0.0132533
917.333	0.0133257
917.411	0.0134875
917.489	0.0132607
917.568	0.0133494
917.646	0.0134216
917.724	0.0133118
917.802	0.0131857
917.880	0.0132307
917.958	0.0134479
918.036	0.0133874
918.114	0.0133414
918.193	0.0134015
918.271	0.0132996
918.349	0.0134333
918.427	0.0134023
918.505	0.0133358
918.583	0.0134246
918.661	0.0134985
918.739	0.0134525
918.818	0.0133966
918.896	0.0134272
918.974	0.0134560
919.052	0.0134415
919.130	0.0135421
919.208	0.0135450
919.286	0.0135863
919.364	0.0134176
919.443	0.0135662
919.521	0.0135976
919.599	0.0136542
919.677	0.0136536
919.755	0.0136353
919.833	0.0135556
919.911	0.0137453
919.989	0.0136501
920.068	0.0135293
920.146	0.0135455
920.224	0.0134789
920.302	0.0134962
920.380	0.0135702
920.458	0.0134219
920.536	0.0134483
920.614	0.0135448
920.693	0.0135328
920.771	0.0134601
920.849	0.0135349
920.927	0.0135709
921.005	0.0133258
921.083	0.0134224
921.161	0.0134299
921.239	0.0133955
921.318	0.0132710
921.396	0.0135416
921.474	0.0134839
921.552	0.0135361
921.630	0.0133629
921.708	0.0134201
921.786	0.0136749
921.864	0.0133565
921.943	0.0134072
922.021	0.0134918
922.099	0.0133786
922.177	0.0134061
922.255	0.0135635
922.333	0.0134170
922.411	0.0133571
922.489	0.0134353
922.568	0.0134685
922.646	0.0134007
922.724	0.0134076
922.802	0.0134617
922.880	0.0135314
922.958	0.0133516
923.036	0.0133692
923.114	0.0133450
923.193	0.0134139
923.271	0.0134430
923.349	0.0134272
923.427	0.0134857
923.505	0.0134242
923.583	0.0134476
923.661	0.0134519
923.739	0.0135202
923.818	0.0133415
923.896	0.0135189
923.974	0.0134732
924.052	0.0136249
924.130	0.0135217
924.208	0.0135551
924.286	0.0135473
924.364	0.0135178
924.443	0.0134290
924.521	0.0133810
924.599	0.0134421
924.677	0.0134879
924.755	0.0136108
924.833	0.0136938
924.911	0.0135950
924.989	0.0135793
925.068	0.0135638
925.146	0.0136794
925.224	0.0137292
925.302	0.0136024
925.380	0.0136101
925.458	0.0135616
925.536	0.0135229
925.614	0.0136475
925.693	0.0135651
925.771	0.0136047
925.849	0.0135755
925.927	0.0134315
926.005	0.0134927
926.083	0.0136147
926.161	0.0135403
926.239	0.0133397
926.318	0.0134008
926.396	0.0135594
926.474	0.0134055
926.552	0.0132663
926.630	0.0133137
926.708	0.0134212
926.786	0.0133467
926.864	0.0135249
926.943	0.0135465
927.021	0.0134374
927.099	0.0133802
927.177	0.0132632
927.255	0.0135565
927.333	0.0134202
927.411	0.0134691
927.489	0.0134932
927.568	0.0134665
927.646	0.0133357
927.724	0.0134591
927.802	0.0134306
927.880	0.0134564
927.958	0.0135243
928.036	0.0135850
928.114	0.0134019
928.193	0.0135253
928.271	0.0135484
928.349	0.0133991
928.427	0.0134061
928.505	0.0134491
928.583	0.0134599
928.661	0.0134425
928.739	0.0133444
928.818	0.0132560
928.896	0.0134565
928.974	0.0133247
929.052	0.0133177
929.130	0.0132731
929.208	0.0133215
929.286	0.0133189
929.364	0.0134009
929.443	0.0133001
929.521	0.0133910
929.599	0.0132956
929.677	0.0134081
929.755	0.0133362
929.833	0.0133802
929.911	0.0135795
929.989	0.0135297
930.068	0.0135528
930.146	0.0134229
930.224	0.0134952
930.302	0.0134547
930.380	0.0133606
930.458	0.0135954
930.536	0.0134233
930.614	0.0134586
930.693	0.0134229
930.771	0.0135898
930.849	0.0135692
930.927	0.0133868
931.005	0.0134652
931.083	0.0135771
931.161	0.0134457
931.239	0.0135268
931.318	0.0134688
931.396	0.0133796
931.474	0.0134928
931.552	0.0134138
931.630	0.0135411
931.708	0.0134326
931.786	0.0134541
931.864	0.0135311
931.943	0.0134377
932.021	0.0133231
932.099	0.0133472
932.177	0.0134294
932.255	0.0135251
932.333	0.0135248
932.411	0.0134122
932.489	0.0134943
932.568	0.0134290
932.646	0.0134391
932.724	0.0134046
932.802	0.0133305
932.880	0.0133642
932.958	0.0133724
933.036	0.0133736
933.114	0.0134631
933.193	0.0134349
933.271	0.0133971
933.349	0.0134760
933.427	0.0133659
933.505	0.0134058
933.583	0.0133778
933.661	0.0134792
933.739	0.0134615
933.818	0.0134534
933.896	0.0133102
933.974	0.0135140
934.052	0.0133460
934.130	0.0135050
934.208	0.0134948
934.286	0.0134527
934.364	0.0135796
934.443	0.0134732
934.521	0.0133252
934.599	0.0134020
934.677	0.0133677
934.755	0.0134608
934.833	0.0134242
934.911	0.0134026
934.989	0.0133585
935.068	0.0133706
935.146	0.0133467
935.224	0.0132774
935.302	0.0132521
935.380	0.0133826
935.458	0.0133508
935.536	0.0132710
935.614	0.0131887
935.693	0.0133804
935.771	0.0134570
935.849	0.0134068
935.927	0.0131934
936.005	0.0133562
936.083	0.0134355
936.161	0.0134087
936.239	0.0133896
936.318	0.0134275
936.396	0.0135412
936.474	0.0135260
936.552	0.0134665
936.630	0.0134932
936.708	0.0135690
936.786	0.0134499
936.864	0.0135472
936.943	0.0134871
937.021	0.0135178
937.099	0.0133984
937.177	0.0135084
937.255	0.0134355
937.333	0.0134037
937.411	0.0134129
937.489	0.0133358
937.568	0.0134236
937.646	0.0135155
937.724	0.0134580
937.802	0.0134349
937.880	0.0133360
937.958	0.0133415
938.036	0.0134794
938.114	0.0133768
938.193	0.0132592
938.271	0.0135117
938.349	0.0134506
938.427	0.0133163
938.505	0.0134470
938.583	0.0134409
938.661	0.0135005
938.739	0.0133902
938.818	0.0135201
938.896	0.0135279
938.974	0.0133320
939.052	0.0136095
939.130	0.0135894
939.208	0.0135381
939.286	0.0135329
939.364	0.0133603
939.443	0.0134085
939.521	0.0134363
939.599	0.0135049
939.677	0.0135627
939.755	0.0135162
939.833	0.0135317
939.911	0.0135287
939.989	0.0134515
940.068	0.0135693
940.146	0.0133095
940.224	0.0134486
940.302	0.0134432
940.380	0.0133551
940.458	0.0134847
940.536	0.0133646
940.614	0.0133183
940.693	0.0134413
940.771	0.0132142
940.849	0.0133870
940.927	0.0134866
941.005	0.0133957
941.083	0.0133642
941.161	0.0133807
941.239	0.0134909
941.318	0.0137142
941.396	0.0133649
941.474	0.0136099
941.552	0.0135638
941.630	0.0135874
941.708	0.0135693
941.786	0.0136273
941.864	0.0135764
941.943	0.0135377
942.021	0.0135377
942.099	0.0135515
942.177	0.0135363
942.255	0.0134241
942.333	0.0134791
942.411	0.0135165
942.489	0.0136768
942.568	0.0137169
942.646	0.0135885
942.724	0.0134908
942.802	0.0136629
942.880	0.0135764
942.958	0.0135360
943.036	0.0135477
943.114	0.0136042
943.193	0.0135063
943.271	0.0133949
943.349	0.0135342
943.427	0.0134459
943.505	0.0135313
943.583	0.0134506
943.661	0.0133463
943.739	0.0135586
943.818	0.0133992
943.896	0.0133771
943.974	0.0133474
944.052	0.0135048
944.130	0.0133767
944.208	0.0134792
944.286	0.0134583
944.364	0.0135235
944.443	0.0134946
944.521	0.0135798
944.599	0.0134747
944.677	0.0135413
944.755	0.0134497
944.833	0.0134583
944.911	0.0135666
944.989	0.0137337
945.068	0.0135833
945.146	0.0135877
945.224	0.0136389
945.302	0.0136539
945.380	0.0135753
945.458	0.0135906
945.536	0.0135654
945.614	0.0136213
945.693	0.0137222
945.771	0.0136812
945.849	0.0136012
945.927	0.0136150
946.005	0.0135374
946.083	0.0136242
946.161	0.0135686
946.239	0.0135166
946.318	0.0135376
946.396	0.0136398
946.474	0.0135506
946.552	0.0136295
946.630	0.0137153
946.708	0.0135684
946.786	0.0135926
946.864	0.0135967
946.943	0.0135412
947.021	0.0134726
947.099	0.0136274
947.177	0.0136753
947.255	0.0135109
947.333	0.0137283
947.411	0.0136948
947.489	0.0134716
947.568	0.0135337
947.646	0.0135371
947.724	0.0135230
947.802	0.0134798
947.880	0.0135487
947.958	0.0134361
948.036	0.0134463
948.114	0.0134837
948.193	0.0134796
948.271	0.0134505
948.349	0.0134733
948.427	0.0133749
948.505	0.0133085
948.583	0.0133244
948.661	0.0133875
948.739	0.0133907
948.818	0.0135178
948.896	0.0133496
948.974	0.0132198
949.052	0.0132447
949.130	0.0133717
949.208	0.0134364
949.286	0.0134654
949.364	0.0133456
949.443	0.0134435
949.521	0.0134115
949.599	0.0135660
949.677	0.0134002
949.755	0.0133682
949.833	0.0134887
949.911	0.0135415
949.989	0.0135611
950.068	0.0136560
950.146	0.0137035
950.224	0.0136332
950.302	0.0136076
950.380	0.0135253
950.458	0.0136126
950.536	0.0135630
950.614	0.0136208
950.693	0.0136086
950.771	0.0135927
950.849	0.0135969
950.927	0.0135094
951.005	0.0134316
951.083	0.0135413
951.161	0.0137613
951.239	0.0137425
951.318	0.0135775
951.396	0.0135503
951.474	0.0134523
951.552	0.0136166
951.630	0.0137139
951.708	0.0136505
951.786	0.0136433
951.864	0.0135817
951.943	0.0135666
952.021	0.0135044
952.099	0.0135725
952.177	0.0135972
952.255	0.0135397
952.333	0.0135303
952.411	0.0135480
952.489	0.0135361
952.568	0.0135611
952.646	0.0134906
952.724	0.0134744
952.802	0.0134321
952.880	0.0134342
952.958	0.0133241
953.036	0.0134072
953.114	0.0134447
953.193	0.0134605
953.271	0.0133460
953.349	0.0133939
953.427	0.0132991
953.505	0.0133625
953.583	0.0134779
953.661	0.0135139
953.739	0.0134750
953.818	0.0134754
953.896	0.0134402
953.974	0.0135017
954.052	0.0134574
954.130	0.0136494
954.208	0.0136546
954.286	0.0135991
954.364	0.0136369
954.443	0.0135605
954.521	0.0135283
954.599	0.0135423
954.677	0.0135999
954.755	0.0135848
954.833	0.0135934
954.911	0.0135542
954.989	0.0135629
955.068	0.0135163
955.146	0.0136440
955.224	0.0136567
955.302	0.0135616
955.380	0.0135156
955.458	0.0134686
955.536	0.0135191
955.614	0.0135633
955.693	0.0134427
955.771	0.0136360
955.849	0.0135585
955.927	0.0135365
956.005	0.0136162
956.083	0.0135663
956.161	0.0135284
956.239	0.0134863
956.318	0.0135582
956.396	0.0134756
956.474	0.0135677
956.552	0.0136491
956.630	0.0133533
956.708	0.0133694
956.786	0.0134332
956.864	0.0134757
956.943	0.0133723
957.021	0.0134305
957.099	0.0133435
957.177	0.0134476
957.255	0.0134934
957.333	0.0134435
957.411	0.0134281
957.489	0.0133311
957.568	0.0134685
957.646	0.0133028
957.724	0.0132327
957.802	0.0132855
957.880	0.0131959
957.958	0.0132587
958.036	0.0132781
958.114	0.0132642
958.193	0.0132982
958.271	0.0132999
958.349	0.0134335
958.427	0.0132375
958.505	0.0134154
958.583	0.0135435
958.661	0.0133382
958.739	0.0133519
958.818	0.0134344
958.896	0.0134726
958.974	0.0134769
959.052	0.0134481
959.130	0.0135311
959.208	0.0135292
959.286	0.0134201
959.364	0.0134594
959.443	0.0135664
959.521	0.0134361
959.599	0.0135767
959.677	0.0135332
959.755	0.0135571
959.833	0.0135976
959.911	0.0136147
