05/07/2022	17:40:23	Ver.	4.1	UNKNOWN
Optical Delay	639.989416	Delta X		0.078125	Sweeps	1	Scan Rate	0/0
Coordinates	Axis 1	NaN	Axis 2	NaN	Axis 3	NaN	Axis 4	NaN	Axis 5	NaN	Axis 6	0.000000
TX Power	0.000000	RX Power	0.000000

639.989	0.0132851
640.068	0.0133022
640.146	0.0133502
640.224	0.0134423
640.302	0.0133377
640.380	0.0133002
640.458	0.0131459
640.536	0.0131722
640.614	0.0132767
640.693	0.0132157
640.771	0.0131439
640.849	0.0132250
640.927	0.0132170
641.005	0.0132087
641.083	0.0133165
641.161	0.0132008
641.239	0.0132517
641.318	0.0132786
641.396	0.0132198
641.474	0.0133375
641.552	0.0132053
641.630	0.0132916
641.708	0.0133326
641.786	0.0133007
641.864	0.0132866
641.943	0.0132513
642.021	0.0132736
642.099	0.0131757
642.177	0.0132496
642.255	0.0132221
642.333	0.0132762
642.411	0.0131903
642.489	0.0131548
642.568	0.0133291
642.646	0.0132738
642.724	0.0133821
642.802	0.0134958
642.880	0.0135455
642.958	0.0134901
643.036	0.0135239
643.114	0.0135165
643.193	0.0136079
643.271	0.0136952
643.349	0.0136791
643.427	0.0136054
643.505	0.0135905
643.583	0.0135742
643.661	0.0135399
643.739	0.0135960
643.818	0.0134184
643.896	0.0136089
643.974	0.0135220
644.052	0.0133762
644.130	0.0133705
644.208	0.0135672
644.286	0.0134174
644.364	0.0134007
644.443	0.0133624
644.521	0.0134926
644.599	0.0134936
644.677	0.0135506
644.755	0.0135712
644.833	0.0133893
644.911	0.0134692
644.989	0.0134415
645.068	0.0135112
645.146	0.0135796
645.224	0.0135358
645.302	0.0134077
645.380	0.0135587
645.458	0.0135168
645.536	0.0136168
645.614	0.0136880
645.693	0.0135755
645.771	0.0136098
645.849	0.0137564
645.927	0.0135393
646.005	0.0136211
646.083	0.0137025
646.161	0.0135603
646.239	0.0134827
646.318	0.0134673
646.396	0.0135904
646.474	0.0134718
646.552	0.0133371
646.630	0.0132526
646.708	0.0133723
646.786	0.0133334
646.864	0.0133427
646.943	0.0133913
647.021	0.0131734
647.099	0.0131268
647.177	0.0133170
647.255	0.0131278
647.333	0.0131683
647.411	0.0132649
647.489	0.0132520
647.568	0.0132196
647.646	0.0132478
647.724	0.0132079
647.802	0.0132619
647.880	0.0132304
647.958	0.0132255
648.036	0.0133939
648.114	0.0132861
648.193	0.0133050
648.271	0.0133995
648.349	0.0135547
648.427	0.0135547
648.505	0.0135270
648.583	0.0136472
648.661	0.0137045
648.739	0.0137603
648.818	0.0138172
648.896	0.0138218
648.974	0.0138555
649.052	0.0138689
649.130	0.0139510
649.208	0.0140614
649.286	0.0140946
649.364	0.0141448
649.443	0.0140231
649.521	0.0140827
649.599	0.0140038
649.677	0.0140019
649.755	0.0139410
649.833	0.0138863
649.911	0.0138930
649.989	0.0137057
650.068	0.0137161
650.146	0.0134631
650.224	0.0134589
650.302	0.0133957
650.380	0.0133757
650.458	0.0131757
650.536	0.0130849
650.614	0.0129249
650.693	0.0130618
650.771	0.0130108
650.849	0.0129218
650.927	0.0127934
651.005	0.0129715
651.083	0.0128055
651.161	0.0128474
651.239	0.0130535
651.318	0.0129012
651.396	0.0128853
651.474	0.0130142
651.552	0.0130503
651.630	0.0132979
651.708	0.0133881
651.786	0.0133419
651.864	0.0133567
651.943	0.0135658
652.021	0.0137581
652.099	0.0138052
652.177	0.0139987
652.255	0.0141674
652.333	0.0142226
652.411	0.0142955
652.489	0.0142037
652.568	0.0144246
652.646	0.0146619
652.724	0.0147769
652.802	0.0147657
652.880	0.0146967
652.958	0.0147929
653.036	0.0147910
653.114	0.0147483
653.193	0.0146476
653.271	0.0146023
653.349	0.0144065
653.427	0.0141245
653.505	0.0139581
653.583	0.0137595
653.661	0.0137015
653.739	0.0134045
653.818	0.0131223
653.896	0.0130389
653.974	0.0127768
654.052	0.0125659
654.130	0.0123895
654.208	0.0121194
654.286	0.0120404
654.364	0.0118872
654.443	0.0117747
654.521	0.0117057
654.599	0.0116939
654.677	0.0117548
654.755	0.0117024
654.833	0.0116519
654.911	0.0117450
654.989	0.0119962
655.068	0.0119084
655.146	0.0120728
655.224	0.0123600
655.302	0.0123983
655.380	0.0125478
655.458	0.0129189
655.536	0.0131169
655.614	0.0132068
655.693	0.0135123
655.771	0.0137986
655.849	0.0140374
655.927	0.0141960
656.005	0.0143958
656.083	0.0148104
656.161	0.0148545
656.239	0.0149969
656.318	0.0152648
656.396	0.0154370
656.474	0.0154202
656.552	0.0153647
656.630	0.0153303
656.708	0.0154698
656.786	0.0153406
656.864	0.0153844
656.943	0.0150603
657.021	0.0148828
657.099	0.0147693
657.177	0.0144369
657.255	0.0143596
657.333	0.0141358
657.411	0.0137933
657.489	0.0134241
657.568	0.0131313
657.646	0.0128286
657.724	0.0125781
657.802	0.0123817
657.880	0.0120373
657.958	0.0116340
658.036	0.0113609
658.114	0.0112340
658.193	0.0110844
658.271	0.0110641
658.349	0.0110722
658.427	0.0109219
658.505	0.0108213
658.583	0.0107886
658.661	0.0109483
658.739	0.0110766
658.818	0.0111593
658.896	0.0112433
658.974	0.0115312
659.052	0.0117500
659.130	0.0117835
659.208	0.0121048
659.286	0.0123737
659.364	0.0126277
659.443	0.0129361
659.521	0.0133052
659.599	0.0135514
659.677	0.0137049
659.755	0.0140709
659.833	0.0143383
659.911	0.0146447
659.989	0.0148106
660.068	0.0150853
660.146	0.0152228
660.224	0.0154014
660.302	0.0156083
660.380	0.0156895
660.458	0.0156453
660.536	0.0158318
660.614	0.0158679
660.693	0.0158056
660.771	0.0157824
660.849	0.0155935
660.927	0.0154259
661.005	0.0154272
661.083	0.0151884
661.161	0.0149062
661.239	0.0148104
661.318	0.0145949
661.396	0.0143002
661.474	0.0140511
661.552	0.0138490
661.630	0.0135086
661.708	0.0132511
661.786	0.0130856
661.864	0.0127958
661.943	0.0123768
662.021	0.0120724
662.099	0.0118020
662.177	0.0117096
662.255	0.0116658
662.333	0.0111806
662.411	0.0109700
662.489	0.0110741
662.568	0.0109673
662.646	0.0109278
662.724	0.0106438
662.802	0.0107368
662.880	0.0107275
662.958	0.0105434
663.036	0.0107447
663.114	0.0108630
663.193	0.0109811
663.271	0.0110598
663.349	0.0114821
663.427	0.0116109
663.505	0.0121265
663.583	0.0122488
663.661	0.0126530
663.739	0.0130411
663.818	0.0133160
663.896	0.0136547
663.974	0.0140313
664.052	0.0142384
664.130	0.0144719
664.208	0.0147335
664.286	0.0150961
664.364	0.0152357
664.443	0.0153622
664.521	0.0154888
664.599	0.0156263
664.677	0.0156809
664.755	0.0158353
664.833	0.0158549
664.911	0.0158590
664.989	0.0159053
665.068	0.0157690
665.146	0.0158818
665.224	0.0156109
665.302	0.0154367
665.380	0.0153697
665.458	0.0151151
665.536	0.0150294
665.614	0.0147428
665.693	0.0146118
665.771	0.0143907
665.849	0.0141608
665.927	0.0136891
666.005	0.0135236
666.083	0.0132289
666.161	0.0129103
666.239	0.0126833
666.318	0.0124866
666.396	0.0122268
666.474	0.0119471
666.552	0.0118830
666.630	0.0115678
666.708	0.0114316
666.786	0.0112254
666.864	0.0110900
666.943	0.0110281
667.021	0.0108747
667.099	0.0109532
667.177	0.0110180
667.255	0.0110484
667.333	0.0109703
667.411	0.0110626
667.489	0.0112315
667.568	0.0114011
667.646	0.0115930
667.724	0.0117488
667.802	0.0119633
667.880	0.0120840
667.958	0.0122537
668.036	0.0125064
668.114	0.0126972
668.193	0.0130215
668.271	0.0131090
668.349	0.0132898
668.427	0.0135455
668.505	0.0138509
668.583	0.0139753
668.661	0.0140728
668.739	0.0144366
668.818	0.0145173
668.896	0.0145329
668.974	0.0147937
669.052	0.0148006
669.130	0.0150076
669.208	0.0149090
669.286	0.0150296
669.364	0.0151965
669.443	0.0151467
669.521	0.0151196
669.599	0.0149511
669.677	0.0153330
669.755	0.0151388
669.833	0.0150699
669.911	0.0151081
669.989	0.0150918
670.068	0.0150314
670.146	0.0150068
670.224	0.0148051
670.302	0.0147550
670.380	0.0147352
670.458	0.0146652
670.536	0.0143352
670.614	0.0142574
670.693	0.0141840
670.771	0.0140107
670.849	0.0137431
670.927	0.0135466
671.005	0.0132255
671.083	0.0131432
671.161	0.0129150
671.239	0.0126917
671.318	0.0124662
671.396	0.0123181
671.474	0.0122388
671.552	0.0119601
671.630	0.0118925
671.708	0.0118295
671.786	0.0118445
671.864	0.0115218
671.943	0.0114043
672.021	0.0114978
672.099	0.0113227
672.177	0.0113577
672.255	0.0114451
672.333	0.0114764
672.411	0.0115279
672.489	0.0116059
672.568	0.0118329
672.646	0.0120087
672.724	0.0121767
672.802	0.0124453
672.880	0.0126714
672.958	0.0128954
673.036	0.0131467
673.114	0.0135921
673.193	0.0136901
673.271	0.0139133
673.349	0.0140949
673.427	0.0143288
673.505	0.0146146
673.583	0.0146994
673.661	0.0148288
673.739	0.0149689
673.818	0.0150154
673.896	0.0150213
673.974	0.0152061
674.052	0.0152106
674.130	0.0151932
674.208	0.0150848
674.286	0.0149495
674.364	0.0150029
674.443	0.0149881
674.521	0.0147099
674.599	0.0146320
674.677	0.0145684
674.755	0.0143884
674.833	0.0144334
674.911	0.0143170
674.989	0.0141010
675.068	0.0139360
675.146	0.0139316
675.224	0.0138445
675.302	0.0137111
675.380	0.0137119
675.458	0.0137008
675.536	0.0136504
675.614	0.0136615
675.693	0.0134608
675.771	0.0135760
675.849	0.0135156
675.927	0.0134417
676.005	0.0133709
676.083	0.0134499
676.161	0.0133690
676.239	0.0132702
676.318	0.0131901
676.396	0.0130869
676.474	0.0130322
676.552	0.0126857
676.630	0.0126363
676.708	0.0125059
676.786	0.0122543
676.864	0.0121180
676.943	0.0119986
677.021	0.0118272
677.099	0.0116851
677.177	0.0116058
677.255	0.0114462
677.333	0.0113333
677.411	0.0113101
677.489	0.0112519
677.568	0.0114185
677.646	0.0115109
677.724	0.0113857
677.802	0.0115089
677.880	0.0117903
677.958	0.0119687
678.036	0.0119898
678.114	0.0122306
678.193	0.0126025
678.271	0.0128443
678.349	0.0128215
678.427	0.0131953
678.505	0.0136529
678.583	0.0139204
678.661	0.0141672
678.739	0.0146465
678.818	0.0148790
678.896	0.0150001
678.974	0.0151565
679.052	0.0155274
679.130	0.0156250
679.208	0.0156236
679.286	0.0156383
679.364	0.0157978
679.443	0.0155811
679.521	0.0154690
679.599	0.0151574
679.677	0.0150648
679.755	0.0147402
679.833	0.0146394
679.911	0.0142228
679.989	0.0141240
680.068	0.0138935
680.146	0.0136243
680.224	0.0135149
680.302	0.0132402
680.380	0.0130271
680.458	0.0127856
680.536	0.0126234
680.614	0.0126036
680.693	0.0126855
680.771	0.0125369
680.849	0.0124798
680.927	0.0124899
681.005	0.0124353
681.083	0.0126021
681.161	0.0125910
681.239	0.0128045
681.318	0.0127495
681.396	0.0127608
681.474	0.0129156
681.552	0.0131063
681.630	0.0130183
681.708	0.0130832
681.786	0.0131248
681.864	0.0130196
681.943	0.0131605
682.021	0.0131107
682.099	0.0130877
682.177	0.0130047
682.255	0.0129853
682.333	0.0128604
682.411	0.0128387
682.489	0.0127144
682.568	0.0126149
682.646	0.0124366
682.724	0.0124881
682.802	0.0122532
682.880	0.0123598
682.958	0.0122430
683.036	0.0121856
683.114	0.0120669
683.193	0.0120364
683.271	0.0121145
683.349	0.0122810
683.427	0.0124151
683.505	0.0123405
683.583	0.0126818
683.661	0.0128559
683.739	0.0130471
683.818	0.0132202
683.896	0.0135213
683.974	0.0136548
684.052	0.0139336
684.130	0.0142719
684.208	0.0144217
684.286	0.0147144
684.364	0.0148250
684.443	0.0149993
684.521	0.0150709
684.599	0.0150411
684.677	0.0153330
684.755	0.0151503
684.833	0.0150960
684.911	0.0149200
684.989	0.0148672
685.068	0.0146629
685.146	0.0144879
685.224	0.0141757
685.302	0.0139897
685.380	0.0136076
685.458	0.0133869
685.536	0.0131803
685.614	0.0128865
685.693	0.0124867
685.771	0.0124352
685.849	0.0122354
685.927	0.0119180
686.005	0.0118347
686.083	0.0117880
686.161	0.0116658
686.239	0.0117396
686.318	0.0117741
686.396	0.0119431
686.474	0.0119289
686.552	0.0122721
686.630	0.0123537
686.708	0.0126460
686.786	0.0128502
686.864	0.0130970
686.943	0.0133627
687.021	0.0136451
687.099	0.0137703
687.177	0.0139305
687.255	0.0141636
687.333	0.0142961
687.411	0.0143077
687.489	0.0143090
687.568	0.0145545
687.646	0.0143556
687.724	0.0144052
687.802	0.0142612
687.880	0.0140960
687.958	0.0139782
688.036	0.0139281
688.114	0.0135230
688.193	0.0133926
688.271	0.0131534
688.349	0.0128394
688.427	0.0126013
688.505	0.0124961
688.583	0.0121803
688.661	0.0121500
688.739	0.0120347
688.818	0.0119676
688.896	0.0118721
688.974	0.0118246
689.052	0.0118105
689.130	0.0119219
689.208	0.0119830
689.286	0.0122168
689.364	0.0121676
689.443	0.0122598
689.521	0.0124870
689.599	0.0128285
689.677	0.0129950
689.755	0.0133427
689.833	0.0136777
689.911	0.0136912
689.989	0.0138787
690.068	0.0144270
690.146	0.0145094
690.224	0.0147404
690.302	0.0149310
690.380	0.0149391
690.458	0.0150648
690.536	0.0151742
690.614	0.0151256
690.693	0.0149383
690.771	0.0148959
690.849	0.0148156
690.927	0.0146368
691.005	0.0144731
691.083	0.0142308
691.161	0.0139610
691.239	0.0138660
691.318	0.0135884
691.396	0.0133925
691.474	0.0131969
691.552	0.0130819
691.630	0.0129493
691.708	0.0128301
691.786	0.0127568
691.864	0.0127636
691.943	0.0124429
692.021	0.0124892
692.099	0.0125547
692.177	0.0125256
692.255	0.0125780
692.333	0.0126853
692.411	0.0126338
692.489	0.0127161
692.568	0.0128570
692.646	0.0129064
692.724	0.0131580
692.802	0.0133003
692.880	0.0131618
692.958	0.0133425
693.036	0.0133616
693.114	0.0134787
693.193	0.0133666
693.271	0.0134073
693.349	0.0135071
693.427	0.0136333
693.505	0.0134439
693.583	0.0135591
693.661	0.0135062
693.739	0.0133147
693.818	0.0131858
693.896	0.0132446
693.974	0.0131230
694.052	0.0131937
694.130	0.0131354
694.208	0.0131152
694.286	0.0129002
694.364	0.0127760
694.443	0.0128951
694.521	0.0129313
694.599	0.0128243
694.677	0.0128541
694.755	0.0130372
694.833	0.0130461
694.911	0.0131976
694.989	0.0133008
695.068	0.0132479
695.146	0.0133604
695.224	0.0135045
695.302	0.0138036
695.380	0.0139130
695.458	0.0139510
695.536	0.0142034
695.614	0.0143196
695.693	0.0143829
695.771	0.0143725
695.849	0.0145267
695.927	0.0146601
696.005	0.0145776
696.083	0.0147313
696.161	0.0146931
696.239	0.0144695
696.318	0.0143799
696.396	0.0144125
696.474	0.0142490
696.552	0.0140379
696.630	0.0139899
696.708	0.0139130
696.786	0.0135937
696.864	0.0134432
696.943	0.0132833
697.021	0.0132218
697.099	0.0129135
697.177	0.0128487
697.255	0.0125300
697.333	0.0124150
697.411	0.0123074
697.489	0.0121057
697.568	0.0120258
697.646	0.0119377
697.724	0.0118774
697.802	0.0118990
697.880	0.0118458
697.958	0.0119878
698.036	0.0120120
698.114	0.0120013
698.193	0.0121892
698.271	0.0122578
698.349	0.0123901
698.427	0.0126231
698.505	0.0129237
698.583	0.0129602
698.661	0.0131107
698.739	0.0133746
698.818	0.0135304
698.896	0.0136971
698.974	0.0139397
699.052	0.0140784
699.130	0.0141399
699.208	0.0143465
699.286	0.0143513
699.364	0.0144335
699.443	0.0145374
699.521	0.0147012
699.599	0.0145572
699.677	0.0145602
699.755	0.0144814
699.833	0.0143586
699.911	0.0142303
699.989	0.0142410
700.068	0.0141554
700.146	0.0138717
700.224	0.0138030
700.302	0.0136048
700.380	0.0135138
700.458	0.0133655
700.536	0.0132037
700.614	0.0129696
700.693	0.0127786
700.771	0.0126175
700.849	0.0125197
700.927	0.0124878
701.005	0.0124491
701.083	0.0124519
701.161	0.0124445
701.239	0.0122296
701.318	0.0123938
701.396	0.0123913
701.474	0.0124925
701.552	0.0124823
701.630	0.0126648
701.708	0.0126467
701.786	0.0128017
701.864	0.0128853
701.943	0.0130249
702.021	0.0132845
702.099	0.0133646
702.177	0.0134418
702.255	0.0135756
702.333	0.0138093
702.411	0.0139101
702.489	0.0138840
702.568	0.0140235
702.646	0.0141100
702.724	0.0141193
702.802	0.0139529
702.880	0.0140723
702.958	0.0142116
703.036	0.0139452
703.114	0.0137789
703.193	0.0136351
703.271	0.0137976
703.349	0.0134953
703.427	0.0133650
703.505	0.0133921
703.583	0.0130890
703.661	0.0129434
703.739	0.0128469
703.818	0.0129129
703.896	0.0128393
703.974	0.0126383
704.052	0.0125607
704.130	0.0124075
704.208	0.0126391
704.286	0.0125356
704.364	0.0125993
704.443	0.0126572
704.521	0.0126955
704.599	0.0127567
704.677	0.0129447
704.755	0.0129025
704.833	0.0130338
704.911	0.0131345
704.989	0.0132171
705.068	0.0133643
705.146	0.0133134
705.224	0.0134270
705.302	0.0135335
705.380	0.0135900
705.458	0.0137428
705.536	0.0137595
705.614	0.0137971
705.693	0.0138145
705.771	0.0137128
705.849	0.0138336
705.927	0.0138634
706.005	0.0137964
706.083	0.0136106
706.161	0.0137746
706.239	0.0138184
706.318	0.0137997
706.396	0.0136085
706.474	0.0134847
706.552	0.0133566
706.630	0.0133801
706.708	0.0133677
706.786	0.0132812
706.864	0.0132291
706.943	0.0130718
707.021	0.0130807
707.099	0.0131535
707.177	0.0130595
707.255	0.0131606
707.333	0.0130045
707.411	0.0130033
707.489	0.0129719
707.568	0.0131109
707.646	0.0131413
707.724	0.0132155
707.802	0.0132484
707.880	0.0133797
707.958	0.0133860
708.036	0.0133464
708.114	0.0134698
708.193	0.0134319
708.271	0.0133859
708.349	0.0135399
708.427	0.0135969
708.505	0.0133910
708.583	0.0133656
708.661	0.0134206
708.739	0.0134534
708.818	0.0133674
708.896	0.0131497
708.974	0.0130228
709.052	0.0131675
709.130	0.0130345
709.208	0.0129803
709.286	0.0127795
709.364	0.0127540
709.443	0.0127631
709.521	0.0126654
709.599	0.0126686
709.677	0.0126530
709.755	0.0125281
709.833	0.0126792
709.911	0.0126458
709.989	0.0126646
710.068	0.0128430
710.146	0.0126677
710.224	0.0127205
710.302	0.0130191
710.380	0.0130087
710.458	0.0131825
710.536	0.0131366
710.614	0.0132489
710.693	0.0135191
710.771	0.0134384
710.849	0.0136535
710.927	0.0135805
711.005	0.0135430
711.083	0.0135809
711.161	0.0138013
711.239	0.0138335
711.318	0.0138889
711.396	0.0138609
711.474	0.0138152
711.552	0.0138758
711.630	0.0138958
711.708	0.0138725
711.786	0.0138524
711.864	0.0139215
711.943	0.0136874
712.021	0.0137395
712.099	0.0137642
712.177	0.0135778
712.255	0.0135052
712.333	0.0135612
712.411	0.0135525
712.489	0.0134151
712.568	0.0133598
712.646	0.0132760
712.724	0.0132664
712.802	0.0133470
712.880	0.0132605
712.958	0.0130651
713.036	0.0130397
713.114	0.0130478
713.193	0.0129681
713.271	0.0129118
713.349	0.0129935
713.427	0.0129401
713.505	0.0128776
713.583	0.0129009
713.661	0.0130180
713.739	0.0128641
713.818	0.0130314
713.896	0.0129841
713.974	0.0129345
714.052	0.0130281
714.130	0.0130482
714.208	0.0131662
714.286	0.0131753
714.364	0.0133854
714.443	0.0133772
714.521	0.0134238
714.599	0.0134087
714.677	0.0135999
714.755	0.0135512
714.833	0.0136885
714.911	0.0137304
714.989	0.0136720
715.068	0.0136938
715.146	0.0135766
715.224	0.0137104
715.302	0.0136747
715.380	0.0137537
715.458	0.0136865
715.536	0.0136126
715.614	0.0137585
715.693	0.0135567
715.771	0.0135774
715.849	0.0134641
715.927	0.0134652
716.005	0.0132348
716.083	0.0135606
716.161	0.0133616
716.239	0.0131720
716.318	0.0131783
716.396	0.0132221
716.474	0.0133181
716.552	0.0131354
716.630	0.0132105
716.708	0.0131456
716.786	0.0131812
716.864	0.0130691
716.943	0.0132469
717.021	0.0132386
717.099	0.0132352
717.177	0.0133255
717.255	0.0132197
717.333	0.0133301
717.411	0.0133902
717.489	0.0133993
717.568	0.0135800
717.646	0.0137453
717.724	0.0137680
717.802	0.0137094
717.880	0.0137963
717.958	0.0140665
718.036	0.0141594
718.114	0.0140642
718.193	0.0140982
718.271	0.0142441
718.349	0.0141062
718.427	0.0142905
718.505	0.0142292
718.583	0.0142592
718.661	0.0143488
718.739	0.0143263
718.818	0.0142572
718.896	0.0142133
718.974	0.0141159
719.052	0.0140292
719.130	0.0138696
719.208	0.0138283
719.286	0.0136592
719.364	0.0134898
719.443	0.0134159
719.521	0.0131458
719.599	0.0132165
719.677	0.0129078
719.755	0.0128077
719.833	0.0127275
719.911	0.0125958
719.989	0.0125121
720.068	0.0124586
720.146	0.0122868
720.224	0.0122621
720.302	0.0123153
720.380	0.0122637
720.458	0.0121878
720.536	0.0120931
720.614	0.0122694
720.693	0.0123077
720.771	0.0122816
720.849	0.0122685
720.927	0.0124210
721.005	0.0126311
721.083	0.0125163
721.161	0.0127435
721.239	0.0127758
721.318	0.0129766
721.396	0.0131501
721.474	0.0131818
721.552	0.0130672
721.630	0.0133676
721.708	0.0134704
721.786	0.0134555
721.864	0.0136404
721.943	0.0135989
722.021	0.0137099
722.099	0.0138241
722.177	0.0138509
722.255	0.0139230
722.333	0.0142299
722.411	0.0140711
722.489	0.0141794
722.568	0.0141566
722.646	0.0141322
722.724	0.0141835
722.802	0.0141785
722.880	0.0140684
722.958	0.0140305
723.036	0.0140960
723.114	0.0139729
723.193	0.0138959
723.271	0.0137165
723.349	0.0137670
723.427	0.0138161
723.505	0.0136173
723.583	0.0134919
723.661	0.0135638
723.739	0.0135601
723.818	0.0135114
723.896	0.0133984
723.974	0.0133663
724.052	0.0132709
724.130	0.0132335
724.208	0.0133117
724.286	0.0133699
724.364	0.0132798
724.443	0.0133076
724.521	0.0132063
724.599	0.0131380
724.677	0.0132301
724.755	0.0133086
724.833	0.0133564
724.911	0.0132719
724.989	0.0134177
725.068	0.0133184
725.146	0.0133530
725.224	0.0133471
725.302	0.0131798
725.380	0.0132156
725.458	0.0132648
725.536	0.0132676
725.614	0.0130885
725.693	0.0131862
725.771	0.0130714
725.849	0.0130399
725.927	0.0129414
726.005	0.0129702
726.083	0.0128434
726.161	0.0129179
726.239	0.0128670
726.318	0.0129293
726.396	0.0128430
726.474	0.0128844
726.552	0.0130444
726.630	0.0128774
726.708	0.0130451
726.786	0.0130185
726.864	0.0130708
726.943	0.0130657
727.021	0.0131336
727.099	0.0131219
727.177	0.0132418
727.255	0.0133397
727.333	0.0132832
727.411	0.0133488
727.489	0.0135371
727.568	0.0135346
727.646	0.0135798
727.724	0.0136405
727.802	0.0135307
727.880	0.0136891
727.958	0.0138029
728.036	0.0135124
728.114	0.0137080
728.193	0.0137207
728.271	0.0137036
728.349	0.0136124
728.427	0.0136131
728.505	0.0136835
728.583	0.0138031
728.661	0.0136624
728.739	0.0135374
728.818	0.0136385
728.896	0.0135606
728.974	0.0137197
729.052	0.0135708
729.130	0.0134540
729.208	0.0134267
729.286	0.0134184
729.364	0.0134192
729.443	0.0133788
729.521	0.0135355
729.599	0.0133636
729.677	0.0134145
729.755	0.0134247
729.833	0.0133199
729.911	0.0132546
729.989	0.0133309
730.068	0.0134895
730.146	0.0134544
730.224	0.0133274
730.302	0.0134232
730.380	0.0133955
730.458	0.0133543
730.536	0.0135326
730.614	0.0133959
730.693	0.0132767
730.771	0.0133372
730.849	0.0133757
730.927	0.0133572
731.005	0.0134641
731.083	0.0134517
731.161	0.0133237
731.239	0.0133464
731.318	0.0132654
731.396	0.0132912
731.474	0.0132197
731.552	0.0132858
731.630	0.0132222
731.708	0.0131416
731.786	0.0130451
731.864	0.0131014
731.943	0.0130544
732.021	0.0130907
732.099	0.0131346
732.177	0.0130875
732.255	0.0129231
732.333	0.0129018
732.411	0.0129957
732.489	0.0130924
732.568	0.0129189
732.646	0.0129374
732.724	0.0130434
732.802	0.0129760
732.880	0.0131926
732.958	0.0132404
733.036	0.0130688
733.114	0.0131432
733.193	0.0131360
733.271	0.0133960
733.349	0.0132303
733.427	0.0134284
733.505	0.0134190
733.583	0.0134576
733.661	0.0136544
733.739	0.0135212
733.818	0.0136360
733.896	0.0135777
733.974	0.0136789
734.052	0.0135678
734.130	0.0137567
734.208	0.0136098
734.286	0.0136057
734.364	0.0136050
734.443	0.0136668
734.521	0.0136060
734.599	0.0136676
734.677	0.0137297
734.755	0.0137552
734.833	0.0137149
734.911	0.0135161
734.989	0.0134740
735.068	0.0133878
735.146	0.0135107
735.224	0.0134917
735.302	0.0133292
735.380	0.0133129
735.458	0.0133279
735.536	0.0131815
735.614	0.0132182
735.693	0.0132493
735.771	0.0131015
735.849	0.0130138
735.927	0.0130489
736.005	0.0130180
736.083	0.0129349
736.161	0.0131084
736.239	0.0130897
736.318	0.0130486
736.396	0.0130028
736.474	0.0130294
736.552	0.0131284
736.630	0.0132497
736.708	0.0132479
736.786	0.0131301
736.864	0.0132993
736.943	0.0132907
737.021	0.0133741
737.099	0.0133720
737.177	0.0133929
737.255	0.0134003
737.333	0.0134814
737.411	0.0135510
737.489	0.0136612
737.568	0.0137674
737.646	0.0136382
737.724	0.0137537
737.802	0.0137608
737.880	0.0138131
737.958	0.0137257
738.036	0.0136181
738.114	0.0136080
738.193	0.0135996
738.271	0.0135629
738.349	0.0135282
738.427	0.0134232
738.505	0.0135504
738.583	0.0134600
738.661	0.0133936
738.739	0.0133179
738.818	0.0132243
738.896	0.0133304
738.974	0.0131236
739.052	0.0131970
739.130	0.0131303
739.208	0.0130153
739.286	0.0130709
739.364	0.0130684
739.443	0.0131036
739.521	0.0130256
739.599	0.0130983
739.677	0.0130236
739.755	0.0130159
739.833	0.0131451
739.911	0.0131539
739.989	0.0132367
740.068	0.0133208
740.146	0.0133426
740.224	0.0133775
740.302	0.0134861
740.380	0.0135616
740.458	0.0136904
740.536	0.0138145
740.614	0.0138452
740.693	0.0139503
740.771	0.0139487
740.849	0.0139240
740.927	0.0139149
741.005	0.0139738
741.083	0.0138847
741.161	0.0139876
741.239	0.0139418
741.318	0.0137431
741.396	0.0137663
741.474	0.0136336
741.552	0.0135905
741.630	0.0135915
741.708	0.0135546
741.786	0.0134364
741.864	0.0133829
741.943	0.0131159
742.021	0.0131902
742.099	0.0130596
742.177	0.0130139
742.255	0.0131308
742.333	0.0129795
742.411	0.0130038
742.489	0.0130470
742.568	0.0129169
742.646	0.0129956
742.724	0.0130640
742.802	0.0131135
742.880	0.0130442
742.958	0.0131866
743.036	0.0132716
743.114	0.0132907
743.193	0.0133460
743.271	0.0133765
743.349	0.0132216
743.427	0.0133231
743.505	0.0133563
743.583	0.0134721
743.661	0.0132780
743.739	0.0134745
743.818	0.0134895
743.896	0.0134925
743.974	0.0134938
744.052	0.0135662
744.130	0.0135129
744.208	0.0136311
744.286	0.0136555
744.364	0.0136106
744.443	0.0136344
744.521	0.0137867
744.599	0.0137280
744.677	0.0135094
744.755	0.0137026
744.833	0.0138844
744.911	0.0136401
744.989	0.0137052
745.068	0.0136581
745.146	0.0136337
745.224	0.0137383
745.302	0.0137772
745.380	0.0136594
745.458	0.0135919
745.536	0.0135114
745.614	0.0134113
745.693	0.0134866
745.771	0.0134724
745.849	0.0134158
745.927	0.0132916
746.005	0.0132602
746.083	0.0133523
746.161	0.0134233
746.239	0.0134009
746.318	0.0132899
746.396	0.0132892
746.474	0.0132048
746.552	0.0132232
746.630	0.0133311
746.708	0.0133016
746.786	0.0133046
746.864	0.0134185
746.943	0.0133960
747.021	0.0134482
747.099	0.0134818
747.177	0.0135004
747.255	0.0135198
747.333	0.0136085
747.411	0.0135937
747.489	0.0136907
747.568	0.0136227
747.646	0.0136365
747.724	0.0136431
747.802	0.0136219
747.880	0.0135420
747.958	0.0136451
748.036	0.0134421
748.114	0.0134724
748.193	0.0133129
748.271	0.0135381
748.349	0.0134108
748.427	0.0135769
748.505	0.0135030
748.583	0.0134459
748.661	0.0133378
748.739	0.0134715
748.818	0.0133960
748.896	0.0135605
748.974	0.0134688
749.052	0.0135042
749.130	0.0134840
749.208	0.0134778
749.286	0.0133495
749.364	0.0136052
749.443	0.0135856
749.521	0.0135047
749.599	0.0135135
749.677	0.0135162
749.755	0.0136678
749.833	0.0136098
749.911	0.0135086
749.989	0.0136284
750.068	0.0136715
750.146	0.0135331
750.224	0.0135905
750.302	0.0134304
750.380	0.0134547
750.458	0.0134748
750.536	0.0132928
750.614	0.0132603
750.693	0.0132555
750.771	0.0133607
750.849	0.0132655
750.927	0.0131835
751.005	0.0132227
751.083	0.0131280
751.161	0.0132792
751.239	0.0131145
751.318	0.0130367
751.396	0.0129208
751.474	0.0129436
751.552	0.0130762
751.630	0.0130804
751.708	0.0130215
751.786	0.0129749
751.864	0.0129670
751.943	0.0129488
752.021	0.0128764
752.099	0.0131318
752.177	0.0132442
752.255	0.0132057
752.333	0.0131786
752.411	0.0131317
752.489	0.0131288
752.568	0.0130815
752.646	0.0131716
752.724	0.0134235
752.802	0.0134166
752.880	0.0133813
752.958	0.0135094
753.036	0.0134229
753.114	0.0135575
753.193	0.0135644
753.271	0.0136667
753.349	0.0137093
753.427	0.0137083
753.505	0.0137228
753.583	0.0136276
753.661	0.0136893
753.739	0.0136794
753.818	0.0137241
753.896	0.0136536
753.974	0.0135114
754.052	0.0135724
754.130	0.0135872
754.208	0.0135396
754.286	0.0133078
754.364	0.0132969
754.443	0.0133585
754.521	0.0134421
754.599	0.0133617
754.677	0.0131805
754.755	0.0131240
754.833	0.0130392
754.911	0.0129510
754.989	0.0130042
755.068	0.0129757
755.146	0.0130277
755.224	0.0128159
755.302	0.0127731
755.380	0.0128989
755.458	0.0128246
755.536	0.0127393
755.614	0.0127964
755.693	0.0128687
755.771	0.0128819
755.849	0.0128044
755.927	0.0129733
756.005	0.0130309
756.083	0.0131002
756.161	0.0130408
756.239	0.0132109
756.318	0.0134074
756.396	0.0132409
756.474	0.0133929
756.552	0.0133887
756.630	0.0134209
756.708	0.0134206
756.786	0.0136507
756.864	0.0135664
756.943	0.0134232
757.021	0.0136371
757.099	0.0135577
757.177	0.0136891
757.255	0.0136770
757.333	0.0136035
757.411	0.0136626
757.489	0.0135248
757.568	0.0137162
757.646	0.0137127
757.724	0.0136359
757.802	0.0136735
757.880	0.0136594
757.958	0.0137032
758.036	0.0135556
758.114	0.0135316
758.193	0.0136081
758.271	0.0135905
758.349	0.0134381
758.427	0.0134509
758.505	0.0133686
758.583	0.0132647
758.661	0.0132238
758.739	0.0130787
758.818	0.0130736
758.896	0.0131047
758.974	0.0129978
759.052	0.0129247
759.130	0.0131814
759.208	0.0129700
759.286	0.0128936
759.364	0.0129883
759.443	0.0129896
759.521	0.0131047
759.599	0.0129498
759.677	0.0128283
759.755	0.0130209
759.833	0.0129631
759.911	0.0131715
759.989	0.0130675
760.068	0.0131040
760.146	0.0131516
760.224	0.0132529
760.302	0.0131673
760.380	0.0133540
760.458	0.0133868
760.536	0.0133748
760.614	0.0135005
760.693	0.0135708
760.771	0.0135646
760.849	0.0134267
760.927	0.0136929
761.005	0.0137998
761.083	0.0137476
761.161	0.0136111
761.239	0.0138735
761.318	0.0138502
761.396	0.0138330
761.474	0.0137587
761.552	0.0137527
761.630	0.0136375
761.708	0.0137141
761.786	0.0136965
761.864	0.0137043
761.943	0.0135544
762.021	0.0135822
762.099	0.0136426
762.177	0.0134532
762.255	0.0135339
762.333	0.0135301
762.411	0.0135186
762.489	0.0135922
762.568	0.0135876
762.646	0.0136578
762.724	0.0135112
762.802	0.0136506
762.880	0.0136057
762.958	0.0135777
763.036	0.0135441
763.114	0.0134888
763.193	0.0135433
763.271	0.0134880
763.349	0.0136195
763.427	0.0133965
763.505	0.0134444
763.583	0.0133186
763.661	0.0134368
763.739	0.0132317
763.818	0.0132166
763.896	0.0131269
763.974	0.0133333
764.052	0.0131748
764.130	0.0130370
764.208	0.0132974
764.286	0.0130240
764.364	0.0131904
764.443	0.0131698
764.521	0.0131348
764.599	0.0131057
764.677	0.0132269
764.755	0.0131814
764.833	0.0132156
764.911	0.0132291
764.989	0.0134382
765.068	0.0133005
765.146	0.0132902
765.224	0.0132726
765.302	0.0134875
765.380	0.0135794
765.458	0.0134800
765.536	0.0133939
765.614	0.0134491
765.693	0.0135062
765.771	0.0136391
765.849	0.0135615
765.927	0.0134439
766.005	0.0135110
766.083	0.0136765
766.161	0.0136163
766.239	0.0136465
766.318	0.0136372
766.396	0.0135519
766.474	0.0135543
766.552	0.0136957
766.630	0.0136327
766.708	0.0138158
766.786	0.0137412
766.864	0.0137885
766.943	0.0136663
767.021	0.0137625
767.099	0.0138548
767.177	0.0136491
767.255	0.0136724
767.333	0.0137170
767.411	0.0137051
767.489	0.0136179
767.568	0.0135802
767.646	0.0134853
767.724	0.0133886
767.802	0.0133701
767.880	0.0134306
767.958	0.0133611
768.036	0.0133170
768.114	0.0131138
768.193	0.0130953
768.271	0.0130824
768.349	0.0130572
768.427	0.0128304
768.505	0.0130195
768.583	0.0130459
768.661	0.0129428
768.739	0.0128783
768.818	0.0128749
768.896	0.0128000
768.974	0.0128911
769.052	0.0127561
769.130	0.0129470
769.208	0.0129650
769.286	0.0129915
769.364	0.0130396
769.443	0.0127178
769.521	0.0129346
769.599	0.0130362
769.677	0.0130871
769.755	0.0130624
769.833	0.0131487
769.911	0.0132177
769.989	0.0133076
770.068	0.0133450
770.146	0.0132587
770.224	0.0132608
770.302	0.0134459
770.380	0.0134369
770.458	0.0134065
770.536	0.0134656
770.614	0.0134590
770.693	0.0135903
770.771	0.0134387
770.849	0.0134800
770.927	0.0133936
771.005	0.0135098
771.083	0.0135262
771.161	0.0136361
771.239	0.0134503
771.318	0.0136299
771.396	0.0136567
771.474	0.0136314
771.552	0.0135841
771.630	0.0135726
771.708	0.0135397
771.786	0.0136633
771.864	0.0135280
771.943	0.0133920
772.021	0.0133374
772.099	0.0133084
772.177	0.0134169
772.255	0.0133472
772.333	0.0132763
772.411	0.0132200
772.489	0.0132214
772.568	0.0133567
772.646	0.0129626
772.724	0.0131093
772.802	0.0131463
772.880	0.0130437
772.958	0.0131801
773.036	0.0131007
773.114	0.0130375
773.193	0.0131261
773.271	0.0130018
773.349	0.0131487
773.427	0.0130459
773.505	0.0132381
773.583	0.0129346
773.661	0.0130668
773.739	0.0132200
773.818	0.0131973
773.896	0.0131248
773.974	0.0132466
774.052	0.0130833
774.130	0.0132253
774.208	0.0131531
774.286	0.0130525
774.364	0.0130293
774.443	0.0132323
774.521	0.0131866
774.599	0.0130397
774.677	0.0130453
774.755	0.0131297
774.833	0.0130376
774.911	0.0132045
774.989	0.0131384
775.068	0.0130869
775.146	0.0128873
775.224	0.0132121
775.302	0.0132043
775.380	0.0133233
775.458	0.0133523
775.536	0.0131616
775.614	0.0133880
775.693	0.0133115
775.771	0.0133665
775.849	0.0134511
775.927	0.0133444
776.005	0.0133563
776.083	0.0134053
776.161	0.0134532
776.239	0.0133623
776.318	0.0135249
776.396	0.0136137
776.474	0.0135426
776.552	0.0134460
776.630	0.0135441
776.708	0.0136021
776.786	0.0136717
776.864	0.0136783
776.943	0.0136738
777.021	0.0136649
777.099	0.0136153
777.177	0.0135316
777.255	0.0135880
777.333	0.0134347
777.411	0.0134583
777.489	0.0134795
777.568	0.0135767
777.646	0.0134282
777.724	0.0134039
777.802	0.0134051
777.880	0.0134051
777.958	0.0135399
778.036	0.0133619
778.114	0.0134345
778.193	0.0134645
778.271	0.0132992
778.349	0.0134963
778.427	0.0134795
778.505	0.0134067
778.583	0.0133337
778.661	0.0133296
778.739	0.0132919
778.818	0.0133203
778.896	0.0131736
778.974	0.0131583
779.052	0.0131200
779.130	0.0129873
779.208	0.0129556
779.286	0.0130019
779.364	0.0129011
779.443	0.0129759
779.521	0.0129150
779.599	0.0129904
779.677	0.0128823
779.755	0.0127610
779.833	0.0128752
779.911	0.0128088
779.989	0.0128104
780.068	0.0130057
780.146	0.0128325
780.224	0.0127763
780.302	0.0128962
780.380	0.0129038
780.458	0.0130590
780.536	0.0131699
780.614	0.0131091
780.693	0.0131939
780.771	0.0130791
780.849	0.0133345
780.927	0.0133183
781.005	0.0134402
781.083	0.0134005
781.161	0.0135394
781.239	0.0134776
781.318	0.0135237
781.396	0.0136604
781.474	0.0136398
781.552	0.0137395
781.630	0.0138130
781.708	0.0137518
781.786	0.0137299
781.864	0.0138374
781.943	0.0138889
782.021	0.0137577
782.099	0.0137036
782.177	0.0137691
782.255	0.0137437
782.333	0.0138862
782.411	0.0137505
782.489	0.0138081
782.568	0.0137636
782.646	0.0138114
782.724	0.0136886
782.802	0.0137583
782.880	0.0135842
782.958	0.0135690
783.036	0.0137292
783.114	0.0137272
783.193	0.0136443
783.271	0.0136487
783.349	0.0135839
783.427	0.0135136
783.505	0.0135910
783.583	0.0134573
783.661	0.0133175
783.739	0.0133363
783.818	0.0133336
783.896	0.0133974
783.974	0.0131856
784.052	0.0132831
784.130	0.0131607
784.208	0.0132064
784.286	0.0132829
784.364	0.0132429
784.443	0.0131763
784.521	0.0130409
784.599	0.0130920
784.677	0.0131123
784.755	0.0130144
784.833	0.0131049
784.911	0.0130713
784.989	0.0130429
785.068	0.0130971
785.146	0.0130620
785.224	0.0130434
785.302	0.0130074
785.380	0.0130130
785.458	0.0131232
785.536	0.0128799
785.614	0.0129790
785.693	0.0130637
785.771	0.0131442
785.849	0.0129964
785.927	0.0131278
786.005	0.0131339
786.083	0.0130527
786.161	0.0130449
786.239	0.0131438
786.318	0.0130824
786.396	0.0131325
786.474	0.0132102
786.552	0.0130054
786.630	0.0131235
786.708	0.0131700
786.786	0.0133804
786.864	0.0131157
786.943	0.0131976
787.021	0.0133125
787.099	0.0133344
787.177	0.0133494
787.255	0.0134310
787.333	0.0134198
787.411	0.0134505
787.489	0.0134409
787.568	0.0133579
787.646	0.0133724
787.724	0.0134174
787.802	0.0133457
787.880	0.0134609
787.958	0.0134316
788.036	0.0133348
788.114	0.0133936
788.193	0.0132221
788.271	0.0131757
788.349	0.0132686
788.427	0.0131889
788.505	0.0130900
788.583	0.0132059
788.661	0.0131053
788.739	0.0131368
788.818	0.0131154
788.896	0.0130739
788.974	0.0132079
789.052	0.0130280
789.130	0.0129076
789.208	0.0130510
789.286	0.0130241
789.364	0.0129823
789.443	0.0130977
789.521	0.0132082
789.599	0.0132262
789.677	0.0132222
789.755	0.0133401
789.833	0.0133397
789.911	0.0131996
789.989	0.0132887
790.068	0.0132526
790.146	0.0134148
790.224	0.0133944
790.302	0.0130824
790.380	0.0132153
790.458	0.0132132
790.536	0.0132832
790.614	0.0131424
790.693	0.0131328
790.771	0.0131297
790.849	0.0132689
790.927	0.0132150
791.005	0.0131986
791.083	0.0133147
791.161	0.0132267
791.239	0.0133056
791.318	0.0132889
791.396	0.0133723
791.474	0.0132784
791.552	0.0132932
791.630	0.0135196
791.708	0.0134523
791.786	0.0133643
791.864	0.0134405
791.943	0.0132719
792.021	0.0133203
792.099	0.0135007
792.177	0.0134792
792.255	0.0134646
792.333	0.0134764
792.411	0.0133801
792.489	0.0135226
792.568	0.0134239
792.646	0.0135502
792.724	0.0135747
792.802	0.0135292
792.880	0.0134415
792.958	0.0134856
793.036	0.0135085
793.114	0.0135258
793.193	0.0135606
793.271	0.0135242
793.349	0.0133761
793.427	0.0134937
793.505	0.0135181
793.583	0.0133760
793.661	0.0135213
793.739	0.0134821
793.818	0.0134041
793.896	0.0135210
793.974	0.0134203
794.052	0.0134039
794.130	0.0133794
794.208	0.0134225
794.286	0.0133151
794.364	0.0133516
794.443	0.0133753
794.521	0.0134185
794.599	0.0133037
794.677	0.0133707
794.755	0.0133689
794.833	0.0132520
794.911	0.0132282
794.989	0.0132716
795.068	0.0132348
795.146	0.0132749
795.224	0.0132511
795.302	0.0131629
795.380	0.0133179
795.458	0.0133884
795.536	0.0131976
795.614	0.0133909
795.693	0.0134186
795.771	0.0133946
795.849	0.0133449
795.927	0.0134432
796.005	0.0133059
796.083	0.0134323
796.161	0.0134354
796.239	0.0134557
796.318	0.0135287
796.396	0.0135529
796.474	0.0135932
796.552	0.0135784
796.630	0.0135706
796.708	0.0135189
796.786	0.0135892
796.864	0.0133819
796.943	0.0133929
797.021	0.0134871
797.099	0.0135147
797.177	0.0134356
797.255	0.0134106
797.333	0.0133894
797.411	0.0134643
797.489	0.0132352
797.568	0.0132561
797.646	0.0132650
797.724	0.0133727
797.802	0.0132133
797.880	0.0132545
797.958	0.0132275
798.036	0.0133119
798.114	0.0133615
798.193	0.0133578
798.271	0.0131107
798.349	0.0133592
798.427	0.0133768
798.505	0.0133025
798.583	0.0133759
798.661	0.0132600
798.739	0.0132630
798.818	0.0132291
798.896	0.0133195
798.974	0.0133424
799.052	0.0132347
799.130	0.0131406
799.208	0.0132410
799.286	0.0132270
799.364	0.0132101
799.443	0.0132471
799.521	0.0133157
799.599	0.0132359
799.677	0.0132999
799.755	0.0130839
799.833	0.0131985
799.911	0.0130624
799.989	0.0129410
800.068	0.0130875
800.146	0.0131630
800.224	0.0128887
800.302	0.0128762
800.380	0.0128882
800.458	0.0130005
800.536	0.0129507
800.614	0.0131612
800.693	0.0130920
800.771	0.0129753
800.849	0.0130296
800.927	0.0130605
801.005	0.0130048
801.083	0.0130140
801.161	0.0131767
801.239	0.0130037
801.318	0.0132504
801.396	0.0133353
801.474	0.0131906
801.552	0.0132186
801.630	0.0134467
801.708	0.0135188
801.786	0.0134972
801.864	0.0134521
801.943	0.0135668
802.021	0.0135479
802.099	0.0134409
802.177	0.0134711
802.255	0.0135930
802.333	0.0135827
802.411	0.0135760
802.489	0.0136739
802.568	0.0134347
802.646	0.0134054
802.724	0.0134100
802.802	0.0133495
802.880	0.0133366
802.958	0.0133438
803.036	0.0133129
803.114	0.0133053
803.193	0.0132898
803.271	0.0132595
803.349	0.0132324
803.427	0.0132890
803.505	0.0132434
803.583	0.0131461
803.661	0.0132729
803.739	0.0133043
803.818	0.0133829
803.896	0.0132570
803.974	0.0131366
804.052	0.0133762
804.130	0.0131599
804.208	0.0132230
804.286	0.0131789
804.364	0.0134525
804.443	0.0132545
804.521	0.0132510
804.599	0.0133475
804.677	0.0133496
804.755	0.0133435
804.833	0.0133337
804.911	0.0133072
804.989	0.0134217
805.068	0.0133240
805.146	0.0132503
805.224	0.0132478
805.302	0.0132661
805.380	0.0134319
805.458	0.0132770
805.536	0.0132240
805.614	0.0132965
805.693	0.0133253
805.771	0.0132222
805.849	0.0132860
805.927	0.0132895
806.005	0.0132113
806.083	0.0134289
806.161	0.0133487
806.239	0.0132066
806.318	0.0131969
806.396	0.0133283
806.474	0.0133879
806.552	0.0132962
806.630	0.0133796
806.708	0.0133197
806.786	0.0133691
806.864	0.0133026
806.943	0.0133168
807.021	0.0133726
807.099	0.0131812
807.177	0.0133857
807.255	0.0133633
807.333	0.0133990
807.411	0.0133789
807.489	0.0135757
807.568	0.0134621
807.646	0.0134409
807.724	0.0135348
807.802	0.0134876
807.880	0.0134762
807.958	0.0135244
808.036	0.0135419
808.114	0.0135537
808.193	0.0136913
808.271	0.0136262
808.349	0.0136193
808.427	0.0136495
808.505	0.0136967
808.583	0.0137393
808.661	0.0136877
808.739	0.0134911
808.818	0.0136232
808.896	0.0136265
808.974	0.0134962
809.052	0.0134154
809.130	0.0133724
809.208	0.0134511
809.286	0.0134599
809.364	0.0132690
809.443	0.0132577
809.521	0.0133185
809.599	0.0132815
809.677	0.0131903
809.755	0.0131997
809.833	0.0132456
809.911	0.0131857
809.989	0.0132169
810.068	0.0132194
810.146	0.0133897
810.224	0.0131837
810.302	0.0131385
810.380	0.0132899
810.458	0.0132645
810.536	0.0131742
810.614	0.0130920
810.693	0.0131885
810.771	0.0131976
810.849	0.0132407
810.927	0.0130950
811.005	0.0130660
811.083	0.0131161
811.161	0.0131964
811.239	0.0132280
811.318	0.0132980
811.396	0.0132201
811.474	0.0132209
811.552	0.0132128
811.630	0.0133430
811.708	0.0134007
811.786	0.0133233
811.864	0.0133311
811.943	0.0132955
812.021	0.0133192
812.099	0.0133327
812.177	0.0133808
812.255	0.0134797
812.333	0.0135184
812.411	0.0132870
812.489	0.0133990
812.568	0.0134125
812.646	0.0136005
812.724	0.0134986
812.802	0.0135130
812.880	0.0134895
812.958	0.0134155
813.036	0.0134972
813.114	0.0135673
813.193	0.0133649
813.271	0.0135102
813.349	0.0134960
813.427	0.0134391
813.505	0.0134382
813.583	0.0134129
813.661	0.0134266
813.739	0.0133691
813.818	0.0132426
813.896	0.0132809
813.974	0.0132494
814.052	0.0130714
814.130	0.0131865
814.208	0.0132621
814.286	0.0131412
814.364	0.0131438
814.443	0.0132059
814.521	0.0131336
814.599	0.0131052
814.677	0.0132024
814.755	0.0132924
814.833	0.0131628
814.911	0.0130468
814.989	0.0133392
815.068	0.0131815
815.146	0.0132666
815.224	0.0133406
815.302	0.0131879
815.380	0.0133012
815.458	0.0132554
815.536	0.0135036
815.614	0.0134294
815.693	0.0132117
815.771	0.0133440
815.849	0.0134409
815.927	0.0132790
816.005	0.0133707
816.083	0.0132539
816.161	0.0133468
816.239	0.0134076
816.318	0.0133347
816.396	0.0134229
816.474	0.0132858
816.552	0.0135500
816.630	0.0135172
816.708	0.0134248
816.786	0.0134277
816.864	0.0134901
816.943	0.0135033
817.021	0.0134758
817.099	0.0134750
817.177	0.0133554
817.255	0.0135359
817.333	0.0133933
817.411	0.0133974
817.489	0.0135216
817.568	0.0133195
817.646	0.0134078
817.724	0.0134476
817.802	0.0134283
817.880	0.0132744
817.958	0.0135778
818.036	0.0135462
818.114	0.0134973
818.193	0.0134795
818.271	0.0133922
818.349	0.0133715
818.427	0.0134580
818.505	0.0135834
818.583	0.0133869
818.661	0.0135769
818.739	0.0136849
818.818	0.0135738
818.896	0.0134425
818.974	0.0136059
819.052	0.0135255
819.130	0.0134576
819.208	0.0134760
819.286	0.0133715
819.364	0.0134209
819.443	0.0134921
819.521	0.0135855
819.599	0.0133902
819.677	0.0133872
819.755	0.0134012
819.833	0.0134183
819.911	0.0135427
819.989	0.0133715
820.068	0.0133869
820.146	0.0134150
820.224	0.0133607
820.302	0.0134109
820.380	0.0133572
820.458	0.0132820
820.536	0.0133635
820.614	0.0134644
820.693	0.0132812
820.771	0.0133409
820.849	0.0133148
820.927	0.0134624
821.005	0.0134932
821.083	0.0134379
821.161	0.0135387
821.239	0.0134657
821.318	0.0134377
821.396	0.0135646
821.474	0.0136621
821.552	0.0134584
821.630	0.0134497
821.708	0.0134038
821.786	0.0134450
821.864	0.0134509
821.943	0.0134319
822.021	0.0135659
822.099	0.0133843
822.177	0.0134879
822.255	0.0133847
822.333	0.0133459
822.411	0.0133901
822.489	0.0134071
822.568	0.0132842
822.646	0.0133576
822.724	0.0133556
822.802	0.0132838
822.880	0.0134033
822.958	0.0134856
823.036	0.0133391
823.114	0.0134006
823.193	0.0135741
823.271	0.0134824
823.349	0.0133891
823.427	0.0133212
823.505	0.0133997
823.583	0.0134764
823.661	0.0134241
823.739	0.0133663
823.818	0.0135344
823.896	0.0135550
823.974	0.0134205
824.052	0.0133994
824.130	0.0133447
824.208	0.0132890
824.286	0.0131884
824.364	0.0132115
824.443	0.0132643
824.521	0.0131721
824.599	0.0132394
824.677	0.0132790
824.755	0.0132196
824.833	0.0132261
824.911	0.0133581
824.989	0.0135070
825.068	0.0133503
825.146	0.0133578
825.224	0.0133346
825.302	0.0133591
825.380	0.0133411
825.458	0.0135138
825.536	0.0133942
825.614	0.0134229
825.693	0.0136024
825.771	0.0135927
825.849	0.0134529
825.927	0.0135043
826.005	0.0134735
826.083	0.0134492
826.161	0.0135497
826.239	0.0134898
826.318	0.0133696
826.396	0.0134377
826.474	0.0135165
826.552	0.0134202
826.630	0.0132645
826.708	0.0133194
826.786	0.0133198
826.864	0.0133298
826.943	0.0133323
827.021	0.0131805
827.099	0.0131121
827.177	0.0130747
827.255	0.0130928
827.333	0.0130611
827.411	0.0131283
827.489	0.0131688
827.568	0.0130800
827.646	0.0131887
827.724	0.0131446
827.802	0.0130765
827.880	0.0131468
827.958	0.0131050
828.036	0.0130388
828.114	0.0131832
828.193	0.0131775
828.271	0.0131836
828.349	0.0132273
828.427	0.0133221
828.505	0.0132086
828.583	0.0131930
828.661	0.0131732
828.739	0.0131451
828.818	0.0132196
828.896	0.0132304
828.974	0.0131660
829.052	0.0129704
829.130	0.0130324
829.208	0.0132064
829.286	0.0129734
829.364	0.0131392
829.443	0.0131367
829.521	0.0130814
829.599	0.0131499
829.677	0.0131110
829.755	0.0131276
829.833	0.0131159
829.911	0.0131884
829.989	0.0133117
830.068	0.0132274
830.146	0.0132594
830.224	0.0133838
830.302	0.0131496
830.380	0.0132504
830.458	0.0133162
830.536	0.0133382
830.614	0.0133143
830.693	0.0132646
830.771	0.0133451
830.849	0.0132967
830.927	0.0133695
831.005	0.0132449
831.083	0.0132188
831.161	0.0131975
831.239	0.0133239
831.318	0.0134163
831.396	0.0132366
831.474	0.0133496
831.552	0.0133911
831.630	0.0133754
831.708	0.0133916
831.786	0.0132208
831.864	0.0133711
831.943	0.0134308
832.021	0.0132968
832.099	0.0133547
832.177	0.0135446
832.255	0.0133371
832.333	0.0133544
832.411	0.0132592
832.489	0.0133403
832.568	0.0132629
832.646	0.0131999
832.724	0.0134461
832.802	0.0132829
832.880	0.0133985
832.958	0.0134255
833.036	0.0133294
833.114	0.0132836
833.193	0.0133103
833.271	0.0132800
833.349	0.0132607
833.427	0.0132774
833.505	0.0133128
833.583	0.0132667
833.661	0.0132938
833.739	0.0133624
833.818	0.0133681
833.896	0.0133008
833.974	0.0132576
834.052	0.0133018
834.130	0.0133452
834.208	0.0134258
834.286	0.0134046
834.364	0.0134447
834.443	0.0133990
834.521	0.0134035
834.599	0.0134017
834.677	0.0133351
834.755	0.0133982
834.833	0.0134142
834.911	0.0132196
834.989	0.0133892
835.068	0.0135412
835.146	0.0134901
835.224	0.0133799
835.302	0.0134023
835.380	0.0133901
835.458	0.0136021
835.536	0.0132959
835.614	0.0134778
835.693	0.0135307
835.771	0.0135460
835.849	0.0133605
835.927	0.0134452
836.005	0.0135223
836.083	0.0135230
836.161	0.0133665
836.239	0.0133202
836.318	0.0133585
836.396	0.0133204
836.474	0.0132079
836.552	0.0132314
836.630	0.0133037
836.708	0.0131276
836.786	0.0132516
836.864	0.0132365
836.943	0.0134555
837.021	0.0132875
837.099	0.0134652
837.177	0.0134232
837.255	0.0133178
837.333	0.0134318
837.411	0.0133577
837.489	0.0135931
837.568	0.0134646
837.646	0.0135183
837.724	0.0134350
837.802	0.0134232
837.880	0.0135406
837.958	0.0134585
838.036	0.0135169
838.114	0.0134088
838.193	0.0134614
838.271	0.0134214
838.349	0.0134318
838.427	0.0135197
838.505	0.0133482
838.583	0.0135542
838.661	0.0133842
838.739	0.0132919
838.818	0.0133527
838.896	0.0135088
838.974	0.0134341
839.052	0.0133426
839.130	0.0132735
839.208	0.0133730
839.286	0.0134848
839.364	0.0134728
839.443	0.0133455
839.521	0.0134462
839.599	0.0132537
839.677	0.0134222
839.755	0.0134209
839.833	0.0133575
839.911	0.0134589
839.989	0.0134336
840.068	0.0133253
840.146	0.0132282
840.224	0.0134033
840.302	0.0134077
840.380	0.0133850
840.458	0.0134765
840.536	0.0135231
840.614	0.0135026
840.693	0.0134901
840.771	0.0134132
840.849	0.0135584
840.927	0.0135647
841.005	0.0136318
841.083	0.0136217
841.161	0.0136247
841.239	0.0135291
841.318	0.0134879
841.396	0.0134696
841.474	0.0134384
841.552	0.0134876
841.630	0.0134802
841.708	0.0133110
841.786	0.0134475
841.864	0.0134415
841.943	0.0133820
842.021	0.0132397
842.099	0.0133374
842.177	0.0132401
842.255	0.0131903
842.333	0.0133305
842.411	0.0134213
842.489	0.0133604
842.568	0.0132764
842.646	0.0132353
842.724	0.0132758
842.802	0.0133243
842.880	0.0132117
842.958	0.0132742
843.036	0.0132741
843.114	0.0132665
843.193	0.0131426
843.271	0.0132507
843.349	0.0132853
843.427	0.0132954
843.505	0.0133846
843.583	0.0131531
843.661	0.0132392
843.739	0.0132733
843.818	0.0135031
843.896	0.0133318
843.974	0.0132044
844.052	0.0133360
844.130	0.0134211
844.208	0.0133842
844.286	0.0134610
844.364	0.0135078
844.443	0.0135006
844.521	0.0134164
844.599	0.0133426
844.677	0.0135333
844.755	0.0135204
844.833	0.0134546
844.911	0.0135159
844.989	0.0134394
845.068	0.0134411
845.146	0.0135328
845.224	0.0135401
845.302	0.0135925
845.380	0.0135464
845.458	0.0134725
845.536	0.0134562
845.614	0.0133293
845.693	0.0134161
845.771	0.0133968
845.849	0.0133305
845.927	0.0133554
846.005	0.0132642
846.083	0.0131946
846.161	0.0132488
846.239	0.0134029
846.318	0.0133884
846.396	0.0133117
846.474	0.0132726
846.552	0.0132827
846.630	0.0132096
846.708	0.0132357
846.786	0.0131548
846.864	0.0132036
846.943	0.0133799
847.021	0.0133262
847.099	0.0132010
847.177	0.0133566
847.255	0.0133070
847.333	0.0132201
847.411	0.0133025
847.489	0.0135424
847.568	0.0133146
847.646	0.0134456
847.724	0.0136357
847.802	0.0135929
847.880	0.0135220
847.958	0.0136297
848.036	0.0136649
848.114	0.0135110
848.193	0.0136737
848.271	0.0135835
848.349	0.0136608
848.427	0.0136235
848.505	0.0135090
848.583	0.0136001
848.661	0.0134576
848.739	0.0135191
848.818	0.0135428
848.896	0.0134520
848.974	0.0134299
849.052	0.0133907
849.130	0.0133857
849.208	0.0133260
849.286	0.0133824
849.364	0.0133345
849.443	0.0133617
849.521	0.0133097
849.599	0.0131938
849.677	0.0131348
849.755	0.0131773
849.833	0.0131694
849.911	0.0129991
849.989	0.0129810
850.068	0.0129945
850.146	0.0129117
850.224	0.0130396
850.302	0.0129603
850.380	0.0128912
850.458	0.0129353
850.536	0.0130397
850.614	0.0131190
850.693	0.0131672
850.771	0.0130171
850.849	0.0130830
850.927	0.0131556
851.005	0.0130637
851.083	0.0133623
851.161	0.0133304
851.239	0.0132616
851.318	0.0134509
851.396	0.0134302
851.474	0.0135422
851.552	0.0135429
851.630	0.0133638
851.708	0.0134430
851.786	0.0135481
851.864	0.0133437
851.943	0.0134896
852.021	0.0134299
852.099	0.0133987
852.177	0.0134335
852.255	0.0135167
852.333	0.0134736
852.411	0.0134584
852.489	0.0134880
852.568	0.0134570
852.646	0.0133910
852.724	0.0133713
852.802	0.0134309
852.880	0.0133401
852.958	0.0133292
853.036	0.0133838
853.114	0.0132729
853.193	0.0132641
853.271	0.0131969
853.349	0.0132843
853.427	0.0130797
853.505	0.0130582
853.583	0.0130068
853.661	0.0131104
853.739	0.0131247
853.818	0.0131587
853.896	0.0129571
853.974	0.0129906
854.052	0.0129594
854.130	0.0131115
854.208	0.0130455
854.286	0.0130446
854.364	0.0131490
854.443	0.0130327
854.521	0.0131021
854.599	0.0130716
854.677	0.0129990
854.755	0.0131800
854.833	0.0132497
854.911	0.0131330
854.989	0.0132090
855.068	0.0131848
855.146	0.0131116
855.224	0.0131148
855.302	0.0132641
855.380	0.0133060
855.458	0.0133118
855.536	0.0133699
855.614	0.0132955
855.693	0.0133791
855.771	0.0134066
855.849	0.0134048
855.927	0.0134782
856.005	0.0134975
856.083	0.0134405
856.161	0.0134757
856.239	0.0134516
856.318	0.0133201
856.396	0.0133472
856.474	0.0133906
856.552	0.0134746
856.630	0.0133811
856.708	0.0133546
856.786	0.0132825
856.864	0.0133060
856.943	0.0133871
857.021	0.0134883
857.099	0.0132387
857.177	0.0133933
857.255	0.0133820
857.333	0.0133139
857.411	0.0134763
857.489	0.0135169
857.568	0.0134808
857.646	0.0135225
857.724	0.0135849
857.802	0.0135609
857.880	0.0136388
857.958	0.0135735
858.036	0.0136488
858.114	0.0134448
858.193	0.0134829
858.271	0.0134516
858.349	0.0134195
858.427	0.0133932
858.505	0.0133516
858.583	0.0133849
858.661	0.0133512
858.739	0.0134494
858.818	0.0134763
858.896	0.0134305
858.974	0.0134251
859.052	0.0133969
859.130	0.0133868
859.208	0.0135056
859.286	0.0134433
859.364	0.0135817
859.443	0.0135437
859.521	0.0135321
859.599	0.0136481
859.677	0.0135677
859.755	0.0136806
859.833	0.0135894
859.911	0.0135895
859.989	0.0136625
860.068	0.0135234
860.146	0.0136065
860.224	0.0137276
860.302	0.0134031
860.380	0.0134409
860.458	0.0134570
860.536	0.0135116
860.614	0.0135657
860.693	0.0134711
860.771	0.0135686
860.849	0.0133411
860.927	0.0133543
861.005	0.0132552
861.083	0.0132990
861.161	0.0132737
861.239	0.0131988
861.318	0.0132983
861.396	0.0132653
861.474	0.0131799
861.552	0.0132030
861.630	0.0132272
861.708	0.0131818
861.786	0.0132198
861.864	0.0132001
861.943	0.0130512
862.021	0.0131413
862.099	0.0130634
862.177	0.0131099
862.255	0.0131875
862.333	0.0131081
862.411	0.0131850
862.489	0.0132908
862.568	0.0131899
862.646	0.0131709
862.724	0.0132563
862.802	0.0131969
862.880	0.0131907
862.958	0.0131577
863.036	0.0131452
863.114	0.0131525
863.193	0.0132706
863.271	0.0131854
863.349	0.0132240
863.427	0.0133105
863.505	0.0133732
863.583	0.0135329
863.661	0.0132875
863.739	0.0133339
863.818	0.0134643
863.896	0.0133987
863.974	0.0133225
864.052	0.0133917
864.130	0.0134020
864.208	0.0134716
864.286	0.0134193
864.364	0.0134836
864.443	0.0134682
864.521	0.0134176
864.599	0.0135378
864.677	0.0135069
864.755	0.0135010
864.833	0.0135274
864.911	0.0135007
864.989	0.0135880
865.068	0.0135596
865.146	0.0135796
865.224	0.0135525
865.302	0.0135909
865.380	0.0136019
865.458	0.0134650
865.536	0.0135339
865.614	0.0136194
865.693	0.0135132
865.771	0.0135477
865.849	0.0133368
865.927	0.0133656
866.005	0.0134681
866.083	0.0133389
866.161	0.0133258
866.239	0.0133627
866.318	0.0133955
866.396	0.0134328
866.474	0.0133717
866.552	0.0132361
866.630	0.0132569
866.708	0.0133151
866.786	0.0132403
866.864	0.0133951
866.943	0.0133331
867.021	0.0133260
867.099	0.0133459
867.177	0.0134045
867.255	0.0133451
867.333	0.0133316
867.411	0.0133940
867.489	0.0134088
867.568	0.0134534
867.646	0.0134114
867.724	0.0135503
867.802	0.0134119
867.880	0.0134242
867.958	0.0134635
868.036	0.0134893
868.114	0.0135516
868.193	0.0136591
868.271	0.0134153
868.349	0.0134982
868.427	0.0135159
868.505	0.0133426
868.583	0.0134637
868.661	0.0133808
868.739	0.0134625
868.818	0.0134650
868.896	0.0134303
868.974	0.0133530
869.052	0.0132080
869.130	0.0133086
869.208	0.0133740
869.286	0.0132373
869.364	0.0133970
869.443	0.0133615
869.521	0.0132946
869.599	0.0132885
869.677	0.0133313
869.755	0.0131999
869.833	0.0133179
869.911	0.0132418
869.989	0.0131631
870.068	0.0132568
870.146	0.0132893
870.224	0.0132633
870.302	0.0131985
870.380	0.0131542
870.458	0.0131580
870.536	0.0131886
870.614	0.0132716
870.693	0.0132453
870.771	0.0133157
870.849	0.0132890
870.927	0.0133646
871.005	0.0134390
871.083	0.0133291
871.161	0.0133636
871.239	0.0133423
871.318	0.0134355
871.396	0.0133809
871.474	0.0134435
871.552	0.0135143
871.630	0.0135800
871.708	0.0136292
871.786	0.0134550
871.864	0.0135154
871.943	0.0135522
872.021	0.0134830
872.099	0.0136185
872.177	0.0136134
872.255	0.0135539
872.333	0.0135878
872.411	0.0135749
872.489	0.0136249
872.568	0.0134949
872.646	0.0133356
872.724	0.0133506
872.802	0.0134433
872.880	0.0133955
872.958	0.0134274
873.036	0.0134255
873.114	0.0132996
873.193	0.0132905
873.271	0.0133273
873.349	0.0131506
873.427	0.0131926
873.505	0.0133734
873.583	0.0131961
873.661	0.0132693
873.739	0.0132542
873.818	0.0131484
873.896	0.0132335
873.974	0.0132277
874.052	0.0131533
874.130	0.0132242
874.208	0.0132696
874.286	0.0133646
874.364	0.0133256
874.443	0.0133212
874.521	0.0133182
874.599	0.0131657
874.677	0.0134035
874.755	0.0134750
874.833	0.0133783
874.911	0.0132944
874.989	0.0134109
875.068	0.0134589
875.146	0.0133731
875.224	0.0133890
875.302	0.0134734
875.380	0.0135105
875.458	0.0135663
875.536	0.0136681
875.614	0.0133911
875.693	0.0134667
875.771	0.0135346
875.849	0.0133944
875.927	0.0135793
876.005	0.0135701
876.083	0.0135303
876.161	0.0135501
876.239	0.0134003
876.318	0.0136230
876.396	0.0136546
876.474	0.0136021
876.552	0.0134564
876.630	0.0134106
876.708	0.0133845
876.786	0.0134896
876.864	0.0133504
876.943	0.0134411
877.021	0.0134630
877.099	0.0134353
877.177	0.0134047
877.255	0.0134416
877.333	0.0132652
877.411	0.0131024
877.489	0.0132851
877.568	0.0133469
877.646	0.0131782
877.724	0.0131507
877.802	0.0132844
877.880	0.0133355
877.958	0.0132602
878.036	0.0132641
878.114	0.0131892
878.193	0.0132190
878.271	0.0132577
878.349	0.0132095
878.427	0.0132236
878.505	0.0133821
878.583	0.0132497
878.661	0.0132092
878.739	0.0132939
878.818	0.0132457
878.896	0.0132967
878.974	0.0133005
879.052	0.0131214
879.130	0.0132362
879.208	0.0133644
879.286	0.0132316
879.364	0.0132633
879.443	0.0132092
879.521	0.0131875
879.599	0.0132157
879.677	0.0131454
879.755	0.0133113
879.833	0.0133826
879.911	0.0133056
879.989	0.0131729
880.068	0.0132642
880.146	0.0132466
880.224	0.0132333
880.302	0.0134283
880.380	0.0134489
880.458	0.0133115
880.536	0.0134480
880.614	0.0133075
880.693	0.0131991
880.771	0.0134264
880.849	0.0133796
880.927	0.0134757
881.005	0.0134031
881.083	0.0134518
881.161	0.0132105
881.239	0.0134434
881.318	0.0133261
881.396	0.0132175
881.474	0.0134064
881.552	0.0133565
881.630	0.0134101
881.708	0.0134576
881.786	0.0134107
881.864	0.0133718
881.943	0.0133682
882.021	0.0133991
882.099	0.0133334
882.177	0.0133279
882.255	0.0133565
882.333	0.0134865
882.411	0.0134953
882.489	0.0133577
882.568	0.0133911
882.646	0.0134776
882.724	0.0132311
882.802	0.0132768
882.880	0.0133752
882.958	0.0133999
883.036	0.0134190
883.114	0.0132876
883.193	0.0133111
883.271	0.0132662
883.349	0.0131830
883.427	0.0132958
883.505	0.0131332
883.583	0.0133141
883.661	0.0133428
883.739	0.0132744
883.818	0.0133303
883.896	0.0133438
883.974	0.0132219
884.052	0.0132670
884.130	0.0132504
884.208	0.0132388
884.286	0.0132981
884.364	0.0133695
884.443	0.0134402
884.521	0.0133343
884.599	0.0133344
884.677	0.0133383
884.755	0.0133559
884.833	0.0134714
884.911	0.0134641
884.989	0.0135920
885.068	0.0134349
885.146	0.0135381
885.224	0.0134389
885.302	0.0134452
885.380	0.0134770
885.458	0.0134317
885.536	0.0134513
885.614	0.0135267
885.693	0.0133848
885.771	0.0135005
885.849	0.0134581
885.927	0.0134340
886.005	0.0134099
886.083	0.0132147
886.161	0.0133574
886.239	0.0131764
886.318	0.0132508
886.396	0.0132620
886.474	0.0132127
886.552	0.0133124
886.630	0.0132771
886.708	0.0132951
886.786	0.0131168
886.864	0.0132181
886.943	0.0132419
887.021	0.0131799
887.099	0.0132383
887.177	0.0132616
887.255	0.0131989
887.333	0.0133231
887.411	0.0132036
887.489	0.0131021
887.568	0.0131962
887.646	0.0132610
887.724	0.0133530
887.802	0.0132565
887.880	0.0133239
887.958	0.0133276
888.036	0.0134764
888.114	0.0134967
888.193	0.0133672
888.271	0.0133184
888.349	0.0134082
888.427	0.0134882
888.505	0.0132445
888.583	0.0133847
888.661	0.0132835
888.739	0.0132819
888.818	0.0132549
888.896	0.0133350
888.974	0.0133681
889.052	0.0133755
889.130	0.0133521
889.208	0.0132048
889.286	0.0131606
889.364	0.0134007
889.443	0.0133028
889.521	0.0132300
889.599	0.0133701
889.677	0.0133247
889.755	0.0134535
889.833	0.0133321
889.911	0.0134492
889.989	0.0133463
890.068	0.0133797
890.146	0.0135509
890.224	0.0135214
890.302	0.0134543
890.380	0.0134463
890.458	0.0134071
890.536	0.0133945
890.614	0.0134172
890.693	0.0134720
890.771	0.0136098
890.849	0.0135134
890.927	0.0134944
891.005	0.0135346
891.083	0.0133801
891.161	0.0134478
891.239	0.0134539
891.318	0.0134210
891.396	0.0134435
891.474	0.0134389
891.552	0.0136410
891.630	0.0135802
891.708	0.0135126
891.786	0.0135539
891.864	0.0135558
891.943	0.0136314
892.021	0.0135778
892.099	0.0133819
892.177	0.0133483
892.255	0.0136147
892.333	0.0133852
892.411	0.0132544
892.489	0.0134933
892.568	0.0133569
892.646	0.0132430
892.724	0.0134327
892.802	0.0134473
892.880	0.0132162
892.958	0.0132575
893.036	0.0133439
893.114	0.0133221
893.193	0.0134483
893.271	0.0134470
893.349	0.0134541
893.427	0.0135355
893.505	0.0133122
893.583	0.0133757
893.661	0.0134895
893.739	0.0134495
893.818	0.0136303
893.896	0.0134961
893.974	0.0135034
894.052	0.0136308
894.130	0.0135296
894.208	0.0134629
894.286	0.0135062
894.364	0.0137508
894.443	0.0135459
894.521	0.0136041
894.599	0.0136230
894.677	0.0134306
894.755	0.0134814
894.833	0.0136235
894.911	0.0135223
894.989	0.0134240
895.068	0.0135371
895.146	0.0134966
895.224	0.0133885
895.302	0.0134017
895.380	0.0133855
895.458	0.0133778
895.536	0.0134483
895.614	0.0134058
895.693	0.0134077
895.771	0.0134256
895.849	0.0134946
895.927	0.0132780
896.005	0.0131963
896.083	0.0132555
896.161	0.0131945
896.239	0.0131553
896.318	0.0132680
896.396	0.0132372
896.474	0.0133041
896.552	0.0132794
896.630	0.0132489
896.708	0.0132098
896.786	0.0132408
896.864	0.0132528
896.943	0.0131798
897.021	0.0133400
897.099	0.0133370
897.177	0.0131977
897.255	0.0134509
897.333	0.0133101
897.411	0.0133774
897.489	0.0132410
897.568	0.0133520
897.646	0.0133903
897.724	0.0133452
897.802	0.0134901
897.880	0.0135515
897.958	0.0133077
898.036	0.0135716
898.114	0.0134251
898.193	0.0134769
898.271	0.0134272
898.349	0.0133397
898.427	0.0134483
898.505	0.0134641
898.583	0.0133381
898.661	0.0134052
898.739	0.0136314
898.818	0.0133967
898.896	0.0133455
898.974	0.0134874
899.052	0.0134968
899.130	0.0133199
899.208	0.0134490
899.286	0.0134786
899.364	0.0135236
899.443	0.0134397
899.521	0.0136103
899.599	0.0135922
899.677	0.0136595
899.755	0.0135733
899.833	0.0134437
899.911	0.0136667
899.989	0.0137290
900.068	0.0136093
900.146	0.0135352
900.224	0.0136432
900.302	0.0136326
900.380	0.0135855
900.458	0.0136151
900.536	0.0135667
900.614	0.0136386
900.693	0.0136248
900.771	0.0135584
900.849	0.0137107
900.927	0.0133678
901.005	0.0133110
901.083	0.0134731
901.161	0.0133643
901.239	0.0134746
901.318	0.0134058
901.396	0.0132322
901.474	0.0131723
901.552	0.0132090
901.630	0.0130765
901.708	0.0131202
901.786	0.0131252
901.864	0.0129411
901.943	0.0130231
902.021	0.0130488
902.099	0.0130489
902.177	0.0130949
902.255	0.0130257
902.333	0.0131420
902.411	0.0129426
902.489	0.0131317
902.568	0.0130939
902.646	0.0132516
902.724	0.0130946
902.802	0.0131287
902.880	0.0131201
902.958	0.0132970
903.036	0.0131599
903.114	0.0131861
903.193	0.0131567
903.271	0.0133580
903.349	0.0133263
903.427	0.0132665
903.505	0.0133209
903.583	0.0133199
903.661	0.0132965
903.739	0.0133058
903.818	0.0133142
903.896	0.0134560
903.974	0.0133344
904.052	0.0133383
904.130	0.0132362
904.208	0.0133174
904.286	0.0133708
904.364	0.0132851
904.443	0.0132987
904.521	0.0132727
904.599	0.0133469
904.677	0.0132420
904.755	0.0132085
904.833	0.0134003
904.911	0.0132677
904.989	0.0132331
905.068	0.0131937
905.146	0.0133749
905.224	0.0132593
905.302	0.0131082
905.380	0.0131714
905.458	0.0132841
905.536	0.0132551
905.614	0.0132525
905.693	0.0132580
905.771	0.0130695
905.849	0.0132071
905.927	0.0132002
906.005	0.0132404
906.083	0.0132517
906.161	0.0133740
906.239	0.0133041
906.318	0.0132747
906.396	0.0134396
906.474	0.0133911
906.552	0.0134605
906.630	0.0133155
906.708	0.0134227
906.786	0.0133273
906.864	0.0133961
906.943	0.0133211
907.021	0.0134369
907.099	0.0133455
907.177	0.0133645
907.255	0.0132391
907.333	0.0134414
907.411	0.0134486
907.489	0.0133658
907.568	0.0134254
907.646	0.0132975
907.724	0.0133359
907.802	0.0133753
907.880	0.0134181
907.958	0.0134205
908.036	0.0133717
908.114	0.0134081
908.193	0.0134428
908.271	0.0134956
908.349	0.0134621
908.427	0.0131927
908.505	0.0133373
908.583	0.0134393
908.661	0.0135349
908.739	0.0133660
908.818	0.0134511
908.896	0.0133622
908.974	0.0135307
909.052	0.0134464
909.130	0.0135094
909.208	0.0136295
909.286	0.0134007
909.364	0.0133888
909.443	0.0133408
909.521	0.0135015
909.599	0.0135468
909.677	0.0133735
909.755	0.0134209
909.833	0.0134007
909.911	0.0133224
909.989	0.0134498
910.068	0.0134502
910.146	0.0134222
910.224	0.0132645
910.302	0.0133463
910.380	0.0134497
910.458	0.0132891
910.536	0.0132063
910.614	0.0134184
910.693	0.0133521
910.771	0.0132893
910.849	0.0132104
910.927	0.0131825
911.005	0.0133566
911.083	0.0133237
911.161	0.0132973
911.239	0.0133473
911.318	0.0131562
911.396	0.0132932
911.474	0.0131789
911.552	0.0132633
911.630	0.0132175
911.708	0.0132963
911.786	0.0132507
911.864	0.0131329
911.943	0.0133856
912.021	0.0134773
912.099	0.0133168
912.177	0.0132925
912.255	0.0133176
912.333	0.0132056
912.411	0.0132252
912.489	0.0133344
912.568	0.0132161
912.646	0.0132874
912.724	0.0133580
912.802	0.0134095
912.880	0.0134145
912.958	0.0132648
913.036	0.0134235
913.114	0.0133636
913.193	0.0132978
913.271	0.0133576
913.349	0.0134194
913.427	0.0135026
913.505	0.0133936
913.583	0.0134895
913.661	0.0134064
913.739	0.0135056
913.818	0.0133961
913.896	0.0135078
913.974	0.0134335
914.052	0.0133229
914.130	0.0134451
914.208	0.0135330
914.286	0.0134719
914.364	0.0134048
914.443	0.0134952
914.521	0.0134474
914.599	0.0136174
914.677	0.0135832
914.755	0.0135480
914.833	0.0134828
914.911	0.0134669
914.989	0.0135609
915.068	0.0135517
915.146	0.0133746
915.224	0.0133683
915.302	0.0134569
915.380	0.0133239
915.458	0.0135587
915.536	0.0134157
915.614	0.0133582
915.693	0.0132094
915.771	0.0134716
915.849	0.0133204
915.927	0.0133663
916.005	0.0132350
916.083	0.0133556
916.161	0.0133395
916.239	0.0132629
916.318	0.0133973
916.396	0.0132555
916.474	0.0132565
916.552	0.0134361
916.630	0.0133420
916.708	0.0132689
916.786	0.0132925
916.864	0.0134285
916.943	0.0135307
917.021	0.0132568
917.099	0.0133840
917.177	0.0134109
917.255	0.0135327
917.333	0.0133603
917.411	0.0133517
917.489	0.0134686
917.568	0.0134921
917.646	0.0134972
917.724	0.0133816
917.802	0.0134943
917.880	0.0135399
917.958	0.0134387
918.036	0.0133383
918.114	0.0134144
918.193	0.0133210
918.271	0.0134688
918.349	0.0135645
918.427	0.0133743
918.505	0.0134296
918.583	0.0135867
918.661	0.0134982
918.739	0.0135322
918.818	0.0136011
918.896	0.0134865
918.974	0.0134924
919.052	0.0136799
919.130	0.0137043
919.208	0.0134959
919.286	0.0135717
919.364	0.0135736
919.443	0.0135619
919.521	0.0136117
919.599	0.0136976
919.677	0.0135909
919.755	0.0133889
919.833	0.0135986
919.911	0.0135294
919.989	0.0134103
920.068	0.0133717
920.146	0.0134385
920.224	0.0135201
920.302	0.0135445
920.380	0.0134101
920.458	0.0133701
920.536	0.0133282
920.614	0.0134133
920.693	0.0135361
920.771	0.0134483
920.849	0.0132573
920.927	0.0133184
921.005	0.0133978
921.083	0.0134038
921.161	0.0132555
921.239	0.0133601
921.318	0.0133970
921.396	0.0133701
921.474	0.0132359
921.552	0.0133511
921.630	0.0132423
921.708	0.0132175
921.786	0.0133735
921.864	0.0133841
921.943	0.0133148
922.021	0.0133295
922.099	0.0132428
922.177	0.0133355
922.255	0.0133987
922.333	0.0134126
922.411	0.0133668
922.489	0.0133045
922.568	0.0134212
922.646	0.0132607
922.724	0.0133202
922.802	0.0133688
922.880	0.0134121
922.958	0.0134557
923.036	0.0134894
923.114	0.0135247
923.193	0.0134816
923.271	0.0135226
923.349	0.0133952
923.427	0.0134628
923.505	0.0134258
923.583	0.0135694
923.661	0.0134879
923.739	0.0134684
923.818	0.0132204
923.896	0.0133366
923.974	0.0133178
924.052	0.0133643
924.130	0.0133977
924.208	0.0133192
924.286	0.0132757
924.364	0.0133846
924.443	0.0133384
924.521	0.0132962
924.599	0.0133471
924.677	0.0133553
924.755	0.0134088
924.833	0.0133920
924.911	0.0134283
924.989	0.0133476
925.068	0.0132894
925.146	0.0133911
925.224	0.0134500
925.302	0.0134983
925.380	0.0134762
925.458	0.0134119
925.536	0.0134097
925.614	0.0133334
925.693	0.0134538
925.771	0.0136629
925.849	0.0134615
925.927	0.0132996
926.005	0.0134975
926.083	0.0134969
926.161	0.0134013
926.239	0.0134243
926.318	0.0134011
926.396	0.0134003
926.474	0.0134760
926.552	0.0133812
926.630	0.0132543
926.708	0.0133018
926.786	0.0133475
926.864	0.0133184
926.943	0.0134554
927.021	0.0131617
927.099	0.0133073
927.177	0.0133278
927.255	0.0134213
927.333	0.0132372
927.411	0.0131807
927.489	0.0132879
927.568	0.0134410
927.646	0.0133758
927.724	0.0133777
927.802	0.0132494
927.880	0.0133347
927.958	0.0134074
928.036	0.0134424
928.114	0.0133604
928.193	0.0133878
928.271	0.0133092
928.349	0.0134264
928.427	0.0134456
928.505	0.0133567
928.583	0.0133966
928.661	0.0133295
928.739	0.0134248
928.818	0.0132158
928.896	0.0134295
928.974	0.0134585
929.052	0.0134680
929.130	0.0135043
929.208	0.0134694
929.286	0.0133805
929.364	0.0134709
929.443	0.0133242
929.521	0.0133819
929.599	0.0133405
929.677	0.0134048
929.755	0.0133295
929.833	0.0133171
929.911	0.0133136
929.989	0.0132803
930.068	0.0132173
930.146	0.0132710
930.224	0.0132439
930.302	0.0132216
930.380	0.0132755
930.458	0.0133743
930.536	0.0132240
930.614	0.0131384
930.693	0.0133368
930.771	0.0133749
930.849	0.0132603
930.927	0.0132909
931.005	0.0131779
931.083	0.0131841
931.161	0.0134241
931.239	0.0133570
931.318	0.0132505
931.396	0.0133822
931.474	0.0132977
931.552	0.0133533
931.630	0.0133627
931.708	0.0132172
931.786	0.0131997
931.864	0.0133508
931.943	0.0133919
932.021	0.0131409
932.099	0.0133247
932.177	0.0132207
932.255	0.0132412
932.333	0.0132733
932.411	0.0133218
932.489	0.0132779
932.568	0.0132942
932.646	0.0132556
932.724	0.0130703
932.802	0.0131570
932.880	0.0132244
932.958	0.0131485
933.036	0.0131580
933.114	0.0130387
933.193	0.0131648
933.271	0.0132249
933.349	0.0132745
933.427	0.0131946
933.505	0.0132144
933.583	0.0133043
933.661	0.0132017
933.739	0.0132043
933.818	0.0132615
933.896	0.0132430
933.974	0.0131606
934.052	0.0134902
934.130	0.0133218
934.208	0.0131950
934.286	0.0132547
934.364	0.0133040
934.443	0.0133849
934.521	0.0134047
934.599	0.0133035
934.677	0.0134560
934.755	0.0133354
934.833	0.0133616
934.911	0.0132924
934.989	0.0133080
935.068	0.0133513
935.146	0.0134629
935.224	0.0133670
935.302	0.0132693
935.380	0.0133214
935.458	0.0133779
935.536	0.0133253
935.614	0.0132774
935.693	0.0133505
935.771	0.0133343
935.849	0.0133689
935.927	0.0133994
936.005	0.0132764
936.083	0.0132989
936.161	0.0133144
936.239	0.0132543
936.318	0.0132580
936.396	0.0132779
936.474	0.0131627
936.552	0.0133353
936.630	0.0133257
936.708	0.0132601
936.786	0.0131174
936.864	0.0132041
936.943	0.0131457
937.021	0.0132865
937.099	0.0132082
937.177	0.0132854
937.255	0.0132365
937.333	0.0132006
937.411	0.0132150
937.489	0.0132592
937.568	0.0133366
937.646	0.0131873
937.724	0.0132541
937.802	0.0131622
937.880	0.0132262
937.958	0.0132605
938.036	0.0132099
938.114	0.0130447
938.193	0.0133134
938.271	0.0132547
938.349	0.0131654
938.427	0.0130965
938.505	0.0131955
938.583	0.0132861
938.661	0.0132256
938.739	0.0132434
938.818	0.0131187
938.896	0.0133078
938.974	0.0132753
939.052	0.0133858
939.130	0.0133916
939.208	0.0134328
939.286	0.0133552
939.364	0.0134441
939.443	0.0134540
939.521	0.0134607
939.599	0.0133443
939.677	0.0132909
939.755	0.0133993
939.833	0.0134347
939.911	0.0134353
939.989	0.0133467
940.068	0.0134021
940.146	0.0135442
940.224	0.0134894
940.302	0.0133879
940.380	0.0135245
940.458	0.0134756
940.536	0.0135638
940.614	0.0136003
940.693	0.0133881
940.771	0.0133377
940.849	0.0135356
940.927	0.0134086
941.005	0.0134281
941.083	0.0134212
941.161	0.0133627
941.239	0.0133870
941.318	0.0133232
941.396	0.0132073
941.474	0.0132761
941.552	0.0132993
941.630	0.0132635
941.708	0.0132590
941.786	0.0133063
941.864	0.0132684
941.943	0.0132938
942.021	0.0133511
942.099	0.0134085
942.177	0.0133000
942.255	0.0133479
942.333	0.0133473
942.411	0.0133324
942.489	0.0134425
942.568	0.0131895
942.646	0.0133643
942.724	0.0134441
942.802	0.0133611
942.880	0.0133781
942.958	0.0133381
943.036	0.0133432
943.114	0.0134632
943.193	0.0134347
943.271	0.0132891
943.349	0.0133125
943.427	0.0134086
943.505	0.0134373
943.583	0.0133174
943.661	0.0133964
943.739	0.0133702
943.818	0.0134235
943.896	0.0132614
943.974	0.0133724
944.052	0.0134237
944.130	0.0132875
944.208	0.0133261
944.286	0.0133070
944.364	0.0134348
944.443	0.0133227
944.521	0.0134951
944.599	0.0134623
944.677	0.0134570
944.755	0.0135586
944.833	0.0133585
944.911	0.0134937
944.989	0.0135659
945.068	0.0134550
945.146	0.0134326
945.224	0.0133055
945.302	0.0133259
945.380	0.0133999
945.458	0.0133868
945.536	0.0134016
945.614	0.0133799
945.693	0.0132206
945.771	0.0131892
945.849	0.0132310
945.927	0.0133121
946.005	0.0131667
946.083	0.0131830
946.161	0.0131941
946.239	0.0132198
946.318	0.0131191
946.396	0.0131557
946.474	0.0131417
946.552	0.0131501
946.630	0.0130492
946.708	0.0130889
946.786	0.0130868
946.864	0.0130806
946.943	0.0131813
947.021	0.0132059
947.099	0.0131350
947.177	0.0131396
947.255	0.0131332
947.333	0.0132285
947.411	0.0132159
947.489	0.0133997
947.568	0.0133451
947.646	0.0133244
947.724	0.0134215
947.802	0.0134106
947.880	0.0132684
947.958	0.0133133
948.036	0.0134622
948.114	0.0135364
948.193	0.0134048
948.271	0.0134368
948.349	0.0132617
948.427	0.0134935
948.505	0.0135201
948.583	0.0134338
948.661	0.0134646
948.739	0.0135342
948.818	0.0134617
948.896	0.0135709
948.974	0.0135847
949.052	0.0135585
949.130	0.0135053
949.208	0.0136675
949.286	0.0134495
949.364	0.0135076
949.443	0.0135731
949.521	0.0136651
949.599	0.0134206
949.677	0.0135086
949.755	0.0135518
949.833	0.0134196
949.911	0.0133334
949.989	0.0135046
950.068	0.0134868
950.146	0.0136385
950.224	0.0135786
950.302	0.0133668
950.380	0.0133113
950.458	0.0133197
950.536	0.0133455
950.614	0.0133403
950.693	0.0132929
950.771	0.0133437
950.849	0.0134035
950.927	0.0132657
951.005	0.0131496
951.083	0.0131779
951.161	0.0131818
951.239	0.0132702
951.318	0.0132143
951.396	0.0131384
951.474	0.0132986
951.552	0.0131524
951.630	0.0132033
951.708	0.0132191
951.786	0.0132008
951.864	0.0131581
951.943	0.0133369
952.021	0.0132793
952.099	0.0132404
952.177	0.0132192
952.255	0.0132536
952.333	0.0131746
952.411	0.0132885
952.489	0.0133727
952.568	0.0133656
952.646	0.0132221
952.724	0.0131824
952.802	0.0134354
952.880	0.0132862
952.958	0.0133362
953.036	0.0132898
953.114	0.0133237
953.193	0.0134015
953.271	0.0133493
953.349	0.0133875
953.427	0.0133508
953.505	0.0133243
953.583	0.0135322
953.661	0.0134075
953.739	0.0133168
953.818	0.0135636
953.896	0.0134531
953.974	0.0133675
954.052	0.0135993
954.130	0.0134700
954.208	0.0134867
954.286	0.0133598
954.364	0.0134353
954.443	0.0134396
954.521	0.0135504
954.599	0.0133385
954.677	0.0133790
954.755	0.0135253
954.833	0.0133878
954.911	0.0133265
954.989	0.0133039
955.068	0.0133072
955.146	0.0132452
955.224	0.0132867
955.302	0.0132628
955.380	0.0133240
955.458	0.0133189
955.536	0.0133090
955.614	0.0132280
955.693	0.0132780
955.771	0.0133799
955.849	0.0131815
955.927	0.0133350
956.005	0.0133753
956.083	0.0133508
956.161	0.0132395
956.239	0.0133180
956.318	0.0131870
956.396	0.0131720
956.474	0.0132944
956.552	0.0132700
956.630	0.0134781
956.708	0.0133121
956.786	0.0133398
956.864	0.0133688
956.943	0.0134846
957.021	0.0132195
957.099	0.0132499
957.177	0.0133220
957.255	0.0133537
957.333	0.0133649
957.411	0.0134628
957.489	0.0134272
957.568	0.0132599
957.646	0.0133698
957.724	0.0133267
957.802	0.0133066
957.880	0.0132805
957.958	0.0133231
958.036	0.0132346
958.114	0.0131345
958.193	0.0133101
958.271	0.0132959
958.349	0.0133160
958.427	0.0134647
958.505	0.0134657
958.583	0.0132799
958.661	0.0131813
958.739	0.0134525
958.818	0.0134100
958.896	0.0134421
958.974	0.0132568
959.052	0.0131949
959.130	0.0131683
959.208	0.0133018
959.286	0.0132596
959.364	0.0134095
959.443	0.0133344
959.521	0.0132442
959.599	0.0132663
959.677	0.0134053
959.755	0.0133421
959.833	0.0133332
959.911	0.0133215
