05/07/2022	17:42:33	Ver.	4.1	UNKNOWN
Optical Delay	639.989416	Delta X		0.078125	Sweeps	1	Scan Rate	0/0
Coordinates	Axis 1	NaN	Axis 2	NaN	Axis 3	NaN	Axis 4	NaN	Axis 5	NaN	Axis 6	0.000000
TX Power	0.000000	RX Power	0.000000

639.989	0.0135018
640.068	0.0134446
640.146	0.0134840
640.224	0.0136413
640.302	0.0135267
640.380	0.0135423
640.458	0.0135670
640.536	0.0135485
640.614	0.0136351
640.693	0.0135933
640.771	0.0136632
640.849	0.0136706
640.927	0.0135497
641.005	0.0135475
641.083	0.0136738
641.161	0.0136483
641.239	0.0135394
641.318	0.0136115
641.396	0.0135134
641.474	0.0134545
641.552	0.0135590
641.630	0.0136166
641.708	0.0134647
641.786	0.0135085
641.864	0.0135310
641.943	0.0134129
642.021	0.0135506
642.099	0.0136600
642.177	0.0136229
642.255	0.0136981
642.333	0.0136942
642.411	0.0136502
642.489	0.0136709
642.568	0.0136747
642.646	0.0135880
642.724	0.0136435
642.802	0.0137219
642.880	0.0136993
642.958	0.0135944
643.036	0.0134886
643.114	0.0137365
643.193	0.0137021
643.271	0.0137218
643.349	0.0136400
643.427	0.0135367
643.505	0.0135728
643.583	0.0136313
643.661	0.0135815
643.739	0.0135936
643.818	0.0135094
643.896	0.0136162
643.974	0.0135725
644.052	0.0137449
644.130	0.0136658
644.208	0.0136913
644.286	0.0137117
644.364	0.0135721
644.443	0.0137652
644.521	0.0138523
644.599	0.0137571
644.677	0.0138885
644.755	0.0139108
644.833	0.0139090
644.911	0.0138192
644.989	0.0137609
645.068	0.0139000
645.146	0.0138805
645.224	0.0138659
645.302	0.0137984
645.380	0.0138802
645.458	0.0138991
645.536	0.0140014
645.614	0.0137611
645.693	0.0136633
645.771	0.0136953
645.849	0.0136918
645.927	0.0135139
646.005	0.0136081
646.083	0.0133693
646.161	0.0133968
646.239	0.0135193
646.318	0.0134095
646.396	0.0133844
646.474	0.0134194
646.552	0.0134062
646.630	0.0135181
646.708	0.0134781
646.786	0.0135017
646.864	0.0133691
646.943	0.0134298
647.021	0.0133162
647.099	0.0133548
647.177	0.0135786
647.255	0.0134758
647.333	0.0134914
647.411	0.0136271
647.489	0.0134981
647.568	0.0137064
647.646	0.0137518
647.724	0.0138357
647.802	0.0138290
647.880	0.0140246
647.958	0.0138770
648.036	0.0138556
648.114	0.0139988
648.193	0.0140086
648.271	0.0140189
648.349	0.0140398
648.427	0.0140062
648.505	0.0139982
648.583	0.0137650
648.661	0.0139010
648.739	0.0138482
648.818	0.0136310
648.896	0.0137256
648.974	0.0135123
649.052	0.0134672
649.130	0.0134564
649.208	0.0134058
649.286	0.0134098
649.364	0.0131507
649.443	0.0131583
649.521	0.0131540
649.599	0.0131093
649.677	0.0130067
649.755	0.0130092
649.833	0.0128558
649.911	0.0129591
649.989	0.0129680
650.068	0.0128896
650.146	0.0129051
650.224	0.0130099
650.302	0.0131205
650.380	0.0130997
650.458	0.0132368
650.536	0.0132396
650.614	0.0133236
650.693	0.0134231
650.771	0.0136332
650.849	0.0135426
650.927	0.0135709
651.005	0.0137905
651.083	0.0140002
651.161	0.0138158
651.239	0.0139312
651.318	0.0139982
651.396	0.0141773
651.474	0.0142782
651.552	0.0143884
651.630	0.0143570
651.708	0.0144675
651.786	0.0146296
651.864	0.0145196
651.943	0.0146655
652.021	0.0147734
652.099	0.0147272
652.177	0.0146867
652.255	0.0146535
652.333	0.0146124
652.411	0.0147157
652.489	0.0145867
652.568	0.0143545
652.646	0.0141714
652.724	0.0140765
652.802	0.0139678
652.880	0.0136796
652.958	0.0135471
653.036	0.0132978
653.114	0.0132503
653.193	0.0130669
653.271	0.0129468
653.349	0.0129250
653.427	0.0128112
653.505	0.0125315
653.583	0.0125174
653.661	0.0124561
653.739	0.0124496
653.818	0.0123000
653.896	0.0122079
653.974	0.0123155
654.052	0.0123177
654.130	0.0124297
654.208	0.0124142
654.286	0.0124716
654.364	0.0126469
654.443	0.0126863
654.521	0.0129398
654.599	0.0132194
654.677	0.0133414
654.755	0.0134158
654.833	0.0137119
654.911	0.0140047
654.989	0.0141406
655.068	0.0144958
655.146	0.0146875
655.224	0.0148689
655.302	0.0149229
655.380	0.0151283
655.458	0.0151768
655.536	0.0151254
655.614	0.0153979
655.693	0.0153760
655.771	0.0154285
655.849	0.0154444
655.927	0.0154671
656.005	0.0153362
656.083	0.0153451
656.161	0.0150743
656.239	0.0149364
656.318	0.0148653
656.396	0.0145496
656.474	0.0145116
656.552	0.0141773
656.630	0.0139695
656.708	0.0136467
656.786	0.0134206
656.864	0.0129842
656.943	0.0127916
657.021	0.0125034
657.099	0.0122972
657.177	0.0120731
657.255	0.0118508
657.333	0.0115145
657.411	0.0115776
657.489	0.0114679
657.568	0.0112668
657.646	0.0113715
657.724	0.0112520
657.802	0.0114040
657.880	0.0112803
657.958	0.0114213
658.036	0.0113949
658.114	0.0115020
658.193	0.0115518
658.271	0.0118009
658.349	0.0119441
658.427	0.0122083
658.505	0.0123728
658.583	0.0127483
658.661	0.0129160
658.739	0.0131141
658.818	0.0135538
658.896	0.0138110
658.974	0.0141319
659.052	0.0144340
659.130	0.0147590
659.208	0.0150658
659.286	0.0152996
659.364	0.0156387
659.443	0.0159364
659.521	0.0161011
659.599	0.0162488
659.677	0.0163919
659.755	0.0164607
659.833	0.0165554
659.911	0.0164891
659.989	0.0163885
660.068	0.0163139
660.146	0.0162645
660.224	0.0161372
660.302	0.0157700
660.380	0.0155694
660.458	0.0154404
660.536	0.0149946
660.614	0.0146746
660.693	0.0143031
660.771	0.0139169
660.849	0.0136276
660.927	0.0133127
661.005	0.0129854
661.083	0.0126633
661.161	0.0122885
661.239	0.0119077
661.318	0.0116436
661.396	0.0112247
661.474	0.0109480
661.552	0.0108427
661.630	0.0106949
661.708	0.0104031
661.786	0.0103968
661.864	0.0104297
661.943	0.0103970
662.021	0.0104075
662.099	0.0102829
662.177	0.0105772
662.255	0.0109171
662.333	0.0110062
662.411	0.0111936
662.489	0.0115276
662.568	0.0117932
662.646	0.0122830
662.724	0.0126119
662.802	0.0130839
662.880	0.0134338
662.958	0.0137609
663.036	0.0141283
663.114	0.0145919
663.193	0.0151991
663.271	0.0154504
663.349	0.0155604
663.427	0.0159518
663.505	0.0162080
663.583	0.0163117
663.661	0.0164931
663.739	0.0166848
663.818	0.0168323
663.896	0.0167107
663.974	0.0167344
664.052	0.0168637
664.130	0.0167189
664.208	0.0164509
664.286	0.0164560
664.364	0.0163435
664.443	0.0160004
664.521	0.0159672
664.599	0.0155544
664.677	0.0151846
664.755	0.0148915
664.833	0.0147154
664.911	0.0144946
664.989	0.0139662
665.068	0.0136088
665.146	0.0135001
665.224	0.0131239
665.302	0.0125411
665.380	0.0124531
665.458	0.0120808
665.536	0.0118520
665.614	0.0115995
665.693	0.0114325
665.771	0.0111990
665.849	0.0109795
665.927	0.0108936
666.005	0.0108688
666.083	0.0107701
666.161	0.0106258
666.239	0.0106257
666.318	0.0105876
666.396	0.0107248
666.474	0.0108371
666.552	0.0110178
666.630	0.0111774
666.708	0.0114243
666.786	0.0117125
666.864	0.0120589
666.943	0.0123050
667.021	0.0125372
667.099	0.0129581
667.177	0.0131387
667.255	0.0135735
667.333	0.0139823
667.411	0.0141680
667.489	0.0145145
667.568	0.0147868
667.646	0.0150967
667.724	0.0152660
667.802	0.0155506
667.880	0.0156823
667.958	0.0158897
668.036	0.0160351
668.114	0.0159238
668.193	0.0160760
668.271	0.0162135
668.349	0.0160994
668.427	0.0159806
668.505	0.0159270
668.583	0.0157033
668.661	0.0155220
668.739	0.0153207
668.818	0.0152505
668.896	0.0149430
668.974	0.0146240
669.052	0.0146585
669.130	0.0144266
669.208	0.0141193
669.286	0.0138068
669.364	0.0137097
669.443	0.0136790
669.521	0.0135303
669.599	0.0131886
669.677	0.0130930
669.755	0.0131747
669.833	0.0130039
669.911	0.0127935
669.989	0.0127200
670.068	0.0127373
670.146	0.0125793
670.224	0.0125521
670.302	0.0124868
670.380	0.0123608
670.458	0.0122771
670.536	0.0122978
670.614	0.0123507
670.693	0.0122599
670.771	0.0122610
670.849	0.0121805
670.927	0.0122701
671.005	0.0123603
671.083	0.0123344
671.161	0.0122382
671.239	0.0123671
671.318	0.0123210
671.396	0.0125283
671.474	0.0125433
671.552	0.0127159
671.630	0.0127290
671.708	0.0129781
671.786	0.0130528
671.864	0.0130816
671.943	0.0130905
672.021	0.0133499
672.099	0.0134035
672.177	0.0136639
672.255	0.0136673
672.333	0.0137657
672.411	0.0140015
672.489	0.0139501
672.568	0.0142234
672.646	0.0143086
672.724	0.0143731
672.802	0.0145028
672.880	0.0145203
672.958	0.0144914
673.036	0.0144427
673.114	0.0144363
673.193	0.0144989
673.271	0.0144439
673.349	0.0143903
673.427	0.0143547
673.505	0.0142851
673.583	0.0141910
673.661	0.0141496
673.739	0.0141055
673.818	0.0140616
673.896	0.0139436
673.974	0.0139085
674.052	0.0138480
674.130	0.0137959
674.208	0.0139394
674.286	0.0139359
674.364	0.0139928
674.443	0.0139087
674.521	0.0139670
674.599	0.0140503
674.677	0.0140953
674.755	0.0141762
674.833	0.0141582
674.911	0.0141468
674.989	0.0142477
675.068	0.0141827
675.146	0.0142484
675.224	0.0142519
675.302	0.0142990
675.380	0.0141421
675.458	0.0140569
675.536	0.0140385
675.614	0.0140158
675.693	0.0138247
675.771	0.0137569
675.849	0.0137135
675.927	0.0134829
676.005	0.0133032
676.083	0.0133156
676.161	0.0130727
676.239	0.0129688
676.318	0.0128790
676.396	0.0128456
676.474	0.0126025
676.552	0.0124606
676.630	0.0124966
676.708	0.0122724
676.786	0.0121694
676.864	0.0121450
676.943	0.0119679
677.021	0.0121178
677.099	0.0119621
677.177	0.0120073
677.255	0.0119570
677.333	0.0120732
677.411	0.0122555
677.489	0.0123196
677.568	0.0123351
677.646	0.0125867
677.724	0.0125761
677.802	0.0127949
677.880	0.0130123
677.958	0.0132278
678.036	0.0134216
678.114	0.0135387
678.193	0.0137768
678.271	0.0138571
678.349	0.0139424
678.427	0.0142463
678.505	0.0143599
678.583	0.0145131
678.661	0.0146400
678.739	0.0148038
678.818	0.0149329
678.896	0.0150560
678.974	0.0149478
679.052	0.0149403
679.130	0.0152067
679.208	0.0151777
679.286	0.0151485
679.364	0.0152178
679.443	0.0151569
679.521	0.0152903
679.599	0.0152180
679.677	0.0151086
679.755	0.0149625
679.833	0.0150587
679.911	0.0147992
679.989	0.0147853
680.068	0.0147400
680.146	0.0146465
680.224	0.0144678
680.302	0.0144829
680.380	0.0143333
680.458	0.0140774
680.536	0.0139491
680.614	0.0139095
680.693	0.0136768
680.771	0.0136310
680.849	0.0133355
680.927	0.0131611
681.005	0.0130505
681.083	0.0128326
681.161	0.0125307
681.239	0.0125195
681.318	0.0123027
681.396	0.0122222
681.474	0.0119141
681.552	0.0117766
681.630	0.0116557
681.708	0.0115871
681.786	0.0115352
681.864	0.0112860
681.943	0.0113593
682.021	0.0112253
682.099	0.0113886
682.177	0.0113578
682.255	0.0113702
682.333	0.0115909
682.411	0.0116514
682.489	0.0117552
682.568	0.0118490
682.646	0.0120804
682.724	0.0122800
682.802	0.0124657
682.880	0.0127940
682.958	0.0131122
683.036	0.0133082
683.114	0.0136218
683.193	0.0138923
683.271	0.0141370
683.349	0.0144828
683.427	0.0147485
683.505	0.0150356
683.583	0.0154404
683.661	0.0155270
683.739	0.0157977
683.818	0.0159083
683.896	0.0161118
683.974	0.0161285
684.052	0.0162445
684.130	0.0161989
684.208	0.0160937
684.286	0.0162759
684.364	0.0160236
684.443	0.0160121
684.521	0.0156895
684.599	0.0155142
684.677	0.0154545
684.755	0.0150465
684.833	0.0147880
684.911	0.0143250
684.989	0.0140482
685.068	0.0140247
685.146	0.0136712
685.224	0.0132633
685.302	0.0130779
685.380	0.0128253
685.458	0.0127132
685.536	0.0125406
685.614	0.0123606
685.693	0.0122679
685.771	0.0121056
685.849	0.0122709
685.927	0.0123023
686.005	0.0122342
686.083	0.0121983
686.161	0.0123360
686.239	0.0125008
686.318	0.0126292
686.396	0.0127382
686.474	0.0128329
686.552	0.0129830
686.630	0.0128844
686.708	0.0130940
686.786	0.0131123
686.864	0.0131099
686.943	0.0131139
687.021	0.0132084
687.099	0.0133440
687.177	0.0133251
687.255	0.0134059
687.333	0.0135139
687.411	0.0131780
687.489	0.0132241
687.568	0.0133309
687.646	0.0131817
687.724	0.0131087
687.802	0.0131726
687.880	0.0130175
687.958	0.0130006
688.036	0.0131142
688.114	0.0130655
688.193	0.0129186
688.271	0.0131663
688.349	0.0131747
688.427	0.0132047
688.505	0.0131730
688.583	0.0135102
688.661	0.0136466
688.739	0.0135820
688.818	0.0137029
688.896	0.0138106
688.974	0.0140098
689.052	0.0141649
689.130	0.0142809
689.208	0.0145080
689.286	0.0146523
689.364	0.0148178
689.443	0.0147941
689.521	0.0149128
689.599	0.0150480
689.677	0.0149072
689.755	0.0148695
689.833	0.0149568
689.911	0.0148663
689.989	0.0147612
690.068	0.0146087
690.146	0.0144354
690.224	0.0141553
690.302	0.0142454
690.380	0.0141734
690.458	0.0138583
690.536	0.0137634
690.614	0.0135559
690.693	0.0133905
690.771	0.0133015
690.849	0.0131096
690.927	0.0132063
691.005	0.0132453
691.083	0.0130103
691.161	0.0130174
691.239	0.0131057
691.318	0.0130699
691.396	0.0130794
691.474	0.0131297
691.552	0.0133249
691.630	0.0133376
691.708	0.0132790
691.786	0.0134075
691.864	0.0135775
691.943	0.0136378
692.021	0.0136165
692.099	0.0137251
692.177	0.0136699
692.255	0.0137436
692.333	0.0136694
692.411	0.0137559
692.489	0.0136136
692.568	0.0136735
692.646	0.0136768
692.724	0.0136224
692.802	0.0134489
692.880	0.0133748
692.958	0.0133635
693.036	0.0133053
693.114	0.0132721
693.193	0.0132285
693.271	0.0131310
693.349	0.0131662
693.427	0.0130788
693.505	0.0129548
693.583	0.0129111
693.661	0.0128806
693.739	0.0128595
693.818	0.0128098
693.896	0.0127546
693.974	0.0128772
694.052	0.0128149
694.130	0.0128632
694.208	0.0129745
694.286	0.0130445
694.364	0.0131617
694.443	0.0132436
694.521	0.0135136
694.599	0.0135744
694.677	0.0137055
694.755	0.0138338
694.833	0.0139298
694.911	0.0141017
694.989	0.0141674
695.068	0.0143898
695.146	0.0145236
695.224	0.0147004
695.302	0.0148760
695.380	0.0147972
695.458	0.0149148
695.536	0.0151751
695.614	0.0150529
695.693	0.0149872
695.771	0.0150066
695.849	0.0150500
695.927	0.0150658
696.005	0.0149495
696.083	0.0148721
696.161	0.0146489
696.239	0.0146336
696.318	0.0145628
696.396	0.0142995
696.474	0.0143165
696.552	0.0140297
696.630	0.0139662
696.708	0.0137601
696.786	0.0135768
696.864	0.0135395
696.943	0.0133052
697.021	0.0131105
697.099	0.0129960
697.177	0.0129498
697.255	0.0128745
697.333	0.0128739
697.411	0.0127950
697.489	0.0128020
697.568	0.0127495
697.646	0.0128247
697.724	0.0128445
697.802	0.0129694
697.880	0.0129375
697.958	0.0130775
698.036	0.0130360
698.114	0.0131198
698.193	0.0132833
698.271	0.0132224
698.349	0.0135155
698.427	0.0134451
698.505	0.0135575
698.583	0.0136517
698.661	0.0136757
698.739	0.0139413
698.818	0.0139380
698.896	0.0138927
698.974	0.0139120
699.052	0.0139706
699.130	0.0138999
699.208	0.0138605
699.286	0.0138379
699.364	0.0137210
699.443	0.0135676
699.521	0.0134956
699.599	0.0132040
699.677	0.0131873
699.755	0.0130505
699.833	0.0129817
699.911	0.0129824
699.989	0.0127731
700.068	0.0126987
700.146	0.0128209
700.224	0.0127810
700.302	0.0128465
700.380	0.0128637
700.458	0.0129457
700.536	0.0130430
700.614	0.0131882
700.693	0.0133043
700.771	0.0134845
700.849	0.0136861
700.927	0.0138460
701.005	0.0140411
701.083	0.0143324
701.161	0.0144045
701.239	0.0143750
701.318	0.0146469
701.396	0.0147758
701.474	0.0149065
701.552	0.0150830
701.630	0.0149149
701.708	0.0150908
701.786	0.0150776
701.864	0.0150011
701.943	0.0150663
702.021	0.0148738
702.099	0.0147501
702.177	0.0146864
702.255	0.0145223
702.333	0.0143796
702.411	0.0142699
702.489	0.0141096
702.568	0.0140401
702.646	0.0139871
702.724	0.0138403
702.802	0.0135891
702.880	0.0134293
702.958	0.0133199
703.036	0.0134583
703.114	0.0131268
703.193	0.0130357
703.271	0.0131618
703.349	0.0129041
703.427	0.0127619
703.505	0.0127875
703.583	0.0127236
703.661	0.0126666
703.739	0.0127083
703.818	0.0126965
703.896	0.0126585
703.974	0.0126290
704.052	0.0127372
704.130	0.0129158
704.208	0.0129382
704.286	0.0130421
704.364	0.0130360
704.443	0.0128970
704.521	0.0130928
704.599	0.0131654
704.677	0.0134046
704.755	0.0135339
704.833	0.0137384
704.911	0.0136726
704.989	0.0136539
705.068	0.0138354
705.146	0.0138580
705.224	0.0137973
705.302	0.0138750
705.380	0.0139699
705.458	0.0137949
705.536	0.0137759
705.614	0.0136446
705.693	0.0138082
705.771	0.0137794
705.849	0.0137503
705.927	0.0137681
706.005	0.0138758
706.083	0.0137355
706.161	0.0137967
706.239	0.0138963
706.318	0.0138740
706.396	0.0139403
706.474	0.0140154
706.552	0.0139471
706.630	0.0141233
706.708	0.0140830
706.786	0.0140652
706.864	0.0141260
706.943	0.0142391
707.021	0.0143338
707.099	0.0141570
707.177	0.0141998
707.255	0.0142280
707.333	0.0142410
707.411	0.0142355
707.489	0.0141649
707.568	0.0143076
707.646	0.0143382
707.724	0.0142226
707.802	0.0142396
707.880	0.0142001
707.958	0.0140642
708.036	0.0140031
708.114	0.0141563
708.193	0.0141003
708.271	0.0139886
708.349	0.0140012
708.427	0.0139338
708.505	0.0138525
708.583	0.0137913
708.661	0.0136391
708.739	0.0136320
708.818	0.0134982
708.896	0.0134011
708.974	0.0132741
709.052	0.0131286
709.130	0.0130572
709.208	0.0131252
709.286	0.0129095
709.364	0.0127222
709.443	0.0126187
709.521	0.0128343
709.599	0.0127705
709.677	0.0126379
709.755	0.0126325
709.833	0.0127859
709.911	0.0128650
709.989	0.0130444
710.068	0.0129900
710.146	0.0130754
710.224	0.0132257
710.302	0.0133368
710.380	0.0134977
710.458	0.0136288
710.536	0.0135352
710.614	0.0138007
710.693	0.0139557
710.771	0.0141747
710.849	0.0140959
710.927	0.0141267
711.005	0.0143719
711.083	0.0142693
711.161	0.0143848
711.239	0.0143030
711.318	0.0143863
711.396	0.0142731
711.474	0.0143707
711.552	0.0142451
711.630	0.0140348
711.708	0.0139768
711.786	0.0140637
711.864	0.0139513
711.943	0.0137486
712.021	0.0137977
712.099	0.0137185
712.177	0.0136002
712.255	0.0133858
712.333	0.0133794
712.411	0.0133646
712.489	0.0132217
712.568	0.0130870
712.646	0.0130069
712.724	0.0130122
712.802	0.0129939
712.880	0.0129624
712.958	0.0129908
713.036	0.0129055
713.114	0.0130680
713.193	0.0130995
713.271	0.0129903
713.349	0.0130322
713.427	0.0131736
713.505	0.0134417
713.583	0.0134580
713.661	0.0135967
713.739	0.0137151
713.818	0.0139859
713.896	0.0138815
713.974	0.0140203
714.052	0.0141204
714.130	0.0143092
714.208	0.0144505
714.286	0.0145676
714.364	0.0145055
714.443	0.0144949
714.521	0.0147324
714.599	0.0144603
714.677	0.0144938
714.755	0.0144064
714.833	0.0142949
714.911	0.0142000
714.989	0.0141341
715.068	0.0140707
715.146	0.0137669
715.224	0.0136411
715.302	0.0135723
715.380	0.0134990
715.458	0.0132449
715.536	0.0131774
715.614	0.0130724
715.693	0.0130765
715.771	0.0129455
715.849	0.0128423
715.927	0.0128017
716.005	0.0127534
716.083	0.0126730
716.161	0.0127048
716.239	0.0129595
716.318	0.0128102
716.396	0.0128771
716.474	0.0128391
716.552	0.0130554
716.630	0.0131583
716.708	0.0132014
716.786	0.0134882
716.864	0.0133992
716.943	0.0136009
717.021	0.0137925
717.099	0.0137743
717.177	0.0138332
717.255	0.0139947
717.333	0.0140842
717.411	0.0142204
717.489	0.0142803
717.568	0.0143075
717.646	0.0143390
717.724	0.0142309
717.802	0.0142982
717.880	0.0144138
717.958	0.0142884
718.036	0.0143359
718.114	0.0141176
718.193	0.0139727
718.271	0.0139406
718.349	0.0140150
718.427	0.0138999
718.505	0.0137115
718.583	0.0135591
718.661	0.0136734
718.739	0.0136108
718.818	0.0136300
718.896	0.0134755
718.974	0.0135062
719.052	0.0135289
719.130	0.0134830
719.208	0.0135088
719.286	0.0134604
719.364	0.0135041
719.443	0.0135217
719.521	0.0135745
719.599	0.0134860
719.677	0.0137241
719.755	0.0137885
719.833	0.0138078
719.911	0.0138945
719.989	0.0139415
720.068	0.0139755
720.146	0.0139442
720.224	0.0141062
720.302	0.0142051
720.380	0.0141623
720.458	0.0142135
720.536	0.0140099
720.614	0.0140376
720.693	0.0141896
720.771	0.0140609
720.849	0.0140514
720.927	0.0139689
721.005	0.0140788
721.083	0.0137760
721.161	0.0137565
721.239	0.0136999
721.318	0.0135799
721.396	0.0137331
721.474	0.0136031
721.552	0.0133531
721.630	0.0133878
721.708	0.0134560
721.786	0.0135937
721.864	0.0135081
721.943	0.0133266
722.021	0.0133873
722.099	0.0134130
722.177	0.0134564
722.255	0.0133866
722.333	0.0133818
722.411	0.0133149
722.489	0.0133737
722.568	0.0133409
722.646	0.0133549
722.724	0.0133627
722.802	0.0132261
722.880	0.0132799
722.958	0.0134411
723.036	0.0133369
723.114	0.0133000
723.193	0.0134148
723.271	0.0135314
723.349	0.0136024
723.427	0.0135193
723.505	0.0137015
723.583	0.0136973
723.661	0.0136510
723.739	0.0137062
723.818	0.0137794
723.896	0.0137984
723.974	0.0137083
724.052	0.0138370
724.130	0.0137962
724.208	0.0137652
724.286	0.0138397
724.364	0.0137286
724.443	0.0138436
724.521	0.0138964
724.599	0.0138798
724.677	0.0136707
724.755	0.0139555
724.833	0.0140246
724.911	0.0140535
724.989	0.0138242
725.068	0.0139816
725.146	0.0140515
725.224	0.0138788
725.302	0.0140281
725.380	0.0141479
725.458	0.0139532
725.536	0.0141768
725.614	0.0140046
725.693	0.0140444
725.771	0.0140607
725.849	0.0139065
725.927	0.0140632
726.005	0.0140198
726.083	0.0137749
726.161	0.0139153
726.239	0.0138464
726.318	0.0138454
726.396	0.0139014
726.474	0.0138654
726.552	0.0137560
726.630	0.0138095
726.708	0.0138258
726.786	0.0137425
726.864	0.0137669
726.943	0.0136807
727.021	0.0135668
727.099	0.0134129
727.177	0.0135995
727.255	0.0135318
727.333	0.0134918
727.411	0.0133888
727.489	0.0133086
727.568	0.0132003
727.646	0.0132770
727.724	0.0131511
727.802	0.0132227
727.880	0.0132224
727.958	0.0131263
728.036	0.0130661
728.114	0.0131885
728.193	0.0129493
728.271	0.0130860
728.349	0.0131246
728.427	0.0131362
728.505	0.0133003
728.583	0.0130272
728.661	0.0133018
728.739	0.0133180
728.818	0.0133903
728.896	0.0133871
728.974	0.0134072
729.052	0.0134146
729.130	0.0136089
729.208	0.0136146
729.286	0.0135936
729.364	0.0136453
729.443	0.0137143
729.521	0.0138638
729.599	0.0136774
729.677	0.0136917
729.755	0.0137903
729.833	0.0137602
729.911	0.0135703
729.989	0.0138039
730.068	0.0138778
730.146	0.0137228
730.224	0.0137152
730.302	0.0138039
730.380	0.0137180
730.458	0.0136976
730.536	0.0135786
730.614	0.0135381
730.693	0.0136142
730.771	0.0135999
730.849	0.0135632
730.927	0.0136907
731.005	0.0135059
731.083	0.0134451
731.161	0.0132885
731.239	0.0135192
731.318	0.0135281
731.396	0.0134517
731.474	0.0134173
731.552	0.0134115
731.630	0.0132764
731.708	0.0133936
731.786	0.0132435
731.864	0.0132647
731.943	0.0133037
732.021	0.0132528
732.099	0.0132334
732.177	0.0133784
732.255	0.0135255
732.333	0.0135262
732.411	0.0136960
732.489	0.0135003
732.568	0.0135859
732.646	0.0135888
732.724	0.0135636
732.802	0.0136623
732.880	0.0137840
732.958	0.0138628
733.036	0.0137678
733.114	0.0137952
733.193	0.0137601
733.271	0.0137623
733.349	0.0139636
733.427	0.0138343
733.505	0.0137846
733.583	0.0136246
733.661	0.0136608
733.739	0.0137379
733.818	0.0136105
733.896	0.0135721
733.974	0.0135694
734.052	0.0135120
734.130	0.0135118
734.208	0.0135767
734.286	0.0135938
734.364	0.0135214
734.443	0.0136179
734.521	0.0134779
734.599	0.0135231
734.677	0.0135070
734.755	0.0136616
734.833	0.0137673
734.911	0.0135247
734.989	0.0135934
735.068	0.0135799
735.146	0.0136153
735.224	0.0134395
735.302	0.0134888
735.380	0.0135382
735.458	0.0133872
735.536	0.0135755
735.614	0.0135284
735.693	0.0135197
735.771	0.0137182
735.849	0.0136559
735.927	0.0135039
736.005	0.0135970
736.083	0.0136460
736.161	0.0137513
736.239	0.0136069
736.318	0.0138370
736.396	0.0139951
736.474	0.0140262
736.552	0.0140132
736.630	0.0140084
736.708	0.0140942
736.786	0.0141377
736.864	0.0141952
736.943	0.0143192
737.021	0.0141816
737.099	0.0141306
737.177	0.0142471
737.255	0.0142494
737.333	0.0142145
737.411	0.0139960
737.489	0.0141834
737.568	0.0139548
737.646	0.0139066
737.724	0.0140163
737.802	0.0139044
737.880	0.0137491
737.958	0.0137203
738.036	0.0135855
738.114	0.0137219
738.193	0.0136617
738.271	0.0136633
738.349	0.0134853
738.427	0.0134185
738.505	0.0135502
738.583	0.0134540
738.661	0.0134765
738.739	0.0134084
738.818	0.0134483
738.896	0.0134995
738.974	0.0133920
739.052	0.0134162
739.130	0.0133444
739.208	0.0134564
739.286	0.0135763
739.364	0.0135060
739.443	0.0135885
739.521	0.0134926
739.599	0.0136535
739.677	0.0136250
739.755	0.0136526
739.833	0.0137706
739.911	0.0138639
739.989	0.0137827
740.068	0.0138979
740.146	0.0140129
740.224	0.0140065
740.302	0.0138662
740.380	0.0138331
740.458	0.0138982
740.536	0.0138109
740.614	0.0140087
740.693	0.0139479
740.771	0.0137722
740.849	0.0138101
740.927	0.0139091
741.005	0.0138779
741.083	0.0137561
741.161	0.0137546
741.239	0.0137887
741.318	0.0137320
741.396	0.0137545
741.474	0.0137011
741.552	0.0135127
741.630	0.0136507
741.708	0.0135431
741.786	0.0134033
741.864	0.0133495
741.943	0.0134078
742.021	0.0134299
742.099	0.0134399
742.177	0.0134691
742.255	0.0134383
742.333	0.0132687
742.411	0.0132542
742.489	0.0133208
742.568	0.0133171
742.646	0.0133759
742.724	0.0133324
742.802	0.0135435
742.880	0.0134631
742.958	0.0134517
743.036	0.0134950
743.114	0.0136449
743.193	0.0136072
743.271	0.0137377
743.349	0.0136822
743.427	0.0136313
743.505	0.0136178
743.583	0.0137306
743.661	0.0139626
743.739	0.0137254
743.818	0.0136087
743.896	0.0136305
743.974	0.0138674
744.052	0.0139036
744.130	0.0138586
744.208	0.0136550
744.286	0.0138323
744.364	0.0138756
744.443	0.0136761
744.521	0.0138678
744.599	0.0136536
744.677	0.0137762
744.755	0.0137664
744.833	0.0135654
744.911	0.0136433
744.989	0.0136078
745.068	0.0134828
745.146	0.0134973
745.224	0.0133194
745.302	0.0134167
745.380	0.0133559
745.458	0.0132280
745.536	0.0132926
745.614	0.0134035
745.693	0.0133537
745.771	0.0132381
745.849	0.0132655
745.927	0.0133015
746.005	0.0132517
746.083	0.0134122
746.161	0.0132919
746.239	0.0132726
746.318	0.0132703
746.396	0.0132004
746.474	0.0132508
746.552	0.0134677
746.630	0.0135020
746.708	0.0134850
746.786	0.0134244
746.864	0.0136450
746.943	0.0134005
747.021	0.0137203
747.099	0.0137531
747.177	0.0137819
747.255	0.0138206
747.333	0.0138284
747.411	0.0137369
747.489	0.0139246
747.568	0.0139230
747.646	0.0139128
747.724	0.0138788
747.802	0.0138493
747.880	0.0139375
747.958	0.0140895
748.036	0.0138092
748.114	0.0139284
748.193	0.0138035
748.271	0.0137685
748.349	0.0138218
748.427	0.0136510
748.505	0.0136771
748.583	0.0135980
748.661	0.0136091
748.739	0.0136050
748.818	0.0135037
748.896	0.0135924
748.974	0.0133528
749.052	0.0133551
749.130	0.0133496
749.208	0.0132812
749.286	0.0132779
749.364	0.0131325
749.443	0.0132727
749.521	0.0132579
749.599	0.0133167
749.677	0.0132235
749.755	0.0133218
749.833	0.0132384
749.911	0.0132787
749.989	0.0133529
750.068	0.0131507
750.146	0.0133491
750.224	0.0135108
750.302	0.0134563
750.380	0.0133521
750.458	0.0134624
750.536	0.0133656
750.614	0.0136027
750.693	0.0136110
750.771	0.0133367
750.849	0.0133762
750.927	0.0135035
751.005	0.0135720
751.083	0.0134188
751.161	0.0134331
751.239	0.0135516
751.318	0.0137276
751.396	0.0136329
751.474	0.0136595
751.552	0.0135899
751.630	0.0136919
751.708	0.0135902
751.786	0.0137363
751.864	0.0138979
751.943	0.0137469
752.021	0.0136584
752.099	0.0137173
752.177	0.0137112
752.255	0.0138382
752.333	0.0137894
752.411	0.0138140
752.489	0.0138253
752.568	0.0137786
752.646	0.0137616
752.724	0.0137612
752.802	0.0138181
752.880	0.0139432
752.958	0.0136779
753.036	0.0136046
753.114	0.0136955
753.193	0.0136803
753.271	0.0136384
753.349	0.0136831
753.427	0.0137035
753.505	0.0134759
753.583	0.0135461
753.661	0.0134840
753.739	0.0135313
753.818	0.0134226
753.896	0.0133337
753.974	0.0132502
754.052	0.0132401
754.130	0.0134119
754.208	0.0132285
754.286	0.0132043
754.364	0.0132750
754.443	0.0131812
754.521	0.0130799
754.599	0.0131619
754.677	0.0131396
754.755	0.0131645
754.833	0.0131232
754.911	0.0132207
754.989	0.0130828
755.068	0.0131132
755.146	0.0131858
755.224	0.0130312
755.302	0.0132603
755.380	0.0131741
755.458	0.0133170
755.536	0.0133601
755.614	0.0133400
755.693	0.0131615
755.771	0.0134841
755.849	0.0134177
755.927	0.0135631
756.005	0.0136242
756.083	0.0136285
756.161	0.0137935
756.239	0.0137777
756.318	0.0139300
756.396	0.0137986
756.474	0.0140630
756.552	0.0139925
756.630	0.0142130
756.708	0.0142155
756.786	0.0141521
756.864	0.0142059
756.943	0.0141924
757.021	0.0143523
757.099	0.0141275
757.177	0.0140795
757.255	0.0142719
757.333	0.0141599
757.411	0.0140640
757.489	0.0139029
757.568	0.0138234
757.646	0.0137419
757.724	0.0136067
757.802	0.0134889
757.880	0.0135083
757.958	0.0134495
758.036	0.0134258
758.114	0.0133938
758.193	0.0133515
758.271	0.0132101
758.349	0.0130821
758.427	0.0131272
758.505	0.0131096
758.583	0.0130487
758.661	0.0130397
758.739	0.0130274
758.818	0.0130077
758.896	0.0132135
758.974	0.0131948
759.052	0.0130511
759.130	0.0134047
759.208	0.0132802
759.286	0.0132542
759.364	0.0132687
759.443	0.0132352
759.521	0.0132471
759.599	0.0134648
759.677	0.0135193
759.755	0.0136749
759.833	0.0135973
759.911	0.0137798
759.989	0.0137043
760.068	0.0138632
760.146	0.0139527
760.224	0.0137856
760.302	0.0139845
760.380	0.0141039
760.458	0.0139407
760.536	0.0140605
760.614	0.0142131
760.693	0.0141151
760.771	0.0140470
760.849	0.0141682
760.927	0.0140519
761.005	0.0139995
761.083	0.0140273
761.161	0.0139771
761.239	0.0140582
761.318	0.0139600
761.396	0.0139168
761.474	0.0137879
761.552	0.0137787
761.630	0.0136754
761.708	0.0135292
761.786	0.0134655
761.864	0.0134929
761.943	0.0136417
762.021	0.0135798
762.099	0.0134801
762.177	0.0133763
762.255	0.0132791
762.333	0.0133843
762.411	0.0132722
762.489	0.0134301
762.568	0.0132908
762.646	0.0132715
762.724	0.0133603
762.802	0.0133565
762.880	0.0133099
762.958	0.0133083
763.036	0.0134554
763.114	0.0133210
763.193	0.0133037
763.271	0.0134724
763.349	0.0133852
763.427	0.0133418
763.505	0.0134494
763.583	0.0134797
763.661	0.0134462
763.739	0.0135745
763.818	0.0134344
763.896	0.0136607
763.974	0.0136355
764.052	0.0136021
764.130	0.0136392
764.208	0.0135848
764.286	0.0137340
764.364	0.0135756
764.443	0.0136376
764.521	0.0137720
764.599	0.0137074
764.677	0.0136646
764.755	0.0137109
764.833	0.0136407
764.911	0.0136958
764.989	0.0136631
765.068	0.0136954
765.146	0.0138112
765.224	0.0137699
765.302	0.0137707
765.380	0.0136656
765.458	0.0137780
765.536	0.0135931
765.614	0.0136269
765.693	0.0136587
765.771	0.0136951
765.849	0.0136565
765.927	0.0135654
766.005	0.0136871
766.083	0.0135126
766.161	0.0134469
766.239	0.0134812
766.318	0.0136747
766.396	0.0136292
766.474	0.0134280
766.552	0.0134824
766.630	0.0135571
766.708	0.0136646
766.786	0.0136486
766.864	0.0134825
766.943	0.0133375
767.021	0.0134758
767.099	0.0135415
767.177	0.0135438
767.255	0.0134910
767.333	0.0134515
767.411	0.0134841
767.489	0.0134533
767.568	0.0134759
767.646	0.0134705
767.724	0.0134589
767.802	0.0135454
767.880	0.0134113
767.958	0.0135106
768.036	0.0134868
768.114	0.0134647
768.193	0.0134200
768.271	0.0134335
768.349	0.0134894
768.427	0.0134788
768.505	0.0134563
768.583	0.0136355
768.661	0.0136979
768.739	0.0134910
768.818	0.0135883
768.896	0.0135107
768.974	0.0136171
769.052	0.0136029
769.130	0.0135175
769.208	0.0135705
769.286	0.0135406
769.364	0.0136245
769.443	0.0136326
769.521	0.0135254
769.599	0.0136216
769.677	0.0136854
769.755	0.0136818
769.833	0.0135622
769.911	0.0136178
769.989	0.0137375
770.068	0.0135979
770.146	0.0138326
770.224	0.0137814
770.302	0.0138115
770.380	0.0137302
770.458	0.0138383
770.536	0.0137389
770.614	0.0137043
770.693	0.0137713
770.771	0.0139181
770.849	0.0137456
770.927	0.0136978
771.005	0.0137828
771.083	0.0136832
771.161	0.0135822
771.239	0.0135259
771.318	0.0136343
771.396	0.0136518
771.474	0.0135619
771.552	0.0135526
771.630	0.0135235
771.708	0.0135239
771.786	0.0135290
771.864	0.0134809
771.943	0.0134657
772.021	0.0134968
772.099	0.0134539
772.177	0.0135048
772.255	0.0134866
772.333	0.0133260
772.411	0.0134302
772.489	0.0133447
772.568	0.0134307
772.646	0.0133744
772.724	0.0133515
772.802	0.0134789
772.880	0.0133953
772.958	0.0133381
773.036	0.0134232
773.114	0.0132987
773.193	0.0133929
773.271	0.0133562
773.349	0.0133691
773.427	0.0133315
773.505	0.0134079
773.583	0.0134010
773.661	0.0132862
773.739	0.0132713
773.818	0.0134139
773.896	0.0133597
773.974	0.0133125
774.052	0.0133107
774.130	0.0133470
774.208	0.0134332
774.286	0.0134653
774.364	0.0134412
774.443	0.0133627
774.521	0.0133855
774.599	0.0134844
774.677	0.0134307
774.755	0.0134064
774.833	0.0134014
774.911	0.0134245
774.989	0.0134145
775.068	0.0136135
775.146	0.0135641
775.224	0.0135693
775.302	0.0136144
775.380	0.0136190
775.458	0.0137510
775.536	0.0137630
775.614	0.0137487
775.693	0.0137550
775.771	0.0137910
775.849	0.0139375
775.927	0.0138370
776.005	0.0138638
776.083	0.0140422
776.161	0.0139241
776.239	0.0139874
776.318	0.0139922
776.396	0.0140820
776.474	0.0141302
776.552	0.0140930
776.630	0.0140511
776.708	0.0142693
776.786	0.0140445
776.864	0.0141364
776.943	0.0140080
777.021	0.0139131
777.099	0.0141678
777.177	0.0140054
777.255	0.0138977
777.333	0.0138261
777.411	0.0137857
777.489	0.0137656
777.568	0.0137473
777.646	0.0137885
777.724	0.0137015
777.802	0.0135722
777.880	0.0135167
777.958	0.0133962
778.036	0.0133261
778.114	0.0133546
778.193	0.0132314
778.271	0.0130526
778.349	0.0132109
778.427	0.0131345
778.505	0.0130325
778.583	0.0129177
778.661	0.0129046
778.739	0.0128105
778.818	0.0128336
778.896	0.0127229
778.974	0.0127985
779.052	0.0128105
779.130	0.0127929
779.208	0.0127889
779.286	0.0127596
779.364	0.0129191
779.443	0.0129960
779.521	0.0129795
779.599	0.0129933
779.677	0.0131290
779.755	0.0131377
779.833	0.0131870
779.911	0.0133301
779.989	0.0134497
780.068	0.0134689
780.146	0.0136871
780.224	0.0134747
780.302	0.0135532
780.380	0.0137118
780.458	0.0138009
780.536	0.0138083
780.614	0.0137744
780.693	0.0139406
780.771	0.0139874
780.849	0.0140573
780.927	0.0139198
781.005	0.0139484
781.083	0.0141177
781.161	0.0141752
781.239	0.0141079
781.318	0.0141464
781.396	0.0141479
781.474	0.0141212
781.552	0.0141173
781.630	0.0142039
781.708	0.0141790
781.786	0.0141615
781.864	0.0140587
781.943	0.0138828
782.021	0.0139147
782.099	0.0138842
782.177	0.0137759
782.255	0.0138460
782.333	0.0136932
782.411	0.0136197
782.489	0.0137330
782.568	0.0137265
782.646	0.0135152
782.724	0.0135624
782.802	0.0134438
782.880	0.0133356
782.958	0.0135016
783.036	0.0134743
783.114	0.0134940
783.193	0.0134386
783.271	0.0133923
783.349	0.0133375
783.427	0.0135577
783.505	0.0134369
783.583	0.0132700
783.661	0.0134291
783.739	0.0135101
783.818	0.0134551
783.896	0.0134530
783.974	0.0133404
784.052	0.0134164
784.130	0.0133669
784.208	0.0134204
784.286	0.0135729
784.364	0.0134781
784.443	0.0135892
784.521	0.0134340
784.599	0.0134733
784.677	0.0135136
784.755	0.0135159
784.833	0.0136150
784.911	0.0135233
784.989	0.0134676
785.068	0.0135121
785.146	0.0135704
785.224	0.0135713
785.302	0.0136175
785.380	0.0135887
785.458	0.0136519
785.536	0.0134534
785.614	0.0135544
785.693	0.0137173
785.771	0.0136826
785.849	0.0137782
785.927	0.0137669
786.005	0.0138275
786.083	0.0139022
786.161	0.0137325
786.239	0.0138950
786.318	0.0140040
786.396	0.0139450
786.474	0.0139710
786.552	0.0138588
786.630	0.0139689
786.708	0.0139648
786.786	0.0139547
786.864	0.0139574
786.943	0.0138701
787.021	0.0138972
787.099	0.0138264
787.177	0.0139677
787.255	0.0138525
787.333	0.0137126
787.411	0.0138086
787.489	0.0138792
787.568	0.0138016
787.646	0.0137284
787.724	0.0137275
787.802	0.0137036
787.880	0.0136507
787.958	0.0137077
788.036	0.0135996
788.114	0.0136288
788.193	0.0135818
788.271	0.0136971
788.349	0.0135551
788.427	0.0135882
788.505	0.0134582
788.583	0.0135929
788.661	0.0135387
788.739	0.0135760
788.818	0.0135711
788.896	0.0135951
788.974	0.0135523
789.052	0.0135495
789.130	0.0136835
789.208	0.0135777
789.286	0.0135864
789.364	0.0135480
789.443	0.0136423
789.521	0.0135428
789.599	0.0136143
789.677	0.0136285
789.755	0.0135561
789.833	0.0135030
789.911	0.0136768
789.989	0.0135653
790.068	0.0136159
790.146	0.0134688
790.224	0.0135940
790.302	0.0135778
790.380	0.0135748
790.458	0.0137401
790.536	0.0136276
790.614	0.0136569
790.693	0.0135331
790.771	0.0135752
790.849	0.0136541
790.927	0.0136848
791.005	0.0137111
791.083	0.0136250
791.161	0.0136843
791.239	0.0136240
791.318	0.0138175
791.396	0.0138078
791.474	0.0137500
791.552	0.0136943
791.630	0.0136995
791.708	0.0138869
791.786	0.0138364
791.864	0.0137640
791.943	0.0139109
792.021	0.0138118
792.099	0.0139811
792.177	0.0139780
792.255	0.0138586
792.333	0.0140067
792.411	0.0139837
792.489	0.0139424
792.568	0.0139414
792.646	0.0139257
792.724	0.0139594
792.802	0.0138322
792.880	0.0137196
792.958	0.0137398
793.036	0.0135912
793.114	0.0135414
793.193	0.0136839
793.271	0.0136968
793.349	0.0135473
793.427	0.0135233
793.505	0.0135794
793.583	0.0136290
793.661	0.0133044
793.739	0.0134415
793.818	0.0134028
793.896	0.0132623
793.974	0.0133809
794.052	0.0133562
794.130	0.0132521
794.208	0.0133361
794.286	0.0132822
794.364	0.0132790
794.443	0.0131897
794.521	0.0132373
794.599	0.0132034
794.677	0.0133118
794.755	0.0130447
794.833	0.0131326
794.911	0.0132439
794.989	0.0131911
795.068	0.0133376
795.146	0.0134906
795.224	0.0133514
795.302	0.0133333
795.380	0.0133877
795.458	0.0133759
795.536	0.0132767
795.614	0.0134293
795.693	0.0134765
795.771	0.0134521
795.849	0.0134840
795.927	0.0134692
796.005	0.0135336
796.083	0.0134564
796.161	0.0134938
796.239	0.0134395
796.318	0.0135364
796.396	0.0135162
796.474	0.0134785
796.552	0.0135263
796.630	0.0135436
796.708	0.0136178
796.786	0.0135361
796.864	0.0136669
796.943	0.0136938
797.021	0.0137089
797.099	0.0136997
797.177	0.0138770
797.255	0.0138309
797.333	0.0139408
797.411	0.0139535
797.489	0.0140156
797.568	0.0139645
797.646	0.0138886
797.724	0.0140850
797.802	0.0139603
797.880	0.0139907
797.958	0.0140084
798.036	0.0138577
798.114	0.0139382
798.193	0.0140213
798.271	0.0140477
798.349	0.0140201
798.427	0.0139088
798.505	0.0140099
798.583	0.0138718
798.661	0.0138084
798.739	0.0138121
798.818	0.0137435
798.896	0.0136699
798.974	0.0136727
799.052	0.0136868
799.130	0.0135812
799.208	0.0136726
799.286	0.0135906
799.364	0.0135636
799.443	0.0135954
799.521	0.0135160
799.599	0.0136102
799.677	0.0135998
799.755	0.0134595
799.833	0.0135008
799.911	0.0135217
799.989	0.0135093
800.068	0.0135638
800.146	0.0133945
800.224	0.0135118
800.302	0.0135594
800.380	0.0134977
800.458	0.0136797
800.536	0.0134733
800.614	0.0135751
800.693	0.0137215
800.771	0.0137131
800.849	0.0137938
800.927	0.0137934
801.005	0.0137933
801.083	0.0137459
801.161	0.0137809
801.239	0.0138616
801.318	0.0138143
801.396	0.0137824
801.474	0.0138921
801.552	0.0138091
801.630	0.0139803
801.708	0.0138556
801.786	0.0138229
801.864	0.0138377
801.943	0.0136913
802.021	0.0137151
802.099	0.0138559
802.177	0.0137620
802.255	0.0137520
802.333	0.0138592
802.411	0.0137543
802.489	0.0137360
802.568	0.0137751
802.646	0.0138726
802.724	0.0138044
802.802	0.0137975
802.880	0.0137974
802.958	0.0138863
803.036	0.0137070
803.114	0.0138057
803.193	0.0138392
803.271	0.0136971
803.349	0.0138012
803.427	0.0139840
803.505	0.0137380
803.583	0.0137086
803.661	0.0137835
803.739	0.0137127
803.818	0.0135841
803.896	0.0136554
803.974	0.0136182
804.052	0.0136648
804.130	0.0136695
804.208	0.0134977
804.286	0.0134905
804.364	0.0136274
804.443	0.0135426
804.521	0.0135401
804.599	0.0136111
804.677	0.0135773
804.755	0.0137017
804.833	0.0136710
804.911	0.0136967
804.989	0.0137717
805.068	0.0136628
805.146	0.0137025
805.224	0.0137324
805.302	0.0138538
805.380	0.0137617
805.458	0.0136452
805.536	0.0136443
805.614	0.0135923
805.693	0.0135838
805.771	0.0136226
805.849	0.0135899
805.927	0.0136471
806.005	0.0135932
806.083	0.0135333
806.161	0.0135077
806.239	0.0135587
806.318	0.0135092
806.396	0.0134853
806.474	0.0134993
806.552	0.0136655
806.630	0.0136523
806.708	0.0136366
806.786	0.0136243
806.864	0.0135119
806.943	0.0134710
807.021	0.0134650
807.099	0.0134347
807.177	0.0135930
807.255	0.0134402
807.333	0.0133741
807.411	0.0134615
807.489	0.0134787
807.568	0.0136124
807.646	0.0134120
807.724	0.0134012
807.802	0.0134747
807.880	0.0137293
807.958	0.0135344
808.036	0.0135425
808.114	0.0134724
808.193	0.0135770
808.271	0.0136769
808.349	0.0137834
808.427	0.0134851
808.505	0.0135058
808.583	0.0135610
808.661	0.0135478
808.739	0.0135041
808.818	0.0135368
808.896	0.0134702
808.974	0.0133852
809.052	0.0134874
809.130	0.0136331
809.208	0.0134740
809.286	0.0134982
809.364	0.0133865
809.443	0.0133592
809.521	0.0133436
809.599	0.0133810
809.677	0.0132832
809.755	0.0134476
809.833	0.0134811
809.911	0.0135125
809.989	0.0134233
810.068	0.0134551
810.146	0.0134375
810.224	0.0135328
810.302	0.0136062
810.380	0.0136407
810.458	0.0137856
810.536	0.0137813
810.614	0.0138554
810.693	0.0136581
810.771	0.0138551
810.849	0.0137700
810.927	0.0137458
811.005	0.0138375
811.083	0.0139191
811.161	0.0137221
811.239	0.0137636
811.318	0.0137015
811.396	0.0138845
811.474	0.0136394
811.552	0.0135737
811.630	0.0135815
811.708	0.0136667
811.786	0.0136161
811.864	0.0137778
811.943	0.0137794
812.021	0.0137616
812.099	0.0136983
812.177	0.0136634
812.255	0.0136996
812.333	0.0136241
812.411	0.0138197
812.489	0.0137990
812.568	0.0137048
812.646	0.0136497
812.724	0.0137017
812.802	0.0136629
812.880	0.0138521
812.958	0.0136286
813.036	0.0136848
813.114	0.0138226
813.193	0.0138895
813.271	0.0138418
813.349	0.0137057
813.427	0.0138417
813.505	0.0137091
813.583	0.0138351
813.661	0.0137294
813.739	0.0137437
813.818	0.0138437
813.896	0.0137554
813.974	0.0138039
814.052	0.0140281
814.130	0.0138640
814.208	0.0136318
814.286	0.0137045
814.364	0.0135389
814.443	0.0135733
814.521	0.0137370
814.599	0.0135963
814.677	0.0136247
814.755	0.0134051
814.833	0.0134786
814.911	0.0135386
814.989	0.0133830
815.068	0.0134077
815.146	0.0132562
815.224	0.0134827
815.302	0.0134479
815.380	0.0134318
815.458	0.0134836
815.536	0.0135065
815.614	0.0134805
815.693	0.0134274
815.771	0.0136629
815.849	0.0136674
815.927	0.0136721
816.005	0.0138345
816.083	0.0137295
816.161	0.0137712
816.239	0.0137814
816.318	0.0137711
816.396	0.0139687
816.474	0.0137869
816.552	0.0138865
816.630	0.0139734
816.708	0.0138889
816.786	0.0138990
816.864	0.0139366
816.943	0.0138681
817.021	0.0138996
817.099	0.0139146
817.177	0.0137938
817.255	0.0137445
817.333	0.0137158
817.411	0.0137643
817.489	0.0137495
817.568	0.0136645
817.646	0.0135394
817.724	0.0136210
817.802	0.0136343
817.880	0.0137048
817.958	0.0133900
818.036	0.0135775
818.114	0.0134946
818.193	0.0135780
818.271	0.0136369
818.349	0.0135036
818.427	0.0135231
818.505	0.0135690
818.583	0.0135350
818.661	0.0134959
818.739	0.0135769
818.818	0.0133990
818.896	0.0135880
818.974	0.0135219
819.052	0.0135168
819.130	0.0135901
819.208	0.0134618
819.286	0.0135132
819.364	0.0135341
819.443	0.0136541
819.521	0.0136022
819.599	0.0136111
819.677	0.0135430
819.755	0.0136523
819.833	0.0136626
819.911	0.0137332
819.989	0.0137695
820.068	0.0137713
820.146	0.0137490
820.224	0.0137617
820.302	0.0138307
820.380	0.0136575
820.458	0.0137814
820.536	0.0137843
820.614	0.0138262
820.693	0.0136156
820.771	0.0137127
820.849	0.0137814
820.927	0.0137638
821.005	0.0137330
821.083	0.0137426
821.161	0.0138561
821.239	0.0138100
821.318	0.0136845
821.396	0.0137456
821.474	0.0139624
821.552	0.0139229
821.630	0.0138123
821.708	0.0138818
821.786	0.0138564
821.864	0.0138737
821.943	0.0138741
822.021	0.0138850
822.099	0.0139486
822.177	0.0138863
822.255	0.0139417
822.333	0.0136559
822.411	0.0138671
822.489	0.0139583
822.568	0.0138869
822.646	0.0137711
822.724	0.0137265
822.802	0.0135849
822.880	0.0137429
822.958	0.0137350
823.036	0.0136829
823.114	0.0136668
823.193	0.0136419
823.271	0.0135915
823.349	0.0135906
823.427	0.0137642
823.505	0.0136945
823.583	0.0136104
823.661	0.0135760
823.739	0.0136384
823.818	0.0136716
823.896	0.0135798
823.974	0.0135858
824.052	0.0138009
824.130	0.0136148
824.208	0.0137160
824.286	0.0136520
824.364	0.0135613
824.443	0.0135157
824.521	0.0135651
824.599	0.0136087
824.677	0.0136313
824.755	0.0135400
824.833	0.0134486
824.911	0.0135293
824.989	0.0135053
825.068	0.0135207
825.146	0.0134664
825.224	0.0134614
825.302	0.0134376
825.380	0.0136057
825.458	0.0136850
825.536	0.0136710
825.614	0.0135449
825.693	0.0136109
825.771	0.0135683
825.849	0.0136973
825.927	0.0136497
826.005	0.0134091
826.083	0.0136475
826.161	0.0135925
826.239	0.0134540
826.318	0.0136450
826.396	0.0134117
826.474	0.0134804
826.552	0.0135630
826.630	0.0134922
826.708	0.0135643
826.786	0.0136596
826.864	0.0135158
826.943	0.0135723
827.021	0.0137917
827.099	0.0138110
827.177	0.0138351
827.255	0.0138275
827.333	0.0138479
827.411	0.0139368
827.489	0.0140167
827.568	0.0139512
827.646	0.0137656
827.724	0.0137830
827.802	0.0137492
827.880	0.0138430
827.958	0.0137097
828.036	0.0136008
828.114	0.0135209
828.193	0.0135442
828.271	0.0135976
828.349	0.0135056
828.427	0.0133986
828.505	0.0133803
828.583	0.0133464
828.661	0.0134882
828.739	0.0134843
828.818	0.0132365
828.896	0.0133189
828.974	0.0135022
829.052	0.0134365
829.130	0.0135056
829.208	0.0135406
829.286	0.0134063
829.364	0.0135078
829.443	0.0135980
829.521	0.0135577
829.599	0.0134690
829.677	0.0134452
829.755	0.0135509
829.833	0.0136274
829.911	0.0136582
829.989	0.0136196
830.068	0.0136923
830.146	0.0136385
830.224	0.0137351
830.302	0.0136846
830.380	0.0137450
830.458	0.0139075
830.536	0.0138545
830.614	0.0138412
830.693	0.0137859
830.771	0.0138841
830.849	0.0138543
830.927	0.0137778
831.005	0.0138384
831.083	0.0138997
831.161	0.0138137
831.239	0.0138943
831.318	0.0137717
831.396	0.0137357
831.474	0.0136743
831.552	0.0134296
831.630	0.0134792
831.708	0.0136351
831.786	0.0136909
831.864	0.0134254
831.943	0.0133833
832.021	0.0135598
832.099	0.0134698
832.177	0.0134845
832.255	0.0134418
832.333	0.0133648
832.411	0.0134570
832.489	0.0134638
832.568	0.0133910
832.646	0.0134398
832.724	0.0134275
832.802	0.0134319
832.880	0.0135297
832.958	0.0134503
833.036	0.0134425
833.114	0.0135457
833.193	0.0135713
833.271	0.0135756
833.349	0.0136261
833.427	0.0135947
833.505	0.0134807
833.583	0.0135648
833.661	0.0136350
833.739	0.0138393
833.818	0.0138132
833.896	0.0137152
833.974	0.0137747
834.052	0.0137636
834.130	0.0138225
834.208	0.0139056
834.286	0.0137879
834.364	0.0136486
834.443	0.0136679
834.521	0.0138474
834.599	0.0138403
834.677	0.0138424
834.755	0.0138012
834.833	0.0138274
834.911	0.0137162
834.989	0.0137251
835.068	0.0137812
835.146	0.0138642
835.224	0.0135006
835.302	0.0134644
835.380	0.0135249
835.458	0.0135334
835.536	0.0133604
835.614	0.0133976
835.693	0.0134121
835.771	0.0133747
835.849	0.0132302
835.927	0.0130826
836.005	0.0131660
836.083	0.0130527
836.161	0.0130767
836.239	0.0131844
836.318	0.0131294
836.396	0.0130732
836.474	0.0131329
836.552	0.0130828
836.630	0.0130241
836.708	0.0130743
836.786	0.0133203
836.864	0.0133930
836.943	0.0133093
837.021	0.0132327
837.099	0.0134197
837.177	0.0134589
837.255	0.0134374
837.333	0.0134539
837.411	0.0136118
837.489	0.0136875
837.568	0.0137702
837.646	0.0138449
837.724	0.0137038
837.802	0.0139167
837.880	0.0141521
837.958	0.0139506
838.036	0.0140193
838.114	0.0141201
838.193	0.0140079
838.271	0.0139822
838.349	0.0139921
838.427	0.0141263
838.505	0.0140902
838.583	0.0140543
838.661	0.0139391
838.739	0.0139331
838.818	0.0140310
838.896	0.0139790
838.974	0.0138967
839.052	0.0139452
839.130	0.0138229
839.208	0.0136720
839.286	0.0138316
839.364	0.0138255
839.443	0.0137352
839.521	0.0135127
839.599	0.0136749
839.677	0.0137006
839.755	0.0136176
839.833	0.0136448
839.911	0.0135919
839.989	0.0137068
840.068	0.0134541
840.146	0.0135565
840.224	0.0134828
840.302	0.0135004
840.380	0.0134127
840.458	0.0135276
840.536	0.0133960
840.614	0.0135565
840.693	0.0134033
840.771	0.0134393
840.849	0.0135513
840.927	0.0133179
841.005	0.0133331
841.083	0.0132767
841.161	0.0132141
841.239	0.0133108
841.318	0.0132699
841.396	0.0133172
841.474	0.0131858
841.552	0.0132450
841.630	0.0132365
841.708	0.0135194
841.786	0.0134563
841.864	0.0134757
841.943	0.0134688
842.021	0.0133194
842.099	0.0133931
842.177	0.0135516
842.255	0.0134260
842.333	0.0134972
842.411	0.0134129
842.489	0.0134673
842.568	0.0135725
842.646	0.0135295
842.724	0.0135022
842.802	0.0135213
842.880	0.0134483
842.958	0.0136107
843.036	0.0134306
843.114	0.0134229
843.193	0.0135796
843.271	0.0136656
843.349	0.0137502
843.427	0.0138237
843.505	0.0135804
843.583	0.0137768
843.661	0.0135690
843.739	0.0135877
843.818	0.0136644
843.896	0.0137177
843.974	0.0138637
844.052	0.0139038
844.130	0.0137579
844.208	0.0138463
844.286	0.0138722
844.364	0.0136332
844.443	0.0137421
844.521	0.0137370
844.599	0.0138411
844.677	0.0137291
844.755	0.0135797
844.833	0.0137061
844.911	0.0137884
844.989	0.0136890
845.068	0.0137882
845.146	0.0135854
845.224	0.0135947
845.302	0.0136668
845.380	0.0135122
845.458	0.0136095
845.536	0.0135810
845.614	0.0136194
845.693	0.0135316
845.771	0.0136481
845.849	0.0137057
845.927	0.0136991
846.005	0.0136761
846.083	0.0136967
846.161	0.0136259
846.239	0.0136876
846.318	0.0136739
846.396	0.0138164
846.474	0.0137313
846.552	0.0136773
846.630	0.0137481
846.708	0.0137578
846.786	0.0137579
846.864	0.0137729
846.943	0.0137931
847.021	0.0137508
847.099	0.0137361
847.177	0.0136434
847.255	0.0138074
847.333	0.0137861
847.411	0.0137640
847.489	0.0139043
847.568	0.0137408
847.646	0.0137194
847.724	0.0137725
847.802	0.0136899
847.880	0.0137031
847.958	0.0138551
848.036	0.0137343
848.114	0.0137112
848.193	0.0136275
848.271	0.0136163
848.349	0.0136079
848.427	0.0135661
848.505	0.0135503
848.583	0.0134644
848.661	0.0135314
848.739	0.0134344
848.818	0.0132698
848.896	0.0133138
848.974	0.0133620
849.052	0.0132733
849.130	0.0132257
849.208	0.0132912
849.286	0.0134332
849.364	0.0133549
849.443	0.0133062
849.521	0.0131631
849.599	0.0132999
849.677	0.0134415
849.755	0.0132783
849.833	0.0135949
849.911	0.0135195
849.989	0.0135435
850.068	0.0135995
850.146	0.0136312
850.224	0.0136784
850.302	0.0136509
850.380	0.0138058
850.458	0.0136059
850.536	0.0137698
850.614	0.0137913
850.693	0.0137852
850.771	0.0137625
850.849	0.0138483
850.927	0.0139266
851.005	0.0139907
851.083	0.0138841
851.161	0.0139314
851.239	0.0138508
851.318	0.0138493
851.396	0.0138342
851.474	0.0139786
851.552	0.0139348
851.630	0.0138858
851.708	0.0137527
851.786	0.0138327
851.864	0.0139037
851.943	0.0136636
852.021	0.0137681
852.099	0.0138062
852.177	0.0137692
852.255	0.0137223
852.333	0.0136773
852.411	0.0136150
852.489	0.0136945
852.568	0.0137132
852.646	0.0134235
852.724	0.0135313
852.802	0.0135105
852.880	0.0133960
852.958	0.0133904
853.036	0.0135255
853.114	0.0133999
853.193	0.0132338
853.271	0.0134174
853.349	0.0134876
853.427	0.0134338
853.505	0.0134312
853.583	0.0133616
853.661	0.0133402
853.739	0.0134573
853.818	0.0135374
853.896	0.0135582
853.974	0.0135943
854.052	0.0135724
854.130	0.0136050
854.208	0.0135524
854.286	0.0135720
854.364	0.0137130
854.443	0.0137378
854.521	0.0137659
854.599	0.0138442
854.677	0.0137816
854.755	0.0138952
854.833	0.0139655
854.911	0.0137723
854.989	0.0139387
855.068	0.0139309
855.146	0.0139773
855.224	0.0139816
855.302	0.0140452
855.380	0.0140750
855.458	0.0139871
855.536	0.0140829
855.614	0.0138853
855.693	0.0139253
855.771	0.0139239
855.849	0.0139266
855.927	0.0137769
856.005	0.0138325
856.083	0.0137301
856.161	0.0138096
856.239	0.0136748
856.318	0.0136858
856.396	0.0135847
856.474	0.0134129
856.552	0.0134428
856.630	0.0133788
856.708	0.0134452
856.786	0.0134676
856.864	0.0133865
856.943	0.0133746
857.021	0.0132328
857.099	0.0134137
857.177	0.0133907
857.255	0.0132211
857.333	0.0132600
857.411	0.0132538
857.489	0.0132343
857.568	0.0132669
857.646	0.0133366
857.724	0.0132689
857.802	0.0132009
857.880	0.0132169
857.958	0.0133641
858.036	0.0133279
858.114	0.0133606
858.193	0.0133384
858.271	0.0134621
858.349	0.0134499
858.427	0.0135425
858.505	0.0136138
858.583	0.0136464
858.661	0.0136282
858.739	0.0137092
858.818	0.0138427
858.896	0.0137230
858.974	0.0138395
859.052	0.0138811
859.130	0.0138364
859.208	0.0138387
859.286	0.0139637
859.364	0.0138131
859.443	0.0138528
859.521	0.0138737
859.599	0.0137617
859.677	0.0138676
859.755	0.0137937
859.833	0.0137965
859.911	0.0137382
859.989	0.0137292
860.068	0.0135917
860.146	0.0136351
860.224	0.0136597
860.302	0.0136481
860.380	0.0135670
860.458	0.0134810
860.536	0.0135775
860.614	0.0134737
860.693	0.0134432
860.771	0.0135365
860.849	0.0134774
860.927	0.0134444
861.005	0.0134171
861.083	0.0135078
861.161	0.0134304
861.239	0.0133889
861.318	0.0132607
861.396	0.0132689
861.474	0.0133504
861.552	0.0134105
861.630	0.0132747
861.708	0.0135097
861.786	0.0135786
861.864	0.0134232
861.943	0.0135456
862.021	0.0134853
862.099	0.0135349
862.177	0.0136927
862.255	0.0136858
862.333	0.0135976
862.411	0.0135923
862.489	0.0136540
862.568	0.0136300
862.646	0.0139234
862.724	0.0138457
862.802	0.0138728
862.880	0.0137384
862.958	0.0138320
863.036	0.0138839
863.114	0.0138450
863.193	0.0138655
863.271	0.0138184
863.349	0.0139453
863.427	0.0138259
863.505	0.0137534
863.583	0.0138925
863.661	0.0138674
863.739	0.0138300
863.818	0.0137964
863.896	0.0137877
863.974	0.0137238
864.052	0.0138515
864.130	0.0137657
864.208	0.0136409
864.286	0.0135950
864.364	0.0136904
864.443	0.0136584
864.521	0.0136813
864.599	0.0136568
864.677	0.0136543
864.755	0.0135678
864.833	0.0135368
864.911	0.0136057
864.989	0.0134800
865.068	0.0133623
865.146	0.0133717
865.224	0.0134454
865.302	0.0135497
865.380	0.0134498
865.458	0.0133176
865.536	0.0133992
865.614	0.0135179
865.693	0.0135104
865.771	0.0134481
865.849	0.0136457
865.927	0.0134837
866.005	0.0134801
866.083	0.0134805
866.161	0.0135260
866.239	0.0135882
866.318	0.0135982
866.396	0.0136520
866.474	0.0135944
866.552	0.0135432
866.630	0.0135474
866.708	0.0136786
866.786	0.0136886
866.864	0.0136104
866.943	0.0135733
867.021	0.0135085
867.099	0.0135813
867.177	0.0135780
867.255	0.0136189
867.333	0.0135995
867.411	0.0137682
867.489	0.0136198
867.568	0.0136874
867.646	0.0135111
867.724	0.0136404
867.802	0.0137173
867.880	0.0135176
867.958	0.0135766
868.036	0.0135547
868.114	0.0135120
868.193	0.0135526
868.271	0.0136100
868.349	0.0135813
868.427	0.0133326
868.505	0.0134829
868.583	0.0135114
868.661	0.0133983
868.739	0.0133810
868.818	0.0133987
868.896	0.0132182
868.974	0.0133212
869.052	0.0132490
869.130	0.0132730
869.208	0.0132668
869.286	0.0133487
869.364	0.0132218
869.443	0.0134399
869.521	0.0134827
869.599	0.0133772
869.677	0.0133797
869.755	0.0134820
869.833	0.0134954
869.911	0.0135186
869.989	0.0136462
870.068	0.0136156
870.146	0.0136462
870.224	0.0137819
870.302	0.0137211
870.380	0.0137383
870.458	0.0136379
870.536	0.0137386
870.614	0.0137416
870.693	0.0137428
870.771	0.0137802
870.849	0.0138660
870.927	0.0138718
871.005	0.0136903
871.083	0.0137960
871.161	0.0139240
871.239	0.0138968
871.318	0.0140382
871.396	0.0138134
871.474	0.0137586
871.552	0.0138198
871.630	0.0138937
871.708	0.0137819
871.786	0.0137618
871.864	0.0137544
871.943	0.0136092
872.021	0.0137308
872.099	0.0135181
872.177	0.0135623
872.255	0.0135947
872.333	0.0136681
872.411	0.0134567
872.489	0.0134717
872.568	0.0135793
872.646	0.0134332
872.724	0.0135947
872.802	0.0135897
872.880	0.0134678
872.958	0.0136082
873.036	0.0135835
873.114	0.0134506
873.193	0.0135086
873.271	0.0135350
873.349	0.0134133
873.427	0.0134521
873.505	0.0134164
873.583	0.0134624
873.661	0.0134718
873.739	0.0134392
873.818	0.0134495
873.896	0.0135455
873.974	0.0135409
874.052	0.0136642
874.130	0.0136387
874.208	0.0136976
874.286	0.0137158
874.364	0.0137051
874.443	0.0138089
874.521	0.0138115
874.599	0.0137225
874.677	0.0136950
874.755	0.0137478
874.833	0.0138691
874.911	0.0138409
874.989	0.0138966
875.068	0.0139915
875.146	0.0137688
875.224	0.0136692
875.302	0.0138676
875.380	0.0138913
875.458	0.0139293
875.536	0.0139465
875.614	0.0138536
875.693	0.0137365
875.771	0.0138441
875.849	0.0138255
875.927	0.0137145
876.005	0.0138200
876.083	0.0136974
876.161	0.0137904
876.239	0.0136674
876.318	0.0136350
876.396	0.0136428
876.474	0.0136942
876.552	0.0135459
876.630	0.0135516
876.708	0.0135081
876.786	0.0134700
876.864	0.0136736
876.943	0.0135507
877.021	0.0134464
877.099	0.0134073
877.177	0.0134291
877.255	0.0134991
877.333	0.0136793
877.411	0.0136562
877.489	0.0135744
877.568	0.0137061
877.646	0.0137550
877.724	0.0137840
877.802	0.0138251
877.880	0.0136220
877.958	0.0137564
878.036	0.0138855
878.114	0.0135915
878.193	0.0138190
878.271	0.0138780
878.349	0.0138232
878.427	0.0138186
878.505	0.0137646
878.583	0.0139083
878.661	0.0137711
878.739	0.0137981
878.818	0.0138812
878.896	0.0138280
878.974	0.0139415
879.052	0.0139719
879.130	0.0138774
879.208	0.0139932
879.286	0.0137917
879.364	0.0137438
879.443	0.0137555
879.521	0.0139247
879.599	0.0137097
879.677	0.0137433
879.755	0.0136880
879.833	0.0137415
879.911	0.0137707
879.989	0.0136828
880.068	0.0137735
880.146	0.0137397
880.224	0.0138630
880.302	0.0138561
880.380	0.0137038
880.458	0.0136963
880.536	0.0137450
880.614	0.0136954
880.693	0.0138521
880.771	0.0137234
880.849	0.0138503
880.927	0.0138003
881.005	0.0138734
881.083	0.0137803
881.161	0.0138457
881.239	0.0137058
881.318	0.0136790
881.396	0.0137290
881.474	0.0136775
881.552	0.0137581
881.630	0.0137640
881.708	0.0137798
881.786	0.0136665
881.864	0.0136016
881.943	0.0136435
882.021	0.0135822
882.099	0.0136214
882.177	0.0134721
882.255	0.0135928
882.333	0.0134830
882.411	0.0133053
882.489	0.0135001
882.568	0.0135684
882.646	0.0135185
882.724	0.0135445
882.802	0.0134737
882.880	0.0135223
882.958	0.0134885
883.036	0.0135236
883.114	0.0135599
883.193	0.0135910
883.271	0.0134890
883.349	0.0135584
883.427	0.0134499
883.505	0.0136145
883.583	0.0136414
883.661	0.0136755
883.739	0.0136755
883.818	0.0136796
883.896	0.0135436
883.974	0.0135652
884.052	0.0137027
884.130	0.0136519
884.208	0.0135648
884.286	0.0135577
884.364	0.0136342
884.443	0.0134055
884.521	0.0134708
884.599	0.0134976
884.677	0.0135281
884.755	0.0134789
884.833	0.0135696
884.911	0.0135591
884.989	0.0135569
885.068	0.0135648
885.146	0.0135294
885.224	0.0135949
885.302	0.0136768
885.380	0.0135615
885.458	0.0135455
885.536	0.0135536
885.614	0.0136465
885.693	0.0135686
885.771	0.0134773
885.849	0.0137265
885.927	0.0135960
886.005	0.0134190
886.083	0.0136223
886.161	0.0136234
886.239	0.0135058
886.318	0.0134935
886.396	0.0135807
886.474	0.0135004
886.552	0.0136990
886.630	0.0135912
886.708	0.0136723
886.786	0.0136179
886.864	0.0136589
886.943	0.0135757
887.021	0.0135006
887.099	0.0135360
887.177	0.0136347
887.255	0.0136851
887.333	0.0135812
887.411	0.0136816
887.489	0.0136946
887.568	0.0135449
887.646	0.0136019
887.724	0.0137985
887.802	0.0137014
887.880	0.0136929
887.958	0.0137421
888.036	0.0137006
888.114	0.0136144
888.193	0.0135107
888.271	0.0136001
888.349	0.0136008
888.427	0.0135280
888.505	0.0134840
888.583	0.0135680
888.661	0.0135426
888.739	0.0135970
888.818	0.0134619
888.896	0.0137035
888.974	0.0137315
889.052	0.0136907
889.130	0.0136004
889.208	0.0136289
889.286	0.0135928
889.364	0.0136558
889.443	0.0135707
889.521	0.0136151
889.599	0.0137084
889.677	0.0136771
889.755	0.0135970
889.833	0.0135374
889.911	0.0136273
889.989	0.0135564
890.068	0.0135963
890.146	0.0134490
890.224	0.0135246
890.302	0.0135245
890.380	0.0136688
890.458	0.0134810
890.536	0.0134785
890.614	0.0133522
890.693	0.0135331
890.771	0.0135146
890.849	0.0136167
890.927	0.0133627
891.005	0.0135873
891.083	0.0134083
891.161	0.0134657
891.239	0.0134644
891.318	0.0135080
891.396	0.0133681
891.474	0.0133368
891.552	0.0134686
891.630	0.0134041
891.708	0.0132995
891.786	0.0134849
891.864	0.0132906
891.943	0.0134715
892.021	0.0135748
892.099	0.0135299
892.177	0.0133572
892.255	0.0132954
892.333	0.0135635
892.411	0.0135848
892.489	0.0136411
892.568	0.0136794
892.646	0.0135612
892.724	0.0135931
892.802	0.0136037
892.880	0.0136701
892.958	0.0138089
893.036	0.0137489
893.114	0.0138155
893.193	0.0137908
893.271	0.0137014
893.349	0.0138479
893.427	0.0138497
893.505	0.0138579
893.583	0.0138750
893.661	0.0136972
893.739	0.0137808
893.818	0.0138695
893.896	0.0135785
893.974	0.0137087
894.052	0.0138324
894.130	0.0137514
894.208	0.0137380
894.286	0.0137679
894.364	0.0138342
894.443	0.0138021
894.521	0.0136624
894.599	0.0136925
894.677	0.0138773
894.755	0.0137911
894.833	0.0137435
894.911	0.0136973
894.989	0.0137328
895.068	0.0136823
895.146	0.0135942
895.224	0.0135239
895.302	0.0135787
895.380	0.0136208
895.458	0.0135705
895.536	0.0134496
895.614	0.0135561
895.693	0.0134769
895.771	0.0134702
895.849	0.0134424
895.927	0.0134930
896.005	0.0135318
896.083	0.0134088
896.161	0.0134651
896.239	0.0135574
896.318	0.0135116
896.396	0.0133925
896.474	0.0135804
896.552	0.0137580
896.630	0.0136201
896.708	0.0136661
896.786	0.0135439
896.864	0.0136771
896.943	0.0137683
897.021	0.0137623
897.099	0.0138579
897.177	0.0137086
897.255	0.0137430
897.333	0.0136008
897.411	0.0137382
897.489	0.0136848
897.568	0.0135821
897.646	0.0137235
897.724	0.0136862
897.802	0.0137451
897.880	0.0138521
897.958	0.0137811
898.036	0.0136256
898.114	0.0136092
898.193	0.0138320
898.271	0.0136898
898.349	0.0136954
898.427	0.0138273
898.505	0.0137212
898.583	0.0137805
898.661	0.0136785
898.739	0.0135690
898.818	0.0137066
898.896	0.0137363
898.974	0.0137227
899.052	0.0137431
899.130	0.0138240
899.208	0.0137881
899.286	0.0137496
899.364	0.0137163
899.443	0.0137881
899.521	0.0137611
899.599	0.0134344
899.677	0.0136331
899.755	0.0137624
899.833	0.0137416
899.911	0.0136818
899.989	0.0135699
900.068	0.0137698
900.146	0.0136157
900.224	0.0135458
900.302	0.0137125
900.380	0.0136903
900.458	0.0134975
900.536	0.0135570
900.614	0.0134856
900.693	0.0134448
900.771	0.0135043
900.849	0.0134938
900.927	0.0134084
901.005	0.0134281
901.083	0.0134097
901.161	0.0132582
901.239	0.0134182
901.318	0.0133716
901.396	0.0132958
901.474	0.0132820
901.552	0.0133109
901.630	0.0135162
901.708	0.0135374
901.786	0.0134887
901.864	0.0135249
901.943	0.0135030
902.021	0.0136280
902.099	0.0135760
902.177	0.0135990
902.255	0.0136175
902.333	0.0136887
902.411	0.0136434
902.489	0.0135956
902.568	0.0136179
902.646	0.0137315
902.724	0.0137614
902.802	0.0137305
902.880	0.0138542
902.958	0.0138041
903.036	0.0138557
903.114	0.0137830
903.193	0.0137204
903.271	0.0138127
903.349	0.0138672
903.427	0.0137603
903.505	0.0138641
903.583	0.0138023
903.661	0.0136728
903.739	0.0137522
903.818	0.0137591
903.896	0.0137728
903.974	0.0138523
904.052	0.0136512
904.130	0.0137067
904.208	0.0137448
904.286	0.0136742
904.364	0.0136406
904.443	0.0135399
904.521	0.0136595
904.599	0.0137075
904.677	0.0136710
904.755	0.0136501
904.833	0.0137255
904.911	0.0135316
904.989	0.0134731
905.068	0.0135903
905.146	0.0134601
905.224	0.0134403
905.302	0.0135882
905.380	0.0135435
905.458	0.0135152
905.536	0.0135844
905.614	0.0135622
905.693	0.0134942
905.771	0.0135342
905.849	0.0135362
905.927	0.0136349
906.005	0.0134707
906.083	0.0136600
906.161	0.0134824
906.239	0.0137088
906.318	0.0136572
906.396	0.0134863
906.474	0.0135732
906.552	0.0135390
906.630	0.0134744
906.708	0.0135782
906.786	0.0135770
906.864	0.0135706
906.943	0.0135391
907.021	0.0135027
907.099	0.0135652
907.177	0.0135423
907.255	0.0135727
907.333	0.0134866
907.411	0.0137042
907.489	0.0136162
907.568	0.0136433
907.646	0.0137859
907.724	0.0139121
907.802	0.0138154
907.880	0.0137965
907.958	0.0137001
908.036	0.0138310
908.114	0.0138696
908.193	0.0137891
908.271	0.0138079
908.349	0.0137724
908.427	0.0138362
908.505	0.0138116
908.583	0.0137850
908.661	0.0137839
908.739	0.0138993
908.818	0.0138689
908.896	0.0138158
908.974	0.0138052
909.052	0.0137409
909.130	0.0136818
909.208	0.0137340
909.286	0.0136652
909.364	0.0135448
909.443	0.0137218
909.521	0.0136427
909.599	0.0137104
909.677	0.0137785
909.755	0.0134987
909.833	0.0135041
909.911	0.0135197
909.989	0.0133904
910.068	0.0134367
910.146	0.0133980
910.224	0.0136005
910.302	0.0133633
910.380	0.0134244
910.458	0.0132759
910.536	0.0133328
910.614	0.0133266
910.693	0.0133646
910.771	0.0134508
910.849	0.0132891
910.927	0.0133253
911.005	0.0133958
911.083	0.0132911
911.161	0.0132632
911.239	0.0134987
911.318	0.0133923
911.396	0.0133750
911.474	0.0134497
911.552	0.0135204
911.630	0.0134670
911.708	0.0134174
911.786	0.0133643
911.864	0.0134518
911.943	0.0135056
912.021	0.0135845
912.099	0.0134924
912.177	0.0134956
912.255	0.0136194
912.333	0.0134287
912.411	0.0134190
912.489	0.0135168
912.568	0.0135023
912.646	0.0135514
912.724	0.0135252
912.802	0.0135477
912.880	0.0136156
912.958	0.0137250
913.036	0.0136336
913.114	0.0137308
913.193	0.0137229
913.271	0.0137537
913.349	0.0136951
913.427	0.0136069
913.505	0.0136536
913.583	0.0136720
913.661	0.0136340
913.739	0.0136158
913.818	0.0136358
913.896	0.0136478
913.974	0.0137119
914.052	0.0136812
914.130	0.0134865
914.208	0.0135133
914.286	0.0135670
914.364	0.0135907
914.443	0.0136812
914.521	0.0136407
914.599	0.0136233
914.677	0.0135182
914.755	0.0136313
914.833	0.0135509
914.911	0.0136292
914.989	0.0135493
915.068	0.0135462
915.146	0.0136266
915.224	0.0136169
915.302	0.0135542
915.380	0.0134698
915.458	0.0136873
915.536	0.0136511
915.614	0.0136205
915.693	0.0137432
915.771	0.0135095
915.849	0.0135263
915.927	0.0135986
916.005	0.0135778
916.083	0.0135973
916.161	0.0135326
916.239	0.0135241
916.318	0.0135751
916.396	0.0135528
916.474	0.0135453
916.552	0.0135081
916.630	0.0135178
916.708	0.0135390
916.786	0.0134733
916.864	0.0135249
916.943	0.0135423
917.021	0.0134167
917.099	0.0134239
917.177	0.0135172
917.255	0.0135870
917.333	0.0134913
917.411	0.0135263
917.489	0.0135378
917.568	0.0135134
917.646	0.0135390
917.724	0.0134779
917.802	0.0134922
917.880	0.0134936
917.958	0.0135056
918.036	0.0134121
918.114	0.0135846
918.193	0.0135775
918.271	0.0135062
918.349	0.0133567
918.427	0.0136146
918.505	0.0134885
918.583	0.0135934
918.661	0.0135787
918.739	0.0134565
918.818	0.0134892
918.896	0.0135837
918.974	0.0133525
919.052	0.0133916
919.130	0.0134660
919.208	0.0132971
919.286	0.0135043
919.364	0.0136860
919.443	0.0135968
919.521	0.0135820
919.599	0.0135369
919.677	0.0134125
919.755	0.0135000
919.833	0.0134198
919.911	0.0135415
919.989	0.0134373
920.068	0.0136561
920.146	0.0137050
920.224	0.0134866
920.302	0.0136199
920.380	0.0135996
920.458	0.0136262
920.536	0.0136195
920.614	0.0137015
920.693	0.0136031
920.771	0.0136349
920.849	0.0136140
920.927	0.0135981
921.005	0.0136193
921.083	0.0136091
921.161	0.0136552
921.239	0.0136339
921.318	0.0135963
921.396	0.0136873
921.474	0.0137514
921.552	0.0136343
921.630	0.0136645
921.708	0.0135179
921.786	0.0137428
921.864	0.0137064
921.943	0.0138419
922.021	0.0138265
922.099	0.0135229
922.177	0.0136012
922.255	0.0136751
922.333	0.0139187
922.411	0.0139127
922.489	0.0137645
922.568	0.0137044
922.646	0.0137833
922.724	0.0137360
922.802	0.0136369
922.880	0.0136904
922.958	0.0136680
923.036	0.0137064
923.114	0.0136493
923.193	0.0136332
923.271	0.0135515
923.349	0.0136126
923.427	0.0135156
923.505	0.0136423
923.583	0.0136201
923.661	0.0136852
923.739	0.0136098
923.818	0.0135749
923.896	0.0136877
923.974	0.0137184
924.052	0.0135463
924.130	0.0136702
924.208	0.0137237
924.286	0.0136976
924.364	0.0136847
924.443	0.0136316
924.521	0.0137366
924.599	0.0138714
924.677	0.0136809
924.755	0.0137204
924.833	0.0137733
924.911	0.0135860
924.989	0.0136709
925.068	0.0136880
925.146	0.0137930
925.224	0.0136638
925.302	0.0136790
925.380	0.0136991
925.458	0.0137128
925.536	0.0136568
925.614	0.0136968
925.693	0.0136162
925.771	0.0136178
925.849	0.0136562
925.927	0.0136453
926.005	0.0136698
926.083	0.0136268
926.161	0.0136665
926.239	0.0136951
926.318	0.0136537
926.396	0.0136200
926.474	0.0136374
926.552	0.0137213
926.630	0.0136473
926.708	0.0137017
926.786	0.0136452
926.864	0.0136212
926.943	0.0135851
927.021	0.0135395
927.099	0.0136204
927.177	0.0136432
927.255	0.0137151
927.333	0.0136343
927.411	0.0135866
927.489	0.0137719
927.568	0.0136806
927.646	0.0134747
927.724	0.0136380
927.802	0.0137189
927.880	0.0137986
927.958	0.0136120
928.036	0.0137244
928.114	0.0137086
928.193	0.0136346
928.271	0.0136252
928.349	0.0136020
928.427	0.0135304
928.505	0.0135633
928.583	0.0135512
928.661	0.0136125
928.739	0.0136118
928.818	0.0134677
928.896	0.0135207
928.974	0.0134554
929.052	0.0134385
929.130	0.0133909
929.208	0.0134081
929.286	0.0134785
929.364	0.0134950
929.443	0.0134781
929.521	0.0134769
929.599	0.0134971
929.677	0.0134379
929.755	0.0134040
929.833	0.0134727
929.911	0.0134132
929.989	0.0135807
930.068	0.0134879
930.146	0.0135265
930.224	0.0135662
930.302	0.0135545
930.380	0.0135275
930.458	0.0135891
930.536	0.0135299
930.614	0.0136307
930.693	0.0134543
930.771	0.0135695
930.849	0.0134908
930.927	0.0137121
931.005	0.0136547
931.083	0.0135275
931.161	0.0136079
931.239	0.0136280
931.318	0.0136312
931.396	0.0135157
931.474	0.0135984
931.552	0.0136063
931.630	0.0135173
931.708	0.0134714
931.786	0.0135159
931.864	0.0135952
931.943	0.0134383
932.021	0.0133339
932.099	0.0135229
932.177	0.0135073
932.255	0.0134854
932.333	0.0134259
932.411	0.0134496
932.489	0.0134338
932.568	0.0135974
932.646	0.0134779
932.724	0.0135732
932.802	0.0134064
932.880	0.0135973
932.958	0.0136181
933.036	0.0136906
933.114	0.0136698
933.193	0.0137094
933.271	0.0136654
933.349	0.0136288
933.427	0.0136680
933.505	0.0136104
933.583	0.0137944
933.661	0.0136418
933.739	0.0137855
933.818	0.0137646
933.896	0.0138303
933.974	0.0137635
934.052	0.0137086
934.130	0.0136947
934.208	0.0136887
934.286	0.0138046
934.364	0.0137643
934.443	0.0138742
934.521	0.0135713
934.599	0.0137115
934.677	0.0137001
934.755	0.0137359
934.833	0.0137429
934.911	0.0137405
934.989	0.0137384
935.068	0.0136990
935.146	0.0136625
935.224	0.0136237
935.302	0.0137476
935.380	0.0135526
935.458	0.0136320
935.536	0.0135315
935.614	0.0135645
935.693	0.0135744
935.771	0.0135260
935.849	0.0136348
935.927	0.0137289
936.005	0.0135346
936.083	0.0136440
936.161	0.0136308
936.239	0.0136594
936.318	0.0136385
936.396	0.0134984
936.474	0.0135280
936.552	0.0135118
936.630	0.0135667
936.708	0.0135294
936.786	0.0135616
936.864	0.0135473
936.943	0.0134586
937.021	0.0135030
937.099	0.0134937
937.177	0.0134620
937.255	0.0134711
937.333	0.0135212
937.411	0.0136295
937.489	0.0134697
937.568	0.0134378
937.646	0.0135907
937.724	0.0134823
937.802	0.0136826
937.880	0.0137354
937.958	0.0135686
938.036	0.0135543
938.114	0.0135546
938.193	0.0137340
938.271	0.0135584
938.349	0.0136919
938.427	0.0136842
938.505	0.0135632
938.583	0.0137042
938.661	0.0137170
938.739	0.0137302
938.818	0.0138051
938.896	0.0137079
938.974	0.0137553
939.052	0.0137530
939.130	0.0137527
939.208	0.0139426
939.286	0.0138538
939.364	0.0136422
939.443	0.0137138
939.521	0.0137979
939.599	0.0138902
939.677	0.0138500
939.755	0.0137473
939.833	0.0137183
939.911	0.0137691
939.989	0.0137507
940.068	0.0135516
940.146	0.0134106
940.224	0.0135972
940.302	0.0137482
940.380	0.0135541
940.458	0.0135380
940.536	0.0135248
940.614	0.0135291
940.693	0.0134919
940.771	0.0133951
940.849	0.0133764
940.927	0.0134190
941.005	0.0133556
941.083	0.0133670
941.161	0.0134636
941.239	0.0134665
941.318	0.0134283
941.396	0.0132784
941.474	0.0134523
941.552	0.0133595
941.630	0.0135284
941.708	0.0134237
941.786	0.0135353
941.864	0.0135249
941.943	0.0134144
942.021	0.0134346
942.099	0.0135175
942.177	0.0135246
942.255	0.0134485
942.333	0.0135924
942.411	0.0135252
942.489	0.0136276
942.568	0.0135785
942.646	0.0136601
942.724	0.0136349
942.802	0.0136048
942.880	0.0136299
942.958	0.0138346
943.036	0.0137452
943.114	0.0137875
943.193	0.0137634
943.271	0.0137476
943.349	0.0136147
943.427	0.0138860
943.505	0.0138943
943.583	0.0137623
943.661	0.0138451
943.739	0.0140022
943.818	0.0139000
943.896	0.0138372
943.974	0.0139384
944.052	0.0138274
944.130	0.0136991
944.208	0.0138242
944.286	0.0137087
944.364	0.0137995
944.443	0.0137331
944.521	0.0136553
944.599	0.0136661
944.677	0.0137482
944.755	0.0137578
944.833	0.0136887
944.911	0.0135223
944.989	0.0136128
945.068	0.0136082
945.146	0.0136880
945.224	0.0136945
945.302	0.0135156
945.380	0.0135619
945.458	0.0137394
945.536	0.0135133
945.614	0.0136719
945.693	0.0136172
945.771	0.0135293
945.849	0.0134804
945.927	0.0135278
946.005	0.0136588
946.083	0.0135776
946.161	0.0134761
946.239	0.0133968
946.318	0.0134259
946.396	0.0133496
946.474	0.0134046
946.552	0.0133543
946.630	0.0133716
946.708	0.0134112
946.786	0.0133494
946.864	0.0134536
946.943	0.0133490
947.021	0.0133512
947.099	0.0134531
947.177	0.0133330
947.255	0.0132604
947.333	0.0134253
947.411	0.0135144
947.489	0.0132896
947.568	0.0135115
947.646	0.0135078
947.724	0.0134319
947.802	0.0135334
947.880	0.0136276
947.958	0.0135951
948.036	0.0135610
948.114	0.0136160
948.193	0.0136560
948.271	0.0135957
948.349	0.0137804
948.427	0.0136714
948.505	0.0136549
948.583	0.0136693
948.661	0.0136475
948.739	0.0136140
948.818	0.0137220
948.896	0.0138301
948.974	0.0136436
949.052	0.0136186
949.130	0.0136485
949.208	0.0135999
949.286	0.0136065
949.364	0.0137101
949.443	0.0136931
949.521	0.0136208
949.599	0.0135578
949.677	0.0136210
949.755	0.0136381
949.833	0.0136361
949.911	0.0134796
949.989	0.0136259
950.068	0.0135814
950.146	0.0135839
950.224	0.0135419
950.302	0.0136100
950.380	0.0136127
950.458	0.0136063
950.536	0.0138235
950.614	0.0136311
950.693	0.0135554
950.771	0.0136128
950.849	0.0135476
950.927	0.0137875
951.005	0.0136209
951.083	0.0136211
951.161	0.0138947
951.239	0.0137778
951.318	0.0137676
951.396	0.0138601
951.474	0.0136792
951.552	0.0137795
951.630	0.0138472
951.708	0.0137749
951.786	0.0138521
951.864	0.0137553
951.943	0.0138074
952.021	0.0137608
952.099	0.0137300
952.177	0.0136163
952.255	0.0136499
952.333	0.0138076
952.411	0.0137626
952.489	0.0136719
952.568	0.0136988
952.646	0.0136423
952.724	0.0136185
952.802	0.0135947
952.880	0.0136274
952.958	0.0136492
953.036	0.0135241
953.114	0.0137306
953.193	0.0135853
953.271	0.0136211
953.349	0.0136158
953.427	0.0136314
953.505	0.0136775
953.583	0.0135849
953.661	0.0136889
953.739	0.0135491
953.818	0.0135922
953.896	0.0135499
953.974	0.0136281
954.052	0.0136465
954.130	0.0135780
954.208	0.0136800
954.286	0.0136140
954.364	0.0135719
954.443	0.0135217
954.521	0.0136396
954.599	0.0135645
954.677	0.0135682
954.755	0.0136331
954.833	0.0137119
954.911	0.0136320
954.989	0.0135664
955.068	0.0135596
955.146	0.0136997
955.224	0.0135805
955.302	0.0137325
955.380	0.0136241
955.458	0.0134714
955.536	0.0136558
955.614	0.0135653
955.693	0.0137137
955.771	0.0136114
955.849	0.0136671
955.927	0.0136742
956.005	0.0137398
956.083	0.0136869
956.161	0.0137535
956.239	0.0137025
956.318	0.0138994
956.396	0.0136866
956.474	0.0135672
956.552	0.0135468
956.630	0.0136039
956.708	0.0138582
956.786	0.0137054
956.864	0.0134935
956.943	0.0136803
957.021	0.0136928
957.099	0.0136946
957.177	0.0136967
957.255	0.0137208
957.333	0.0135630
957.411	0.0135951
957.489	0.0136049
957.568	0.0136440
957.646	0.0135519
957.724	0.0135818
957.802	0.0136927
957.880	0.0136098
957.958	0.0135629
958.036	0.0136043
958.114	0.0136691
958.193	0.0137256
958.271	0.0135731
958.349	0.0135012
958.427	0.0134965
958.505	0.0136211
958.583	0.0134982
958.661	0.0135558
958.739	0.0136668
958.818	0.0137277
958.896	0.0136124
958.974	0.0137083
959.052	0.0137240
959.130	0.0137502
959.208	0.0136658
959.286	0.0137260
959.364	0.0136452
959.443	0.0137260
959.521	0.0136838
959.599	0.0136980
959.677	0.0135495
959.755	0.0135164
959.833	0.0137064
959.911	0.0136157
