05/07/2022	17:42:48	Ver.	4.1	UNKNOWN
Optical Delay	639.989416	Delta X		0.078125	Sweeps	1	Scan Rate	0/0
Coordinates	Axis 1	NaN	Axis 2	NaN	Axis 3	NaN	Axis 4	NaN	Axis 5	NaN	Axis 6	0.000000
TX Power	0.000000	RX Power	0.000000

639.989	0.0136239
640.068	0.0137457
640.146	0.0136425
640.224	0.0137880
640.302	0.0137424
640.380	0.0135761
640.458	0.0137695
640.536	0.0137612
640.614	0.0138316
640.693	0.0137075
640.771	0.0137614
640.849	0.0138171
640.927	0.0138596
641.005	0.0137669
641.083	0.0135944
641.161	0.0136808
641.239	0.0136617
641.318	0.0137788
641.396	0.0139900
641.474	0.0137886
641.552	0.0137356
641.630	0.0138390
641.708	0.0136794
641.786	0.0136980
641.864	0.0137984
641.943	0.0139190
642.021	0.0136721
642.099	0.0139005
642.177	0.0138225
642.255	0.0137355
642.333	0.0139176
642.411	0.0138441
642.489	0.0137262
642.568	0.0140168
642.646	0.0138509
642.724	0.0139610
642.802	0.0139360
642.880	0.0138126
642.958	0.0136999
643.036	0.0138637
643.114	0.0138725
643.193	0.0137613
643.271	0.0138593
643.349	0.0138168
643.427	0.0138779
643.505	0.0137804
643.583	0.0137910
643.661	0.0136842
643.739	0.0136413
643.818	0.0135293
643.896	0.0136663
643.974	0.0135514
644.052	0.0136262
644.130	0.0136192
644.208	0.0137428
644.286	0.0135967
644.364	0.0136177
644.443	0.0136355
644.521	0.0137086
644.599	0.0137785
644.677	0.0136397
644.755	0.0137637
644.833	0.0137788
644.911	0.0138764
644.989	0.0139429
645.068	0.0138532
645.146	0.0137786
645.224	0.0137827
645.302	0.0136949
645.380	0.0139303
645.458	0.0137389
645.536	0.0136029
645.614	0.0135803
645.693	0.0134679
645.771	0.0136076
645.849	0.0135635
645.927	0.0135899
646.005	0.0133411
646.083	0.0136167
646.161	0.0134583
646.239	0.0133340
646.318	0.0133884
646.396	0.0134825
646.474	0.0134351
646.552	0.0134636
646.630	0.0135406
646.708	0.0134968
646.786	0.0133380
646.864	0.0134802
646.943	0.0134126
647.021	0.0135452
647.099	0.0135699
647.177	0.0135023
647.255	0.0136326
647.333	0.0136651
647.411	0.0136742
647.489	0.0137048
647.568	0.0138536
647.646	0.0137654
647.724	0.0139014
647.802	0.0139472
647.880	0.0139709
647.958	0.0141621
648.036	0.0141817
648.114	0.0142001
648.193	0.0141872
648.271	0.0141709
648.349	0.0142285
648.427	0.0141698
648.505	0.0141801
648.583	0.0140022
648.661	0.0140968
648.739	0.0138217
648.818	0.0139451
648.896	0.0140257
648.974	0.0138324
649.052	0.0136948
649.130	0.0137730
649.208	0.0137598
649.286	0.0137541
649.364	0.0135542
649.443	0.0133613
649.521	0.0135299
649.599	0.0135923
649.677	0.0134554
649.755	0.0132822
649.833	0.0133409
649.911	0.0131052
649.989	0.0131483
650.068	0.0133168
650.146	0.0131154
650.224	0.0130988
650.302	0.0132551
650.380	0.0133263
650.458	0.0133407
650.536	0.0134036
650.614	0.0133727
650.693	0.0135182
650.771	0.0136817
650.849	0.0136459
650.927	0.0137747
651.005	0.0138526
651.083	0.0139305
651.161	0.0141270
651.239	0.0141678
651.318	0.0141473
651.396	0.0143098
651.474	0.0141988
651.552	0.0143922
651.630	0.0143739
651.708	0.0145934
651.786	0.0146059
651.864	0.0145988
651.943	0.0146207
652.021	0.0145209
652.099	0.0146639
652.177	0.0146569
652.255	0.0145863
652.333	0.0144936
652.411	0.0146255
652.489	0.0143562
652.568	0.0143379
652.646	0.0142645
652.724	0.0140368
652.802	0.0139311
652.880	0.0136689
652.958	0.0135917
653.036	0.0134969
653.114	0.0131347
653.193	0.0130216
653.271	0.0129329
653.349	0.0127699
653.427	0.0126144
653.505	0.0127239
653.583	0.0125025
653.661	0.0124472
653.739	0.0123221
653.818	0.0122820
653.896	0.0123406
653.974	0.0122961
654.052	0.0123328
654.130	0.0124006
654.208	0.0123720
654.286	0.0124692
654.364	0.0126139
654.443	0.0126381
654.521	0.0129274
654.599	0.0130638
654.677	0.0132462
654.755	0.0134608
654.833	0.0137569
654.911	0.0139875
654.989	0.0139977
655.068	0.0142378
655.146	0.0143922
655.224	0.0145209
655.302	0.0148475
655.380	0.0150308
655.458	0.0149504
655.536	0.0151796
655.614	0.0153109
655.693	0.0152618
655.771	0.0153391
655.849	0.0154422
655.927	0.0154023
656.005	0.0154329
656.083	0.0153852
656.161	0.0152405
656.239	0.0150663
656.318	0.0148678
656.396	0.0148035
656.474	0.0146072
656.552	0.0143913
656.630	0.0141315
656.708	0.0138139
656.786	0.0135795
656.864	0.0132189
656.943	0.0130727
657.021	0.0128867
657.099	0.0124895
657.177	0.0124098
657.255	0.0122073
657.333	0.0118928
657.411	0.0118203
657.489	0.0115939
657.568	0.0116985
657.646	0.0116509
657.724	0.0114835
657.802	0.0115603
657.880	0.0116930
657.958	0.0115322
658.036	0.0116006
658.114	0.0117245
658.193	0.0118320
658.271	0.0119291
658.349	0.0120562
658.427	0.0122630
658.505	0.0124590
658.583	0.0127762
658.661	0.0129051
658.739	0.0131372
658.818	0.0134784
658.896	0.0138844
658.974	0.0141098
659.052	0.0141759
659.130	0.0147308
659.208	0.0150355
659.286	0.0155251
659.364	0.0156268
659.443	0.0157072
659.521	0.0160981
659.599	0.0161932
659.677	0.0164435
659.755	0.0163850
659.833	0.0165405
659.911	0.0165556
659.989	0.0165075
660.068	0.0164587
660.146	0.0163136
660.224	0.0161712
660.302	0.0159818
660.380	0.0158681
660.458	0.0156247
660.536	0.0153188
660.614	0.0149389
660.693	0.0147324
660.771	0.0144853
660.849	0.0140502
660.927	0.0137237
661.005	0.0134252
661.083	0.0131459
661.161	0.0126276
661.239	0.0122636
661.318	0.0119743
661.396	0.0115471
661.474	0.0111533
661.552	0.0111002
661.630	0.0109203
661.708	0.0105676
661.786	0.0106218
661.864	0.0103666
661.943	0.0103584
662.021	0.0104150
662.099	0.0104386
662.177	0.0106754
662.255	0.0108363
662.333	0.0109692
662.411	0.0111298
662.489	0.0114214
662.568	0.0117860
662.646	0.0121158
662.724	0.0124570
662.802	0.0128275
662.880	0.0132889
662.958	0.0136446
663.036	0.0140691
663.114	0.0143909
663.193	0.0147322
663.271	0.0152337
663.349	0.0154111
663.427	0.0158833
663.505	0.0162006
663.583	0.0163635
663.661	0.0166251
663.739	0.0167332
663.818	0.0166683
663.896	0.0169563
663.974	0.0170279
664.052	0.0168251
664.130	0.0168668
664.208	0.0166859
664.286	0.0167371
664.364	0.0164432
664.443	0.0163065
664.521	0.0160210
664.599	0.0157473
664.677	0.0154575
664.755	0.0151853
664.833	0.0150159
664.911	0.0145307
664.989	0.0141634
665.068	0.0140461
665.146	0.0136261
665.224	0.0133489
665.302	0.0129807
665.380	0.0125160
665.458	0.0123333
665.536	0.0121349
665.614	0.0117974
665.693	0.0114931
665.771	0.0113326
665.849	0.0111415
665.927	0.0109206
666.005	0.0107698
666.083	0.0106565
666.161	0.0106120
666.239	0.0105531
666.318	0.0107204
666.396	0.0107832
666.474	0.0108357
666.552	0.0108659
666.630	0.0110996
666.708	0.0111922
666.786	0.0114793
666.864	0.0117102
666.943	0.0121278
667.021	0.0124327
667.099	0.0128036
667.177	0.0129098
667.255	0.0133772
667.333	0.0137020
667.411	0.0140997
667.489	0.0144070
667.568	0.0145856
667.646	0.0149101
667.724	0.0151450
667.802	0.0154353
667.880	0.0156497
667.958	0.0158309
668.036	0.0160372
668.114	0.0160246
668.193	0.0160435
668.271	0.0160295
668.349	0.0160890
668.427	0.0160596
668.505	0.0160155
668.583	0.0159003
668.661	0.0156779
668.739	0.0155373
668.818	0.0154569
668.896	0.0150494
668.974	0.0149249
669.052	0.0146931
669.130	0.0146992
669.208	0.0142149
669.286	0.0140752
669.364	0.0138717
669.443	0.0137234
669.521	0.0136309
669.599	0.0135052
669.677	0.0133583
669.755	0.0132207
669.833	0.0130000
669.911	0.0130227
669.989	0.0127899
670.068	0.0128048
670.146	0.0126187
670.224	0.0126823
670.302	0.0123702
670.380	0.0125191
670.458	0.0125517
670.536	0.0124814
670.614	0.0125223
670.693	0.0125007
670.771	0.0123784
670.849	0.0123698
670.927	0.0126698
671.005	0.0125755
671.083	0.0125388
671.161	0.0126595
671.239	0.0126717
671.318	0.0126748
671.396	0.0128345
671.474	0.0128371
671.552	0.0131210
671.630	0.0130894
671.708	0.0130639
671.786	0.0133037
671.864	0.0132903
671.943	0.0134225
672.021	0.0136233
672.099	0.0138297
672.177	0.0137364
672.255	0.0139398
672.333	0.0140553
672.411	0.0141689
672.489	0.0142834
672.568	0.0142751
672.646	0.0144817
672.724	0.0145718
672.802	0.0144220
672.880	0.0145107
672.958	0.0145763
673.036	0.0145857
673.114	0.0146306
673.193	0.0145010
673.271	0.0144892
673.349	0.0144812
673.427	0.0144761
673.505	0.0145364
673.583	0.0143084
673.661	0.0142270
673.739	0.0141043
673.818	0.0141811
673.896	0.0140048
673.974	0.0139985
674.052	0.0139883
674.130	0.0139356
674.208	0.0139894
674.286	0.0139569
674.364	0.0138515
674.443	0.0139710
674.521	0.0140648
674.599	0.0142072
674.677	0.0141499
674.755	0.0142847
674.833	0.0142570
674.911	0.0142300
674.989	0.0142915
675.068	0.0143979
675.146	0.0145011
675.224	0.0144528
675.302	0.0144950
675.380	0.0144464
675.458	0.0143415
675.536	0.0143013
675.614	0.0141228
675.693	0.0139927
675.771	0.0138924
675.849	0.0137895
675.927	0.0137154
676.005	0.0136710
676.083	0.0135465
676.161	0.0132617
676.239	0.0132882
676.318	0.0129942
676.396	0.0129282
676.474	0.0128317
676.552	0.0125938
676.630	0.0124419
676.708	0.0125815
676.786	0.0123489
676.864	0.0123270
676.943	0.0123675
677.021	0.0121680
677.099	0.0119972
677.177	0.0121006
677.255	0.0121700
677.333	0.0122860
677.411	0.0122845
677.489	0.0122203
677.568	0.0124038
677.646	0.0125129
677.724	0.0126781
677.802	0.0129553
677.880	0.0129998
677.958	0.0131450
678.036	0.0134457
678.114	0.0133542
678.193	0.0136301
678.271	0.0138022
678.349	0.0140309
678.427	0.0141805
678.505	0.0142160
678.583	0.0145541
678.661	0.0145097
678.739	0.0146980
678.818	0.0148058
678.896	0.0148216
678.974	0.0150065
679.052	0.0150777
679.130	0.0151184
679.208	0.0152245
679.286	0.0153441
679.364	0.0153043
679.443	0.0152736
679.521	0.0151165
679.599	0.0152956
679.677	0.0154668
679.755	0.0152283
679.833	0.0151938
679.911	0.0152003
679.989	0.0151116
680.068	0.0149949
680.146	0.0148284
680.224	0.0147708
680.302	0.0146734
680.380	0.0147427
680.458	0.0145659
680.536	0.0143355
680.614	0.0141255
680.693	0.0140873
680.771	0.0140073
680.849	0.0138197
680.927	0.0136935
681.005	0.0134846
681.083	0.0133074
681.161	0.0128738
681.239	0.0128275
681.318	0.0125535
681.396	0.0123352
681.474	0.0121800
681.552	0.0119111
681.630	0.0117381
681.708	0.0116235
681.786	0.0113802
681.864	0.0111438
681.943	0.0112276
682.021	0.0112693
682.099	0.0111887
682.177	0.0111513
682.255	0.0111406
682.333	0.0112554
682.411	0.0113403
682.489	0.0113226
682.568	0.0113438
682.646	0.0116759
682.724	0.0119164
682.802	0.0122591
682.880	0.0124089
682.958	0.0126532
683.036	0.0129173
683.114	0.0133442
683.193	0.0134615
683.271	0.0140070
683.349	0.0141956
683.427	0.0144265
683.505	0.0148793
683.583	0.0151281
683.661	0.0154616
683.739	0.0157883
683.818	0.0158784
683.896	0.0160667
683.974	0.0163350
684.052	0.0165044
684.130	0.0166802
684.208	0.0166499
684.286	0.0167482
684.364	0.0166490
684.443	0.0164793
684.521	0.0162375
684.599	0.0161305
684.677	0.0160181
684.755	0.0156375
684.833	0.0153345
684.911	0.0150933
684.989	0.0148174
685.068	0.0143504
685.146	0.0141387
685.224	0.0137986
685.302	0.0134679
685.380	0.0131743
685.458	0.0130869
685.536	0.0129295
685.614	0.0126363
685.693	0.0124797
685.771	0.0122493
685.849	0.0123708
685.927	0.0124359
686.005	0.0122537
686.083	0.0124579
686.161	0.0124463
686.239	0.0123206
686.318	0.0125430
686.396	0.0125681
686.474	0.0126076
686.552	0.0127186
686.630	0.0129028
686.708	0.0129514
686.786	0.0128979
686.864	0.0131924
686.943	0.0131059
687.021	0.0131966
687.099	0.0133990
687.177	0.0132198
687.255	0.0130945
687.333	0.0131692
687.411	0.0132037
687.489	0.0131809
687.568	0.0133181
687.646	0.0132972
687.724	0.0132642
687.802	0.0129959
687.880	0.0132226
687.958	0.0131625
688.036	0.0132790
688.114	0.0133499
688.193	0.0131002
688.271	0.0129973
688.349	0.0134081
688.427	0.0133118
688.505	0.0133528
688.583	0.0135422
688.661	0.0135143
688.739	0.0137733
688.818	0.0138997
688.896	0.0139422
688.974	0.0141351
689.052	0.0143867
689.130	0.0146473
689.208	0.0145950
689.286	0.0146992
689.364	0.0149137
689.443	0.0150801
689.521	0.0150314
689.599	0.0150985
689.677	0.0151540
689.755	0.0151999
689.833	0.0150725
689.911	0.0150967
689.989	0.0150132
690.068	0.0148855
690.146	0.0146387
690.224	0.0145895
690.302	0.0144350
690.380	0.0140952
690.458	0.0140507
690.536	0.0138442
690.614	0.0136063
690.693	0.0136528
690.771	0.0134112
690.849	0.0132819
690.927	0.0131348
691.005	0.0130043
691.083	0.0129181
691.161	0.0131385
691.239	0.0128833
691.318	0.0129868
691.396	0.0131158
691.474	0.0130280
691.552	0.0131540
691.630	0.0132526
691.708	0.0132845
691.786	0.0133357
691.864	0.0136526
691.943	0.0136948
692.021	0.0137258
692.099	0.0138462
692.177	0.0136103
692.255	0.0139014
692.333	0.0140034
692.411	0.0138433
692.489	0.0138753
692.568	0.0138084
692.646	0.0139882
692.724	0.0138360
692.802	0.0137137
692.880	0.0137611
692.958	0.0138126
693.036	0.0137300
693.114	0.0134000
693.193	0.0135338
693.271	0.0132734
693.349	0.0132815
693.427	0.0131558
693.505	0.0132388
693.583	0.0131435
693.661	0.0130850
693.739	0.0130426
693.818	0.0130714
693.896	0.0130141
693.974	0.0130257
694.052	0.0130351
694.130	0.0132086
694.208	0.0131791
694.286	0.0133286
694.364	0.0132726
694.443	0.0134299
694.521	0.0136496
694.599	0.0137250
694.677	0.0138239
694.755	0.0138604
694.833	0.0140110
694.911	0.0141906
694.989	0.0141940
695.068	0.0143465
695.146	0.0145193
695.224	0.0147423
695.302	0.0148435
695.380	0.0149236
695.458	0.0148780
695.536	0.0147401
695.614	0.0149708
695.693	0.0149528
695.771	0.0147918
695.849	0.0148679
695.927	0.0148017
696.005	0.0146387
696.083	0.0145444
696.161	0.0146485
696.239	0.0144316
696.318	0.0142290
696.396	0.0141673
696.474	0.0139537
696.552	0.0140877
696.630	0.0136901
696.708	0.0137204
696.786	0.0137119
696.864	0.0134482
696.943	0.0132703
697.021	0.0132240
697.099	0.0132294
697.177	0.0131890
697.255	0.0129271
697.333	0.0129797
697.411	0.0129578
697.489	0.0130540
697.568	0.0129935
697.646	0.0129086
697.724	0.0129726
697.802	0.0131129
697.880	0.0130931
697.958	0.0131609
698.036	0.0132824
698.114	0.0131694
698.193	0.0132603
698.271	0.0135551
698.349	0.0134474
698.427	0.0135416
698.505	0.0137141
698.583	0.0137668
698.661	0.0138533
698.739	0.0138160
698.818	0.0139254
698.896	0.0139213
698.974	0.0140436
699.052	0.0140026
699.130	0.0138628
699.208	0.0139259
699.286	0.0137914
699.364	0.0138734
699.443	0.0136690
699.521	0.0136562
699.599	0.0134477
699.677	0.0132746
699.755	0.0132571
699.833	0.0132246
699.911	0.0131152
699.989	0.0129644
700.068	0.0129358
700.146	0.0128165
700.224	0.0127647
700.302	0.0127583
700.380	0.0128899
700.458	0.0128945
700.536	0.0128634
700.614	0.0129647
700.693	0.0131203
700.771	0.0134002
700.849	0.0134911
700.927	0.0136473
701.005	0.0138695
701.083	0.0139342
701.161	0.0142390
701.239	0.0143719
701.318	0.0147211
701.396	0.0147578
701.474	0.0147472
701.552	0.0149062
701.630	0.0150963
701.708	0.0153015
701.786	0.0152207
701.864	0.0151922
701.943	0.0152488
702.021	0.0152074
702.099	0.0150795
702.177	0.0150355
702.255	0.0149573
702.333	0.0148571
702.411	0.0147276
702.489	0.0144070
702.568	0.0143787
702.646	0.0142863
702.724	0.0141146
702.802	0.0140336
702.880	0.0137943
702.958	0.0136714
703.036	0.0135941
703.114	0.0135169
703.193	0.0134467
703.271	0.0131654
703.349	0.0131107
703.427	0.0129075
703.505	0.0130145
703.583	0.0129305
703.661	0.0128706
703.739	0.0128902
703.818	0.0128331
703.896	0.0128767
703.974	0.0127513
704.052	0.0128581
704.130	0.0129186
704.208	0.0127886
704.286	0.0128979
704.364	0.0130225
704.443	0.0129925
704.521	0.0130581
704.599	0.0133013
704.677	0.0133828
704.755	0.0135687
704.833	0.0135155
704.911	0.0135429
704.989	0.0136728
705.068	0.0137045
705.146	0.0137870
705.224	0.0138750
705.302	0.0136235
705.380	0.0137592
705.458	0.0139960
705.536	0.0139996
705.614	0.0139411
705.693	0.0138530
705.771	0.0137640
705.849	0.0138472
705.927	0.0138445
706.005	0.0137981
706.083	0.0138378
706.161	0.0139204
706.239	0.0140118
706.318	0.0138709
706.396	0.0139157
706.474	0.0140542
706.552	0.0142325
706.630	0.0141684
706.708	0.0143398
706.786	0.0142509
706.864	0.0143060
706.943	0.0144926
707.021	0.0144085
707.099	0.0143597
707.177	0.0144398
707.255	0.0144593
707.333	0.0145078
707.411	0.0144272
707.489	0.0144157
707.568	0.0143546
707.646	0.0142599
707.724	0.0143089
707.802	0.0143006
707.880	0.0143682
707.958	0.0141932
708.036	0.0141785
708.114	0.0141034
708.193	0.0139536
708.271	0.0139975
708.349	0.0139126
708.427	0.0137976
708.505	0.0136620
708.583	0.0136549
708.661	0.0134825
708.739	0.0135020
708.818	0.0133573
708.896	0.0133754
708.974	0.0133130
709.052	0.0132093
709.130	0.0131374
709.208	0.0131516
709.286	0.0130260
709.364	0.0129006
709.443	0.0129875
709.521	0.0128522
709.599	0.0129328
709.677	0.0128394
709.755	0.0128248
709.833	0.0129520
709.911	0.0128375
709.989	0.0130190
710.068	0.0129255
710.146	0.0131700
710.224	0.0133318
710.302	0.0131796
710.380	0.0133179
710.458	0.0133995
710.536	0.0135883
710.614	0.0135302
710.693	0.0137696
710.771	0.0139296
710.849	0.0137743
710.927	0.0139433
711.005	0.0140321
711.083	0.0141698
711.161	0.0142119
711.239	0.0141827
711.318	0.0142622
711.396	0.0143919
711.474	0.0142706
711.552	0.0143898
711.630	0.0143246
711.708	0.0142181
711.786	0.0142998
711.864	0.0142171
711.943	0.0141425
712.021	0.0140768
712.099	0.0140296
712.177	0.0138592
712.255	0.0136971
712.333	0.0137058
712.411	0.0135777
712.489	0.0134887
712.568	0.0134257
712.646	0.0134164
712.724	0.0133141
712.802	0.0133459
712.880	0.0132401
712.958	0.0131219
713.036	0.0131315
713.114	0.0132684
713.193	0.0131489
713.271	0.0131557
713.349	0.0131659
713.427	0.0132370
713.505	0.0134016
713.583	0.0135373
713.661	0.0135400
713.739	0.0136562
713.818	0.0138280
713.896	0.0139883
713.974	0.0139011
714.052	0.0142900
714.130	0.0144724
714.208	0.0146764
714.286	0.0146065
714.364	0.0147218
714.443	0.0146635
714.521	0.0147379
714.599	0.0147308
714.677	0.0147037
714.755	0.0147451
714.833	0.0147063
714.911	0.0144560
714.989	0.0144530
715.068	0.0144149
715.146	0.0142903
715.224	0.0141478
715.302	0.0139764
715.380	0.0137785
715.458	0.0136974
715.536	0.0134833
715.614	0.0135102
715.693	0.0132801
715.771	0.0131222
715.849	0.0130756
715.927	0.0130857
716.005	0.0127908
716.083	0.0127340
716.161	0.0127505
716.239	0.0127551
716.318	0.0128893
716.396	0.0128116
716.474	0.0127812
716.552	0.0128139
716.630	0.0130751
716.708	0.0130474
716.786	0.0131044
716.864	0.0132266
716.943	0.0133987
717.021	0.0136009
717.099	0.0136237
717.177	0.0138046
717.255	0.0138962
717.333	0.0139503
717.411	0.0139223
717.489	0.0142229
717.568	0.0142303
717.646	0.0142451
717.724	0.0144328
717.802	0.0145172
717.880	0.0144896
717.958	0.0144963
718.036	0.0143460
718.114	0.0143287
718.193	0.0143765
718.271	0.0143639
718.349	0.0143450
718.427	0.0142115
718.505	0.0140850
718.583	0.0140073
718.661	0.0140520
718.739	0.0139403
718.818	0.0137032
718.896	0.0136858
718.974	0.0137819
719.052	0.0136530
719.130	0.0135946
719.208	0.0135446
719.286	0.0134487
719.364	0.0135580
719.443	0.0135398
719.521	0.0134807
719.599	0.0135018
719.677	0.0136410
719.755	0.0135788
719.833	0.0137051
719.911	0.0138556
719.989	0.0138573
720.068	0.0138671
720.146	0.0140423
720.224	0.0141702
720.302	0.0139790
720.380	0.0141518
720.458	0.0140851
720.536	0.0140942
720.614	0.0141626
720.693	0.0140797
720.771	0.0141982
720.849	0.0140633
720.927	0.0139879
721.005	0.0140932
721.083	0.0140331
721.161	0.0139258
721.239	0.0139630
721.318	0.0139568
721.396	0.0138316
721.474	0.0137300
721.552	0.0138496
721.630	0.0137885
721.708	0.0137270
721.786	0.0136027
721.864	0.0138009
721.943	0.0136835
722.021	0.0135601
722.099	0.0135909
722.177	0.0133078
722.255	0.0134834
722.333	0.0135013
722.411	0.0133881
722.489	0.0134552
722.568	0.0134976
722.646	0.0134631
722.724	0.0134101
722.802	0.0133819
722.880	0.0133389
722.958	0.0135577
723.036	0.0136091
723.114	0.0133826
723.193	0.0137718
723.271	0.0136940
723.349	0.0136250
723.427	0.0136280
723.505	0.0137117
723.583	0.0137064
723.661	0.0138052
723.739	0.0138062
723.818	0.0138241
723.896	0.0139023
723.974	0.0138715
724.052	0.0138608
724.130	0.0137751
724.208	0.0137344
724.286	0.0138927
724.364	0.0137580
724.443	0.0137234
724.521	0.0137395
724.599	0.0137741
724.677	0.0137897
724.755	0.0137888
724.833	0.0137260
724.911	0.0136078
724.989	0.0137401
725.068	0.0137328
725.146	0.0137501
725.224	0.0137008
725.302	0.0138203
725.380	0.0138052
725.458	0.0138331
725.536	0.0137433
725.614	0.0138020
725.693	0.0138954
725.771	0.0139193
725.849	0.0140634
725.927	0.0139441
726.005	0.0139969
726.083	0.0139856
726.161	0.0138627
726.239	0.0139500
726.318	0.0139426
726.396	0.0138392
726.474	0.0139377
726.552	0.0138538
726.630	0.0138979
726.708	0.0137856
726.786	0.0138204
726.864	0.0137519
726.943	0.0137141
727.021	0.0136848
727.099	0.0136583
727.177	0.0136264
727.255	0.0135193
727.333	0.0135828
727.411	0.0134035
727.489	0.0133115
727.568	0.0133082
727.646	0.0132194
727.724	0.0130698
727.802	0.0129848
727.880	0.0130833
727.958	0.0129015
728.036	0.0128928
728.114	0.0129368
728.193	0.0128219
728.271	0.0129261
728.349	0.0129015
728.427	0.0129002
728.505	0.0129305
728.583	0.0129708
728.661	0.0129714
728.739	0.0130083
728.818	0.0131889
728.896	0.0133244
728.974	0.0132375
729.052	0.0132715
729.130	0.0133374
729.208	0.0134330
729.286	0.0134249
729.364	0.0135488
729.443	0.0137260
729.521	0.0137582
729.599	0.0138943
729.677	0.0138496
729.755	0.0138442
729.833	0.0138918
729.911	0.0140665
729.989	0.0139043
730.068	0.0138681
730.146	0.0141190
730.224	0.0140833
730.302	0.0141110
730.380	0.0141398
730.458	0.0140983
730.536	0.0141383
730.614	0.0140794
730.693	0.0141283
730.771	0.0140550
730.849	0.0140114
730.927	0.0140009
731.005	0.0139246
731.083	0.0140005
731.161	0.0139577
731.239	0.0137724
731.318	0.0139176
731.396	0.0137832
731.474	0.0137740
731.552	0.0137036
731.630	0.0135809
731.708	0.0137213
731.786	0.0137765
731.864	0.0137013
731.943	0.0134505
732.021	0.0136103
732.099	0.0135654
732.177	0.0136664
732.255	0.0135510
732.333	0.0137215
732.411	0.0136870
732.489	0.0136749
732.568	0.0137388
732.646	0.0139609
732.724	0.0139516
732.802	0.0140039
732.880	0.0139811
732.958	0.0139192
733.036	0.0139108
733.114	0.0139989
733.193	0.0141279
733.271	0.0139381
733.349	0.0140354
733.427	0.0141025
733.505	0.0141125
733.583	0.0139103
733.661	0.0140150
733.739	0.0139539
733.818	0.0138995
733.896	0.0138892
733.974	0.0138532
734.052	0.0138683
734.130	0.0137881
734.208	0.0137579
734.286	0.0137617
734.364	0.0137735
734.443	0.0135801
734.521	0.0137701
734.599	0.0138382
734.677	0.0137469
734.755	0.0137238
734.833	0.0137716
734.911	0.0137835
734.989	0.0137375
735.068	0.0135794
735.146	0.0136068
735.224	0.0136288
735.302	0.0134747
735.380	0.0134937
735.458	0.0135728
735.536	0.0137479
735.614	0.0135328
735.693	0.0135531
735.771	0.0136648
735.849	0.0135269
735.927	0.0136466
736.005	0.0138628
736.083	0.0138437
736.161	0.0137910
736.239	0.0139459
736.318	0.0139704
736.396	0.0138487
736.474	0.0139162
736.552	0.0139464
736.630	0.0139172
736.708	0.0141024
736.786	0.0141016
736.864	0.0141864
736.943	0.0141583
737.021	0.0142065
737.099	0.0141623
737.177	0.0140479
737.255	0.0141581
737.333	0.0141527
737.411	0.0141848
737.489	0.0141438
737.568	0.0140509
737.646	0.0139598
737.724	0.0139604
737.802	0.0139046
737.880	0.0138254
737.958	0.0139072
738.036	0.0135718
738.114	0.0135743
738.193	0.0136514
738.271	0.0136160
738.349	0.0137082
738.427	0.0134875
738.505	0.0133451
738.583	0.0134269
738.661	0.0135022
738.739	0.0133330
738.818	0.0133890
738.896	0.0134777
738.974	0.0133592
739.052	0.0134425
739.130	0.0134439
739.208	0.0134692
739.286	0.0135191
739.364	0.0135339
739.443	0.0134222
739.521	0.0135590
739.599	0.0136529
739.677	0.0135485
739.755	0.0136102
739.833	0.0137874
739.911	0.0138748
739.989	0.0137576
740.068	0.0138010
740.146	0.0139033
740.224	0.0137131
740.302	0.0138392
740.380	0.0139683
740.458	0.0138594
740.536	0.0138502
740.614	0.0139153
740.693	0.0137969
740.771	0.0139764
740.849	0.0139465
740.927	0.0139829
741.005	0.0138169
741.083	0.0137530
741.161	0.0138868
741.239	0.0137841
741.318	0.0137870
741.396	0.0137409
741.474	0.0136376
741.552	0.0136210
741.630	0.0134580
741.708	0.0135168
741.786	0.0135676
741.864	0.0135189
741.943	0.0135385
742.021	0.0133366
742.099	0.0133679
742.177	0.0133276
742.255	0.0134019
742.333	0.0132843
742.411	0.0133394
742.489	0.0133859
742.568	0.0134171
742.646	0.0133096
742.724	0.0133907
742.802	0.0135347
742.880	0.0134138
742.958	0.0134924
743.036	0.0135564
743.114	0.0135300
743.193	0.0135753
743.271	0.0136604
743.349	0.0137814
743.427	0.0138467
743.505	0.0139122
743.583	0.0139697
743.661	0.0138261
743.739	0.0139281
743.818	0.0140080
743.896	0.0140469
743.974	0.0140023
744.052	0.0139548
744.130	0.0140742
744.208	0.0141037
744.286	0.0141998
744.364	0.0139976
744.443	0.0139828
744.521	0.0139003
744.599	0.0140075
744.677	0.0139758
744.755	0.0138586
744.833	0.0138793
744.911	0.0138506
744.989	0.0137634
745.068	0.0137141
745.146	0.0136234
745.224	0.0137704
745.302	0.0135491
745.380	0.0136641
745.458	0.0133752
745.536	0.0135338
745.614	0.0134423
745.693	0.0133763
745.771	0.0134939
745.849	0.0133129
745.927	0.0132660
746.005	0.0133275
746.083	0.0134149
746.161	0.0133591
746.239	0.0133288
746.318	0.0132677
746.396	0.0133128
746.474	0.0133725
746.552	0.0133960
746.630	0.0133208
746.708	0.0133953
746.786	0.0133398
746.864	0.0133018
746.943	0.0134443
747.021	0.0135710
747.099	0.0135740
747.177	0.0135308
747.255	0.0135781
747.333	0.0137582
747.411	0.0136703
747.489	0.0137326
747.568	0.0138782
747.646	0.0139256
747.724	0.0138148
747.802	0.0139927
747.880	0.0139452
747.958	0.0139228
748.036	0.0140275
748.114	0.0138907
748.193	0.0140894
748.271	0.0138930
748.349	0.0139383
748.427	0.0139725
748.505	0.0138525
748.583	0.0139292
748.661	0.0138380
748.739	0.0137989
748.818	0.0137545
748.896	0.0136619
748.974	0.0136073
749.052	0.0134579
749.130	0.0134686
749.208	0.0134328
749.286	0.0136458
749.364	0.0133334
749.443	0.0133192
749.521	0.0134513
749.599	0.0133271
749.677	0.0133036
749.755	0.0133265
749.833	0.0133806
749.911	0.0133938
749.989	0.0134966
750.068	0.0133401
750.146	0.0134303
750.224	0.0135000
750.302	0.0135158
750.380	0.0133697
750.458	0.0133741
750.536	0.0134019
750.614	0.0134424
750.693	0.0135471
750.771	0.0136382
750.849	0.0136394
750.927	0.0136292
751.005	0.0137046
751.083	0.0137731
751.161	0.0137049
751.239	0.0136640
751.318	0.0136816
751.396	0.0137060
751.474	0.0139140
751.552	0.0136473
751.630	0.0138915
751.708	0.0138911
751.786	0.0138451
751.864	0.0138236
751.943	0.0138176
752.021	0.0137975
752.099	0.0139314
752.177	0.0139111
752.255	0.0138059
752.333	0.0139673
752.411	0.0140304
752.489	0.0140029
752.568	0.0139328
752.646	0.0139359
752.724	0.0137583
752.802	0.0138876
752.880	0.0139902
752.958	0.0138832
753.036	0.0138967
753.114	0.0139883
753.193	0.0139741
753.271	0.0137531
753.349	0.0137405
753.427	0.0135806
753.505	0.0136874
753.583	0.0137082
753.661	0.0137133
753.739	0.0134963
753.818	0.0134622
753.896	0.0137079
753.974	0.0135348
754.052	0.0136024
754.130	0.0133985
754.208	0.0134196
754.286	0.0134789
754.364	0.0133713
754.443	0.0133564
754.521	0.0133197
754.599	0.0133987
754.677	0.0134048
754.755	0.0132525
754.833	0.0132976
754.911	0.0132221
754.989	0.0133374
755.068	0.0133326
755.146	0.0133289
755.224	0.0132435
755.302	0.0132175
755.380	0.0132806
755.458	0.0133352
755.536	0.0133443
755.614	0.0132925
755.693	0.0135486
755.771	0.0134776
755.849	0.0134557
755.927	0.0135673
756.005	0.0137452
756.083	0.0137473
756.161	0.0137853
756.239	0.0138125
756.318	0.0141428
756.396	0.0140334
756.474	0.0140668
756.552	0.0142033
756.630	0.0142831
756.708	0.0142567
756.786	0.0143503
756.864	0.0143314
756.943	0.0143829
757.021	0.0143668
757.099	0.0144602
757.177	0.0143723
757.255	0.0143604
757.333	0.0143167
757.411	0.0142342
757.489	0.0140357
757.568	0.0140623
757.646	0.0138959
757.724	0.0139890
757.802	0.0137846
757.880	0.0135870
757.958	0.0135777
758.036	0.0137695
758.114	0.0135031
758.193	0.0133689
758.271	0.0133663
758.349	0.0133491
758.427	0.0131947
758.505	0.0133597
758.583	0.0132616
758.661	0.0132477
758.739	0.0131720
758.818	0.0130759
758.896	0.0131799
758.974	0.0130923
759.052	0.0131411
759.130	0.0131275
759.208	0.0131596
759.286	0.0134026
759.364	0.0133362
759.443	0.0133624
759.521	0.0133803
759.599	0.0133443
759.677	0.0136649
759.755	0.0136555
759.833	0.0136428
759.911	0.0137302
759.989	0.0136560
760.068	0.0137021
760.146	0.0139150
760.224	0.0139722
760.302	0.0139343
760.380	0.0138927
760.458	0.0140347
760.536	0.0140965
760.614	0.0140862
760.693	0.0140423
760.771	0.0142484
760.849	0.0141374
760.927	0.0141882
761.005	0.0140359
761.083	0.0140942
761.161	0.0140131
761.239	0.0140236
761.318	0.0140045
761.396	0.0138284
761.474	0.0138398
761.552	0.0138209
761.630	0.0136350
761.708	0.0137548
761.786	0.0138369
761.864	0.0135408
761.943	0.0135557
762.021	0.0134669
762.099	0.0135397
762.177	0.0135868
762.255	0.0135596
762.333	0.0134411
762.411	0.0136210
762.489	0.0134081
762.568	0.0134439
762.646	0.0134051
762.724	0.0133439
762.802	0.0134460
762.880	0.0134103
762.958	0.0134542
763.036	0.0134159
763.114	0.0134494
763.193	0.0135271
763.271	0.0136114
763.349	0.0136628
763.427	0.0135564
763.505	0.0134298
763.583	0.0135537
763.661	0.0136567
763.739	0.0136874
763.818	0.0136880
763.896	0.0137563
763.974	0.0136426
764.052	0.0136861
764.130	0.0136985
764.208	0.0137633
764.286	0.0138252
764.364	0.0138130
764.443	0.0138057
764.521	0.0138729
764.599	0.0138124
764.677	0.0139099
764.755	0.0138532
764.833	0.0139730
764.911	0.0138564
764.989	0.0138114
765.068	0.0139046
765.146	0.0139220
765.224	0.0138212
765.302	0.0137630
765.380	0.0139196
765.458	0.0138297
765.536	0.0137914
765.614	0.0138077
765.693	0.0139220
765.771	0.0137688
765.849	0.0138528
765.927	0.0137744
766.005	0.0136924
766.083	0.0136907
766.161	0.0138378
766.239	0.0137810
766.318	0.0137263
766.396	0.0137296
766.474	0.0136642
766.552	0.0136288
766.630	0.0137317
766.708	0.0136520
766.786	0.0135792
766.864	0.0134853
766.943	0.0135988
767.021	0.0136527
767.099	0.0135688
767.177	0.0134988
767.255	0.0135349
767.333	0.0134676
767.411	0.0135310
767.489	0.0135004
767.568	0.0134684
767.646	0.0134592
767.724	0.0134617
767.802	0.0132426
767.880	0.0134059
767.958	0.0134098
768.036	0.0132539
768.114	0.0132636
768.193	0.0133517
768.271	0.0133257
768.349	0.0133407
768.427	0.0135345
768.505	0.0133657
768.583	0.0135143
768.661	0.0133888
768.739	0.0134489
768.818	0.0136423
768.896	0.0133627
768.974	0.0133334
769.052	0.0134261
769.130	0.0136559
769.208	0.0137667
769.286	0.0136523
769.364	0.0135661
769.443	0.0137764
769.521	0.0136318
769.599	0.0137918
769.677	0.0137206
769.755	0.0136974
769.833	0.0136917
769.911	0.0137894
769.989	0.0138638
770.068	0.0138937
770.146	0.0139169
770.224	0.0138445
770.302	0.0137829
770.380	0.0137671
770.458	0.0138408
770.536	0.0138615
770.614	0.0138966
770.693	0.0138558
770.771	0.0139400
770.849	0.0140192
770.927	0.0138749
771.005	0.0137375
771.083	0.0137794
771.161	0.0138437
771.239	0.0136450
771.318	0.0137259
771.396	0.0137077
771.474	0.0138671
771.552	0.0137407
771.630	0.0138695
771.708	0.0137654
771.786	0.0135616
771.864	0.0137094
771.943	0.0138376
772.021	0.0136629
772.099	0.0136126
772.177	0.0136268
772.255	0.0136314
772.333	0.0136304
772.411	0.0137244
772.489	0.0135209
772.568	0.0135898
772.646	0.0135982
772.724	0.0135526
772.802	0.0135846
772.880	0.0136699
772.958	0.0135624
773.036	0.0135293
773.114	0.0137169
773.193	0.0136593
773.271	0.0135233
773.349	0.0136927
773.427	0.0136881
773.505	0.0135895
773.583	0.0136027
773.661	0.0136662
773.739	0.0136284
773.818	0.0137101
773.896	0.0135931
773.974	0.0136242
774.052	0.0135846
774.130	0.0137070
774.208	0.0136512
774.286	0.0136028
774.364	0.0135588
774.443	0.0135930
774.521	0.0136534
774.599	0.0136754
774.677	0.0135437
774.755	0.0134983
774.833	0.0136544
774.911	0.0136949
774.989	0.0137199
775.068	0.0138174
775.146	0.0136111
775.224	0.0136509
775.302	0.0138107
775.380	0.0137473
775.458	0.0138100
775.536	0.0138094
775.614	0.0137560
775.693	0.0138776
775.771	0.0139078
775.849	0.0138017
775.927	0.0139398
776.005	0.0139484
776.083	0.0139089
776.161	0.0139725
776.239	0.0139636
776.318	0.0139861
776.396	0.0139366
776.474	0.0139442
776.552	0.0139582
776.630	0.0140335
776.708	0.0139999
776.786	0.0139716
776.864	0.0138494
776.943	0.0140569
777.021	0.0139222
777.099	0.0139380
777.177	0.0139800
777.255	0.0139770
777.333	0.0138408
777.411	0.0138485
777.489	0.0139041
777.568	0.0138256
777.646	0.0137212
777.724	0.0136588
777.802	0.0136436
777.880	0.0136452
777.958	0.0134385
778.036	0.0134127
778.114	0.0134203
778.193	0.0133611
778.271	0.0132531
778.349	0.0132959
778.427	0.0133679
778.505	0.0133327
778.583	0.0132726
778.661	0.0131168
778.739	0.0130265
778.818	0.0130778
778.896	0.0130640
778.974	0.0129475
779.052	0.0131285
779.130	0.0131358
779.208	0.0130872
779.286	0.0132471
779.364	0.0132272
779.443	0.0132053
779.521	0.0131123
779.599	0.0134342
779.677	0.0133389
779.755	0.0134485
779.833	0.0137043
779.911	0.0137203
779.989	0.0135956
780.068	0.0136507
780.146	0.0139568
780.224	0.0139224
780.302	0.0140183
780.380	0.0141172
780.458	0.0140786
780.536	0.0140400
780.614	0.0141707
780.693	0.0141823
780.771	0.0142754
780.849	0.0141872
780.927	0.0142551
781.005	0.0143343
781.083	0.0142810
781.161	0.0142638
781.239	0.0142550
781.318	0.0142800
781.396	0.0143152
781.474	0.0141500
781.552	0.0141105
781.630	0.0141109
781.708	0.0140654
781.786	0.0140513
781.864	0.0141943
781.943	0.0141013
782.021	0.0137953
782.099	0.0139002
782.177	0.0139136
782.255	0.0137254
782.333	0.0137845
782.411	0.0137762
782.489	0.0136549
782.568	0.0136237
782.646	0.0135960
782.724	0.0137508
782.802	0.0136385
782.880	0.0135821
782.958	0.0136774
783.036	0.0135368
783.114	0.0135652
783.193	0.0134995
783.271	0.0134728
783.349	0.0135923
783.427	0.0136663
783.505	0.0136480
783.583	0.0135976
783.661	0.0135789
783.739	0.0136249
783.818	0.0136733
783.896	0.0135327
783.974	0.0136269
784.052	0.0137314
784.130	0.0135180
784.208	0.0134534
784.286	0.0135578
784.364	0.0136105
784.443	0.0135595
784.521	0.0135265
784.599	0.0135566
784.677	0.0134398
784.755	0.0135645
784.833	0.0136932
784.911	0.0135439
784.989	0.0136132
785.068	0.0136515
785.146	0.0137816
785.224	0.0137222
785.302	0.0136248
785.380	0.0136525
785.458	0.0137750
785.536	0.0138798
785.614	0.0139705
785.693	0.0138573
785.771	0.0139677
785.849	0.0140833
785.927	0.0138364
786.005	0.0139823
786.083	0.0140530
786.161	0.0139321
786.239	0.0140624
786.318	0.0138627
786.396	0.0138857
786.474	0.0140701
786.552	0.0141473
786.630	0.0141560
786.708	0.0139989
786.786	0.0140177
786.864	0.0141385
786.943	0.0140351
787.021	0.0141310
787.099	0.0140813
787.177	0.0141240
787.255	0.0140065
787.333	0.0138253
787.411	0.0138434
787.489	0.0138020
787.568	0.0138795
787.646	0.0136464
787.724	0.0136544
787.802	0.0137186
787.880	0.0136469
787.958	0.0136628
788.036	0.0135830
788.114	0.0135216
788.193	0.0137134
788.271	0.0137712
788.349	0.0137962
788.427	0.0137176
788.505	0.0136118
788.583	0.0136613
788.661	0.0136708
788.739	0.0136939
788.818	0.0135705
788.896	0.0135873
788.974	0.0136357
789.052	0.0136293
789.130	0.0136513
789.208	0.0136396
789.286	0.0136887
789.364	0.0135613
789.443	0.0136816
789.521	0.0135699
789.599	0.0136259
789.677	0.0135983
789.755	0.0136678
789.833	0.0135689
789.911	0.0136246
789.989	0.0135936
790.068	0.0135479
790.146	0.0135750
790.224	0.0136985
790.302	0.0137152
790.380	0.0136136
790.458	0.0136266
790.536	0.0136400
790.614	0.0137658
790.693	0.0137341
790.771	0.0137032
790.849	0.0137218
790.927	0.0136403
791.005	0.0137093
791.083	0.0138708
791.161	0.0136964
791.239	0.0138559
791.318	0.0136478
791.396	0.0137519
791.474	0.0136095
791.552	0.0135718
791.630	0.0136758
791.708	0.0135805
791.786	0.0137543
791.864	0.0137156
791.943	0.0137321
792.021	0.0137070
792.099	0.0136732
792.177	0.0138140
792.255	0.0137710
792.333	0.0137482
792.411	0.0138815
792.489	0.0139914
792.568	0.0138834
792.646	0.0139478
792.724	0.0138094
792.802	0.0138601
792.880	0.0139093
792.958	0.0138235
793.036	0.0138428
793.114	0.0137968
793.193	0.0138040
793.271	0.0137295
793.349	0.0136262
793.427	0.0136456
793.505	0.0134956
793.583	0.0135326
793.661	0.0134571
793.739	0.0136542
793.818	0.0135438
793.896	0.0135355
793.974	0.0136852
794.052	0.0135559
794.130	0.0134674
794.208	0.0134946
794.286	0.0136415
794.364	0.0135605
794.443	0.0135654
794.521	0.0135838
794.599	0.0135267
794.677	0.0137317
794.755	0.0136978
794.833	0.0135536
794.911	0.0134520
794.989	0.0135951
795.068	0.0136987
795.146	0.0136629
795.224	0.0136940
795.302	0.0136224
795.380	0.0135689
795.458	0.0135897
795.536	0.0136428
795.614	0.0136671
795.693	0.0135447
795.771	0.0136946
795.849	0.0137476
795.927	0.0135327
796.005	0.0135434
796.083	0.0137556
796.161	0.0137761
796.239	0.0138088
796.318	0.0138079
796.396	0.0136716
796.474	0.0135852
796.552	0.0137647
796.630	0.0136935
796.708	0.0137573
796.786	0.0135773
796.864	0.0138090
796.943	0.0138552
797.021	0.0136447
797.099	0.0137809
797.177	0.0137716
797.255	0.0138640
797.333	0.0139464
797.411	0.0140821
797.489	0.0141508
797.568	0.0140414
797.646	0.0141193
797.724	0.0141172
797.802	0.0141897
797.880	0.0144660
797.958	0.0143029
798.036	0.0142252
798.114	0.0142923
798.193	0.0142902
798.271	0.0143243
798.349	0.0142007
798.427	0.0142368
798.505	0.0141986
798.583	0.0141319
798.661	0.0140456
798.739	0.0141008
798.818	0.0142482
798.896	0.0139649
798.974	0.0140358
799.052	0.0139320
799.130	0.0139981
799.208	0.0139236
799.286	0.0136720
799.364	0.0136631
799.443	0.0136539
799.521	0.0135783
799.599	0.0135516
799.677	0.0134608
799.755	0.0134567
799.833	0.0134785
799.911	0.0132973
799.989	0.0133694
800.068	0.0134999
800.146	0.0133560
800.224	0.0133130
800.302	0.0133616
800.380	0.0133711
800.458	0.0132753
800.536	0.0135181
800.614	0.0135489
800.693	0.0136082
800.771	0.0134460
800.849	0.0135433
800.927	0.0135539
801.005	0.0137101
801.083	0.0136826
801.161	0.0138004
801.239	0.0138524
801.318	0.0138090
801.396	0.0138015
801.474	0.0140627
801.552	0.0138675
801.630	0.0140329
801.708	0.0139894
801.786	0.0138701
801.864	0.0138739
801.943	0.0139450
802.021	0.0138800
802.099	0.0138876
802.177	0.0139035
802.255	0.0138396
802.333	0.0138100
802.411	0.0137187
802.489	0.0137718
802.568	0.0138158
802.646	0.0137997
802.724	0.0137041
802.802	0.0139410
802.880	0.0138886
802.958	0.0138658
803.036	0.0139069
803.114	0.0138114
803.193	0.0139417
803.271	0.0139183
803.349	0.0138765
803.427	0.0140243
803.505	0.0140765
803.583	0.0138501
803.661	0.0137262
803.739	0.0138149
803.818	0.0137746
803.896	0.0137111
803.974	0.0137684
804.052	0.0137745
804.130	0.0136165
804.208	0.0135509
804.286	0.0136819
804.364	0.0135768
804.443	0.0136023
804.521	0.0136289
804.599	0.0136869
804.677	0.0135966
804.755	0.0137151
804.833	0.0136674
804.911	0.0136541
804.989	0.0135241
805.068	0.0136936
805.146	0.0136633
805.224	0.0135983
805.302	0.0136327
805.380	0.0137041
805.458	0.0136003
805.536	0.0135931
805.614	0.0135650
805.693	0.0137096
805.771	0.0136139
805.849	0.0135566
805.927	0.0135741
806.005	0.0134519
806.083	0.0134811
806.161	0.0134924
806.239	0.0134744
806.318	0.0135413
806.396	0.0135417
806.474	0.0136095
806.552	0.0136364
806.630	0.0136935
806.708	0.0137452
806.786	0.0136556
806.864	0.0136852
806.943	0.0136790
807.021	0.0137823
807.099	0.0135500
807.177	0.0136862
807.255	0.0136254
807.333	0.0136842
807.411	0.0134924
807.489	0.0136557
807.568	0.0136911
807.646	0.0136742
807.724	0.0135329
807.802	0.0136208
807.880	0.0137077
807.958	0.0135927
808.036	0.0135664
808.114	0.0134942
808.193	0.0135922
808.271	0.0135400
808.349	0.0136539
808.427	0.0136546
808.505	0.0135525
808.583	0.0134769
808.661	0.0136844
808.739	0.0134077
808.818	0.0135394
808.896	0.0136587
808.974	0.0135740
809.052	0.0136192
809.130	0.0136289
809.208	0.0134578
809.286	0.0135629
809.364	0.0135343
809.443	0.0135561
809.521	0.0136327
809.599	0.0136220
809.677	0.0136047
809.755	0.0136443
809.833	0.0136407
809.911	0.0135565
809.989	0.0138586
810.068	0.0138268
810.146	0.0138934
810.224	0.0138835
810.302	0.0139162
810.380	0.0139282
810.458	0.0141080
810.536	0.0142046
810.614	0.0139761
810.693	0.0139990
810.771	0.0141236
810.849	0.0141047
810.927	0.0141364
811.005	0.0140173
811.083	0.0141081
811.161	0.0141193
811.239	0.0142664
811.318	0.0141841
811.396	0.0138492
811.474	0.0138868
811.552	0.0138895
811.630	0.0139239
811.708	0.0139219
811.786	0.0139738
811.864	0.0138185
811.943	0.0138649
812.021	0.0138785
812.099	0.0137437
812.177	0.0137608
812.255	0.0137897
812.333	0.0137572
812.411	0.0136216
812.489	0.0136948
812.568	0.0136475
812.646	0.0135264
812.724	0.0135923
812.802	0.0136080
812.880	0.0135932
812.958	0.0135412
813.036	0.0135387
813.114	0.0136570
813.193	0.0135736
813.271	0.0135342
813.349	0.0136613
813.427	0.0135297
813.505	0.0136382
813.583	0.0137090
813.661	0.0138058
813.739	0.0137083
813.818	0.0137601
813.896	0.0138389
813.974	0.0138344
814.052	0.0137810
814.130	0.0137125
814.208	0.0137500
814.286	0.0138451
814.364	0.0137086
814.443	0.0137124
814.521	0.0137192
814.599	0.0137495
814.677	0.0136116
814.755	0.0136408
814.833	0.0137455
814.911	0.0135724
814.989	0.0136107
815.068	0.0136373
815.146	0.0135341
815.224	0.0136858
815.302	0.0137125
815.380	0.0136191
815.458	0.0135672
815.536	0.0135539
815.614	0.0138160
815.693	0.0137370
815.771	0.0136727
815.849	0.0137129
815.927	0.0138503
816.005	0.0137967
816.083	0.0138286
816.161	0.0140221
816.239	0.0141129
816.318	0.0140101
816.396	0.0140701
816.474	0.0140047
816.552	0.0141750
816.630	0.0142036
816.708	0.0142088
816.786	0.0141514
816.864	0.0141152
816.943	0.0141515
817.021	0.0141758
817.099	0.0141266
817.177	0.0140662
817.255	0.0142010
817.333	0.0142990
817.411	0.0141026
817.489	0.0140651
817.568	0.0139249
817.646	0.0139050
817.724	0.0137923
817.802	0.0137943
817.880	0.0138803
817.958	0.0139165
818.036	0.0137907
818.114	0.0135954
818.193	0.0138441
818.271	0.0136043
818.349	0.0137608
818.427	0.0138370
818.505	0.0138287
818.583	0.0138214
818.661	0.0137453
818.739	0.0137428
818.818	0.0136317
818.896	0.0135650
818.974	0.0137926
819.052	0.0137167
819.130	0.0137962
819.208	0.0137006
819.286	0.0137439
819.364	0.0135807
819.443	0.0135590
819.521	0.0136522
819.599	0.0137279
819.677	0.0135757
819.755	0.0137154
819.833	0.0136827
819.911	0.0137616
819.989	0.0136179
820.068	0.0137272
820.146	0.0136612
820.224	0.0137512
820.302	0.0136098
820.380	0.0137485
820.458	0.0137931
820.536	0.0136960
820.614	0.0136960
820.693	0.0137280
820.771	0.0136833
820.849	0.0137936
820.927	0.0136479
821.005	0.0136921
821.083	0.0137306
821.161	0.0137180
821.239	0.0136790
821.318	0.0136944
821.396	0.0136900
821.474	0.0138133
821.552	0.0137560
821.630	0.0136711
821.708	0.0137861
821.786	0.0136586
821.864	0.0138299
821.943	0.0137914
822.021	0.0138521
822.099	0.0138815
822.177	0.0138253
822.255	0.0139153
822.333	0.0139777
822.411	0.0137418
822.489	0.0138280
822.568	0.0139104
822.646	0.0138827
822.724	0.0138583
822.802	0.0137352
822.880	0.0137045
822.958	0.0138260
823.036	0.0138032
823.114	0.0138004
823.193	0.0135999
823.271	0.0135040
823.349	0.0137730
823.427	0.0136391
823.505	0.0136102
823.583	0.0135690
823.661	0.0135722
823.739	0.0134311
823.818	0.0137317
823.896	0.0138326
823.974	0.0136472
824.052	0.0137120
824.130	0.0137622
824.208	0.0136594
824.286	0.0137222
824.364	0.0137333
824.443	0.0136557
824.521	0.0137749
824.599	0.0136744
824.677	0.0135731
824.755	0.0137057
824.833	0.0135193
824.911	0.0135331
824.989	0.0135801
825.068	0.0135844
825.146	0.0136987
825.224	0.0134850
825.302	0.0135886
825.380	0.0136997
825.458	0.0136705
825.536	0.0137276
825.614	0.0137403
825.693	0.0137115
825.771	0.0137209
825.849	0.0135781
825.927	0.0136436
826.005	0.0136729
826.083	0.0136848
826.161	0.0136051
826.239	0.0135786
826.318	0.0135851
826.396	0.0136166
826.474	0.0135903
826.552	0.0136237
826.630	0.0136545
826.708	0.0137718
826.786	0.0136093
826.864	0.0137901
826.943	0.0135586
827.021	0.0137077
827.099	0.0137698
827.177	0.0138475
827.255	0.0138387
827.333	0.0139010
827.411	0.0141173
827.489	0.0139357
827.568	0.0139558
827.646	0.0140502
827.724	0.0139617
827.802	0.0139684
827.880	0.0140263
827.958	0.0137737
828.036	0.0139127
828.114	0.0137294
828.193	0.0138210
828.271	0.0138169
828.349	0.0137871
828.427	0.0135966
828.505	0.0135822
828.583	0.0135087
828.661	0.0134303
828.739	0.0134917
828.818	0.0134116
828.896	0.0132817
828.974	0.0133766
829.052	0.0133669
829.130	0.0134505
829.208	0.0134852
829.286	0.0134621
829.364	0.0135439
829.443	0.0135291
829.521	0.0134765
829.599	0.0134914
829.677	0.0135907
829.755	0.0136173
829.833	0.0135567
829.911	0.0135279
829.989	0.0135090
830.068	0.0137221
830.146	0.0136656
830.224	0.0138216
830.302	0.0137644
830.380	0.0138644
830.458	0.0138229
830.536	0.0138283
830.614	0.0139539
830.693	0.0138851
830.771	0.0139657
830.849	0.0139410
830.927	0.0139539
831.005	0.0140513
831.083	0.0139858
831.161	0.0141482
831.239	0.0137714
831.318	0.0139185
831.396	0.0139203
831.474	0.0140923
831.552	0.0138541
831.630	0.0136281
831.708	0.0138765
831.786	0.0137926
831.864	0.0135876
831.943	0.0136256
832.021	0.0135233
832.099	0.0135243
832.177	0.0136526
832.255	0.0134560
832.333	0.0134235
832.411	0.0134673
832.489	0.0135001
832.568	0.0134381
832.646	0.0135248
832.724	0.0133942
832.802	0.0132741
832.880	0.0134148
832.958	0.0134604
833.036	0.0133757
833.114	0.0133916
833.193	0.0134509
833.271	0.0133391
833.349	0.0134435
833.427	0.0135559
833.505	0.0134364
833.583	0.0135770
833.661	0.0136691
833.739	0.0135312
833.818	0.0135898
833.896	0.0136424
833.974	0.0135964
834.052	0.0135837
834.130	0.0135256
834.208	0.0137331
834.286	0.0137703
834.364	0.0136693
834.443	0.0136703
834.521	0.0137878
834.599	0.0138510
834.677	0.0138221
834.755	0.0138822
834.833	0.0137664
834.911	0.0138454
834.989	0.0137283
835.068	0.0137603
835.146	0.0138744
835.224	0.0138362
835.302	0.0137711
835.380	0.0137608
835.458	0.0137706
835.536	0.0137730
835.614	0.0138531
835.693	0.0138446
835.771	0.0138821
835.849	0.0136849
835.927	0.0138036
836.005	0.0138414
836.083	0.0139579
836.161	0.0138856
836.239	0.0138715
836.318	0.0137982
836.396	0.0138289
836.474	0.0138216
836.552	0.0138295
836.630	0.0137735
836.708	0.0138558
836.786	0.0138041
836.864	0.0138683
836.943	0.0139291
837.021	0.0137996
837.099	0.0138692
837.177	0.0138948
837.255	0.0140816
837.333	0.0139489
837.411	0.0138366
837.489	0.0138042
837.568	0.0137465
837.646	0.0138681
837.724	0.0139371
837.802	0.0139011
837.880	0.0138428
837.958	0.0136901
838.036	0.0137263
838.114	0.0138602
838.193	0.0137938
838.271	0.0137383
838.349	0.0137829
838.427	0.0135167
838.505	0.0135725
838.583	0.0136125
838.661	0.0135944
838.739	0.0135607
838.818	0.0135530
838.896	0.0136078
838.974	0.0134515
839.052	0.0134892
839.130	0.0134579
839.208	0.0134099
839.286	0.0133966
839.364	0.0134418
839.443	0.0133852
839.521	0.0135401
839.599	0.0134363
839.677	0.0134641
839.755	0.0134648
839.833	0.0135059
839.911	0.0134986
839.989	0.0135837
840.068	0.0135402
840.146	0.0136220
840.224	0.0136526
840.302	0.0136617
840.380	0.0137125
840.458	0.0135866
840.536	0.0136676
840.614	0.0137908
840.693	0.0136684
840.771	0.0135806
840.849	0.0136903
840.927	0.0136458
841.005	0.0136981
841.083	0.0136244
841.161	0.0135941
841.239	0.0136497
841.318	0.0135538
841.396	0.0137362
841.474	0.0138059
841.552	0.0135743
841.630	0.0137796
841.708	0.0138155
841.786	0.0138282
841.864	0.0138057
841.943	0.0136958
842.021	0.0139566
842.099	0.0139207
842.177	0.0139315
842.255	0.0139266
842.333	0.0137376
842.411	0.0138802
842.489	0.0138767
842.568	0.0137788
842.646	0.0138792
842.724	0.0139101
842.802	0.0138214
842.880	0.0137727
842.958	0.0139126
843.036	0.0137943
843.114	0.0138881
843.193	0.0138972
843.271	0.0139689
843.349	0.0138048
843.427	0.0138165
843.505	0.0138213
843.583	0.0137572
843.661	0.0139541
843.739	0.0138035
843.818	0.0137630
843.896	0.0137263
843.974	0.0137495
844.052	0.0139156
844.130	0.0137901
844.208	0.0139290
844.286	0.0137663
844.364	0.0137800
844.443	0.0137641
844.521	0.0138813
844.599	0.0137110
844.677	0.0136742
844.755	0.0136030
844.833	0.0137985
844.911	0.0137305
844.989	0.0136798
845.068	0.0136086
845.146	0.0136713
845.224	0.0137617
845.302	0.0136390
845.380	0.0135486
845.458	0.0135753
845.536	0.0135216
845.614	0.0134891
845.693	0.0136334
845.771	0.0137384
845.849	0.0135825
845.927	0.0135375
846.005	0.0135921
846.083	0.0137625
846.161	0.0137182
846.239	0.0134182
846.318	0.0136517
846.396	0.0138064
846.474	0.0136413
846.552	0.0136920
846.630	0.0136400
846.708	0.0136957
846.786	0.0136499
846.864	0.0136685
846.943	0.0138712
847.021	0.0138060
847.099	0.0138863
847.177	0.0138774
847.255	0.0138646
847.333	0.0137429
847.411	0.0138245
847.489	0.0138451
847.568	0.0138743
847.646	0.0138766
847.724	0.0138462
847.802	0.0138862
847.880	0.0140076
847.958	0.0138907
848.036	0.0138975
848.114	0.0139056
848.193	0.0136758
848.271	0.0137447
848.349	0.0139574
848.427	0.0138613
848.505	0.0136004
848.583	0.0136139
848.661	0.0137484
848.739	0.0136760
848.818	0.0134804
848.896	0.0135849
848.974	0.0134811
849.052	0.0134830
849.130	0.0135281
849.208	0.0135204
849.286	0.0133823
849.364	0.0134559
849.443	0.0135664
849.521	0.0135735
849.599	0.0134721
849.677	0.0134994
849.755	0.0135368
849.833	0.0135837
849.911	0.0135226
849.989	0.0136582
850.068	0.0135864
850.146	0.0136668
850.224	0.0136853
850.302	0.0137309
850.380	0.0135593
850.458	0.0137947
850.536	0.0137667
850.614	0.0137357
850.693	0.0138628
850.771	0.0138683
850.849	0.0139418
850.927	0.0140258
851.005	0.0140334
851.083	0.0139799
851.161	0.0139451
851.239	0.0139515
851.318	0.0138830
851.396	0.0140826
851.474	0.0140677
851.552	0.0139895
851.630	0.0140607
851.708	0.0140143
851.786	0.0140158
851.864	0.0140471
851.943	0.0139516
852.021	0.0138885
852.099	0.0139404
852.177	0.0138306
852.255	0.0137952
852.333	0.0137914
852.411	0.0138049
852.489	0.0138448
852.568	0.0137215
852.646	0.0136649
852.724	0.0136776
852.802	0.0135803
852.880	0.0136304
852.958	0.0134982
853.036	0.0135355
853.114	0.0137151
853.193	0.0135934
853.271	0.0134661
853.349	0.0135245
853.427	0.0135075
853.505	0.0134093
853.583	0.0135001
853.661	0.0135336
853.739	0.0135049
853.818	0.0135701
853.896	0.0137341
853.974	0.0137653
854.052	0.0137125
854.130	0.0136604
854.208	0.0136524
854.286	0.0135628
854.364	0.0136784
854.443	0.0139027
854.521	0.0137196
854.599	0.0137783
854.677	0.0138284
854.755	0.0136623
854.833	0.0138662
854.911	0.0137691
854.989	0.0137490
855.068	0.0140182
855.146	0.0138697
855.224	0.0138901
855.302	0.0138987
855.380	0.0137334
855.458	0.0137329
855.536	0.0138113
855.614	0.0137195
855.693	0.0137933
855.771	0.0137366
855.849	0.0138690
855.927	0.0136804
856.005	0.0136882
856.083	0.0137505
856.161	0.0136479
856.239	0.0136620
856.318	0.0137318
856.396	0.0135581
856.474	0.0135744
856.552	0.0136230
856.630	0.0135739
856.708	0.0135543
856.786	0.0134078
856.864	0.0134770
856.943	0.0133834
857.021	0.0133807
857.099	0.0137023
857.177	0.0133894
857.255	0.0133717
857.333	0.0132684
857.411	0.0133964
857.489	0.0132959
857.568	0.0133406
857.646	0.0132809
857.724	0.0134625
857.802	0.0133736
857.880	0.0134681
857.958	0.0133954
858.036	0.0134556
858.114	0.0134644
858.193	0.0134149
858.271	0.0134552
858.349	0.0135404
858.427	0.0136227
858.505	0.0136613
858.583	0.0136599
858.661	0.0136780
858.739	0.0138453
858.818	0.0138201
858.896	0.0138821
858.974	0.0139919
859.052	0.0140202
859.130	0.0140016
859.208	0.0140317
859.286	0.0139144
859.364	0.0140041
859.443	0.0140184
859.521	0.0140817
859.599	0.0141868
859.677	0.0142653
859.755	0.0139923
859.833	0.0139675
859.911	0.0140408
859.989	0.0140112
860.068	0.0139404
860.146	0.0139622
860.224	0.0139268
860.302	0.0138184
860.380	0.0139284
860.458	0.0139259
860.536	0.0137974
860.614	0.0138449
860.693	0.0137821
860.771	0.0136381
860.849	0.0136756
860.927	0.0136655
861.005	0.0136086
861.083	0.0136953
861.161	0.0137086
861.239	0.0136131
861.318	0.0136580
861.396	0.0137447
861.474	0.0136044
861.552	0.0136286
861.630	0.0136195
861.708	0.0136848
861.786	0.0136646
861.864	0.0135364
861.943	0.0136834
862.021	0.0136761
862.099	0.0136914
862.177	0.0136965
862.255	0.0137882
862.333	0.0136697
862.411	0.0137514
862.489	0.0137257
862.568	0.0137399
862.646	0.0138248
862.724	0.0138789
862.802	0.0138647
862.880	0.0137772
862.958	0.0138689
863.036	0.0139333
863.114	0.0138793
863.193	0.0138293
863.271	0.0137968
863.349	0.0138644
863.427	0.0137736
863.505	0.0136779
863.583	0.0137675
863.661	0.0138853
863.739	0.0138702
863.818	0.0138538
863.896	0.0137174
863.974	0.0138365
864.052	0.0137796
864.130	0.0137769
864.208	0.0137708
864.286	0.0135800
864.364	0.0137846
864.443	0.0137151
864.521	0.0136621
864.599	0.0135098
864.677	0.0136436
864.755	0.0135607
864.833	0.0136047
864.911	0.0136581
864.989	0.0135258
865.068	0.0134533
865.146	0.0135232
865.224	0.0135551
865.302	0.0136533
865.380	0.0135645
865.458	0.0135617
865.536	0.0134991
865.614	0.0136523
865.693	0.0137242
865.771	0.0136124
865.849	0.0136784
865.927	0.0135962
866.005	0.0136809
866.083	0.0137077
866.161	0.0138078
866.239	0.0138210
866.318	0.0136637
866.396	0.0138074
866.474	0.0138824
866.552	0.0138046
866.630	0.0138831
866.708	0.0137653
866.786	0.0138493
866.864	0.0137066
866.943	0.0137636
867.021	0.0138726
867.099	0.0137754
867.177	0.0136154
867.255	0.0136600
867.333	0.0138152
867.411	0.0137888
867.489	0.0136551
867.568	0.0138377
867.646	0.0138443
867.724	0.0136371
867.802	0.0136850
867.880	0.0137082
867.958	0.0136769
868.036	0.0137135
868.114	0.0136418
868.193	0.0137038
868.271	0.0136887
868.349	0.0135773
868.427	0.0133226
868.505	0.0135634
868.583	0.0135120
868.661	0.0134955
868.739	0.0136961
868.818	0.0135571
868.896	0.0135737
868.974	0.0135629
869.052	0.0135062
869.130	0.0135294
869.208	0.0136056
869.286	0.0136088
869.364	0.0135745
869.443	0.0135860
869.521	0.0136108
869.599	0.0136629
869.677	0.0136110
869.755	0.0136367
869.833	0.0137820
869.911	0.0137466
869.989	0.0137224
870.068	0.0137868
870.146	0.0136439
870.224	0.0138184
870.302	0.0138364
870.380	0.0138564
870.458	0.0139243
870.536	0.0138024
870.614	0.0138889
870.693	0.0139423
870.771	0.0139428
870.849	0.0139291
870.927	0.0139561
871.005	0.0138425
871.083	0.0137776
871.161	0.0139198
871.239	0.0139963
871.318	0.0139414
871.396	0.0139669
871.474	0.0139620
871.552	0.0139371
871.630	0.0139915
871.708	0.0138378
871.786	0.0138705
871.864	0.0139397
871.943	0.0138557
872.021	0.0139187
872.099	0.0138189
872.177	0.0138977
872.255	0.0138770
872.333	0.0138321
872.411	0.0136502
872.489	0.0136057
872.568	0.0136757
872.646	0.0138043
872.724	0.0137489
872.802	0.0137315
872.880	0.0137639
872.958	0.0136449
873.036	0.0136705
873.114	0.0136784
873.193	0.0136716
873.271	0.0135793
873.349	0.0135913
873.427	0.0136608
873.505	0.0135780
873.583	0.0135172
873.661	0.0135004
873.739	0.0136911
873.818	0.0136834
873.896	0.0134924
873.974	0.0134934
874.052	0.0135961
874.130	0.0136914
874.208	0.0137674
874.286	0.0136588
874.364	0.0137035
874.443	0.0139323
874.521	0.0139146
874.599	0.0137733
874.677	0.0138315
874.755	0.0139119
874.833	0.0138661
874.911	0.0139387
874.989	0.0139267
875.068	0.0141474
875.146	0.0141228
875.224	0.0141061
875.302	0.0139918
875.380	0.0139892
875.458	0.0140442
875.536	0.0140319
875.614	0.0141115
875.693	0.0141882
875.771	0.0141021
875.849	0.0140820
875.927	0.0140453
876.005	0.0140171
876.083	0.0140148
876.161	0.0140873
876.239	0.0138387
876.318	0.0138285
876.396	0.0139516
876.474	0.0138869
876.552	0.0137713
876.630	0.0136480
876.708	0.0136733
876.786	0.0137075
876.864	0.0136384
876.943	0.0137139
877.021	0.0136973
877.099	0.0136106
877.177	0.0136077
877.255	0.0136217
877.333	0.0135798
877.411	0.0137166
877.489	0.0137528
877.568	0.0137431
877.646	0.0135767
877.724	0.0137512
877.802	0.0137505
877.880	0.0137579
877.958	0.0137568
878.036	0.0138254
878.114	0.0138941
878.193	0.0139306
878.271	0.0139354
878.349	0.0139897
878.427	0.0139138
878.505	0.0140192
878.583	0.0138944
878.661	0.0137933
878.739	0.0140074
878.818	0.0140517
878.896	0.0138529
878.974	0.0139480
879.052	0.0137923
879.130	0.0139085
879.208	0.0138806
879.286	0.0136307
879.364	0.0137540
879.443	0.0137755
879.521	0.0137334
879.599	0.0137001
879.677	0.0136620
879.755	0.0137206
879.833	0.0137943
879.911	0.0137061
879.989	0.0136236
880.068	0.0135917
880.146	0.0138741
880.224	0.0137429
880.302	0.0138245
880.380	0.0138417
880.458	0.0137000
880.536	0.0136785
880.614	0.0137199
880.693	0.0136548
880.771	0.0137657
880.849	0.0137379
880.927	0.0138625
881.005	0.0137534
881.083	0.0136713
881.161	0.0137283
881.239	0.0136777
881.318	0.0138369
881.396	0.0136400
881.474	0.0137175
881.552	0.0137524
881.630	0.0137103
881.708	0.0136560
881.786	0.0136457
881.864	0.0136247
881.943	0.0135764
882.021	0.0134965
882.099	0.0137644
882.177	0.0136057
882.255	0.0136179
882.333	0.0135381
882.411	0.0135634
882.489	0.0135355
882.568	0.0135698
882.646	0.0134238
882.724	0.0136053
882.802	0.0134998
882.880	0.0136509
882.958	0.0134737
883.036	0.0135338
883.114	0.0135851
883.193	0.0135876
883.271	0.0136750
883.349	0.0136176
883.427	0.0137231
883.505	0.0135916
883.583	0.0135408
883.661	0.0136916
883.739	0.0137466
883.818	0.0136660
883.896	0.0138009
883.974	0.0138081
884.052	0.0137543
884.130	0.0137460
884.208	0.0137334
884.286	0.0136289
884.364	0.0137928
884.443	0.0136446
884.521	0.0136937
884.599	0.0137490
884.677	0.0137063
884.755	0.0137841
884.833	0.0137618
884.911	0.0136709
884.989	0.0137407
885.068	0.0138349
885.146	0.0137302
885.224	0.0139152
885.302	0.0136287
885.380	0.0138584
885.458	0.0137804
885.536	0.0137602
885.614	0.0138309
885.693	0.0137720
885.771	0.0138187
885.849	0.0138502
885.927	0.0137354
886.005	0.0137340
886.083	0.0137519
886.161	0.0137019
886.239	0.0136700
886.318	0.0137673
886.396	0.0138744
886.474	0.0137698
886.552	0.0137844
886.630	0.0138957
886.708	0.0138202
886.786	0.0137434
886.864	0.0138451
886.943	0.0139294
887.021	0.0139169
887.099	0.0138386
887.177	0.0138308
887.255	0.0136465
887.333	0.0137222
887.411	0.0137524
887.489	0.0136183
887.568	0.0137206
887.646	0.0138911
887.724	0.0137536
887.802	0.0136593
887.880	0.0136581
887.958	0.0135857
888.036	0.0137251
888.114	0.0136759
888.193	0.0136327
888.271	0.0136980
888.349	0.0134816
888.427	0.0136270
888.505	0.0136173
888.583	0.0135938
888.661	0.0134770
888.739	0.0136327
888.818	0.0134996
888.896	0.0135291
888.974	0.0135251
889.052	0.0135170
889.130	0.0135151
889.208	0.0136088
889.286	0.0135858
889.364	0.0136707
889.443	0.0134901
889.521	0.0134905
889.599	0.0138071
889.677	0.0137487
889.755	0.0137403
889.833	0.0137096
889.911	0.0135836
889.989	0.0137169
890.068	0.0136895
890.146	0.0136466
890.224	0.0136224
890.302	0.0136388
890.380	0.0135909
890.458	0.0136831
890.536	0.0137547
890.614	0.0135771
890.693	0.0137081
890.771	0.0136887
890.849	0.0135593
890.927	0.0136951
891.005	0.0138638
891.083	0.0136992
891.161	0.0136994
891.239	0.0138515
891.318	0.0137955
891.396	0.0138204
891.474	0.0138481
891.552	0.0135941
891.630	0.0138366
891.708	0.0138518
891.786	0.0136887
891.864	0.0137689
891.943	0.0135463
892.021	0.0136874
892.099	0.0136639
892.177	0.0136153
892.255	0.0138237
892.333	0.0136935
892.411	0.0137685
892.489	0.0137570
892.568	0.0136970
892.646	0.0136752
892.724	0.0138834
892.802	0.0138825
892.880	0.0139027
892.958	0.0138367
893.036	0.0137931
893.114	0.0139641
893.193	0.0139275
893.271	0.0140057
893.349	0.0139572
893.427	0.0140341
893.505	0.0138843
893.583	0.0139234
893.661	0.0138459
893.739	0.0139068
893.818	0.0139276
893.896	0.0137841
893.974	0.0138747
894.052	0.0138925
894.130	0.0138627
894.208	0.0138331
894.286	0.0138118
894.364	0.0139002
894.443	0.0138069
894.521	0.0137147
894.599	0.0139642
894.677	0.0138836
894.755	0.0138544
894.833	0.0138261
894.911	0.0137199
894.989	0.0136855
895.068	0.0139005
895.146	0.0137692
895.224	0.0137296
895.302	0.0137130
895.380	0.0137205
895.458	0.0137845
895.536	0.0136040
895.614	0.0137268
895.693	0.0136640
895.771	0.0136143
895.849	0.0134547
895.927	0.0135382
896.005	0.0135790
896.083	0.0136418
896.161	0.0136168
896.239	0.0136114
896.318	0.0134793
896.396	0.0135070
896.474	0.0134297
896.552	0.0136191
896.630	0.0137904
896.708	0.0136763
896.786	0.0137296
896.864	0.0138272
896.943	0.0137441
897.021	0.0136952
897.099	0.0136918
897.177	0.0137585
897.255	0.0137864
897.333	0.0136478
897.411	0.0137410
897.489	0.0138271
897.568	0.0137572
897.646	0.0137109
897.724	0.0139196
897.802	0.0136719
897.880	0.0137364
897.958	0.0137810
898.036	0.0139316
898.114	0.0137099
898.193	0.0138889
898.271	0.0137786
898.349	0.0138862
898.427	0.0138567
898.505	0.0139174
898.583	0.0139782
898.661	0.0139391
898.739	0.0139427
898.818	0.0139194
898.896	0.0139366
898.974	0.0140617
899.052	0.0140168
899.130	0.0141028
899.208	0.0139019
899.286	0.0138804
899.364	0.0139971
899.443	0.0139498
899.521	0.0141080
899.599	0.0138956
899.677	0.0138431
899.755	0.0138120
899.833	0.0138628
899.911	0.0138277
899.989	0.0138210
900.068	0.0138634
900.146	0.0137686
900.224	0.0138103
900.302	0.0137570
900.380	0.0136073
900.458	0.0136558
900.536	0.0138409
900.614	0.0137852
900.693	0.0135900
900.771	0.0135606
900.849	0.0134172
900.927	0.0135632
901.005	0.0135623
901.083	0.0135766
901.161	0.0135861
901.239	0.0135784
901.318	0.0136349
901.396	0.0135350
901.474	0.0134595
901.552	0.0134148
901.630	0.0135397
901.708	0.0136333
901.786	0.0136224
901.864	0.0136646
901.943	0.0136626
902.021	0.0137009
902.099	0.0135885
902.177	0.0136610
902.255	0.0137240
902.333	0.0138706
902.411	0.0139562
902.489	0.0138740
902.568	0.0138103
902.646	0.0139127
902.724	0.0138953
902.802	0.0139175
902.880	0.0139100
902.958	0.0139685
903.036	0.0139490
903.114	0.0139600
903.193	0.0139469
903.271	0.0139333
903.349	0.0139995
903.427	0.0140099
903.505	0.0138971
903.583	0.0139343
903.661	0.0138887
903.739	0.0139026
903.818	0.0140475
903.896	0.0138112
903.974	0.0138643
904.052	0.0139790
904.130	0.0139427
904.208	0.0139845
904.286	0.0137934
904.364	0.0138353
904.443	0.0138663
904.521	0.0137612
904.599	0.0137467
904.677	0.0136297
904.755	0.0136913
904.833	0.0137991
904.911	0.0138035
904.989	0.0137590
905.068	0.0136841
905.146	0.0136282
905.224	0.0136511
905.302	0.0137920
905.380	0.0137788
905.458	0.0135952
905.536	0.0137640
905.614	0.0138576
905.693	0.0139536
905.771	0.0137849
905.849	0.0137987
905.927	0.0137502
906.005	0.0137494
906.083	0.0137492
906.161	0.0137082
906.239	0.0138152
906.318	0.0136532
906.396	0.0135741
906.474	0.0136653
906.552	0.0136767
906.630	0.0136266
906.708	0.0136140
906.786	0.0136642
906.864	0.0135015
906.943	0.0136237
907.021	0.0135561
907.099	0.0136600
907.177	0.0135957
907.255	0.0135194
907.333	0.0134505
907.411	0.0136100
907.489	0.0136600
907.568	0.0136372
907.646	0.0136611
907.724	0.0138297
907.802	0.0138670
907.880	0.0136860
907.958	0.0137675
908.036	0.0136946
908.114	0.0137495
908.193	0.0138008
908.271	0.0138280
908.349	0.0139178
908.427	0.0137234
908.505	0.0138425
908.583	0.0137050
908.661	0.0137244
908.739	0.0137857
908.818	0.0139118
908.896	0.0138345
908.974	0.0137933
909.052	0.0138860
909.130	0.0137238
909.208	0.0138709
909.286	0.0137291
909.364	0.0137023
909.443	0.0138486
909.521	0.0138194
909.599	0.0136724
909.677	0.0134968
909.755	0.0137217
909.833	0.0136206
909.911	0.0137242
909.989	0.0137602
910.068	0.0136315
910.146	0.0135957
910.224	0.0136311
910.302	0.0135755
910.380	0.0136279
910.458	0.0136565
910.536	0.0136243
910.614	0.0136612
910.693	0.0137180
910.771	0.0136957
910.849	0.0136926
910.927	0.0136653
911.005	0.0137177
911.083	0.0137300
911.161	0.0136921
911.239	0.0134859
911.318	0.0136752
911.396	0.0136911
911.474	0.0136246
911.552	0.0136587
911.630	0.0134930
911.708	0.0135730
911.786	0.0138208
911.864	0.0137177
911.943	0.0135473
912.021	0.0136462
912.099	0.0135307
912.177	0.0136134
912.255	0.0135727
912.333	0.0135442
912.411	0.0136274
912.489	0.0136730
912.568	0.0136802
912.646	0.0134571
912.724	0.0135266
912.802	0.0136053
912.880	0.0136247
912.958	0.0137150
913.036	0.0136746
913.114	0.0137797
913.193	0.0138265
913.271	0.0137486
913.349	0.0138925
913.427	0.0137991
913.505	0.0137667
913.583	0.0136994
913.661	0.0138417
913.739	0.0137983
913.818	0.0137171
913.896	0.0137591
913.974	0.0137889
914.052	0.0137624
914.130	0.0137771
914.208	0.0138034
914.286	0.0136646
914.364	0.0137505
914.443	0.0137214
914.521	0.0137476
914.599	0.0136757
914.677	0.0136523
914.755	0.0137621
914.833	0.0137187
914.911	0.0135336
914.989	0.0136288
915.068	0.0135899
915.146	0.0135744
915.224	0.0135349
915.302	0.0136397
915.380	0.0137214
915.458	0.0134998
915.536	0.0134526
915.614	0.0136652
915.693	0.0135564
915.771	0.0135828
915.849	0.0135629
915.927	0.0135327
916.005	0.0135369
916.083	0.0135658
916.161	0.0136486
916.239	0.0134873
916.318	0.0134247
916.396	0.0134684
916.474	0.0136337
916.552	0.0136593
916.630	0.0135568
916.708	0.0135007
916.786	0.0135207
916.864	0.0135001
916.943	0.0136566
917.021	0.0136547
917.099	0.0135236
917.177	0.0136292
917.255	0.0135364
917.333	0.0135152
917.411	0.0136545
917.489	0.0136488
917.568	0.0135353
917.646	0.0136248
917.724	0.0136736
917.802	0.0138000
917.880	0.0138181
917.958	0.0136181
918.036	0.0137496
918.114	0.0136443
918.193	0.0135684
918.271	0.0138253
918.349	0.0136855
918.427	0.0136837
918.505	0.0137652
918.583	0.0137473
918.661	0.0136658
918.739	0.0137350
918.818	0.0137165
918.896	0.0137846
918.974	0.0138194
919.052	0.0138841
919.130	0.0139488
919.208	0.0137386
919.286	0.0138715
919.364	0.0136445
919.443	0.0138821
919.521	0.0137895
919.599	0.0137679
919.677	0.0137125
919.755	0.0137951
919.833	0.0138773
919.911	0.0137374
919.989	0.0136769
920.068	0.0138454
920.146	0.0137982
920.224	0.0138594
920.302	0.0138550
920.380	0.0137838
920.458	0.0137962
920.536	0.0138686
920.614	0.0138985
920.693	0.0137347
920.771	0.0138445
920.849	0.0137470
920.927	0.0138557
921.005	0.0139310
921.083	0.0138766
921.161	0.0139188
921.239	0.0138470
921.318	0.0137479
921.396	0.0139529
921.474	0.0138467
921.552	0.0137882
921.630	0.0137670
921.708	0.0138554
921.786	0.0138320
921.864	0.0137771
921.943	0.0138169
922.021	0.0139568
922.099	0.0138820
922.177	0.0137714
922.255	0.0139210
922.333	0.0138221
922.411	0.0138007
922.489	0.0138763
922.568	0.0138522
922.646	0.0139787
922.724	0.0138844
922.802	0.0139833
922.880	0.0138165
922.958	0.0137746
923.036	0.0138641
923.114	0.0138568
923.193	0.0137693
923.271	0.0137649
923.349	0.0137035
923.427	0.0136808
923.505	0.0138295
923.583	0.0137370
923.661	0.0137719
923.739	0.0137395
923.818	0.0137154
923.896	0.0136597
923.974	0.0135179
924.052	0.0136551
924.130	0.0137988
924.208	0.0135322
924.286	0.0134707
924.364	0.0137090
924.443	0.0136336
924.521	0.0136121
924.599	0.0136159
924.677	0.0135863
924.755	0.0135966
924.833	0.0136463
924.911	0.0138017
924.989	0.0135400
925.068	0.0136537
925.146	0.0137253
925.224	0.0137611
925.302	0.0136781
925.380	0.0137553
925.458	0.0138116
925.536	0.0137440
925.614	0.0138409
925.693	0.0137129
925.771	0.0138562
925.849	0.0137426
925.927	0.0136182
926.005	0.0137339
926.083	0.0137929
926.161	0.0137119
926.239	0.0137745
926.318	0.0137021
926.396	0.0137154
926.474	0.0137077
926.552	0.0137295
926.630	0.0137000
926.708	0.0136085
926.786	0.0137649
926.864	0.0136963
926.943	0.0136472
927.021	0.0137500
927.099	0.0137336
927.177	0.0136082
927.255	0.0138038
927.333	0.0136328
927.411	0.0137155
927.489	0.0137915
927.568	0.0137975
927.646	0.0137994
927.724	0.0137527
927.802	0.0137677
927.880	0.0137648
927.958	0.0137923
928.036	0.0137804
928.114	0.0136733
928.193	0.0137897
928.271	0.0138352
928.349	0.0136046
928.427	0.0137558
928.505	0.0137796
928.583	0.0137642
928.661	0.0137242
928.739	0.0136974
928.818	0.0137486
928.896	0.0137033
928.974	0.0137309
929.052	0.0136117
929.130	0.0136359
929.208	0.0136390
929.286	0.0137391
929.364	0.0136035
929.443	0.0135133
929.521	0.0135854
929.599	0.0136800
929.677	0.0136520
929.755	0.0135090
929.833	0.0136030
929.911	0.0135636
929.989	0.0136632
930.068	0.0136082
930.146	0.0135343
930.224	0.0136270
930.302	0.0137181
930.380	0.0137162
930.458	0.0137009
930.536	0.0137767
930.614	0.0138017
930.693	0.0138441
930.771	0.0138765
930.849	0.0138049
930.927	0.0139042
931.005	0.0138382
931.083	0.0138395
931.161	0.0138251
931.239	0.0137511
931.318	0.0139252
931.396	0.0139268
931.474	0.0139560
931.552	0.0138763
931.630	0.0137843
931.708	0.0139436
931.786	0.0138428
931.864	0.0138208
931.943	0.0138725
932.021	0.0140040
932.099	0.0138832
932.177	0.0136375
932.255	0.0137758
932.333	0.0138198
932.411	0.0136829
932.489	0.0138442
932.568	0.0138538
932.646	0.0137970
932.724	0.0136471
932.802	0.0138448
932.880	0.0137094
932.958	0.0137045
933.036	0.0137898
933.114	0.0137953
933.193	0.0140009
933.271	0.0138448
933.349	0.0137692
933.427	0.0138676
933.505	0.0138366
933.583	0.0139120
933.661	0.0138979
933.739	0.0138800
933.818	0.0139735
933.896	0.0138435
933.974	0.0137538
934.052	0.0139111
934.130	0.0138483
934.208	0.0137586
934.286	0.0138135
934.364	0.0139205
934.443	0.0138723
934.521	0.0137671
934.599	0.0137990
934.677	0.0137286
934.755	0.0137041
934.833	0.0136667
934.911	0.0137781
934.989	0.0137636
935.068	0.0136084
935.146	0.0136159
935.224	0.0134695
935.302	0.0135848
935.380	0.0135361
935.458	0.0135101
935.536	0.0136235
935.614	0.0137364
935.693	0.0135152
935.771	0.0135473
935.849	0.0136440
935.927	0.0136556
936.005	0.0134833
936.083	0.0135619
936.161	0.0135858
936.239	0.0136341
936.318	0.0134430
936.396	0.0135395
936.474	0.0136064
936.552	0.0134537
936.630	0.0135751
936.708	0.0136694
936.786	0.0135938
936.864	0.0134882
936.943	0.0134628
937.021	0.0135226
937.099	0.0136205
937.177	0.0135282
937.255	0.0135253
937.333	0.0135284
937.411	0.0136136
937.489	0.0136298
937.568	0.0135219
937.646	0.0137160
937.724	0.0137076
937.802	0.0137420
937.880	0.0136875
937.958	0.0136023
938.036	0.0136937
938.114	0.0137108
938.193	0.0137610
938.271	0.0138817
938.349	0.0138110
938.427	0.0137048
938.505	0.0139710
938.583	0.0138871
938.661	0.0138242
938.739	0.0138191
938.818	0.0139309
938.896	0.0139146
938.974	0.0138679
939.052	0.0138589
939.130	0.0140715
939.208	0.0138525
939.286	0.0139075
939.364	0.0139359
939.443	0.0139989
939.521	0.0140887
939.599	0.0139056
939.677	0.0138062
939.755	0.0137981
939.833	0.0138950
939.911	0.0138593
939.989	0.0139132
940.068	0.0137687
940.146	0.0137791
940.224	0.0136446
940.302	0.0137629
940.380	0.0136140
940.458	0.0137020
940.536	0.0136891
940.614	0.0136095
940.693	0.0138498
940.771	0.0137695
940.849	0.0137551
940.927	0.0136179
941.005	0.0137200
941.083	0.0137028
941.161	0.0138194
941.239	0.0136359
941.318	0.0136569
941.396	0.0135289
941.474	0.0136356
941.552	0.0137525
941.630	0.0136390
941.708	0.0136293
941.786	0.0136361
941.864	0.0136360
941.943	0.0136348
942.021	0.0137890
942.099	0.0135497
942.177	0.0135180
942.255	0.0135506
942.333	0.0136802
942.411	0.0136950
942.489	0.0136150
942.568	0.0136613
942.646	0.0136887
942.724	0.0137957
942.802	0.0137278
942.880	0.0136545
942.958	0.0136739
943.036	0.0137846
943.114	0.0139880
943.193	0.0138042
943.271	0.0137399
943.349	0.0136790
943.427	0.0138279
943.505	0.0139184
943.583	0.0138802
943.661	0.0137338
943.739	0.0140057
943.818	0.0139896
943.896	0.0140202
943.974	0.0139787
944.052	0.0139108
944.130	0.0140401
944.208	0.0139281
944.286	0.0140543
944.364	0.0138338
944.443	0.0139069
944.521	0.0139084
944.599	0.0139124
944.677	0.0137888
944.755	0.0137466
944.833	0.0137794
944.911	0.0137113
944.989	0.0138564
945.068	0.0136399
945.146	0.0136343
945.224	0.0135446
945.302	0.0136684
945.380	0.0135640
945.458	0.0134960
945.536	0.0135399
945.614	0.0134538
945.693	0.0134369
945.771	0.0134657
945.849	0.0135559
945.927	0.0135548
946.005	0.0134316
946.083	0.0134043
946.161	0.0135550
946.239	0.0134719
946.318	0.0134064
946.396	0.0133744
946.474	0.0133649
946.552	0.0132230
946.630	0.0133804
946.708	0.0132965
946.786	0.0133404
946.864	0.0135069
946.943	0.0135732
947.021	0.0135016
947.099	0.0136449
947.177	0.0136196
947.255	0.0134940
947.333	0.0134132
947.411	0.0135329
947.489	0.0135099
947.568	0.0136420
947.646	0.0136900
947.724	0.0137551
947.802	0.0136535
947.880	0.0137119
947.958	0.0137856
948.036	0.0137688
948.114	0.0138881
948.193	0.0137261
948.271	0.0137280
948.349	0.0139384
948.427	0.0138153
948.505	0.0138282
948.583	0.0139131
948.661	0.0137835
948.739	0.0138268
948.818	0.0139147
948.896	0.0139227
948.974	0.0137543
949.052	0.0138909
949.130	0.0138725
949.208	0.0139102
949.286	0.0138615
949.364	0.0138055
949.443	0.0139143
949.521	0.0138863
949.599	0.0137645
949.677	0.0139124
949.755	0.0138213
949.833	0.0137540
949.911	0.0138554
949.989	0.0139066
950.068	0.0137980
950.146	0.0138630
950.224	0.0137616
950.302	0.0138946
950.380	0.0137488
950.458	0.0138929
950.536	0.0138906
950.614	0.0139067
950.693	0.0139493
950.771	0.0139274
950.849	0.0137314
950.927	0.0137604
951.005	0.0138539
951.083	0.0138867
951.161	0.0138711
951.239	0.0139554
951.318	0.0138446
951.396	0.0139706
951.474	0.0138634
951.552	0.0139009
951.630	0.0138804
951.708	0.0138420
951.786	0.0138775
951.864	0.0139081
951.943	0.0138916
952.021	0.0138742
952.099	0.0139165
952.177	0.0138856
952.255	0.0137653
952.333	0.0139031
952.411	0.0139069
952.489	0.0137700
952.568	0.0138856
952.646	0.0138192
952.724	0.0137025
952.802	0.0137888
952.880	0.0137926
952.958	0.0138411
953.036	0.0138231
953.114	0.0137783
953.193	0.0137240
953.271	0.0138786
953.349	0.0136751
953.427	0.0138387
953.505	0.0137182
953.583	0.0136295
953.661	0.0137891
953.739	0.0137000
953.818	0.0136844
953.896	0.0136394
953.974	0.0137850
954.052	0.0136875
954.130	0.0136452
954.208	0.0135842
954.286	0.0136700
954.364	0.0136265
954.443	0.0138068
954.521	0.0137041
954.599	0.0137936
954.677	0.0136996
954.755	0.0136382
954.833	0.0137157
954.911	0.0138094
954.989	0.0139571
955.068	0.0138160
955.146	0.0136752
955.224	0.0136496
955.302	0.0138847
955.380	0.0138949
955.458	0.0138075
955.536	0.0139101
955.614	0.0137088
955.693	0.0138676
955.771	0.0138904
955.849	0.0139014
955.927	0.0138025
956.005	0.0138271
956.083	0.0139640
956.161	0.0137407
956.239	0.0137402
956.318	0.0139701
956.396	0.0138516
956.474	0.0139175
956.552	0.0137286
956.630	0.0137456
956.708	0.0137875
956.786	0.0138155
956.864	0.0137897
956.943	0.0137119
957.021	0.0136363
957.099	0.0138079
957.177	0.0137408
957.255	0.0136906
957.333	0.0137692
957.411	0.0136451
957.489	0.0135097
957.568	0.0135607
957.646	0.0136162
957.724	0.0136155
957.802	0.0136791
957.880	0.0136076
957.958	0.0137258
958.036	0.0137508
958.114	0.0136564
958.193	0.0136366
958.271	0.0137500
958.349	0.0137123
958.427	0.0139111
958.505	0.0136814
958.583	0.0136324
958.661	0.0137309
958.739	0.0137594
958.818	0.0138162
958.896	0.0136404
958.974	0.0137067
959.052	0.0138097
959.130	0.0137164
959.208	0.0137497
959.286	0.0136915
959.364	0.0136960
959.443	0.0137962
959.521	0.0137316
959.599	0.0137061
959.677	0.0136103
959.755	0.0138030
959.833	0.0137894
959.911	0.0139056
