05/07/2022	17:43:13	Ver.	4.1	UNKNOWN
Optical Delay	639.989416	Delta X		0.078125	Sweeps	1	Scan Rate	0/0
Coordinates	Axis 1	NaN	Axis 2	NaN	Axis 3	NaN	Axis 4	NaN	Axis 5	NaN	Axis 6	0.000000
TX Power	0.000000	RX Power	0.000000

639.989	0.0137160
640.068	0.0135574
640.146	0.0136216
640.224	0.0133807
640.302	0.0135842
640.380	0.0136243
640.458	0.0135625
640.536	0.0136279
640.614	0.0135651
640.693	0.0134315
640.771	0.0137033
640.849	0.0135257
640.927	0.0133974
641.005	0.0135074
641.083	0.0136153
641.161	0.0134990
641.239	0.0135629
641.318	0.0135602
641.396	0.0136169
641.474	0.0135467
641.552	0.0136544
641.630	0.0136397
641.708	0.0136123
641.786	0.0134982
641.864	0.0135599
641.943	0.0134917
642.021	0.0135595
642.099	0.0135609
642.177	0.0135844
642.255	0.0134745
642.333	0.0134710
642.411	0.0135908
642.489	0.0135569
642.568	0.0134212
642.646	0.0134911
642.724	0.0135563
642.802	0.0136026
642.880	0.0134949
642.958	0.0134231
643.036	0.0134910
643.114	0.0134724
643.193	0.0136136
643.271	0.0135155
643.349	0.0135969
643.427	0.0135397
643.505	0.0136172
643.583	0.0136349
643.661	0.0137498
643.739	0.0137799
643.818	0.0136988
643.896	0.0137754
643.974	0.0138134
644.052	0.0137300
644.130	0.0137379
644.208	0.0137239
644.286	0.0138171
644.364	0.0137371
644.443	0.0138590
644.521	0.0137687
644.599	0.0136713
644.677	0.0137120
644.755	0.0135804
644.833	0.0135100
644.911	0.0134608
644.989	0.0135240
645.068	0.0134551
645.146	0.0134525
645.224	0.0135521
645.302	0.0134557
645.380	0.0134686
645.458	0.0133540
645.536	0.0135119
645.614	0.0134485
645.693	0.0133477
645.771	0.0133733
645.849	0.0134630
645.927	0.0135912
646.005	0.0134621
646.083	0.0136581
646.161	0.0136565
646.239	0.0135994
646.318	0.0137482
646.396	0.0136716
646.474	0.0137150
646.552	0.0137784
646.630	0.0137296
646.708	0.0138696
646.786	0.0139851
646.864	0.0139848
646.943	0.0141524
647.021	0.0140961
647.099	0.0141183
647.177	0.0140927
647.255	0.0141814
647.333	0.0142263
647.411	0.0140518
647.489	0.0140900
647.568	0.0140080
647.646	0.0138180
647.724	0.0139987
647.802	0.0138724
647.880	0.0137738
647.958	0.0137218
648.036	0.0136682
648.114	0.0135603
648.193	0.0135023
648.271	0.0133954
648.349	0.0133180
648.427	0.0132822
648.505	0.0132651
648.583	0.0130807
648.661	0.0132383
648.739	0.0131705
648.818	0.0131164
648.896	0.0131676
648.974	0.0131032
649.052	0.0128326
649.130	0.0130329
649.208	0.0129984
649.286	0.0129444
649.364	0.0129571
649.443	0.0130355
649.521	0.0129748
649.599	0.0130982
649.677	0.0131867
649.755	0.0133851
649.833	0.0133768
649.911	0.0134637
649.989	0.0134212
650.068	0.0136599
650.146	0.0136766
650.224	0.0137305
650.302	0.0138696
650.380	0.0139755
650.458	0.0140760
650.536	0.0140907
650.614	0.0140640
650.693	0.0141975
650.771	0.0141667
650.849	0.0142486
650.927	0.0143185
651.005	0.0143648
651.083	0.0144315
651.161	0.0143545
651.239	0.0143538
651.318	0.0143893
651.396	0.0142476
651.474	0.0143726
651.552	0.0141697
651.630	0.0140578
651.708	0.0137711
651.786	0.0137505
651.864	0.0137012
651.943	0.0134737
652.021	0.0133908
652.099	0.0132192
652.177	0.0131085
652.255	0.0129881
652.333	0.0127578
652.411	0.0127217
652.489	0.0126923
652.568	0.0126147
652.646	0.0123996
652.724	0.0123832
652.802	0.0123100
652.880	0.0123097
652.958	0.0122990
653.036	0.0122917
653.114	0.0123334
653.193	0.0123534
653.271	0.0124809
653.349	0.0126239
653.427	0.0125040
653.505	0.0127701
653.583	0.0130333
653.661	0.0130334
653.739	0.0132449
653.818	0.0135435
653.896	0.0136856
653.974	0.0138548
654.052	0.0141943
654.130	0.0142312
654.208	0.0144797
654.286	0.0145961
654.364	0.0147514
654.443	0.0150196
654.521	0.0150681
654.599	0.0150758
654.677	0.0151897
654.755	0.0152658
654.833	0.0153759
654.911	0.0151682
654.989	0.0151930
655.068	0.0150928
655.146	0.0150249
655.224	0.0149816
655.302	0.0148466
655.380	0.0148653
655.458	0.0146728
655.536	0.0144590
655.614	0.0141963
655.693	0.0139708
655.771	0.0136600
655.849	0.0135015
655.927	0.0132117
656.005	0.0128170
656.083	0.0126130
656.161	0.0124893
656.239	0.0122577
656.318	0.0119402
656.396	0.0120393
656.474	0.0117637
656.552	0.0116412
656.630	0.0115890
656.708	0.0114876
656.786	0.0115952
656.864	0.0114875
656.943	0.0115656
657.021	0.0114755
657.099	0.0115780
657.177	0.0116577
657.255	0.0116457
657.333	0.0118125
657.411	0.0119785
657.489	0.0121101
657.568	0.0123870
657.646	0.0125408
657.724	0.0127618
657.802	0.0131564
657.880	0.0134164
657.958	0.0136668
658.036	0.0140656
658.114	0.0143463
658.193	0.0145961
658.271	0.0148792
658.349	0.0152306
658.427	0.0155825
658.505	0.0156718
658.583	0.0158861
658.661	0.0161014
658.739	0.0160738
658.818	0.0163254
658.896	0.0164180
658.974	0.0163992
659.052	0.0163107
659.130	0.0163622
659.208	0.0161518
659.286	0.0159241
659.364	0.0159165
659.443	0.0156499
659.521	0.0152676
659.599	0.0150889
659.677	0.0149007
659.755	0.0146968
659.833	0.0143904
659.911	0.0138243
659.989	0.0135225
660.068	0.0132324
660.146	0.0128256
660.224	0.0123473
660.302	0.0119543
660.380	0.0115211
660.458	0.0113876
660.536	0.0111286
660.614	0.0108428
660.693	0.0105312
660.771	0.0102602
660.849	0.0103001
660.927	0.0101802
661.005	0.0101373
661.083	0.0102351
661.161	0.0104180
661.239	0.0104548
661.318	0.0105360
661.396	0.0107431
661.474	0.0110335
661.552	0.0114072
661.630	0.0117475
661.708	0.0119992
661.786	0.0123276
661.864	0.0126892
661.943	0.0130830
662.021	0.0135614
662.099	0.0139880
662.177	0.0142767
662.255	0.0146263
662.333	0.0150436
662.411	0.0154849
662.489	0.0156126
662.568	0.0158793
662.646	0.0163258
662.724	0.0164384
662.802	0.0164939
662.880	0.0167246
662.958	0.0166682
663.036	0.0167052
663.114	0.0167542
663.193	0.0166482
663.271	0.0165766
663.349	0.0165143
663.427	0.0163393
663.505	0.0160863
663.583	0.0158104
663.661	0.0156755
663.739	0.0154262
663.818	0.0151628
663.896	0.0147775
663.974	0.0143878
664.052	0.0139750
664.130	0.0138794
664.208	0.0134880
664.286	0.0129973
664.364	0.0126510
664.443	0.0122070
664.521	0.0121188
664.599	0.0117574
664.677	0.0114607
664.755	0.0112828
664.833	0.0109885
664.911	0.0107158
664.989	0.0106501
665.068	0.0104609
665.146	0.0102356
665.224	0.0102216
665.302	0.0103033
665.380	0.0103753
665.458	0.0103896
665.536	0.0104729
665.614	0.0107009
665.693	0.0109086
665.771	0.0110948
665.849	0.0112371
665.927	0.0118339
666.005	0.0119688
666.083	0.0121976
666.161	0.0126183
666.239	0.0130537
666.318	0.0134788
666.396	0.0138197
666.474	0.0140815
666.552	0.0144656
666.630	0.0148669
666.708	0.0150970
666.786	0.0152480
666.864	0.0155128
666.943	0.0157926
667.021	0.0159442
667.099	0.0160801
667.177	0.0162177
667.255	0.0165475
667.333	0.0164148
667.411	0.0164002
667.489	0.0162696
667.568	0.0162468
667.646	0.0161992
667.724	0.0159586
667.802	0.0157587
667.880	0.0155033
667.958	0.0154422
668.036	0.0151660
668.114	0.0149234
668.193	0.0146984
668.271	0.0144589
668.349	0.0141813
668.427	0.0139099
668.505	0.0137252
668.583	0.0136479
668.661	0.0132932
668.739	0.0132081
668.818	0.0130696
668.896	0.0129274
668.974	0.0128494
669.052	0.0125748
669.130	0.0124509
669.208	0.0122370
669.286	0.0123604
669.364	0.0122892
669.443	0.0121649
669.521	0.0121687
669.599	0.0121107
669.677	0.0121948
669.755	0.0120988
669.833	0.0121577
669.911	0.0121544
669.989	0.0122596
670.068	0.0122085
670.146	0.0122331
670.224	0.0124441
670.302	0.0124205
670.380	0.0124788
670.458	0.0125092
670.536	0.0126533
670.614	0.0128194
670.693	0.0129410
670.771	0.0130961
670.849	0.0132845
670.927	0.0132880
671.005	0.0133823
671.083	0.0136152
671.161	0.0138620
671.239	0.0138139
671.318	0.0139319
671.396	0.0140746
671.474	0.0141719
671.552	0.0143273
671.630	0.0142130
671.708	0.0142988
671.786	0.0144028
671.864	0.0145380
671.943	0.0145351
672.021	0.0146456
672.099	0.0144243
672.177	0.0144017
672.255	0.0144698
672.333	0.0143674
672.411	0.0144063
672.489	0.0143513
672.568	0.0141682
672.646	0.0141979
672.724	0.0139704
672.802	0.0139468
672.880	0.0139547
672.958	0.0138079
673.036	0.0138625
673.114	0.0137442
673.193	0.0137218
673.271	0.0136040
673.349	0.0136816
673.427	0.0136283
673.505	0.0136494
673.583	0.0137196
673.661	0.0138023
673.739	0.0139495
673.818	0.0139223
673.896	0.0140150
673.974	0.0141946
674.052	0.0141150
674.130	0.0141219
674.208	0.0141560
674.286	0.0142624
674.364	0.0140498
674.443	0.0140068
674.521	0.0140844
674.599	0.0140489
674.677	0.0139420
674.755	0.0137603
674.833	0.0138039
674.911	0.0136583
674.989	0.0136376
675.068	0.0133302
675.146	0.0131952
675.224	0.0131036
675.302	0.0129790
675.380	0.0127235
675.458	0.0125972
675.536	0.0125252
675.614	0.0122192
675.693	0.0121911
675.771	0.0122923
675.849	0.0121685
675.927	0.0119429
676.005	0.0119292
676.083	0.0119946
676.161	0.0120934
676.239	0.0119810
676.318	0.0120895
676.396	0.0121482
676.474	0.0121564
676.552	0.0123132
676.630	0.0124600
676.708	0.0126147
676.786	0.0126703
676.864	0.0127368
676.943	0.0130563
677.021	0.0130145
677.099	0.0133339
677.177	0.0135657
677.255	0.0138281
677.333	0.0137769
677.411	0.0139707
677.489	0.0141187
677.568	0.0142500
677.646	0.0143468
677.724	0.0145192
677.802	0.0146100
677.880	0.0147398
677.958	0.0148246
678.036	0.0149677
678.114	0.0148827
678.193	0.0151090
678.271	0.0152115
678.349	0.0150426
678.427	0.0151424
678.505	0.0151740
678.583	0.0149940
678.661	0.0149323
678.739	0.0149174
678.818	0.0150711
678.896	0.0150711
678.974	0.0149682
679.052	0.0149725
679.130	0.0148190
679.208	0.0147153
679.286	0.0146168
679.364	0.0145650
679.443	0.0145679
679.521	0.0144733
679.599	0.0142939
679.677	0.0143079
679.755	0.0140000
679.833	0.0139585
679.911	0.0138939
679.989	0.0137470
680.068	0.0134809
680.146	0.0133677
680.224	0.0131164
680.302	0.0128462
680.380	0.0126349
680.458	0.0123380
680.536	0.0120789
680.614	0.0118275
680.693	0.0115850
680.771	0.0113116
680.849	0.0112488
680.927	0.0110248
681.005	0.0109575
681.083	0.0108103
681.161	0.0107626
681.239	0.0107962
681.318	0.0108110
681.396	0.0108548
681.474	0.0111104
681.552	0.0112978
681.630	0.0114344
681.708	0.0115189
681.786	0.0118084
681.864	0.0119257
681.943	0.0123801
682.021	0.0125757
682.099	0.0130125
682.177	0.0131986
682.255	0.0136789
682.333	0.0139889
682.411	0.0144049
682.489	0.0147621
682.568	0.0149171
682.646	0.0153183
682.724	0.0156103
682.802	0.0158614
682.880	0.0161510
682.958	0.0162779
683.036	0.0164219
683.114	0.0165029
683.193	0.0166299
683.271	0.0166952
683.349	0.0165434
683.427	0.0165548
683.505	0.0165421
683.583	0.0164487
683.661	0.0162014
683.739	0.0160251
683.818	0.0157106
683.896	0.0153841
683.974	0.0151053
684.052	0.0148519
684.130	0.0144825
684.208	0.0140578
684.286	0.0138174
684.364	0.0134069
684.443	0.0132635
684.521	0.0130618
684.599	0.0126441
684.677	0.0124977
684.755	0.0123153
684.833	0.0122379
684.911	0.0119512
684.989	0.0120914
685.068	0.0119272
685.146	0.0119492
685.224	0.0120055
685.302	0.0121139
685.380	0.0121722
685.458	0.0121718
685.536	0.0122078
685.614	0.0124991
685.693	0.0124137
685.771	0.0125084
685.849	0.0127066
685.927	0.0128641
686.005	0.0127308
686.083	0.0128754
686.161	0.0128306
686.239	0.0128699
686.318	0.0128702
686.396	0.0129059
686.474	0.0130064
686.552	0.0128904
686.630	0.0129787
686.708	0.0131273
686.786	0.0129680
686.864	0.0130409
686.943	0.0130735
687.021	0.0129456
687.099	0.0129281
687.177	0.0131571
687.255	0.0130551
687.333	0.0132226
687.411	0.0133000
687.489	0.0133721
687.568	0.0135810
687.646	0.0135271
687.724	0.0137049
687.802	0.0138552
687.880	0.0140613
687.958	0.0142649
688.036	0.0143537
688.114	0.0145995
688.193	0.0148310
688.271	0.0149687
688.349	0.0150289
688.427	0.0152466
688.505	0.0153802
688.583	0.0154129
688.661	0.0154784
688.739	0.0155044
688.818	0.0155250
688.896	0.0154150
688.974	0.0152856
689.052	0.0152597
689.130	0.0151763
689.208	0.0149113
689.286	0.0147425
689.364	0.0144585
689.443	0.0142383
689.521	0.0140516
689.599	0.0139147
689.677	0.0136665
689.755	0.0134828
689.833	0.0133195
689.911	0.0131379
689.989	0.0129220
690.068	0.0128049
690.146	0.0126937
690.224	0.0126847
690.302	0.0126334
690.380	0.0125510
690.458	0.0126386
690.536	0.0126389
690.614	0.0129270
690.693	0.0128986
690.771	0.0131500
690.849	0.0131254
690.927	0.0132971
691.005	0.0133091
691.083	0.0132524
691.161	0.0135430
691.239	0.0134951
691.318	0.0135665
691.396	0.0136562
691.474	0.0135738
691.552	0.0135345
691.630	0.0135469
691.708	0.0135088
691.786	0.0135641
691.864	0.0134299
691.943	0.0133530
692.021	0.0132127
692.099	0.0132970
692.177	0.0132979
692.255	0.0132413
692.333	0.0130679
692.411	0.0131321
692.489	0.0129429
692.568	0.0131094
692.646	0.0129927
692.724	0.0130828
692.802	0.0130659
692.880	0.0129775
692.958	0.0131065
693.036	0.0131465
693.114	0.0131309
693.193	0.0131232
693.271	0.0134130
693.349	0.0134850
693.427	0.0134991
693.505	0.0136616
693.583	0.0135751
693.661	0.0137334
693.739	0.0139276
693.818	0.0139123
693.896	0.0141239
693.974	0.0143084
694.052	0.0144266
694.130	0.0145780
694.208	0.0145919
694.286	0.0147560
694.364	0.0148682
694.443	0.0148743
694.521	0.0148224
694.599	0.0148321
694.677	0.0149770
694.755	0.0148055
694.833	0.0146606
694.911	0.0148563
694.989	0.0146188
695.068	0.0143682
695.146	0.0142262
695.224	0.0139773
695.302	0.0137408
695.380	0.0137537
695.458	0.0137186
695.536	0.0136570
695.614	0.0134993
695.693	0.0133023
695.771	0.0132072
695.849	0.0130786
695.927	0.0128880
696.005	0.0130076
696.083	0.0128485
696.161	0.0129324
696.239	0.0127777
696.318	0.0128008
696.396	0.0129492
696.474	0.0129475
696.552	0.0130581
696.630	0.0130537
696.708	0.0130108
696.786	0.0131121
696.864	0.0133924
696.943	0.0134473
697.021	0.0134625
697.099	0.0132894
697.177	0.0136308
697.255	0.0134716
697.333	0.0136746
697.411	0.0138345
697.489	0.0137473
697.568	0.0138028
697.646	0.0140208
697.724	0.0138726
697.802	0.0139460
697.880	0.0141547
697.958	0.0140547
698.036	0.0139764
698.114	0.0137791
698.193	0.0139185
698.271	0.0138466
698.349	0.0137941
698.427	0.0136797
698.505	0.0136945
698.583	0.0135486
698.661	0.0134069
698.739	0.0132888
698.818	0.0130637
698.896	0.0132571
698.974	0.0130035
699.052	0.0127563
699.130	0.0126444
699.208	0.0127534
699.286	0.0127096
699.364	0.0125916
699.443	0.0126781
699.521	0.0125448
699.599	0.0126141
699.677	0.0126996
699.755	0.0129186
699.833	0.0129814
699.911	0.0132794
699.989	0.0133165
700.068	0.0133529
700.146	0.0137164
700.224	0.0138221
700.302	0.0141569
700.380	0.0144355
700.458	0.0144781
700.536	0.0146441
700.614	0.0148861
700.693	0.0150767
700.771	0.0150842
700.849	0.0152383
700.927	0.0152373
701.005	0.0153527
701.083	0.0152258
701.161	0.0152375
701.239	0.0153458
701.318	0.0152285
701.396	0.0153119
701.474	0.0152499
701.552	0.0150712
701.630	0.0147569
701.708	0.0146480
701.786	0.0145751
701.864	0.0143275
701.943	0.0142939
702.021	0.0140455
702.099	0.0138843
702.177	0.0136771
702.255	0.0135234
702.333	0.0132999
702.411	0.0132337
702.489	0.0130343
702.568	0.0129002
702.646	0.0127589
702.724	0.0127422
702.802	0.0127102
702.880	0.0126052
702.958	0.0125492
703.036	0.0126469
703.114	0.0126302
703.193	0.0125784
703.271	0.0125680
703.349	0.0126177
703.427	0.0127077
703.505	0.0125505
703.583	0.0127822
703.661	0.0128376
703.739	0.0128349
703.818	0.0129996
703.896	0.0130803
703.974	0.0130728
704.052	0.0132667
704.130	0.0132261
704.208	0.0133212
704.286	0.0134686
704.364	0.0135400
704.443	0.0134554
704.521	0.0133886
704.599	0.0133717
704.677	0.0132940
704.755	0.0133015
704.833	0.0132826
704.911	0.0135265
704.989	0.0134104
705.068	0.0133440
705.146	0.0132780
705.224	0.0134657
705.302	0.0134824
705.380	0.0136215
705.458	0.0137804
705.536	0.0138309
705.614	0.0140009
705.693	0.0139509
705.771	0.0140089
705.849	0.0142059
705.927	0.0143641
706.005	0.0142966
706.083	0.0145427
706.161	0.0145860
706.239	0.0146900
706.318	0.0146939
706.396	0.0146091
706.474	0.0146252
706.552	0.0144751
706.630	0.0146011
706.708	0.0144854
706.786	0.0145044
706.864	0.0142944
706.943	0.0141193
707.021	0.0141188
707.099	0.0141299
707.177	0.0140602
707.255	0.0140112
707.333	0.0138862
707.411	0.0136510
707.489	0.0136135
707.568	0.0136838
707.646	0.0135663
707.724	0.0134826
707.802	0.0132231
707.880	0.0132050
707.958	0.0131482
708.036	0.0130508
708.114	0.0129050
708.193	0.0128951
708.271	0.0128139
708.349	0.0126163
708.427	0.0126235
708.505	0.0126427
708.583	0.0126503
708.661	0.0126015
708.739	0.0126100
708.818	0.0126002
708.896	0.0126316
708.974	0.0126806
709.052	0.0127237
709.130	0.0128052
709.208	0.0129533
709.286	0.0130504
709.364	0.0131232
709.443	0.0131246
709.521	0.0134015
709.599	0.0135246
709.677	0.0136147
709.755	0.0137899
709.833	0.0137886
709.911	0.0139201
709.989	0.0139627
710.068	0.0140657
710.146	0.0142458
710.224	0.0142094
710.302	0.0141817
710.380	0.0141382
710.458	0.0143013
710.536	0.0142115
710.614	0.0141736
710.693	0.0141780
710.771	0.0141628
710.849	0.0141656
710.927	0.0141685
711.005	0.0141988
711.083	0.0140842
711.161	0.0139679
711.239	0.0139663
711.318	0.0138238
711.396	0.0137123
711.474	0.0137314
711.552	0.0136790
711.630	0.0137168
711.708	0.0136411
711.786	0.0134036
711.864	0.0134122
711.943	0.0133119
712.021	0.0133291
712.099	0.0132751
712.177	0.0133400
712.255	0.0132884
712.333	0.0132531
712.411	0.0132611
712.489	0.0133640
712.568	0.0134386
712.646	0.0134223
712.724	0.0134838
712.802	0.0135976
712.880	0.0137209
712.958	0.0138096
713.036	0.0139021
713.114	0.0139777
713.193	0.0141050
713.271	0.0142532
713.349	0.0142944
713.427	0.0144508
713.505	0.0144234
713.583	0.0145390
713.661	0.0145839
713.739	0.0145457
713.818	0.0145326
713.896	0.0146088
713.974	0.0145734
714.052	0.0146959
714.130	0.0145693
714.208	0.0143270
714.286	0.0141366
714.364	0.0141603
714.443	0.0140485
714.521	0.0139539
714.599	0.0137236
714.677	0.0136047
714.755	0.0134940
714.833	0.0132916
714.911	0.0131360
714.989	0.0129597
715.068	0.0128114
715.146	0.0126792
715.224	0.0127276
715.302	0.0127321
715.380	0.0124153
715.458	0.0124658
715.536	0.0126572
715.614	0.0125074
715.693	0.0126709
715.771	0.0126944
715.849	0.0128016
715.927	0.0127486
716.005	0.0130184
716.083	0.0132352
716.161	0.0133971
716.239	0.0133502
716.318	0.0134687
716.396	0.0137479
716.474	0.0137170
716.552	0.0139017
716.630	0.0139844
716.708	0.0138963
716.786	0.0140952
716.864	0.0141630
716.943	0.0142486
717.021	0.0141222
717.099	0.0141592
717.177	0.0141983
717.255	0.0141898
717.333	0.0141812
717.411	0.0140698
717.489	0.0140337
717.568	0.0139829
717.646	0.0137998
717.724	0.0138937
717.802	0.0138096
717.880	0.0135680
717.958	0.0135361
718.036	0.0136168
718.114	0.0136682
718.193	0.0135730
718.271	0.0136494
718.349	0.0136320
718.427	0.0135007
718.505	0.0134675
718.583	0.0136246
718.661	0.0137405
718.739	0.0136366
718.818	0.0137444
718.896	0.0137704
718.974	0.0137881
719.052	0.0139220
719.130	0.0139106
719.208	0.0139125
719.286	0.0140624
719.364	0.0138903
719.443	0.0141433
719.521	0.0141252
719.599	0.0141399
719.677	0.0139064
719.755	0.0140458
719.833	0.0139922
719.911	0.0138419
719.989	0.0137883
720.068	0.0136934
720.146	0.0136907
720.224	0.0137444
720.302	0.0136030
720.380	0.0135897
720.458	0.0134509
720.536	0.0136093
720.614	0.0134431
720.693	0.0134244
720.771	0.0133077
720.849	0.0132528
720.927	0.0132578
721.005	0.0133939
721.083	0.0131155
721.161	0.0132415
721.239	0.0132085
721.318	0.0130705
721.396	0.0131753
721.474	0.0130834
721.552	0.0130981
721.630	0.0130438
721.708	0.0130160
721.786	0.0130229
721.864	0.0129243
721.943	0.0129771
722.021	0.0129905
722.099	0.0129758
722.177	0.0132146
722.255	0.0130944
722.333	0.0131027
722.411	0.0133231
722.489	0.0133449
722.568	0.0134018
722.646	0.0132811
722.724	0.0135222
722.802	0.0137351
722.880	0.0135786
722.958	0.0137985
723.036	0.0137682
723.114	0.0136093
723.193	0.0135224
723.271	0.0137117
723.349	0.0138506
723.427	0.0136063
723.505	0.0136530
723.583	0.0136306
723.661	0.0136591
723.739	0.0135939
723.818	0.0136595
723.896	0.0137629
723.974	0.0134773
724.052	0.0135945
724.130	0.0135258
724.208	0.0135445
724.286	0.0135915
724.364	0.0136267
724.443	0.0135062
724.521	0.0135881
724.599	0.0135978
724.677	0.0137510
724.755	0.0135791
724.833	0.0137700
724.911	0.0139145
724.989	0.0138767
725.068	0.0138420
725.146	0.0138251
725.224	0.0138109
725.302	0.0140053
725.380	0.0140048
725.458	0.0140574
725.536	0.0140021
725.614	0.0140358
725.693	0.0138970
725.771	0.0139904
725.849	0.0139478
725.927	0.0139799
726.005	0.0139810
726.083	0.0140255
726.161	0.0138817
726.239	0.0139487
726.318	0.0137802
726.396	0.0137066
726.474	0.0136794
726.552	0.0137128
726.630	0.0135767
726.708	0.0136651
726.786	0.0135073
726.864	0.0134332
726.943	0.0133809
727.021	0.0132443
727.099	0.0131026
727.177	0.0129352
727.255	0.0130080
727.333	0.0129329
727.411	0.0128060
727.489	0.0128343
727.568	0.0129687
727.646	0.0127484
727.724	0.0128331
727.802	0.0129562
727.880	0.0128947
727.958	0.0130462
728.036	0.0129739
728.114	0.0131132
728.193	0.0131517
728.271	0.0133131
728.349	0.0134659
728.427	0.0132993
728.505	0.0135656
728.583	0.0137555
728.661	0.0136478
728.739	0.0140149
728.818	0.0137625
728.896	0.0140967
728.974	0.0142078
729.052	0.0141350
729.130	0.0142735
729.208	0.0141683
729.286	0.0141922
729.364	0.0142126
729.443	0.0143520
729.521	0.0143234
729.599	0.0141595
729.677	0.0140992
729.755	0.0142047
729.833	0.0142322
729.911	0.0141615
729.989	0.0139854
730.068	0.0140241
730.146	0.0139585
730.224	0.0139429
730.302	0.0138027
730.380	0.0137386
730.458	0.0139169
730.536	0.0139028
730.614	0.0137614
730.693	0.0136959
730.771	0.0137949
730.849	0.0136520
730.927	0.0136856
731.005	0.0136098
731.083	0.0134406
731.161	0.0136501
731.239	0.0137798
731.318	0.0136703
731.396	0.0136570
731.474	0.0136207
731.552	0.0136915
731.630	0.0136940
731.708	0.0138425
731.786	0.0138029
731.864	0.0138071
731.943	0.0139001
732.021	0.0137878
732.099	0.0137714
732.177	0.0138673
732.255	0.0138950
732.333	0.0137435
732.411	0.0137284
732.489	0.0137927
732.568	0.0137324
732.646	0.0136817
732.724	0.0136432
732.802	0.0137267
732.880	0.0135775
732.958	0.0136221
733.036	0.0134943
733.114	0.0136045
733.193	0.0134645
733.271	0.0136261
733.349	0.0134869
733.427	0.0134412
733.505	0.0134366
733.583	0.0134682
733.661	0.0134293
733.739	0.0134972
733.818	0.0134883
733.896	0.0133232
733.974	0.0133360
734.052	0.0133437
734.130	0.0133609
734.208	0.0133196
734.286	0.0133424
734.364	0.0133255
734.443	0.0131673
734.521	0.0132478
734.599	0.0131651
734.677	0.0132616
734.755	0.0131039
734.833	0.0132774
734.911	0.0131841
734.989	0.0133401
735.068	0.0134128
735.146	0.0134993
735.224	0.0134535
735.302	0.0135970
735.380	0.0136951
735.458	0.0136644
735.536	0.0136763
735.614	0.0139140
735.693	0.0139279
735.771	0.0139190
735.849	0.0139481
735.927	0.0138807
736.005	0.0140767
736.083	0.0141001
736.161	0.0141648
736.239	0.0140887
736.318	0.0140041
736.396	0.0139513
736.474	0.0140086
736.552	0.0139812
736.630	0.0140351
736.708	0.0138358
736.786	0.0138556
736.864	0.0137112
736.943	0.0137717
737.021	0.0135952
737.099	0.0136746
737.177	0.0135822
737.255	0.0134898
737.333	0.0133954
737.411	0.0133298
737.489	0.0133406
737.568	0.0133227
737.646	0.0132508
737.724	0.0133583
737.802	0.0132967
737.880	0.0133427
737.958	0.0130771
738.036	0.0132829
738.114	0.0132674
738.193	0.0131445
738.271	0.0132198
738.349	0.0133513
738.427	0.0132577
738.505	0.0132462
738.583	0.0133250
738.661	0.0133818
738.739	0.0134583
738.818	0.0134981
738.896	0.0135897
738.974	0.0135927
739.052	0.0135740
739.130	0.0136591
739.208	0.0136828
739.286	0.0136932
739.364	0.0137112
739.443	0.0136880
739.521	0.0136872
739.599	0.0137197
739.677	0.0137222
739.755	0.0137262
739.833	0.0136469
739.911	0.0136815
739.989	0.0137067
740.068	0.0135611
740.146	0.0136342
740.224	0.0136393
740.302	0.0136063
740.380	0.0134313
740.458	0.0134361
740.536	0.0134512
740.614	0.0134317
740.693	0.0133939
740.771	0.0132443
740.849	0.0133644
740.927	0.0132195
741.005	0.0131737
741.083	0.0132963
741.161	0.0133432
741.239	0.0132495
741.318	0.0133000
741.396	0.0132742
741.474	0.0132738
741.552	0.0134825
741.630	0.0133730
741.708	0.0133639
741.786	0.0134799
741.864	0.0136105
741.943	0.0135465
742.021	0.0136456
742.099	0.0135249
742.177	0.0135364
742.255	0.0136802
742.333	0.0136095
742.411	0.0137311
742.489	0.0138456
742.568	0.0137100
742.646	0.0138011
742.724	0.0139108
742.802	0.0140083
742.880	0.0138326
742.958	0.0137973
743.036	0.0139112
743.114	0.0138422
743.193	0.0138056
743.271	0.0138972
743.349	0.0138881
743.427	0.0137437
743.505	0.0136346
743.583	0.0137002
743.661	0.0137884
743.739	0.0136723
743.818	0.0136292
743.896	0.0134545
743.974	0.0135830
744.052	0.0135035
744.130	0.0135210
744.208	0.0135629
744.286	0.0134979
744.364	0.0134579
744.443	0.0135861
744.521	0.0134952
744.599	0.0132122
744.677	0.0132256
744.755	0.0133266
744.833	0.0132870
744.911	0.0131864
744.989	0.0131757
745.068	0.0130805
745.146	0.0131953
745.224	0.0130695
745.302	0.0131410
745.380	0.0131613
745.458	0.0131207
745.536	0.0132137
745.614	0.0131500
745.693	0.0130912
745.771	0.0130405
745.849	0.0132090
745.927	0.0133088
746.005	0.0132529
746.083	0.0133717
746.161	0.0133004
746.239	0.0134022
746.318	0.0136637
746.396	0.0135973
746.474	0.0135548
746.552	0.0135725
746.630	0.0137265
746.708	0.0137538
746.786	0.0137440
746.864	0.0137985
746.943	0.0137743
747.021	0.0139610
747.099	0.0138570
747.177	0.0137600
747.255	0.0138955
747.333	0.0139310
747.411	0.0138670
747.489	0.0138270
747.568	0.0137758
747.646	0.0137553
747.724	0.0135759
747.802	0.0137056
747.880	0.0138032
747.958	0.0135405
748.036	0.0135491
748.114	0.0135435
748.193	0.0136250
748.271	0.0134624
748.349	0.0133954
748.427	0.0133783
748.505	0.0134282
748.583	0.0134921
748.661	0.0133745
748.739	0.0134565
748.818	0.0134279
748.896	0.0133721
748.974	0.0133527
749.052	0.0134766
749.130	0.0132708
749.208	0.0132749
749.286	0.0132960
749.364	0.0133102
749.443	0.0134615
749.521	0.0134547
749.599	0.0133459
749.677	0.0134106
749.755	0.0134023
749.833	0.0133665
749.911	0.0134227
749.989	0.0133812
750.068	0.0135051
750.146	0.0134684
750.224	0.0133387
750.302	0.0135388
750.380	0.0135424
750.458	0.0135568
750.536	0.0135856
750.614	0.0136973
750.693	0.0136529
750.771	0.0136575
750.849	0.0138580
750.927	0.0136770
751.005	0.0137942
751.083	0.0137590
751.161	0.0136822
751.239	0.0136413
751.318	0.0136790
751.396	0.0137628
751.474	0.0138383
751.552	0.0139036
751.630	0.0137684
751.708	0.0137384
751.786	0.0135545
751.864	0.0136218
751.943	0.0136987
752.021	0.0136690
752.099	0.0136449
752.177	0.0137975
752.255	0.0137106
752.333	0.0138014
752.411	0.0136396
752.489	0.0136697
752.568	0.0137234
752.646	0.0136325
752.724	0.0137402
752.802	0.0136273
752.880	0.0136109
752.958	0.0136320
753.036	0.0136456
753.114	0.0134779
753.193	0.0134174
753.271	0.0133348
753.349	0.0132902
753.427	0.0132729
753.505	0.0132659
753.583	0.0131596
753.661	0.0131298
753.739	0.0131353
753.818	0.0132807
753.896	0.0132047
753.974	0.0132043
754.052	0.0131417
754.130	0.0130158
754.208	0.0132488
754.286	0.0132122
754.364	0.0133607
754.443	0.0132918
754.521	0.0132380
754.599	0.0132586
754.677	0.0133396
754.755	0.0135057
754.833	0.0135204
754.911	0.0135299
754.989	0.0135515
755.068	0.0135809
755.146	0.0136484
755.224	0.0136985
755.302	0.0137197
755.380	0.0137868
755.458	0.0136926
755.536	0.0138105
755.614	0.0139000
755.693	0.0141173
755.771	0.0140331
755.849	0.0141172
755.927	0.0140484
756.005	0.0140997
756.083	0.0142506
756.161	0.0142174
756.239	0.0141358
756.318	0.0140271
756.396	0.0141766
756.474	0.0142100
756.552	0.0139534
756.630	0.0140105
756.708	0.0139684
756.786	0.0136993
756.864	0.0135718
756.943	0.0136855
757.021	0.0136201
757.099	0.0133766
757.177	0.0134993
757.255	0.0132608
757.333	0.0132647
757.411	0.0131434
757.489	0.0130991
757.568	0.0129957
757.646	0.0130269
757.724	0.0128547
757.802	0.0128245
757.880	0.0130830
757.958	0.0129396
758.036	0.0129736
758.114	0.0130296
758.193	0.0131681
758.271	0.0131573
758.349	0.0132124
758.427	0.0131284
758.505	0.0132854
758.583	0.0132793
758.661	0.0133665
758.739	0.0134021
758.818	0.0134724
758.896	0.0134607
758.974	0.0135410
759.052	0.0135748
759.130	0.0136615
759.208	0.0136783
759.286	0.0136877
759.364	0.0138345
759.443	0.0138075
759.521	0.0139211
759.599	0.0139313
759.677	0.0139735
759.755	0.0137982
759.833	0.0139006
759.911	0.0139984
759.989	0.0139586
760.068	0.0138393
760.146	0.0139380
760.224	0.0139512
760.302	0.0138512
760.380	0.0139001
760.458	0.0137798
760.536	0.0136797
760.614	0.0136836
760.693	0.0135152
760.771	0.0134789
760.849	0.0134600
760.927	0.0135324
761.005	0.0134438
761.083	0.0135564
761.161	0.0132857
761.239	0.0133414
761.318	0.0132697
761.396	0.0132542
761.474	0.0133746
761.552	0.0133304
761.630	0.0132822
761.708	0.0132574
761.786	0.0133591
761.864	0.0133652
761.943	0.0133118
762.021	0.0134330
762.099	0.0133138
762.177	0.0132880
762.255	0.0134117
762.333	0.0133816
762.411	0.0133499
762.489	0.0136842
762.568	0.0135685
762.646	0.0134485
762.724	0.0135484
762.802	0.0135294
762.880	0.0136548
762.958	0.0137278
763.036	0.0136888
763.114	0.0136371
763.193	0.0137553
763.271	0.0138602
763.349	0.0136780
763.427	0.0137786
763.505	0.0136983
763.583	0.0138189
763.661	0.0137304
763.739	0.0137514
763.818	0.0138235
763.896	0.0138006
763.974	0.0137224
764.052	0.0136383
764.130	0.0136248
764.208	0.0136726
764.286	0.0136491
764.364	0.0135755
764.443	0.0136765
764.521	0.0135961
764.599	0.0136443
764.677	0.0135796
764.755	0.0137184
764.833	0.0134120
764.911	0.0135103
764.989	0.0136378
765.068	0.0134465
765.146	0.0133891
765.224	0.0134470
765.302	0.0135498
765.380	0.0133704
765.458	0.0134476
765.536	0.0133097
765.614	0.0134846
765.693	0.0134322
765.771	0.0133665
765.849	0.0133543
765.927	0.0134370
766.005	0.0133701
766.083	0.0132849
766.161	0.0131801
766.239	0.0132960
766.318	0.0132330
766.396	0.0132558
766.474	0.0132220
766.552	0.0133988
766.630	0.0132315
766.708	0.0132599
766.786	0.0134547
766.864	0.0134383
766.943	0.0133069
767.021	0.0132165
767.099	0.0133451
767.177	0.0133667
767.255	0.0133860
767.333	0.0133961
767.411	0.0132846
767.489	0.0134103
767.568	0.0134381
767.646	0.0134101
767.724	0.0133985
767.802	0.0135474
767.880	0.0137189
767.958	0.0134584
768.036	0.0135005
768.114	0.0135329
768.193	0.0135571
768.271	0.0137160
768.349	0.0137058
768.427	0.0136309
768.505	0.0137448
768.583	0.0137785
768.661	0.0136214
768.739	0.0137611
768.818	0.0137901
768.896	0.0139129
768.974	0.0139297
769.052	0.0140012
769.130	0.0138305
769.208	0.0139221
769.286	0.0139471
769.364	0.0138638
769.443	0.0139030
769.521	0.0139357
769.599	0.0139354
769.677	0.0139378
769.755	0.0140323
769.833	0.0139226
769.911	0.0138376
769.989	0.0138957
770.068	0.0137708
770.146	0.0137376
770.224	0.0136992
770.302	0.0137074
770.380	0.0136560
770.458	0.0137517
770.536	0.0136624
770.614	0.0136993
770.693	0.0136836
770.771	0.0137698
770.849	0.0136861
770.927	0.0135605
771.005	0.0136929
771.083	0.0135515
771.161	0.0135622
771.239	0.0134403
771.318	0.0136787
771.396	0.0136758
771.474	0.0133913
771.552	0.0136438
771.630	0.0135527
771.708	0.0134426
771.786	0.0135830
771.864	0.0134095
771.943	0.0135641
772.021	0.0134174
772.099	0.0132611
772.177	0.0133630
772.255	0.0132939
772.333	0.0133656
772.411	0.0132613
772.489	0.0133572
772.568	0.0133053
772.646	0.0132388
772.724	0.0133498
772.802	0.0133174
772.880	0.0132191
772.958	0.0132545
773.036	0.0131434
773.114	0.0132921
773.193	0.0132490
773.271	0.0132583
773.349	0.0134080
773.427	0.0133281
773.505	0.0133404
773.583	0.0132542
773.661	0.0133168
773.739	0.0133536
773.818	0.0134012
773.896	0.0132551
773.974	0.0133428
774.052	0.0133614
774.130	0.0134047
774.208	0.0134647
774.286	0.0134983
774.364	0.0135130
774.443	0.0134995
774.521	0.0135831
774.599	0.0136184
774.677	0.0136124
774.755	0.0136943
774.833	0.0136034
774.911	0.0138196
774.989	0.0139540
775.068	0.0137823
775.146	0.0138433
775.224	0.0139945
775.302	0.0141011
775.380	0.0140744
775.458	0.0141184
775.536	0.0140546
775.614	0.0141338
775.693	0.0142580
775.771	0.0141449
775.849	0.0141726
775.927	0.0142972
776.005	0.0142709
776.083	0.0143459
776.161	0.0142401
776.239	0.0142120
776.318	0.0140675
776.396	0.0139649
776.474	0.0139070
776.552	0.0137922
776.630	0.0139169
776.708	0.0137487
776.786	0.0137815
776.864	0.0137384
776.943	0.0136280
777.021	0.0135072
777.099	0.0134675
777.177	0.0134536
777.255	0.0133957
777.333	0.0132605
777.411	0.0134760
777.489	0.0132436
777.568	0.0133073
777.646	0.0132349
777.724	0.0132213
777.802	0.0131643
777.880	0.0129936
777.958	0.0128908
778.036	0.0130726
778.114	0.0130559
778.193	0.0129438
778.271	0.0130766
778.349	0.0130341
778.427	0.0130109
778.505	0.0131589
778.583	0.0130270
778.661	0.0131942
778.739	0.0133646
778.818	0.0133205
778.896	0.0132755
778.974	0.0133927
779.052	0.0134747
779.130	0.0136136
779.208	0.0136250
779.286	0.0137431
779.364	0.0136370
779.443	0.0137473
779.521	0.0137827
779.599	0.0139653
779.677	0.0140122
779.755	0.0140572
779.833	0.0140937
779.911	0.0141774
779.989	0.0141010
780.068	0.0140257
780.146	0.0140993
780.224	0.0141685
780.302	0.0141071
780.380	0.0141864
780.458	0.0141579
780.536	0.0141199
780.614	0.0140437
780.693	0.0140428
780.771	0.0139822
780.849	0.0140583
780.927	0.0140468
781.005	0.0138469
781.083	0.0138116
781.161	0.0137609
781.239	0.0136412
781.318	0.0137550
781.396	0.0136398
781.474	0.0135722
781.552	0.0136208
781.630	0.0135147
781.708	0.0135805
781.786	0.0135461
781.864	0.0134706
781.943	0.0136028
782.021	0.0135342
782.099	0.0133908
782.177	0.0133847
782.255	0.0135159
782.333	0.0133167
782.411	0.0134232
782.489	0.0134542
782.568	0.0135403
782.646	0.0135475
782.724	0.0133711
782.802	0.0135322
782.880	0.0134010
782.958	0.0133646
783.036	0.0134187
783.114	0.0135098
783.193	0.0135986
783.271	0.0135872
783.349	0.0135213
783.427	0.0136372
783.505	0.0134299
783.583	0.0135671
783.661	0.0135117
783.739	0.0135443
783.818	0.0136311
783.896	0.0135233
783.974	0.0135919
784.052	0.0136236
784.130	0.0135273
784.208	0.0137080
784.286	0.0138036
784.364	0.0136784
784.443	0.0136759
784.521	0.0136794
784.599	0.0136909
784.677	0.0137755
784.755	0.0137508
784.833	0.0138743
784.911	0.0138288
784.989	0.0139078
785.068	0.0139133
785.146	0.0139114
785.224	0.0139613
785.302	0.0139771
785.380	0.0139147
785.458	0.0139157
785.536	0.0139410
785.614	0.0139086
785.693	0.0139207
785.771	0.0138725
785.849	0.0138542
785.927	0.0137790
786.005	0.0136935
786.083	0.0138635
786.161	0.0138779
786.239	0.0137860
786.318	0.0136308
786.396	0.0136943
786.474	0.0137826
786.552	0.0138306
786.630	0.0136629
786.708	0.0136042
786.786	0.0135347
786.864	0.0137137
786.943	0.0136017
787.021	0.0135048
787.099	0.0134284
787.177	0.0133564
787.255	0.0132817
787.333	0.0133871
787.411	0.0133511
787.489	0.0131548
787.568	0.0131741
787.646	0.0131088
787.724	0.0131650
787.802	0.0132169
787.880	0.0131148
787.958	0.0131946
788.036	0.0133537
788.114	0.0133677
788.193	0.0134856
788.271	0.0132631
788.349	0.0132458
788.427	0.0133914
788.505	0.0134399
788.583	0.0133037
788.661	0.0133742
788.739	0.0134982
788.818	0.0132619
788.896	0.0135510
788.974	0.0135819
789.052	0.0135535
789.130	0.0135175
789.208	0.0134435
789.286	0.0135523
789.364	0.0134782
789.443	0.0135725
789.521	0.0136095
789.599	0.0135378
789.677	0.0135545
789.755	0.0134014
789.833	0.0134554
789.911	0.0135783
789.989	0.0135950
790.068	0.0134471
790.146	0.0134318
790.224	0.0136300
790.302	0.0136118
790.380	0.0136440
790.458	0.0135761
790.536	0.0136536
790.614	0.0136030
790.693	0.0136937
790.771	0.0137088
790.849	0.0138388
790.927	0.0138064
791.005	0.0138600
791.083	0.0138339
791.161	0.0139473
791.239	0.0138882
791.318	0.0139163
791.396	0.0139732
791.474	0.0138891
791.552	0.0139307
791.630	0.0139839
791.708	0.0138097
791.786	0.0139270
791.864	0.0138351
791.943	0.0138104
792.021	0.0138843
792.099	0.0138969
792.177	0.0139415
792.255	0.0139634
792.333	0.0137688
792.411	0.0136964
792.489	0.0138348
792.568	0.0137716
792.646	0.0136211
792.724	0.0136957
792.802	0.0136544
792.880	0.0134364
792.958	0.0134328
793.036	0.0133779
793.114	0.0135182
793.193	0.0132504
793.271	0.0135244
793.349	0.0134064
793.427	0.0134306
793.505	0.0135208
793.583	0.0134955
793.661	0.0134934
793.739	0.0135099
793.818	0.0135801
793.896	0.0136243
793.974	0.0138298
794.052	0.0137331
794.130	0.0136131
794.208	0.0138023
794.286	0.0137203
794.364	0.0135687
794.443	0.0136845
794.521	0.0137401
794.599	0.0137138
794.677	0.0135176
794.755	0.0136129
794.833	0.0136903
794.911	0.0136113
794.989	0.0138252
795.068	0.0136266
795.146	0.0137428
795.224	0.0138997
795.302	0.0136090
795.380	0.0136409
795.458	0.0138174
795.536	0.0136952
795.614	0.0136716
795.693	0.0136754
795.771	0.0136837
795.849	0.0136747
795.927	0.0136000
796.005	0.0136471
796.083	0.0134954
796.161	0.0136382
796.239	0.0136380
796.318	0.0136051
796.396	0.0136660
796.474	0.0136220
796.552	0.0136397
796.630	0.0137156
796.708	0.0137238
796.786	0.0138162
796.864	0.0137865
796.943	0.0137229
797.021	0.0137537
797.099	0.0138163
797.177	0.0138548
797.255	0.0138931
797.333	0.0139594
797.411	0.0139444
797.489	0.0139406
797.568	0.0138950
797.646	0.0139299
797.724	0.0138731
797.802	0.0138116
797.880	0.0137785
797.958	0.0138263
798.036	0.0139185
798.114	0.0138971
798.193	0.0137615
798.271	0.0136872
798.349	0.0135161
798.427	0.0134805
798.505	0.0136754
798.583	0.0134182
798.661	0.0133408
798.739	0.0134691
798.818	0.0134184
798.896	0.0133481
798.974	0.0133125
799.052	0.0132872
799.130	0.0133578
799.208	0.0132928
799.286	0.0132882
799.364	0.0132028
799.443	0.0133007
799.521	0.0134803
799.599	0.0134727
799.677	0.0133922
799.755	0.0134892
799.833	0.0135405
799.911	0.0135305
799.989	0.0135638
800.068	0.0135252
800.146	0.0134415
800.224	0.0136976
800.302	0.0135667
800.380	0.0136955
800.458	0.0138319
800.536	0.0136910
800.614	0.0136900
800.693	0.0136553
800.771	0.0138236
800.849	0.0137885
800.927	0.0137115
801.005	0.0137916
801.083	0.0138733
801.161	0.0138201
801.239	0.0137658
801.318	0.0136398
801.396	0.0136008
801.474	0.0134953
801.552	0.0134949
801.630	0.0136317
801.708	0.0135651
801.786	0.0135389
801.864	0.0135036
801.943	0.0134624
802.021	0.0135822
802.099	0.0135422
802.177	0.0135572
802.255	0.0136038
802.333	0.0136214
802.411	0.0136040
802.489	0.0134850
802.568	0.0137447
802.646	0.0137072
802.724	0.0136738
802.802	0.0138166
802.880	0.0136067
802.958	0.0136162
803.036	0.0137621
803.114	0.0136417
803.193	0.0137625
803.271	0.0136960
803.349	0.0137130
803.427	0.0135745
803.505	0.0136420
803.583	0.0136721
803.661	0.0135272
803.739	0.0136008
803.818	0.0136087
803.896	0.0135443
803.974	0.0136077
804.052	0.0135214
804.130	0.0136921
804.208	0.0135786
804.286	0.0135065
804.364	0.0135030
804.443	0.0135406
804.521	0.0134284
804.599	0.0134286
804.677	0.0134315
804.755	0.0133966
804.833	0.0133461
804.911	0.0134737
804.989	0.0132924
805.068	0.0132112
805.146	0.0132187
805.224	0.0132369
805.302	0.0133562
805.380	0.0134121
805.458	0.0134574
805.536	0.0134732
805.614	0.0134861
805.693	0.0135471
805.771	0.0135661
805.849	0.0136337
805.927	0.0137870
806.005	0.0137648
806.083	0.0138257
806.161	0.0138294
806.239	0.0138118
806.318	0.0137051
806.396	0.0137326
806.474	0.0138384
806.552	0.0137868
806.630	0.0137101
806.708	0.0138440
806.786	0.0137608
806.864	0.0137571
806.943	0.0136573
807.021	0.0138243
807.099	0.0135974
807.177	0.0135500
807.255	0.0137410
807.333	0.0137907
807.411	0.0136645
807.489	0.0136709
807.568	0.0136615
807.646	0.0136172
807.724	0.0135381
807.802	0.0135605
807.880	0.0136092
807.958	0.0134782
808.036	0.0134392
808.114	0.0135161
808.193	0.0134723
808.271	0.0132781
808.349	0.0133434
808.427	0.0134892
808.505	0.0135107
808.583	0.0134251
808.661	0.0133917
808.739	0.0135316
808.818	0.0134675
808.896	0.0135253
808.974	0.0135721
809.052	0.0136588
809.130	0.0136353
809.208	0.0135883
809.286	0.0136527
809.364	0.0136642
809.443	0.0137141
809.521	0.0138620
809.599	0.0137473
809.677	0.0136378
809.755	0.0137909
809.833	0.0138345
809.911	0.0138735
809.989	0.0138567
810.068	0.0138575
810.146	0.0139799
810.224	0.0138688
810.302	0.0139442
810.380	0.0139223
810.458	0.0139585
810.536	0.0138918
810.614	0.0137708
810.693	0.0137765
810.771	0.0139545
810.849	0.0138630
810.927	0.0138332
811.005	0.0138396
811.083	0.0137737
811.161	0.0135900
811.239	0.0136153
811.318	0.0136645
811.396	0.0134684
811.474	0.0135252
811.552	0.0134315
811.630	0.0134001
811.708	0.0133523
811.786	0.0134605
811.864	0.0132757
811.943	0.0134339
812.021	0.0133772
812.099	0.0134547
812.177	0.0135493
812.255	0.0134518
812.333	0.0134086
812.411	0.0135168
812.489	0.0136253
812.568	0.0136287
812.646	0.0136346
812.724	0.0136337
812.802	0.0137354
812.880	0.0138692
812.958	0.0135972
813.036	0.0136986
813.114	0.0136967
813.193	0.0136912
813.271	0.0135638
813.349	0.0135726
813.427	0.0135484
813.505	0.0136349
813.583	0.0136684
813.661	0.0135307
813.739	0.0135717
813.818	0.0135740
813.896	0.0135326
813.974	0.0134171
814.052	0.0134263
814.130	0.0135353
814.208	0.0134244
814.286	0.0134290
814.364	0.0135853
814.443	0.0134042
814.521	0.0137691
814.599	0.0134805
814.677	0.0136491
814.755	0.0135970
814.833	0.0135562
814.911	0.0136794
814.989	0.0136007
815.068	0.0135923
815.146	0.0137333
815.224	0.0137163
815.302	0.0137120
815.380	0.0137714
815.458	0.0137410
815.536	0.0137770
815.614	0.0139091
815.693	0.0137632
815.771	0.0137903
815.849	0.0139436
815.927	0.0139479
816.005	0.0138998
816.083	0.0138052
816.161	0.0138018
816.239	0.0139585
816.318	0.0137636
816.396	0.0139042
816.474	0.0138499
816.552	0.0137199
816.630	0.0137422
816.708	0.0137933
816.786	0.0135540
816.864	0.0135994
816.943	0.0136166
817.021	0.0136305
817.099	0.0136376
817.177	0.0136484
817.255	0.0135607
817.333	0.0133964
817.411	0.0135820
817.489	0.0134451
817.568	0.0134678
817.646	0.0135222
817.724	0.0135163
817.802	0.0133803
817.880	0.0135232
817.958	0.0135570
818.036	0.0135027
818.114	0.0134194
818.193	0.0133787
818.271	0.0134122
818.349	0.0135042
818.427	0.0133575
818.505	0.0134666
818.583	0.0135306
818.661	0.0132345
818.739	0.0133797
818.818	0.0134734
818.896	0.0133435
818.974	0.0134521
819.052	0.0134003
819.130	0.0133703
819.208	0.0133186
819.286	0.0133083
819.364	0.0133743
819.443	0.0133653
819.521	0.0134434
819.599	0.0134320
819.677	0.0134177
819.755	0.0135173
819.833	0.0133115
819.911	0.0134001
819.989	0.0133609
820.068	0.0134100
820.146	0.0134457
820.224	0.0134633
820.302	0.0135442
820.380	0.0134990
820.458	0.0135300
820.536	0.0135154
820.614	0.0135674
820.693	0.0135917
820.771	0.0134415
820.849	0.0136922
820.927	0.0136614
821.005	0.0137658
821.083	0.0138305
821.161	0.0138283
821.239	0.0137537
821.318	0.0138004
821.396	0.0139197
821.474	0.0137933
821.552	0.0137920
821.630	0.0137994
821.708	0.0137923
821.786	0.0138284
821.864	0.0137038
821.943	0.0138007
822.021	0.0137672
822.099	0.0136317
822.177	0.0136568
822.255	0.0137757
822.333	0.0136098
822.411	0.0135949
822.489	0.0134423
822.568	0.0136115
822.646	0.0135079
822.724	0.0135179
822.802	0.0134388
822.880	0.0134886
822.958	0.0135665
823.036	0.0135106
823.114	0.0135838
823.193	0.0135432
823.271	0.0135418
823.349	0.0136227
823.427	0.0134750
823.505	0.0134148
823.583	0.0135909
823.661	0.0135558
823.739	0.0135439
823.818	0.0136458
823.896	0.0136055
823.974	0.0135340
824.052	0.0135921
824.130	0.0135237
824.208	0.0135783
824.286	0.0134891
824.364	0.0131914
824.443	0.0134940
824.521	0.0136060
824.599	0.0134959
824.677	0.0136175
824.755	0.0135735
824.833	0.0134881
824.911	0.0135497
824.989	0.0134741
825.068	0.0134971
825.146	0.0135394
825.224	0.0134180
825.302	0.0134994
825.380	0.0133954
825.458	0.0135595
825.536	0.0134972
825.614	0.0133334
825.693	0.0134071
825.771	0.0135049
825.849	0.0136996
825.927	0.0135735
826.005	0.0136161
826.083	0.0138024
826.161	0.0138301
826.239	0.0137160
826.318	0.0138159
826.396	0.0138499
826.474	0.0138666
826.552	0.0139338
826.630	0.0138454
826.708	0.0139967
826.786	0.0138642
826.864	0.0138789
826.943	0.0139980
827.021	0.0140520
827.099	0.0139372
827.177	0.0138706
827.255	0.0139809
827.333	0.0137548
827.411	0.0137338
827.489	0.0136176
827.568	0.0136806
827.646	0.0136473
827.724	0.0135677
827.802	0.0135637
827.880	0.0134101
827.958	0.0134042
828.036	0.0132785
828.114	0.0133588
828.193	0.0132795
828.271	0.0133534
828.349	0.0131252
828.427	0.0132264
828.505	0.0132159
828.583	0.0133048
828.661	0.0132342
828.739	0.0132619
828.818	0.0133191
828.896	0.0133289
828.974	0.0133894
829.052	0.0133192
829.130	0.0134279
829.208	0.0135300
829.286	0.0133860
829.364	0.0134620
829.443	0.0134835
829.521	0.0134564
829.599	0.0135425
829.677	0.0135358
829.755	0.0134814
829.833	0.0135659
829.911	0.0135722
829.989	0.0135299
830.068	0.0135406
830.146	0.0136761
830.224	0.0136530
830.302	0.0136288
830.380	0.0136001
830.458	0.0136452
830.536	0.0136402
830.614	0.0135905
830.693	0.0136405
830.771	0.0136412
830.849	0.0135361
830.927	0.0134418
831.005	0.0134842
831.083	0.0134466
831.161	0.0133413
831.239	0.0133660
831.318	0.0134843
831.396	0.0134032
831.474	0.0134892
831.552	0.0135194
831.630	0.0134848
831.708	0.0136395
831.786	0.0135289
831.864	0.0135217
831.943	0.0136392
832.021	0.0137128
832.099	0.0137146
832.177	0.0135712
832.255	0.0137461
832.333	0.0137237
832.411	0.0137819
832.489	0.0137525
832.568	0.0136952
832.646	0.0137655
832.724	0.0139246
832.802	0.0139053
832.880	0.0139575
832.958	0.0139389
833.036	0.0138064
833.114	0.0138605
833.193	0.0139796
833.271	0.0137692
833.349	0.0138345
833.427	0.0138463
833.505	0.0139089
833.583	0.0137794
833.661	0.0137148
833.739	0.0138590
833.818	0.0138060
833.896	0.0138509
833.974	0.0138309
834.052	0.0136711
834.130	0.0137942
834.208	0.0136466
834.286	0.0137581
834.364	0.0135612
834.443	0.0135443
834.521	0.0134470
834.599	0.0133079
834.677	0.0133517
834.755	0.0134830
834.833	0.0132717
834.911	0.0132105
834.989	0.0130766
835.068	0.0132173
835.146	0.0132561
835.224	0.0132977
835.302	0.0132735
835.380	0.0131934
835.458	0.0131590
835.536	0.0132629
835.614	0.0131929
835.693	0.0133400
835.771	0.0133380
835.849	0.0133688
835.927	0.0133681
836.005	0.0133552
836.083	0.0133160
836.161	0.0134444
836.239	0.0133759
836.318	0.0135329
836.396	0.0133370
836.474	0.0134827
836.552	0.0134628
836.630	0.0134319
836.708	0.0134600
836.786	0.0134052
836.864	0.0135349
836.943	0.0135929
837.021	0.0135708
837.099	0.0137054
837.177	0.0137436
837.255	0.0137144
837.333	0.0136415
837.411	0.0137668
837.489	0.0136584
837.568	0.0136275
837.646	0.0139301
837.724	0.0137616
837.802	0.0137730
837.880	0.0137988
837.958	0.0136581
838.036	0.0138290
838.114	0.0138699
838.193	0.0137669
838.271	0.0137538
838.349	0.0136819
838.427	0.0137502
838.505	0.0138475
838.583	0.0137925
838.661	0.0137645
838.739	0.0138203
838.818	0.0138123
838.896	0.0137149
838.974	0.0137548
839.052	0.0136805
839.130	0.0136653
839.208	0.0137989
839.286	0.0137991
839.364	0.0138567
839.443	0.0136967
839.521	0.0137090
839.599	0.0137580
839.677	0.0136352
839.755	0.0136794
839.833	0.0137360
839.911	0.0137814
839.989	0.0137996
840.068	0.0138808
840.146	0.0136529
840.224	0.0136135
840.302	0.0136976
840.380	0.0135111
840.458	0.0136805
840.536	0.0136575
840.614	0.0137293
840.693	0.0136699
840.771	0.0136050
840.849	0.0136618
840.927	0.0134660
841.005	0.0134668
841.083	0.0136443
841.161	0.0136579
841.239	0.0134859
841.318	0.0134512
841.396	0.0136237
841.474	0.0136404
841.552	0.0135590
841.630	0.0136365
841.708	0.0136328
841.786	0.0134196
841.864	0.0135815
841.943	0.0134444
842.021	0.0135291
842.099	0.0134914
842.177	0.0134796
842.255	0.0136831
842.333	0.0135455
842.411	0.0135582
842.489	0.0136010
842.568	0.0135098
842.646	0.0134595
842.724	0.0135683
842.802	0.0136662
842.880	0.0134187
842.958	0.0136022
843.036	0.0136388
843.114	0.0134789
843.193	0.0135451
843.271	0.0134753
843.349	0.0135181
843.427	0.0137022
843.505	0.0135693
843.583	0.0134659
843.661	0.0135025
843.739	0.0136325
843.818	0.0137947
843.896	0.0135857
843.974	0.0136860
844.052	0.0135760
844.130	0.0135310
844.208	0.0136091
844.286	0.0136154
844.364	0.0135863
844.443	0.0136040
844.521	0.0136159
844.599	0.0134799
844.677	0.0135913
844.755	0.0135650
844.833	0.0134889
844.911	0.0134025
844.989	0.0135928
845.068	0.0136623
845.146	0.0136031
845.224	0.0136862
845.302	0.0135743
845.380	0.0134693
845.458	0.0136144
845.536	0.0136848
845.614	0.0138483
845.693	0.0136794
845.771	0.0137578
845.849	0.0137988
845.927	0.0137444
846.005	0.0136510
846.083	0.0137421
846.161	0.0137705
846.239	0.0137864
846.318	0.0138170
846.396	0.0137808
846.474	0.0136640
846.552	0.0137155
846.630	0.0139396
846.708	0.0137691
846.786	0.0137241
846.864	0.0137245
846.943	0.0137331
847.021	0.0138679
847.099	0.0137320
847.177	0.0137052
847.255	0.0136472
847.333	0.0137749
847.411	0.0136180
847.489	0.0136047
847.568	0.0135690
847.646	0.0134350
847.724	0.0135232
847.802	0.0134256
847.880	0.0134767
847.958	0.0134955
848.036	0.0133900
848.114	0.0132851
848.193	0.0133860
848.271	0.0133379
848.349	0.0135113
848.427	0.0133868
848.505	0.0133871
848.583	0.0134405
848.661	0.0134306
848.739	0.0135683
848.818	0.0134451
848.896	0.0136217
848.974	0.0135059
849.052	0.0135783
849.130	0.0135410
849.208	0.0134763
849.286	0.0134878
849.364	0.0134974
849.443	0.0138198
849.521	0.0136248
849.599	0.0137167
849.677	0.0136442
849.755	0.0136419
849.833	0.0138560
849.911	0.0137868
849.989	0.0136748
850.068	0.0137383
850.146	0.0137628
850.224	0.0136665
850.302	0.0137619
850.380	0.0139191
850.458	0.0138840
850.536	0.0138461
850.614	0.0138455
850.693	0.0137679
850.771	0.0138166
850.849	0.0138893
850.927	0.0137389
851.005	0.0136613
851.083	0.0137773
851.161	0.0137120
851.239	0.0134609
851.318	0.0135362
851.396	0.0134468
851.474	0.0132922
851.552	0.0133325
851.630	0.0133862
851.708	0.0133264
851.786	0.0131051
851.864	0.0131757
851.943	0.0131396
852.021	0.0132430
852.099	0.0131200
852.177	0.0131431
852.255	0.0131145
852.333	0.0130789
852.411	0.0130128
852.489	0.0130096
852.568	0.0131986
852.646	0.0132528
852.724	0.0131561
852.802	0.0132549
852.880	0.0133710
852.958	0.0132261
853.036	0.0133543
853.114	0.0132568
853.193	0.0132704
853.271	0.0135247
853.349	0.0134241
853.427	0.0135196
853.505	0.0135703
853.583	0.0137087
853.661	0.0136343
853.739	0.0136073
853.818	0.0136476
853.896	0.0137024
853.974	0.0136575
854.052	0.0136510
854.130	0.0138065
854.208	0.0137628
854.286	0.0138026
854.364	0.0138786
854.443	0.0139767
854.521	0.0139626
854.599	0.0139196
854.677	0.0138152
854.755	0.0138927
854.833	0.0138696
854.911	0.0139238
854.989	0.0138406
855.068	0.0137435
855.146	0.0137651
855.224	0.0138141
855.302	0.0137634
855.380	0.0137029
855.458	0.0137412
855.536	0.0136575
855.614	0.0137248
855.693	0.0137166
855.771	0.0137122
855.849	0.0135764
855.927	0.0135371
856.005	0.0134276
856.083	0.0134476
856.161	0.0134309
856.239	0.0135689
856.318	0.0134595
856.396	0.0135634
856.474	0.0134729
856.552	0.0134812
856.630	0.0134916
856.708	0.0133807
856.786	0.0134147
856.864	0.0134644
856.943	0.0134250
857.021	0.0134795
857.099	0.0135050
857.177	0.0134808
857.255	0.0136737
857.333	0.0134328
857.411	0.0135600
857.489	0.0135891
857.568	0.0136874
857.646	0.0137117
857.724	0.0136702
857.802	0.0137805
857.880	0.0139075
857.958	0.0137219
858.036	0.0138753
858.114	0.0138838
858.193	0.0140031
858.271	0.0139145
858.349	0.0139973
858.427	0.0139486
858.505	0.0139848
858.583	0.0139265
858.661	0.0138607
858.739	0.0138719
858.818	0.0137495
858.896	0.0138149
858.974	0.0137148
859.052	0.0137032
859.130	0.0136228
859.208	0.0137524
859.286	0.0136855
859.364	0.0135891
859.443	0.0134869
859.521	0.0134031
859.599	0.0133385
859.677	0.0134223
859.755	0.0133836
859.833	0.0134369
859.911	0.0133307
859.989	0.0133277
860.068	0.0132339
860.146	0.0132738
860.224	0.0133261
860.302	0.0131795
860.380	0.0132703
860.458	0.0131625
860.536	0.0132586
860.614	0.0132430
860.693	0.0131325
860.771	0.0131609
860.849	0.0133298
860.927	0.0132218
861.005	0.0132941
861.083	0.0132536
861.161	0.0132668
861.239	0.0133345
861.318	0.0133612
861.396	0.0134917
861.474	0.0134226
861.552	0.0135239
861.630	0.0137026
861.708	0.0135707
861.786	0.0135909
861.864	0.0135785
861.943	0.0135714
862.021	0.0135371
862.099	0.0133958
862.177	0.0136642
862.255	0.0137342
862.333	0.0136060
862.411	0.0136423
862.489	0.0135081
862.568	0.0136942
862.646	0.0136313
862.724	0.0136111
862.802	0.0137469
862.880	0.0135983
862.958	0.0136640
863.036	0.0138998
863.114	0.0138406
863.193	0.0136335
863.271	0.0136913
863.349	0.0136605
863.427	0.0136288
863.505	0.0137399
863.583	0.0136328
863.661	0.0136876
863.739	0.0137038
863.818	0.0136327
863.896	0.0133851
863.974	0.0134742
864.052	0.0135408
864.130	0.0135085
864.208	0.0135161
864.286	0.0134990
864.364	0.0134337
864.443	0.0135523
864.521	0.0134875
864.599	0.0134135
864.677	0.0134853
864.755	0.0135721
864.833	0.0135718
864.911	0.0136494
864.989	0.0135856
865.068	0.0135380
865.146	0.0136491
865.224	0.0136320
865.302	0.0136118
865.380	0.0136245
865.458	0.0136959
865.536	0.0138142
865.614	0.0136983
865.693	0.0136057
865.771	0.0137167
865.849	0.0136538
865.927	0.0136313
866.005	0.0139027
866.083	0.0138160
866.161	0.0137121
866.239	0.0138514
866.318	0.0138089
866.396	0.0137637
866.474	0.0135288
866.552	0.0136497
866.630	0.0136238
866.708	0.0136985
866.786	0.0136993
866.864	0.0136393
866.943	0.0134482
867.021	0.0135597
867.099	0.0136720
867.177	0.0134733
867.255	0.0134168
867.333	0.0135358
867.411	0.0135157
867.489	0.0135342
867.568	0.0134661
867.646	0.0133239
867.724	0.0135661
867.802	0.0135747
867.880	0.0133721
867.958	0.0134647
868.036	0.0135966
868.114	0.0135090
868.193	0.0134290
868.271	0.0134614
868.349	0.0133807
868.427	0.0134103
868.505	0.0134003
868.583	0.0134119
868.661	0.0135603
868.739	0.0135890
868.818	0.0134383
868.896	0.0134936
868.974	0.0136854
869.052	0.0135857
869.130	0.0135905
869.208	0.0135964
869.286	0.0135966
869.364	0.0136895
869.443	0.0138108
869.521	0.0137617
869.599	0.0137910
869.677	0.0138491
869.755	0.0137566
869.833	0.0136096
869.911	0.0138105
869.989	0.0138551
870.068	0.0138623
870.146	0.0138931
870.224	0.0138757
870.302	0.0138318
870.380	0.0138393
870.458	0.0138524
870.536	0.0138357
870.614	0.0138879
870.693	0.0138922
870.771	0.0137575
870.849	0.0137495
870.927	0.0137625
871.005	0.0138046
871.083	0.0136150
871.161	0.0138155
871.239	0.0136763
871.318	0.0136295
871.396	0.0137062
871.474	0.0138560
871.552	0.0136989
871.630	0.0137643
871.708	0.0137666
871.786	0.0139382
871.864	0.0137648
871.943	0.0137146
872.021	0.0136264
872.099	0.0136282
872.177	0.0137177
872.255	0.0137011
872.333	0.0135509
872.411	0.0135342
872.489	0.0135092
872.568	0.0136289
872.646	0.0135703
872.724	0.0135773
872.802	0.0134997
872.880	0.0136403
872.958	0.0136087
873.036	0.0136002
873.114	0.0135320
873.193	0.0136275
873.271	0.0136705
873.349	0.0137701
873.427	0.0138565
873.505	0.0137454
873.583	0.0138486
873.661	0.0138242
873.739	0.0137322
873.818	0.0138977
873.896	0.0137853
873.974	0.0138756
874.052	0.0137318
874.130	0.0138084
874.208	0.0139488
874.286	0.0139792
874.364	0.0138540
874.443	0.0138313
874.521	0.0139374
874.599	0.0138998
874.677	0.0137479
874.755	0.0138184
874.833	0.0138511
874.911	0.0137971
874.989	0.0136662
875.068	0.0137503
875.146	0.0136112
875.224	0.0135426
875.302	0.0137326
875.380	0.0136172
875.458	0.0136942
875.536	0.0135825
875.614	0.0134000
875.693	0.0135584
875.771	0.0135779
875.849	0.0135883
875.927	0.0135548
876.005	0.0134501
876.083	0.0133929
876.161	0.0131992
876.239	0.0132478
876.318	0.0134457
876.396	0.0133538
876.474	0.0133195
876.552	0.0133925
876.630	0.0133401
876.708	0.0134700
876.786	0.0133757
876.864	0.0133572
876.943	0.0135432
877.021	0.0134303
877.099	0.0134241
877.177	0.0134129
877.255	0.0134354
877.333	0.0135669
877.411	0.0134423
877.489	0.0136025
877.568	0.0135583
877.646	0.0136401
877.724	0.0137208
877.802	0.0134646
877.880	0.0135587
877.958	0.0135140
878.036	0.0134373
878.114	0.0134356
878.193	0.0133395
878.271	0.0135411
878.349	0.0134970
878.427	0.0134860
878.505	0.0134968
878.583	0.0135213
878.661	0.0134149
878.739	0.0133965
878.818	0.0135530
878.896	0.0135716
878.974	0.0134907
879.052	0.0135100
879.130	0.0135470
879.208	0.0134907
879.286	0.0135153
879.364	0.0136757
879.443	0.0135593
879.521	0.0134493
879.599	0.0135511
879.677	0.0135775
879.755	0.0136810
879.833	0.0137405
879.911	0.0137124
879.989	0.0135892
880.068	0.0135009
880.146	0.0136129
880.224	0.0135226
880.302	0.0136980
880.380	0.0136880
880.458	0.0136662
880.536	0.0135051
880.614	0.0136077
880.693	0.0135920
880.771	0.0136189
880.849	0.0135851
880.927	0.0133823
881.005	0.0136047
881.083	0.0135542
881.161	0.0135348
881.239	0.0135145
881.318	0.0136567
881.396	0.0136408
881.474	0.0134798
881.552	0.0135789
881.630	0.0136604
881.708	0.0136343
881.786	0.0135274
881.864	0.0135471
881.943	0.0135299
882.021	0.0136604
882.099	0.0134499
882.177	0.0136417
882.255	0.0136581
882.333	0.0136185
882.411	0.0135920
882.489	0.0136008
882.568	0.0137345
882.646	0.0136533
882.724	0.0136839
882.802	0.0136795
882.880	0.0135477
882.958	0.0135981
883.036	0.0137202
883.114	0.0136543
883.193	0.0136653
883.271	0.0137820
883.349	0.0136284
883.427	0.0135983
883.505	0.0136040
883.583	0.0134654
883.661	0.0134506
883.739	0.0135373
883.818	0.0136430
883.896	0.0134091
883.974	0.0136058
884.052	0.0134094
884.130	0.0134264
884.208	0.0134641
884.286	0.0135546
884.364	0.0135153
884.443	0.0135368
884.521	0.0135061
884.599	0.0133839
884.677	0.0134160
884.755	0.0133066
884.833	0.0134799
884.911	0.0134519
884.989	0.0134186
885.068	0.0135454
885.146	0.0134077
885.224	0.0134447
885.302	0.0135240
885.380	0.0136232
885.458	0.0135686
885.536	0.0134937
885.614	0.0134709
885.693	0.0135822
885.771	0.0136027
885.849	0.0135907
885.927	0.0136087
886.005	0.0136290
886.083	0.0136726
886.161	0.0135734
886.239	0.0136881
886.318	0.0137337
886.396	0.0138106
886.474	0.0137471
886.552	0.0136100
886.630	0.0136113
886.708	0.0135316
886.786	0.0136298
886.864	0.0135883
886.943	0.0134611
887.021	0.0136297
887.099	0.0135545
887.177	0.0135741
887.255	0.0135062
887.333	0.0135405
887.411	0.0135075
887.489	0.0136015
887.568	0.0135229
887.646	0.0135911
887.724	0.0136801
887.802	0.0135945
887.880	0.0135397
887.958	0.0135289
888.036	0.0137209
888.114	0.0135232
888.193	0.0136361
888.271	0.0137078
888.349	0.0136726
888.427	0.0136544
888.505	0.0137392
888.583	0.0137817
888.661	0.0137429
888.739	0.0137074
888.818	0.0138172
888.896	0.0137347
888.974	0.0135523
889.052	0.0136985
889.130	0.0135691
889.208	0.0136207
889.286	0.0137595
889.364	0.0137472
889.443	0.0137151
889.521	0.0137184
889.599	0.0136592
889.677	0.0137569
889.755	0.0136249
889.833	0.0136966
889.911	0.0136549
889.989	0.0137054
890.068	0.0136266
890.146	0.0135878
890.224	0.0136972
890.302	0.0136993
890.380	0.0137414
890.458	0.0136827
890.536	0.0136726
890.614	0.0136463
890.693	0.0134863
890.771	0.0136095
890.849	0.0137869
890.927	0.0136739
891.005	0.0137506
891.083	0.0137705
891.161	0.0135638
891.239	0.0136420
891.318	0.0135414
891.396	0.0136952
891.474	0.0137187
891.552	0.0135484
891.630	0.0136969
891.708	0.0137160
891.786	0.0136736
891.864	0.0137322
891.943	0.0136187
892.021	0.0137003
892.099	0.0137802
892.177	0.0137422
892.255	0.0137604
892.333	0.0138160
892.411	0.0136364
892.489	0.0137119
892.568	0.0137003
892.646	0.0136798
892.724	0.0137729
892.802	0.0137543
892.880	0.0137787
892.958	0.0137948
893.036	0.0137958
893.114	0.0136720
893.193	0.0136617
893.271	0.0136919
893.349	0.0136914
893.427	0.0136607
893.505	0.0136983
893.583	0.0136382
893.661	0.0135971
893.739	0.0135386
893.818	0.0135865
893.896	0.0136852
893.974	0.0135724
894.052	0.0135898
894.130	0.0134809
894.208	0.0133465
894.286	0.0134035
894.364	0.0132853
894.443	0.0135146
894.521	0.0135827
894.599	0.0135586
894.677	0.0134010
894.755	0.0134425
894.833	0.0134189
894.911	0.0134778
894.989	0.0135767
895.068	0.0133797
895.146	0.0135284
895.224	0.0134457
895.302	0.0136252
895.380	0.0136078
895.458	0.0135525
895.536	0.0136217
895.614	0.0135716
895.693	0.0135918
895.771	0.0136085
895.849	0.0135950
895.927	0.0137346
896.005	0.0135720
896.083	0.0136177
896.161	0.0137303
896.239	0.0136903
896.318	0.0137205
896.396	0.0135937
896.474	0.0136851
896.552	0.0137009
896.630	0.0136259
896.708	0.0136484
896.786	0.0137170
896.864	0.0137057
896.943	0.0137085
897.021	0.0136802
897.099	0.0137617
897.177	0.0135796
897.255	0.0137775
897.333	0.0138024
897.411	0.0136532
897.489	0.0136646
897.568	0.0137395
897.646	0.0137378
897.724	0.0136584
897.802	0.0136765
897.880	0.0137212
897.958	0.0136725
898.036	0.0137251
898.114	0.0136865
898.193	0.0136572
898.271	0.0138245
898.349	0.0137238
898.427	0.0136774
898.505	0.0138247
898.583	0.0137079
898.661	0.0137120
898.739	0.0136929
898.818	0.0136264
898.896	0.0136108
898.974	0.0136225
899.052	0.0135083
899.130	0.0134756
899.208	0.0135356
899.286	0.0137014
899.364	0.0134124
899.443	0.0133788
899.521	0.0135096
899.599	0.0134674
899.677	0.0133993
899.755	0.0133076
899.833	0.0133959
899.911	0.0134236
899.989	0.0133930
900.068	0.0133242
900.146	0.0134023
900.224	0.0132390
900.302	0.0132203
900.380	0.0134035
900.458	0.0135110
900.536	0.0134195
900.614	0.0134640
900.693	0.0135201
900.771	0.0134042
900.849	0.0135497
900.927	0.0135614
901.005	0.0135650
901.083	0.0136821
901.161	0.0136606
901.239	0.0138172
901.318	0.0139318
901.396	0.0139362
901.474	0.0139772
901.552	0.0139603
901.630	0.0140501
901.708	0.0140221
901.786	0.0139581
901.864	0.0140019
901.943	0.0140044
902.021	0.0139673
902.099	0.0138739
902.177	0.0139040
902.255	0.0138461
902.333	0.0137548
902.411	0.0136749
902.489	0.0137213
902.568	0.0137546
902.646	0.0137370
902.724	0.0136691
902.802	0.0136014
902.880	0.0138120
902.958	0.0137136
903.036	0.0136702
903.114	0.0135973
903.193	0.0135967
903.271	0.0137144
903.349	0.0135627
903.427	0.0135865
903.505	0.0136795
903.583	0.0135226
903.661	0.0134673
903.739	0.0135121
903.818	0.0135305
903.896	0.0134382
903.974	0.0134973
904.052	0.0134566
904.130	0.0134397
904.208	0.0133496
904.286	0.0134730
904.364	0.0134190
904.443	0.0133808
904.521	0.0134776
904.599	0.0134737
904.677	0.0134042
904.755	0.0133926
904.833	0.0133238
904.911	0.0135066
904.989	0.0134579
905.068	0.0135403
905.146	0.0132570
905.224	0.0133417
905.302	0.0135257
905.380	0.0133157
905.458	0.0133816
905.536	0.0132887
905.614	0.0134077
905.693	0.0133863
905.771	0.0133729
905.849	0.0133736
905.927	0.0134425
906.005	0.0133143
906.083	0.0133947
906.161	0.0133881
906.239	0.0133870
906.318	0.0134460
906.396	0.0134128
906.474	0.0134586
906.552	0.0133643
906.630	0.0135247
906.708	0.0136259
906.786	0.0135181
906.864	0.0135571
906.943	0.0135544
907.021	0.0135700
907.099	0.0136413
907.177	0.0137020
907.255	0.0137273
907.333	0.0137125
907.411	0.0137473
907.489	0.0137331
907.568	0.0137300
907.646	0.0136863
907.724	0.0136683
907.802	0.0136376
907.880	0.0135694
907.958	0.0138006
908.036	0.0137174
908.114	0.0136749
908.193	0.0135473
908.271	0.0136327
908.349	0.0136045
908.427	0.0136947
908.505	0.0136745
908.583	0.0136362
908.661	0.0135150
908.739	0.0135696
908.818	0.0135956
908.896	0.0136340
908.974	0.0134974
909.052	0.0134418
909.130	0.0135104
909.208	0.0134414
909.286	0.0135664
909.364	0.0134308
909.443	0.0135070
909.521	0.0135830
909.599	0.0134940
909.677	0.0135690
909.755	0.0135377
909.833	0.0134017
909.911	0.0134295
909.989	0.0135387
910.068	0.0133636
910.146	0.0134174
910.224	0.0133744
910.302	0.0135439
910.380	0.0133806
910.458	0.0133641
910.536	0.0134643
910.614	0.0133907
910.693	0.0133771
910.771	0.0133713
910.849	0.0132652
910.927	0.0133254
911.005	0.0133567
911.083	0.0133443
911.161	0.0133705
911.239	0.0133807
911.318	0.0133066
911.396	0.0133564
911.474	0.0134521
911.552	0.0132298
911.630	0.0133479
911.708	0.0134577
911.786	0.0133299
911.864	0.0132246
911.943	0.0134545
912.021	0.0132625
912.099	0.0133791
912.177	0.0135021
912.255	0.0132542
912.333	0.0133797
912.411	0.0134946
912.489	0.0134046
912.568	0.0135148
912.646	0.0135416
912.724	0.0135936
912.802	0.0135086
912.880	0.0135371
912.958	0.0134988
913.036	0.0136860
913.114	0.0136852
913.193	0.0136792
913.271	0.0136402
913.349	0.0136974
913.427	0.0135738
913.505	0.0136383
913.583	0.0135338
913.661	0.0136486
913.739	0.0136606
913.818	0.0135439
913.896	0.0135787
913.974	0.0136201
914.052	0.0136716
914.130	0.0137293
914.208	0.0136506
914.286	0.0136646
914.364	0.0136569
914.443	0.0136200
914.521	0.0136739
914.599	0.0136613
914.677	0.0136942
914.755	0.0136797
914.833	0.0136443
914.911	0.0137691
914.989	0.0136891
915.068	0.0135152
915.146	0.0137249
915.224	0.0136653
915.302	0.0135175
915.380	0.0137077
915.458	0.0136178
915.536	0.0137392
915.614	0.0136646
915.693	0.0135569
915.771	0.0137114
915.849	0.0136578
915.927	0.0136449
916.005	0.0137034
916.083	0.0136485
916.161	0.0136846
916.239	0.0136047
916.318	0.0136038
916.396	0.0136841
916.474	0.0136939
916.552	0.0136521
916.630	0.0136237
916.708	0.0135949
916.786	0.0135726
916.864	0.0136858
916.943	0.0136252
917.021	0.0136120
917.099	0.0135475
917.177	0.0135602
917.255	0.0135622
917.333	0.0135094
917.411	0.0135132
917.489	0.0136138
917.568	0.0135047
917.646	0.0136481
917.724	0.0135818
917.802	0.0135712
917.880	0.0135857
917.958	0.0136456
918.036	0.0137337
918.114	0.0136018
918.193	0.0136423
918.271	0.0136449
918.349	0.0137146
918.427	0.0136410
918.505	0.0136433
918.583	0.0137238
918.661	0.0138193
918.739	0.0136536
918.818	0.0134964
918.896	0.0136589
918.974	0.0137039
919.052	0.0136022
919.130	0.0135813
919.208	0.0136292
919.286	0.0136712
919.364	0.0135765
919.443	0.0135401
919.521	0.0134418
919.599	0.0135714
919.677	0.0135296
919.755	0.0135435
919.833	0.0135701
919.911	0.0134485
919.989	0.0135107
920.068	0.0135291
920.146	0.0135360
920.224	0.0134241
920.302	0.0135722
920.380	0.0136050
920.458	0.0135928
920.536	0.0134376
920.614	0.0134541
920.693	0.0135230
920.771	0.0136158
920.849	0.0137126
920.927	0.0136642
921.005	0.0136193
921.083	0.0135599
921.161	0.0135625
921.239	0.0135270
921.318	0.0138309
921.396	0.0136702
921.474	0.0135377
921.552	0.0135863
921.630	0.0135969
921.708	0.0136410
921.786	0.0137687
921.864	0.0136764
921.943	0.0136755
922.021	0.0134989
922.099	0.0136487
922.177	0.0135812
922.255	0.0136364
922.333	0.0135182
922.411	0.0137221
922.489	0.0135060
922.568	0.0134449
922.646	0.0134653
922.724	0.0133620
922.802	0.0134434
922.880	0.0134637
922.958	0.0135143
923.036	0.0133735
923.114	0.0132818
923.193	0.0134451
923.271	0.0134570
923.349	0.0134004
923.427	0.0134425
923.505	0.0135426
923.583	0.0134282
923.661	0.0133752
923.739	0.0134786
923.818	0.0136514
923.896	0.0134483
923.974	0.0134818
924.052	0.0135606
924.130	0.0134447
924.208	0.0134720
924.286	0.0135603
924.364	0.0135691
924.443	0.0135152
924.521	0.0135062
924.599	0.0136167
924.677	0.0135985
924.755	0.0133405
924.833	0.0134968
924.911	0.0134929
924.989	0.0135429
925.068	0.0136378
925.146	0.0136526
925.224	0.0135099
925.302	0.0134896
925.380	0.0135866
925.458	0.0135421
925.536	0.0136716
925.614	0.0136134
925.693	0.0135956
925.771	0.0136060
925.849	0.0136448
925.927	0.0136698
926.005	0.0137260
926.083	0.0138224
926.161	0.0136926
926.239	0.0137612
926.318	0.0137825
926.396	0.0137875
926.474	0.0138070
926.552	0.0138037
926.630	0.0135676
926.708	0.0137591
926.786	0.0138026
926.864	0.0138873
926.943	0.0137685
927.021	0.0138860
927.099	0.0139255
927.177	0.0138258
927.255	0.0138730
927.333	0.0138535
927.411	0.0136874
927.489	0.0137415
927.568	0.0137886
927.646	0.0136794
927.724	0.0135998
927.802	0.0136816
927.880	0.0136086
927.958	0.0137231
928.036	0.0136211
928.114	0.0136401
928.193	0.0136074
928.271	0.0135150
928.349	0.0136378
928.427	0.0136134
928.505	0.0135516
928.583	0.0134978
928.661	0.0136189
928.739	0.0133556
928.818	0.0135921
928.896	0.0136127
928.974	0.0134937
929.052	0.0134702
929.130	0.0134802
929.208	0.0134816
929.286	0.0136145
929.364	0.0137132
929.443	0.0135979
929.521	0.0134785
929.599	0.0136119
929.677	0.0137125
929.755	0.0136648
929.833	0.0136619
929.911	0.0135324
929.989	0.0135400
930.068	0.0136023
930.146	0.0135900
930.224	0.0136763
930.302	0.0137809
930.380	0.0136974
930.458	0.0137550
930.536	0.0136778
930.614	0.0136726
930.693	0.0136342
930.771	0.0136214
930.849	0.0134751
930.927	0.0136163
931.005	0.0137440
931.083	0.0135379
931.161	0.0135626
931.239	0.0135534
931.318	0.0135217
931.396	0.0134657
931.474	0.0136086
931.552	0.0135217
931.630	0.0135760
931.708	0.0136424
931.786	0.0137418
931.864	0.0135875
931.943	0.0135978
932.021	0.0134322
932.099	0.0135825
932.177	0.0138097
932.255	0.0135935
932.333	0.0135249
932.411	0.0136269
932.489	0.0137179
932.568	0.0136793
932.646	0.0135075
932.724	0.0135664
932.802	0.0136795
932.880	0.0136679
932.958	0.0135681
933.036	0.0135413
933.114	0.0137150
933.193	0.0137995
933.271	0.0136859
933.349	0.0137527
933.427	0.0137580
933.505	0.0136309
933.583	0.0136510
933.661	0.0137827
933.739	0.0137205
933.818	0.0136372
933.896	0.0135767
933.974	0.0134898
934.052	0.0136499
934.130	0.0136916
934.208	0.0136108
934.286	0.0135678
934.364	0.0135571
934.443	0.0134844
934.521	0.0134569
934.599	0.0136472
934.677	0.0136792
934.755	0.0134833
934.833	0.0136401
934.911	0.0135024
934.989	0.0135456
935.068	0.0134843
935.146	0.0135580
935.224	0.0136683
935.302	0.0135156
935.380	0.0134176
935.458	0.0135943
935.536	0.0136468
935.614	0.0134731
935.693	0.0136211
935.771	0.0135767
935.849	0.0134685
935.927	0.0133732
936.005	0.0135364
936.083	0.0136115
936.161	0.0135829
936.239	0.0136609
936.318	0.0136666
936.396	0.0135085
936.474	0.0135732
936.552	0.0136262
936.630	0.0134946
936.708	0.0137022
936.786	0.0134975
936.864	0.0136160
936.943	0.0137991
937.021	0.0137154
937.099	0.0135992
937.177	0.0138407
937.255	0.0136427
937.333	0.0137061
937.411	0.0135614
937.489	0.0135946
937.568	0.0137270
937.646	0.0136817
937.724	0.0135486
937.802	0.0137566
937.880	0.0136475
937.958	0.0137730
938.036	0.0138760
938.114	0.0139566
938.193	0.0138026
938.271	0.0137266
938.349	0.0138702
938.427	0.0138698
938.505	0.0137132
938.583	0.0137661
938.661	0.0137064
938.739	0.0137531
938.818	0.0137408
938.896	0.0137440
938.974	0.0136455
939.052	0.0135890
939.130	0.0137016
939.208	0.0136398
939.286	0.0137003
939.364	0.0136163
939.443	0.0136730
939.521	0.0135984
939.599	0.0136275
939.677	0.0134940
939.755	0.0135294
939.833	0.0135677
939.911	0.0134357
939.989	0.0135741
940.068	0.0133887
940.146	0.0133710
940.224	0.0134689
940.302	0.0133849
940.380	0.0134084
940.458	0.0134069
940.536	0.0133981
940.614	0.0134461
940.693	0.0133742
940.771	0.0133518
940.849	0.0133222
940.927	0.0133414
941.005	0.0133750
941.083	0.0132941
941.161	0.0133674
941.239	0.0133285
941.318	0.0133760
941.396	0.0133828
941.474	0.0132677
941.552	0.0134959
941.630	0.0133008
941.708	0.0134554
941.786	0.0134174
941.864	0.0133621
941.943	0.0134614
942.021	0.0133532
942.099	0.0133218
942.177	0.0135869
942.255	0.0135590
942.333	0.0136340
942.411	0.0135094
942.489	0.0136061
942.568	0.0135653
942.646	0.0136706
942.724	0.0135272
942.802	0.0137331
942.880	0.0136133
942.958	0.0137556
943.036	0.0138730
943.114	0.0136360
943.193	0.0137897
943.271	0.0135356
943.349	0.0137349
943.427	0.0138287
943.505	0.0138226
943.583	0.0138513
943.661	0.0137839
943.739	0.0137971
943.818	0.0136643
943.896	0.0137423
943.974	0.0136502
944.052	0.0136899
944.130	0.0137866
944.208	0.0137593
944.286	0.0136875
944.364	0.0137247
944.443	0.0136221
944.521	0.0136425
944.599	0.0134675
944.677	0.0136420
944.755	0.0135776
944.833	0.0136032
944.911	0.0133962
944.989	0.0134917
945.068	0.0137211
945.146	0.0136134
945.224	0.0136102
945.302	0.0136229
945.380	0.0136319
945.458	0.0135821
945.536	0.0135891
945.614	0.0135868
945.693	0.0135175
945.771	0.0135962
945.849	0.0135530
945.927	0.0134892
946.005	0.0135718
946.083	0.0133956
946.161	0.0136485
946.239	0.0136760
946.318	0.0135226
946.396	0.0136101
946.474	0.0137124
946.552	0.0136469
946.630	0.0135767
946.708	0.0136305
946.786	0.0137085
946.864	0.0136510
946.943	0.0137337
947.021	0.0136752
947.099	0.0137462
947.177	0.0137605
947.255	0.0138515
947.333	0.0138699
947.411	0.0138615
947.489	0.0137621
947.568	0.0138690
947.646	0.0139569
947.724	0.0138245
947.802	0.0137416
947.880	0.0138036
947.958	0.0137743
948.036	0.0138934
948.114	0.0139397
948.193	0.0139051
948.271	0.0138711
948.349	0.0138821
948.427	0.0138245
948.505	0.0137446
948.583	0.0137476
948.661	0.0137228
948.739	0.0137088
948.818	0.0137764
948.896	0.0137315
948.974	0.0136967
949.052	0.0137356
949.130	0.0135608
949.208	0.0136710
949.286	0.0136815
949.364	0.0135055
949.443	0.0137267
949.521	0.0136842
949.599	0.0135992
949.677	0.0136396
949.755	0.0137077
949.833	0.0136031
949.911	0.0137292
949.989	0.0136938
950.068	0.0137802
950.146	0.0137832
950.224	0.0136002
950.302	0.0136984
950.380	0.0136835
950.458	0.0137846
950.536	0.0137052
950.614	0.0137738
950.693	0.0138211
950.771	0.0138306
950.849	0.0138502
950.927	0.0137305
951.005	0.0136983
951.083	0.0137083
951.161	0.0136428
951.239	0.0135091
951.318	0.0136763
951.396	0.0136708
951.474	0.0136650
951.552	0.0135821
951.630	0.0135169
951.708	0.0136430
951.786	0.0136695
951.864	0.0135462
951.943	0.0134380
952.021	0.0133920
952.099	0.0135604
952.177	0.0135064
952.255	0.0135937
952.333	0.0135641
952.411	0.0136547
952.489	0.0135471
952.568	0.0135834
952.646	0.0135410
952.724	0.0134483
952.802	0.0134540
952.880	0.0136246
952.958	0.0134721
953.036	0.0135555
953.114	0.0135719
953.193	0.0134816
953.271	0.0135690
953.349	0.0134875
953.427	0.0133358
953.505	0.0135646
953.583	0.0134319
953.661	0.0134297
953.739	0.0135489
953.818	0.0135252
953.896	0.0135073
953.974	0.0135178
954.052	0.0136731
954.130	0.0134294
954.208	0.0135123
954.286	0.0135769
954.364	0.0136080
954.443	0.0136094
954.521	0.0136550
954.599	0.0136185
954.677	0.0135606
954.755	0.0135017
954.833	0.0135320
954.911	0.0136414
954.989	0.0135995
955.068	0.0135758
955.146	0.0136743
955.224	0.0136845
955.302	0.0136027
955.380	0.0135548
955.458	0.0137167
955.536	0.0136771
955.614	0.0137053
955.693	0.0137314
955.771	0.0136356
955.849	0.0136525
955.927	0.0137069
956.005	0.0137494
956.083	0.0135786
956.161	0.0136922
956.239	0.0136819
956.318	0.0136710
956.396	0.0135991
956.474	0.0135899
956.552	0.0135976
956.630	0.0135196
956.708	0.0136472
956.786	0.0136832
956.864	0.0135719
956.943	0.0135264
957.021	0.0134934
957.099	0.0135751
957.177	0.0136574
957.255	0.0137060
957.333	0.0135794
957.411	0.0137526
957.489	0.0137595
957.568	0.0136465
957.646	0.0136015
957.724	0.0137614
957.802	0.0136122
957.880	0.0136173
957.958	0.0139072
958.036	0.0136887
958.114	0.0137561
958.193	0.0137489
958.271	0.0138120
958.349	0.0137292
958.427	0.0136501
958.505	0.0136420
958.583	0.0137768
958.661	0.0136507
958.739	0.0138970
958.818	0.0136768
958.896	0.0135593
958.974	0.0136711
959.052	0.0136912
959.130	0.0135886
959.208	0.0134741
959.286	0.0136256
959.364	0.0136212
959.443	0.0137529
959.521	0.0137106
959.599	0.0134289
959.677	0.0135639
959.755	0.0135297
959.833	0.0135508
959.911	0.0136523
