05/07/2022	17:44:08	Ver.	4.1	UNKNOWN
Optical Delay	639.989416	Delta X		0.078125	Sweeps	1	Scan Rate	0/0
Coordinates	Axis 1	NaN	Axis 2	NaN	Axis 3	NaN	Axis 4	NaN	Axis 5	NaN	Axis 6	0.000000
TX Power	0.000000	RX Power	0.000000

639.989	0.0136415
640.068	0.0134727
640.146	0.0134512
640.224	0.0135965
640.302	0.0134655
640.380	0.0134067
640.458	0.0134583
640.536	0.0133919
640.614	0.0135162
640.693	0.0134052
640.771	0.0134435
640.849	0.0133410
640.927	0.0134119
641.005	0.0135334
641.083	0.0135583
641.161	0.0136037
641.239	0.0136224
641.318	0.0135369
641.396	0.0134952
641.474	0.0136109
641.552	0.0134983
641.630	0.0136499
641.708	0.0134389
641.786	0.0134592
641.864	0.0133807
641.943	0.0133669
642.021	0.0133759
642.099	0.0133509
642.177	0.0134394
642.255	0.0134389
642.333	0.0133847
642.411	0.0134279
642.489	0.0134027
642.568	0.0133884
642.646	0.0133844
642.724	0.0133932
642.802	0.0133453
642.880	0.0133300
642.958	0.0132647
643.036	0.0134898
643.114	0.0134969
643.193	0.0134602
643.271	0.0134714
643.349	0.0133968
643.427	0.0133938
643.505	0.0135166
643.583	0.0134245
643.661	0.0134464
643.739	0.0135351
643.818	0.0137487
643.896	0.0135945
643.974	0.0135461
644.052	0.0134747
644.130	0.0136523
644.208	0.0135011
644.286	0.0135995
644.364	0.0135412
644.443	0.0133807
644.521	0.0135049
644.599	0.0134426
644.677	0.0134486
644.755	0.0134531
644.833	0.0132780
644.911	0.0133170
644.989	0.0133051
645.068	0.0132787
645.146	0.0132980
645.224	0.0133068
645.302	0.0132156
645.380	0.0130505
645.458	0.0132490
645.536	0.0132854
645.614	0.0131860
645.693	0.0133047
645.771	0.0134480
645.849	0.0132364
645.927	0.0132788
646.005	0.0134478
646.083	0.0133817
646.161	0.0135667
646.239	0.0136644
646.318	0.0136015
646.396	0.0135608
646.474	0.0135390
646.552	0.0137241
646.630	0.0139050
646.708	0.0138202
646.786	0.0138716
646.864	0.0140264
646.943	0.0139487
647.021	0.0140028
647.099	0.0139960
647.177	0.0139175
647.255	0.0138408
647.333	0.0138872
647.411	0.0138782
647.489	0.0138091
647.568	0.0136469
647.646	0.0135883
647.724	0.0136037
647.802	0.0135190
647.880	0.0135332
647.958	0.0135439
648.036	0.0132324
648.114	0.0132829
648.193	0.0132603
648.271	0.0132828
648.349	0.0131765
648.427	0.0131107
648.505	0.0129611
648.583	0.0130621
648.661	0.0130642
648.739	0.0130610
648.818	0.0129501
648.896	0.0131344
648.974	0.0129811
649.052	0.0130618
649.130	0.0132215
649.208	0.0130524
649.286	0.0131622
649.364	0.0133699
649.443	0.0134109
649.521	0.0134014
649.599	0.0133915
649.677	0.0134127
649.755	0.0135793
649.833	0.0136061
649.911	0.0137585
649.989	0.0137910
650.068	0.0138438
650.146	0.0138655
650.224	0.0139424
650.302	0.0137818
650.380	0.0140529
650.458	0.0139943
650.536	0.0139845
650.614	0.0140877
650.693	0.0141713
650.771	0.0141895
650.849	0.0141147
650.927	0.0141470
651.005	0.0140752
651.083	0.0141458
651.161	0.0139407
651.239	0.0141552
651.318	0.0139537
651.396	0.0139420
651.474	0.0137687
651.552	0.0138721
651.630	0.0138248
651.708	0.0136098
651.786	0.0134635
651.864	0.0133651
651.943	0.0133493
652.021	0.0129543
652.099	0.0131207
652.177	0.0130055
652.255	0.0127833
652.333	0.0126608
652.411	0.0126178
652.489	0.0124744
652.568	0.0124374
652.646	0.0122665
652.724	0.0122125
652.802	0.0122951
652.880	0.0122681
652.958	0.0123206
653.036	0.0124989
653.114	0.0123711
653.193	0.0124292
653.271	0.0125654
653.349	0.0126754
653.427	0.0129758
653.505	0.0130542
653.583	0.0131448
653.661	0.0133678
653.739	0.0135740
653.818	0.0135747
653.896	0.0140112
653.974	0.0141672
654.052	0.0142146
654.130	0.0145307
654.208	0.0146454
654.286	0.0148316
654.364	0.0149769
654.443	0.0150159
654.521	0.0149882
654.599	0.0151897
654.677	0.0152931
654.755	0.0151825
654.833	0.0151129
654.911	0.0151741
654.989	0.0149971
655.068	0.0148320
655.146	0.0146494
655.224	0.0144228
655.302	0.0144273
655.380	0.0142796
655.458	0.0139404
655.536	0.0137739
655.614	0.0136095
655.693	0.0132640
655.771	0.0129730
655.849	0.0127513
655.927	0.0125239
656.005	0.0121796
656.083	0.0120775
656.161	0.0119165
656.239	0.0117244
656.318	0.0115368
656.396	0.0115614
656.474	0.0115230
656.552	0.0112717
656.630	0.0113496
656.708	0.0114684
656.786	0.0113512
656.864	0.0115445
656.943	0.0115389
657.021	0.0117998
657.099	0.0118852
657.177	0.0118823
657.255	0.0122468
657.333	0.0123071
657.411	0.0125442
657.489	0.0128411
657.568	0.0129865
657.646	0.0131633
657.724	0.0135164
657.802	0.0138004
657.880	0.0140595
657.958	0.0142622
658.036	0.0147668
658.114	0.0149791
658.193	0.0151369
658.271	0.0155347
658.349	0.0156254
658.427	0.0157667
658.505	0.0160578
658.583	0.0161763
658.661	0.0162396
658.739	0.0162306
658.818	0.0161652
658.896	0.0160989
658.974	0.0161009
659.052	0.0160706
659.130	0.0157584
659.208	0.0157649
659.286	0.0154481
659.364	0.0152024
659.443	0.0151026
659.521	0.0146777
659.599	0.0144640
659.677	0.0141807
659.755	0.0137014
659.833	0.0134123
659.911	0.0130666
659.989	0.0128149
660.068	0.0124208
660.146	0.0120303
660.224	0.0116656
660.302	0.0113548
660.380	0.0110417
660.458	0.0110103
660.536	0.0107362
660.614	0.0105907
660.693	0.0105466
660.771	0.0103555
660.849	0.0103014
660.927	0.0102999
661.005	0.0103909
661.083	0.0106332
661.161	0.0106217
661.239	0.0108044
661.318	0.0111872
661.396	0.0114603
661.474	0.0116359
661.552	0.0119175
661.630	0.0123650
661.708	0.0129723
661.786	0.0131715
661.864	0.0136088
661.943	0.0140385
662.021	0.0143063
662.099	0.0148035
662.177	0.0151445
662.255	0.0154567
662.333	0.0159379
662.411	0.0160413
662.489	0.0162858
662.568	0.0166798
662.646	0.0167161
662.724	0.0168439
662.802	0.0170339
662.880	0.0170145
662.958	0.0169622
663.036	0.0171295
663.114	0.0169205
663.193	0.0167866
663.271	0.0166273
663.349	0.0164651
663.427	0.0161231
663.505	0.0158356
663.583	0.0155621
663.661	0.0152990
663.739	0.0149037
663.818	0.0145962
663.896	0.0142767
663.974	0.0138979
664.052	0.0135728
664.130	0.0130450
664.208	0.0126958
664.286	0.0123068
664.364	0.0119798
664.443	0.0114549
664.521	0.0114066
664.599	0.0110104
664.677	0.0105095
664.755	0.0104027
664.833	0.0102179
664.911	0.0101065
664.989	0.00995232
665.068	0.00994591
665.146	0.00989304
665.224	0.00987549
665.302	0.0100889
665.380	0.0101485
665.458	0.0102174
665.536	0.0104617
665.614	0.0108018
665.693	0.0110074
665.771	0.0114703
665.849	0.0117870
665.927	0.0121220
666.005	0.0125638
666.083	0.0130699
666.161	0.0134303
666.239	0.0137592
666.318	0.0141911
666.396	0.0147075
666.474	0.0150589
666.552	0.0152816
666.630	0.0155379
666.708	0.0159203
666.786	0.0162241
666.864	0.0164790
666.943	0.0167283
667.021	0.0168423
667.099	0.0168770
667.177	0.0168860
667.255	0.0168311
667.333	0.0166916
667.411	0.0165971
667.489	0.0163708
667.568	0.0163189
667.646	0.0160903
667.724	0.0158864
667.802	0.0156647
667.880	0.0152611
667.958	0.0149984
668.036	0.0147340
668.114	0.0143973
668.193	0.0141924
668.271	0.0139206
668.349	0.0135932
668.427	0.0132261
668.505	0.0129685
668.583	0.0128233
668.661	0.0126587
668.739	0.0123615
668.818	0.0120822
668.896	0.0119951
668.974	0.0118123
669.052	0.0116801
669.130	0.0115047
669.208	0.0114314
669.286	0.0114433
669.364	0.0113028
669.443	0.0112017
669.521	0.0111808
669.599	0.0114025
669.677	0.0113827
669.755	0.0114016
669.833	0.0113350
669.911	0.0114186
669.989	0.0116180
670.068	0.0117904
670.146	0.0118746
670.224	0.0121008
670.302	0.0122311
670.380	0.0124568
670.458	0.0126684
670.536	0.0128197
670.614	0.0131142
670.693	0.0134286
670.771	0.0135616
670.849	0.0138057
670.927	0.0140279
671.005	0.0142300
671.083	0.0144529
671.161	0.0145959
671.239	0.0148660
671.318	0.0150558
671.396	0.0151760
671.474	0.0152744
671.552	0.0152981
671.630	0.0153521
671.708	0.0153223
671.786	0.0153740
671.864	0.0152838
671.943	0.0152386
672.021	0.0149921
672.099	0.0149811
672.177	0.0146470
672.255	0.0144860
672.333	0.0143180
672.411	0.0141096
672.489	0.0139893
672.568	0.0138151
672.646	0.0134597
672.724	0.0133095
672.802	0.0131602
672.880	0.0130811
672.958	0.0129455
673.036	0.0128419
673.114	0.0128546
673.193	0.0128919
673.271	0.0128681
673.349	0.0130704
673.427	0.0129691
673.505	0.0131154
673.583	0.0132112
673.661	0.0132903
673.739	0.0133517
673.818	0.0132975
673.896	0.0136533
673.974	0.0136460
674.052	0.0138386
674.130	0.0140180
674.208	0.0138605
674.286	0.0139405
674.364	0.0139514
674.443	0.0140907
674.521	0.0139595
674.599	0.0137505
674.677	0.0137395
674.755	0.0138369
674.833	0.0137038
674.911	0.0133915
674.989	0.0132266
675.068	0.0132887
675.146	0.0130563
675.224	0.0128938
675.302	0.0127007
675.380	0.0126673
675.458	0.0124911
675.536	0.0122719
675.614	0.0122157
675.693	0.0122452
675.771	0.0121970
675.849	0.0121523
675.927	0.0123318
676.005	0.0122453
676.083	0.0121729
676.161	0.0123230
676.239	0.0124879
676.318	0.0126496
676.396	0.0126188
676.474	0.0128890
676.552	0.0130888
676.630	0.0131631
676.708	0.0132217
676.786	0.0135847
676.864	0.0136633
676.943	0.0137960
677.021	0.0139946
677.099	0.0141618
677.177	0.0142382
677.255	0.0143747
677.333	0.0144962
677.411	0.0145122
677.489	0.0146533
677.568	0.0146332
677.646	0.0144983
677.724	0.0147087
677.802	0.0147909
677.880	0.0146944
677.958	0.0146620
678.036	0.0146479
678.114	0.0146909
678.193	0.0145840
678.271	0.0144888
678.349	0.0146419
678.427	0.0145016
678.505	0.0146181
678.583	0.0145399
678.661	0.0145625
678.739	0.0144350
678.818	0.0145100
678.896	0.0143716
678.974	0.0141830
679.052	0.0143193
679.130	0.0141676
679.208	0.0140678
679.286	0.0140799
679.364	0.0139538
679.443	0.0137534
679.521	0.0138391
679.599	0.0138338
679.677	0.0136583
679.755	0.0136182
679.833	0.0133411
679.911	0.0132946
679.989	0.0132454
680.068	0.0130273
680.146	0.0128349
680.224	0.0126620
680.302	0.0124520
680.380	0.0122562
680.458	0.0122153
680.536	0.0119907
680.614	0.0118739
680.693	0.0117750
680.771	0.0114740
680.849	0.0114825
680.927	0.0113280
681.005	0.0113514
681.083	0.0114472
681.161	0.0113188
681.239	0.0114305
681.318	0.0116682
681.396	0.0118092
681.474	0.0119180
681.552	0.0122668
681.630	0.0124019
681.708	0.0126447
681.786	0.0130011
681.864	0.0132102
681.943	0.0133847
682.021	0.0136212
682.099	0.0141511
682.177	0.0143898
682.255	0.0146233
682.333	0.0146230
682.411	0.0149806
682.489	0.0151894
682.568	0.0153979
682.646	0.0157826
682.724	0.0156329
682.802	0.0158432
682.880	0.0158136
682.958	0.0159556
683.036	0.0159907
683.114	0.0159143
683.193	0.0157905
683.271	0.0158335
683.349	0.0157085
683.427	0.0155776
683.505	0.0151991
683.583	0.0149819
683.661	0.0149765
683.739	0.0147176
683.818	0.0144551
683.896	0.0141766
683.974	0.0140173
684.052	0.0137777
684.130	0.0136433
684.208	0.0131718
684.286	0.0130708
684.364	0.0130376
684.443	0.0128451
684.521	0.0126534
684.599	0.0125774
684.677	0.0125777
684.755	0.0125032
684.833	0.0124330
684.911	0.0123466
684.989	0.0123914
685.068	0.0124133
685.146	0.0125687
685.224	0.0124416
685.302	0.0126125
685.380	0.0126756
685.458	0.0127343
685.536	0.0127058
685.614	0.0126631
685.693	0.0127850
685.771	0.0127490
685.849	0.0128292
685.927	0.0127721
686.005	0.0128253
686.083	0.0127248
686.161	0.0127460
686.239	0.0128058
686.318	0.0126606
686.396	0.0127360
686.474	0.0127600
686.552	0.0128212
686.630	0.0127695
686.708	0.0128001
686.786	0.0129554
686.864	0.0128065
686.943	0.0129318
687.021	0.0130779
687.099	0.0131492
687.177	0.0132345
687.255	0.0132658
687.333	0.0133723
687.411	0.0136402
687.489	0.0137737
687.568	0.0138293
687.646	0.0138926
687.724	0.0140633
687.802	0.0142880
687.880	0.0144032
687.958	0.0144112
688.036	0.0145957
688.114	0.0146978
688.193	0.0146735
688.271	0.0148449
688.349	0.0149837
688.427	0.0149447
688.505	0.0150920
688.583	0.0151914
688.661	0.0151596
688.739	0.0150819
688.818	0.0148599
688.896	0.0150003
688.974	0.0149693
689.052	0.0148056
689.130	0.0144877
689.208	0.0142749
689.286	0.0141705
689.364	0.0140305
689.443	0.0137930
689.521	0.0136193
689.599	0.0135162
689.677	0.0132367
689.755	0.0132153
689.833	0.0130701
689.911	0.0130232
689.989	0.0129389
690.068	0.0127624
690.146	0.0125824
690.224	0.0125984
690.302	0.0126529
690.380	0.0126701
690.458	0.0126427
690.536	0.0126647
690.614	0.0126755
690.693	0.0127888
690.771	0.0128973
690.849	0.0130129
690.927	0.0131232
691.005	0.0131891
691.083	0.0132471
691.161	0.0131548
691.239	0.0133345
691.318	0.0135450
691.396	0.0133572
691.474	0.0134729
691.552	0.0135191
691.630	0.0132321
691.708	0.0133183
691.786	0.0134173
691.864	0.0133243
691.943	0.0132494
692.021	0.0132821
692.099	0.0131188
692.177	0.0130579
692.255	0.0130704
692.333	0.0129024
692.411	0.0128790
692.489	0.0130192
692.568	0.0130240
692.646	0.0129933
692.724	0.0130654
692.802	0.0130620
692.880	0.0131965
692.958	0.0132692
693.036	0.0133571
693.114	0.0135886
693.193	0.0136565
693.271	0.0137679
693.349	0.0138966
693.427	0.0140533
693.505	0.0142818
693.583	0.0144125
693.661	0.0145540
693.739	0.0146821
693.818	0.0149051
693.896	0.0149801
693.974	0.0150320
694.052	0.0150712
694.130	0.0152515
694.208	0.0152685
694.286	0.0152917
694.364	0.0151518
694.443	0.0151063
694.521	0.0150417
694.599	0.0150526
694.677	0.0149152
694.755	0.0149009
694.833	0.0145996
694.911	0.0144914
694.989	0.0142657
695.068	0.0140517
695.146	0.0139379
695.224	0.0137533
695.302	0.0134392
695.380	0.0131853
695.458	0.0129677
695.536	0.0127692
695.614	0.0126671
695.693	0.0125126
695.771	0.0122533
695.849	0.0122868
695.927	0.0121905
696.005	0.0121646
696.083	0.0119739
696.161	0.0120279
696.239	0.0120840
696.318	0.0122150
696.396	0.0121848
696.474	0.0121984
696.552	0.0124152
696.630	0.0126818
696.708	0.0127173
696.786	0.0127638
696.864	0.0131590
696.943	0.0131731
697.021	0.0132339
697.099	0.0134459
697.177	0.0134458
697.255	0.0137906
697.333	0.0137163
697.411	0.0138234
697.489	0.0140231
697.568	0.0139189
697.646	0.0139951
697.724	0.0142216
697.802	0.0141411
697.880	0.0141581
697.958	0.0140626
698.036	0.0142396
698.114	0.0140853
698.193	0.0140329
698.271	0.0139806
698.349	0.0140176
698.427	0.0137353
698.505	0.0136603
698.583	0.0135689
698.661	0.0134003
698.739	0.0133993
698.818	0.0131052
698.896	0.0131027
698.974	0.0130223
699.052	0.0128947
699.130	0.0127896
699.208	0.0128079
699.286	0.0125700
699.364	0.0126569
699.443	0.0126398
699.521	0.0126616
699.599	0.0125760
699.677	0.0127052
699.755	0.0126913
699.833	0.0127769
699.911	0.0128838
699.989	0.0129301
700.068	0.0129073
700.146	0.0131714
700.224	0.0132312
700.302	0.0134763
700.380	0.0135648
700.458	0.0137104
700.536	0.0138529
700.614	0.0139571
700.693	0.0141981
700.771	0.0141808
700.849	0.0142600
700.927	0.0143584
701.005	0.0143587
701.083	0.0144247
701.161	0.0146648
701.239	0.0145706
701.318	0.0146099
701.396	0.0146009
701.474	0.0145966
701.552	0.0144786
701.630	0.0146664
701.708	0.0146324
701.786	0.0146307
701.864	0.0145103
701.943	0.0143961
702.021	0.0143641
702.099	0.0143195
702.177	0.0142407
702.255	0.0139623
702.333	0.0138844
702.411	0.0138431
702.489	0.0137217
702.568	0.0135508
702.646	0.0134914
702.724	0.0134690
702.802	0.0133095
702.880	0.0133802
702.958	0.0132280
703.036	0.0129084
703.114	0.0130206
703.193	0.0128452
703.271	0.0127592
703.349	0.0128916
703.427	0.0129490
703.505	0.0127721
703.583	0.0128788
703.661	0.0129593
703.739	0.0127972
703.818	0.0131012
703.896	0.0131099
703.974	0.0130807
704.052	0.0130614
704.130	0.0130003
704.208	0.0131023
704.286	0.0130389
704.364	0.0131444
704.443	0.0131953
704.521	0.0130640
704.599	0.0131451
704.677	0.0131000
704.755	0.0129650
704.833	0.0130163
704.911	0.0130224
704.989	0.0130986
705.068	0.0131557
705.146	0.0131873
705.224	0.0132913
705.302	0.0132533
705.380	0.0133840
705.458	0.0136605
705.536	0.0137540
705.614	0.0139529
705.693	0.0139828
705.771	0.0142247
705.849	0.0143344
705.927	0.0145755
706.005	0.0147754
706.083	0.0147353
706.161	0.0149706
706.239	0.0148675
706.318	0.0150230
706.396	0.0152116
706.474	0.0151958
706.552	0.0153740
706.630	0.0153313
706.708	0.0150053
706.786	0.0150570
706.864	0.0149351
706.943	0.0148042
707.021	0.0149080
707.099	0.0146641
707.177	0.0144749
707.255	0.0144270
707.333	0.0142328
707.411	0.0139812
707.489	0.0138799
707.568	0.0136197
707.646	0.0133312
707.724	0.0133151
707.802	0.0130337
707.880	0.0129427
707.958	0.0128220
708.036	0.0125469
708.114	0.0124379
708.193	0.0123186
708.271	0.0121581
708.349	0.0121405
708.427	0.0121502
708.505	0.0120409
708.583	0.0120731
708.661	0.0119514
708.739	0.0119593
708.818	0.0120943
708.896	0.0120505
708.974	0.0121561
709.052	0.0123201
709.130	0.0125037
709.208	0.0124887
709.286	0.0125779
709.364	0.0127792
709.443	0.0127319
709.521	0.0130141
709.599	0.0131871
709.677	0.0131776
709.755	0.0131598
709.833	0.0133741
709.911	0.0136473
709.989	0.0137500
710.068	0.0137223
710.146	0.0137598
710.224	0.0140102
710.302	0.0138779
710.380	0.0139175
710.458	0.0141874
710.536	0.0141358
710.614	0.0141471
710.693	0.0138634
710.771	0.0139356
710.849	0.0138760
710.927	0.0139685
711.005	0.0138567
711.083	0.0138930
711.161	0.0140307
711.239	0.0139341
711.318	0.0138992
711.396	0.0136604
711.474	0.0137323
711.552	0.0138035
711.630	0.0137772
711.708	0.0138030
711.786	0.0136012
711.864	0.0137893
711.943	0.0138448
712.021	0.0138076
712.099	0.0137199
712.177	0.0136442
712.255	0.0136489
712.333	0.0136411
712.411	0.0136789
712.489	0.0136770
712.568	0.0137784
712.646	0.0136044
712.724	0.0138744
712.802	0.0139021
712.880	0.0137640
712.958	0.0137934
713.036	0.0137714
713.114	0.0138862
713.193	0.0138881
713.271	0.0138342
713.349	0.0139124
713.427	0.0139175
713.505	0.0139034
713.583	0.0137193
713.661	0.0137041
713.739	0.0136740
713.818	0.0137157
713.896	0.0135289
713.974	0.0134770
714.052	0.0135682
714.130	0.0134735
714.208	0.0132368
714.286	0.0131148
714.364	0.0131500
714.443	0.0130869
714.521	0.0129781
714.599	0.0129586
714.677	0.0128709
714.755	0.0128126
714.833	0.0126919
714.911	0.0126786
714.989	0.0126901
715.068	0.0125875
715.146	0.0126698
715.224	0.0126821
715.302	0.0127773
715.380	0.0128236
715.458	0.0125881
715.536	0.0126814
715.614	0.0127644
715.693	0.0128144
715.771	0.0128324
715.849	0.0129062
715.927	0.0129048
716.005	0.0130306
716.083	0.0131060
716.161	0.0130615
716.239	0.0131364
716.318	0.0132635
716.396	0.0133200
716.474	0.0132523
716.552	0.0133434
716.630	0.0135335
716.708	0.0136735
716.786	0.0137337
716.864	0.0136395
716.943	0.0138087
717.021	0.0138574
717.099	0.0137885
717.177	0.0138078
717.255	0.0138302
717.333	0.0139343
717.411	0.0140293
717.489	0.0138766
717.568	0.0138582
717.646	0.0138840
717.724	0.0136836
717.802	0.0137980
717.880	0.0137069
717.958	0.0137596
718.036	0.0137749
718.114	0.0137302
718.193	0.0137337
718.271	0.0136241
718.349	0.0135904
718.427	0.0135284
718.505	0.0136108
718.583	0.0135761
718.661	0.0137347
718.739	0.0137134
718.818	0.0137165
718.896	0.0137713
718.974	0.0136848
719.052	0.0137532
719.130	0.0135830
719.208	0.0136210
719.286	0.0136159
719.364	0.0135298
719.443	0.0136574
719.521	0.0136607
719.599	0.0134768
719.677	0.0136481
719.755	0.0137244
719.833	0.0135052
719.911	0.0134892
719.989	0.0136692
720.068	0.0136912
720.146	0.0134621
720.224	0.0134286
720.302	0.0134947
720.380	0.0136256
720.458	0.0135281
720.536	0.0136829
720.614	0.0134553
720.693	0.0136507
720.771	0.0136029
720.849	0.0135712
720.927	0.0133748
721.005	0.0132697
721.083	0.0133820
721.161	0.0132775
721.239	0.0133028
721.318	0.0131477
721.396	0.0131538
721.474	0.0130560
721.552	0.0130846
721.630	0.0130111
721.708	0.0130753
721.786	0.0130448
721.864	0.0130865
721.943	0.0130798
722.021	0.0130538
722.099	0.0131310
722.177	0.0134308
722.255	0.0135334
722.333	0.0135863
722.411	0.0136648
722.489	0.0136081
722.568	0.0137165
722.646	0.0139165
722.724	0.0138864
722.802	0.0140297
722.880	0.0139867
722.958	0.0143032
723.036	0.0142068
723.114	0.0142528
723.193	0.0141918
723.271	0.0142056
723.349	0.0141464
723.427	0.0140657
723.505	0.0143155
723.583	0.0139658
723.661	0.0139941
723.739	0.0142474
723.818	0.0139779
723.896	0.0139533
723.974	0.0138932
724.052	0.0138800
724.130	0.0138942
724.208	0.0138701
724.286	0.0135734
724.364	0.0136156
724.443	0.0135567
724.521	0.0135178
724.599	0.0134836
724.677	0.0133662
724.755	0.0134472
724.833	0.0135287
724.911	0.0133486
724.989	0.0133257
725.068	0.0135800
725.146	0.0134557
725.224	0.0134826
725.302	0.0135753
725.380	0.0136626
725.458	0.0136288
725.536	0.0137183
725.614	0.0137639
725.693	0.0136900
725.771	0.0136617
725.849	0.0137928
725.927	0.0139382
726.005	0.0139190
726.083	0.0140759
726.161	0.0140495
726.239	0.0138588
726.318	0.0138567
726.396	0.0138486
726.474	0.0138966
726.552	0.0137977
726.630	0.0135792
726.708	0.0136930
726.786	0.0133971
726.864	0.0133614
726.943	0.0132697
727.021	0.0132910
727.099	0.0132116
727.177	0.0131697
727.255	0.0130533
727.333	0.0127850
727.411	0.0127625
727.489	0.0129743
727.568	0.0127442
727.646	0.0128284
727.724	0.0127344
727.802	0.0126382
727.880	0.0127161
727.958	0.0128345
728.036	0.0128038
728.114	0.0127861
728.193	0.0129642
728.271	0.0130385
728.349	0.0130366
728.427	0.0132465
728.505	0.0131580
728.583	0.0133952
728.661	0.0134841
728.739	0.0135221
728.818	0.0136423
728.896	0.0138264
728.974	0.0137550
729.052	0.0137252
729.130	0.0138164
729.208	0.0139290
729.286	0.0140600
729.364	0.0140829
729.443	0.0140150
729.521	0.0139636
729.599	0.0140134
729.677	0.0140602
729.755	0.0141335
729.833	0.0138633
729.911	0.0139701
729.989	0.0138262
730.068	0.0136522
730.146	0.0137619
730.224	0.0136668
730.302	0.0136015
730.380	0.0136604
730.458	0.0135109
730.536	0.0136259
730.614	0.0134946
730.693	0.0133400
730.771	0.0134993
730.849	0.0132758
730.927	0.0132093
731.005	0.0132716
731.083	0.0133594
731.161	0.0133302
731.239	0.0134403
731.318	0.0134520
731.396	0.0134138
731.474	0.0134612
731.552	0.0135033
731.630	0.0136466
731.708	0.0135870
731.786	0.0137180
731.864	0.0137396
731.943	0.0136808
732.021	0.0137471
732.099	0.0137687
732.177	0.0137635
732.255	0.0138148
732.333	0.0137666
732.411	0.0137118
732.489	0.0137077
732.568	0.0135779
732.646	0.0137212
732.724	0.0135347
732.802	0.0135855
732.880	0.0135693
732.958	0.0136079
733.036	0.0135311
733.114	0.0133817
733.193	0.0134627
733.271	0.0134225
733.349	0.0134743
733.427	0.0133467
733.505	0.0132822
733.583	0.0132726
733.661	0.0130894
733.739	0.0132758
733.818	0.0134097
733.896	0.0131445
733.974	0.0131689
734.052	0.0132246
734.130	0.0131356
734.208	0.0130828
734.286	0.0130295
734.364	0.0130578
734.443	0.0129948
734.521	0.0129105
734.599	0.0130583
734.677	0.0129974
734.755	0.0130028
734.833	0.0130915
734.911	0.0130666
734.989	0.0130187
735.068	0.0131931
735.146	0.0132560
735.224	0.0134373
735.302	0.0136366
735.380	0.0135401
735.458	0.0136324
735.536	0.0137862
735.614	0.0138674
735.693	0.0139203
735.771	0.0140411
735.849	0.0139799
735.927	0.0142466
736.005	0.0143106
736.083	0.0141700
736.161	0.0140970
736.239	0.0141833
736.318	0.0142934
736.396	0.0141733
736.474	0.0140263
736.552	0.0140636
736.630	0.0139994
736.708	0.0139833
736.786	0.0137844
736.864	0.0135342
736.943	0.0135767
737.021	0.0135593
737.099	0.0135252
737.177	0.0134922
737.255	0.0133281
737.333	0.0132539
737.411	0.0133354
737.489	0.0131853
737.568	0.0132005
737.646	0.0132236
737.724	0.0130054
737.802	0.0131769
737.880	0.0131698
737.958	0.0130614
738.036	0.0130714
738.114	0.0130944
738.193	0.0131007
738.271	0.0130515
738.349	0.0131549
738.427	0.0131006
738.505	0.0131390
738.583	0.0132174
738.661	0.0132593
738.739	0.0132986
738.818	0.0134129
738.896	0.0133839
738.974	0.0134895
739.052	0.0134038
739.130	0.0134532
739.208	0.0135343
739.286	0.0135221
739.364	0.0135753
739.443	0.0134490
739.521	0.0135502
739.599	0.0134853
739.677	0.0135844
739.755	0.0133920
739.833	0.0135548
739.911	0.0134990
739.989	0.0134470
740.068	0.0133472
740.146	0.0135606
740.224	0.0134038
740.302	0.0133504
740.380	0.0133105
740.458	0.0133736
740.536	0.0131974
740.614	0.0132050
740.693	0.0132005
740.771	0.0133742
740.849	0.0132721
740.927	0.0132474
741.005	0.0132297
741.083	0.0132031
741.161	0.0133156
741.239	0.0132966
741.318	0.0133072
741.396	0.0133298
741.474	0.0132015
741.552	0.0132758
741.630	0.0132268
741.708	0.0132114
741.786	0.0134284
741.864	0.0131103
741.943	0.0132253
742.021	0.0134811
742.099	0.0133163
742.177	0.0135102
742.255	0.0134689
742.333	0.0134894
742.411	0.0136577
742.489	0.0136602
742.568	0.0134973
742.646	0.0134939
742.724	0.0136012
742.802	0.0137399
742.880	0.0136221
742.958	0.0136652
743.036	0.0136995
743.114	0.0135497
743.193	0.0137048
743.271	0.0136348
743.349	0.0136672
743.427	0.0137283
743.505	0.0137126
743.583	0.0135668
743.661	0.0137263
743.739	0.0136321
743.818	0.0137270
743.896	0.0135339
743.974	0.0135841
744.052	0.0135306
744.130	0.0133565
744.208	0.0134893
744.286	0.0135075
744.364	0.0135168
744.443	0.0136238
744.521	0.0134601
744.599	0.0134967
744.677	0.0135779
744.755	0.0134261
744.833	0.0134372
744.911	0.0135450
744.989	0.0134344
745.068	0.0134084
745.146	0.0133618
745.224	0.0132748
745.302	0.0133459
745.380	0.0133469
745.458	0.0133611
745.536	0.0132771
745.614	0.0130785
745.693	0.0132678
745.771	0.0134177
745.849	0.0131311
745.927	0.0133176
746.005	0.0132577
746.083	0.0133934
746.161	0.0134837
746.239	0.0133205
746.318	0.0133953
746.396	0.0136094
746.474	0.0136087
746.552	0.0136380
746.630	0.0137123
746.708	0.0138340
746.786	0.0137183
746.864	0.0136641
746.943	0.0137129
747.021	0.0137709
747.099	0.0137286
747.177	0.0136841
747.255	0.0136395
747.333	0.0138116
747.411	0.0136594
747.489	0.0135777
747.568	0.0137536
747.646	0.0136113
747.724	0.0135120
747.802	0.0136275
747.880	0.0135946
747.958	0.0137344
748.036	0.0136008
748.114	0.0135701
748.193	0.0135618
748.271	0.0134792
748.349	0.0135096
748.427	0.0135431
748.505	0.0135719
748.583	0.0137104
748.661	0.0137028
748.739	0.0137466
748.818	0.0137032
748.896	0.0137098
748.974	0.0135515
749.052	0.0135922
749.130	0.0136374
749.208	0.0136314
749.286	0.0135540
749.364	0.0135558
749.443	0.0135518
749.521	0.0134251
749.599	0.0135104
749.677	0.0135036
749.755	0.0134575
749.833	0.0135760
749.911	0.0134888
749.989	0.0134638
750.068	0.0135610
750.146	0.0135628
750.224	0.0135218
750.302	0.0137280
750.380	0.0134335
750.458	0.0134701
750.536	0.0135936
750.614	0.0136279
750.693	0.0138148
750.771	0.0136694
750.849	0.0137286
750.927	0.0136709
751.005	0.0136451
751.083	0.0138667
751.161	0.0139213
751.239	0.0137222
751.318	0.0138098
751.396	0.0138900
751.474	0.0137697
751.552	0.0137759
751.630	0.0136660
751.708	0.0136345
751.786	0.0136667
751.864	0.0137741
751.943	0.0136417
752.021	0.0136548
752.099	0.0136579
752.177	0.0135434
752.255	0.0135437
752.333	0.0134689
752.411	0.0134540
752.489	0.0133264
752.568	0.0134024
752.646	0.0131970
752.724	0.0134232
752.802	0.0132908
752.880	0.0132101
752.958	0.0132279
753.036	0.0130988
753.114	0.0130907
753.193	0.0131019
753.271	0.0130182
753.349	0.0130700
753.427	0.0130041
753.505	0.0131345
753.583	0.0130713
753.661	0.0131458
753.739	0.0131580
753.818	0.0130192
753.896	0.0131501
753.974	0.0131281
754.052	0.0130901
754.130	0.0130159
754.208	0.0132522
754.286	0.0134387
754.364	0.0132655
754.443	0.0134193
754.521	0.0135290
754.599	0.0136591
754.677	0.0135629
754.755	0.0136336
754.833	0.0137418
754.911	0.0137485
754.989	0.0139262
755.068	0.0138938
755.146	0.0139458
755.224	0.0138351
755.302	0.0138716
755.380	0.0139271
755.458	0.0140530
755.536	0.0140370
755.614	0.0139927
755.693	0.0139389
755.771	0.0140302
755.849	0.0139484
755.927	0.0138283
756.005	0.0140884
756.083	0.0139461
756.161	0.0138544
756.239	0.0137146
756.318	0.0137547
756.396	0.0137226
756.474	0.0135514
756.552	0.0135435
756.630	0.0134076
756.708	0.0133034
756.786	0.0131881
756.864	0.0133046
756.943	0.0131921
757.021	0.0132678
757.099	0.0130075
757.177	0.0129787
757.255	0.0129179
757.333	0.0129822
757.411	0.0127930
757.489	0.0128359
757.568	0.0129093
757.646	0.0128275
757.724	0.0127960
757.802	0.0129217
757.880	0.0128802
757.958	0.0130071
758.036	0.0129839
758.114	0.0130032
758.193	0.0130796
758.271	0.0131985
758.349	0.0130990
758.427	0.0132526
758.505	0.0132976
758.583	0.0134323
758.661	0.0135808
758.739	0.0134834
758.818	0.0136349
758.896	0.0137168
758.974	0.0137531
759.052	0.0137846
759.130	0.0137089
759.208	0.0138235
759.286	0.0139362
759.364	0.0139758
759.443	0.0138917
759.521	0.0139907
759.599	0.0139746
759.677	0.0139587
759.755	0.0138388
759.833	0.0139024
759.911	0.0138313
759.989	0.0138033
760.068	0.0137560
760.146	0.0138072
760.224	0.0138097
760.302	0.0136634
760.380	0.0136127
760.458	0.0135468
760.536	0.0135718
760.614	0.0134762
760.693	0.0134710
760.771	0.0134689
760.849	0.0132964
760.927	0.0134321
761.005	0.0131202
761.083	0.0132123
761.161	0.0131769
761.239	0.0130596
761.318	0.0131471
761.396	0.0131959
761.474	0.0131304
761.552	0.0130247
761.630	0.0130620
761.708	0.0131210
761.786	0.0131411
761.864	0.0132318
761.943	0.0132031
762.021	0.0132495
762.099	0.0133319
762.177	0.0134692
762.255	0.0133860
762.333	0.0133500
762.411	0.0134943
762.489	0.0136180
762.568	0.0137012
762.646	0.0137104
762.724	0.0137349
762.802	0.0138197
762.880	0.0138155
762.958	0.0138459
763.036	0.0139779
763.114	0.0139777
763.193	0.0138419
763.271	0.0139954
763.349	0.0139072
763.427	0.0139671
763.505	0.0139514
763.583	0.0138483
763.661	0.0140887
763.739	0.0139297
763.818	0.0139013
763.896	0.0138460
763.974	0.0139059
764.052	0.0139450
764.130	0.0137579
764.208	0.0137780
764.286	0.0137973
764.364	0.0137930
764.443	0.0137403
764.521	0.0137272
764.599	0.0136579
764.677	0.0136716
764.755	0.0135960
764.833	0.0134745
764.911	0.0133946
764.989	0.0133430
765.068	0.0134053
765.146	0.0133034
765.224	0.0134496
765.302	0.0132133
765.380	0.0132433
765.458	0.0130975
765.536	0.0132126
765.614	0.0131702
765.693	0.0131920
765.771	0.0132652
765.849	0.0131798
765.927	0.0130706
766.005	0.0130636
766.083	0.0132146
766.161	0.0131100
766.239	0.0130244
766.318	0.0130210
766.396	0.0130204
766.474	0.0130828
766.552	0.0132140
766.630	0.0131668
766.708	0.0131130
766.786	0.0130704
766.864	0.0131385
766.943	0.0131809
767.021	0.0133486
767.099	0.0132221
767.177	0.0132165
767.255	0.0133318
767.333	0.0133315
767.411	0.0134689
767.489	0.0135178
767.568	0.0134943
767.646	0.0136920
767.724	0.0137960
767.802	0.0136900
767.880	0.0138109
767.958	0.0138537
768.036	0.0138406
768.114	0.0139951
768.193	0.0139473
768.271	0.0139201
768.349	0.0139651
768.427	0.0141470
768.505	0.0138853
768.583	0.0138911
768.661	0.0139948
768.739	0.0140056
768.818	0.0138810
768.896	0.0138895
768.974	0.0138948
769.052	0.0138799
769.130	0.0137379
769.208	0.0137944
769.286	0.0138596
769.364	0.0138124
769.443	0.0137417
769.521	0.0138533
769.599	0.0137774
769.677	0.0138051
769.755	0.0136081
769.833	0.0136050
769.911	0.0136129
769.989	0.0136613
770.068	0.0137289
770.146	0.0134628
770.224	0.0135788
770.302	0.0134716
770.380	0.0135461
770.458	0.0135976
770.536	0.0133872
770.614	0.0133388
770.693	0.0135462
770.771	0.0134521
770.849	0.0134120
770.927	0.0133875
771.005	0.0134087
771.083	0.0134106
771.161	0.0133522
771.239	0.0135213
771.318	0.0133875
771.396	0.0135501
771.474	0.0135070
771.552	0.0134322
771.630	0.0134679
771.708	0.0133836
771.786	0.0134608
771.864	0.0133442
771.943	0.0134758
772.021	0.0133345
772.099	0.0132283
772.177	0.0132723
772.255	0.0133298
772.333	0.0132442
772.411	0.0133602
772.489	0.0133598
772.568	0.0133677
772.646	0.0133418
772.724	0.0133340
772.802	0.0133450
772.880	0.0135068
772.958	0.0134377
773.036	0.0134823
773.114	0.0134564
773.193	0.0134139
773.271	0.0134571
773.349	0.0134447
773.427	0.0135168
773.505	0.0134600
773.583	0.0133511
773.661	0.0134606
773.739	0.0135715
773.818	0.0136596
773.896	0.0135811
773.974	0.0136481
774.052	0.0134702
774.130	0.0135990
774.208	0.0136595
774.286	0.0137033
774.364	0.0136562
774.443	0.0137164
774.521	0.0138647
774.599	0.0138219
774.677	0.0139288
774.755	0.0137182
774.833	0.0138607
774.911	0.0139429
774.989	0.0139353
775.068	0.0138931
775.146	0.0138667
775.224	0.0139455
775.302	0.0138393
775.380	0.0140007
775.458	0.0140443
775.536	0.0139625
775.614	0.0140358
775.693	0.0141953
775.771	0.0140288
775.849	0.0139265
775.927	0.0141086
776.005	0.0141720
776.083	0.0140005
776.161	0.0139221
776.239	0.0138695
776.318	0.0139365
776.396	0.0137437
776.474	0.0137601
776.552	0.0137858
776.630	0.0137881
776.708	0.0137402
776.786	0.0136584
776.864	0.0135860
776.943	0.0135151
777.021	0.0133262
777.099	0.0134064
777.177	0.0133273
777.255	0.0131242
777.333	0.0131523
777.411	0.0132219
777.489	0.0131764
777.568	0.0130560
777.646	0.0130411
777.724	0.0130322
777.802	0.0130132
777.880	0.0130139
777.958	0.0129337
778.036	0.0130816
778.114	0.0129845
778.193	0.0129710
778.271	0.0130887
778.349	0.0130553
778.427	0.0130936
778.505	0.0130951
778.583	0.0131300
778.661	0.0133470
778.739	0.0133528
778.818	0.0133357
778.896	0.0134058
778.974	0.0133392
779.052	0.0134533
779.130	0.0135344
779.208	0.0135513
779.286	0.0136125
779.364	0.0136273
779.443	0.0137759
779.521	0.0137581
779.599	0.0137901
779.677	0.0137597
779.755	0.0138342
779.833	0.0137141
779.911	0.0139635
779.989	0.0138431
780.068	0.0138670
780.146	0.0138326
780.224	0.0138161
780.302	0.0139738
780.380	0.0137434
780.458	0.0137170
780.536	0.0137768
780.614	0.0137638
780.693	0.0137698
780.771	0.0135846
780.849	0.0137302
780.927	0.0136646
781.005	0.0135280
781.083	0.0135143
781.161	0.0135546
781.239	0.0135308
781.318	0.0133721
781.396	0.0134088
781.474	0.0132366
781.552	0.0134093
781.630	0.0134837
781.708	0.0134842
781.786	0.0134762
781.864	0.0133502
781.943	0.0134429
782.021	0.0133781
782.099	0.0135181
782.177	0.0134482
782.255	0.0135238
782.333	0.0134945
782.411	0.0134578
782.489	0.0136317
782.568	0.0135771
782.646	0.0135711
782.724	0.0136136
782.802	0.0135303
782.880	0.0135313
782.958	0.0135956
783.036	0.0135626
783.114	0.0135745
783.193	0.0135495
783.271	0.0136172
783.349	0.0134834
783.427	0.0135034
783.505	0.0135182
783.583	0.0135542
783.661	0.0135246
783.739	0.0134818
783.818	0.0135188
783.896	0.0136425
783.974	0.0136071
784.052	0.0135466
784.130	0.0137090
784.208	0.0136153
784.286	0.0135835
784.364	0.0135381
784.443	0.0136382
784.521	0.0138277
784.599	0.0136351
784.677	0.0136997
784.755	0.0136995
784.833	0.0137379
784.911	0.0136863
784.989	0.0138319
785.068	0.0138687
785.146	0.0138133
785.224	0.0138727
785.302	0.0139325
785.380	0.0138997
785.458	0.0139317
785.536	0.0139280
785.614	0.0140289
785.693	0.0138717
785.771	0.0137675
785.849	0.0137232
785.927	0.0138213
786.005	0.0138795
786.083	0.0138033
786.161	0.0138605
786.239	0.0139265
786.318	0.0137306
786.396	0.0136841
786.474	0.0138186
786.552	0.0136626
786.630	0.0134891
786.708	0.0135251
786.786	0.0134688
786.864	0.0133690
786.943	0.0134617
787.021	0.0134477
787.099	0.0133029
787.177	0.0133086
787.255	0.0133072
787.333	0.0134874
787.411	0.0133801
787.489	0.0132207
787.568	0.0132279
787.646	0.0134934
787.724	0.0133590
787.802	0.0132982
787.880	0.0133896
787.958	0.0134947
788.036	0.0134827
788.114	0.0134027
788.193	0.0134704
788.271	0.0135390
788.349	0.0135726
788.427	0.0134059
788.505	0.0135526
788.583	0.0133827
788.661	0.0135232
788.739	0.0134201
788.818	0.0133430
788.896	0.0133726
788.974	0.0133868
789.052	0.0134043
789.130	0.0134539
789.208	0.0135186
789.286	0.0134220
789.364	0.0133269
789.443	0.0132626
789.521	0.0134356
789.599	0.0134261
789.677	0.0135393
789.755	0.0133308
789.833	0.0133789
789.911	0.0133474
789.989	0.0134563
790.068	0.0134340
790.146	0.0134415
790.224	0.0136216
790.302	0.0137211
790.380	0.0137785
790.458	0.0137932
790.536	0.0137218
790.614	0.0138056
790.693	0.0138766
790.771	0.0137755
790.849	0.0139023
790.927	0.0138417
791.005	0.0139410
791.083	0.0139845
791.161	0.0138334
791.239	0.0139766
791.318	0.0139455
791.396	0.0138847
791.474	0.0138651
791.552	0.0138671
791.630	0.0139421
791.708	0.0138924
791.786	0.0137724
791.864	0.0137668
791.943	0.0135814
792.021	0.0137245
792.099	0.0135995
792.177	0.0137129
792.255	0.0137058
792.333	0.0136258
792.411	0.0135203
792.489	0.0136208
792.568	0.0135312
792.646	0.0134816
792.724	0.0135111
792.802	0.0135609
792.880	0.0133801
792.958	0.0135175
793.036	0.0135078
793.114	0.0136388
793.193	0.0134867
793.271	0.0134192
793.349	0.0134948
793.427	0.0135120
793.505	0.0135147
793.583	0.0135186
793.661	0.0134003
793.739	0.0134847
793.818	0.0135011
793.896	0.0135667
793.974	0.0132996
794.052	0.0135313
794.130	0.0135664
794.208	0.0133585
794.286	0.0134169
794.364	0.0135007
794.443	0.0134201
794.521	0.0133470
794.599	0.0133751
794.677	0.0133884
794.755	0.0133834
794.833	0.0132609
794.911	0.0134235
794.989	0.0134683
795.068	0.0134144
795.146	0.0134605
795.224	0.0136564
795.302	0.0134921
795.380	0.0137133
795.458	0.0135907
795.536	0.0135764
795.614	0.0135984
795.693	0.0136990
795.771	0.0136923
795.849	0.0136201
795.927	0.0138040
796.005	0.0137168
796.083	0.0137437
796.161	0.0137807
796.239	0.0135342
796.318	0.0135690
796.396	0.0135203
796.474	0.0135083
796.552	0.0135574
796.630	0.0135586
796.708	0.0135670
796.786	0.0135339
796.864	0.0135632
796.943	0.0136184
797.021	0.0135456
797.099	0.0135859
797.177	0.0135528
797.255	0.0136650
797.333	0.0136510
797.411	0.0137307
797.489	0.0136129
797.568	0.0134690
797.646	0.0136128
797.724	0.0135192
797.802	0.0135403
797.880	0.0134558
797.958	0.0135257
798.036	0.0135005
798.114	0.0134730
798.193	0.0134550
798.271	0.0133987
798.349	0.0134115
798.427	0.0135300
798.505	0.0134595
798.583	0.0134873
798.661	0.0134536
798.739	0.0134859
798.818	0.0133372
798.896	0.0133369
798.974	0.0134755
799.052	0.0134664
799.130	0.0134873
799.208	0.0134499
799.286	0.0135029
799.364	0.0133332
799.443	0.0134120
799.521	0.0133900
799.599	0.0132624
799.677	0.0133109
799.755	0.0132505
799.833	0.0133177
799.911	0.0133594
799.989	0.0133515
800.068	0.0133666
800.146	0.0134300
800.224	0.0135274
800.302	0.0134940
800.380	0.0134758
800.458	0.0135617
800.536	0.0134944
800.614	0.0135795
800.693	0.0135215
800.771	0.0136846
800.849	0.0137917
800.927	0.0136135
801.005	0.0136260
801.083	0.0136203
801.161	0.0136379
801.239	0.0136162
801.318	0.0135320
801.396	0.0134272
801.474	0.0135047
801.552	0.0136370
801.630	0.0134480
801.708	0.0135153
801.786	0.0135992
801.864	0.0133769
801.943	0.0135821
802.021	0.0135437
802.099	0.0134923
802.177	0.0135579
802.255	0.0135030
802.333	0.0135645
802.411	0.0137217
802.489	0.0136338
802.568	0.0136747
802.646	0.0136212
802.724	0.0136669
802.802	0.0136290
802.880	0.0136481
802.958	0.0135502
803.036	0.0136819
803.114	0.0137534
803.193	0.0137439
803.271	0.0137118
803.349	0.0137015
803.427	0.0138131
803.505	0.0137856
803.583	0.0137495
803.661	0.0139086
803.739	0.0138574
803.818	0.0138421
803.896	0.0138455
803.974	0.0137710
804.052	0.0136943
804.130	0.0137426
804.208	0.0138957
804.286	0.0137275
804.364	0.0136094
804.443	0.0135885
804.521	0.0137488
804.599	0.0136300
804.677	0.0135646
804.755	0.0134566
804.833	0.0135879
804.911	0.0133647
804.989	0.0133060
805.068	0.0133093
805.146	0.0132694
805.224	0.0131676
805.302	0.0131223
805.380	0.0132291
805.458	0.0131553
805.536	0.0133186
805.614	0.0133664
805.693	0.0132529
805.771	0.0133454
805.849	0.0134248
805.927	0.0134896
806.005	0.0134436
806.083	0.0133379
806.161	0.0136151
806.239	0.0135626
806.318	0.0135017
806.396	0.0136670
806.474	0.0136566
806.552	0.0135563
806.630	0.0135116
806.708	0.0136545
806.786	0.0137535
806.864	0.0137670
806.943	0.0136581
807.021	0.0135741
807.099	0.0136983
807.177	0.0138313
807.255	0.0136797
807.333	0.0136114
807.411	0.0137417
807.489	0.0137364
807.568	0.0136480
807.646	0.0136287
807.724	0.0136874
807.802	0.0137148
807.880	0.0136795
807.958	0.0135696
808.036	0.0135979
808.114	0.0135294
808.193	0.0134782
808.271	0.0133912
808.349	0.0135249
808.427	0.0134642
808.505	0.0133162
808.583	0.0133202
808.661	0.0133636
808.739	0.0133880
808.818	0.0135001
808.896	0.0135773
808.974	0.0135219
809.052	0.0135754
809.130	0.0135898
809.208	0.0134641
809.286	0.0136653
809.364	0.0136086
809.443	0.0137653
809.521	0.0137769
809.599	0.0137307
809.677	0.0138346
809.755	0.0137846
809.833	0.0137379
809.911	0.0137804
809.989	0.0138628
810.068	0.0138060
810.146	0.0137587
810.224	0.0138100
810.302	0.0137835
810.380	0.0138293
810.458	0.0138246
810.536	0.0138049
810.614	0.0134911
810.693	0.0134820
810.771	0.0134454
810.849	0.0135111
810.927	0.0133427
811.005	0.0133611
811.083	0.0134360
811.161	0.0131689
811.239	0.0132275
811.318	0.0131174
811.396	0.0131175
811.474	0.0132773
811.552	0.0132279
811.630	0.0132445
811.708	0.0131454
811.786	0.0133230
811.864	0.0133227
811.943	0.0131970
812.021	0.0134350
812.099	0.0133117
812.177	0.0134702
812.255	0.0135349
812.333	0.0134937
812.411	0.0133044
812.489	0.0134246
812.568	0.0135803
812.646	0.0134602
812.724	0.0133313
812.802	0.0135160
812.880	0.0135283
812.958	0.0134866
813.036	0.0135197
813.114	0.0136021
813.193	0.0135181
813.271	0.0134797
813.349	0.0135322
813.427	0.0134666
813.505	0.0134172
813.583	0.0133958
813.661	0.0134392
813.739	0.0133216
813.818	0.0134731
813.896	0.0133574
813.974	0.0135773
814.052	0.0135194
814.130	0.0131940
814.208	0.0132336
814.286	0.0133885
814.364	0.0135506
814.443	0.0135656
814.521	0.0135547
814.599	0.0135177
814.677	0.0135004
814.755	0.0136123
814.833	0.0136176
814.911	0.0136151
814.989	0.0137320
815.068	0.0137885
815.146	0.0138197
815.224	0.0138438
815.302	0.0138329
815.380	0.0137687
815.458	0.0138007
815.536	0.0139193
815.614	0.0139043
815.693	0.0139510
815.771	0.0137864
815.849	0.0139150
815.927	0.0138808
816.005	0.0139449
816.083	0.0137100
816.161	0.0136954
816.239	0.0137056
816.318	0.0136716
816.396	0.0137035
816.474	0.0134879
816.552	0.0135576
816.630	0.0134521
816.708	0.0133758
816.786	0.0133435
816.864	0.0132767
816.943	0.0132687
817.021	0.0132032
817.099	0.0133961
817.177	0.0132296
817.255	0.0132239
817.333	0.0133615
817.411	0.0132398
817.489	0.0134798
817.568	0.0134355
817.646	0.0135222
817.724	0.0135579
817.802	0.0133619
817.880	0.0135812
817.958	0.0135549
818.036	0.0134792
818.114	0.0136304
818.193	0.0134728
818.271	0.0135389
818.349	0.0134425
818.427	0.0134575
818.505	0.0135217
818.583	0.0135656
818.661	0.0136502
818.739	0.0134314
818.818	0.0133719
818.896	0.0135352
818.974	0.0133889
819.052	0.0133855
819.130	0.0134258
819.208	0.0134113
819.286	0.0134087
819.364	0.0136005
819.443	0.0134767
819.521	0.0134141
819.599	0.0135633
819.677	0.0135685
819.755	0.0135956
819.833	0.0134306
819.911	0.0135535
819.989	0.0136784
820.068	0.0136421
820.146	0.0136558
820.224	0.0135651
820.302	0.0135162
820.380	0.0134904
820.458	0.0135428
820.536	0.0135648
820.614	0.0136008
820.693	0.0135594
820.771	0.0136154
820.849	0.0134249
820.927	0.0135085
821.005	0.0134736
821.083	0.0134420
821.161	0.0135978
821.239	0.0134801
821.318	0.0135270
821.396	0.0134902
821.474	0.0135605
821.552	0.0134819
821.630	0.0132729
821.708	0.0133208
821.786	0.0133420
821.864	0.0131993
821.943	0.0131555
822.021	0.0133176
822.099	0.0132564
822.177	0.0131577
822.255	0.0131116
822.333	0.0131390
822.411	0.0131730
822.489	0.0131829
822.568	0.0132529
822.646	0.0132076
822.724	0.0132313
822.802	0.0133479
822.880	0.0134339
822.958	0.0134647
823.036	0.0134392
823.114	0.0135486
823.193	0.0135144
823.271	0.0136199
823.349	0.0136618
823.427	0.0136816
823.505	0.0135777
823.583	0.0135805
823.661	0.0136646
823.739	0.0136941
823.818	0.0136148
823.896	0.0136564
823.974	0.0136593
824.052	0.0136142
824.130	0.0136157
824.208	0.0135251
824.286	0.0135910
824.364	0.0135595
824.443	0.0136114
824.521	0.0135243
824.599	0.0136295
824.677	0.0135703
824.755	0.0135236
824.833	0.0135089
824.911	0.0135380
824.989	0.0136490
825.068	0.0135808
825.146	0.0135954
825.224	0.0136529
825.302	0.0137749
825.380	0.0135477
825.458	0.0136819
825.536	0.0137090
825.614	0.0137164
825.693	0.0135527
825.771	0.0137350
825.849	0.0137174
825.927	0.0137516
826.005	0.0136951
826.083	0.0137168
826.161	0.0138030
826.239	0.0136695
826.318	0.0137151
826.396	0.0138183
826.474	0.0137740
826.552	0.0137860
826.630	0.0137679
826.708	0.0137804
826.786	0.0138264
826.864	0.0137180
826.943	0.0136359
827.021	0.0136942
827.099	0.0137249
827.177	0.0133272
827.255	0.0133572
827.333	0.0134840
827.411	0.0133739
827.489	0.0133727
827.568	0.0133191
827.646	0.0131917
827.724	0.0132413
827.802	0.0131916
827.880	0.0131652
827.958	0.0132681
828.036	0.0132153
828.114	0.0131862
828.193	0.0130741
828.271	0.0129299
828.349	0.0129346
828.427	0.0132037
828.505	0.0132270
828.583	0.0131260
828.661	0.0131139
828.739	0.0132821
828.818	0.0132750
828.896	0.0134129
828.974	0.0134344
829.052	0.0133806
829.130	0.0133290
829.208	0.0132226
829.286	0.0134036
829.364	0.0134801
829.443	0.0135397
829.521	0.0135008
829.599	0.0134621
829.677	0.0135805
829.755	0.0135830
829.833	0.0136235
829.911	0.0137363
829.989	0.0136398
830.068	0.0136508
830.146	0.0136705
830.224	0.0137005
830.302	0.0137080
830.380	0.0136922
830.458	0.0136152
830.536	0.0137048
830.614	0.0135767
830.693	0.0136041
830.771	0.0136180
830.849	0.0136700
830.927	0.0135895
831.005	0.0136214
831.083	0.0135129
831.161	0.0133902
831.239	0.0134364
831.318	0.0134927
831.396	0.0134213
831.474	0.0134111
831.552	0.0134502
831.630	0.0132946
831.708	0.0136064
831.786	0.0133872
831.864	0.0133135
831.943	0.0134467
832.021	0.0135430
832.099	0.0135628
832.177	0.0134767
832.255	0.0136118
832.333	0.0136255
832.411	0.0136115
832.489	0.0135674
832.568	0.0135818
832.646	0.0136877
832.724	0.0135394
832.802	0.0135105
832.880	0.0136012
832.958	0.0137009
833.036	0.0136285
833.114	0.0136361
833.193	0.0136512
833.271	0.0134870
833.349	0.0135864
833.427	0.0136021
833.505	0.0136058
833.583	0.0137153
833.661	0.0136590
833.739	0.0135889
833.818	0.0136264
833.896	0.0136799
833.974	0.0134413
834.052	0.0135745
834.130	0.0134930
834.208	0.0134426
834.286	0.0134514
834.364	0.0134077
834.443	0.0134392
834.521	0.0134885
834.599	0.0134780
834.677	0.0133721
834.755	0.0134654
834.833	0.0135063
834.911	0.0132981
834.989	0.0134377
835.068	0.0133833
835.146	0.0134650
835.224	0.0134003
835.302	0.0132730
835.380	0.0133693
835.458	0.0133345
835.536	0.0133072
835.614	0.0133707
835.693	0.0134061
835.771	0.0134661
835.849	0.0133771
835.927	0.0133248
836.005	0.0132843
836.083	0.0134352
836.161	0.0134155
836.239	0.0134335
836.318	0.0134298
836.396	0.0133991
836.474	0.0134579
836.552	0.0134422
836.630	0.0134089
836.708	0.0135178
836.786	0.0135979
836.864	0.0135617
836.943	0.0136068
837.021	0.0137055
837.099	0.0136254
837.177	0.0136383
837.255	0.0136224
837.333	0.0135625
837.411	0.0135918
837.489	0.0135650
837.568	0.0135044
837.646	0.0135841
837.724	0.0136591
837.802	0.0135618
837.880	0.0135699
837.958	0.0133370
838.036	0.0135195
838.114	0.0136011
838.193	0.0135653
838.271	0.0133540
838.349	0.0135435
838.427	0.0135278
838.505	0.0133138
838.583	0.0134830
838.661	0.0134742
838.739	0.0135264
838.818	0.0133850
838.896	0.0134646
838.974	0.0134311
839.052	0.0135384
839.130	0.0135061
839.208	0.0134172
839.286	0.0133698
839.364	0.0132827
839.443	0.0134909
839.521	0.0134171
839.599	0.0134309
839.677	0.0133734
839.755	0.0134814
839.833	0.0135891
839.911	0.0135020
839.989	0.0134770
840.068	0.0134959
840.146	0.0134438
840.224	0.0135911
840.302	0.0135449
840.380	0.0135822
840.458	0.0136352
840.536	0.0135493
840.614	0.0135648
840.693	0.0135418
840.771	0.0136327
840.849	0.0135941
840.927	0.0135165
841.005	0.0136641
841.083	0.0134475
841.161	0.0133929
841.239	0.0134887
841.318	0.0134058
841.396	0.0135930
841.474	0.0133578
841.552	0.0134827
841.630	0.0136242
841.708	0.0134631
841.786	0.0134012
841.864	0.0134909
841.943	0.0134058
842.021	0.0134615
842.099	0.0134854
842.177	0.0133705
842.255	0.0133403
842.333	0.0135134
842.411	0.0133578
842.489	0.0132822
842.568	0.0134524
842.646	0.0134902
842.724	0.0132412
842.802	0.0134314
842.880	0.0133882
842.958	0.0132977
843.036	0.0133071
843.114	0.0133531
843.193	0.0134776
843.271	0.0134270
843.349	0.0133128
843.427	0.0133602
843.505	0.0133070
843.583	0.0133408
843.661	0.0133842
843.739	0.0133185
843.818	0.0133202
843.896	0.0133281
843.974	0.0133042
844.052	0.0133947
844.130	0.0133546
844.208	0.0134584
844.286	0.0134511
844.364	0.0134483
844.443	0.0132430
844.521	0.0133439
844.599	0.0133839
844.677	0.0135248
844.755	0.0133698
844.833	0.0134127
844.911	0.0133749
844.989	0.0133491
845.068	0.0133226
845.146	0.0133105
845.224	0.0134836
845.302	0.0134428
845.380	0.0133284
845.458	0.0134837
845.536	0.0135028
845.614	0.0134631
845.693	0.0134770
845.771	0.0134966
845.849	0.0135470
845.927	0.0135300
846.005	0.0135802
846.083	0.0135315
846.161	0.0135394
846.239	0.0135981
846.318	0.0137305
846.396	0.0135947
846.474	0.0135686
846.552	0.0135798
846.630	0.0135244
846.708	0.0135349
846.786	0.0136217
846.864	0.0135939
846.943	0.0135546
847.021	0.0133683
847.099	0.0136422
847.177	0.0134930
847.255	0.0134872
847.333	0.0135866
847.411	0.0135159
847.489	0.0134772
847.568	0.0135322
847.646	0.0132969
847.724	0.0135450
847.802	0.0134763
847.880	0.0135011
847.958	0.0133495
848.036	0.0133569
848.114	0.0134238
848.193	0.0133484
848.271	0.0132796
848.349	0.0134210
848.427	0.0133340
848.505	0.0135194
848.583	0.0134214
848.661	0.0134887
848.739	0.0135648
848.818	0.0134778
848.896	0.0135574
848.974	0.0135596
849.052	0.0135650
849.130	0.0136941
849.208	0.0135835
849.286	0.0135314
849.364	0.0135575
849.443	0.0136086
849.521	0.0136906
849.599	0.0138278
849.677	0.0138512
849.755	0.0137659
849.833	0.0138660
849.911	0.0137656
849.989	0.0138905
850.068	0.0139738
850.146	0.0138766
850.224	0.0138574
850.302	0.0138259
850.380	0.0140398
850.458	0.0138966
850.536	0.0137751
850.614	0.0137141
850.693	0.0139046
850.771	0.0137207
850.849	0.0137594
850.927	0.0136588
851.005	0.0136108
851.083	0.0136264
851.161	0.0136118
851.239	0.0137284
851.318	0.0136213
851.396	0.0135571
851.474	0.0135561
851.552	0.0134820
851.630	0.0134428
851.708	0.0133424
851.786	0.0132076
851.864	0.0132691
851.943	0.0132610
852.021	0.0132554
852.099	0.0133045
852.177	0.0132365
852.255	0.0132196
852.333	0.0131792
852.411	0.0132578
852.489	0.0131884
852.568	0.0132604
852.646	0.0133122
852.724	0.0131471
852.802	0.0132577
852.880	0.0131509
852.958	0.0133564
853.036	0.0133031
853.114	0.0133022
853.193	0.0134653
853.271	0.0135482
853.349	0.0135836
853.427	0.0134835
853.505	0.0135857
853.583	0.0136103
853.661	0.0136300
853.739	0.0136590
853.818	0.0137070
853.896	0.0136787
853.974	0.0137311
854.052	0.0138244
854.130	0.0138482
854.208	0.0137428
854.286	0.0138541
854.364	0.0136602
854.443	0.0136829
854.521	0.0137696
854.599	0.0138012
854.677	0.0136191
854.755	0.0136644
854.833	0.0137795
854.911	0.0137673
854.989	0.0137442
855.068	0.0136298
855.146	0.0135572
855.224	0.0136734
855.302	0.0136339
855.380	0.0135970
855.458	0.0135404
855.536	0.0134143
855.614	0.0134633
855.693	0.0136222
855.771	0.0134555
855.849	0.0133745
855.927	0.0134130
856.005	0.0133620
856.083	0.0132652
856.161	0.0132703
856.239	0.0133250
856.318	0.0132976
856.396	0.0131106
856.474	0.0132436
856.552	0.0132555
856.630	0.0131722
856.708	0.0132228
856.786	0.0132864
856.864	0.0133627
856.943	0.0133869
857.021	0.0133772
857.099	0.0134157
857.177	0.0132413
857.255	0.0134167
857.333	0.0134710
857.411	0.0133251
857.489	0.0134951
857.568	0.0134155
857.646	0.0136199
857.724	0.0137506
857.802	0.0135329
857.880	0.0136258
857.958	0.0137071
858.036	0.0135838
858.114	0.0136205
858.193	0.0136769
858.271	0.0138310
858.349	0.0138471
858.427	0.0137297
858.505	0.0138704
858.583	0.0138114
858.661	0.0136782
858.739	0.0137773
858.818	0.0136454
858.896	0.0137621
858.974	0.0138390
859.052	0.0136546
859.130	0.0136279
859.208	0.0135762
859.286	0.0135959
859.364	0.0135403
859.443	0.0135775
859.521	0.0135674
859.599	0.0134853
859.677	0.0134577
859.755	0.0134280
859.833	0.0133587
859.911	0.0133179
859.989	0.0133233
860.068	0.0133602
860.146	0.0134937
860.224	0.0133076
860.302	0.0134010
860.380	0.0133786
860.458	0.0133247
860.536	0.0133696
860.614	0.0132745
860.693	0.0133254
860.771	0.0133105
860.849	0.0132890
860.927	0.0133386
861.005	0.0133083
861.083	0.0132622
861.161	0.0133828
861.239	0.0134231
861.318	0.0132984
861.396	0.0131984
861.474	0.0131952
861.552	0.0133865
861.630	0.0135056
861.708	0.0135041
861.786	0.0134748
861.864	0.0134327
861.943	0.0134308
862.021	0.0134904
862.099	0.0136606
862.177	0.0137021
862.255	0.0137273
862.333	0.0136404
862.411	0.0136926
862.489	0.0135885
862.568	0.0136996
862.646	0.0137003
862.724	0.0138762
862.802	0.0138271
862.880	0.0137310
862.958	0.0137434
863.036	0.0137726
863.114	0.0137230
863.193	0.0137698
863.271	0.0137672
863.349	0.0136595
863.427	0.0137621
863.505	0.0136932
863.583	0.0136672
863.661	0.0135091
863.739	0.0135283
863.818	0.0135897
863.896	0.0135516
863.974	0.0135384
864.052	0.0134738
864.130	0.0134862
864.208	0.0135139
864.286	0.0134792
864.364	0.0135442
864.443	0.0133389
864.521	0.0134689
864.599	0.0134777
864.677	0.0134864
864.755	0.0135629
864.833	0.0135748
864.911	0.0135452
864.989	0.0136349
865.068	0.0136715
865.146	0.0135761
865.224	0.0137899
865.302	0.0138427
865.380	0.0137858
865.458	0.0138811
865.536	0.0138287
865.614	0.0138109
865.693	0.0137357
865.771	0.0138023
865.849	0.0137901
865.927	0.0136796
866.005	0.0137746
866.083	0.0137076
866.161	0.0138000
866.239	0.0136620
866.318	0.0137682
866.396	0.0136384
866.474	0.0136214
866.552	0.0138006
866.630	0.0136999
866.708	0.0136333
866.786	0.0135912
866.864	0.0134836
866.943	0.0135836
867.021	0.0134896
867.099	0.0134798
867.177	0.0134630
867.255	0.0134410
867.333	0.0134155
867.411	0.0134470
867.489	0.0134720
867.568	0.0134152
867.646	0.0134381
867.724	0.0134566
867.802	0.0133086
867.880	0.0132896
867.958	0.0134129
868.036	0.0133191
868.114	0.0134914
868.193	0.0135090
868.271	0.0134370
868.349	0.0134980
868.427	0.0134582
868.505	0.0133582
868.583	0.0134303
868.661	0.0134817
868.739	0.0135116
868.818	0.0134899
868.896	0.0136259
868.974	0.0135847
869.052	0.0135554
869.130	0.0136688
869.208	0.0135432
869.286	0.0135914
869.364	0.0136944
869.443	0.0136025
869.521	0.0135061
869.599	0.0134281
869.677	0.0135465
869.755	0.0135783
869.833	0.0135538
869.911	0.0135901
869.989	0.0137201
870.068	0.0136189
870.146	0.0135959
870.224	0.0136039
870.302	0.0135105
870.380	0.0134415
870.458	0.0134330
870.536	0.0136993
870.614	0.0135265
870.693	0.0134834
870.771	0.0133700
870.849	0.0133315
870.927	0.0134315
871.005	0.0133230
871.083	0.0133859
871.161	0.0133916
871.239	0.0134191
871.318	0.0134106
871.396	0.0133257
871.474	0.0132905
871.552	0.0133085
871.630	0.0131406
871.708	0.0133532
871.786	0.0134148
871.864	0.0133349
871.943	0.0133438
872.021	0.0135342
872.099	0.0132862
872.177	0.0133415
872.255	0.0133591
872.333	0.0133474
872.411	0.0131779
872.489	0.0133436
872.568	0.0134235
872.646	0.0132762
872.724	0.0133349
872.802	0.0132947
872.880	0.0134119
872.958	0.0135420
873.036	0.0135587
873.114	0.0135803
873.193	0.0136249
873.271	0.0138569
873.349	0.0135825
873.427	0.0136210
873.505	0.0136340
873.583	0.0136076
873.661	0.0135690
873.739	0.0136961
873.818	0.0136615
873.896	0.0137253
873.974	0.0135538
874.052	0.0136041
874.130	0.0137543
874.208	0.0137244
874.286	0.0136400
874.364	0.0138128
874.443	0.0137868
874.521	0.0136685
874.599	0.0137130
874.677	0.0137347
874.755	0.0136871
874.833	0.0137953
874.911	0.0136208
874.989	0.0135545
875.068	0.0137156
875.146	0.0134875
875.224	0.0135721
875.302	0.0135069
875.380	0.0134322
875.458	0.0134019
875.536	0.0135311
875.614	0.0133883
875.693	0.0132584
875.771	0.0132014
875.849	0.0133586
875.927	0.0134354
876.005	0.0132909
876.083	0.0133260
876.161	0.0132971
876.239	0.0133406
876.318	0.0134007
876.396	0.0132755
876.474	0.0133510
876.552	0.0133818
876.630	0.0134557
876.708	0.0134077
876.786	0.0134435
876.864	0.0135470
876.943	0.0134949
877.021	0.0134956
877.099	0.0135094
877.177	0.0136040
877.255	0.0136588
877.333	0.0136983
877.411	0.0136236
877.489	0.0135468
877.568	0.0136505
877.646	0.0136412
877.724	0.0136584
877.802	0.0136710
877.880	0.0135682
877.958	0.0136071
878.036	0.0136150
878.114	0.0135926
878.193	0.0136037
878.271	0.0136565
878.349	0.0137270
878.427	0.0134348
878.505	0.0136044
878.583	0.0136378
878.661	0.0135708
878.739	0.0136677
878.818	0.0137737
878.896	0.0136026
878.974	0.0135421
879.052	0.0136345
879.130	0.0136526
879.208	0.0137010
879.286	0.0136396
879.364	0.0136411
879.443	0.0136974
879.521	0.0135745
879.599	0.0136184
879.677	0.0136271
879.755	0.0135725
879.833	0.0135842
879.911	0.0136873
879.989	0.0136481
880.068	0.0135966
880.146	0.0135856
880.224	0.0135186
880.302	0.0135076
880.380	0.0135373
880.458	0.0135677
880.536	0.0136697
880.614	0.0136613
880.693	0.0133864
880.771	0.0136007
880.849	0.0136743
880.927	0.0135029
881.005	0.0135008
881.083	0.0135664
881.161	0.0135804
881.239	0.0135061
881.318	0.0136492
881.396	0.0135982
881.474	0.0134955
881.552	0.0136021
881.630	0.0135712
881.708	0.0137155
881.786	0.0134843
881.864	0.0134631
881.943	0.0135066
882.021	0.0136897
882.099	0.0135828
882.177	0.0134662
882.255	0.0135764
882.333	0.0136965
882.411	0.0135690
882.489	0.0135104
882.568	0.0136736
882.646	0.0136572
882.724	0.0136999
882.802	0.0135519
882.880	0.0135955
882.958	0.0135618
883.036	0.0136869
883.114	0.0135679
883.193	0.0135500
883.271	0.0135853
883.349	0.0136807
883.427	0.0135567
883.505	0.0134777
883.583	0.0134609
883.661	0.0135546
883.739	0.0137356
883.818	0.0135522
883.896	0.0135229
883.974	0.0134885
884.052	0.0135344
884.130	0.0133978
884.208	0.0134473
884.286	0.0133882
884.364	0.0134300
884.443	0.0133936
884.521	0.0135719
884.599	0.0135935
884.677	0.0135498
884.755	0.0134854
884.833	0.0135417
884.911	0.0134822
884.989	0.0134573
885.068	0.0135645
885.146	0.0135200
885.224	0.0133974
885.302	0.0135046
885.380	0.0136398
885.458	0.0135781
885.536	0.0134983
885.614	0.0134579
885.693	0.0135531
885.771	0.0135172
885.849	0.0134763
885.927	0.0134326
886.005	0.0134652
886.083	0.0136051
886.161	0.0134407
886.239	0.0135593
886.318	0.0136790
886.396	0.0135683
886.474	0.0134996
886.552	0.0135583
886.630	0.0136021
886.708	0.0135587
886.786	0.0136082
886.864	0.0135591
886.943	0.0134628
887.021	0.0134602
887.099	0.0134726
887.177	0.0135197
887.255	0.0137003
887.333	0.0136620
887.411	0.0135304
887.489	0.0135558
887.568	0.0136359
887.646	0.0137035
887.724	0.0135941
887.802	0.0133984
887.880	0.0136745
887.958	0.0135406
888.036	0.0135803
888.114	0.0136027
888.193	0.0135970
888.271	0.0135355
888.349	0.0134945
888.427	0.0137412
888.505	0.0136861
888.583	0.0137803
888.661	0.0136497
888.739	0.0137843
888.818	0.0137575
888.896	0.0136705
888.974	0.0137327
889.052	0.0136288
889.130	0.0135824
889.208	0.0134711
889.286	0.0136178
889.364	0.0136365
889.443	0.0135028
889.521	0.0136931
889.599	0.0136295
889.677	0.0135759
889.755	0.0137393
889.833	0.0136951
889.911	0.0135638
889.989	0.0135551
890.068	0.0136382
890.146	0.0136514
890.224	0.0134743
890.302	0.0136718
890.380	0.0135994
890.458	0.0136228
890.536	0.0135683
890.614	0.0137444
890.693	0.0137568
890.771	0.0135464
890.849	0.0135588
890.927	0.0136444
891.005	0.0136795
891.083	0.0136032
891.161	0.0137516
891.239	0.0135944
891.318	0.0136010
891.396	0.0135111
891.474	0.0135665
891.552	0.0136252
891.630	0.0134315
891.708	0.0136027
891.786	0.0136645
891.864	0.0136742
891.943	0.0135886
892.021	0.0136594
892.099	0.0135770
892.177	0.0136395
892.255	0.0136785
892.333	0.0137029
892.411	0.0136395
892.489	0.0136427
892.568	0.0136253
892.646	0.0137083
892.724	0.0136456
892.802	0.0137640
892.880	0.0136897
892.958	0.0137648
893.036	0.0137344
893.114	0.0137816
893.193	0.0136374
893.271	0.0137429
893.349	0.0137500
893.427	0.0138577
893.505	0.0137966
893.583	0.0137373
893.661	0.0137390
893.739	0.0135789
893.818	0.0136440
893.896	0.0138413
893.974	0.0136146
894.052	0.0136648
894.130	0.0135363
894.208	0.0134859
894.286	0.0134541
894.364	0.0134253
894.443	0.0134680
894.521	0.0133927
894.599	0.0132824
894.677	0.0133780
894.755	0.0133943
894.833	0.0134140
894.911	0.0133119
894.989	0.0135293
895.068	0.0133131
895.146	0.0133240
895.224	0.0133473
895.302	0.0132269
895.380	0.0132647
895.458	0.0134503
895.536	0.0132727
895.614	0.0133228
895.693	0.0132404
895.771	0.0132374
895.849	0.0132218
895.927	0.0132631
896.005	0.0132685
896.083	0.0132348
896.161	0.0133534
896.239	0.0133490
896.318	0.0132050
896.396	0.0133575
896.474	0.0132809
896.552	0.0132876
896.630	0.0132394
896.708	0.0132835
896.786	0.0134681
896.864	0.0134119
896.943	0.0134134
897.021	0.0133122
897.099	0.0133834
897.177	0.0133540
897.255	0.0134489
897.333	0.0135080
897.411	0.0135184
897.489	0.0135418
897.568	0.0135906
897.646	0.0134718
897.724	0.0136153
897.802	0.0136552
897.880	0.0136301
897.958	0.0136747
898.036	0.0138405
898.114	0.0136140
898.193	0.0136333
898.271	0.0135190
898.349	0.0135992
898.427	0.0136926
898.505	0.0136784
898.583	0.0135675
898.661	0.0136743
898.739	0.0136374
898.818	0.0135619
898.896	0.0135950
898.974	0.0134845
899.052	0.0135933
899.130	0.0135563
899.208	0.0134337
899.286	0.0135037
899.364	0.0133280
899.443	0.0132957
899.521	0.0132923
899.599	0.0132053
899.677	0.0131735
899.755	0.0132115
899.833	0.0132462
899.911	0.0131772
899.989	0.0131903
900.068	0.0132135
900.146	0.0131384
900.224	0.0133270
900.302	0.0132880
900.380	0.0132061
900.458	0.0133270
900.536	0.0133863
900.614	0.0133675
900.693	0.0134672
900.771	0.0134035
900.849	0.0134531
900.927	0.0134811
901.005	0.0134499
901.083	0.0134495
901.161	0.0136230
901.239	0.0135686
901.318	0.0135719
901.396	0.0135532
901.474	0.0136713
901.552	0.0138509
901.630	0.0136395
901.708	0.0136504
901.786	0.0138256
901.864	0.0136203
901.943	0.0137428
902.021	0.0137024
902.099	0.0138029
902.177	0.0138721
902.255	0.0135408
902.333	0.0137677
902.411	0.0137450
902.489	0.0136983
902.568	0.0134232
902.646	0.0135761
902.724	0.0134911
902.802	0.0136533
902.880	0.0135419
902.958	0.0135845
903.036	0.0136418
903.114	0.0137161
903.193	0.0136137
903.271	0.0135615
903.349	0.0135500
903.427	0.0135009
903.505	0.0136200
903.583	0.0135112
903.661	0.0135929
903.739	0.0134418
903.818	0.0134524
903.896	0.0135901
903.974	0.0134364
904.052	0.0133410
904.130	0.0133887
904.208	0.0135259
904.286	0.0133720
904.364	0.0133988
904.443	0.0132953
904.521	0.0132498
904.599	0.0133498
904.677	0.0133619
904.755	0.0132590
904.833	0.0132876
904.911	0.0133788
904.989	0.0132525
905.068	0.0133056
905.146	0.0131756
905.224	0.0132813
905.302	0.0134055
905.380	0.0132995
905.458	0.0132681
905.536	0.0133826
905.614	0.0132001
905.693	0.0132243
905.771	0.0133595
905.849	0.0133984
905.927	0.0134168
906.005	0.0132581
906.083	0.0132520
906.161	0.0134445
906.239	0.0134915
906.318	0.0135207
906.396	0.0137339
906.474	0.0136868
906.552	0.0135786
906.630	0.0137155
906.708	0.0137520
906.786	0.0137012
906.864	0.0138416
906.943	0.0138899
907.021	0.0139276
907.099	0.0138212
907.177	0.0139049
907.255	0.0139083
907.333	0.0137701
907.411	0.0139445
907.489	0.0139077
907.568	0.0139906
907.646	0.0138938
907.724	0.0137267
907.802	0.0136630
907.880	0.0138354
907.958	0.0138824
908.036	0.0139457
908.114	0.0137470
908.193	0.0137264
908.271	0.0137540
908.349	0.0137684
908.427	0.0136898
908.505	0.0136167
908.583	0.0138101
908.661	0.0135826
908.739	0.0135387
908.818	0.0135098
908.896	0.0135217
908.974	0.0135094
909.052	0.0135403
909.130	0.0133813
909.208	0.0135036
909.286	0.0135601
909.364	0.0135545
909.443	0.0134818
909.521	0.0135735
909.599	0.0136002
909.677	0.0135529
909.755	0.0134952
909.833	0.0135841
909.911	0.0136304
909.989	0.0135297
910.068	0.0136731
910.146	0.0135411
910.224	0.0135268
910.302	0.0135487
910.380	0.0135848
910.458	0.0136250
910.536	0.0136859
910.614	0.0135516
910.693	0.0136123
910.771	0.0135544
910.849	0.0135111
910.927	0.0136071
911.005	0.0136259
911.083	0.0135801
911.161	0.0135950
911.239	0.0139506
911.318	0.0135995
911.396	0.0136227
911.474	0.0136278
911.552	0.0137997
911.630	0.0135789
911.708	0.0136120
911.786	0.0137305
911.864	0.0136095
911.943	0.0136662
912.021	0.0136069
912.099	0.0135700
912.177	0.0135243
912.255	0.0135786
912.333	0.0137753
912.411	0.0136386
912.489	0.0135741
912.568	0.0135953
912.646	0.0135194
912.724	0.0136526
912.802	0.0135782
912.880	0.0136175
912.958	0.0135893
913.036	0.0135869
913.114	0.0136393
913.193	0.0135394
913.271	0.0135294
913.349	0.0134848
913.427	0.0134861
913.505	0.0137061
913.583	0.0135715
913.661	0.0135366
913.739	0.0134692
913.818	0.0135687
913.896	0.0135385
913.974	0.0136358
914.052	0.0136398
914.130	0.0136128
914.208	0.0135201
914.286	0.0134660
914.364	0.0135346
914.443	0.0136089
914.521	0.0136804
914.599	0.0136605
914.677	0.0137143
914.755	0.0134409
914.833	0.0134328
914.911	0.0136658
914.989	0.0136703
915.068	0.0135211
915.146	0.0136259
915.224	0.0134810
915.302	0.0134628
915.380	0.0134252
915.458	0.0134824
915.536	0.0134873
915.614	0.0134176
915.693	0.0134786
915.771	0.0134757
915.849	0.0134129
915.927	0.0133936
916.005	0.0134015
916.083	0.0134745
916.161	0.0134575
916.239	0.0134638
916.318	0.0134048
916.396	0.0134618
916.474	0.0135770
916.552	0.0134529
916.630	0.0134691
916.708	0.0133920
916.786	0.0134948
916.864	0.0136065
916.943	0.0134877
917.021	0.0135976
917.099	0.0134935
917.177	0.0135953
917.255	0.0135898
917.333	0.0137220
917.411	0.0136141
917.489	0.0135273
917.568	0.0137311
917.646	0.0136626
917.724	0.0136195
917.802	0.0137277
917.880	0.0136301
917.958	0.0136478
918.036	0.0135743
918.114	0.0135712
918.193	0.0137881
918.271	0.0137637
918.349	0.0135609
918.427	0.0135324
918.505	0.0135957
918.583	0.0136150
918.661	0.0135480
918.739	0.0136303
918.818	0.0135396
918.896	0.0135517
918.974	0.0135912
919.052	0.0136178
919.130	0.0135869
919.208	0.0136423
919.286	0.0136071
919.364	0.0135939
919.443	0.0134394
919.521	0.0135390
919.599	0.0136032
919.677	0.0136308
919.755	0.0135600
919.833	0.0136742
919.911	0.0135814
919.989	0.0135276
920.068	0.0135992
920.146	0.0134985
920.224	0.0136974
920.302	0.0136615
920.380	0.0136491
920.458	0.0134814
920.536	0.0135477
920.614	0.0135412
920.693	0.0136018
920.771	0.0136485
920.849	0.0136834
920.927	0.0136552
921.005	0.0137247
921.083	0.0136511
921.161	0.0135679
921.239	0.0135442
921.318	0.0135489
921.396	0.0136369
921.474	0.0136522
921.552	0.0138002
921.630	0.0137112
921.708	0.0137463
921.786	0.0137174
921.864	0.0135470
921.943	0.0135388
922.021	0.0136372
922.099	0.0134814
922.177	0.0136693
922.255	0.0136761
922.333	0.0136033
922.411	0.0136977
922.489	0.0136001
922.568	0.0136321
922.646	0.0135551
922.724	0.0135168
922.802	0.0135367
922.880	0.0135108
922.958	0.0134522
923.036	0.0134451
923.114	0.0135373
923.193	0.0135439
923.271	0.0135645
923.349	0.0135506
923.427	0.0135339
923.505	0.0134547
923.583	0.0134538
923.661	0.0136250
923.739	0.0134178
923.818	0.0135301
923.896	0.0135152
923.974	0.0133595
924.052	0.0134753
924.130	0.0135216
924.208	0.0133327
924.286	0.0133727
924.364	0.0135344
924.443	0.0134563
924.521	0.0134552
924.599	0.0133525
924.677	0.0131868
924.755	0.0133565
924.833	0.0134531
924.911	0.0134003
924.989	0.0132672
925.068	0.0133426
925.146	0.0133322
925.224	0.0133041
925.302	0.0131429
925.380	0.0132640
925.458	0.0133690
925.536	0.0132993
925.614	0.0135441
925.693	0.0134127
925.771	0.0134064
925.849	0.0135222
925.927	0.0133562
926.005	0.0135512
926.083	0.0135050
926.161	0.0134250
926.239	0.0136418
926.318	0.0135023
926.396	0.0135921
926.474	0.0135768
926.552	0.0137169
926.630	0.0135770
926.708	0.0136837
926.786	0.0136311
926.864	0.0135806
926.943	0.0136350
927.021	0.0136224
927.099	0.0135221
927.177	0.0135464
927.255	0.0136708
927.333	0.0135133
927.411	0.0136671
927.489	0.0136288
927.568	0.0135703
927.646	0.0135828
927.724	0.0136273
927.802	0.0134974
927.880	0.0133774
927.958	0.0135157
928.036	0.0135013
928.114	0.0136658
928.193	0.0135375
928.271	0.0135043
928.349	0.0135452
928.427	0.0134815
928.505	0.0134427
928.583	0.0135537
928.661	0.0133880
928.739	0.0134747
928.818	0.0133842
928.896	0.0134689
928.974	0.0136229
929.052	0.0135332
929.130	0.0133641
929.208	0.0132358
929.286	0.0133256
929.364	0.0134402
929.443	0.0134804
929.521	0.0133932
929.599	0.0134680
929.677	0.0135775
929.755	0.0134818
929.833	0.0134942
929.911	0.0135329
929.989	0.0133752
930.068	0.0135413
930.146	0.0135247
930.224	0.0135964
930.302	0.0136140
930.380	0.0134329
930.458	0.0134404
930.536	0.0135264
930.614	0.0134364
930.693	0.0135139
930.771	0.0135721
930.849	0.0134763
930.927	0.0134287
931.005	0.0134802
931.083	0.0135876
931.161	0.0136446
931.239	0.0136785
931.318	0.0135250
931.396	0.0136412
931.474	0.0135079
931.552	0.0134619
931.630	0.0137459
931.708	0.0135200
931.786	0.0134679
931.864	0.0134923
931.943	0.0135120
932.021	0.0135983
932.099	0.0135686
932.177	0.0136007
932.255	0.0136660
932.333	0.0134987
932.411	0.0136731
932.489	0.0136195
932.568	0.0135967
932.646	0.0136194
932.724	0.0135846
932.802	0.0135564
932.880	0.0135715
932.958	0.0137453
933.036	0.0135051
933.114	0.0135735
933.193	0.0137471
933.271	0.0136630
933.349	0.0135293
933.427	0.0135980
933.505	0.0135623
933.583	0.0135881
933.661	0.0136029
933.739	0.0136825
933.818	0.0136449
933.896	0.0136072
933.974	0.0136597
934.052	0.0135225
934.130	0.0135339
934.208	0.0136510
934.286	0.0134616
934.364	0.0134921
934.443	0.0133604
934.521	0.0133464
934.599	0.0134023
934.677	0.0134694
934.755	0.0134687
934.833	0.0134180
934.911	0.0135132
934.989	0.0133891
935.068	0.0134917
935.146	0.0134138
935.224	0.0133632
935.302	0.0134538
935.380	0.0133651
935.458	0.0132309
935.536	0.0134595
935.614	0.0133894
935.693	0.0134475
935.771	0.0135465
935.849	0.0134756
935.927	0.0134070
936.005	0.0133915
936.083	0.0133257
936.161	0.0134011
936.239	0.0134409
936.318	0.0133850
936.396	0.0133488
936.474	0.0133504
936.552	0.0133885
936.630	0.0133892
936.708	0.0135960
936.786	0.0135765
936.864	0.0134649
936.943	0.0134812
937.021	0.0135377
937.099	0.0134450
937.177	0.0134597
937.255	0.0135183
937.333	0.0134933
937.411	0.0135844
937.489	0.0136864
937.568	0.0136850
937.646	0.0135487
937.724	0.0135966
937.802	0.0135764
937.880	0.0136810
937.958	0.0136559
938.036	0.0136779
938.114	0.0136580
938.193	0.0136941
938.271	0.0136980
938.349	0.0137573
938.427	0.0136725
938.505	0.0136938
938.583	0.0136548
938.661	0.0135806
938.739	0.0135532
938.818	0.0135770
938.896	0.0135947
938.974	0.0135816
939.052	0.0135703
939.130	0.0136180
939.208	0.0135999
939.286	0.0136141
939.364	0.0136506
939.443	0.0135727
939.521	0.0135061
939.599	0.0135445
939.677	0.0135609
939.755	0.0134955
939.833	0.0134638
939.911	0.0134003
939.989	0.0135671
940.068	0.0134377
940.146	0.0133717
940.224	0.0136025
940.302	0.0135576
940.380	0.0136283
940.458	0.0135003
940.536	0.0133539
940.614	0.0134959
940.693	0.0134800
940.771	0.0134470
940.849	0.0135094
940.927	0.0133992
941.005	0.0135490
941.083	0.0136263
941.161	0.0135813
941.239	0.0135384
941.318	0.0135357
941.396	0.0135776
941.474	0.0134509
941.552	0.0135682
941.630	0.0137726
941.708	0.0134867
941.786	0.0135785
941.864	0.0137614
941.943	0.0136038
942.021	0.0135605
942.099	0.0137466
942.177	0.0137701
942.255	0.0137329
942.333	0.0137034
942.411	0.0136510
942.489	0.0139211
942.568	0.0137486
942.646	0.0136414
942.724	0.0136827
942.802	0.0138094
942.880	0.0138635
942.958	0.0138345
943.036	0.0137936
943.114	0.0137069
943.193	0.0139478
943.271	0.0138971
943.349	0.0137826
943.427	0.0136498
943.505	0.0136462
943.583	0.0138221
943.661	0.0138936
943.739	0.0138799
943.818	0.0137469
943.896	0.0137256
943.974	0.0136569
944.052	0.0135287
944.130	0.0136796
944.208	0.0136188
944.286	0.0136392
944.364	0.0135980
944.443	0.0136866
944.521	0.0136250
944.599	0.0134711
944.677	0.0134446
944.755	0.0135881
944.833	0.0136655
944.911	0.0136593
944.989	0.0136487
945.068	0.0135139
945.146	0.0135699
945.224	0.0135210
945.302	0.0135861
945.380	0.0133871
945.458	0.0133660
945.536	0.0135603
945.614	0.0134100
945.693	0.0134575
945.771	0.0134566
945.849	0.0135191
945.927	0.0133729
946.005	0.0134487
946.083	0.0133408
946.161	0.0133568
946.239	0.0135653
946.318	0.0133975
946.396	0.0133562
946.474	0.0135077
946.552	0.0133742
946.630	0.0135861
946.708	0.0136446
946.786	0.0134499
946.864	0.0135735
946.943	0.0135533
947.021	0.0135213
947.099	0.0135486
947.177	0.0137581
947.255	0.0135934
947.333	0.0135969
947.411	0.0137025
947.489	0.0137090
947.568	0.0136752
947.646	0.0137399
947.724	0.0137196
947.802	0.0136661
947.880	0.0136243
947.958	0.0137192
948.036	0.0137047
948.114	0.0138132
948.193	0.0135900
948.271	0.0135449
948.349	0.0136877
948.427	0.0136134
948.505	0.0135997
948.583	0.0136578
948.661	0.0134251
948.739	0.0134084
948.818	0.0136001
948.896	0.0136803
948.974	0.0135413
949.052	0.0134127
949.130	0.0135098
949.208	0.0136224
949.286	0.0136368
949.364	0.0136037
949.443	0.0137044
949.521	0.0136459
949.599	0.0135171
949.677	0.0135909
949.755	0.0137084
949.833	0.0136212
949.911	0.0137563
949.989	0.0137450
950.068	0.0135923
950.146	0.0135421
950.224	0.0135948
950.302	0.0137176
950.380	0.0136585
950.458	0.0135980
950.536	0.0137566
950.614	0.0137272
950.693	0.0137484
950.771	0.0137129
950.849	0.0136880
950.927	0.0136787
951.005	0.0136452
951.083	0.0137360
951.161	0.0136491
951.239	0.0136375
951.318	0.0135896
951.396	0.0137026
951.474	0.0135680
951.552	0.0135329
951.630	0.0135878
951.708	0.0135439
951.786	0.0135340
951.864	0.0134470
951.943	0.0134861
952.021	0.0135493
952.099	0.0134463
952.177	0.0135085
952.255	0.0135910
952.333	0.0134127
952.411	0.0134303
952.489	0.0134140
952.568	0.0135169
952.646	0.0134814
952.724	0.0136160
952.802	0.0134958
952.880	0.0134810
952.958	0.0135232
953.036	0.0134998
953.114	0.0132764
953.193	0.0133601
953.271	0.0136501
953.349	0.0134597
953.427	0.0134146
953.505	0.0136071
953.583	0.0135664
953.661	0.0134321
953.739	0.0136423
953.818	0.0137186
953.896	0.0135728
953.974	0.0135169
954.052	0.0136764
954.130	0.0134486
954.208	0.0136678
954.286	0.0136892
954.364	0.0136961
954.443	0.0136830
954.521	0.0135182
954.599	0.0135966
954.677	0.0136227
954.755	0.0136544
954.833	0.0136942
954.911	0.0135228
954.989	0.0136259
955.068	0.0137315
955.146	0.0135732
955.224	0.0135690
955.302	0.0136169
955.380	0.0136874
955.458	0.0135803
955.536	0.0136859
955.614	0.0136128
955.693	0.0134822
955.771	0.0135467
955.849	0.0137235
955.927	0.0136391
956.005	0.0136663
956.083	0.0136362
956.161	0.0134939
956.239	0.0136655
956.318	0.0135255
956.396	0.0135774
956.474	0.0135883
956.552	0.0134708
956.630	0.0135970
956.708	0.0135395
956.786	0.0134641
956.864	0.0134354
956.943	0.0134583
957.021	0.0133921
957.099	0.0134426
957.177	0.0134745
957.255	0.0134318
957.333	0.0134837
957.411	0.0134555
957.489	0.0134084
957.568	0.0135037
957.646	0.0134038
957.724	0.0133817
957.802	0.0134477
957.880	0.0135832
957.958	0.0135165
958.036	0.0134892
958.114	0.0134454
958.193	0.0136355
958.271	0.0137247
958.349	0.0136208
958.427	0.0135476
958.505	0.0135528
958.583	0.0136485
958.661	0.0135703
958.739	0.0135764
958.818	0.0134544
958.896	0.0135300
958.974	0.0136057
959.052	0.0134829
959.130	0.0135846
959.208	0.0135520
959.286	0.0135791
959.364	0.0134795
959.443	0.0135587
959.521	0.0135500
959.599	0.0133142
959.677	0.0135290
959.755	0.0133546
959.833	0.0134620
959.911	0.0134776
