05/07/2022	17:44:33	Ver.	4.1	UNKNOWN
Optical Delay	639.989416	Delta X		0.078125	Sweeps	1	Scan Rate	0/0
Coordinates	Axis 1	NaN	Axis 2	NaN	Axis 3	NaN	Axis 4	NaN	Axis 5	NaN	Axis 6	0.000000
TX Power	0.000000	RX Power	0.000000

639.989	0.0139140
640.068	0.0137344
640.146	0.0137752
640.224	0.0138159
640.302	0.0136868
640.380	0.0137085
640.458	0.0138018
640.536	0.0138149
640.614	0.0137107
640.693	0.0137234
640.771	0.0137392
640.849	0.0138278
640.927	0.0137897
641.005	0.0136661
641.083	0.0136669
641.161	0.0138019
641.239	0.0138540
641.318	0.0138037
641.396	0.0137362
641.474	0.0138642
641.552	0.0139369
641.630	0.0139906
641.708	0.0138377
641.786	0.0137536
641.864	0.0137332
641.943	0.0138146
642.021	0.0137817
642.099	0.0137953
642.177	0.0139706
642.255	0.0138388
642.333	0.0138022
642.411	0.0139163
642.489	0.0137830
642.568	0.0139557
642.646	0.0138486
642.724	0.0138538
642.802	0.0139261
642.880	0.0138503
642.958	0.0138521
643.036	0.0138143
643.114	0.0137630
643.193	0.0138549
643.271	0.0137138
643.349	0.0138382
643.427	0.0138467
643.505	0.0138076
643.583	0.0139332
643.661	0.0138631
643.739	0.0139309
643.818	0.0140454
643.896	0.0138963
643.974	0.0140028
644.052	0.0140575
644.130	0.0140573
644.208	0.0140559
644.286	0.0140519
644.364	0.0140951
644.443	0.0140379
644.521	0.0139351
644.599	0.0140434
644.677	0.0138201
644.755	0.0138734
644.833	0.0138752
644.911	0.0137968
644.989	0.0138342
645.068	0.0137170
645.146	0.0136636
645.224	0.0135916
645.302	0.0137368
645.380	0.0136990
645.458	0.0136362
645.536	0.0135725
645.614	0.0135997
645.693	0.0136658
645.771	0.0135398
645.849	0.0137133
645.927	0.0138451
646.005	0.0137333
646.083	0.0136897
646.161	0.0138615
646.239	0.0139455
646.318	0.0138736
646.396	0.0140498
646.474	0.0140703
646.552	0.0141249
646.630	0.0141328
646.708	0.0142456
646.786	0.0143774
646.864	0.0143698
646.943	0.0143486
647.021	0.0144655
647.099	0.0145255
647.177	0.0143018
647.255	0.0144255
647.333	0.0142369
647.411	0.0144351
647.489	0.0143151
647.568	0.0141988
647.646	0.0141605
647.724	0.0141648
647.802	0.0141268
647.880	0.0138459
647.958	0.0137805
648.036	0.0138316
648.114	0.0137834
648.193	0.0137756
648.271	0.0136761
648.349	0.0135271
648.427	0.0134896
648.505	0.0133965
648.583	0.0134361
648.661	0.0134211
648.739	0.0133289
648.818	0.0134608
648.896	0.0135214
648.974	0.0133994
649.052	0.0134614
649.130	0.0134181
649.208	0.0134647
649.286	0.0134873
649.364	0.0136061
649.443	0.0137193
649.521	0.0137697
649.599	0.0138252
649.677	0.0139172
649.755	0.0138953
649.833	0.0139794
649.911	0.0139700
649.989	0.0140498
650.068	0.0140322
650.146	0.0140638
650.224	0.0143209
650.302	0.0142228
650.380	0.0142612
650.458	0.0142510
650.536	0.0143430
650.614	0.0144468
650.693	0.0143597
650.771	0.0143906
650.849	0.0144833
650.927	0.0145922
651.005	0.0144099
651.083	0.0144653
651.161	0.0144954
651.239	0.0144474
651.318	0.0144073
651.396	0.0142786
651.474	0.0142794
651.552	0.0144410
651.630	0.0142162
651.708	0.0140073
651.786	0.0139932
651.864	0.0139875
651.943	0.0137199
652.021	0.0137650
652.099	0.0137762
652.177	0.0134425
652.255	0.0134347
652.333	0.0132784
652.411	0.0131177
652.489	0.0131079
652.568	0.0129852
652.646	0.0127808
652.724	0.0127682
652.802	0.0127878
652.880	0.0128623
652.958	0.0127046
653.036	0.0126603
653.114	0.0127348
653.193	0.0125760
653.271	0.0127410
653.349	0.0127831
653.427	0.0127930
653.505	0.0129734
653.583	0.0132178
653.661	0.0133520
653.739	0.0135221
653.818	0.0136980
653.896	0.0138555
653.974	0.0141401
654.052	0.0143088
654.130	0.0144640
654.208	0.0146409
654.286	0.0147824
654.364	0.0150611
654.443	0.0149381
654.521	0.0153506
654.599	0.0153098
654.677	0.0153950
654.755	0.0154930
654.833	0.0154764
654.911	0.0155594
654.989	0.0155053
655.068	0.0155351
655.146	0.0153983
655.224	0.0153970
655.302	0.0152436
655.380	0.0151521
655.458	0.0147808
655.536	0.0147012
655.614	0.0145672
655.693	0.0143300
655.771	0.0140520
655.849	0.0137722
655.927	0.0135563
656.005	0.0133616
656.083	0.0132087
656.161	0.0128049
656.239	0.0126164
656.318	0.0125016
656.396	0.0122829
656.474	0.0121345
656.552	0.0120227
656.630	0.0118866
656.708	0.0117844
656.786	0.0118229
656.864	0.0119423
656.943	0.0118274
657.021	0.0119132
657.099	0.0119658
657.177	0.0121080
657.255	0.0122706
657.333	0.0123132
657.411	0.0125507
657.489	0.0127952
657.568	0.0127962
657.646	0.0130665
657.724	0.0133446
657.802	0.0136411
657.880	0.0141125
657.958	0.0141536
658.036	0.0145245
658.114	0.0148096
658.193	0.0149622
658.271	0.0152692
658.349	0.0155577
658.427	0.0158286
658.505	0.0160706
658.583	0.0161189
658.661	0.0163213
658.739	0.0166515
658.818	0.0165541
658.896	0.0165376
658.974	0.0167293
659.052	0.0166537
659.130	0.0166045
659.208	0.0164765
659.286	0.0162640
659.364	0.0160677
659.443	0.0160345
659.521	0.0158518
659.599	0.0156145
659.677	0.0151923
659.755	0.0150011
659.833	0.0147048
659.911	0.0143690
659.989	0.0141008
660.068	0.0136296
660.146	0.0132195
660.224	0.0129333
660.302	0.0125818
660.380	0.0123460
660.458	0.0121017
660.536	0.0116423
660.614	0.0114114
660.693	0.0112255
660.771	0.0111343
660.849	0.0108130
660.927	0.0107059
661.005	0.0107391
661.083	0.0106955
661.161	0.0108121
661.239	0.0108372
661.318	0.0107543
661.396	0.0110825
661.474	0.0112247
661.552	0.0115541
661.630	0.0119747
661.708	0.0121274
661.786	0.0125549
661.864	0.0129280
661.943	0.0132914
662.021	0.0136781
662.099	0.0140857
662.177	0.0145087
662.255	0.0148277
662.333	0.0151807
662.411	0.0155602
662.489	0.0158662
662.568	0.0162274
662.646	0.0165674
662.724	0.0168102
662.802	0.0170068
662.880	0.0171525
662.958	0.0172552
663.036	0.0172782
663.114	0.0174709
663.193	0.0174827
663.271	0.0174474
663.349	0.0171047
663.427	0.0171757
663.505	0.0170605
663.583	0.0168881
663.661	0.0165356
663.739	0.0162462
663.818	0.0158217
663.896	0.0156838
663.974	0.0151984
664.052	0.0148569
664.130	0.0143847
664.208	0.0141290
664.286	0.0137080
664.364	0.0132635
664.443	0.0129153
664.521	0.0124733
664.599	0.0121648
664.677	0.0117344
664.755	0.0114402
664.833	0.0110856
664.911	0.0108587
664.989	0.0105619
665.068	0.0104947
665.146	0.0103668
665.224	0.0101300
665.302	0.0100960
665.380	0.0101831
665.458	0.0101740
665.536	0.0102185
665.614	0.0105132
665.693	0.0108235
665.771	0.0110254
665.849	0.0112851
665.927	0.0116373
666.005	0.0118298
666.083	0.0124005
666.161	0.0127867
666.239	0.0131530
666.318	0.0136749
666.396	0.0140909
666.474	0.0145489
666.552	0.0149133
666.630	0.0154217
666.708	0.0158523
666.786	0.0160566
666.864	0.0164843
666.943	0.0166453
667.021	0.0168962
667.099	0.0171345
667.177	0.0172238
667.255	0.0172514
667.333	0.0172723
667.411	0.0173883
667.489	0.0174634
667.568	0.0171097
667.646	0.0169617
667.724	0.0168255
667.802	0.0167186
667.880	0.0164715
667.958	0.0162900
668.036	0.0160120
668.114	0.0154774
668.193	0.0152528
668.271	0.0149167
668.349	0.0146098
668.427	0.0144707
668.505	0.0140228
668.583	0.0137167
668.661	0.0134938
668.739	0.0133360
668.818	0.0130000
668.896	0.0126491
668.974	0.0125945
669.052	0.0122869
669.130	0.0121230
669.208	0.0119366
669.286	0.0117533
669.364	0.0117693
669.443	0.0115411
669.521	0.0114882
669.599	0.0115762
669.677	0.0116353
669.755	0.0115443
669.833	0.0115239
669.911	0.0114656
669.989	0.0115789
670.068	0.0117709
670.146	0.0118414
670.224	0.0120284
670.302	0.0121384
670.380	0.0122216
670.458	0.0123654
670.536	0.0126889
670.614	0.0128544
670.693	0.0130723
670.771	0.0135865
670.849	0.0136485
670.927	0.0138506
671.005	0.0140204
671.083	0.0144457
671.161	0.0146501
671.239	0.0148881
671.318	0.0151898
671.396	0.0154386
671.474	0.0155493
671.552	0.0155729
671.630	0.0157617
671.708	0.0157832
671.786	0.0159363
671.864	0.0158030
671.943	0.0158150
672.021	0.0157161
672.099	0.0156296
672.177	0.0155569
672.255	0.0154603
672.333	0.0151698
672.411	0.0150768
672.489	0.0149263
672.568	0.0146506
672.646	0.0144151
672.724	0.0143377
672.802	0.0140691
672.880	0.0137947
672.958	0.0135754
673.036	0.0134580
673.114	0.0133702
673.193	0.0134140
673.271	0.0132059
673.349	0.0132446
673.427	0.0131492
673.505	0.0131139
673.583	0.0131004
673.661	0.0132990
673.739	0.0133962
673.818	0.0134586
673.896	0.0135694
673.974	0.0137296
674.052	0.0138025
674.130	0.0140581
674.208	0.0139332
674.286	0.0139735
674.364	0.0140646
674.443	0.0142587
674.521	0.0141692
674.599	0.0142730
674.677	0.0142886
674.755	0.0143491
674.833	0.0141925
674.911	0.0140349
674.989	0.0139679
675.068	0.0139650
675.146	0.0138126
675.224	0.0136557
675.302	0.0135654
675.380	0.0134267
675.458	0.0132700
675.536	0.0132695
675.614	0.0132055
675.693	0.0129875
675.771	0.0130576
675.849	0.0129291
675.927	0.0128209
676.005	0.0128032
676.083	0.0128410
676.161	0.0127898
676.239	0.0128766
676.318	0.0129009
676.396	0.0129046
676.474	0.0130992
676.552	0.0131069
676.630	0.0133051
676.708	0.0135466
676.786	0.0137064
676.864	0.0137330
676.943	0.0138908
677.021	0.0139404
677.099	0.0141109
677.177	0.0144177
677.255	0.0145256
677.333	0.0143934
677.411	0.0146005
677.489	0.0146857
677.568	0.0149107
677.646	0.0148622
677.724	0.0148518
677.802	0.0148103
677.880	0.0148673
677.958	0.0149371
678.036	0.0148937
678.114	0.0149097
678.193	0.0149976
678.271	0.0149858
678.349	0.0148823
678.427	0.0149212
678.505	0.0147881
678.583	0.0148833
678.661	0.0148406
678.739	0.0149045
678.818	0.0148402
678.896	0.0148644
678.974	0.0148660
679.052	0.0146564
679.130	0.0147295
679.208	0.0147118
679.286	0.0145453
679.364	0.0146830
679.443	0.0145757
679.521	0.0144739
679.599	0.0144460
679.677	0.0143360
679.755	0.0141132
679.833	0.0141193
679.911	0.0139906
679.989	0.0138989
680.068	0.0139178
680.146	0.0137392
680.224	0.0135300
680.302	0.0134984
680.380	0.0132334
680.458	0.0129538
680.536	0.0128456
680.614	0.0127271
680.693	0.0124765
680.771	0.0125172
680.849	0.0122787
680.927	0.0122106
681.005	0.0121406
681.083	0.0121235
681.161	0.0120291
681.239	0.0118908
681.318	0.0119218
681.396	0.0119817
681.474	0.0119877
681.552	0.0119709
681.630	0.0121747
681.708	0.0123208
681.786	0.0126118
681.864	0.0127408
681.943	0.0129447
682.021	0.0134210
682.099	0.0136817
682.177	0.0139347
682.255	0.0140174
682.333	0.0142281
682.411	0.0147089
682.489	0.0147945
682.568	0.0149393
682.646	0.0154121
682.724	0.0155007
682.802	0.0155552
682.880	0.0156937
682.958	0.0158930
683.036	0.0159341
683.114	0.0158689
683.193	0.0159180
683.271	0.0158649
683.349	0.0158778
683.427	0.0158765
683.505	0.0158321
683.583	0.0156548
683.661	0.0155174
683.739	0.0153276
683.818	0.0151247
683.896	0.0151065
683.974	0.0147852
684.052	0.0147194
684.130	0.0145226
684.208	0.0142155
684.286	0.0140335
684.364	0.0137452
684.443	0.0136299
684.521	0.0135873
684.599	0.0132298
684.677	0.0132639
684.755	0.0131300
684.833	0.0130532
684.911	0.0131461
684.989	0.0128911
685.068	0.0129187
685.146	0.0129343
685.224	0.0130252
685.302	0.0131477
685.380	0.0132145
685.458	0.0131527
685.536	0.0132549
685.614	0.0132703
685.693	0.0130867
685.771	0.0133398
685.849	0.0132785
685.927	0.0135158
686.005	0.0133705
686.083	0.0134085
686.161	0.0134623
686.239	0.0134262
686.318	0.0133114
686.396	0.0134100
686.474	0.0134109
686.552	0.0133154
686.630	0.0132214
686.708	0.0133419
686.786	0.0132964
686.864	0.0133482
686.943	0.0131709
687.021	0.0133450
687.099	0.0133749
687.177	0.0132343
687.255	0.0133979
687.333	0.0135899
687.411	0.0133955
687.489	0.0135624
687.568	0.0137508
687.646	0.0138445
687.724	0.0139215
687.802	0.0140143
687.880	0.0142168
687.958	0.0143927
688.036	0.0144347
688.114	0.0145193
688.193	0.0147269
688.271	0.0147701
688.349	0.0148647
688.427	0.0149274
688.505	0.0150680
688.583	0.0151916
688.661	0.0151994
688.739	0.0150928
688.818	0.0152029
688.896	0.0151981
688.974	0.0152456
689.052	0.0152541
689.130	0.0151510
689.208	0.0151769
689.286	0.0151839
689.364	0.0148915
689.443	0.0148417
689.521	0.0147501
689.599	0.0145074
689.677	0.0143815
689.755	0.0143454
689.833	0.0142202
689.911	0.0140403
689.989	0.0139045
690.068	0.0138594
690.146	0.0136698
690.224	0.0135917
690.302	0.0137556
690.380	0.0135942
690.458	0.0135265
690.536	0.0134668
690.614	0.0134669
690.693	0.0133597
690.771	0.0134686
690.849	0.0134048
690.927	0.0134597
691.005	0.0135532
691.083	0.0136169
691.161	0.0136456
691.239	0.0136022
691.318	0.0137145
691.396	0.0138521
691.474	0.0137594
691.552	0.0139226
691.630	0.0137102
691.708	0.0137346
691.786	0.0137347
691.864	0.0138094
691.943	0.0136542
692.021	0.0135009
692.099	0.0136669
692.177	0.0135219
692.255	0.0133408
692.333	0.0134637
692.411	0.0131675
692.489	0.0131966
692.568	0.0131544
692.646	0.0131868
692.724	0.0130726
692.802	0.0131500
692.880	0.0130460
692.958	0.0131319
693.036	0.0130924
693.114	0.0131879
693.193	0.0132344
693.271	0.0134535
693.349	0.0135766
693.427	0.0137228
693.505	0.0138041
693.583	0.0140308
693.661	0.0140616
693.739	0.0143304
693.818	0.0145140
693.896	0.0145926
693.974	0.0148361
694.052	0.0149187
694.130	0.0149976
694.208	0.0151151
694.286	0.0152216
694.364	0.0153730
694.443	0.0154558
694.521	0.0153990
694.599	0.0155110
694.677	0.0154581
694.755	0.0154228
694.833	0.0154380
694.911	0.0152291
694.989	0.0152027
695.068	0.0150006
695.146	0.0149220
695.224	0.0145459
695.302	0.0144267
695.380	0.0141813
695.458	0.0140233
695.536	0.0138213
695.614	0.0136855
695.693	0.0132781
695.771	0.0130632
695.849	0.0128537
695.927	0.0126915
696.005	0.0126324
696.083	0.0125350
696.161	0.0122630
696.239	0.0121819
696.318	0.0122614
696.396	0.0122369
696.474	0.0122488
696.552	0.0122069
696.630	0.0122739
696.708	0.0123761
696.786	0.0125287
696.864	0.0126543
696.943	0.0128687
697.021	0.0130111
697.099	0.0132059
697.177	0.0132129
697.255	0.0134900
697.333	0.0135749
697.411	0.0138448
697.489	0.0141395
697.568	0.0141885
697.646	0.0142369
697.724	0.0145046
697.802	0.0146220
697.880	0.0148508
697.958	0.0147916
698.036	0.0148296
698.114	0.0147911
698.193	0.0149905
698.271	0.0148725
698.349	0.0149168
698.427	0.0147907
698.505	0.0148439
698.583	0.0147390
698.661	0.0145829
698.739	0.0144749
698.818	0.0144304
698.896	0.0143903
698.974	0.0143196
699.052	0.0142446
699.130	0.0140739
699.208	0.0139017
699.286	0.0138959
699.364	0.0135561
699.443	0.0136535
699.521	0.0135723
699.599	0.0135431
699.677	0.0135264
699.755	0.0132236
699.833	0.0132954
699.911	0.0133569
699.989	0.0133454
700.068	0.0133730
700.146	0.0133224
700.224	0.0134361
700.302	0.0134287
700.380	0.0136497
700.458	0.0136391
700.536	0.0137318
700.614	0.0138654
700.693	0.0140176
700.771	0.0141344
700.849	0.0140981
700.927	0.0143237
701.005	0.0143817
701.083	0.0144563
701.161	0.0145549
701.239	0.0146618
701.318	0.0148427
701.396	0.0148581
701.474	0.0148241
701.552	0.0148919
701.630	0.0149649
701.708	0.0148802
701.786	0.0149995
701.864	0.0150562
701.943	0.0149558
702.021	0.0150271
702.099	0.0148776
702.177	0.0148440
702.255	0.0148800
702.333	0.0147399
702.411	0.0147151
702.489	0.0145466
702.568	0.0143999
702.646	0.0142276
702.724	0.0142245
702.802	0.0140041
702.880	0.0140071
702.958	0.0140057
703.036	0.0138670
703.114	0.0138054
703.193	0.0136129
703.271	0.0136466
703.349	0.0135020
703.427	0.0134191
703.505	0.0136931
703.583	0.0135303
703.661	0.0134953
703.739	0.0133826
703.818	0.0135742
703.896	0.0136638
703.974	0.0134995
704.052	0.0135523
704.130	0.0135012
704.208	0.0134995
704.286	0.0135191
704.364	0.0136155
704.443	0.0135799
704.521	0.0134156
704.599	0.0134682
704.677	0.0133388
704.755	0.0133018
704.833	0.0131823
704.911	0.0132323
704.989	0.0130553
705.068	0.0130717
705.146	0.0129862
705.224	0.0131924
705.302	0.0132526
705.380	0.0131678
705.458	0.0132601
705.536	0.0132528
705.614	0.0133832
705.693	0.0134480
705.771	0.0135926
705.849	0.0137724
705.927	0.0139221
706.005	0.0141728
706.083	0.0143765
706.161	0.0143652
706.239	0.0145943
706.318	0.0147298
706.396	0.0149287
706.474	0.0150390
706.552	0.0151213
706.630	0.0152948
706.708	0.0153088
706.786	0.0152973
706.864	0.0153343
706.943	0.0152902
707.021	0.0153239
707.099	0.0152576
707.177	0.0153139
707.255	0.0152315
707.333	0.0150999
707.411	0.0150776
707.489	0.0148660
707.568	0.0145833
707.646	0.0145496
707.724	0.0145713
707.802	0.0142602
707.880	0.0142535
707.958	0.0140084
708.036	0.0137762
708.114	0.0136195
708.193	0.0134347
708.271	0.0132298
708.349	0.0131146
708.427	0.0129109
708.505	0.0128193
708.583	0.0125587
708.661	0.0125838
708.739	0.0125734
708.818	0.0124117
708.896	0.0124637
708.974	0.0124815
709.052	0.0125717
709.130	0.0124796
709.208	0.0125427
709.286	0.0126138
709.364	0.0129207
709.443	0.0129755
709.521	0.0129910
709.599	0.0131427
709.677	0.0132546
709.755	0.0134019
709.833	0.0134766
709.911	0.0136436
709.989	0.0136407
710.068	0.0137231
710.146	0.0138789
710.224	0.0139666
710.302	0.0139417
710.380	0.0140354
710.458	0.0142160
710.536	0.0142020
710.614	0.0141389
710.693	0.0142426
710.771	0.0143090
710.849	0.0142052
710.927	0.0143299
711.005	0.0142504
711.083	0.0143403
711.161	0.0141363
711.239	0.0142766
711.318	0.0143793
711.396	0.0143198
711.474	0.0142612
711.552	0.0141959
711.630	0.0141831
711.708	0.0142752
711.786	0.0142669
711.864	0.0142836
711.943	0.0142610
712.021	0.0143623
712.099	0.0141745
712.177	0.0140953
712.255	0.0142229
712.333	0.0142002
712.411	0.0142439
712.489	0.0141654
712.568	0.0141653
712.646	0.0141221
712.724	0.0140204
712.802	0.0140076
712.880	0.0140883
712.958	0.0139970
713.036	0.0141517
713.114	0.0142824
713.193	0.0140353
713.271	0.0139997
713.349	0.0140930
713.427	0.0141332
713.505	0.0140396
713.583	0.0139666
713.661	0.0140276
713.739	0.0139543
713.818	0.0139259
713.896	0.0138039
713.974	0.0138077
714.052	0.0136318
714.130	0.0136912
714.208	0.0135780
714.286	0.0135259
714.364	0.0135093
714.443	0.0134335
714.521	0.0132711
714.599	0.0133086
714.677	0.0132384
714.755	0.0131909
714.833	0.0130718
714.911	0.0130647
714.989	0.0132304
715.068	0.0130428
715.146	0.0129722
715.224	0.0130498
715.302	0.0130749
715.380	0.0130942
715.458	0.0131442
715.536	0.0132500
715.614	0.0133089
715.693	0.0133389
715.771	0.0134657
715.849	0.0134872
715.927	0.0135226
716.005	0.0136582
716.083	0.0137148
716.161	0.0137345
716.239	0.0136215
716.318	0.0139227
716.396	0.0138566
716.474	0.0139890
716.552	0.0140839
716.630	0.0141781
716.708	0.0140681
716.786	0.0142156
716.864	0.0143484
716.943	0.0142062
717.021	0.0143454
717.099	0.0143541
717.177	0.0143877
717.255	0.0144413
717.333	0.0143483
717.411	0.0142500
717.489	0.0145055
717.568	0.0144287
717.646	0.0144059
717.724	0.0143852
717.802	0.0142648
717.880	0.0143911
717.958	0.0143250
718.036	0.0141425
718.114	0.0142324
718.193	0.0142368
718.271	0.0142226
718.349	0.0142092
718.427	0.0142092
718.505	0.0142915
718.583	0.0143067
718.661	0.0141760
718.739	0.0141620
718.818	0.0141990
718.896	0.0143559
718.974	0.0142747
719.052	0.0141909
719.130	0.0142506
719.208	0.0142287
719.286	0.0143085
719.364	0.0143363
719.443	0.0141584
719.521	0.0144154
719.599	0.0142741
719.677	0.0141878
719.755	0.0139845
719.833	0.0140997
719.911	0.0141161
719.989	0.0141707
720.068	0.0141686
720.146	0.0139725
720.224	0.0139951
720.302	0.0139441
720.380	0.0139040
720.458	0.0139636
720.536	0.0138472
720.614	0.0138105
720.693	0.0139848
720.771	0.0139874
720.849	0.0137788
720.927	0.0137009
721.005	0.0139095
721.083	0.0138546
721.161	0.0136237
721.239	0.0134789
721.318	0.0136904
721.396	0.0135438
721.474	0.0135708
721.552	0.0136369
721.630	0.0135738
721.708	0.0135255
721.786	0.0136317
721.864	0.0134482
721.943	0.0134776
722.021	0.0135638
722.099	0.0134917
722.177	0.0135003
722.255	0.0135475
722.333	0.0136801
722.411	0.0136858
722.489	0.0137082
722.568	0.0138316
722.646	0.0138283
722.724	0.0140411
722.802	0.0140473
722.880	0.0141622
722.958	0.0142525
723.036	0.0143879
723.114	0.0144508
723.193	0.0144519
723.271	0.0143437
723.349	0.0143965
723.427	0.0144993
723.505	0.0144608
723.583	0.0144934
723.661	0.0144009
723.739	0.0142458
723.818	0.0143175
723.896	0.0141376
723.974	0.0142970
724.052	0.0142408
724.130	0.0142684
724.208	0.0140689
724.286	0.0140703
724.364	0.0141140
724.443	0.0140506
724.521	0.0141068
724.599	0.0140728
724.677	0.0139485
724.755	0.0138557
724.833	0.0137664
724.911	0.0136366
724.989	0.0138446
725.068	0.0137127
725.146	0.0138645
725.224	0.0136794
725.302	0.0136316
725.380	0.0137257
725.458	0.0137746
725.536	0.0137102
725.614	0.0136124
725.693	0.0138749
725.771	0.0139043
725.849	0.0138515
725.927	0.0139021
726.005	0.0141599
726.083	0.0138930
726.161	0.0140499
726.239	0.0140255
726.318	0.0141254
726.396	0.0142312
726.474	0.0142635
726.552	0.0142305
726.630	0.0142025
726.708	0.0142157
726.786	0.0141129
726.864	0.0140323
726.943	0.0140685
727.021	0.0140223
727.099	0.0139282
727.177	0.0138357
727.255	0.0137801
727.333	0.0138052
727.411	0.0137415
727.489	0.0135071
727.568	0.0134203
727.646	0.0135065
727.724	0.0134981
727.802	0.0134148
727.880	0.0134702
727.958	0.0132446
728.036	0.0131664
728.114	0.0133122
728.193	0.0132051
728.271	0.0132812
728.349	0.0133016
728.427	0.0134335
728.505	0.0135481
728.583	0.0135531
728.661	0.0135460
728.739	0.0137783
728.818	0.0139083
728.896	0.0139362
728.974	0.0140829
729.052	0.0138737
729.130	0.0140427
729.208	0.0143078
729.286	0.0143114
729.364	0.0143468
729.443	0.0143594
729.521	0.0144426
729.599	0.0144348
729.677	0.0146103
729.755	0.0144134
729.833	0.0145908
729.911	0.0145010
729.989	0.0144981
730.068	0.0142806
730.146	0.0144758
730.224	0.0144538
730.302	0.0143045
730.380	0.0144112
730.458	0.0142120
730.536	0.0141628
730.614	0.0139688
730.693	0.0141273
730.771	0.0139706
730.849	0.0138319
730.927	0.0138819
731.005	0.0138376
731.083	0.0136896
731.161	0.0136929
731.239	0.0136627
731.318	0.0136002
731.396	0.0137897
731.474	0.0137011
731.552	0.0137675
731.630	0.0137974
731.708	0.0138187
731.786	0.0137962
731.864	0.0139320
731.943	0.0139442
732.021	0.0139923
732.099	0.0139781
732.177	0.0140117
732.255	0.0139819
732.333	0.0140327
732.411	0.0140263
732.489	0.0139685
732.568	0.0139631
732.646	0.0140102
732.724	0.0138725
732.802	0.0139021
732.880	0.0139514
732.958	0.0137098
733.036	0.0135995
733.114	0.0138624
733.193	0.0137531
733.271	0.0137566
733.349	0.0135678
733.427	0.0134545
733.505	0.0136314
733.583	0.0134685
733.661	0.0136108
733.739	0.0134847
733.818	0.0135561
733.896	0.0134937
733.974	0.0136072
734.052	0.0135391
734.130	0.0134708
734.208	0.0134896
734.286	0.0133685
734.364	0.0134241
734.443	0.0133601
734.521	0.0134274
734.599	0.0132645
734.677	0.0133440
734.755	0.0133163
734.833	0.0132653
734.911	0.0133637
734.989	0.0133644
735.068	0.0134277
735.146	0.0132901
735.224	0.0134545
735.302	0.0136419
735.380	0.0135885
735.458	0.0135151
735.536	0.0137288
735.614	0.0139044
735.693	0.0137451
735.771	0.0138996
735.849	0.0140169
735.927	0.0141902
736.005	0.0142337
736.083	0.0143039
736.161	0.0143280
736.239	0.0143622
736.318	0.0143835
736.396	0.0143248
736.474	0.0144640
736.552	0.0145947
736.630	0.0144960
736.708	0.0144090
736.786	0.0144626
736.864	0.0143750
736.943	0.0143970
737.021	0.0141647
737.099	0.0141138
737.177	0.0143050
737.255	0.0141563
737.333	0.0139336
737.411	0.0139397
737.489	0.0139626
737.568	0.0137416
737.646	0.0138059
737.724	0.0137437
737.802	0.0136240
737.880	0.0137141
737.958	0.0136047
738.036	0.0135976
738.114	0.0137395
738.193	0.0135517
738.271	0.0135495
738.349	0.0136375
738.427	0.0136136
738.505	0.0135667
738.583	0.0135593
738.661	0.0136275
738.739	0.0136787
738.818	0.0137394
738.896	0.0136397
738.974	0.0137035
739.052	0.0136195
739.130	0.0136213
739.208	0.0137817
739.286	0.0136967
739.364	0.0137047
739.443	0.0136938
739.521	0.0136241
739.599	0.0137122
739.677	0.0138013
739.755	0.0136931
739.833	0.0136965
739.911	0.0137306
739.989	0.0138387
740.068	0.0137945
740.146	0.0138181
740.224	0.0136716
740.302	0.0137419
740.380	0.0137589
740.458	0.0135931
740.536	0.0137493
740.614	0.0137666
740.693	0.0136581
740.771	0.0136151
740.849	0.0135129
740.927	0.0136063
741.005	0.0136894
741.083	0.0136366
741.161	0.0136527
741.239	0.0135677
741.318	0.0136290
741.396	0.0136380
741.474	0.0137396
741.552	0.0137415
741.630	0.0137142
741.708	0.0137213
741.786	0.0137740
741.864	0.0139765
741.943	0.0139319
742.021	0.0139528
742.099	0.0138862
742.177	0.0139889
742.255	0.0139651
742.333	0.0140783
742.411	0.0141136
742.489	0.0142005
742.568	0.0142412
742.646	0.0142571
742.724	0.0143736
742.802	0.0143808
742.880	0.0142606
742.958	0.0144191
743.036	0.0143965
743.114	0.0143111
743.193	0.0142198
743.271	0.0142332
743.349	0.0143366
743.427	0.0141538
743.505	0.0140667
743.583	0.0141592
743.661	0.0139975
743.739	0.0140631
743.818	0.0141389
743.896	0.0140200
743.974	0.0139761
744.052	0.0139939
744.130	0.0140002
744.208	0.0139169
744.286	0.0139155
744.364	0.0139285
744.443	0.0138829
744.521	0.0138312
744.599	0.0138900
744.677	0.0138770
744.755	0.0138525
744.833	0.0138629
744.911	0.0139174
744.989	0.0137119
745.068	0.0137985
745.146	0.0137099
745.224	0.0136537
745.302	0.0138667
745.380	0.0136080
745.458	0.0137106
745.536	0.0137789
745.614	0.0136729
745.693	0.0137485
745.771	0.0137556
745.849	0.0137173
745.927	0.0136807
746.005	0.0138519
746.083	0.0137984
746.161	0.0140938
746.239	0.0138887
746.318	0.0137273
746.396	0.0138306
746.474	0.0140146
746.552	0.0140385
746.630	0.0139884
746.708	0.0141154
746.786	0.0140800
746.864	0.0140932
746.943	0.0141206
747.021	0.0141673
747.099	0.0140331
747.177	0.0141270
747.255	0.0141016
747.333	0.0140968
747.411	0.0139678
747.489	0.0140495
747.568	0.0140327
747.646	0.0139717
747.724	0.0139239
747.802	0.0140982
747.880	0.0140800
747.958	0.0139508
748.036	0.0139589
748.114	0.0139481
748.193	0.0139773
748.271	0.0139466
748.349	0.0138618
748.427	0.0137787
748.505	0.0138789
748.583	0.0139793
748.661	0.0138339
748.739	0.0138698
748.818	0.0139819
748.896	0.0138284
748.974	0.0138612
749.052	0.0139297
749.130	0.0139643
749.208	0.0137964
749.286	0.0138866
749.364	0.0138726
749.443	0.0138564
749.521	0.0139140
749.599	0.0138290
749.677	0.0138118
749.755	0.0138307
749.833	0.0138328
749.911	0.0138239
749.989	0.0138312
750.068	0.0138271
750.146	0.0137807
750.224	0.0138574
750.302	0.0138826
750.380	0.0139557
750.458	0.0137437
750.536	0.0138645
750.614	0.0140131
750.693	0.0140012
750.771	0.0137392
750.849	0.0139493
750.927	0.0139134
751.005	0.0139256
751.083	0.0141336
751.161	0.0141479
751.239	0.0140788
751.318	0.0141912
751.396	0.0142673
751.474	0.0142680
751.552	0.0141748
751.630	0.0143726
751.708	0.0143352
751.786	0.0142950
751.864	0.0141525
751.943	0.0142039
752.021	0.0142280
752.099	0.0141808
752.177	0.0141843
752.255	0.0140246
752.333	0.0141022
752.411	0.0140952
752.489	0.0139514
752.568	0.0140105
752.646	0.0138892
752.724	0.0139262
752.802	0.0137869
752.880	0.0138439
752.958	0.0136958
753.036	0.0137342
753.114	0.0135349
753.193	0.0133283
753.271	0.0134190
753.349	0.0133609
753.427	0.0132666
753.505	0.0133226
753.583	0.0132253
753.661	0.0130956
753.739	0.0132072
753.818	0.0132182
753.896	0.0131665
753.974	0.0132554
754.052	0.0132746
754.130	0.0131890
754.208	0.0135233
754.286	0.0134715
754.364	0.0133891
754.443	0.0136638
754.521	0.0136803
754.599	0.0135628
754.677	0.0136623
754.755	0.0136723
754.833	0.0138039
754.911	0.0138626
754.989	0.0139435
755.068	0.0141054
755.146	0.0141676
755.224	0.0141457
755.302	0.0142288
755.380	0.0142645
755.458	0.0143688
755.536	0.0144135
755.614	0.0143342
755.693	0.0144283
755.771	0.0144641
755.849	0.0144260
755.927	0.0143991
756.005	0.0144717
756.083	0.0143672
756.161	0.0143661
756.239	0.0142525
756.318	0.0142371
756.396	0.0142634
756.474	0.0143813
756.552	0.0142528
756.630	0.0140524
756.708	0.0139893
756.786	0.0138831
756.864	0.0138995
756.943	0.0137792
757.021	0.0137314
757.099	0.0136987
757.177	0.0135517
757.255	0.0134365
757.333	0.0135782
757.411	0.0133385
757.489	0.0133529
757.568	0.0132808
757.646	0.0132760
757.724	0.0133768
757.802	0.0133609
757.880	0.0133582
757.958	0.0133286
758.036	0.0133044
758.114	0.0133708
758.193	0.0134256
758.271	0.0134807
758.349	0.0134915
758.427	0.0136039
758.505	0.0136613
758.583	0.0137213
758.661	0.0137405
758.739	0.0138593
758.818	0.0138575
758.896	0.0139551
758.974	0.0138915
759.052	0.0139854
759.130	0.0141076
759.208	0.0140763
759.286	0.0141957
759.364	0.0140494
759.443	0.0142457
759.521	0.0142164
759.599	0.0141792
759.677	0.0142679
759.755	0.0142288
759.833	0.0143320
759.911	0.0141221
759.989	0.0143488
760.068	0.0143986
760.146	0.0143865
760.224	0.0144249
760.302	0.0144135
760.380	0.0142007
760.458	0.0143071
760.536	0.0143109
760.614	0.0141283
760.693	0.0142254
760.771	0.0143359
760.849	0.0141726
760.927	0.0140601
761.005	0.0140874
761.083	0.0140618
761.161	0.0138936
761.239	0.0139558
761.318	0.0139272
761.396	0.0137588
761.474	0.0135857
761.552	0.0136239
761.630	0.0137032
761.708	0.0137564
761.786	0.0134477
761.864	0.0135780
761.943	0.0136835
762.021	0.0135209
762.099	0.0135625
762.177	0.0135432
762.255	0.0135266
762.333	0.0135653
762.411	0.0136230
762.489	0.0135962
762.568	0.0136435
762.646	0.0138311
762.724	0.0136858
762.802	0.0139229
762.880	0.0136905
762.958	0.0138179
763.036	0.0139439
763.114	0.0138688
763.193	0.0139048
763.271	0.0140169
763.349	0.0139509
763.427	0.0140585
763.505	0.0141467
763.583	0.0141407
763.661	0.0142502
763.739	0.0140580
763.818	0.0140958
763.896	0.0142192
763.974	0.0140884
764.052	0.0141271
764.130	0.0140832
764.208	0.0142006
764.286	0.0141682
764.364	0.0141579
764.443	0.0140162
764.521	0.0142413
764.599	0.0141431
764.677	0.0142036
764.755	0.0140848
764.833	0.0140834
764.911	0.0139813
764.989	0.0140247
765.068	0.0139777
765.146	0.0140061
765.224	0.0138017
765.302	0.0139571
765.380	0.0138255
765.458	0.0140278
765.536	0.0139411
765.614	0.0136971
765.693	0.0138919
765.771	0.0139156
765.849	0.0139657
765.927	0.0138373
766.005	0.0137093
766.083	0.0135986
766.161	0.0137505
766.239	0.0138368
766.318	0.0135287
766.396	0.0135913
766.474	0.0136439
766.552	0.0135324
766.630	0.0134251
766.708	0.0133205
766.786	0.0135676
766.864	0.0134528
766.943	0.0134459
767.021	0.0134184
767.099	0.0134088
767.177	0.0135699
767.255	0.0135445
767.333	0.0134992
767.411	0.0135128
767.489	0.0136196
767.568	0.0136461
767.646	0.0136266
767.724	0.0135600
767.802	0.0137959
767.880	0.0139515
767.958	0.0139400
768.036	0.0139201
768.114	0.0140432
768.193	0.0140251
768.271	0.0141243
768.349	0.0140722
768.427	0.0141501
768.505	0.0141051
768.583	0.0142332
768.661	0.0142883
768.739	0.0142643
768.818	0.0143713
768.896	0.0143104
768.974	0.0144280
769.052	0.0144358
769.130	0.0143752
769.208	0.0143060
769.286	0.0143326
769.364	0.0143623
769.443	0.0142343
769.521	0.0144220
769.599	0.0143494
769.677	0.0142590
769.755	0.0142953
769.833	0.0141917
769.911	0.0142188
769.989	0.0141833
770.068	0.0141808
770.146	0.0140216
770.224	0.0141083
770.302	0.0141197
770.380	0.0139582
770.458	0.0138799
770.536	0.0138074
770.614	0.0139084
770.693	0.0137626
770.771	0.0138747
770.849	0.0139387
770.927	0.0138129
771.005	0.0138202
771.083	0.0137963
771.161	0.0138676
771.239	0.0137859
771.318	0.0138561
771.396	0.0137377
771.474	0.0137708
771.552	0.0137682
771.630	0.0137216
771.708	0.0138448
771.786	0.0138470
771.864	0.0138926
771.943	0.0138622
772.021	0.0138239
772.099	0.0137993
772.177	0.0139135
772.255	0.0138919
772.333	0.0137702
772.411	0.0138556
772.489	0.0137061
772.568	0.0138103
772.646	0.0136777
772.724	0.0137300
772.802	0.0137441
772.880	0.0138039
772.958	0.0137455
773.036	0.0137392
773.114	0.0137404
773.193	0.0137879
773.271	0.0137882
773.349	0.0138751
773.427	0.0137180
773.505	0.0138049
773.583	0.0139062
773.661	0.0139523
773.739	0.0139809
773.818	0.0140733
773.896	0.0139062
773.974	0.0139039
774.052	0.0138625
774.130	0.0140448
774.208	0.0141531
774.286	0.0140319
774.364	0.0139802
774.443	0.0141103
774.521	0.0139999
774.599	0.0141573
774.677	0.0143089
774.755	0.0142478
774.833	0.0139278
774.911	0.0143203
774.989	0.0141808
775.068	0.0142838
775.146	0.0143157
775.224	0.0143393
775.302	0.0142754
775.380	0.0143183
775.458	0.0143183
775.536	0.0143840
775.614	0.0142964
775.693	0.0144297
775.771	0.0143616
775.849	0.0143192
775.927	0.0142471
776.005	0.0142664
776.083	0.0140749
776.161	0.0142381
776.239	0.0142355
776.318	0.0140659
776.396	0.0140346
776.474	0.0141058
776.552	0.0139934
776.630	0.0140119
776.708	0.0140146
776.786	0.0138503
776.864	0.0138138
776.943	0.0137515
777.021	0.0136774
777.099	0.0136614
777.177	0.0135905
777.255	0.0135034
777.333	0.0135074
777.411	0.0132919
777.489	0.0133649
777.568	0.0133752
777.646	0.0133975
777.724	0.0131322
777.802	0.0131044
777.880	0.0132230
777.958	0.0132713
778.036	0.0132884
778.114	0.0132992
778.193	0.0133751
778.271	0.0133428
778.349	0.0134035
778.427	0.0134089
778.505	0.0134708
778.583	0.0135037
778.661	0.0136866
778.739	0.0137347
778.818	0.0137283
778.896	0.0137940
778.974	0.0137267
779.052	0.0137179
779.130	0.0139550
779.208	0.0139408
779.286	0.0141341
779.364	0.0141924
779.443	0.0141681
779.521	0.0141092
779.599	0.0141312
779.677	0.0143503
779.755	0.0143408
779.833	0.0144215
779.911	0.0143787
779.989	0.0143800
780.068	0.0143597
780.146	0.0144942
780.224	0.0145322
780.302	0.0144753
780.380	0.0145216
780.458	0.0143851
780.536	0.0145997
780.614	0.0144757
780.693	0.0143483
780.771	0.0145350
780.849	0.0144109
780.927	0.0144357
781.005	0.0142448
781.083	0.0142892
781.161	0.0142873
781.239	0.0143612
781.318	0.0140363
781.396	0.0140545
781.474	0.0140812
781.552	0.0141090
781.630	0.0140295
781.708	0.0139361
781.786	0.0137646
781.864	0.0139920
781.943	0.0138585
782.021	0.0138144
782.099	0.0138402
782.177	0.0138663
782.255	0.0137861
782.333	0.0138975
782.411	0.0139282
782.489	0.0137789
782.568	0.0137991
782.646	0.0137718
782.724	0.0138483
782.802	0.0137997
782.880	0.0138609
782.958	0.0139889
783.036	0.0140797
783.114	0.0139223
783.193	0.0139626
783.271	0.0139462
783.349	0.0139904
783.427	0.0138888
783.505	0.0139131
783.583	0.0139550
783.661	0.0140191
783.739	0.0140098
783.818	0.0139259
783.896	0.0139548
783.974	0.0141728
784.052	0.0140480
784.130	0.0140788
784.208	0.0140107
784.286	0.0141016
784.364	0.0141357
784.443	0.0138708
784.521	0.0139807
784.599	0.0140292
784.677	0.0140210
784.755	0.0140971
784.833	0.0139577
784.911	0.0141132
784.989	0.0142150
785.068	0.0140940
785.146	0.0139507
785.224	0.0140001
785.302	0.0140855
785.380	0.0140861
785.458	0.0140252
785.536	0.0139033
785.614	0.0139369
785.693	0.0139968
785.771	0.0139114
785.849	0.0139252
785.927	0.0139466
786.005	0.0140437
786.083	0.0138833
786.161	0.0140834
786.239	0.0140043
786.318	0.0138287
786.396	0.0137719
786.474	0.0139066
786.552	0.0140338
786.630	0.0139119
786.708	0.0138287
786.786	0.0139265
786.864	0.0137560
786.943	0.0139108
787.021	0.0138712
787.099	0.0137215
787.177	0.0137165
787.255	0.0136940
787.333	0.0136592
787.411	0.0135533
787.489	0.0136305
787.568	0.0137244
787.646	0.0136275
787.724	0.0136789
787.802	0.0137434
787.880	0.0137931
787.958	0.0137827
788.036	0.0137366
788.114	0.0138170
788.193	0.0138348
788.271	0.0140011
788.349	0.0139143
788.427	0.0138919
788.505	0.0140482
788.583	0.0141076
788.661	0.0142187
788.739	0.0142486
788.818	0.0141171
788.896	0.0141054
788.974	0.0142963
789.052	0.0142713
789.130	0.0142566
789.208	0.0140389
789.286	0.0141353
789.364	0.0141347
789.443	0.0140695
789.521	0.0141714
789.599	0.0139629
789.677	0.0140058
789.755	0.0141592
789.833	0.0140979
789.911	0.0139869
789.989	0.0140282
790.068	0.0140313
790.146	0.0140033
790.224	0.0138049
790.302	0.0138453
790.380	0.0140064
790.458	0.0137806
790.536	0.0139056
790.614	0.0137998
790.693	0.0139435
790.771	0.0140850
790.849	0.0140457
790.927	0.0140270
791.005	0.0141245
791.083	0.0140640
791.161	0.0141508
791.239	0.0141562
791.318	0.0141703
791.396	0.0142715
791.474	0.0141654
791.552	0.0142724
791.630	0.0142855
791.708	0.0144025
791.786	0.0141970
791.864	0.0142206
791.943	0.0141033
792.021	0.0142467
792.099	0.0140582
792.177	0.0139366
792.255	0.0140237
792.333	0.0138883
792.411	0.0140932
792.489	0.0138607
792.568	0.0139299
792.646	0.0138145
792.724	0.0139304
792.802	0.0137489
792.880	0.0137051
792.958	0.0137273
793.036	0.0135871
793.114	0.0138274
793.193	0.0137782
793.271	0.0137672
793.349	0.0137028
793.427	0.0138521
793.505	0.0138261
793.583	0.0136469
793.661	0.0137440
793.739	0.0137949
793.818	0.0136637
793.896	0.0137139
793.974	0.0136967
794.052	0.0137782
794.130	0.0137517
794.208	0.0136269
794.286	0.0137229
794.364	0.0137004
794.443	0.0136847
794.521	0.0137147
794.599	0.0138091
794.677	0.0137606
794.755	0.0137777
794.833	0.0136333
794.911	0.0139233
794.989	0.0138134
795.068	0.0138503
795.146	0.0138202
795.224	0.0139376
795.302	0.0137735
795.380	0.0137968
795.458	0.0138605
795.536	0.0138302
795.614	0.0138754
795.693	0.0139098
795.771	0.0138618
795.849	0.0139967
795.927	0.0140187
796.005	0.0139613
796.083	0.0140573
796.161	0.0140830
796.239	0.0141078
796.318	0.0141112
796.396	0.0141338
796.474	0.0142361
796.552	0.0140417
796.630	0.0142037
796.708	0.0142198
796.786	0.0139965
796.864	0.0141153
796.943	0.0140839
797.021	0.0138489
797.099	0.0140324
797.177	0.0139709
797.255	0.0140157
797.333	0.0140276
797.411	0.0139777
797.489	0.0140111
797.568	0.0139380
797.646	0.0139496
797.724	0.0139615
797.802	0.0138675
797.880	0.0138193
797.958	0.0138462
798.036	0.0140043
798.114	0.0139249
798.193	0.0139182
798.271	0.0138259
798.349	0.0138220
798.427	0.0138107
798.505	0.0138583
798.583	0.0138670
798.661	0.0137760
798.739	0.0138478
798.818	0.0138817
798.896	0.0137103
798.974	0.0138401
799.052	0.0138726
799.130	0.0139344
799.208	0.0139178
799.286	0.0138068
799.364	0.0137717
799.443	0.0138749
799.521	0.0138009
799.599	0.0138792
799.677	0.0138556
799.755	0.0137972
799.833	0.0137595
799.911	0.0139430
799.989	0.0140332
800.068	0.0138535
800.146	0.0139407
800.224	0.0140173
800.302	0.0140410
800.380	0.0140110
800.458	0.0139909
800.536	0.0140379
800.614	0.0142758
800.693	0.0142516
800.771	0.0140399
800.849	0.0141098
800.927	0.0141544
801.005	0.0141122
801.083	0.0141312
801.161	0.0142143
801.239	0.0142631
801.318	0.0141245
801.396	0.0140957
801.474	0.0140536
801.552	0.0141505
801.630	0.0140302
801.708	0.0140858
801.786	0.0139051
801.864	0.0140289
801.943	0.0140569
802.021	0.0140755
802.099	0.0139811
802.177	0.0138902
802.255	0.0139036
802.333	0.0139769
802.411	0.0138291
802.489	0.0140037
802.568	0.0139233
802.646	0.0140356
802.724	0.0139780
802.802	0.0139307
802.880	0.0140160
802.958	0.0140005
803.036	0.0138296
803.114	0.0139092
803.193	0.0139548
803.271	0.0137754
803.349	0.0138486
803.427	0.0140415
803.505	0.0139606
803.583	0.0139281
803.661	0.0140507
803.739	0.0141335
803.818	0.0140752
803.896	0.0142066
803.974	0.0139561
804.052	0.0141236
804.130	0.0141145
804.208	0.0141049
804.286	0.0141022
804.364	0.0142101
804.443	0.0140840
804.521	0.0139695
804.599	0.0140331
804.677	0.0140130
804.755	0.0137788
804.833	0.0138667
804.911	0.0138368
804.989	0.0138587
805.068	0.0137678
805.146	0.0138340
805.224	0.0136479
805.302	0.0138155
805.380	0.0139466
805.458	0.0136055
805.536	0.0136378
805.614	0.0136498
805.693	0.0137054
805.771	0.0136544
805.849	0.0137563
805.927	0.0136710
806.005	0.0138097
806.083	0.0137395
806.161	0.0136499
806.239	0.0137218
806.318	0.0137115
806.396	0.0136877
806.474	0.0137466
806.552	0.0138350
806.630	0.0138937
806.708	0.0138783
806.786	0.0138806
806.864	0.0140261
806.943	0.0139677
807.021	0.0140638
807.099	0.0140002
807.177	0.0141161
807.255	0.0141095
807.333	0.0141758
807.411	0.0140569
807.489	0.0139716
807.568	0.0139553
807.646	0.0140519
807.724	0.0138978
807.802	0.0140142
807.880	0.0139375
807.958	0.0138873
808.036	0.0138264
808.114	0.0138013
808.193	0.0138266
808.271	0.0137552
808.349	0.0137894
808.427	0.0136907
808.505	0.0135740
808.583	0.0136815
808.661	0.0136340
808.739	0.0137331
808.818	0.0137325
808.896	0.0137983
808.974	0.0138165
809.052	0.0137256
809.130	0.0136939
809.208	0.0137187
809.286	0.0138133
809.364	0.0140094
809.443	0.0139478
809.521	0.0139651
809.599	0.0140403
809.677	0.0140482
809.755	0.0139371
809.833	0.0139688
809.911	0.0138971
809.989	0.0140301
810.068	0.0139642
810.146	0.0137996
810.224	0.0137538
810.302	0.0139034
810.380	0.0139584
810.458	0.0138819
810.536	0.0139516
810.614	0.0138718
810.693	0.0139899
810.771	0.0138421
810.849	0.0139879
810.927	0.0140063
811.005	0.0139307
811.083	0.0137042
811.161	0.0137076
811.239	0.0137566
811.318	0.0136986
811.396	0.0135483
811.474	0.0136499
811.552	0.0134933
811.630	0.0134229
811.708	0.0135830
811.786	0.0136453
811.864	0.0133842
811.943	0.0136044
812.021	0.0136849
812.099	0.0136443
812.177	0.0137091
812.255	0.0139240
812.333	0.0138491
812.411	0.0139478
812.489	0.0139287
812.568	0.0139800
812.646	0.0138893
812.724	0.0139870
812.802	0.0140177
812.880	0.0140798
812.958	0.0141567
813.036	0.0140614
813.114	0.0140813
813.193	0.0142924
813.271	0.0141752
813.349	0.0140493
813.427	0.0140559
813.505	0.0141470
813.583	0.0140565
813.661	0.0141718
813.739	0.0141258
813.818	0.0141477
813.896	0.0140464
813.974	0.0140285
814.052	0.0140803
814.130	0.0139214
814.208	0.0139750
814.286	0.0139190
814.364	0.0140485
814.443	0.0140913
814.521	0.0140069
814.599	0.0138183
814.677	0.0137512
814.755	0.0138173
814.833	0.0137694
814.911	0.0137726
814.989	0.0137404
815.068	0.0138042
815.146	0.0138465
815.224	0.0137867
815.302	0.0138250
815.380	0.0138944
815.458	0.0140720
815.536	0.0139267
815.614	0.0139664
815.693	0.0139999
815.771	0.0141057
815.849	0.0141745
815.927	0.0140685
816.005	0.0141614
816.083	0.0143422
816.161	0.0142219
816.239	0.0141895
816.318	0.0140930
816.396	0.0140826
816.474	0.0141013
816.552	0.0141318
816.630	0.0139610
816.708	0.0139532
816.786	0.0138980
816.864	0.0138010
816.943	0.0139033
817.021	0.0138593
817.099	0.0137835
817.177	0.0138037
817.255	0.0136765
817.333	0.0137063
817.411	0.0137743
817.489	0.0139064
817.568	0.0138697
817.646	0.0137142
817.724	0.0137573
817.802	0.0138781
817.880	0.0138399
817.958	0.0138982
818.036	0.0137882
818.114	0.0138588
818.193	0.0138148
818.271	0.0138908
818.349	0.0139100
818.427	0.0138371
818.505	0.0137593
818.583	0.0138781
818.661	0.0136965
818.739	0.0138387
818.818	0.0137433
818.896	0.0137674
818.974	0.0137656
819.052	0.0137310
819.130	0.0138361
819.208	0.0137238
819.286	0.0136673
819.364	0.0137343
819.443	0.0137272
819.521	0.0136770
819.599	0.0137169
819.677	0.0137628
819.755	0.0137220
819.833	0.0136871
819.911	0.0137093
819.989	0.0136402
820.068	0.0137370
820.146	0.0138546
820.224	0.0138614
820.302	0.0138756
820.380	0.0138274
820.458	0.0139242
820.536	0.0136873
820.614	0.0139565
820.693	0.0139163
820.771	0.0138718
820.849	0.0139709
820.927	0.0137787
821.005	0.0138710
821.083	0.0139328
821.161	0.0139754
821.239	0.0138600
821.318	0.0139208
821.396	0.0140533
821.474	0.0141142
821.552	0.0141425
821.630	0.0138349
821.708	0.0138350
821.786	0.0140466
821.864	0.0140867
821.943	0.0140352
822.021	0.0141185
822.099	0.0141272
822.177	0.0141827
822.255	0.0140224
822.333	0.0141673
822.411	0.0141040
822.489	0.0140775
822.568	0.0139342
822.646	0.0140383
822.724	0.0140314
822.802	0.0141891
822.880	0.0142076
822.958	0.0141725
823.036	0.0141970
823.114	0.0142290
823.193	0.0141360
823.271	0.0142062
823.349	0.0142314
823.427	0.0142953
823.505	0.0142857
823.583	0.0141800
823.661	0.0142386
823.739	0.0142083
823.818	0.0142753
823.896	0.0142645
823.974	0.0141483
824.052	0.0140244
824.130	0.0141357
824.208	0.0140519
824.286	0.0138816
824.364	0.0139309
824.443	0.0139808
824.521	0.0137008
824.599	0.0136776
824.677	0.0136955
824.755	0.0136774
824.833	0.0136977
824.911	0.0136678
824.989	0.0135243
825.068	0.0135735
825.146	0.0134374
825.224	0.0135226
825.302	0.0136320
825.380	0.0134553
825.458	0.0133949
825.536	0.0135333
825.614	0.0134617
825.693	0.0133543
825.771	0.0133740
825.849	0.0136117
825.927	0.0136543
826.005	0.0136349
826.083	0.0136903
826.161	0.0135954
826.239	0.0136447
826.318	0.0138118
826.396	0.0139301
826.474	0.0138569
826.552	0.0138381
826.630	0.0139073
826.708	0.0139412
826.786	0.0139455
826.864	0.0141299
826.943	0.0140044
827.021	0.0140359
827.099	0.0141357
827.177	0.0140559
827.255	0.0140573
827.333	0.0141074
827.411	0.0140963
827.489	0.0139404
827.568	0.0140276
827.646	0.0139366
827.724	0.0139830
827.802	0.0140172
827.880	0.0138915
827.958	0.0139627
828.036	0.0139053
828.114	0.0139778
828.193	0.0138625
828.271	0.0140649
828.349	0.0140099
828.427	0.0139066
828.505	0.0138417
828.583	0.0137249
828.661	0.0139352
828.739	0.0139214
828.818	0.0139704
828.896	0.0139699
828.974	0.0139597
829.052	0.0139205
829.130	0.0139774
829.208	0.0140712
829.286	0.0141618
829.364	0.0139816
829.443	0.0139893
829.521	0.0140788
829.599	0.0141794
829.677	0.0142474
829.755	0.0141380
829.833	0.0141892
829.911	0.0141853
829.989	0.0142258
830.068	0.0141946
830.146	0.0139996
830.224	0.0140585
830.302	0.0142147
830.380	0.0141711
830.458	0.0140987
830.536	0.0141089
830.614	0.0140646
830.693	0.0140260
830.771	0.0139599
830.849	0.0140678
830.927	0.0139789
831.005	0.0139861
831.083	0.0140845
831.161	0.0139159
831.239	0.0138311
831.318	0.0138532
831.396	0.0138618
831.474	0.0138601
831.552	0.0137107
831.630	0.0137726
831.708	0.0136674
831.786	0.0137374
831.864	0.0137067
831.943	0.0135939
832.021	0.0137009
832.099	0.0137747
832.177	0.0135986
832.255	0.0136196
832.333	0.0135993
832.411	0.0136643
832.489	0.0137445
832.568	0.0137201
832.646	0.0137169
832.724	0.0138545
832.802	0.0138897
832.880	0.0139079
832.958	0.0140121
833.036	0.0140037
833.114	0.0140123
833.193	0.0139779
833.271	0.0140517
833.349	0.0139755
833.427	0.0139269
833.505	0.0141510
833.583	0.0141301
833.661	0.0140749
833.739	0.0141362
833.818	0.0140982
833.896	0.0141822
833.974	0.0141645
834.052	0.0140987
834.130	0.0140358
834.208	0.0140342
834.286	0.0140469
834.364	0.0138830
834.443	0.0139734
834.521	0.0138233
834.599	0.0138776
834.677	0.0139274
834.755	0.0139764
834.833	0.0139017
834.911	0.0138080
834.989	0.0138264
835.068	0.0137884
835.146	0.0138558
835.224	0.0139790
835.302	0.0138435
835.380	0.0138438
835.458	0.0138186
835.536	0.0138926
835.614	0.0138558
835.693	0.0139259
835.771	0.0137743
835.849	0.0137764
835.927	0.0138758
836.005	0.0140109
836.083	0.0138911
836.161	0.0137537
836.239	0.0137846
836.318	0.0137073
836.396	0.0138074
836.474	0.0137733
836.552	0.0137531
836.630	0.0137576
836.708	0.0138832
836.786	0.0138148
836.864	0.0138815
836.943	0.0139730
837.021	0.0139520
837.099	0.0139384
837.177	0.0139560
837.255	0.0139104
837.333	0.0138151
837.411	0.0139910
837.489	0.0140094
837.568	0.0140727
837.646	0.0140580
837.724	0.0140221
837.802	0.0141296
837.880	0.0140913
837.958	0.0141271
838.036	0.0140419
838.114	0.0141890
838.193	0.0141377
838.271	0.0139977
838.349	0.0140156
838.427	0.0140479
838.505	0.0140408
838.583	0.0141203
838.661	0.0140672
838.739	0.0140243
838.818	0.0139183
838.896	0.0138731
838.974	0.0138136
839.052	0.0137479
839.130	0.0137901
839.208	0.0138470
839.286	0.0137500
839.364	0.0137164
839.443	0.0138393
839.521	0.0137971
839.599	0.0138120
839.677	0.0137304
839.755	0.0138950
839.833	0.0138727
839.911	0.0137974
839.989	0.0137873
840.068	0.0137923
840.146	0.0138797
840.224	0.0139480
840.302	0.0138625
840.380	0.0137350
840.458	0.0138333
840.536	0.0139182
840.614	0.0139648
840.693	0.0139741
840.771	0.0139586
840.849	0.0138538
840.927	0.0139155
841.005	0.0138207
841.083	0.0138760
841.161	0.0137670
841.239	0.0138232
841.318	0.0136773
841.396	0.0136667
841.474	0.0137534
841.552	0.0137840
841.630	0.0137741
841.708	0.0137005
841.786	0.0136635
841.864	0.0136449
841.943	0.0137785
842.021	0.0136835
842.099	0.0136217
842.177	0.0135758
842.255	0.0137220
842.333	0.0136884
842.411	0.0137181
842.489	0.0138395
842.568	0.0138397
842.646	0.0136002
842.724	0.0137798
842.802	0.0137119
842.880	0.0136088
842.958	0.0136853
843.036	0.0139117
843.114	0.0137745
843.193	0.0139236
843.271	0.0140162
843.349	0.0138474
843.427	0.0138253
843.505	0.0138809
843.583	0.0139084
843.661	0.0139399
843.739	0.0140150
843.818	0.0139291
843.896	0.0138655
843.974	0.0138841
844.052	0.0138813
844.130	0.0138940
844.208	0.0139146
844.286	0.0139233
844.364	0.0138465
844.443	0.0139545
844.521	0.0139653
844.599	0.0137679
844.677	0.0139606
844.755	0.0139684
844.833	0.0139297
844.911	0.0139483
844.989	0.0139893
845.068	0.0140682
845.146	0.0139542
845.224	0.0139159
845.302	0.0139561
845.380	0.0141377
845.458	0.0140202
845.536	0.0141692
845.614	0.0140349
845.693	0.0141535
845.771	0.0141898
845.849	0.0140778
845.927	0.0141835
846.005	0.0141225
846.083	0.0141925
846.161	0.0142231
846.239	0.0141556
846.318	0.0141827
846.396	0.0142377
846.474	0.0141367
846.552	0.0142423
846.630	0.0141642
846.708	0.0141228
846.786	0.0142181
846.864	0.0141259
846.943	0.0141822
847.021	0.0140401
847.099	0.0140965
847.177	0.0140340
847.255	0.0140302
847.333	0.0140891
847.411	0.0139713
847.489	0.0140635
847.568	0.0140537
847.646	0.0139755
847.724	0.0138909
847.802	0.0140833
847.880	0.0139769
847.958	0.0139986
848.036	0.0137807
848.114	0.0140385
848.193	0.0139194
848.271	0.0138930
848.349	0.0138514
848.427	0.0139648
848.505	0.0139786
848.583	0.0137904
848.661	0.0139467
848.739	0.0139162
848.818	0.0137651
848.896	0.0139281
848.974	0.0138250
849.052	0.0138788
849.130	0.0138255
849.208	0.0138534
849.286	0.0139168
849.364	0.0139880
849.443	0.0139667
849.521	0.0140569
849.599	0.0139610
849.677	0.0140430
849.755	0.0138846
849.833	0.0139518
849.911	0.0140337
849.989	0.0141395
850.068	0.0141879
850.146	0.0140134
850.224	0.0139679
850.302	0.0139856
850.380	0.0140849
850.458	0.0141955
850.536	0.0140321
850.614	0.0140327
850.693	0.0141557
850.771	0.0141709
850.849	0.0140689
850.927	0.0142184
851.005	0.0140806
851.083	0.0141209
851.161	0.0141866
851.239	0.0140452
851.318	0.0140755
851.396	0.0140729
851.474	0.0141102
851.552	0.0138198
851.630	0.0139516
851.708	0.0139059
851.786	0.0139059
851.864	0.0138560
851.943	0.0138540
852.021	0.0137720
852.099	0.0137014
852.177	0.0137000
852.255	0.0136815
852.333	0.0136436
852.411	0.0136288
852.489	0.0135114
852.568	0.0136942
852.646	0.0137890
852.724	0.0136866
852.802	0.0137307
852.880	0.0137069
852.958	0.0137393
853.036	0.0137708
853.114	0.0136256
853.193	0.0138549
853.271	0.0138830
853.349	0.0138127
853.427	0.0139439
853.505	0.0140493
853.583	0.0139471
853.661	0.0140171
853.739	0.0141663
853.818	0.0139369
853.896	0.0139973
853.974	0.0139708
854.052	0.0139489
854.130	0.0141267
854.208	0.0141724
854.286	0.0142529
854.364	0.0141215
854.443	0.0141499
854.521	0.0141766
854.599	0.0140070
854.677	0.0140672
854.755	0.0140719
854.833	0.0142051
854.911	0.0141240
854.989	0.0141283
855.068	0.0142168
855.146	0.0140781
855.224	0.0140285
855.302	0.0139500
855.380	0.0140105
855.458	0.0139358
855.536	0.0138501
855.614	0.0138937
855.693	0.0138181
855.771	0.0138236
855.849	0.0138662
855.927	0.0138515
856.005	0.0138146
856.083	0.0138192
856.161	0.0137720
856.239	0.0136536
856.318	0.0136489
856.396	0.0136595
856.474	0.0137022
856.552	0.0135363
856.630	0.0137209
856.708	0.0137240
856.786	0.0136503
856.864	0.0136093
856.943	0.0138097
857.021	0.0138207
857.099	0.0137830
857.177	0.0137487
857.255	0.0137847
857.333	0.0138042
857.411	0.0138389
857.489	0.0139280
857.568	0.0139899
857.646	0.0140247
857.724	0.0140672
857.802	0.0140166
857.880	0.0139664
857.958	0.0140570
858.036	0.0142020
858.114	0.0139948
858.193	0.0142271
858.271	0.0141056
858.349	0.0141828
858.427	0.0140769
858.505	0.0142048
858.583	0.0140926
858.661	0.0141780
858.739	0.0141459
858.818	0.0142276
858.896	0.0141008
858.974	0.0141385
859.052	0.0140134
859.130	0.0141407
859.208	0.0140974
859.286	0.0140097
859.364	0.0141552
859.443	0.0140407
859.521	0.0140520
859.599	0.0139684
859.677	0.0138851
859.755	0.0138127
859.833	0.0138661
859.911	0.0139121
859.989	0.0138733
860.068	0.0138791
860.146	0.0139319
860.224	0.0138580
860.302	0.0138538
860.380	0.0137557
860.458	0.0136778
860.536	0.0137898
860.614	0.0138284
860.693	0.0138194
860.771	0.0137780
860.849	0.0139316
860.927	0.0136517
861.005	0.0138396
861.083	0.0137057
861.161	0.0138283
861.239	0.0138811
861.318	0.0137730
861.396	0.0138683
861.474	0.0138412
861.552	0.0138622
861.630	0.0139719
861.708	0.0138509
861.786	0.0138238
861.864	0.0138870
861.943	0.0139411
862.021	0.0139211
862.099	0.0139779
862.177	0.0138624
862.255	0.0139403
862.333	0.0140423
862.411	0.0140648
862.489	0.0140549
862.568	0.0141696
862.646	0.0141461
862.724	0.0141906
862.802	0.0141454
862.880	0.0141466
862.958	0.0141998
863.036	0.0142293
863.114	0.0143179
863.193	0.0143584
863.271	0.0142757
863.349	0.0143389
863.427	0.0143012
863.505	0.0142159
863.583	0.0142224
863.661	0.0141303
863.739	0.0141825
863.818	0.0142298
863.896	0.0141718
863.974	0.0142096
864.052	0.0140602
864.130	0.0140107
864.208	0.0139962
864.286	0.0140649
864.364	0.0139162
864.443	0.0136989
864.521	0.0139178
864.599	0.0138026
864.677	0.0140365
864.755	0.0139839
864.833	0.0137508
864.911	0.0138867
864.989	0.0139755
865.068	0.0139943
865.146	0.0138879
865.224	0.0139486
865.302	0.0140810
865.380	0.0140736
865.458	0.0141041
865.536	0.0141583
865.614	0.0141351
865.693	0.0143079
865.771	0.0142670
865.849	0.0142432
865.927	0.0141478
866.005	0.0142037
866.083	0.0142404
866.161	0.0141209
866.239	0.0140402
866.318	0.0141470
866.396	0.0141827
866.474	0.0140625
866.552	0.0140617
866.630	0.0140530
866.708	0.0140022
866.786	0.0139356
866.864	0.0138824
866.943	0.0138882
867.021	0.0138744
867.099	0.0139387
867.177	0.0139016
867.255	0.0138972
867.333	0.0138482
867.411	0.0137592
867.489	0.0136823
867.568	0.0138525
867.646	0.0138580
867.724	0.0138219
867.802	0.0137889
867.880	0.0136620
867.958	0.0137617
868.036	0.0139574
868.114	0.0138674
868.193	0.0138123
868.271	0.0138217
868.349	0.0136559
868.427	0.0137741
868.505	0.0138556
868.583	0.0138177
868.661	0.0139168
868.739	0.0138743
868.818	0.0139476
868.896	0.0139600
868.974	0.0138994
869.052	0.0138056
869.130	0.0137389
869.208	0.0137983
869.286	0.0139051
869.364	0.0140787
869.443	0.0139424
869.521	0.0139867
869.599	0.0140193
869.677	0.0140398
869.755	0.0140678
869.833	0.0138721
869.911	0.0138834
869.989	0.0141019
870.068	0.0140653
870.146	0.0140072
870.224	0.0141321
870.302	0.0139646
870.380	0.0140000
870.458	0.0141065
870.536	0.0139989
870.614	0.0140424
870.693	0.0139105
870.771	0.0139855
870.849	0.0140634
870.927	0.0138647
871.005	0.0139043
871.083	0.0138970
871.161	0.0138405
871.239	0.0140180
871.318	0.0140309
871.396	0.0139790
871.474	0.0137377
871.552	0.0138812
871.630	0.0138531
871.708	0.0138451
871.786	0.0136068
871.864	0.0137645
871.943	0.0137701
872.021	0.0137908
872.099	0.0137658
872.177	0.0136256
872.255	0.0139340
872.333	0.0138579
872.411	0.0137643
872.489	0.0137679
872.568	0.0137247
872.646	0.0136533
872.724	0.0138134
872.802	0.0138446
872.880	0.0139641
872.958	0.0139511
873.036	0.0139433
873.114	0.0138998
873.193	0.0139507
873.271	0.0138763
873.349	0.0139521
873.427	0.0140394
873.505	0.0140556
873.583	0.0140065
873.661	0.0139798
873.739	0.0140036
873.818	0.0140453
873.896	0.0141652
873.974	0.0139642
874.052	0.0140082
874.130	0.0141727
874.208	0.0140165
874.286	0.0139193
874.364	0.0140218
874.443	0.0139710
874.521	0.0139538
874.599	0.0139935
874.677	0.0138754
874.755	0.0140053
874.833	0.0139217
874.911	0.0138461
874.989	0.0139246
875.068	0.0139425
875.146	0.0137701
875.224	0.0138792
875.302	0.0138488
875.380	0.0139205
875.458	0.0139490
875.536	0.0139227
875.614	0.0138244
875.693	0.0140259
875.771	0.0139706
875.849	0.0140269
875.927	0.0137911
876.005	0.0137279
876.083	0.0139870
876.161	0.0139178
876.239	0.0138797
876.318	0.0138469
876.396	0.0139653
876.474	0.0138636
876.552	0.0139610
876.630	0.0141106
876.708	0.0139117
876.786	0.0138620
876.864	0.0138699
876.943	0.0141014
877.021	0.0141190
877.099	0.0140650
877.177	0.0139067
877.255	0.0140625
877.333	0.0140508
877.411	0.0140836
877.489	0.0141512
877.568	0.0140456
877.646	0.0139717
877.724	0.0140948
877.802	0.0141438
877.880	0.0141014
877.958	0.0139823
878.036	0.0141667
878.114	0.0140568
878.193	0.0141477
878.271	0.0140438
878.349	0.0140757
878.427	0.0140231
878.505	0.0140119
878.583	0.0140461
878.661	0.0140802
878.739	0.0140640
878.818	0.0138674
878.896	0.0139735
878.974	0.0140160
879.052	0.0139042
879.130	0.0139742
879.208	0.0139480
879.286	0.0138732
879.364	0.0138286
879.443	0.0139732
879.521	0.0138821
879.599	0.0139407
879.677	0.0139536
879.755	0.0139161
879.833	0.0139404
879.911	0.0138534
879.989	0.0138242
880.068	0.0139356
880.146	0.0138956
880.224	0.0139401
880.302	0.0138914
880.380	0.0138828
880.458	0.0137978
880.536	0.0139132
880.614	0.0138674
880.693	0.0140343
880.771	0.0138005
880.849	0.0139528
880.927	0.0139413
881.005	0.0141962
881.083	0.0140049
881.161	0.0140323
881.239	0.0140073
881.318	0.0139870
881.396	0.0140450
881.474	0.0139767
881.552	0.0138858
881.630	0.0139096
881.708	0.0139583
881.786	0.0139140
881.864	0.0138971
881.943	0.0141543
882.021	0.0140704
882.099	0.0140368
882.177	0.0139395
882.255	0.0139520
882.333	0.0138570
882.411	0.0138840
882.489	0.0138345
882.568	0.0139217
882.646	0.0139039
882.724	0.0137446
882.802	0.0139751
882.880	0.0140275
882.958	0.0138200
883.036	0.0139422
883.114	0.0140041
883.193	0.0138680
883.271	0.0140006
883.349	0.0138111
883.427	0.0138963
883.505	0.0138554
883.583	0.0138454
883.661	0.0138540
883.739	0.0139341
883.818	0.0139575
883.896	0.0138257
883.974	0.0138686
884.052	0.0139272
884.130	0.0138322
884.208	0.0138922
884.286	0.0139830
884.364	0.0138827
884.443	0.0139118
884.521	0.0139684
884.599	0.0140025
884.677	0.0139182
884.755	0.0139690
884.833	0.0141022
884.911	0.0140884
884.989	0.0140652
885.068	0.0141230
885.146	0.0141786
885.224	0.0141202
885.302	0.0141380
885.380	0.0139286
885.458	0.0141869
885.536	0.0140662
885.614	0.0143008
885.693	0.0140486
885.771	0.0142900
885.849	0.0142458
885.927	0.0141740
886.005	0.0141530
886.083	0.0142590
886.161	0.0141578
886.239	0.0140327
886.318	0.0142052
886.396	0.0141212
886.474	0.0139889
886.552	0.0141670
886.630	0.0140563
886.708	0.0140727
886.786	0.0139078
886.864	0.0139335
886.943	0.0139858
887.021	0.0140545
887.099	0.0139301
887.177	0.0138549
887.255	0.0138746
887.333	0.0139604
887.411	0.0138281
887.489	0.0139575
887.568	0.0138408
887.646	0.0138544
887.724	0.0138078
887.802	0.0138498
887.880	0.0138887
887.958	0.0140862
888.036	0.0138979
888.114	0.0138871
888.193	0.0139335
888.271	0.0140061
888.349	0.0139289
888.427	0.0138762
888.505	0.0140395
888.583	0.0139153
888.661	0.0141709
888.739	0.0141022
888.818	0.0141056
888.896	0.0141291
888.974	0.0140683
889.052	0.0141025
889.130	0.0141325
889.208	0.0141389
889.286	0.0140721
889.364	0.0140150
889.443	0.0141476
889.521	0.0140889
889.599	0.0140901
889.677	0.0141000
889.755	0.0141147
889.833	0.0140418
889.911	0.0139712
889.989	0.0139681
890.068	0.0138684
890.146	0.0139175
890.224	0.0139102
890.302	0.0140021
890.380	0.0140281
890.458	0.0138650
890.536	0.0138254
890.614	0.0137922
890.693	0.0138528
890.771	0.0139807
890.849	0.0140132
890.927	0.0140765
891.005	0.0139445
891.083	0.0140240
891.161	0.0140450
891.239	0.0139433
891.318	0.0141256
891.396	0.0141559
891.474	0.0139950
891.552	0.0141215
891.630	0.0139847
891.708	0.0140186
891.786	0.0140623
891.864	0.0142117
891.943	0.0141988
892.021	0.0141163
892.099	0.0141144
892.177	0.0140898
892.255	0.0141314
892.333	0.0141525
892.411	0.0141518
892.489	0.0140923
892.568	0.0141083
892.646	0.0140809
892.724	0.0140131
892.802	0.0140924
892.880	0.0140777
892.958	0.0139598
893.036	0.0141319
893.114	0.0138802
893.193	0.0138341
893.271	0.0138125
893.349	0.0138823
893.427	0.0138913
893.505	0.0139224
893.583	0.0137936
893.661	0.0136575
893.739	0.0137846
893.818	0.0137290
893.896	0.0135860
893.974	0.0136102
894.052	0.0136171
894.130	0.0134972
894.208	0.0135485
894.286	0.0135241
894.364	0.0135497
894.443	0.0136259
894.521	0.0135026
894.599	0.0135851
894.677	0.0134521
894.755	0.0135384
894.833	0.0135254
894.911	0.0135624
894.989	0.0134915
895.068	0.0136377
895.146	0.0136743
895.224	0.0136309
895.302	0.0135023
895.380	0.0135728
895.458	0.0136595
895.536	0.0136111
895.614	0.0136672
895.693	0.0137569
895.771	0.0137126
895.849	0.0137186
895.927	0.0138301
896.005	0.0138271
896.083	0.0136652
896.161	0.0138425
896.239	0.0138986
896.318	0.0137889
896.396	0.0136589
896.474	0.0138498
896.552	0.0139040
896.630	0.0138649
896.708	0.0138977
896.786	0.0140230
896.864	0.0139977
896.943	0.0139175
897.021	0.0139200
897.099	0.0140740
897.177	0.0138880
897.255	0.0140957
897.333	0.0139845
897.411	0.0140559
897.489	0.0140022
897.568	0.0140158
897.646	0.0140334
897.724	0.0140353
897.802	0.0140039
897.880	0.0140201
897.958	0.0141885
898.036	0.0141358
898.114	0.0141283
898.193	0.0141684
898.271	0.0143047
898.349	0.0140380
898.427	0.0141175
898.505	0.0141597
898.583	0.0140971
898.661	0.0139875
898.739	0.0141975
898.818	0.0139703
898.896	0.0138660
898.974	0.0139401
899.052	0.0139283
899.130	0.0140970
899.208	0.0139423
899.286	0.0139489
899.364	0.0138731
899.443	0.0139613
899.521	0.0138453
899.599	0.0137785
899.677	0.0136367
899.755	0.0137517
899.833	0.0137299
899.911	0.0136496
899.989	0.0135960
900.068	0.0136638
900.146	0.0135398
900.224	0.0135190
900.302	0.0136536
900.380	0.0135709
900.458	0.0135953
900.536	0.0136045
900.614	0.0133998
900.693	0.0134645
900.771	0.0137438
900.849	0.0137104
900.927	0.0137124
901.005	0.0136439
901.083	0.0136885
901.161	0.0137656
901.239	0.0137059
901.318	0.0136685
901.396	0.0136846
901.474	0.0138198
901.552	0.0139093
901.630	0.0138675
901.708	0.0138733
901.786	0.0140042
901.864	0.0139776
901.943	0.0140232
902.021	0.0139539
902.099	0.0140583
902.177	0.0139611
902.255	0.0141153
902.333	0.0140143
902.411	0.0139203
902.489	0.0140726
902.568	0.0140591
902.646	0.0139030
902.724	0.0139912
902.802	0.0138967
902.880	0.0139068
902.958	0.0139342
903.036	0.0138818
903.114	0.0140120
903.193	0.0139050
903.271	0.0138376
903.349	0.0139622
903.427	0.0139503
903.505	0.0140211
903.583	0.0139724
903.661	0.0140297
903.739	0.0140061
903.818	0.0139706
903.896	0.0138969
903.974	0.0140172
904.052	0.0138502
904.130	0.0139724
904.208	0.0139111
904.286	0.0139710
904.364	0.0138580
904.443	0.0138738
904.521	0.0139336
904.599	0.0138599
904.677	0.0138110
904.755	0.0138525
904.833	0.0139655
904.911	0.0138703
904.989	0.0137700
905.068	0.0138939
905.146	0.0139624
905.224	0.0138135
905.302	0.0138821
905.380	0.0138622
905.458	0.0139428
905.536	0.0139753
905.614	0.0137332
905.693	0.0139212
905.771	0.0138095
905.849	0.0138554
905.927	0.0138631
906.005	0.0137769
906.083	0.0137860
906.161	0.0139288
906.239	0.0138365
906.318	0.0137183
906.396	0.0138481
906.474	0.0137714
906.552	0.0138943
906.630	0.0140363
906.708	0.0138701
906.786	0.0138823
906.864	0.0139880
906.943	0.0140078
907.021	0.0141387
907.099	0.0141457
907.177	0.0141093
907.255	0.0141857
907.333	0.0141913
907.411	0.0141604
907.489	0.0141396
907.568	0.0140974
907.646	0.0142245
907.724	0.0141583
907.802	0.0139935
907.880	0.0140530
907.958	0.0141227
908.036	0.0142758
908.114	0.0140689
908.193	0.0141606
908.271	0.0143502
908.349	0.0141467
908.427	0.0139758
908.505	0.0141443
908.583	0.0141698
908.661	0.0139357
908.739	0.0139479
908.818	0.0140639
908.896	0.0140089
908.974	0.0139830
909.052	0.0140163
909.130	0.0141074
909.208	0.0140125
909.286	0.0140891
909.364	0.0139252
909.443	0.0140778
909.521	0.0138862
909.599	0.0139167
909.677	0.0139378
909.755	0.0137963
909.833	0.0138824
909.911	0.0140158
909.989	0.0139156
910.068	0.0139745
910.146	0.0140679
910.224	0.0141197
910.302	0.0139105
910.380	0.0140682
910.458	0.0140487
910.536	0.0138461
910.614	0.0138448
910.693	0.0139698
910.771	0.0140400
910.849	0.0138777
910.927	0.0138280
911.005	0.0138865
911.083	0.0139606
911.161	0.0140061
911.239	0.0139841
911.318	0.0137933
911.396	0.0139585
911.474	0.0138512
911.552	0.0138647
911.630	0.0137762
911.708	0.0139273
911.786	0.0138035
911.864	0.0138152
911.943	0.0139135
912.021	0.0139835
912.099	0.0139062
912.177	0.0138428
912.255	0.0138432
912.333	0.0138934
912.411	0.0139207
912.489	0.0137788
912.568	0.0139468
912.646	0.0139117
912.724	0.0137370
912.802	0.0138056
912.880	0.0138131
912.958	0.0137251
913.036	0.0136948
913.114	0.0137199
913.193	0.0137488
913.271	0.0137766
913.349	0.0137379
913.427	0.0136864
913.505	0.0139400
913.583	0.0137776
913.661	0.0138500
913.739	0.0137812
913.818	0.0139674
913.896	0.0138712
913.974	0.0137369
914.052	0.0140295
914.130	0.0139641
914.208	0.0138245
914.286	0.0139040
914.364	0.0139297
914.443	0.0139516
914.521	0.0140659
914.599	0.0139303
914.677	0.0141539
914.755	0.0140070
914.833	0.0139362
914.911	0.0139922
914.989	0.0140323
915.068	0.0139234
915.146	0.0139235
915.224	0.0140998
915.302	0.0140393
915.380	0.0140281
915.458	0.0139755
915.536	0.0139366
915.614	0.0140427
915.693	0.0140053
915.771	0.0141145
915.849	0.0139556
915.927	0.0139635
916.005	0.0139436
916.083	0.0140646
916.161	0.0139463
916.239	0.0140553
916.318	0.0140237
916.396	0.0138558
916.474	0.0139104
916.552	0.0140031
916.630	0.0140485
916.708	0.0139120
916.786	0.0139895
916.864	0.0140166
916.943	0.0140585
917.021	0.0139536
917.099	0.0139826
917.177	0.0138588
917.255	0.0140118
917.333	0.0140015
917.411	0.0139043
917.489	0.0140095
917.568	0.0140458
917.646	0.0139980
917.724	0.0141597
917.802	0.0139206
917.880	0.0140141
917.958	0.0141522
918.036	0.0139897
918.114	0.0141930
918.193	0.0140321
918.271	0.0141302
918.349	0.0139401
918.427	0.0139775
918.505	0.0139487
918.583	0.0141443
918.661	0.0139484
918.739	0.0139184
918.818	0.0140088
918.896	0.0140259
918.974	0.0138424
919.052	0.0139322
919.130	0.0138701
919.208	0.0139856
919.286	0.0138328
919.364	0.0139690
919.443	0.0139307
919.521	0.0139351
919.599	0.0138905
919.677	0.0139492
919.755	0.0138149
919.833	0.0140242
919.911	0.0140047
919.989	0.0139097
920.068	0.0139687
920.146	0.0138541
920.224	0.0139694
920.302	0.0139294
920.380	0.0139957
920.458	0.0140993
920.536	0.0138218
920.614	0.0139531
920.693	0.0138625
920.771	0.0138496
920.849	0.0138981
920.927	0.0139284
921.005	0.0139745
921.083	0.0138902
921.161	0.0138296
921.239	0.0139035
921.318	0.0140682
921.396	0.0141235
921.474	0.0140324
921.552	0.0140537
921.630	0.0139542
921.708	0.0139109
921.786	0.0139524
921.864	0.0139711
921.943	0.0139291
922.021	0.0140426
922.099	0.0137990
922.177	0.0138551
922.255	0.0138277
922.333	0.0139447
922.411	0.0138777
922.489	0.0137307
922.568	0.0137468
922.646	0.0136660
922.724	0.0137827
922.802	0.0138147
922.880	0.0138078
922.958	0.0137753
923.036	0.0137756
923.114	0.0136677
923.193	0.0137469
923.271	0.0137550
923.349	0.0136628
923.427	0.0137595
923.505	0.0137524
923.583	0.0137354
923.661	0.0137567
923.739	0.0137279
923.818	0.0137145
923.896	0.0138248
923.974	0.0137523
924.052	0.0138012
924.130	0.0138093
924.208	0.0137900
924.286	0.0139886
924.364	0.0137868
924.443	0.0136711
924.521	0.0137519
924.599	0.0136099
924.677	0.0137399
924.755	0.0138528
924.833	0.0137553
924.911	0.0137169
924.989	0.0137689
925.068	0.0138301
925.146	0.0138548
925.224	0.0138768
925.302	0.0137756
925.380	0.0138305
925.458	0.0139543
925.536	0.0138755
925.614	0.0139200
925.693	0.0137289
925.771	0.0138261
925.849	0.0139075
925.927	0.0139486
926.005	0.0139519
926.083	0.0138583
926.161	0.0139531
926.239	0.0138636
926.318	0.0140125
926.396	0.0140230
926.474	0.0138600
926.552	0.0138239
926.630	0.0141003
926.708	0.0140586
926.786	0.0140680
926.864	0.0142062
926.943	0.0141218
927.021	0.0140486
927.099	0.0139444
927.177	0.0140171
927.255	0.0141304
927.333	0.0140853
927.411	0.0140999
927.489	0.0140641
927.568	0.0139104
927.646	0.0139714
927.724	0.0141042
927.802	0.0140077
927.880	0.0140095
927.958	0.0140096
928.036	0.0140864
928.114	0.0140173
928.193	0.0140491
928.271	0.0139664
928.349	0.0138560
928.427	0.0139091
928.505	0.0138400
928.583	0.0139798
928.661	0.0137922
928.739	0.0138061
928.818	0.0138813
928.896	0.0138435
928.974	0.0138269
929.052	0.0137943
929.130	0.0138096
929.208	0.0137657
929.286	0.0137721
929.364	0.0137801
929.443	0.0139560
929.521	0.0139570
929.599	0.0137467
929.677	0.0136457
929.755	0.0137801
929.833	0.0138358
929.911	0.0137678
929.989	0.0138482
930.068	0.0138873
930.146	0.0137540
930.224	0.0138532
930.302	0.0139946
930.380	0.0139153
930.458	0.0137968
930.536	0.0139425
930.614	0.0137733
930.693	0.0138893
930.771	0.0138083
930.849	0.0138621
930.927	0.0139223
931.005	0.0137930
931.083	0.0140113
931.161	0.0139320
931.239	0.0138345
931.318	0.0139293
931.396	0.0139037
931.474	0.0138695
931.552	0.0138625
931.630	0.0139599
931.708	0.0139426
931.786	0.0140469
931.864	0.0138756
931.943	0.0138789
932.021	0.0139929
932.099	0.0140637
932.177	0.0139501
932.255	0.0140057
932.333	0.0139554
932.411	0.0139728
932.489	0.0139243
932.568	0.0140290
932.646	0.0140501
932.724	0.0139315
932.802	0.0139816
932.880	0.0140768
932.958	0.0140160
933.036	0.0139149
933.114	0.0141137
933.193	0.0140318
933.271	0.0141231
933.349	0.0140308
933.427	0.0140655
933.505	0.0140168
933.583	0.0140939
933.661	0.0139028
933.739	0.0139465
933.818	0.0139478
933.896	0.0139249
933.974	0.0139276
934.052	0.0139708
934.130	0.0139055
934.208	0.0138438
934.286	0.0138303
934.364	0.0138368
934.443	0.0138554
934.521	0.0137631
934.599	0.0137981
934.677	0.0139368
934.755	0.0137820
934.833	0.0138593
934.911	0.0137153
934.989	0.0137387
935.068	0.0137360
935.146	0.0138225
935.224	0.0138548
935.302	0.0138352
935.380	0.0137994
935.458	0.0137337
935.536	0.0138781
935.614	0.0137363
935.693	0.0137281
935.771	0.0136861
935.849	0.0137150
935.927	0.0137389
936.005	0.0139953
936.083	0.0136915
936.161	0.0136871
936.239	0.0137627
936.318	0.0139238
936.396	0.0138208
936.474	0.0138105
936.552	0.0138406
936.630	0.0137998
936.708	0.0137587
936.786	0.0138300
936.864	0.0138185
936.943	0.0138078
937.021	0.0139501
937.099	0.0139822
937.177	0.0139193
937.255	0.0139145
937.333	0.0140273
937.411	0.0139608
937.489	0.0140561
937.568	0.0140644
937.646	0.0141896
937.724	0.0139950
937.802	0.0140162
937.880	0.0141019
937.958	0.0141271
938.036	0.0141828
938.114	0.0141270
938.193	0.0141865
938.271	0.0141664
938.349	0.0142670
938.427	0.0141486
938.505	0.0141383
938.583	0.0142091
938.661	0.0142309
938.739	0.0142605
938.818	0.0140765
938.896	0.0141561
938.974	0.0142240
939.052	0.0141774
939.130	0.0140868
939.208	0.0141329
939.286	0.0143880
939.364	0.0141734
939.443	0.0139631
939.521	0.0139732
939.599	0.0140587
939.677	0.0141730
939.755	0.0139951
939.833	0.0139273
939.911	0.0139532
939.989	0.0138520
940.068	0.0139338
940.146	0.0140247
940.224	0.0138899
940.302	0.0139465
940.380	0.0139448
940.458	0.0138084
940.536	0.0139365
940.614	0.0138725
940.693	0.0139783
940.771	0.0139591
940.849	0.0138763
940.927	0.0139930
941.005	0.0138687
941.083	0.0140189
941.161	0.0139853
941.239	0.0140590
941.318	0.0139920
941.396	0.0140098
941.474	0.0141199
941.552	0.0140441
941.630	0.0139471
941.708	0.0140021
941.786	0.0140930
941.864	0.0140444
941.943	0.0140859
942.021	0.0141916
942.099	0.0141011
942.177	0.0141548
942.255	0.0140964
942.333	0.0141776
942.411	0.0141016
942.489	0.0141376
942.568	0.0140981
942.646	0.0140955
942.724	0.0139772
942.802	0.0141034
942.880	0.0141883
942.958	0.0140522
943.036	0.0140485
943.114	0.0141355
943.193	0.0141187
943.271	0.0140359
943.349	0.0140186
943.427	0.0140474
943.505	0.0141203
943.583	0.0140226
943.661	0.0140504
943.739	0.0139432
943.818	0.0141181
943.896	0.0138893
943.974	0.0138895
944.052	0.0138631
944.130	0.0138330
944.208	0.0139259
944.286	0.0139603
944.364	0.0139039
944.443	0.0138525
944.521	0.0139544
944.599	0.0139523
944.677	0.0138458
944.755	0.0137487
944.833	0.0138744
944.911	0.0140083
944.989	0.0139359
945.068	0.0138699
945.146	0.0138326
945.224	0.0137854
945.302	0.0138969
945.380	0.0138936
945.458	0.0138948
945.536	0.0139642
945.614	0.0139151
945.693	0.0141048
945.771	0.0138122
945.849	0.0138693
945.927	0.0138621
946.005	0.0140498
946.083	0.0138497
946.161	0.0138959
946.239	0.0140690
946.318	0.0138595
946.396	0.0138494
946.474	0.0138641
946.552	0.0140084
946.630	0.0139182
946.708	0.0138333
946.786	0.0140130
946.864	0.0140202
946.943	0.0139172
947.021	0.0138295
947.099	0.0139450
947.177	0.0140587
947.255	0.0140447
947.333	0.0139590
947.411	0.0140404
947.489	0.0140968
947.568	0.0139480
947.646	0.0138605
947.724	0.0140105
947.802	0.0139876
947.880	0.0139431
947.958	0.0139445
948.036	0.0138186
948.114	0.0139986
948.193	0.0140149
948.271	0.0138893
948.349	0.0139787
948.427	0.0139910
948.505	0.0138232
948.583	0.0137276
948.661	0.0138411
948.739	0.0140524
948.818	0.0137560
948.896	0.0137836
948.974	0.0138589
949.052	0.0137350
949.130	0.0139497
949.208	0.0137217
949.286	0.0136684
949.364	0.0137855
949.443	0.0138512
949.521	0.0137949
949.599	0.0137351
949.677	0.0137602
949.755	0.0137470
949.833	0.0137720
949.911	0.0138252
949.989	0.0138326
950.068	0.0139275
950.146	0.0138052
950.224	0.0139160
950.302	0.0138636
950.380	0.0139465
950.458	0.0139839
950.536	0.0138383
950.614	0.0137423
950.693	0.0137589
950.771	0.0139521
950.849	0.0139130
950.927	0.0139948
951.005	0.0139525
951.083	0.0137816
951.161	0.0138640
951.239	0.0138272
951.318	0.0138842
951.396	0.0139728
951.474	0.0138921
951.552	0.0138288
951.630	0.0138792
951.708	0.0139000
951.786	0.0138567
951.864	0.0139253
951.943	0.0138739
952.021	0.0139301
952.099	0.0139156
952.177	0.0137936
952.255	0.0139123
952.333	0.0137157
952.411	0.0138298
952.489	0.0138830
952.568	0.0138108
952.646	0.0137848
952.724	0.0138515
952.802	0.0137767
952.880	0.0138036
952.958	0.0138079
953.036	0.0138795
953.114	0.0138077
953.193	0.0138108
953.271	0.0137516
953.349	0.0137463
953.427	0.0137944
953.505	0.0138007
953.583	0.0138591
953.661	0.0138467
953.739	0.0138059
953.818	0.0138749
953.896	0.0138463
953.974	0.0137865
954.052	0.0138980
954.130	0.0136984
954.208	0.0139358
954.286	0.0138652
954.364	0.0139333
954.443	0.0139353
954.521	0.0138525
954.599	0.0139474
954.677	0.0137563
954.755	0.0139906
954.833	0.0138857
954.911	0.0139864
954.989	0.0140163
955.068	0.0139266
955.146	0.0138062
955.224	0.0140187
955.302	0.0140071
955.380	0.0139258
955.458	0.0139223
955.536	0.0140375
955.614	0.0139603
955.693	0.0139843
955.771	0.0141209
955.849	0.0140134
955.927	0.0140089
956.005	0.0137609
956.083	0.0138789
956.161	0.0140031
956.239	0.0138657
956.318	0.0138691
956.396	0.0138682
956.474	0.0137733
956.552	0.0138870
956.630	0.0139149
956.708	0.0137440
956.786	0.0138374
956.864	0.0137483
956.943	0.0138515
957.021	0.0136926
957.099	0.0137871
957.177	0.0137702
957.255	0.0138111
957.333	0.0137522
957.411	0.0136984
957.489	0.0138397
957.568	0.0137743
957.646	0.0138271
957.724	0.0136105
957.802	0.0136818
957.880	0.0137499
957.958	0.0138068
958.036	0.0138014
958.114	0.0137667
958.193	0.0137585
958.271	0.0138963
958.349	0.0138918
958.427	0.0137345
958.505	0.0138281
958.583	0.0139413
958.661	0.0138384
958.739	0.0139767
958.818	0.0140175
958.896	0.0139567
958.974	0.0139871
959.052	0.0140012
959.130	0.0139272
959.208	0.0139519
959.286	0.0139315
959.364	0.0139363
959.443	0.0139143
959.521	0.0137887
959.599	0.0139011
959.677	0.0138903
959.755	0.0139706
959.833	0.0139359
959.911	0.0138426
