05/07/2022	17:44:53	Ver.	4.1	UNKNOWN
Optical Delay	639.989416	Delta X		0.078125	Sweeps	1	Scan Rate	0/0
Coordinates	Axis 1	NaN	Axis 2	NaN	Axis 3	NaN	Axis 4	NaN	Axis 5	NaN	Axis 6	0.000000
TX Power	0.000000	RX Power	0.000000

639.989	0.0138982
640.068	0.0138729
640.146	0.0139250
640.224	0.0139867
640.302	0.0140104
640.380	0.0139388
640.458	0.0138529
640.536	0.0138272
640.614	0.0139685
640.693	0.0140238
640.771	0.0139530
640.849	0.0138616
640.927	0.0138519
641.005	0.0138419
641.083	0.0138604
641.161	0.0138969
641.239	0.0139325
641.318	0.0139058
641.396	0.0138384
641.474	0.0139381
641.552	0.0139109
641.630	0.0138277
641.708	0.0138274
641.786	0.0137843
641.864	0.0138051
641.943	0.0139442
642.021	0.0139178
642.099	0.0137932
642.177	0.0137614
642.255	0.0137800
642.333	0.0139672
642.411	0.0138477
642.489	0.0139481
642.568	0.0139725
642.646	0.0140340
642.724	0.0140296
642.802	0.0139516
642.880	0.0140266
642.958	0.0141006
643.036	0.0139872
643.114	0.0140450
643.193	0.0141456
643.271	0.0140760
643.349	0.0140435
643.427	0.0141499
643.505	0.0140264
643.583	0.0138897
643.661	0.0140707
643.739	0.0140145
643.818	0.0139580
643.896	0.0138490
643.974	0.0138727
644.052	0.0138769
644.130	0.0138479
644.208	0.0136415
644.286	0.0136088
644.364	0.0137697
644.443	0.0137688
644.521	0.0135645
644.599	0.0137079
644.677	0.0137715
644.755	0.0136108
644.833	0.0136749
644.911	0.0138477
644.989	0.0137827
645.068	0.0137984
645.146	0.0137994
645.224	0.0139482
645.302	0.0138100
645.380	0.0140141
645.458	0.0140621
645.536	0.0141084
645.614	0.0141132
645.693	0.0140853
645.771	0.0142055
645.849	0.0143033
645.927	0.0143181
646.005	0.0144025
646.083	0.0144064
646.161	0.0143549
646.239	0.0143053
646.318	0.0143375
646.396	0.0142771
646.474	0.0143055
646.552	0.0141448
646.630	0.0140630
646.708	0.0140734
646.786	0.0139388
646.864	0.0138059
646.943	0.0136803
647.021	0.0136501
647.099	0.0137341
647.177	0.0135411
647.255	0.0134641
647.333	0.0134740
647.411	0.0134991
647.489	0.0134085
647.568	0.0135247
647.646	0.0133186
647.724	0.0133517
647.802	0.0133315
647.880	0.0133720
647.958	0.0134131
648.036	0.0133507
648.114	0.0132520
648.193	0.0134280
648.271	0.0135310
648.349	0.0134633
648.427	0.0135085
648.505	0.0136594
648.583	0.0135490
648.661	0.0136096
648.739	0.0137561
648.818	0.0138634
648.896	0.0138728
648.974	0.0138994
649.052	0.0140943
649.130	0.0140308
649.208	0.0141074
649.286	0.0140891
649.364	0.0142016
649.443	0.0142062
649.521	0.0142617
649.599	0.0142656
649.677	0.0142928
649.755	0.0143550
649.833	0.0144446
649.911	0.0144479
649.989	0.0144878
650.068	0.0143508
650.146	0.0144440
650.224	0.0143964
650.302	0.0143024
650.380	0.0142587
650.458	0.0141270
650.536	0.0140309
650.614	0.0140632
650.693	0.0139050
650.771	0.0139312
650.849	0.0137281
650.927	0.0137530
651.005	0.0135700
651.083	0.0135181
651.161	0.0134644
651.239	0.0133913
651.318	0.0132773
651.396	0.0130737
651.474	0.0130775
651.552	0.0129834
651.630	0.0130370
651.708	0.0127138
651.786	0.0127589
651.864	0.0128702
651.943	0.0129539
652.021	0.0128870
652.099	0.0127325
652.177	0.0129337
652.255	0.0129734
652.333	0.0129834
652.411	0.0131036
652.489	0.0133662
652.568	0.0134302
652.646	0.0135090
652.724	0.0138540
652.802	0.0140440
652.880	0.0141631
652.958	0.0141995
653.036	0.0146323
653.114	0.0147365
653.193	0.0148800
653.271	0.0151140
653.349	0.0151305
653.427	0.0153702
653.505	0.0155229
653.583	0.0155952
653.661	0.0155349
653.739	0.0155602
653.818	0.0156171
653.896	0.0155692
653.974	0.0155030
654.052	0.0154860
654.130	0.0154328
654.208	0.0151528
654.286	0.0149894
654.364	0.0149011
654.443	0.0147649
654.521	0.0144866
654.599	0.0142352
654.677	0.0139832
654.755	0.0139058
654.833	0.0136855
654.911	0.0133245
654.989	0.0131011
655.068	0.0129074
655.146	0.0126840
655.224	0.0125941
655.302	0.0124583
655.380	0.0123032
655.458	0.0121776
655.536	0.0121146
655.614	0.0120238
655.693	0.0119916
655.771	0.0119538
655.849	0.0119567
655.927	0.0119965
656.005	0.0122742
656.083	0.0122404
656.161	0.0122112
656.239	0.0124329
656.318	0.0126847
656.396	0.0127826
656.474	0.0130826
656.552	0.0133067
656.630	0.0134963
656.708	0.0137703
656.786	0.0138263
656.864	0.0140382
656.943	0.0144595
657.021	0.0147279
657.099	0.0149334
657.177	0.0151656
657.255	0.0154160
657.333	0.0156289
657.411	0.0157842
657.489	0.0160811
657.568	0.0161664
657.646	0.0161758
657.724	0.0165224
657.802	0.0163683
657.880	0.0164667
657.958	0.0163029
658.036	0.0162267
658.114	0.0162757
658.193	0.0162032
658.271	0.0158976
658.349	0.0158787
658.427	0.0158640
658.505	0.0153556
658.583	0.0151744
658.661	0.0149872
658.739	0.0146189
658.818	0.0142668
658.896	0.0139223
658.974	0.0137198
659.052	0.0134434
659.130	0.0130769
659.208	0.0125936
659.286	0.0124374
659.364	0.0118835
659.443	0.0117299
659.521	0.0114320
659.599	0.0113063
659.677	0.0110365
659.755	0.0109277
659.833	0.0108563
659.911	0.0107637
659.989	0.0108195
660.068	0.0106923
660.146	0.0110036
660.224	0.0111160
660.302	0.0111268
660.380	0.0113779
660.458	0.0117150
660.536	0.0117928
660.614	0.0121638
660.693	0.0124963
660.771	0.0128942
660.849	0.0132565
660.927	0.0135986
661.005	0.0140131
661.083	0.0143938
661.161	0.0146284
661.239	0.0150373
661.318	0.0154063
661.396	0.0157025
661.474	0.0161227
661.552	0.0163982
661.630	0.0165756
661.708	0.0167488
661.786	0.0172359
661.864	0.0172176
661.943	0.0173852
662.021	0.0173705
662.099	0.0173976
662.177	0.0173793
662.255	0.0171672
662.333	0.0171633
662.411	0.0171437
662.489	0.0168361
662.568	0.0165621
662.646	0.0162845
662.724	0.0160155
662.802	0.0155855
662.880	0.0154626
662.958	0.0149403
663.036	0.0146475
663.114	0.0142632
663.193	0.0138723
663.271	0.0134918
663.349	0.0131007
663.427	0.0125912
663.505	0.0122414
663.583	0.0118487
663.661	0.0114479
663.739	0.0111497
663.818	0.0110806
663.896	0.0106254
663.974	0.0104639
664.052	0.0102518
664.130	0.0102275
664.208	0.0100987
664.286	0.0100610
664.364	0.0102858
664.443	0.0101115
664.521	0.0104238
664.599	0.0107761
664.677	0.0109084
664.755	0.0111889
664.833	0.0114209
664.911	0.0117871
664.989	0.0123254
665.068	0.0126995
665.146	0.0131426
665.224	0.0135384
665.302	0.0139414
665.380	0.0144566
665.458	0.0148245
665.536	0.0150825
665.614	0.0155614
665.693	0.0159232
665.771	0.0162459
665.849	0.0165886
665.927	0.0167944
666.005	0.0169682
666.083	0.0172050
666.161	0.0173088
666.239	0.0174096
666.318	0.0173045
666.396	0.0173310
666.474	0.0174037
666.552	0.0171301
666.630	0.0169804
666.708	0.0166693
666.786	0.0164480
666.864	0.0161084
666.943	0.0158698
667.021	0.0155694
667.099	0.0153706
667.177	0.0150380
667.255	0.0145850
667.333	0.0142324
667.411	0.0140282
667.489	0.0134889
667.568	0.0133083
667.646	0.0130705
667.724	0.0128409
667.802	0.0124944
667.880	0.0123419
667.958	0.0121814
668.036	0.0118514
668.114	0.0116932
668.193	0.0115341
668.271	0.0115504
668.349	0.0113329
668.427	0.0113877
668.505	0.0114014
668.583	0.0112177
668.661	0.0112725
668.739	0.0115142
668.818	0.0113824
668.896	0.0114718
668.974	0.0116921
669.052	0.0118632
669.130	0.0119952
669.208	0.0119614
669.286	0.0123907
669.364	0.0125847
669.443	0.0127940
669.521	0.0129804
669.599	0.0133384
669.677	0.0137383
669.755	0.0138107
669.833	0.0140946
669.911	0.0145279
669.989	0.0148095
670.068	0.0150945
670.146	0.0152376
670.224	0.0155029
670.302	0.0156979
670.380	0.0158854
670.458	0.0159212
670.536	0.0160818
670.614	0.0161109
670.693	0.0160631
670.771	0.0161912
670.849	0.0160069
670.927	0.0160493
671.005	0.0159696
671.083	0.0157104
671.161	0.0155684
671.239	0.0154124
671.318	0.0151736
671.396	0.0149406
671.474	0.0148994
671.552	0.0144804
671.630	0.0142529
671.708	0.0140818
671.786	0.0137672
671.864	0.0135345
671.943	0.0135303
672.021	0.0132685
672.099	0.0131824
672.177	0.0129792
672.255	0.0129872
672.333	0.0129403
672.411	0.0128928
672.489	0.0129884
672.568	0.0129476
672.646	0.0130822
672.724	0.0131791
672.802	0.0132497
672.880	0.0134062
672.958	0.0135610
673.036	0.0136026
673.114	0.0139199
673.193	0.0138287
673.271	0.0139151
673.349	0.0141261
673.427	0.0142440
673.505	0.0142060
673.583	0.0142825
673.661	0.0140318
673.739	0.0142563
673.818	0.0142941
673.896	0.0140513
673.974	0.0140608
674.052	0.0139340
674.130	0.0138656
674.208	0.0137798
674.286	0.0137726
674.364	0.0136155
674.443	0.0135074
674.521	0.0133324
674.599	0.0134383
674.677	0.0133395
674.755	0.0133935
674.833	0.0132687
674.911	0.0131545
674.989	0.0131886
675.068	0.0132347
675.146	0.0131761
675.224	0.0132549
675.302	0.0133138
675.380	0.0133894
675.458	0.0134194
675.536	0.0134454
675.614	0.0135373
675.693	0.0136339
675.771	0.0138632
675.849	0.0138297
675.927	0.0140620
676.005	0.0140449
676.083	0.0143147
676.161	0.0143808
676.239	0.0144154
676.318	0.0145244
676.396	0.0145462
676.474	0.0146529
676.552	0.0147711
676.630	0.0148243
676.708	0.0149181
676.786	0.0148325
676.864	0.0148605
676.943	0.0146974
677.021	0.0147240
677.099	0.0147089
677.177	0.0146487
677.255	0.0147402
677.333	0.0146943
677.411	0.0148164
677.489	0.0146325
677.568	0.0145438
677.646	0.0145101
677.724	0.0145950
677.802	0.0145100
677.880	0.0144598
677.958	0.0144615
678.036	0.0143861
678.114	0.0143954
678.193	0.0142088
678.271	0.0143314
678.349	0.0142299
678.427	0.0140733
678.505	0.0139682
678.583	0.0142085
678.661	0.0141851
678.739	0.0139782
678.818	0.0139006
678.896	0.0137669
678.974	0.0138325
679.052	0.0137902
679.130	0.0136365
679.208	0.0134673
679.286	0.0134159
679.364	0.0132180
679.443	0.0131105
679.521	0.0130310
679.599	0.0128683
679.677	0.0128182
679.755	0.0125869
679.833	0.0125804
679.911	0.0125182
679.989	0.0123934
680.068	0.0121774
680.146	0.0122590
680.224	0.0124173
680.302	0.0123194
680.380	0.0123317
680.458	0.0124834
680.536	0.0125488
680.614	0.0126445
680.693	0.0128224
680.771	0.0128414
680.849	0.0132344
680.927	0.0134665
681.005	0.0135794
681.083	0.0136143
681.161	0.0139732
681.239	0.0142274
681.318	0.0143716
681.396	0.0145255
681.474	0.0147743
681.552	0.0149377
681.630	0.0150518
681.708	0.0151907
681.786	0.0154369
681.864	0.0154542
681.943	0.0155542
682.021	0.0156335
682.099	0.0157795
682.177	0.0156355
682.255	0.0156586
682.333	0.0157571
682.411	0.0154725
682.489	0.0154503
682.568	0.0154070
682.646	0.0154531
682.724	0.0152719
682.802	0.0150887
682.880	0.0149380
682.958	0.0147169
683.036	0.0144981
683.114	0.0145007
683.193	0.0141821
683.271	0.0139588
683.349	0.0138270
683.427	0.0136456
683.505	0.0134898
683.583	0.0133239
683.661	0.0133277
683.739	0.0131585
683.818	0.0133422
683.896	0.0131679
683.974	0.0130416
684.052	0.0130818
684.130	0.0131231
684.208	0.0131595
684.286	0.0132818
684.364	0.0133051
684.443	0.0132669
684.521	0.0134191
684.599	0.0134591
684.677	0.0133758
684.755	0.0134372
684.833	0.0134326
684.911	0.0135139
684.989	0.0136192
685.068	0.0135146
685.146	0.0134464
685.224	0.0134700
685.302	0.0133369
685.380	0.0134332
685.458	0.0134900
685.536	0.0134096
685.614	0.0132710
685.693	0.0131799
685.771	0.0132162
685.849	0.0132563
685.927	0.0132809
686.005	0.0132023
686.083	0.0133029
686.161	0.0134431
686.239	0.0133380
686.318	0.0133419
686.396	0.0135067
686.474	0.0136296
686.552	0.0136877
686.630	0.0139218
686.708	0.0139635
686.786	0.0140022
686.864	0.0141611
686.943	0.0143581
687.021	0.0144524
687.099	0.0145026
687.177	0.0145042
687.255	0.0147471
687.333	0.0149470
687.411	0.0148966
687.489	0.0150035
687.568	0.0150127
687.646	0.0151619
687.724	0.0151778
687.802	0.0151965
687.880	0.0151206
687.958	0.0151176
688.036	0.0152779
688.114	0.0151894
688.193	0.0151772
688.271	0.0150359
688.349	0.0149472
688.427	0.0148647
688.505	0.0146248
688.583	0.0146550
688.661	0.0145074
688.739	0.0144201
688.818	0.0141967
688.896	0.0140005
688.974	0.0139252
689.052	0.0140955
689.130	0.0138615
689.208	0.0137443
689.286	0.0136178
689.364	0.0136093
689.443	0.0135159
689.521	0.0134719
689.599	0.0134566
689.677	0.0134874
689.755	0.0133616
689.833	0.0133067
689.911	0.0133381
689.989	0.0133275
690.068	0.0133904
690.146	0.0134953
690.224	0.0134439
690.302	0.0133908
690.380	0.0135197
690.458	0.0133809
690.536	0.0133994
690.614	0.0133227
690.693	0.0133217
690.771	0.0133475
690.849	0.0132454
690.927	0.0133396
691.005	0.0132443
691.083	0.0131332
691.161	0.0132199
691.239	0.0133261
691.318	0.0130945
691.396	0.0129283
691.474	0.0129326
691.552	0.0129445
691.630	0.0130006
691.708	0.0129299
691.786	0.0128830
691.864	0.0129964
691.943	0.0129505
692.021	0.0130855
692.099	0.0131821
692.177	0.0132964
692.255	0.0133623
692.333	0.0134480
692.411	0.0136285
692.489	0.0136911
692.568	0.0138129
692.646	0.0141415
692.724	0.0143206
692.802	0.0145570
692.880	0.0147131
692.958	0.0147822
693.036	0.0149654
693.114	0.0153129
693.193	0.0151930
693.271	0.0154367
693.349	0.0154707
693.427	0.0154263
693.505	0.0154440
693.583	0.0155485
693.661	0.0155115
693.739	0.0155164
693.818	0.0154538
693.896	0.0154381
693.974	0.0152352
694.052	0.0150473
694.130	0.0148945
694.208	0.0148126
694.286	0.0147416
694.364	0.0145160
694.443	0.0141924
694.521	0.0140452
694.599	0.0139019
694.677	0.0135999
694.755	0.0134060
694.833	0.0132684
694.911	0.0130048
694.989	0.0128265
695.068	0.0128071
695.146	0.0124382
695.224	0.0125961
695.302	0.0124532
695.380	0.0124184
695.458	0.0124232
695.536	0.0125415
695.614	0.0124965
695.693	0.0125101
695.771	0.0127002
695.849	0.0127067
695.927	0.0129166
696.005	0.0130959
696.083	0.0133408
696.161	0.0133857
696.239	0.0135675
696.318	0.0137335
696.396	0.0139118
696.474	0.0139622
696.552	0.0141605
696.630	0.0144390
696.708	0.0144568
696.786	0.0146396
696.864	0.0148083
696.943	0.0147755
697.021	0.0149354
697.099	0.0149684
697.177	0.0150817
697.255	0.0149194
697.333	0.0150139
697.411	0.0149351
697.489	0.0150471
697.568	0.0149465
697.646	0.0147514
697.724	0.0147701
697.802	0.0146744
697.880	0.0145509
697.958	0.0144743
698.036	0.0144278
698.114	0.0143276
698.193	0.0142018
698.271	0.0139447
698.349	0.0138607
698.427	0.0139755
698.505	0.0139423
698.583	0.0137554
698.661	0.0136863
698.739	0.0134603
698.818	0.0133453
698.896	0.0134245
698.974	0.0135435
699.052	0.0134442
699.130	0.0134538
699.208	0.0133521
699.286	0.0134662
699.364	0.0134813
699.443	0.0135595
699.521	0.0136691
699.599	0.0136397
699.677	0.0139212
699.755	0.0139256
699.833	0.0139164
699.911	0.0141138
699.989	0.0141720
700.068	0.0141647
700.146	0.0143696
700.224	0.0143556
700.302	0.0144719
700.380	0.0145974
700.458	0.0147332
700.536	0.0148544
700.614	0.0148509
700.693	0.0148628
700.771	0.0149044
700.849	0.0150090
700.927	0.0150706
701.005	0.0149166
701.083	0.0148461
701.161	0.0146541
701.239	0.0146329
701.318	0.0147897
701.396	0.0146015
701.474	0.0146227
701.552	0.0143622
701.630	0.0142223
701.708	0.0140527
701.786	0.0139041
701.864	0.0139000
701.943	0.0138343
702.021	0.0138094
702.099	0.0137050
702.177	0.0135637
702.255	0.0134248
702.333	0.0134219
702.411	0.0134054
702.489	0.0133757
702.568	0.0132379
702.646	0.0132756
702.724	0.0132008
702.802	0.0132339
702.880	0.0133401
702.958	0.0132156
703.036	0.0134014
703.114	0.0132098
703.193	0.0134072
703.271	0.0133234
703.349	0.0132099
703.427	0.0132610
703.505	0.0130322
703.583	0.0130938
703.661	0.0130901
703.739	0.0130495
703.818	0.0130882
703.896	0.0130029
703.974	0.0128368
704.052	0.0129487
704.130	0.0130609
704.208	0.0130872
704.286	0.0130162
704.364	0.0130363
704.443	0.0132262
704.521	0.0131980
704.599	0.0133453
704.677	0.0135751
704.755	0.0135191
704.833	0.0136783
704.911	0.0139322
704.989	0.0140924
705.068	0.0143328
705.146	0.0142539
705.224	0.0144585
705.302	0.0147549
705.380	0.0149998
705.458	0.0152618
705.536	0.0151402
705.614	0.0153265
705.693	0.0154522
705.771	0.0155222
705.849	0.0153906
705.927	0.0154775
706.005	0.0155283
706.083	0.0155545
706.161	0.0155222
706.239	0.0152437
706.318	0.0152624
706.396	0.0150740
706.474	0.0149448
706.552	0.0149123
706.630	0.0147147
706.708	0.0146876
706.786	0.0143758
706.864	0.0142048
706.943	0.0140937
707.021	0.0139201
707.099	0.0136674
707.177	0.0135658
707.255	0.0133484
707.333	0.0132742
707.411	0.0129298
707.489	0.0127551
707.568	0.0128118
707.646	0.0125756
707.724	0.0125826
707.802	0.0124728
707.880	0.0124234
707.958	0.0123576
708.036	0.0122425
708.114	0.0123789
708.193	0.0123544
708.271	0.0124947
708.349	0.0127233
708.427	0.0126544
708.505	0.0126958
708.583	0.0129155
708.661	0.0132621
708.739	0.0132281
708.818	0.0133234
708.896	0.0134504
708.974	0.0136320
709.052	0.0137971
709.130	0.0137881
709.208	0.0138788
709.286	0.0141121
709.364	0.0139317
709.443	0.0140356
709.521	0.0140835
709.599	0.0140744
709.677	0.0139248
709.755	0.0141858
709.833	0.0142152
709.911	0.0140476
709.989	0.0140656
710.068	0.0141744
710.146	0.0140866
710.224	0.0141856
710.302	0.0141759
710.380	0.0141324
710.458	0.0140520
710.536	0.0142094
710.614	0.0140773
710.693	0.0141894
710.771	0.0143155
710.849	0.0141055
710.927	0.0141743
711.005	0.0142458
711.083	0.0139507
711.161	0.0140832
711.239	0.0144711
711.318	0.0142828
711.396	0.0141609
711.474	0.0143790
711.552	0.0143528
711.630	0.0141644
711.708	0.0144490
711.786	0.0143597
711.864	0.0142843
711.943	0.0142904
712.021	0.0142892
712.099	0.0143547
712.177	0.0142961
712.255	0.0143460
712.333	0.0141129
712.411	0.0143124
712.489	0.0142147
712.568	0.0142027
712.646	0.0141245
712.724	0.0141593
712.802	0.0140633
712.880	0.0139709
712.958	0.0138830
713.036	0.0137778
713.114	0.0139155
713.193	0.0137910
713.271	0.0137300
713.349	0.0137669
713.427	0.0137035
713.505	0.0135631
713.583	0.0134352
713.661	0.0134030
713.739	0.0134603
713.818	0.0131796
713.896	0.0131809
713.974	0.0133752
714.052	0.0132099
714.130	0.0132838
714.208	0.0132749
714.286	0.0133366
714.364	0.0133574
714.443	0.0133200
714.521	0.0133973
714.599	0.0135122
714.677	0.0135076
714.755	0.0134581
714.833	0.0136164
714.911	0.0137418
714.989	0.0139214
715.068	0.0139090
715.146	0.0138994
715.224	0.0140532
715.302	0.0143185
715.380	0.0142248
715.458	0.0144382
715.536	0.0144652
715.614	0.0143040
715.693	0.0144025
715.771	0.0145308
715.849	0.0146124
715.927	0.0145725
716.005	0.0145314
716.083	0.0145571
716.161	0.0145475
716.239	0.0145207
716.318	0.0145641
716.396	0.0144335
716.474	0.0144383
716.552	0.0144114
716.630	0.0144020
716.708	0.0142453
716.786	0.0142606
716.864	0.0143089
716.943	0.0142075
717.021	0.0142874
717.099	0.0142216
717.177	0.0141528
717.255	0.0141389
717.333	0.0138712
717.411	0.0139148
717.489	0.0139407
717.568	0.0140200
717.646	0.0139407
717.724	0.0140427
717.802	0.0139059
717.880	0.0140110
717.958	0.0140320
718.036	0.0140067
718.114	0.0140665
718.193	0.0142147
718.271	0.0141318
718.349	0.0141785
718.427	0.0141444
718.505	0.0141986
718.583	0.0142155
718.661	0.0142052
718.739	0.0141817
718.818	0.0141122
718.896	0.0142645
718.974	0.0140630
719.052	0.0140659
719.130	0.0140776
719.208	0.0140681
719.286	0.0139509
719.364	0.0140190
719.443	0.0138566
719.521	0.0139177
719.599	0.0137346
719.677	0.0138716
719.755	0.0138592
719.833	0.0138584
719.911	0.0139194
719.989	0.0138311
720.068	0.0136969
720.146	0.0135851
720.224	0.0136873
720.302	0.0137256
720.380	0.0136435
720.458	0.0136547
720.536	0.0136745
720.614	0.0135659
720.693	0.0134819
720.771	0.0135486
720.849	0.0135812
720.927	0.0136282
721.005	0.0135773
721.083	0.0134763
721.161	0.0135870
721.239	0.0137222
721.318	0.0137753
721.396	0.0138382
721.474	0.0138086
721.552	0.0139685
721.630	0.0141254
721.708	0.0140730
721.786	0.0142458
721.864	0.0143373
721.943	0.0143070
722.021	0.0142581
722.099	0.0142885
722.177	0.0144282
722.255	0.0142252
722.333	0.0144028
722.411	0.0143568
722.489	0.0142703
722.568	0.0143186
722.646	0.0140723
722.724	0.0141666
722.802	0.0141978
722.880	0.0141531
722.958	0.0141077
723.036	0.0141402
723.114	0.0140166
723.193	0.0139961
723.271	0.0139597
723.349	0.0140951
723.427	0.0139087
723.505	0.0138022
723.583	0.0137748
723.661	0.0138576
723.739	0.0139091
723.818	0.0137555
723.896	0.0137222
723.974	0.0137574
724.052	0.0137779
724.130	0.0136462
724.208	0.0137934
724.286	0.0137382
724.364	0.0139130
724.443	0.0138486
724.521	0.0138240
724.599	0.0139120
724.677	0.0138224
724.755	0.0138374
724.833	0.0138395
724.911	0.0140335
724.989	0.0140765
725.068	0.0141158
725.146	0.0141933
725.224	0.0143268
725.302	0.0142599
725.380	0.0144140
725.458	0.0143478
725.536	0.0144322
725.614	0.0143742
725.693	0.0144962
725.771	0.0144009
725.849	0.0143309
725.927	0.0142390
726.005	0.0142500
726.083	0.0141804
726.161	0.0141217
726.239	0.0140830
726.318	0.0139576
726.396	0.0138631
726.474	0.0137234
726.552	0.0135665
726.630	0.0136750
726.708	0.0135437
726.786	0.0135725
726.864	0.0134624
726.943	0.0134029
727.021	0.0135361
727.099	0.0134099
727.177	0.0133538
727.255	0.0133488
727.333	0.0134884
727.411	0.0135088
727.489	0.0135751
727.568	0.0134772
727.646	0.0134882
727.724	0.0135257
727.802	0.0136299
727.880	0.0136610
727.958	0.0138574
728.036	0.0138316
728.114	0.0137615
728.193	0.0139520
728.271	0.0140591
728.349	0.0140855
728.427	0.0140536
728.505	0.0141465
728.583	0.0140501
728.661	0.0142689
728.739	0.0142728
728.818	0.0141261
728.896	0.0141581
728.974	0.0140750
729.052	0.0140549
729.130	0.0139546
729.208	0.0140147
729.286	0.0140269
729.364	0.0138854
729.443	0.0138805
729.521	0.0137561
729.599	0.0138624
729.677	0.0137093
729.755	0.0136288
729.833	0.0136469
729.911	0.0135847
729.989	0.0134911
730.068	0.0135685
730.146	0.0134498
730.224	0.0135307
730.302	0.0135918
730.380	0.0135372
730.458	0.0135873
730.536	0.0137653
730.614	0.0136683
730.693	0.0137131
730.771	0.0138436
730.849	0.0137907
730.927	0.0138693
731.005	0.0138874
731.083	0.0139797
731.161	0.0138604
731.239	0.0139503
731.318	0.0140630
731.396	0.0140094
731.474	0.0139507
731.552	0.0140207
731.630	0.0140376
731.708	0.0137731
731.786	0.0139695
731.864	0.0140500
731.943	0.0139690
732.021	0.0138658
732.099	0.0138451
732.177	0.0138820
732.255	0.0136743
732.333	0.0137645
732.411	0.0137399
732.489	0.0136651
732.568	0.0136236
732.646	0.0136272
732.724	0.0136565
732.802	0.0136138
732.880	0.0135916
732.958	0.0135963
733.036	0.0136572
733.114	0.0134908
733.193	0.0134174
733.271	0.0135431
733.349	0.0134935
733.427	0.0134957
733.505	0.0135179
733.583	0.0133838
733.661	0.0134383
733.739	0.0134919
733.818	0.0133864
733.896	0.0134193
733.974	0.0134409
734.052	0.0135253
734.130	0.0135954
734.208	0.0134429
734.286	0.0135809
734.364	0.0135658
734.443	0.0138704
734.521	0.0138335
734.599	0.0137991
734.677	0.0138647
734.755	0.0140259
734.833	0.0141302
734.911	0.0141994
734.989	0.0141417
735.068	0.0142822
735.146	0.0145554
735.224	0.0143975
735.302	0.0143532
735.380	0.0145068
735.458	0.0144366
735.536	0.0143547
735.614	0.0144439
735.693	0.0142929
735.771	0.0142764
735.849	0.0143587
735.927	0.0142355
736.005	0.0143124
736.083	0.0141390
736.161	0.0140577
736.239	0.0139424
736.318	0.0140205
736.396	0.0139799
736.474	0.0139894
736.552	0.0138364
736.630	0.0138136
736.708	0.0137614
736.786	0.0138307
736.864	0.0136404
736.943	0.0136433
737.021	0.0137047
737.099	0.0137227
737.177	0.0136620
737.255	0.0136953
737.333	0.0136958
737.411	0.0136420
737.489	0.0138218
737.568	0.0136684
737.646	0.0137367
737.724	0.0135427
737.802	0.0136036
737.880	0.0136890
737.958	0.0136984
738.036	0.0137055
738.114	0.0137436
738.193	0.0137128
738.271	0.0136045
738.349	0.0138747
738.427	0.0138274
738.505	0.0136938
738.583	0.0138828
738.661	0.0140063
738.739	0.0139250
738.818	0.0140781
738.896	0.0139151
738.974	0.0141341
739.052	0.0141132
739.130	0.0139503
739.208	0.0140452
739.286	0.0140665
739.364	0.0138479
739.443	0.0140026
739.521	0.0139804
739.599	0.0139276
739.677	0.0138200
739.755	0.0139008
739.833	0.0138983
739.911	0.0137581
739.989	0.0137743
740.068	0.0136658
740.146	0.0137978
740.224	0.0138693
740.302	0.0137735
740.380	0.0137084
740.458	0.0137574
740.536	0.0138280
740.614	0.0137931
740.693	0.0139397
740.771	0.0140285
740.849	0.0138395
740.927	0.0138295
741.005	0.0140313
741.083	0.0141333
741.161	0.0140221
741.239	0.0140916
741.318	0.0140543
741.396	0.0141933
741.474	0.0142548
741.552	0.0142715
741.630	0.0141716
741.708	0.0142793
741.786	0.0143722
741.864	0.0142963
741.943	0.0141895
742.021	0.0142729
742.099	0.0143705
742.177	0.0144323
742.255	0.0142019
742.333	0.0142582
742.411	0.0142152
742.489	0.0141600
742.568	0.0140469
742.646	0.0142930
742.724	0.0141265
742.802	0.0140539
742.880	0.0140957
742.958	0.0138969
743.036	0.0140414
743.114	0.0139094
743.193	0.0136848
743.271	0.0138971
743.349	0.0137617
743.427	0.0137342
743.505	0.0137807
743.583	0.0138441
743.661	0.0138126
743.739	0.0138347
743.818	0.0137696
743.896	0.0137045
743.974	0.0137744
744.052	0.0137446
744.130	0.0138046
744.208	0.0137559
744.286	0.0137648
744.364	0.0137393
744.443	0.0136661
744.521	0.0137304
744.599	0.0137925
744.677	0.0137182
744.755	0.0138416
744.833	0.0138426
744.911	0.0137672
744.989	0.0139816
745.068	0.0138893
745.146	0.0139796
745.224	0.0139573
745.302	0.0139362
745.380	0.0139572
745.458	0.0138931
745.536	0.0140697
745.614	0.0140564
745.693	0.0140786
745.771	0.0140885
745.849	0.0139664
745.927	0.0140654
746.005	0.0140796
746.083	0.0140315
746.161	0.0139188
746.239	0.0139555
746.318	0.0140119
746.396	0.0138372
746.474	0.0138731
746.552	0.0139716
746.630	0.0137825
746.708	0.0137761
746.786	0.0138577
746.864	0.0138815
746.943	0.0138544
747.021	0.0137973
747.099	0.0137453
747.177	0.0136698
747.255	0.0138834
747.333	0.0139206
747.411	0.0138204
747.489	0.0137923
747.568	0.0138478
747.646	0.0140463
747.724	0.0139029
747.802	0.0138318
747.880	0.0139262
747.958	0.0139686
748.036	0.0139934
748.114	0.0139447
748.193	0.0140076
748.271	0.0138919
748.349	0.0139735
748.427	0.0140604
748.505	0.0140265
748.583	0.0139862
748.661	0.0139019
748.739	0.0138715
748.818	0.0140460
748.896	0.0138780
748.974	0.0139294
749.052	0.0140746
749.130	0.0140266
749.208	0.0138927
749.286	0.0139426
749.364	0.0138994
749.443	0.0138716
749.521	0.0139111
749.599	0.0139870
749.677	0.0140376
749.755	0.0139439
749.833	0.0139593
749.911	0.0137833
749.989	0.0141122
750.068	0.0140528
750.146	0.0140279
750.224	0.0139948
750.302	0.0140594
750.380	0.0139920
750.458	0.0141071
750.536	0.0139507
750.614	0.0140712
750.693	0.0141017
750.771	0.0141629
750.849	0.0141367
750.927	0.0140302
751.005	0.0141465
751.083	0.0141064
751.161	0.0138973
751.239	0.0140818
751.318	0.0140349
751.396	0.0139445
751.474	0.0139728
751.552	0.0139518
751.630	0.0138251
751.708	0.0137726
751.786	0.0137885
751.864	0.0136850
751.943	0.0137086
752.021	0.0136713
752.099	0.0136308
752.177	0.0134392
752.255	0.0134336
752.333	0.0134578
752.411	0.0134041
752.489	0.0134896
752.568	0.0133995
752.646	0.0132580
752.724	0.0132742
752.802	0.0131840
752.880	0.0132312
752.958	0.0132870
753.036	0.0134464
753.114	0.0134131
753.193	0.0134226
753.271	0.0134995
753.349	0.0135564
753.427	0.0137619
753.505	0.0136861
753.583	0.0135974
753.661	0.0138846
753.739	0.0137781
753.818	0.0140609
753.896	0.0141749
753.974	0.0141127
754.052	0.0140911
754.130	0.0142982
754.208	0.0142670
754.286	0.0144183
754.364	0.0144648
754.443	0.0144866
754.521	0.0145653
754.599	0.0145260
754.677	0.0144848
754.755	0.0145653
754.833	0.0146255
754.911	0.0146043
754.989	0.0146082
755.068	0.0146876
755.146	0.0144801
755.224	0.0143901
755.302	0.0144894
755.380	0.0144045
755.458	0.0143696
755.536	0.0142020
755.614	0.0140694
755.693	0.0139771
755.771	0.0139315
755.849	0.0138223
755.927	0.0137138
756.005	0.0136485
756.083	0.0136871
756.161	0.0135014
756.239	0.0135291
756.318	0.0133865
756.396	0.0132835
756.474	0.0133577
756.552	0.0134023
756.630	0.0133878
756.708	0.0132015
756.786	0.0133862
756.864	0.0135640
756.943	0.0136040
757.021	0.0136375
757.099	0.0135657
757.177	0.0136513
757.255	0.0136734
757.333	0.0138019
757.411	0.0137947
757.489	0.0139624
757.568	0.0140465
757.646	0.0141109
757.724	0.0140114
757.802	0.0140291
757.880	0.0142401
757.958	0.0143591
758.036	0.0143150
758.114	0.0142416
758.193	0.0142905
758.271	0.0143813
758.349	0.0142788
758.427	0.0144447
758.505	0.0143616
758.583	0.0143513
758.661	0.0144324
758.739	0.0144038
758.818	0.0142870
758.896	0.0142793
758.974	0.0142539
759.052	0.0142587
759.130	0.0142263
759.208	0.0142054
759.286	0.0142579
759.364	0.0141135
759.443	0.0140779
759.521	0.0139854
759.599	0.0139692
759.677	0.0139449
759.755	0.0139835
759.833	0.0138391
759.911	0.0137655
759.989	0.0137060
760.068	0.0136255
760.146	0.0135674
760.224	0.0135042
760.302	0.0134851
760.380	0.0134279
760.458	0.0134772
760.536	0.0134863
760.614	0.0134403
760.693	0.0134480
760.771	0.0135221
760.849	0.0133627
760.927	0.0132960
761.005	0.0134694
761.083	0.0135725
761.161	0.0134525
761.239	0.0135010
761.318	0.0134550
761.396	0.0137373
761.474	0.0136591
761.552	0.0137314
761.630	0.0136792
761.708	0.0138586
761.786	0.0139001
761.864	0.0138750
761.943	0.0139980
762.021	0.0140752
762.099	0.0140627
762.177	0.0142688
762.255	0.0142334
762.333	0.0142167
762.411	0.0142381
762.489	0.0143335
762.568	0.0142729
762.646	0.0144346
762.724	0.0144218
762.802	0.0144941
762.880	0.0145730
762.958	0.0144763
763.036	0.0144769
763.114	0.0143102
763.193	0.0142336
763.271	0.0142135
763.349	0.0142200
763.427	0.0141829
763.505	0.0142622
763.583	0.0141028
763.661	0.0140668
763.739	0.0140082
763.818	0.0140665
763.896	0.0140115
763.974	0.0138660
764.052	0.0139375
764.130	0.0138251
764.208	0.0139236
764.286	0.0137235
764.364	0.0137820
764.443	0.0137589
764.521	0.0136771
764.599	0.0135842
764.677	0.0136650
764.755	0.0137284
764.833	0.0136638
764.911	0.0136034
764.989	0.0134190
765.068	0.0135961
765.146	0.0134521
765.224	0.0134683
765.302	0.0134767
765.380	0.0136049
765.458	0.0136574
765.536	0.0135715
765.614	0.0136838
765.693	0.0136120
765.771	0.0136844
765.849	0.0137310
765.927	0.0135278
766.005	0.0136768
766.083	0.0137590
766.161	0.0137733
766.239	0.0136768
766.318	0.0137497
766.396	0.0137466
766.474	0.0138525
766.552	0.0138606
766.630	0.0140399
766.708	0.0139937
766.786	0.0139719
766.864	0.0141441
766.943	0.0142130
767.021	0.0142795
767.099	0.0143103
767.177	0.0141071
767.255	0.0142690
767.333	0.0142851
767.411	0.0143644
767.489	0.0143171
767.568	0.0144127
767.646	0.0142946
767.724	0.0144142
767.802	0.0143687
767.880	0.0144112
767.958	0.0143703
768.036	0.0144009
768.114	0.0143524
768.193	0.0143487
768.271	0.0142827
768.349	0.0143434
768.427	0.0142742
768.505	0.0142614
768.583	0.0141564
768.661	0.0143314
768.739	0.0142528
768.818	0.0142065
768.896	0.0140068
768.974	0.0140968
769.052	0.0141196
769.130	0.0141064
769.208	0.0138879
769.286	0.0138240
769.364	0.0138352
769.443	0.0138311
769.521	0.0139088
769.599	0.0138315
769.677	0.0138025
769.755	0.0137968
769.833	0.0138475
769.911	0.0138447
769.989	0.0137930
770.068	0.0138165
770.146	0.0138277
770.224	0.0137495
770.302	0.0138309
770.380	0.0138681
770.458	0.0139978
770.536	0.0139684
770.614	0.0140471
770.693	0.0139768
770.771	0.0138936
770.849	0.0139083
770.927	0.0140604
771.005	0.0141936
771.083	0.0140529
771.161	0.0139900
771.239	0.0139291
771.318	0.0140104
771.396	0.0139251
771.474	0.0139006
771.552	0.0138938
771.630	0.0137885
771.708	0.0139692
771.786	0.0139790
771.864	0.0139001
771.943	0.0138316
772.021	0.0137825
772.099	0.0138646
772.177	0.0138834
772.255	0.0138850
772.333	0.0138045
772.411	0.0138079
772.489	0.0137854
772.568	0.0139511
772.646	0.0138835
772.724	0.0138140
772.802	0.0137814
772.880	0.0138301
772.958	0.0140143
773.036	0.0140354
773.114	0.0138065
773.193	0.0136399
773.271	0.0137959
773.349	0.0139741
773.427	0.0138378
773.505	0.0138206
773.583	0.0139294
773.661	0.0138864
773.739	0.0137547
773.818	0.0138483
773.896	0.0137917
773.974	0.0138900
774.052	0.0138072
774.130	0.0138772
774.208	0.0139726
774.286	0.0140782
774.364	0.0142075
774.443	0.0140301
774.521	0.0140163
774.599	0.0140556
774.677	0.0142065
774.755	0.0141299
774.833	0.0140793
774.911	0.0140417
774.989	0.0140975
775.068	0.0140656
775.146	0.0142396
775.224	0.0141025
775.302	0.0141975
775.380	0.0141228
775.458	0.0141737
775.536	0.0142184
775.614	0.0141023
775.693	0.0140703
775.771	0.0140492
775.849	0.0138753
775.927	0.0139503
776.005	0.0139503
776.083	0.0138345
776.161	0.0137902
776.239	0.0136854
776.318	0.0137238
776.396	0.0136937
776.474	0.0135941
776.552	0.0136288
776.630	0.0136093
776.708	0.0136446
776.786	0.0135991
776.864	0.0136903
776.943	0.0136523
777.021	0.0136074
777.099	0.0135327
777.177	0.0135329
777.255	0.0136161
777.333	0.0135875
777.411	0.0136591
777.489	0.0136753
777.568	0.0137411
777.646	0.0136103
777.724	0.0139150
777.802	0.0139722
777.880	0.0138203
777.958	0.0140427
778.036	0.0140535
778.114	0.0141019
778.193	0.0141340
778.271	0.0141153
778.349	0.0142937
778.427	0.0141492
778.505	0.0142680
778.583	0.0143544
778.661	0.0143676
778.739	0.0141926
778.818	0.0141965
778.896	0.0143635
778.974	0.0143937
779.052	0.0143345
779.130	0.0142725
779.208	0.0143520
779.286	0.0143996
779.364	0.0142925
779.443	0.0143295
779.521	0.0144165
779.599	0.0142667
779.677	0.0142019
779.755	0.0142197
779.833	0.0143789
779.911	0.0143467
779.989	0.0142351
780.068	0.0140572
780.146	0.0142622
780.224	0.0140721
780.302	0.0140712
780.380	0.0140634
780.458	0.0140791
780.536	0.0140563
780.614	0.0139356
780.693	0.0139705
780.771	0.0139614
780.849	0.0138197
780.927	0.0137728
781.005	0.0139159
781.083	0.0138869
781.161	0.0137208
781.239	0.0138412
781.318	0.0139120
781.396	0.0138255
781.474	0.0136387
781.552	0.0138525
781.630	0.0137754
781.708	0.0137099
781.786	0.0137109
781.864	0.0136264
781.943	0.0136155
782.021	0.0136455
782.099	0.0137831
782.177	0.0136543
782.255	0.0136395
782.333	0.0136556
782.411	0.0136059
782.489	0.0136137
782.568	0.0137010
782.646	0.0136787
782.724	0.0137437
782.802	0.0136267
782.880	0.0136877
782.958	0.0137691
783.036	0.0138306
783.114	0.0137671
783.193	0.0138211
783.271	0.0139032
783.349	0.0138341
783.427	0.0138631
783.505	0.0138750
783.583	0.0139012
783.661	0.0139693
783.739	0.0140538
783.818	0.0141199
783.896	0.0139167
783.974	0.0139658
784.052	0.0139337
784.130	0.0140067
784.208	0.0140654
784.286	0.0139899
784.364	0.0140444
784.443	0.0140103
784.521	0.0141307
784.599	0.0139698
784.677	0.0140510
784.755	0.0141801
784.833	0.0140466
784.911	0.0141362
784.989	0.0139472
785.068	0.0140365
785.146	0.0141380
785.224	0.0141656
785.302	0.0140816
785.380	0.0140576
785.458	0.0141094
785.536	0.0141261
785.614	0.0140765
785.693	0.0140722
785.771	0.0141081
785.849	0.0139955
785.927	0.0141415
786.005	0.0141972
786.083	0.0140664
786.161	0.0141433
786.239	0.0141553
786.318	0.0140007
786.396	0.0140192
786.474	0.0139045
786.552	0.0139345
786.630	0.0139814
786.708	0.0139942
786.786	0.0138774
786.864	0.0137998
786.943	0.0137895
787.021	0.0137818
787.099	0.0137706
787.177	0.0139820
787.255	0.0139194
787.333	0.0139046
787.411	0.0138682
787.489	0.0138358
787.568	0.0138425
787.646	0.0139465
787.724	0.0138529
787.802	0.0138350
787.880	0.0139989
787.958	0.0140526
788.036	0.0140888
788.114	0.0141089
788.193	0.0140616
788.271	0.0140763
788.349	0.0139076
788.427	0.0138760
788.505	0.0138925
788.583	0.0139977
788.661	0.0140134
788.739	0.0138334
788.818	0.0139100
788.896	0.0138573
788.974	0.0137926
789.052	0.0137866
789.130	0.0137702
789.208	0.0138218
789.286	0.0136755
789.364	0.0135352
789.443	0.0137797
789.521	0.0139419
789.599	0.0137771
789.677	0.0136016
789.755	0.0138502
789.833	0.0138913
789.911	0.0137495
789.989	0.0139363
790.068	0.0138590
790.146	0.0140086
790.224	0.0140432
790.302	0.0139564
790.380	0.0138424
790.458	0.0140150
790.536	0.0139758
790.614	0.0139842
790.693	0.0140155
790.771	0.0141309
790.849	0.0140100
790.927	0.0140422
791.005	0.0140230
791.083	0.0140768
791.161	0.0139344
791.239	0.0139794
791.318	0.0139400
791.396	0.0139849
791.474	0.0139510
791.552	0.0139046
791.630	0.0138273
791.708	0.0138391
791.786	0.0138365
791.864	0.0136501
791.943	0.0136855
792.021	0.0136704
792.099	0.0137836
792.177	0.0136796
792.255	0.0136767
792.333	0.0137833
792.411	0.0138124
792.489	0.0138670
792.568	0.0137398
792.646	0.0137513
792.724	0.0138380
792.802	0.0137157
792.880	0.0136902
792.958	0.0139750
793.036	0.0138340
793.114	0.0138567
793.193	0.0139452
793.271	0.0138171
793.349	0.0138821
793.427	0.0137960
793.505	0.0139773
793.583	0.0140376
793.661	0.0139032
793.739	0.0139207
793.818	0.0139632
793.896	0.0139895
793.974	0.0139330
794.052	0.0139582
794.130	0.0139305
794.208	0.0138961
794.286	0.0137576
794.364	0.0139864
794.443	0.0138583
794.521	0.0139489
794.599	0.0139824
794.677	0.0139787
794.755	0.0138971
794.833	0.0140046
794.911	0.0141362
794.989	0.0141356
795.068	0.0141135
795.146	0.0141272
795.224	0.0141939
795.302	0.0140726
795.380	0.0141328
795.458	0.0140702
795.536	0.0141367
795.614	0.0142001
795.693	0.0141882
795.771	0.0140946
795.849	0.0141412
795.927	0.0141947
796.005	0.0140439
796.083	0.0141104
796.161	0.0141657
796.239	0.0141118
796.318	0.0139868
796.396	0.0140726
796.474	0.0139571
796.552	0.0139636
796.630	0.0141256
796.708	0.0142142
796.786	0.0139734
796.864	0.0141686
796.943	0.0140331
797.021	0.0141039
797.099	0.0141619
797.177	0.0139251
797.255	0.0140207
797.333	0.0139640
797.411	0.0137458
797.489	0.0138838
797.568	0.0138096
797.646	0.0138786
797.724	0.0137768
797.802	0.0137139
797.880	0.0138896
797.958	0.0139603
798.036	0.0137563
798.114	0.0138933
798.193	0.0140633
798.271	0.0139371
798.349	0.0139836
798.427	0.0139945
798.505	0.0138219
798.583	0.0139521
798.661	0.0138974
798.739	0.0137949
798.818	0.0138683
798.896	0.0139107
798.974	0.0138468
799.052	0.0140030
799.130	0.0138424
799.208	0.0137285
799.286	0.0139060
799.364	0.0140093
799.443	0.0139041
799.521	0.0140012
799.599	0.0141288
799.677	0.0140666
799.755	0.0141728
799.833	0.0141713
799.911	0.0141265
799.989	0.0140808
800.068	0.0140211
800.146	0.0141740
800.224	0.0140955
800.302	0.0138752
800.380	0.0140263
800.458	0.0139285
800.536	0.0139081
800.614	0.0140487
800.693	0.0139380
800.771	0.0138353
800.849	0.0136790
800.927	0.0138336
801.005	0.0138087
801.083	0.0137817
801.161	0.0137955
801.239	0.0138068
801.318	0.0137522
801.396	0.0139188
801.474	0.0139289
801.552	0.0138550
801.630	0.0139812
801.708	0.0139013
801.786	0.0139977
801.864	0.0140079
801.943	0.0138945
802.021	0.0139428
802.099	0.0139590
802.177	0.0139659
802.255	0.0138305
802.333	0.0138583
802.411	0.0137759
802.489	0.0140672
802.568	0.0139491
802.646	0.0139428
802.724	0.0140297
802.802	0.0141584
802.880	0.0141151
802.958	0.0140067
803.036	0.0140915
803.114	0.0141882
803.193	0.0142646
803.271	0.0139154
803.349	0.0141009
803.427	0.0140625
803.505	0.0141885
803.583	0.0142638
803.661	0.0141203
803.739	0.0139661
803.818	0.0138763
803.896	0.0139600
803.974	0.0139078
804.052	0.0138940
804.130	0.0136754
804.208	0.0135978
804.286	0.0136668
804.364	0.0136874
804.443	0.0135863
804.521	0.0135896
804.599	0.0134422
804.677	0.0135209
804.755	0.0135895
804.833	0.0134695
804.911	0.0136145
804.989	0.0136356
805.068	0.0135149
805.146	0.0135183
805.224	0.0136929
805.302	0.0135725
805.380	0.0136534
805.458	0.0136609
805.536	0.0136633
805.614	0.0136589
805.693	0.0137296
805.771	0.0135287
805.849	0.0136436
805.927	0.0137830
806.005	0.0137383
806.083	0.0138117
806.161	0.0138901
806.239	0.0139459
806.318	0.0139771
806.396	0.0140780
806.474	0.0141384
806.552	0.0139845
806.630	0.0141777
806.708	0.0140845
806.786	0.0140677
806.864	0.0140494
806.943	0.0139101
807.021	0.0138137
807.099	0.0137418
807.177	0.0137713
807.255	0.0136228
807.333	0.0137199
807.411	0.0137642
807.489	0.0136285
807.568	0.0136006
807.646	0.0135252
807.724	0.0135231
807.802	0.0136614
807.880	0.0137259
807.958	0.0138528
808.036	0.0138484
808.114	0.0138691
808.193	0.0139951
808.271	0.0141655
808.349	0.0140534
808.427	0.0140023
808.505	0.0143224
808.583	0.0143446
808.661	0.0141235
808.739	0.0143600
808.818	0.0142630
808.896	0.0144199
808.974	0.0142416
809.052	0.0141978
809.130	0.0143039
809.208	0.0141447
809.286	0.0140770
809.364	0.0141793
809.443	0.0141722
809.521	0.0141294
809.599	0.0141760
809.677	0.0140784
809.755	0.0139153
809.833	0.0139447
809.911	0.0141468
809.989	0.0139337
810.068	0.0139885
810.146	0.0139090
810.224	0.0138306
810.302	0.0138718
810.380	0.0138613
810.458	0.0137318
810.536	0.0137944
810.614	0.0137486
810.693	0.0136581
810.771	0.0137054
810.849	0.0136281
810.927	0.0136397
811.005	0.0135707
811.083	0.0135483
811.161	0.0136694
811.239	0.0135698
811.318	0.0137327
811.396	0.0136568
811.474	0.0139065
811.552	0.0137793
811.630	0.0138097
811.708	0.0139757
811.786	0.0139875
811.864	0.0141586
811.943	0.0142410
812.021	0.0141758
812.099	0.0141009
812.177	0.0141052
812.255	0.0142321
812.333	0.0142065
812.411	0.0141930
812.489	0.0141886
812.568	0.0142310
812.646	0.0140862
812.724	0.0142034
812.802	0.0141100
812.880	0.0140788
812.958	0.0139863
813.036	0.0139895
813.114	0.0139914
813.193	0.0138064
813.271	0.0138856
813.349	0.0140956
813.427	0.0138921
813.505	0.0139075
813.583	0.0138969
813.661	0.0138533
813.739	0.0137926
813.818	0.0140343
813.896	0.0139443
813.974	0.0139216
814.052	0.0139776
814.130	0.0140086
814.208	0.0139263
814.286	0.0139726
814.364	0.0140071
814.443	0.0139750
814.521	0.0139959
814.599	0.0139848
814.677	0.0139757
814.755	0.0139930
814.833	0.0141076
814.911	0.0141160
814.989	0.0142870
815.068	0.0141013
815.146	0.0141464
815.224	0.0141970
815.302	0.0142436
815.380	0.0141843
815.458	0.0142702
815.536	0.0140390
815.614	0.0140904
815.693	0.0140413
815.771	0.0138450
815.849	0.0139874
815.927	0.0139347
816.005	0.0137054
816.083	0.0138029
816.161	0.0138284
816.239	0.0136083
816.318	0.0135955
816.396	0.0135858
816.474	0.0135667
816.552	0.0136536
816.630	0.0136288
816.708	0.0136234
816.786	0.0134773
816.864	0.0135701
816.943	0.0135775
817.021	0.0134996
817.099	0.0135777
817.177	0.0136964
817.255	0.0136926
817.333	0.0137101
817.411	0.0138077
817.489	0.0137637
817.568	0.0136679
817.646	0.0137870
817.724	0.0138110
817.802	0.0137460
817.880	0.0137963
817.958	0.0138337
818.036	0.0139475
818.114	0.0137791
818.193	0.0137743
818.271	0.0138871
818.349	0.0139655
818.427	0.0138347
818.505	0.0139313
818.583	0.0140061
818.661	0.0140096
818.739	0.0139985
818.818	0.0139241
818.896	0.0141071
818.974	0.0142207
819.052	0.0139863
819.130	0.0141243
819.208	0.0141961
819.286	0.0140944
819.364	0.0141441
819.443	0.0142992
819.521	0.0143807
819.599	0.0143045
819.677	0.0141960
819.755	0.0142799
819.833	0.0143500
819.911	0.0142879
819.989	0.0142471
820.068	0.0143078
820.146	0.0141032
820.224	0.0142104
820.302	0.0141998
820.380	0.0141711
820.458	0.0140034
820.536	0.0139036
820.614	0.0139861
820.693	0.0139655
820.771	0.0139567
820.849	0.0139404
820.927	0.0139259
821.005	0.0139314
821.083	0.0138817
821.161	0.0139124
821.239	0.0138269
821.318	0.0139197
821.396	0.0137891
821.474	0.0138017
821.552	0.0136803
821.630	0.0137791
821.708	0.0137431
821.786	0.0137793
821.864	0.0137952
821.943	0.0138519
822.021	0.0137785
822.099	0.0136356
822.177	0.0137239
822.255	0.0137052
822.333	0.0137279
822.411	0.0137650
822.489	0.0138181
822.568	0.0136975
822.646	0.0138792
822.724	0.0138374
822.802	0.0139272
822.880	0.0138512
822.958	0.0139034
823.036	0.0140559
823.114	0.0139212
823.193	0.0138726
823.271	0.0139930
823.349	0.0139243
823.427	0.0139362
823.505	0.0138647
823.583	0.0136684
823.661	0.0139016
823.739	0.0137372
823.818	0.0137156
823.896	0.0138369
823.974	0.0137589
824.052	0.0135564
824.130	0.0134821
824.208	0.0136892
824.286	0.0138612
824.364	0.0137507
824.443	0.0136671
824.521	0.0136814
824.599	0.0136555
824.677	0.0138640
824.755	0.0137212
824.833	0.0138787
824.911	0.0137974
824.989	0.0139013
825.068	0.0138964
825.146	0.0140328
825.224	0.0140377
825.302	0.0139259
825.380	0.0140785
825.458	0.0141690
825.536	0.0140958
825.614	0.0141782
825.693	0.0142287
825.771	0.0142422
825.849	0.0141854
825.927	0.0142831
826.005	0.0142455
826.083	0.0143256
826.161	0.0143557
826.239	0.0142430
826.318	0.0142048
826.396	0.0142002
826.474	0.0142245
826.552	0.0142964
826.630	0.0141344
826.708	0.0141566
826.786	0.0142494
826.864	0.0142029
826.943	0.0140372
827.021	0.0140246
827.099	0.0139326
827.177	0.0138560
827.255	0.0138610
827.333	0.0139250
827.411	0.0138509
827.489	0.0137007
827.568	0.0139602
827.646	0.0139063
827.724	0.0137753
827.802	0.0138392
827.880	0.0137420
827.958	0.0137525
828.036	0.0138621
828.114	0.0139577
828.193	0.0139448
828.271	0.0139561
828.349	0.0138061
828.427	0.0137653
828.505	0.0138487
828.583	0.0139101
828.661	0.0139669
828.739	0.0139783
828.818	0.0138361
828.896	0.0137425
828.974	0.0139236
829.052	0.0139192
829.130	0.0139838
829.208	0.0139541
829.286	0.0139449
829.364	0.0138667
829.443	0.0139120
829.521	0.0138359
829.599	0.0138331
829.677	0.0139507
829.755	0.0140398
829.833	0.0139408
829.911	0.0138870
829.989	0.0138116
830.068	0.0138276
830.146	0.0137640
830.224	0.0138127
830.302	0.0138832
830.380	0.0139380
830.458	0.0137545
830.536	0.0139602
830.614	0.0138887
830.693	0.0137902
830.771	0.0137563
830.849	0.0137224
830.927	0.0136852
831.005	0.0138158
831.083	0.0138062
831.161	0.0138757
831.239	0.0137833
831.318	0.0136517
831.396	0.0137675
831.474	0.0137563
831.552	0.0139628
831.630	0.0139034
831.708	0.0139549
831.786	0.0138902
831.864	0.0139397
831.943	0.0139552
832.021	0.0138300
832.099	0.0139962
832.177	0.0139201
832.255	0.0139568
832.333	0.0140907
832.411	0.0141435
832.489	0.0140568
832.568	0.0140392
832.646	0.0140999
832.724	0.0141378
832.802	0.0140781
832.880	0.0141026
832.958	0.0141110
833.036	0.0139783
833.114	0.0140947
833.193	0.0140177
833.271	0.0139127
833.349	0.0140974
833.427	0.0139320
833.505	0.0136587
833.583	0.0138074
833.661	0.0137298
833.739	0.0138837
833.818	0.0137938
833.896	0.0137474
833.974	0.0138190
834.052	0.0137729
834.130	0.0137691
834.208	0.0137542
834.286	0.0136887
834.364	0.0135755
834.443	0.0138049
834.521	0.0137515
834.599	0.0137581
834.677	0.0138905
834.755	0.0137647
834.833	0.0138451
834.911	0.0139211
834.989	0.0137434
835.068	0.0139205
835.146	0.0139407
835.224	0.0137771
835.302	0.0138047
835.380	0.0138036
835.458	0.0137540
835.536	0.0137962
835.614	0.0137378
835.693	0.0137971
835.771	0.0138068
835.849	0.0138367
835.927	0.0138149
836.005	0.0138864
836.083	0.0138258
836.161	0.0139589
836.239	0.0138815
836.318	0.0137230
836.396	0.0138134
836.474	0.0140553
836.552	0.0139755
836.630	0.0139738
836.708	0.0140350
836.786	0.0140231
836.864	0.0140810
836.943	0.0139469
837.021	0.0138292
837.099	0.0141706
837.177	0.0140284
837.255	0.0141556
837.333	0.0140170
837.411	0.0138628
837.489	0.0138787
837.568	0.0140592
837.646	0.0139394
837.724	0.0138091
837.802	0.0138142
837.880	0.0137733
837.958	0.0138347
838.036	0.0138707
838.114	0.0138175
838.193	0.0138166
838.271	0.0137979
838.349	0.0137694
838.427	0.0137501
838.505	0.0136770
838.583	0.0137685
838.661	0.0138058
838.739	0.0136777
838.818	0.0136745
838.896	0.0137166
838.974	0.0138897
839.052	0.0138696
839.130	0.0138053
839.208	0.0138892
839.286	0.0138146
839.364	0.0140665
839.443	0.0140549
839.521	0.0138297
839.599	0.0139539
839.677	0.0139525
839.755	0.0138912
839.833	0.0140245
839.911	0.0139313
839.989	0.0140295
840.068	0.0139692
840.146	0.0139337
840.224	0.0140938
840.302	0.0140090
840.380	0.0139577
840.458	0.0138396
840.536	0.0139236
840.614	0.0138596
840.693	0.0138511
840.771	0.0139175
840.849	0.0139596
840.927	0.0138715
841.005	0.0138702
841.083	0.0137183
841.161	0.0137827
841.239	0.0139113
841.318	0.0138436
841.396	0.0137021
841.474	0.0137794
841.552	0.0137965
841.630	0.0137231
841.708	0.0139035
841.786	0.0138850
841.864	0.0138041
841.943	0.0139024
842.021	0.0138842
842.099	0.0139543
842.177	0.0140523
842.255	0.0139047
842.333	0.0139601
842.411	0.0140415
842.489	0.0140041
842.568	0.0139658
842.646	0.0139915
842.724	0.0140381
842.802	0.0139525
842.880	0.0140359
842.958	0.0141507
843.036	0.0141225
843.114	0.0139807
843.193	0.0139654
843.271	0.0139384
843.349	0.0139754
843.427	0.0139709
843.505	0.0141113
843.583	0.0141924
843.661	0.0140712
843.739	0.0140109
843.818	0.0142178
843.896	0.0141771
843.974	0.0140524
844.052	0.0140279
844.130	0.0140461
844.208	0.0141298
844.286	0.0140923
844.364	0.0140426
844.443	0.0142608
844.521	0.0139845
844.599	0.0141432
844.677	0.0141591
844.755	0.0140977
844.833	0.0141407
844.911	0.0142032
844.989	0.0141740
845.068	0.0142033
845.146	0.0142554
845.224	0.0141589
845.302	0.0142091
845.380	0.0141196
845.458	0.0139751
845.536	0.0140858
845.614	0.0140076
845.693	0.0139874
845.771	0.0139719
845.849	0.0139429
845.927	0.0139135
846.005	0.0139407
846.083	0.0138560
846.161	0.0140014
846.239	0.0138979
846.318	0.0137797
846.396	0.0137286
846.474	0.0138393
846.552	0.0138805
846.630	0.0137965
846.708	0.0138189
846.786	0.0137683
846.864	0.0138656
846.943	0.0137659
847.021	0.0137840
847.099	0.0138312
847.177	0.0138206
847.255	0.0137974
847.333	0.0138633
847.411	0.0137801
847.489	0.0138136
847.568	0.0140025
847.646	0.0138207
847.724	0.0139491
847.802	0.0140161
847.880	0.0139117
847.958	0.0138528
848.036	0.0138181
848.114	0.0139526
848.193	0.0139162
848.271	0.0139509
848.349	0.0138972
848.427	0.0139134
848.505	0.0137978
848.583	0.0138481
848.661	0.0139260
848.739	0.0141044
848.818	0.0140237
848.896	0.0139516
848.974	0.0138510
849.052	0.0141668
849.130	0.0140984
849.208	0.0140751
849.286	0.0142542
849.364	0.0141916
849.443	0.0142663
849.521	0.0142350
849.599	0.0140935
849.677	0.0140823
849.755	0.0140932
849.833	0.0141201
849.911	0.0141970
849.989	0.0140616
850.068	0.0141919
850.146	0.0142602
850.224	0.0139991
850.302	0.0139898
850.380	0.0138991
850.458	0.0140908
850.536	0.0139780
850.614	0.0139041
850.693	0.0139062
850.771	0.0138353
850.849	0.0138950
850.927	0.0137593
851.005	0.0136572
851.083	0.0137670
851.161	0.0135844
851.239	0.0136028
851.318	0.0136031
851.396	0.0136342
851.474	0.0135894
851.552	0.0136076
851.630	0.0135685
851.708	0.0134907
851.786	0.0137213
851.864	0.0138428
851.943	0.0138250
852.021	0.0137362
852.099	0.0137207
852.177	0.0137368
852.255	0.0138278
852.333	0.0139256
852.411	0.0139958
852.489	0.0138371
852.568	0.0139303
852.646	0.0140749
852.724	0.0139980
852.802	0.0140847
852.880	0.0140723
852.958	0.0141053
853.036	0.0140086
853.114	0.0139768
853.193	0.0139638
853.271	0.0140912
853.349	0.0141647
853.427	0.0141940
853.505	0.0140965
853.583	0.0142178
853.661	0.0141376
853.739	0.0141769
853.818	0.0141805
853.896	0.0141116
853.974	0.0140916
854.052	0.0141319
854.130	0.0140184
854.208	0.0138998
854.286	0.0139761
854.364	0.0139776
854.443	0.0138972
854.521	0.0138528
854.599	0.0138744
854.677	0.0138620
854.755	0.0137893
854.833	0.0139061
854.911	0.0138145
854.989	0.0138469
855.068	0.0137812
855.146	0.0136012
855.224	0.0137080
855.302	0.0136038
855.380	0.0136143
855.458	0.0136286
855.536	0.0135484
855.614	0.0136041
855.693	0.0135098
855.771	0.0135796
855.849	0.0136536
855.927	0.0135855
856.005	0.0136538
856.083	0.0136958
856.161	0.0137232
856.239	0.0136419
856.318	0.0138660
856.396	0.0138237
856.474	0.0137785
856.552	0.0138158
856.630	0.0138428
856.708	0.0139151
856.786	0.0140669
856.864	0.0140234
856.943	0.0141306
857.021	0.0141017
857.099	0.0141682
857.177	0.0141475
857.255	0.0139661
857.333	0.0141641
857.411	0.0142546
857.489	0.0142501
857.568	0.0143493
857.646	0.0142128
857.724	0.0142649
857.802	0.0141698
857.880	0.0143383
857.958	0.0141663
858.036	0.0142223
858.114	0.0141463
858.193	0.0141100
858.271	0.0142210
858.349	0.0141398
858.427	0.0141370
858.505	0.0140736
858.583	0.0139812
858.661	0.0138873
858.739	0.0139751
858.818	0.0139904
858.896	0.0138805
858.974	0.0137805
859.052	0.0138294
859.130	0.0138625
859.208	0.0138979
859.286	0.0138602
859.364	0.0138211
859.443	0.0137776
859.521	0.0138052
859.599	0.0138964
859.677	0.0139458
859.755	0.0137646
859.833	0.0138406
859.911	0.0138095
859.989	0.0138441
860.068	0.0138554
860.146	0.0138394
860.224	0.0138971
860.302	0.0139279
860.380	0.0138440
860.458	0.0138445
860.536	0.0140317
860.614	0.0140215
860.693	0.0139813
860.771	0.0141401
860.849	0.0140159
860.927	0.0140012
861.005	0.0140711
861.083	0.0140478
861.161	0.0141924
861.239	0.0141022
861.318	0.0140061
861.396	0.0141344
861.474	0.0141627
861.552	0.0140985
861.630	0.0141264
861.708	0.0142741
861.786	0.0141274
861.864	0.0142107
861.943	0.0143872
862.021	0.0141891
862.099	0.0142701
862.177	0.0142075
862.255	0.0140955
862.333	0.0143101
862.411	0.0141190
862.489	0.0142320
862.568	0.0141614
862.646	0.0140709
862.724	0.0140341
862.802	0.0139941
862.880	0.0140234
862.958	0.0140192
863.036	0.0140078
863.114	0.0140034
863.193	0.0139437
863.271	0.0138480
863.349	0.0138009
863.427	0.0139645
863.505	0.0138896
863.583	0.0138473
863.661	0.0138303
863.739	0.0138809
863.818	0.0138317
863.896	0.0139058
863.974	0.0138632
864.052	0.0139329
864.130	0.0139600
864.208	0.0140086
864.286	0.0139634
864.364	0.0140177
864.443	0.0140819
864.521	0.0139946
864.599	0.0140557
864.677	0.0141049
864.755	0.0140786
864.833	0.0139722
864.911	0.0138910
864.989	0.0140656
865.068	0.0139930
865.146	0.0139943
865.224	0.0140548
865.302	0.0139977
865.380	0.0139613
865.458	0.0138950
865.536	0.0139547
865.614	0.0139986
865.693	0.0138258
865.771	0.0138704
865.849	0.0140374
865.927	0.0138725
866.005	0.0137575
866.083	0.0138573
866.161	0.0137154
866.239	0.0137572
866.318	0.0136892
866.396	0.0138026
866.474	0.0137009
866.552	0.0137001
866.630	0.0136861
866.708	0.0137384
866.786	0.0137199
866.864	0.0137634
866.943	0.0137842
867.021	0.0137621
867.099	0.0137756
867.177	0.0137650
867.255	0.0137032
867.333	0.0138735
867.411	0.0137782
867.489	0.0138480
867.568	0.0137943
867.646	0.0138563
867.724	0.0139114
867.802	0.0138261
867.880	0.0137739
867.958	0.0138135
868.036	0.0138509
868.114	0.0137183
868.193	0.0139230
868.271	0.0139674
868.349	0.0139838
868.427	0.0138639
868.505	0.0139863
868.583	0.0139318
868.661	0.0139422
868.739	0.0141235
868.818	0.0139768
868.896	0.0139723
868.974	0.0140318
869.052	0.0140461
869.130	0.0141490
869.208	0.0142229
869.286	0.0141987
869.364	0.0141627
869.443	0.0141427
869.521	0.0141641
869.599	0.0140425
869.677	0.0139833
869.755	0.0141656
869.833	0.0141556
869.911	0.0140170
869.989	0.0139836
870.068	0.0141016
870.146	0.0138952
870.224	0.0139131
870.302	0.0139030
870.380	0.0141119
870.458	0.0138811
870.536	0.0138477
870.614	0.0138942
870.693	0.0137360
870.771	0.0137784
870.849	0.0137315
870.927	0.0138110
871.005	0.0136459
871.083	0.0137549
871.161	0.0137175
871.239	0.0136046
871.318	0.0137188
871.396	0.0136801
871.474	0.0136577
871.552	0.0137380
871.630	0.0137770
871.708	0.0138466
871.786	0.0138268
871.864	0.0139266
871.943	0.0137587
872.021	0.0138638
872.099	0.0140269
872.177	0.0140536
872.255	0.0140239
872.333	0.0141039
872.411	0.0139646
872.489	0.0140128
872.568	0.0140990
872.646	0.0140643
872.724	0.0141120
872.802	0.0141063
872.880	0.0139910
872.958	0.0140525
873.036	0.0140958
873.114	0.0140649
873.193	0.0141861
873.271	0.0140084
873.349	0.0141328
873.427	0.0141033
873.505	0.0140511
873.583	0.0140899
873.661	0.0140511
873.739	0.0139877
873.818	0.0140656
873.896	0.0140242
873.974	0.0140137
874.052	0.0139176
874.130	0.0139809
874.208	0.0139127
874.286	0.0139712
874.364	0.0139342
874.443	0.0138640
874.521	0.0139748
874.599	0.0138444
874.677	0.0140163
874.755	0.0138301
874.833	0.0138444
874.911	0.0138168
874.989	0.0137148
875.068	0.0138153
875.146	0.0138637
875.224	0.0137737
875.302	0.0137589
875.380	0.0139445
875.458	0.0138233
875.536	0.0138200
875.614	0.0138744
875.693	0.0139013
875.771	0.0139209
875.849	0.0139933
875.927	0.0137774
876.005	0.0138197
876.083	0.0139769
876.161	0.0140189
876.239	0.0140082
876.318	0.0140671
876.396	0.0140166
876.474	0.0138760
876.552	0.0141060
876.630	0.0139816
876.708	0.0139888
876.786	0.0140850
876.864	0.0140893
876.943	0.0140871
877.021	0.0141587
877.099	0.0142197
877.177	0.0140404
877.255	0.0141487
877.333	0.0141319
877.411	0.0140269
877.489	0.0139787
877.568	0.0140929
877.646	0.0140402
877.724	0.0140316
877.802	0.0141805
877.880	0.0141859
877.958	0.0140514
878.036	0.0139126
878.114	0.0140171
878.193	0.0140653
878.271	0.0140110
878.349	0.0140160
878.427	0.0138494
878.505	0.0138390
878.583	0.0139714
878.661	0.0140074
878.739	0.0140524
878.818	0.0139442
878.896	0.0139250
878.974	0.0139024
879.052	0.0139889
879.130	0.0139042
879.208	0.0140200
879.286	0.0137857
879.364	0.0137332
879.443	0.0139421
879.521	0.0139630
879.599	0.0138581
879.677	0.0138515
879.755	0.0138618
879.833	0.0138844
879.911	0.0139139
879.989	0.0138353
880.068	0.0137760
880.146	0.0137495
880.224	0.0138586
880.302	0.0138365
880.380	0.0139190
880.458	0.0139080
880.536	0.0139814
880.614	0.0138731
880.693	0.0139101
880.771	0.0139614
880.849	0.0139407
880.927	0.0138574
881.005	0.0140156
881.083	0.0139371
881.161	0.0141125
881.239	0.0139558
881.318	0.0140102
881.396	0.0141096
881.474	0.0141087
881.552	0.0140917
881.630	0.0140548
881.708	0.0140633
881.786	0.0142004
881.864	0.0142086
881.943	0.0138564
882.021	0.0139950
882.099	0.0141351
882.177	0.0141624
882.255	0.0139972
882.333	0.0140572
882.411	0.0140740
882.489	0.0140520
882.568	0.0139982
882.646	0.0139491
882.724	0.0139212
882.802	0.0141165
882.880	0.0140627
882.958	0.0139722
883.036	0.0140436
883.114	0.0139916
883.193	0.0140334
883.271	0.0140217
883.349	0.0138908
883.427	0.0139195
883.505	0.0138395
883.583	0.0139770
883.661	0.0139803
883.739	0.0139834
883.818	0.0140430
883.896	0.0138957
883.974	0.0140243
884.052	0.0141022
884.130	0.0140157
884.208	0.0140274
884.286	0.0140118
884.364	0.0140123
884.443	0.0140736
884.521	0.0141061
884.599	0.0140691
884.677	0.0139907
884.755	0.0142066
884.833	0.0141468
884.911	0.0141195
884.989	0.0142352
885.068	0.0141840
885.146	0.0140645
885.224	0.0141895
885.302	0.0142429
885.380	0.0142146
885.458	0.0140723
885.536	0.0141165
885.614	0.0141084
885.693	0.0140808
885.771	0.0140889
885.849	0.0139486
885.927	0.0139962
886.005	0.0139368
886.083	0.0140440
886.161	0.0140308
886.239	0.0139832
886.318	0.0138278
886.396	0.0139471
886.474	0.0139066
886.552	0.0138871
886.630	0.0138638
886.708	0.0138774
886.786	0.0138405
886.864	0.0138532
886.943	0.0138474
887.021	0.0137170
887.099	0.0137656
887.177	0.0137872
887.255	0.0138323
887.333	0.0137386
887.411	0.0138512
887.489	0.0138810
887.568	0.0140421
887.646	0.0139906
887.724	0.0140260
887.802	0.0141749
887.880	0.0140657
887.958	0.0143334
888.036	0.0141715
888.114	0.0142621
888.193	0.0142297
888.271	0.0142313
888.349	0.0140466
888.427	0.0142850
888.505	0.0141933
888.583	0.0141846
888.661	0.0141261
888.739	0.0142896
888.818	0.0141808
888.896	0.0143203
888.974	0.0141125
889.052	0.0141563
889.130	0.0141393
889.208	0.0139860
889.286	0.0140571
889.364	0.0140427
889.443	0.0139738
889.521	0.0140350
889.599	0.0139985
889.677	0.0138139
889.755	0.0137377
889.833	0.0139256
889.911	0.0140046
889.989	0.0137698
890.068	0.0136630
890.146	0.0138541
890.224	0.0137170
890.302	0.0136483
890.380	0.0137021
890.458	0.0137943
890.536	0.0137933
890.614	0.0138307
890.693	0.0138023
890.771	0.0135749
890.849	0.0135849
890.927	0.0135325
891.005	0.0135957
891.083	0.0138403
891.161	0.0138367
891.239	0.0138139
891.318	0.0136225
891.396	0.0137421
891.474	0.0138313
891.552	0.0137479
891.630	0.0137585
891.708	0.0138435
891.786	0.0138453
891.864	0.0136921
891.943	0.0138443
892.021	0.0138677
892.099	0.0139780
892.177	0.0138538
892.255	0.0137997
892.333	0.0138683
892.411	0.0138074
892.489	0.0138065
892.568	0.0138947
892.646	0.0139396
892.724	0.0137634
892.802	0.0138612
892.880	0.0138748
892.958	0.0138091
893.036	0.0137648
893.114	0.0136879
893.193	0.0137363
893.271	0.0138608
893.349	0.0138129
893.427	0.0137560
893.505	0.0136851
893.583	0.0136963
893.661	0.0136958
893.739	0.0136555
893.818	0.0136044
893.896	0.0137099
893.974	0.0137917
894.052	0.0138617
894.130	0.0136890
894.208	0.0136130
894.286	0.0135625
894.364	0.0137265
894.443	0.0137476
894.521	0.0137028
894.599	0.0139316
894.677	0.0137386
894.755	0.0137616
894.833	0.0138221
894.911	0.0139595
894.989	0.0139170
895.068	0.0137322
895.146	0.0138766
895.224	0.0139565
895.302	0.0140048
895.380	0.0138754
895.458	0.0139786
895.536	0.0141123
895.614	0.0141446
895.693	0.0141729
895.771	0.0140522
895.849	0.0139141
895.927	0.0140536
896.005	0.0141021
896.083	0.0140509
896.161	0.0140249
896.239	0.0139270
896.318	0.0140006
896.396	0.0139796
896.474	0.0138427
896.552	0.0139455
896.630	0.0139974
896.708	0.0138812
896.786	0.0139709
896.864	0.0140529
896.943	0.0139789
897.021	0.0138470
897.099	0.0138168
897.177	0.0139730
897.255	0.0138747
897.333	0.0138194
897.411	0.0138716
897.489	0.0138863
897.568	0.0137633
897.646	0.0137340
897.724	0.0138775
897.802	0.0137661
897.880	0.0137776
897.958	0.0137199
898.036	0.0137648
898.114	0.0137893
898.193	0.0138515
898.271	0.0137254
898.349	0.0138821
898.427	0.0137621
898.505	0.0138251
898.583	0.0137244
898.661	0.0136676
898.739	0.0138255
898.818	0.0136331
898.896	0.0135668
898.974	0.0137611
899.052	0.0136343
899.130	0.0135543
899.208	0.0135410
899.286	0.0135770
899.364	0.0136681
899.443	0.0137138
899.521	0.0135638
899.599	0.0137486
899.677	0.0137442
899.755	0.0137767
899.833	0.0137187
899.911	0.0137186
899.989	0.0136208
900.068	0.0138673
900.146	0.0138852
900.224	0.0139331
900.302	0.0139371
900.380	0.0137816
900.458	0.0139595
900.536	0.0141259
900.614	0.0140476
900.693	0.0140942
900.771	0.0140649
900.849	0.0141003
900.927	0.0140951
901.005	0.0140637
901.083	0.0141097
901.161	0.0141151
901.239	0.0141314
901.318	0.0139678
901.396	0.0139948
901.474	0.0142382
901.552	0.0140827
901.630	0.0139465
901.708	0.0142236
901.786	0.0141663
901.864	0.0140149
901.943	0.0141879
902.021	0.0141666
902.099	0.0141071
902.177	0.0141652
902.255	0.0142396
902.333	0.0141059
902.411	0.0141460
902.489	0.0141005
902.568	0.0140398
902.646	0.0142126
902.724	0.0140736
902.802	0.0138764
902.880	0.0141299
902.958	0.0139700
903.036	0.0139619
903.114	0.0140070
903.193	0.0141453
903.271	0.0140549
903.349	0.0140777
903.427	0.0139880
903.505	0.0139053
903.583	0.0138760
903.661	0.0138548
903.739	0.0139030
903.818	0.0137319
903.896	0.0139139
903.974	0.0140154
904.052	0.0138451
904.130	0.0138401
904.208	0.0138780
904.286	0.0137763
904.364	0.0138083
904.443	0.0138090
904.521	0.0137218
904.599	0.0137606
904.677	0.0137357
904.755	0.0136726
904.833	0.0137878
904.911	0.0138412
904.989	0.0139242
905.068	0.0138062
905.146	0.0138416
905.224	0.0139486
905.302	0.0138902
905.380	0.0138630
905.458	0.0140020
905.536	0.0140517
905.614	0.0139557
905.693	0.0141585
905.771	0.0140376
905.849	0.0140541
905.927	0.0140816
906.005	0.0141344
906.083	0.0142453
906.161	0.0141718
906.239	0.0141463
906.318	0.0141908
906.396	0.0142209
906.474	0.0142541
906.552	0.0141208
906.630	0.0141373
906.708	0.0141564
906.786	0.0142259
906.864	0.0142262
906.943	0.0141586
907.021	0.0140544
907.099	0.0141740
907.177	0.0140493
907.255	0.0139924
907.333	0.0140747
907.411	0.0140475
907.489	0.0139088
907.568	0.0139670
907.646	0.0139253
907.724	0.0138716
907.802	0.0139653
907.880	0.0139648
907.958	0.0139403
908.036	0.0138688
908.114	0.0138723
908.193	0.0139042
908.271	0.0138754
908.349	0.0138644
908.427	0.0138920
908.505	0.0139619
908.583	0.0139071
908.661	0.0138114
908.739	0.0137517
908.818	0.0139041
908.896	0.0139260
908.974	0.0137113
909.052	0.0139645
909.130	0.0138787
909.208	0.0137055
909.286	0.0138462
909.364	0.0139728
909.443	0.0138454
909.521	0.0139388
909.599	0.0139378
909.677	0.0138387
909.755	0.0138417
909.833	0.0139271
909.911	0.0139451
909.989	0.0140408
910.068	0.0140007
910.146	0.0137679
910.224	0.0139687
910.302	0.0140243
910.380	0.0138905
910.458	0.0137741
910.536	0.0138644
910.614	0.0140487
910.693	0.0138653
910.771	0.0139828
910.849	0.0139729
910.927	0.0140968
911.005	0.0138998
911.083	0.0140144
911.161	0.0139187
911.239	0.0140023
911.318	0.0139174
911.396	0.0138992
911.474	0.0139087
911.552	0.0140273
911.630	0.0139766
911.708	0.0139899
911.786	0.0140271
911.864	0.0139223
911.943	0.0139234
912.021	0.0139302
912.099	0.0139912
912.177	0.0138727
912.255	0.0138594
912.333	0.0139296
912.411	0.0138087
912.489	0.0139288
912.568	0.0138908
912.646	0.0139550
912.724	0.0139394
912.802	0.0138822
912.880	0.0140224
912.958	0.0139552
913.036	0.0140492
913.114	0.0140131
913.193	0.0138701
913.271	0.0139481
913.349	0.0141241
913.427	0.0141046
913.505	0.0140168
913.583	0.0139722
913.661	0.0141634
913.739	0.0141722
913.818	0.0140265
913.896	0.0140250
913.974	0.0140782
914.052	0.0142008
914.130	0.0141097
914.208	0.0139591
914.286	0.0142516
914.364	0.0141125
914.443	0.0138488
914.521	0.0140891
914.599	0.0142110
914.677	0.0142051
914.755	0.0141808
914.833	0.0139283
914.911	0.0139840
914.989	0.0140096
915.068	0.0140575
915.146	0.0140092
915.224	0.0140163
915.302	0.0141240
915.380	0.0140182
915.458	0.0140333
915.536	0.0140130
915.614	0.0140383
915.693	0.0139594
915.771	0.0138786
915.849	0.0139433
915.927	0.0139307
916.005	0.0140375
916.083	0.0140175
916.161	0.0139566
916.239	0.0139248
916.318	0.0139369
916.396	0.0140619
916.474	0.0141351
916.552	0.0140701
916.630	0.0139178
916.708	0.0141041
916.786	0.0140764
916.864	0.0141920
916.943	0.0140822
917.021	0.0139580
917.099	0.0139544
917.177	0.0138860
917.255	0.0140083
917.333	0.0139853
917.411	0.0139619
917.489	0.0138328
917.568	0.0139320
917.646	0.0138908
917.724	0.0140150
917.802	0.0139142
917.880	0.0139091
917.958	0.0138708
918.036	0.0138540
918.114	0.0138248
918.193	0.0138599
918.271	0.0137621
918.349	0.0139327
918.427	0.0139427
918.505	0.0138823
918.583	0.0138081
918.661	0.0138079
918.739	0.0137692
918.818	0.0137003
918.896	0.0138178
918.974	0.0136227
919.052	0.0138360
919.130	0.0137831
919.208	0.0136173
919.286	0.0137644
919.364	0.0137893
919.443	0.0136218
919.521	0.0136788
919.599	0.0138170
919.677	0.0137424
919.755	0.0137685
919.833	0.0138502
919.911	0.0137761
919.989	0.0138689
920.068	0.0138905
920.146	0.0139450
920.224	0.0138157
920.302	0.0139350
920.380	0.0138068
920.458	0.0138992
920.536	0.0139987
920.614	0.0139319
920.693	0.0137521
920.771	0.0139594
920.849	0.0139664
920.927	0.0138297
921.005	0.0137585
921.083	0.0138988
921.161	0.0138592
921.239	0.0138190
921.318	0.0139165
921.396	0.0137296
921.474	0.0139230
921.552	0.0137965
921.630	0.0137936
921.708	0.0138779
921.786	0.0139398
921.864	0.0138695
921.943	0.0137209
922.021	0.0139796
922.099	0.0138243
922.177	0.0139489
922.255	0.0139620
922.333	0.0137714
922.411	0.0138380
922.489	0.0139339
922.568	0.0139456
922.646	0.0138931
922.724	0.0140655
922.802	0.0140088
922.880	0.0139887
922.958	0.0139364
923.036	0.0139880
923.114	0.0138837
923.193	0.0138478
923.271	0.0139301
923.349	0.0138340
923.427	0.0138653
923.505	0.0138383
923.583	0.0139697
923.661	0.0138745
923.739	0.0138145
923.818	0.0138049
923.896	0.0138827
923.974	0.0139293
924.052	0.0139793
924.130	0.0138068
924.208	0.0138692
924.286	0.0138716
924.364	0.0139035
924.443	0.0139281
924.521	0.0139281
924.599	0.0139374
924.677	0.0138625
924.755	0.0141388
924.833	0.0139648
924.911	0.0139143
924.989	0.0139959
925.068	0.0140611
925.146	0.0140903
925.224	0.0140990
925.302	0.0141170
925.380	0.0141361
925.458	0.0142770
925.536	0.0139716
925.614	0.0140849
925.693	0.0140621
925.771	0.0140740
925.849	0.0140636
925.927	0.0139977
926.005	0.0142156
926.083	0.0140678
926.161	0.0139400
926.239	0.0140596
926.318	0.0141035
926.396	0.0140137
926.474	0.0140929
926.552	0.0140532
926.630	0.0138960
926.708	0.0139684
926.786	0.0140063
926.864	0.0140205
926.943	0.0141209
927.021	0.0139142
927.099	0.0138859
927.177	0.0138578
927.255	0.0139632
927.333	0.0138169
927.411	0.0138677
927.489	0.0138845
927.568	0.0139118
927.646	0.0138268
927.724	0.0136729
927.802	0.0138165
927.880	0.0137887
927.958	0.0137543
928.036	0.0138048
928.114	0.0138438
928.193	0.0137393
928.271	0.0138808
928.349	0.0138547
928.427	0.0137774
928.505	0.0138563
928.583	0.0138286
928.661	0.0139767
928.739	0.0138621
928.818	0.0138518
928.896	0.0139621
928.974	0.0140195
929.052	0.0139487
929.130	0.0139237
929.208	0.0139544
929.286	0.0138927
929.364	0.0138473
929.443	0.0139627
929.521	0.0139337
929.599	0.0139251
929.677	0.0138483
929.755	0.0139510
929.833	0.0139410
929.911	0.0139420
929.989	0.0140075
930.068	0.0137632
930.146	0.0139848
930.224	0.0138502
930.302	0.0138704
930.380	0.0139211
930.458	0.0138248
930.536	0.0139497
930.614	0.0138915
930.693	0.0138577
930.771	0.0137928
930.849	0.0137916
930.927	0.0138123
931.005	0.0139541
931.083	0.0138980
931.161	0.0137720
931.239	0.0138013
931.318	0.0139753
931.396	0.0139011
931.474	0.0138572
931.552	0.0139084
931.630	0.0139211
931.708	0.0138735
931.786	0.0139407
931.864	0.0139616
931.943	0.0140008
932.021	0.0137918
932.099	0.0139496
932.177	0.0139597
932.255	0.0140423
932.333	0.0140288
932.411	0.0141077
932.489	0.0140009
932.568	0.0141359
932.646	0.0139507
932.724	0.0138908
932.802	0.0140243
932.880	0.0140862
932.958	0.0139667
933.036	0.0140546
933.114	0.0138423
933.193	0.0139315
933.271	0.0140473
933.349	0.0139877
933.427	0.0137630
933.505	0.0138762
933.583	0.0138232
933.661	0.0139035
933.739	0.0137454
933.818	0.0138853
933.896	0.0138241
933.974	0.0139104
934.052	0.0139365
934.130	0.0139148
934.208	0.0138728
934.286	0.0138223
934.364	0.0139688
934.443	0.0137004
934.521	0.0138557
934.599	0.0138559
934.677	0.0138574
934.755	0.0138964
934.833	0.0137649
934.911	0.0137256
934.989	0.0140266
935.068	0.0140702
935.146	0.0139071
935.224	0.0140501
935.302	0.0141099
935.380	0.0140456
935.458	0.0141054
935.536	0.0139398
935.614	0.0139855
935.693	0.0139304
935.771	0.0140550
935.849	0.0140300
935.927	0.0140530
936.005	0.0139862
936.083	0.0140086
936.161	0.0140395
936.239	0.0139922
936.318	0.0140797
936.396	0.0140748
936.474	0.0141245
936.552	0.0142197
936.630	0.0140261
936.708	0.0139783
936.786	0.0140637
936.864	0.0141045
936.943	0.0141117
937.021	0.0142555
937.099	0.0140882
937.177	0.0140052
937.255	0.0141087
937.333	0.0143784
937.411	0.0142675
937.489	0.0141472
937.568	0.0140412
937.646	0.0141995
937.724	0.0142577
937.802	0.0142452
937.880	0.0141915
937.958	0.0142341
938.036	0.0142698
938.114	0.0142140
938.193	0.0140084
938.271	0.0140450
938.349	0.0140301
938.427	0.0141840
938.505	0.0140709
938.583	0.0142778
938.661	0.0141566
938.739	0.0140436
938.818	0.0139401
938.896	0.0139532
938.974	0.0138928
939.052	0.0140075
939.130	0.0140024
939.208	0.0139919
939.286	0.0139655
939.364	0.0139016
939.443	0.0138884
939.521	0.0140482
939.599	0.0138645
939.677	0.0137988
939.755	0.0140437
939.833	0.0139123
939.911	0.0137699
939.989	0.0138928
940.068	0.0138978
940.146	0.0138302
940.224	0.0139358
940.302	0.0139789
940.380	0.0138544
940.458	0.0138550
940.536	0.0140081
940.614	0.0138656
940.693	0.0140129
940.771	0.0139162
940.849	0.0138494
940.927	0.0139109
941.005	0.0139598
941.083	0.0139996
941.161	0.0139150
941.239	0.0140966
941.318	0.0140592
941.396	0.0139818
941.474	0.0140915
941.552	0.0140714
941.630	0.0139882
941.708	0.0141087
941.786	0.0142031
941.864	0.0141408
941.943	0.0140900
942.021	0.0139706
942.099	0.0141749
942.177	0.0140652
942.255	0.0141280
942.333	0.0141671
942.411	0.0141042
942.489	0.0141521
942.568	0.0140150
942.646	0.0141664
942.724	0.0140401
942.802	0.0140308
942.880	0.0140472
942.958	0.0141021
943.036	0.0141383
943.114	0.0139751
943.193	0.0140073
943.271	0.0139880
943.349	0.0140566
943.427	0.0138703
943.505	0.0139330
943.583	0.0140298
943.661	0.0139988
943.739	0.0140120
943.818	0.0140313
943.896	0.0139932
943.974	0.0138686
944.052	0.0139083
944.130	0.0139889
944.208	0.0138808
944.286	0.0139832
944.364	0.0139276
944.443	0.0139668
944.521	0.0139745
944.599	0.0139796
944.677	0.0139559
944.755	0.0140178
944.833	0.0139945
944.911	0.0140965
944.989	0.0140226
945.068	0.0138504
945.146	0.0140038
945.224	0.0140143
945.302	0.0140262
945.380	0.0141481
945.458	0.0140514
945.536	0.0138978
945.614	0.0140372
945.693	0.0141430
945.771	0.0140366
945.849	0.0141019
945.927	0.0140304
946.005	0.0138755
946.083	0.0139783
946.161	0.0139925
946.239	0.0140726
946.318	0.0139307
946.396	0.0139554
946.474	0.0139561
946.552	0.0139671
946.630	0.0138290
946.708	0.0140182
946.786	0.0140201
946.864	0.0140228
946.943	0.0137775
947.021	0.0137427
947.099	0.0138685
947.177	0.0137855
947.255	0.0137477
947.333	0.0137073
947.411	0.0137965
947.489	0.0138077
947.568	0.0136880
947.646	0.0136747
947.724	0.0136671
947.802	0.0137341
947.880	0.0136036
947.958	0.0137010
948.036	0.0136268
948.114	0.0134928
948.193	0.0135831
948.271	0.0137646
948.349	0.0139013
948.427	0.0137994
948.505	0.0137420
948.583	0.0136701
948.661	0.0137003
948.739	0.0138638
948.818	0.0138717
948.896	0.0139091
948.974	0.0139065
949.052	0.0138561
949.130	0.0139404
949.208	0.0139984
949.286	0.0140497
949.364	0.0139419
949.443	0.0138502
949.521	0.0140775
949.599	0.0140111
949.677	0.0139075
949.755	0.0141548
949.833	0.0140246
949.911	0.0140482
949.989	0.0139343
950.068	0.0139784
950.146	0.0140506
950.224	0.0141138
950.302	0.0141785
950.380	0.0139776
950.458	0.0140821
950.536	0.0141332
950.614	0.0139573
950.693	0.0139702
950.771	0.0139835
950.849	0.0140244
950.927	0.0140975
951.005	0.0139925
951.083	0.0140789
951.161	0.0140162
951.239	0.0139789
951.318	0.0138577
951.396	0.0140260
951.474	0.0139742
951.552	0.0139571
951.630	0.0139232
951.708	0.0138802
951.786	0.0138539
951.864	0.0138875
951.943	0.0138442
952.021	0.0138865
952.099	0.0139019
952.177	0.0138290
952.255	0.0138853
952.333	0.0138667
952.411	0.0139200
952.489	0.0138514
952.568	0.0138721
952.646	0.0139581
952.724	0.0139293
952.802	0.0137389
952.880	0.0139883
952.958	0.0139967
953.036	0.0139338
953.114	0.0139635
953.193	0.0139576
953.271	0.0139480
953.349	0.0139733
953.427	0.0139557
953.505	0.0139610
953.583	0.0138919
953.661	0.0137907
953.739	0.0138684
953.818	0.0140660
953.896	0.0139548
953.974	0.0139371
954.052	0.0139362
954.130	0.0139071
954.208	0.0139330
954.286	0.0139312
954.364	0.0139162
954.443	0.0138734
954.521	0.0139590
954.599	0.0139188
954.677	0.0139310
954.755	0.0138647
954.833	0.0139363
954.911	0.0139792
954.989	0.0140588
955.068	0.0140839
955.146	0.0140451
955.224	0.0138646
955.302	0.0139076
955.380	0.0140034
955.458	0.0140346
955.536	0.0139207
955.614	0.0140636
955.693	0.0139520
955.771	0.0140143
955.849	0.0138174
955.927	0.0138045
956.005	0.0139423
956.083	0.0139977
956.161	0.0139960
956.239	0.0138367
956.318	0.0138748
956.396	0.0138996
956.474	0.0139965
956.552	0.0138740
956.630	0.0139513
956.708	0.0138994
956.786	0.0139542
956.864	0.0139996
956.943	0.0139331
957.021	0.0140699
957.099	0.0139963
957.177	0.0140772
957.255	0.0140623
957.333	0.0140678
957.411	0.0140877
957.489	0.0141661
957.568	0.0141366
957.646	0.0140232
957.724	0.0140507
957.802	0.0142642
957.880	0.0141705
957.958	0.0139224
958.036	0.0140978
958.114	0.0140019
958.193	0.0141258
958.271	0.0141661
958.349	0.0140881
958.427	0.0140202
958.505	0.0140714
958.583	0.0140504
958.661	0.0141863
958.739	0.0140860
958.818	0.0139489
958.896	0.0139543
958.974	0.0139157
959.052	0.0139565
959.130	0.0140450
959.208	0.0138819
959.286	0.0138409
959.364	0.0137597
959.443	0.0139832
959.521	0.0140614
959.599	0.0138850
959.677	0.0138947
959.755	0.0139117
959.833	0.0139606
959.911	0.0140052
