05/07/2022	17:45:43	Ver.	4.1	UNKNOWN
Optical Delay	639.989416	Delta X		0.078125	Sweeps	1	Scan Rate	0/0
Coordinates	Axis 1	NaN	Axis 2	NaN	Axis 3	NaN	Axis 4	NaN	Axis 5	NaN	Axis 6	0.000000
TX Power	0.000000	RX Power	0.000000

639.989	0.0135441
640.068	0.0136425
640.146	0.0136851
640.224	0.0134528
640.302	0.0135258
640.380	0.0135224
640.458	0.0134818
640.536	0.0136034
640.614	0.0134956
640.693	0.0135461
640.771	0.0133414
640.849	0.0133849
640.927	0.0135211
641.005	0.0135391
641.083	0.0134245
641.161	0.0133602
641.239	0.0133872
641.318	0.0134325
641.396	0.0135851
641.474	0.0133668
641.552	0.0132617
641.630	0.0134203
641.708	0.0133481
641.786	0.0135253
641.864	0.0134139
641.943	0.0134643
642.021	0.0133926
642.099	0.0135185
642.177	0.0135440
642.255	0.0136208
642.333	0.0134811
642.411	0.0135821
642.489	0.0135555
642.568	0.0136853
642.646	0.0135860
642.724	0.0137501
642.802	0.0138185
642.880	0.0136948
642.958	0.0137304
643.036	0.0137043
643.114	0.0136116
643.193	0.0135885
643.271	0.0136491
643.349	0.0135553
643.427	0.0135778
643.505	0.0134810
643.583	0.0134841
643.661	0.0135356
643.739	0.0133731
643.818	0.0133296
643.896	0.0133302
643.974	0.0133565
644.052	0.0134325
644.130	0.0133617
644.208	0.0134180
644.286	0.0133704
644.364	0.0133861
644.443	0.0134962
644.521	0.0134164
644.599	0.0136139
644.677	0.0136830
644.755	0.0136557
644.833	0.0138113
644.911	0.0138990
644.989	0.0137682
645.068	0.0138673
645.146	0.0139230
645.224	0.0140417
645.302	0.0139970
645.380	0.0142002
645.458	0.0142243
645.536	0.0140710
645.614	0.0141569
645.693	0.0143148
645.771	0.0144010
645.849	0.0142011
645.927	0.0141981
646.005	0.0141591
646.083	0.0140479
646.161	0.0140359
646.239	0.0138756
646.318	0.0138591
646.396	0.0138151
646.474	0.0138155
646.552	0.0136407
646.630	0.0135249
646.708	0.0133633
646.786	0.0134871
646.864	0.0133792
646.943	0.0133038
647.021	0.0131451
647.099	0.0132663
647.177	0.0132597
647.255	0.0131523
647.333	0.0131693
647.411	0.0132908
647.489	0.0132702
647.568	0.0133022
647.646	0.0132342
647.724	0.0133558
647.802	0.0133961
647.880	0.0132936
647.958	0.0134193
648.036	0.0136533
648.114	0.0136285
648.193	0.0135446
648.271	0.0136504
648.349	0.0137492
648.427	0.0139314
648.505	0.0139265
648.583	0.0141354
648.661	0.0140211
648.739	0.0140773
648.818	0.0140488
648.896	0.0142258
648.974	0.0141763
649.052	0.0143006
649.130	0.0141721
649.208	0.0142113
649.286	0.0142127
649.364	0.0141842
649.443	0.0140565
649.521	0.0142880
649.599	0.0143064
649.677	0.0141441
649.755	0.0141061
649.833	0.0141425
649.911	0.0139993
649.989	0.0138741
650.068	0.0140093
650.146	0.0138097
650.224	0.0137393
650.302	0.0136054
650.380	0.0137358
650.458	0.0135058
650.536	0.0133234
650.614	0.0134587
650.693	0.0134959
650.771	0.0133327
650.849	0.0132573
650.927	0.0132333
651.005	0.0131296
651.083	0.0131081
651.161	0.0132097
651.239	0.0131953
651.318	0.0130259
651.396	0.0129324
651.474	0.0129825
651.552	0.0128735
651.630	0.0129277
651.708	0.0130148
651.786	0.0129887
651.864	0.0130257
651.943	0.0131770
652.021	0.0132079
652.099	0.0131833
652.177	0.0133257
652.255	0.0134542
652.333	0.0137965
652.411	0.0138353
652.489	0.0139317
652.568	0.0140960
652.646	0.0142030
652.724	0.0143599
652.802	0.0145576
652.880	0.0145309
652.958	0.0146137
653.036	0.0149258
653.114	0.0150813
653.193	0.0150687
653.271	0.0149471
653.349	0.0150444
653.427	0.0150269
653.505	0.0150222
653.583	0.0150294
653.661	0.0149351
653.739	0.0147975
653.818	0.0146543
653.896	0.0146682
653.974	0.0146323
654.052	0.0143852
654.130	0.0143079
654.208	0.0139666
654.286	0.0138841
654.364	0.0135244
654.443	0.0133005
654.521	0.0130676
654.599	0.0130538
654.677	0.0128504
654.755	0.0124318
654.833	0.0123782
654.911	0.0122162
654.989	0.0121588
655.068	0.0120215
655.146	0.0119781
655.224	0.0119934
655.302	0.0118486
655.380	0.0118825
655.458	0.0119450
655.536	0.0118885
655.614	0.0119057
655.693	0.0120225
655.771	0.0121431
655.849	0.0122514
655.927	0.0123382
656.005	0.0125546
656.083	0.0128020
656.161	0.0130241
656.239	0.0132861
656.318	0.0133710
656.396	0.0137074
656.474	0.0139808
656.552	0.0141647
656.630	0.0143991
656.708	0.0145749
656.786	0.0148291
656.864	0.0151119
656.943	0.0151746
657.021	0.0153239
657.099	0.0154369
657.177	0.0156290
657.255	0.0156800
657.333	0.0155756
657.411	0.0159301
657.489	0.0158522
657.568	0.0159171
657.646	0.0157800
657.724	0.0157816
657.802	0.0155766
657.880	0.0154391
657.958	0.0153291
658.036	0.0151532
658.114	0.0149821
658.193	0.0147855
658.271	0.0145942
658.349	0.0142553
658.427	0.0139644
658.505	0.0138287
658.583	0.0134084
658.661	0.0130708
658.739	0.0129239
658.818	0.0124724
658.896	0.0121391
658.974	0.0119672
659.052	0.0117082
659.130	0.0115098
659.208	0.0114008
659.286	0.0111967
659.364	0.0111419
659.443	0.0110191
659.521	0.0109045
659.599	0.0110267
659.677	0.0111317
659.755	0.0111367
659.833	0.0111171
659.911	0.0113067
659.989	0.0116322
660.068	0.0116749
660.146	0.0119383
660.224	0.0122121
660.302	0.0124593
660.380	0.0128617
660.458	0.0129770
660.536	0.0132809
660.614	0.0135692
660.693	0.0139371
660.771	0.0143195
660.849	0.0145273
660.927	0.0147424
661.005	0.0150908
661.083	0.0153398
661.161	0.0153683
661.239	0.0157698
661.318	0.0160120
661.396	0.0161744
661.474	0.0163718
661.552	0.0163066
661.630	0.0165453
661.708	0.0167052
661.786	0.0167213
661.864	0.0166263
661.943	0.0165915
662.021	0.0164796
662.099	0.0162177
662.177	0.0162196
662.255	0.0158597
662.333	0.0156257
662.411	0.0154819
662.489	0.0151143
662.568	0.0148190
662.646	0.0145790
662.724	0.0140429
662.802	0.0137225
662.880	0.0135094
662.958	0.0130159
663.036	0.0127750
663.114	0.0124526
663.193	0.0120948
663.271	0.0117919
663.349	0.0114085
663.427	0.0110902
663.505	0.0108521
663.583	0.0106171
663.661	0.0104420
663.739	0.0103196
663.818	0.0101019
663.896	0.0101153
663.974	0.0102086
664.052	0.0102192
664.130	0.0102500
664.208	0.0105875
664.286	0.0107185
664.364	0.0109399
664.443	0.0113301
664.521	0.0116113
664.599	0.0119589
664.677	0.0123401
664.755	0.0129051
664.833	0.0131963
664.911	0.0135064
664.989	0.0139370
665.068	0.0143740
665.146	0.0149464
665.224	0.0151574
665.302	0.0154023
665.380	0.0158157
665.458	0.0160371
665.536	0.0162098
665.614	0.0165804
665.693	0.0166182
665.771	0.0166807
665.849	0.0169064
665.927	0.0168068
666.005	0.0168675
666.083	0.0166183
666.161	0.0166054
666.239	0.0166582
666.318	0.0163694
666.396	0.0161429
666.474	0.0158932
666.552	0.0157192
666.630	0.0155484
666.708	0.0153326
666.786	0.0150295
666.864	0.0147939
666.943	0.0144983
667.021	0.0141444
667.099	0.0138596
667.177	0.0136584
667.255	0.0132337
667.333	0.0129660
667.411	0.0128896
667.489	0.0125634
667.568	0.0123526
667.646	0.0121523
667.724	0.0120830
667.802	0.0117242
667.880	0.0115790
667.958	0.0113286
668.036	0.0113908
668.114	0.0113293
668.193	0.0112680
668.271	0.0113146
668.349	0.0111241
668.427	0.0111357
668.505	0.0112041
668.583	0.0113486
668.661	0.0114427
668.739	0.0115981
668.818	0.0117268
668.896	0.0119524
668.974	0.0121199
669.052	0.0123255
669.130	0.0127787
669.208	0.0129015
669.286	0.0130569
669.364	0.0134557
669.443	0.0137673
669.521	0.0141698
669.599	0.0144968
669.677	0.0145341
669.755	0.0147580
669.833	0.0152592
669.911	0.0152627
669.989	0.0153319
670.068	0.0154425
670.146	0.0156450
670.224	0.0157628
670.302	0.0159346
670.380	0.0158874
670.458	0.0159308
670.536	0.0157024
670.614	0.0156665
670.693	0.0155279
670.771	0.0153358
670.849	0.0151073
670.927	0.0148696
671.005	0.0146835
671.083	0.0145075
671.161	0.0142978
671.239	0.0140364
671.318	0.0136896
671.396	0.0133516
671.474	0.0132170
671.552	0.0130811
671.630	0.0129509
671.708	0.0128555
671.786	0.0126013
671.864	0.0124182
671.943	0.0123636
672.021	0.0123217
672.099	0.0123415
672.177	0.0124415
672.255	0.0125142
672.333	0.0124040
672.411	0.0125174
672.489	0.0126393
672.568	0.0127782
672.646	0.0129889
672.724	0.0130384
672.802	0.0130474
672.880	0.0132043
672.958	0.0134282
673.036	0.0135241
673.114	0.0136540
673.193	0.0136102
673.271	0.0137215
673.349	0.0139906
673.427	0.0140718
673.505	0.0140260
673.583	0.0139964
673.661	0.0140087
673.739	0.0140598
673.818	0.0141156
673.896	0.0139304
673.974	0.0138399
674.052	0.0137839
674.130	0.0138601
674.208	0.0135235
674.286	0.0136582
674.364	0.0136107
674.443	0.0135735
674.521	0.0135635
674.599	0.0134364
674.677	0.0133233
674.755	0.0133642
674.833	0.0132549
674.911	0.0131926
674.989	0.0130997
675.068	0.0132906
675.146	0.0132200
675.224	0.0131166
675.302	0.0131889
675.380	0.0132120
675.458	0.0131660
675.536	0.0132058
675.614	0.0131781
675.693	0.0132784
675.771	0.0133239
675.849	0.0133147
675.927	0.0132813
676.005	0.0133329
676.083	0.0134919
676.161	0.0133646
676.239	0.0136028
676.318	0.0137212
676.396	0.0137578
676.474	0.0138393
676.552	0.0139211
676.630	0.0139778
676.708	0.0139969
676.786	0.0140246
676.864	0.0141309
676.943	0.0142105
677.021	0.0142812
677.099	0.0142407
677.177	0.0142754
677.255	0.0144352
677.333	0.0143908
677.411	0.0144624
677.489	0.0144588
677.568	0.0145552
677.646	0.0145154
677.724	0.0143442
677.802	0.0144070
677.880	0.0144775
677.958	0.0146469
678.036	0.0145792
678.114	0.0144227
678.193	0.0145097
678.271	0.0143995
678.349	0.0143623
678.427	0.0142313
678.505	0.0141461
678.583	0.0141252
678.661	0.0141058
678.739	0.0138928
678.818	0.0137794
678.896	0.0136434
678.974	0.0134619
679.052	0.0133920
679.130	0.0132026
679.208	0.0130630
679.286	0.0129428
679.364	0.0128709
679.443	0.0127056
679.521	0.0124966
679.599	0.0124202
679.677	0.0123742
679.755	0.0122256
679.833	0.0122210
679.911	0.0121294
679.989	0.0120630
680.068	0.0121217
680.146	0.0121712
680.224	0.0122967
680.302	0.0123965
680.380	0.0124996
680.458	0.0125685
680.536	0.0126870
680.614	0.0129465
680.693	0.0130844
680.771	0.0132951
680.849	0.0135131
680.927	0.0136066
681.005	0.0139350
681.083	0.0140205
681.161	0.0140811
681.239	0.0143452
681.318	0.0146043
681.396	0.0147503
681.474	0.0147916
681.552	0.0149271
681.630	0.0149566
681.708	0.0150163
681.786	0.0149686
681.864	0.0151529
681.943	0.0151077
682.021	0.0151641
682.099	0.0152632
682.177	0.0149208
682.255	0.0149126
682.333	0.0146590
682.411	0.0146042
682.489	0.0145484
682.568	0.0143658
682.646	0.0143540
682.724	0.0141001
682.802	0.0139918
682.880	0.0138322
682.958	0.0137758
683.036	0.0135461
683.114	0.0134484
683.193	0.0134141
683.271	0.0134313
683.349	0.0133018
683.427	0.0133078
683.505	0.0133995
683.583	0.0133620
683.661	0.0132336
683.739	0.0132623
683.818	0.0133325
683.896	0.0135401
683.974	0.0134390
684.052	0.0135821
684.130	0.0135784
684.208	0.0134704
684.286	0.0135772
684.364	0.0134645
684.443	0.0135425
684.521	0.0136115
684.599	0.0136024
684.677	0.0134579
684.755	0.0134398
684.833	0.0134393
684.911	0.0132706
684.989	0.0131808
685.068	0.0131268
685.146	0.0129678
685.224	0.0128771
685.302	0.0129180
685.380	0.0126898
685.458	0.0125812
685.536	0.0124882
685.614	0.0124675
685.693	0.0125593
685.771	0.0125749
685.849	0.0126231
685.927	0.0126694
686.005	0.0126625
686.083	0.0127551
686.161	0.0130396
686.239	0.0130514
686.318	0.0131654
686.396	0.0133727
686.474	0.0134212
686.552	0.0134410
686.630	0.0135396
686.708	0.0137396
686.786	0.0137888
686.864	0.0140063
686.943	0.0139599
687.021	0.0140322
687.099	0.0142708
687.177	0.0144161
687.255	0.0143635
687.333	0.0146550
687.411	0.0145490
687.489	0.0146230
687.568	0.0146046
687.646	0.0146949
687.724	0.0147115
687.802	0.0149526
687.880	0.0148299
687.958	0.0147182
688.036	0.0148368
688.114	0.0146876
688.193	0.0145819
688.271	0.0146330
688.349	0.0146213
688.427	0.0144043
688.505	0.0144753
688.583	0.0144204
688.661	0.0144950
688.739	0.0142510
688.818	0.0141318
688.896	0.0142486
688.974	0.0140524
689.052	0.0139211
689.130	0.0140187
689.208	0.0137347
689.286	0.0137843
689.364	0.0139095
689.443	0.0137402
689.521	0.0138806
689.599	0.0135590
689.677	0.0135430
689.755	0.0137357
689.833	0.0135772
689.911	0.0134041
689.989	0.0136613
690.068	0.0135032
690.146	0.0135994
690.224	0.0133353
690.302	0.0133163
690.380	0.0132553
690.458	0.0131336
690.536	0.0130358
690.614	0.0130775
690.693	0.0129093
690.771	0.0127572
690.849	0.0127743
690.927	0.0126001
691.005	0.0124908
691.083	0.0124007
691.161	0.0122874
691.239	0.0122800
691.318	0.0124800
691.396	0.0123586
691.474	0.0123040
691.552	0.0123398
691.630	0.0125181
691.708	0.0125369
691.786	0.0127250
691.864	0.0128799
691.943	0.0128278
692.021	0.0132617
692.099	0.0135564
692.177	0.0134940
692.255	0.0138629
692.333	0.0139080
692.411	0.0141033
692.489	0.0141660
692.568	0.0144579
692.646	0.0145026
692.724	0.0148445
692.802	0.0149644
692.880	0.0151395
692.958	0.0152589
693.036	0.0153138
693.114	0.0152655
693.193	0.0153503
693.271	0.0154825
693.349	0.0154211
693.427	0.0155544
693.505	0.0156042
693.583	0.0153156
693.661	0.0152714
693.739	0.0151522
693.818	0.0150307
693.896	0.0147946
693.974	0.0145770
694.052	0.0145201
694.130	0.0143075
694.208	0.0138776
694.286	0.0139030
694.364	0.0136067
694.443	0.0132323
694.521	0.0131698
694.599	0.0129939
694.677	0.0126665
694.755	0.0125720
694.833	0.0122791
694.911	0.0122803
694.989	0.0122487
695.068	0.0121543
695.146	0.0121066
695.224	0.0118938
695.302	0.0120782
695.380	0.0119652
695.458	0.0120881
695.536	0.0121867
695.614	0.0120885
695.693	0.0122976
695.771	0.0123488
695.849	0.0124036
695.927	0.0125026
696.005	0.0125962
696.083	0.0127180
696.161	0.0129278
696.239	0.0132126
696.318	0.0132210
696.396	0.0134252
696.474	0.0136206
696.552	0.0136164
696.630	0.0137317
696.708	0.0138465
696.786	0.0140264
696.864	0.0140048
696.943	0.0141039
697.021	0.0140920
697.099	0.0141972
697.177	0.0141946
697.255	0.0140885
697.333	0.0141355
697.411	0.0141369
697.489	0.0142189
697.568	0.0141978
697.646	0.0140992
697.724	0.0141353
697.802	0.0140687
697.880	0.0138606
697.958	0.0140913
698.036	0.0138474
698.114	0.0138502
698.193	0.0138539
698.271	0.0136558
698.349	0.0137459
698.427	0.0136600
698.505	0.0136446
698.583	0.0136088
698.661	0.0134315
698.739	0.0133914
698.818	0.0134149
698.896	0.0136304
698.974	0.0135817
699.052	0.0134275
699.130	0.0132799
699.208	0.0132419
699.286	0.0134167
699.364	0.0133978
699.443	0.0134432
699.521	0.0135310
699.599	0.0135072
699.677	0.0136349
699.755	0.0134876
699.833	0.0133196
699.911	0.0134254
699.989	0.0135227
700.068	0.0133812
700.146	0.0133761
700.224	0.0134174
700.302	0.0135600
700.380	0.0134401
700.458	0.0136286
700.536	0.0135181
700.614	0.0135551
700.693	0.0137087
700.771	0.0137337
700.849	0.0137251
700.927	0.0137912
701.005	0.0136948
701.083	0.0138462
701.161	0.0139504
701.239	0.0138670
701.318	0.0138647
701.396	0.0138835
701.474	0.0137511
701.552	0.0139201
701.630	0.0140374
701.708	0.0138810
701.786	0.0137547
701.864	0.0137806
701.943	0.0138656
702.021	0.0136404
702.099	0.0134652
702.177	0.0134888
702.255	0.0135678
702.333	0.0136371
702.411	0.0136213
702.489	0.0134167
702.568	0.0133945
702.646	0.0132585
702.724	0.0132767
702.802	0.0133466
702.880	0.0132090
702.958	0.0131735
703.036	0.0131709
703.114	0.0131486
703.193	0.0130005
703.271	0.0129760
703.349	0.0129673
703.427	0.0129391
703.505	0.0127528
703.583	0.0128493
703.661	0.0126748
703.739	0.0126692
703.818	0.0125985
703.896	0.0126517
703.974	0.0125724
704.052	0.0127291
704.130	0.0127493
704.208	0.0128008
704.286	0.0128899
704.364	0.0130306
704.443	0.0131391
704.521	0.0132205
704.599	0.0133813
704.677	0.0136679
704.755	0.0136533
704.833	0.0136470
704.911	0.0138992
704.989	0.0139161
705.068	0.0139164
705.146	0.0141966
705.224	0.0145534
705.302	0.0144532
705.380	0.0145925
705.458	0.0147987
705.536	0.0145331
705.614	0.0148878
705.693	0.0150533
705.771	0.0150670
705.849	0.0150426
705.927	0.0151604
706.005	0.0152269
706.083	0.0150122
706.161	0.0151442
706.239	0.0151474
706.318	0.0151138
706.396	0.0149046
706.474	0.0148817
706.552	0.0146279
706.630	0.0145984
706.708	0.0145486
706.786	0.0143443
706.864	0.0142179
706.943	0.0139442
707.021	0.0138042
707.099	0.0136730
707.177	0.0135698
707.255	0.0133376
707.333	0.0132304
707.411	0.0131173
707.489	0.0130572
707.568	0.0128502
707.646	0.0128253
707.724	0.0128394
707.802	0.0127879
707.880	0.0126823
707.958	0.0126617
708.036	0.0126926
708.114	0.0126031
708.193	0.0126019
708.271	0.0128706
708.349	0.0129022
708.427	0.0130047
708.505	0.0131251
708.583	0.0132708
708.661	0.0134930
708.739	0.0134245
708.818	0.0133847
708.896	0.0134351
708.974	0.0137088
709.052	0.0136186
709.130	0.0136493
709.208	0.0137582
709.286	0.0137016
709.364	0.0138170
709.443	0.0136754
709.521	0.0137249
709.599	0.0137570
709.677	0.0137054
709.755	0.0136854
709.833	0.0136784
709.911	0.0137392
709.989	0.0137359
710.068	0.0136875
710.146	0.0137618
710.224	0.0137220
710.302	0.0136800
710.380	0.0137999
710.458	0.0138297
710.536	0.0139112
710.614	0.0138303
710.693	0.0138358
710.771	0.0139050
710.849	0.0138469
710.927	0.0140775
711.005	0.0139476
711.083	0.0140353
711.161	0.0140800
711.239	0.0142822
711.318	0.0141476
711.396	0.0142394
711.474	0.0144489
711.552	0.0145078
711.630	0.0144321
711.708	0.0143319
711.786	0.0142947
711.864	0.0145640
711.943	0.0146149
712.021	0.0144463
712.099	0.0143968
712.177	0.0144070
712.255	0.0144028
712.333	0.0142469
712.411	0.0140573
712.489	0.0140851
712.568	0.0139459
712.646	0.0137222
712.724	0.0136652
712.802	0.0135076
712.880	0.0134835
712.958	0.0132853
713.036	0.0131001
713.114	0.0131129
713.193	0.0128433
713.271	0.0129949
713.349	0.0129657
713.427	0.0128242
713.505	0.0128152
713.583	0.0125603
713.661	0.0125784
713.739	0.0125608
713.818	0.0127343
713.896	0.0127612
713.974	0.0127111
714.052	0.0127588
714.130	0.0127661
714.208	0.0128002
714.286	0.0129186
714.364	0.0131658
714.443	0.0132126
714.521	0.0134016
714.599	0.0133765
714.677	0.0134273
714.755	0.0135008
714.833	0.0134095
714.911	0.0135939
714.989	0.0138215
715.068	0.0136542
715.146	0.0137242
715.224	0.0136725
715.302	0.0138606
715.380	0.0139648
715.458	0.0139304
715.536	0.0139040
715.614	0.0140301
715.693	0.0139016
715.771	0.0139671
715.849	0.0138599
715.927	0.0138141
716.005	0.0138690
716.083	0.0138531
716.161	0.0139178
716.239	0.0137757
716.318	0.0137721
716.396	0.0137736
716.474	0.0137247
716.552	0.0138525
716.630	0.0136657
716.708	0.0135828
716.786	0.0135818
716.864	0.0135394
716.943	0.0135125
717.021	0.0135603
717.099	0.0136494
717.177	0.0135954
717.255	0.0136879
717.333	0.0135293
717.411	0.0135984
717.489	0.0135767
717.568	0.0135858
717.646	0.0138161
717.724	0.0137319
717.802	0.0138103
717.880	0.0137878
717.958	0.0137319
718.036	0.0138872
718.114	0.0138251
718.193	0.0137284
718.271	0.0138486
718.349	0.0137725
718.427	0.0137804
718.505	0.0138895
718.583	0.0138140
718.661	0.0138937
718.739	0.0137499
718.818	0.0138915
718.896	0.0139091
718.974	0.0137441
719.052	0.0139200
719.130	0.0136980
719.208	0.0137110
719.286	0.0136427
719.364	0.0137492
719.443	0.0136269
719.521	0.0135058
719.599	0.0135160
719.677	0.0134141
719.755	0.0135175
719.833	0.0133378
719.911	0.0132876
719.989	0.0133269
720.068	0.0133952
720.146	0.0134546
720.224	0.0133026
720.302	0.0131604
720.380	0.0131802
720.458	0.0131054
720.536	0.0132289
720.614	0.0131532
720.693	0.0130786
720.771	0.0130020
720.849	0.0132165
720.927	0.0131212
721.005	0.0130380
721.083	0.0131088
721.161	0.0132269
721.239	0.0132761
721.318	0.0134332
721.396	0.0133251
721.474	0.0134344
721.552	0.0135760
721.630	0.0134301
721.708	0.0134726
721.786	0.0135916
721.864	0.0136855
721.943	0.0135387
722.021	0.0136564
722.099	0.0138097
722.177	0.0138728
722.255	0.0138723
722.333	0.0138032
722.411	0.0138625
722.489	0.0136529
722.568	0.0136369
722.646	0.0137621
722.724	0.0136911
722.802	0.0135474
722.880	0.0136751
722.958	0.0137395
723.036	0.0135443
723.114	0.0134525
723.193	0.0136114
723.271	0.0135966
723.349	0.0136320
723.427	0.0134689
723.505	0.0134010
723.583	0.0134711
723.661	0.0135033
723.739	0.0134755
723.818	0.0133559
723.896	0.0133909
723.974	0.0134831
724.052	0.0135049
724.130	0.0135308
724.208	0.0137840
724.286	0.0137365
724.364	0.0137657
724.443	0.0136218
724.521	0.0137369
724.599	0.0137959
724.677	0.0140717
724.755	0.0139407
724.833	0.0139525
724.911	0.0141310
724.989	0.0142836
725.068	0.0143262
725.146	0.0142783
725.224	0.0141865
725.302	0.0142525
725.380	0.0141629
725.458	0.0141853
725.536	0.0140224
725.614	0.0141180
725.693	0.0139399
725.771	0.0138914
725.849	0.0137729
725.927	0.0136062
726.005	0.0134259
726.083	0.0134844
726.161	0.0135146
726.239	0.0134280
726.318	0.0130881
726.396	0.0131977
726.474	0.0130010
726.552	0.0132559
726.630	0.0131226
726.708	0.0128452
726.786	0.0128742
726.864	0.0128979
726.943	0.0129153
727.021	0.0128903
727.099	0.0127766
727.177	0.0129321
727.255	0.0130161
727.333	0.0129619
727.411	0.0130305
727.489	0.0129984
727.568	0.0131229
727.646	0.0132674
727.724	0.0132880
727.802	0.0132911
727.880	0.0132513
727.958	0.0134160
728.036	0.0135912
728.114	0.0135643
728.193	0.0135041
728.271	0.0136922
728.349	0.0136711
728.427	0.0136436
728.505	0.0137202
728.583	0.0137170
728.661	0.0137856
728.739	0.0137688
728.818	0.0136952
728.896	0.0137546
728.974	0.0137712
729.052	0.0138245
729.130	0.0138401
729.208	0.0140829
729.286	0.0137550
729.364	0.0137622
729.443	0.0138181
729.521	0.0137974
729.599	0.0137582
729.677	0.0137531
729.755	0.0136063
729.833	0.0135683
729.911	0.0135818
729.989	0.0136753
730.068	0.0136111
730.146	0.0138054
730.224	0.0136554
730.302	0.0136041
730.380	0.0136928
730.458	0.0136954
730.536	0.0136816
730.614	0.0138331
730.693	0.0137930
730.771	0.0139235
730.849	0.0139260
730.927	0.0138147
731.005	0.0137854
731.083	0.0139942
731.161	0.0139698
731.239	0.0140225
731.318	0.0139367
731.396	0.0137883
731.474	0.0139296
731.552	0.0138182
731.630	0.0138464
731.708	0.0137749
731.786	0.0136992
731.864	0.0138503
731.943	0.0137880
732.021	0.0137150
732.099	0.0136990
732.177	0.0137457
732.255	0.0135706
732.333	0.0136276
732.411	0.0135477
732.489	0.0135246
732.568	0.0135338
732.646	0.0134956
732.724	0.0133636
732.802	0.0132592
732.880	0.0132861
732.958	0.0130637
733.036	0.0131474
733.114	0.0131789
733.193	0.0130325
733.271	0.0131601
733.349	0.0130302
733.427	0.0130901
733.505	0.0131723
733.583	0.0131258
733.661	0.0131233
733.739	0.0131754
733.818	0.0131876
733.896	0.0131937
733.974	0.0134047
734.052	0.0133719
734.130	0.0133889
734.208	0.0135136
734.286	0.0136578
734.364	0.0136687
734.443	0.0137724
734.521	0.0137254
734.599	0.0137254
734.677	0.0139053
734.755	0.0139720
734.833	0.0139892
734.911	0.0138573
734.989	0.0139090
735.068	0.0139076
735.146	0.0138995
735.224	0.0139140
735.302	0.0138634
735.380	0.0137887
735.458	0.0138215
735.536	0.0138630
735.614	0.0137990
735.693	0.0136908
735.771	0.0137247
735.849	0.0138886
735.927	0.0137902
736.005	0.0137903
736.083	0.0137488
736.161	0.0137375
736.239	0.0136607
736.318	0.0136380
736.396	0.0139037
736.474	0.0138200
736.552	0.0137505
736.630	0.0139092
736.708	0.0138317
736.786	0.0138484
736.864	0.0137554
736.943	0.0138670
737.021	0.0138985
737.099	0.0141917
737.177	0.0140150
737.255	0.0137425
737.333	0.0138897
737.411	0.0139113
737.489	0.0139678
737.568	0.0139819
737.646	0.0139560
737.724	0.0139299
737.802	0.0139027
737.880	0.0139674
737.958	0.0138993
738.036	0.0136784
738.114	0.0137403
738.193	0.0137697
738.271	0.0138263
738.349	0.0136472
738.427	0.0136542
738.505	0.0136832
738.583	0.0134989
738.661	0.0136591
738.739	0.0135254
738.818	0.0134824
738.896	0.0134279
738.974	0.0133002
739.052	0.0133653
739.130	0.0133537
739.208	0.0133162
739.286	0.0132713
739.364	0.0134035
739.443	0.0132587
739.521	0.0132405
739.599	0.0132639
739.677	0.0132100
739.755	0.0132219
739.833	0.0132391
739.911	0.0132654
739.989	0.0132699
740.068	0.0131944
740.146	0.0132259
740.224	0.0133615
740.302	0.0135712
740.380	0.0134460
740.458	0.0133743
740.536	0.0134933
740.614	0.0136033
740.693	0.0135339
740.771	0.0137452
740.849	0.0138191
740.927	0.0137239
741.005	0.0136758
741.083	0.0139638
741.161	0.0138878
741.239	0.0138737
741.318	0.0140852
741.396	0.0140050
741.474	0.0139960
741.552	0.0140819
741.630	0.0140427
741.708	0.0141592
741.786	0.0141413
741.864	0.0140436
741.943	0.0140352
742.021	0.0141445
742.099	0.0140397
742.177	0.0139494
742.255	0.0138183
742.333	0.0138832
742.411	0.0138598
742.489	0.0138316
742.568	0.0136675
742.646	0.0136517
742.724	0.0135685
742.802	0.0135790
742.880	0.0134761
742.958	0.0135691
743.036	0.0135538
743.114	0.0134476
743.193	0.0133937
743.271	0.0134317
743.349	0.0134877
743.427	0.0134679
743.505	0.0133496
743.583	0.0132892
743.661	0.0133521
743.739	0.0132679
743.818	0.0133234
743.896	0.0135445
743.974	0.0135087
744.052	0.0135896
744.130	0.0134022
744.208	0.0133515
744.286	0.0133511
744.364	0.0134557
744.443	0.0135674
744.521	0.0135503
744.599	0.0133760
744.677	0.0136835
744.755	0.0137251
744.833	0.0135720
744.911	0.0134345
744.989	0.0136206
745.068	0.0136198
745.146	0.0135107
745.224	0.0136775
745.302	0.0136941
745.380	0.0137268
745.458	0.0137669
745.536	0.0137833
745.614	0.0137018
745.693	0.0137165
745.771	0.0137512
745.849	0.0136910
745.927	0.0136781
746.005	0.0136125
746.083	0.0136282
746.161	0.0134955
746.239	0.0135046
746.318	0.0135315
746.396	0.0136317
746.474	0.0136304
746.552	0.0134787
746.630	0.0135989
746.708	0.0135069
746.786	0.0134126
746.864	0.0134082
746.943	0.0136925
747.021	0.0136823
747.099	0.0135367
747.177	0.0134913
747.255	0.0135677
747.333	0.0135863
747.411	0.0134921
747.489	0.0136463
747.568	0.0134889
747.646	0.0134116
747.724	0.0135187
747.802	0.0136218
747.880	0.0134955
747.958	0.0135397
748.036	0.0135030
748.114	0.0134592
748.193	0.0133961
748.271	0.0135637
748.349	0.0135529
748.427	0.0134895
748.505	0.0135841
748.583	0.0135303
748.661	0.0135174
748.739	0.0135809
748.818	0.0134322
748.896	0.0135292
748.974	0.0134905
749.052	0.0135860
749.130	0.0136315
749.208	0.0137239
749.286	0.0136167
749.364	0.0136730
749.443	0.0137625
749.521	0.0137731
749.599	0.0138286
749.677	0.0138936
749.755	0.0138662
749.833	0.0138895
749.911	0.0139518
749.989	0.0139271
750.068	0.0138691
750.146	0.0139446
750.224	0.0138973
750.302	0.0139745
750.380	0.0139318
750.458	0.0138692
750.536	0.0138776
750.614	0.0138842
750.693	0.0139652
750.771	0.0138961
750.849	0.0138711
750.927	0.0138806
751.005	0.0136308
751.083	0.0137712
751.161	0.0138250
751.239	0.0137027
751.318	0.0135535
751.396	0.0136789
751.474	0.0136343
751.552	0.0135667
751.630	0.0134518
751.708	0.0133630
751.786	0.0132983
751.864	0.0133684
751.943	0.0133429
752.021	0.0133183
752.099	0.0131950
752.177	0.0131220
752.255	0.0130478
752.333	0.0131501
752.411	0.0129549
752.489	0.0129288
752.568	0.0129422
752.646	0.0128302
752.724	0.0128647
752.802	0.0129914
752.880	0.0130169
752.958	0.0129227
753.036	0.0130663
753.114	0.0131006
753.193	0.0132685
753.271	0.0132992
753.349	0.0132661
753.427	0.0133974
753.505	0.0134718
753.583	0.0135663
753.661	0.0135516
753.739	0.0137669
753.818	0.0138015
753.896	0.0138351
753.974	0.0140676
754.052	0.0139874
754.130	0.0141261
754.208	0.0141239
754.286	0.0141415
754.364	0.0142912
754.443	0.0141975
754.521	0.0143266
754.599	0.0142968
754.677	0.0143229
754.755	0.0142808
754.833	0.0142501
754.911	0.0141463
754.989	0.0140954
755.068	0.0140558
755.146	0.0141077
755.224	0.0139353
755.302	0.0136938
755.380	0.0138712
755.458	0.0135937
755.536	0.0135045
755.614	0.0135197
755.693	0.0132891
755.771	0.0131940
755.849	0.0131563
755.927	0.0129236
756.005	0.0130527
756.083	0.0129346
756.161	0.0130041
756.239	0.0128465
756.318	0.0129724
756.396	0.0127931
756.474	0.0128229
756.552	0.0130756
756.630	0.0131137
756.708	0.0131846
756.786	0.0130141
756.864	0.0131278
756.943	0.0134135
757.021	0.0133067
757.099	0.0133675
757.177	0.0135911
757.255	0.0135693
757.333	0.0136849
757.411	0.0138052
757.489	0.0138068
757.568	0.0139539
757.646	0.0141947
757.724	0.0141707
757.802	0.0140434
757.880	0.0140237
757.958	0.0141694
758.036	0.0142659
758.114	0.0141511
758.193	0.0143145
758.271	0.0144548
758.349	0.0142291
758.427	0.0141481
758.505	0.0141953
758.583	0.0142155
758.661	0.0140603
758.739	0.0140150
758.818	0.0140214
758.896	0.0139601
758.974	0.0139005
759.052	0.0138400
759.130	0.0138059
759.208	0.0138597
759.286	0.0138148
759.364	0.0136078
759.443	0.0135847
759.521	0.0135136
759.599	0.0135144
759.677	0.0136139
759.755	0.0133260
759.833	0.0132806
759.911	0.0134221
759.989	0.0133352
760.068	0.0132323
760.146	0.0131719
760.224	0.0131310
760.302	0.0132347
760.380	0.0132452
760.458	0.0131174
760.536	0.0132641
760.614	0.0132533
760.693	0.0133706
760.771	0.0134177
760.849	0.0135176
760.927	0.0134663
761.005	0.0135317
761.083	0.0137537
761.161	0.0138342
761.239	0.0137894
761.318	0.0139302
761.396	0.0136947
761.474	0.0139030
761.552	0.0139531
761.630	0.0139793
761.708	0.0139312
761.786	0.0139355
761.864	0.0140980
761.943	0.0142061
762.021	0.0139444
762.099	0.0139243
762.177	0.0141553
762.255	0.0140662
762.333	0.0139742
762.411	0.0140661
762.489	0.0140038
762.568	0.0140841
762.646	0.0141502
762.724	0.0139781
762.802	0.0140953
762.880	0.0141209
762.958	0.0140863
763.036	0.0140582
763.114	0.0138953
763.193	0.0140356
763.271	0.0139201
763.349	0.0139217
763.427	0.0138828
763.505	0.0138790
763.583	0.0139487
763.661	0.0138663
763.739	0.0138734
763.818	0.0136383
763.896	0.0137125
763.974	0.0136038
764.052	0.0136731
764.130	0.0136172
764.208	0.0135529
764.286	0.0136961
764.364	0.0135406
764.443	0.0136216
764.521	0.0134925
764.599	0.0134364
764.677	0.0135118
764.755	0.0134859
764.833	0.0135330
764.911	0.0134163
764.989	0.0135213
765.068	0.0134525
765.146	0.0133994
765.224	0.0133501
765.302	0.0134122
765.380	0.0131871
765.458	0.0133069
765.536	0.0133081
765.614	0.0132896
765.693	0.0132475
765.771	0.0134039
765.849	0.0134372
765.927	0.0134245
766.005	0.0133584
766.083	0.0132928
766.161	0.0134523
766.239	0.0134277
766.318	0.0135721
766.396	0.0134531
766.474	0.0135031
766.552	0.0136224
766.630	0.0136765
766.708	0.0136011
766.786	0.0137678
766.864	0.0137384
766.943	0.0138051
767.021	0.0138595
767.099	0.0137682
767.177	0.0137785
767.255	0.0140502
767.333	0.0140050
767.411	0.0139307
767.489	0.0138538
767.568	0.0138701
767.646	0.0139473
767.724	0.0140105
767.802	0.0140794
767.880	0.0139725
767.958	0.0139678
768.036	0.0139687
768.114	0.0139284
768.193	0.0139288
768.271	0.0140356
768.349	0.0139331
768.427	0.0141029
768.505	0.0139655
768.583	0.0140432
768.661	0.0139415
768.739	0.0139295
768.818	0.0140581
768.896	0.0138753
768.974	0.0138692
769.052	0.0139231
769.130	0.0138292
769.208	0.0138203
769.286	0.0137661
769.364	0.0136926
769.443	0.0135835
769.521	0.0137014
769.599	0.0137230
769.677	0.0135763
769.755	0.0135575
769.833	0.0135365
769.911	0.0134662
769.989	0.0135925
770.068	0.0135283
770.146	0.0134866
770.224	0.0135674
770.302	0.0135923
770.380	0.0134734
770.458	0.0134814
770.536	0.0135808
770.614	0.0133714
770.693	0.0134391
770.771	0.0135583
770.849	0.0134316
770.927	0.0133125
771.005	0.0134156
771.083	0.0133648
771.161	0.0134843
771.239	0.0134506
771.318	0.0133463
771.396	0.0134248
771.474	0.0135255
771.552	0.0135747
771.630	0.0134315
771.708	0.0134667
771.786	0.0135660
771.864	0.0135070
771.943	0.0136217
772.021	0.0134637
772.099	0.0133540
772.177	0.0135002
772.255	0.0134887
772.333	0.0135051
772.411	0.0134447
772.489	0.0134726
772.568	0.0135316
772.646	0.0133778
772.724	0.0133028
772.802	0.0135790
772.880	0.0134457
772.958	0.0135004
773.036	0.0134926
773.114	0.0136288
773.193	0.0135674
773.271	0.0135551
773.349	0.0136691
773.427	0.0136667
773.505	0.0136236
773.583	0.0137451
773.661	0.0136755
773.739	0.0136385
773.818	0.0137220
773.896	0.0137325
773.974	0.0137967
774.052	0.0137621
774.130	0.0139748
774.208	0.0139214
774.286	0.0138859
774.364	0.0138944
774.443	0.0139069
774.521	0.0139616
774.599	0.0139210
774.677	0.0139851
774.755	0.0140517
774.833	0.0139115
774.911	0.0137720
774.989	0.0138078
775.068	0.0138221
775.146	0.0139414
775.224	0.0138046
775.302	0.0137086
775.380	0.0135741
775.458	0.0137618
775.536	0.0135844
775.614	0.0135287
775.693	0.0134929
775.771	0.0134210
775.849	0.0134372
775.927	0.0134541
776.005	0.0133475
776.083	0.0133917
776.161	0.0132970
776.239	0.0132577
776.318	0.0132264
776.396	0.0132890
776.474	0.0132407
776.552	0.0131233
776.630	0.0132189
776.708	0.0131161
776.786	0.0130536
776.864	0.0131646
776.943	0.0132097
777.021	0.0133235
777.099	0.0132001
777.177	0.0131538
777.255	0.0132761
777.333	0.0133746
777.411	0.0133595
777.489	0.0134842
777.568	0.0133981
777.646	0.0135262
777.724	0.0136036
777.802	0.0136383
777.880	0.0135800
777.958	0.0136969
778.036	0.0138184
778.114	0.0137448
778.193	0.0138482
778.271	0.0138965
778.349	0.0140511
778.427	0.0138920
778.505	0.0140682
778.583	0.0140372
778.661	0.0141521
778.739	0.0141259
778.818	0.0140375
778.896	0.0139432
778.974	0.0140128
779.052	0.0140858
779.130	0.0140272
779.208	0.0139510
779.286	0.0140159
779.364	0.0140325
779.443	0.0139575
779.521	0.0138787
779.599	0.0139014
779.677	0.0138078
779.755	0.0138477
779.833	0.0137783
779.911	0.0137792
779.989	0.0137289
780.068	0.0137253
780.146	0.0136459
780.224	0.0135361
780.302	0.0135603
780.380	0.0136423
780.458	0.0134621
780.536	0.0136072
780.614	0.0134718
780.693	0.0134631
780.771	0.0134344
780.849	0.0133711
780.927	0.0136118
781.005	0.0134882
781.083	0.0134795
781.161	0.0134353
781.239	0.0135153
781.318	0.0133769
781.396	0.0134684
781.474	0.0134783
781.552	0.0134433
781.630	0.0133752
781.708	0.0134250
781.786	0.0134911
781.864	0.0134773
781.943	0.0133871
782.021	0.0135433
782.099	0.0134634
782.177	0.0135164
782.255	0.0135698
782.333	0.0135214
782.411	0.0134261
782.489	0.0135017
782.568	0.0135547
782.646	0.0135785
782.724	0.0134605
782.802	0.0135953
782.880	0.0136766
782.958	0.0138086
783.036	0.0136983
783.114	0.0136495
783.193	0.0137073
783.271	0.0137182
783.349	0.0137870
783.427	0.0138397
783.505	0.0139099
783.583	0.0139294
783.661	0.0139476
783.739	0.0139911
783.818	0.0139159
783.896	0.0140811
783.974	0.0139180
784.052	0.0139669
784.130	0.0141168
784.208	0.0139476
784.286	0.0140226
784.364	0.0141541
784.443	0.0138700
784.521	0.0139962
784.599	0.0139499
784.677	0.0139648
784.755	0.0139490
784.833	0.0138933
784.911	0.0139079
784.989	0.0138827
785.068	0.0138483
785.146	0.0138837
785.224	0.0138067
785.302	0.0136864
785.380	0.0137859
785.458	0.0138625
785.536	0.0137162
785.614	0.0138258
785.693	0.0136661
785.771	0.0136333
785.849	0.0135730
785.927	0.0135505
786.005	0.0134647
786.083	0.0135382
786.161	0.0137299
786.239	0.0133739
786.318	0.0133678
786.396	0.0134985
786.474	0.0134784
786.552	0.0135217
786.630	0.0135742
786.708	0.0133131
786.786	0.0134425
786.864	0.0135595
786.943	0.0136736
787.021	0.0136013
787.099	0.0136297
787.177	0.0136634
787.255	0.0135123
787.333	0.0137033
787.411	0.0137457
787.489	0.0137101
787.568	0.0135735
787.646	0.0136954
787.724	0.0138219
787.802	0.0137389
787.880	0.0136819
787.958	0.0135931
788.036	0.0135625
788.114	0.0136548
788.193	0.0138367
788.271	0.0137157
788.349	0.0135763
788.427	0.0135261
788.505	0.0135998
788.583	0.0135039
788.661	0.0134392
788.739	0.0136541
788.818	0.0136082
788.896	0.0135777
788.974	0.0135986
789.052	0.0136425
789.130	0.0136018
789.208	0.0137132
789.286	0.0136721
789.364	0.0136120
789.443	0.0136220
789.521	0.0137706
789.599	0.0137759
789.677	0.0138538
789.755	0.0138865
789.833	0.0138818
789.911	0.0138412
789.989	0.0137982
790.068	0.0136982
790.146	0.0138557
790.224	0.0140745
790.302	0.0138780
790.380	0.0138169
790.458	0.0138199
790.536	0.0138534
790.614	0.0138100
790.693	0.0137829
790.771	0.0138398
790.849	0.0137273
790.927	0.0137107
791.005	0.0137456
791.083	0.0136919
791.161	0.0136047
791.239	0.0136761
791.318	0.0135770
791.396	0.0134650
791.474	0.0135076
791.552	0.0135653
791.630	0.0135387
791.708	0.0137097
791.786	0.0134999
791.864	0.0135380
791.943	0.0134520
792.021	0.0133840
792.099	0.0135595
792.177	0.0135639
792.255	0.0135676
792.333	0.0133601
792.411	0.0133002
792.489	0.0134628
792.568	0.0132787
792.646	0.0131647
792.724	0.0133056
792.802	0.0133084
792.880	0.0133984
792.958	0.0132837
793.036	0.0130307
793.114	0.0130931
793.193	0.0133488
793.271	0.0132031
793.349	0.0132604
793.427	0.0134143
793.505	0.0135656
793.583	0.0133854
793.661	0.0134373
793.739	0.0133469
793.818	0.0134988
793.896	0.0135078
793.974	0.0135256
794.052	0.0134196
794.130	0.0135578
794.208	0.0136073
794.286	0.0134978
794.364	0.0136546
794.443	0.0136098
794.521	0.0136897
794.599	0.0135859
794.677	0.0138229
794.755	0.0135757
794.833	0.0136655
794.911	0.0137442
794.989	0.0135286
795.068	0.0135947
795.146	0.0138552
795.224	0.0138409
795.302	0.0136668
795.380	0.0136387
795.458	0.0136874
795.536	0.0138306
795.614	0.0138406
795.693	0.0138857
795.771	0.0136784
795.849	0.0136305
795.927	0.0138002
796.005	0.0136842
796.083	0.0136550
796.161	0.0136498
796.239	0.0136327
796.318	0.0137776
796.396	0.0137788
796.474	0.0136227
796.552	0.0135616
796.630	0.0136414
796.708	0.0135789
796.786	0.0135089
796.864	0.0135619
796.943	0.0136515
797.021	0.0135041
797.099	0.0133732
797.177	0.0133534
797.255	0.0132826
797.333	0.0132034
797.411	0.0132172
797.489	0.0131799
797.568	0.0131123
797.646	0.0132051
797.724	0.0132561
797.802	0.0131157
797.880	0.0132627
797.958	0.0133959
798.036	0.0133466
798.114	0.0133471
798.193	0.0134093
798.271	0.0134325
798.349	0.0134212
798.427	0.0135410
798.505	0.0135082
798.583	0.0136112
798.661	0.0136253
798.739	0.0137450
798.818	0.0135344
798.896	0.0135551
798.974	0.0136310
799.052	0.0136001
799.130	0.0136341
799.208	0.0137559
799.286	0.0136518
799.364	0.0136816
799.443	0.0137781
799.521	0.0136873
799.599	0.0137304
799.677	0.0136522
799.755	0.0136674
799.833	0.0136118
799.911	0.0136114
799.989	0.0135981
800.068	0.0136221
800.146	0.0135629
800.224	0.0135038
800.302	0.0134582
800.380	0.0134849
800.458	0.0135392
800.536	0.0135812
800.614	0.0134203
800.693	0.0136214
800.771	0.0135619
800.849	0.0135882
800.927	0.0136008
801.005	0.0136195
801.083	0.0136866
801.161	0.0137486
801.239	0.0136516
801.318	0.0135703
801.396	0.0135784
801.474	0.0135735
801.552	0.0136202
801.630	0.0135218
801.708	0.0136538
801.786	0.0135055
801.864	0.0134697
801.943	0.0137536
802.021	0.0137546
802.099	0.0137456
802.177	0.0138349
802.255	0.0137233
802.333	0.0139126
802.411	0.0137971
802.489	0.0137067
802.568	0.0137337
802.646	0.0139207
802.724	0.0138161
802.802	0.0138278
802.880	0.0138119
802.958	0.0137724
803.036	0.0137927
803.114	0.0138290
803.193	0.0136929
803.271	0.0137057
803.349	0.0137782
803.427	0.0135998
803.505	0.0136160
803.583	0.0135850
803.661	0.0137211
803.739	0.0138356
803.818	0.0137096
803.896	0.0136991
803.974	0.0138258
804.052	0.0137542
804.130	0.0138319
804.208	0.0138006
804.286	0.0138690
804.364	0.0137165
804.443	0.0137944
804.521	0.0137640
804.599	0.0137180
804.677	0.0136549
804.755	0.0135982
804.833	0.0135440
804.911	0.0134286
804.989	0.0134931
805.068	0.0133471
805.146	0.0133259
805.224	0.0133545
805.302	0.0135122
805.380	0.0134240
805.458	0.0134593
805.536	0.0135362
805.614	0.0136726
805.693	0.0135933
805.771	0.0135947
805.849	0.0138192
805.927	0.0137772
806.005	0.0137457
806.083	0.0138201
806.161	0.0138861
806.239	0.0139350
806.318	0.0138068
806.396	0.0139253
806.474	0.0137417
806.552	0.0137988
806.630	0.0138077
806.708	0.0137274
806.786	0.0138278
806.864	0.0138572
806.943	0.0137344
807.021	0.0137053
807.099	0.0136594
807.177	0.0136378
807.255	0.0137225
807.333	0.0135871
807.411	0.0135270
807.489	0.0134711
807.568	0.0136005
807.646	0.0136258
807.724	0.0136476
807.802	0.0136079
807.880	0.0136089
807.958	0.0135552
808.036	0.0136578
808.114	0.0136637
808.193	0.0136910
808.271	0.0135880
808.349	0.0137377
808.427	0.0135155
808.505	0.0135381
808.583	0.0136302
808.661	0.0136707
808.739	0.0135507
808.818	0.0138146
808.896	0.0137365
808.974	0.0137405
809.052	0.0138034
809.130	0.0138727
809.208	0.0137672
809.286	0.0139313
809.364	0.0138077
809.443	0.0138026
809.521	0.0137920
809.599	0.0136964
809.677	0.0136822
809.755	0.0134828
809.833	0.0135438
809.911	0.0135046
809.989	0.0134374
810.068	0.0132092
810.146	0.0133878
810.224	0.0132413
810.302	0.0131844
810.380	0.0132950
810.458	0.0132870
810.536	0.0132981
810.614	0.0133064
810.693	0.0133530
810.771	0.0133393
810.849	0.0134135
810.927	0.0134884
811.005	0.0134793
811.083	0.0136258
811.161	0.0137917
811.239	0.0136681
811.318	0.0137006
811.396	0.0138528
811.474	0.0138770
811.552	0.0137854
811.630	0.0138255
811.708	0.0137899
811.786	0.0138032
811.864	0.0138119
811.943	0.0137847
812.021	0.0137953
812.099	0.0138796
812.177	0.0137855
812.255	0.0137498
812.333	0.0137839
812.411	0.0137820
812.489	0.0137234
812.568	0.0137708
812.646	0.0137791
812.724	0.0137286
812.802	0.0136202
812.880	0.0137514
812.958	0.0137102
813.036	0.0136533
813.114	0.0137418
813.193	0.0135303
813.271	0.0135398
813.349	0.0135021
813.427	0.0135537
813.505	0.0134467
813.583	0.0134238
813.661	0.0134660
813.739	0.0134418
813.818	0.0134415
813.896	0.0134511
813.974	0.0133523
814.052	0.0135113
814.130	0.0134959
814.208	0.0134161
814.286	0.0135960
814.364	0.0136351
814.443	0.0137943
814.521	0.0137537
814.599	0.0137230
814.677	0.0136745
814.755	0.0136025
814.833	0.0137857
814.911	0.0135760
814.989	0.0136488
815.068	0.0135751
815.146	0.0134412
815.224	0.0134418
815.302	0.0133344
815.380	0.0132427
815.458	0.0133487
815.536	0.0133211
815.614	0.0132710
815.693	0.0132384
815.771	0.0132212
815.849	0.0134109
815.927	0.0133175
816.005	0.0134418
816.083	0.0135036
816.161	0.0135597
816.239	0.0135944
816.318	0.0136042
816.396	0.0135328
816.474	0.0135483
816.552	0.0134576
816.630	0.0134713
816.708	0.0136049
816.786	0.0135953
816.864	0.0136196
816.943	0.0135339
817.021	0.0136484
817.099	0.0136313
817.177	0.0136297
817.255	0.0136497
817.333	0.0134819
817.411	0.0133908
817.489	0.0135989
817.568	0.0135113
817.646	0.0136256
817.724	0.0135191
817.802	0.0133893
817.880	0.0134800
817.958	0.0135065
818.036	0.0133778
818.114	0.0135770
818.193	0.0134888
818.271	0.0134639
818.349	0.0135654
818.427	0.0135929
818.505	0.0135905
818.583	0.0135730
818.661	0.0135688
818.739	0.0135961
818.818	0.0136139
818.896	0.0135654
818.974	0.0136946
819.052	0.0137711
819.130	0.0137346
819.208	0.0138255
819.286	0.0136926
819.364	0.0137404
819.443	0.0138169
819.521	0.0138342
819.599	0.0139011
819.677	0.0139871
819.755	0.0139616
819.833	0.0138792
819.911	0.0138727
819.989	0.0137817
820.068	0.0137730
820.146	0.0137546
820.224	0.0136884
820.302	0.0136169
820.380	0.0134931
820.458	0.0135687
820.536	0.0136150
820.614	0.0134375
820.693	0.0134894
820.771	0.0135316
820.849	0.0133812
820.927	0.0133372
821.005	0.0133779
821.083	0.0133163
821.161	0.0133221
821.239	0.0132812
821.318	0.0133509
821.396	0.0132700
821.474	0.0132156
821.552	0.0134144
821.630	0.0134452
821.708	0.0132692
821.786	0.0132895
821.864	0.0133482
821.943	0.0134322
822.021	0.0133652
822.099	0.0133208
822.177	0.0135216
822.255	0.0133984
822.333	0.0135157
822.411	0.0135445
822.489	0.0134303
822.568	0.0135933
822.646	0.0137700
822.724	0.0136362
822.802	0.0135983
822.880	0.0136312
822.958	0.0137694
823.036	0.0138159
823.114	0.0137346
823.193	0.0137152
823.271	0.0135981
823.349	0.0134902
823.427	0.0135814
823.505	0.0134798
823.583	0.0134531
823.661	0.0133672
823.739	0.0134586
823.818	0.0134882
823.896	0.0135469
823.974	0.0135152
824.052	0.0134687
824.130	0.0134955
824.208	0.0134563
824.286	0.0135182
824.364	0.0135197
824.443	0.0133952
824.521	0.0134132
824.599	0.0132836
824.677	0.0133833
824.755	0.0133219
824.833	0.0132971
824.911	0.0134164
824.989	0.0132787
825.068	0.0132825
825.146	0.0134312
825.224	0.0133389
825.302	0.0134181
825.380	0.0133707
825.458	0.0134148
825.536	0.0134759
825.614	0.0134604
825.693	0.0133594
825.771	0.0133838
825.849	0.0135223
825.927	0.0136094
826.005	0.0135077
826.083	0.0136193
826.161	0.0134406
826.239	0.0136174
826.318	0.0136778
826.396	0.0136021
826.474	0.0137082
826.552	0.0136155
826.630	0.0136402
826.708	0.0136268
826.786	0.0136253
826.864	0.0136134
826.943	0.0135191
827.021	0.0136037
827.099	0.0134893
827.177	0.0136456
827.255	0.0136317
827.333	0.0135451
827.411	0.0135367
827.489	0.0135352
827.568	0.0135860
827.646	0.0137581
827.724	0.0136176
827.802	0.0135882
827.880	0.0137437
827.958	0.0136635
828.036	0.0137393
828.114	0.0136749
828.193	0.0135740
828.271	0.0136205
828.349	0.0137891
828.427	0.0136570
828.505	0.0136500
828.583	0.0137452
828.661	0.0136811
828.739	0.0136922
828.818	0.0136092
828.896	0.0136527
828.974	0.0137013
829.052	0.0137041
829.130	0.0136961
829.208	0.0135914
829.286	0.0137300
829.364	0.0136841
829.443	0.0134574
829.521	0.0136056
829.599	0.0136147
829.677	0.0137699
829.755	0.0135487
829.833	0.0137054
829.911	0.0136291
829.989	0.0135236
830.068	0.0133527
830.146	0.0134526
830.224	0.0134192
830.302	0.0135933
830.380	0.0135278
830.458	0.0134200
830.536	0.0135538
830.614	0.0137373
830.693	0.0136227
830.771	0.0135814
830.849	0.0136679
830.927	0.0137699
831.005	0.0137247
831.083	0.0137425
831.161	0.0136752
831.239	0.0136340
831.318	0.0137759
831.396	0.0136962
831.474	0.0137592
831.552	0.0137270
831.630	0.0136069
831.708	0.0137070
831.786	0.0138069
831.864	0.0137644
831.943	0.0137833
832.021	0.0138652
832.099	0.0137204
832.177	0.0135981
832.255	0.0136542
832.333	0.0136124
832.411	0.0137062
832.489	0.0135757
832.568	0.0135936
832.646	0.0135933
832.724	0.0135783
832.802	0.0135840
832.880	0.0136558
832.958	0.0137170
833.036	0.0136153
833.114	0.0137375
833.193	0.0136976
833.271	0.0138395
833.349	0.0138725
833.427	0.0136229
833.505	0.0137845
833.583	0.0136723
833.661	0.0137338
833.739	0.0136598
833.818	0.0137608
833.896	0.0138042
833.974	0.0135947
834.052	0.0137694
834.130	0.0138039
834.208	0.0136977
834.286	0.0136462
834.364	0.0137663
834.443	0.0138180
834.521	0.0138000
834.599	0.0136134
834.677	0.0137216
834.755	0.0136440
834.833	0.0136668
834.911	0.0136534
834.989	0.0137403
835.068	0.0137426
835.146	0.0137936
835.224	0.0136976
835.302	0.0136210
835.380	0.0137559
835.458	0.0136105
835.536	0.0135381
835.614	0.0136607
835.693	0.0136603
835.771	0.0136005
835.849	0.0137144
835.927	0.0136494
836.005	0.0135419
836.083	0.0137743
836.161	0.0136478
836.239	0.0136177
836.318	0.0137159
836.396	0.0135947
836.474	0.0137716
836.552	0.0136967
836.630	0.0135664
836.708	0.0135364
836.786	0.0134680
836.864	0.0136613
836.943	0.0136610
837.021	0.0137813
837.099	0.0136314
837.177	0.0134924
837.255	0.0136365
837.333	0.0137138
837.411	0.0136249
837.489	0.0136297
837.568	0.0136310
837.646	0.0137063
837.724	0.0135494
837.802	0.0135477
837.880	0.0135836
837.958	0.0135725
838.036	0.0133158
838.114	0.0134359
838.193	0.0136409
838.271	0.0136667
838.349	0.0135750
838.427	0.0135565
838.505	0.0136113
838.583	0.0136219
838.661	0.0137813
838.739	0.0138203
838.818	0.0136741
838.896	0.0136141
838.974	0.0137080
839.052	0.0137505
839.130	0.0137231
839.208	0.0137206
839.286	0.0136623
839.364	0.0137948
839.443	0.0137227
839.521	0.0136331
839.599	0.0135480
839.677	0.0136079
839.755	0.0136101
839.833	0.0137485
839.911	0.0135113
839.989	0.0136247
840.068	0.0135905
840.146	0.0137048
840.224	0.0135991
840.302	0.0137801
840.380	0.0136880
840.458	0.0134886
840.536	0.0136639
840.614	0.0136832
840.693	0.0136043
840.771	0.0136488
840.849	0.0136687
840.927	0.0136835
841.005	0.0135447
841.083	0.0137093
841.161	0.0134910
841.239	0.0135291
841.318	0.0135667
841.396	0.0135446
841.474	0.0136024
841.552	0.0135569
841.630	0.0136005
841.708	0.0135932
841.786	0.0136178
841.864	0.0135827
841.943	0.0135210
842.021	0.0134605
842.099	0.0135840
842.177	0.0135959
842.255	0.0133629
842.333	0.0133307
842.411	0.0133973
842.489	0.0135863
842.568	0.0134122
842.646	0.0132887
842.724	0.0134193
842.802	0.0134392
842.880	0.0133902
842.958	0.0133852
843.036	0.0134871
843.114	0.0135275
843.193	0.0135530
843.271	0.0135082
843.349	0.0135505
843.427	0.0136463
843.505	0.0136077
843.583	0.0136748
843.661	0.0136263
843.739	0.0135537
843.818	0.0136584
843.896	0.0136871
843.974	0.0136045
844.052	0.0137164
844.130	0.0137783
844.208	0.0136523
844.286	0.0136475
844.364	0.0137621
844.443	0.0137136
844.521	0.0137096
844.599	0.0136865
844.677	0.0137020
844.755	0.0138265
844.833	0.0139035
844.911	0.0139021
844.989	0.0138092
845.068	0.0136337
845.146	0.0138121
845.224	0.0137705
845.302	0.0138317
845.380	0.0137973
845.458	0.0138950
845.536	0.0137014
845.614	0.0137955
845.693	0.0136570
845.771	0.0137954
845.849	0.0136739
845.927	0.0137103
846.005	0.0136513
846.083	0.0137336
846.161	0.0135825
846.239	0.0137746
846.318	0.0135397
846.396	0.0134958
846.474	0.0136192
846.552	0.0135853
846.630	0.0134736
846.708	0.0136082
846.786	0.0135835
846.864	0.0135766
846.943	0.0134685
847.021	0.0134593
847.099	0.0135090
847.177	0.0135735
847.255	0.0135219
847.333	0.0136773
847.411	0.0136508
847.489	0.0136632
847.568	0.0137101
847.646	0.0135516
847.724	0.0137025
847.802	0.0136185
847.880	0.0137273
847.958	0.0137933
848.036	0.0136890
848.114	0.0137132
848.193	0.0139397
848.271	0.0138361
848.349	0.0138081
848.427	0.0139291
848.505	0.0137804
848.583	0.0138047
848.661	0.0138950
848.739	0.0138985
848.818	0.0136631
848.896	0.0136962
848.974	0.0138776
849.052	0.0138437
849.130	0.0137535
849.208	0.0136681
849.286	0.0135979
849.364	0.0137494
849.443	0.0138876
849.521	0.0137715
849.599	0.0137822
849.677	0.0137574
849.755	0.0137399
849.833	0.0136598
849.911	0.0137573
849.989	0.0138554
850.068	0.0136038
850.146	0.0138396
850.224	0.0137189
850.302	0.0136035
850.380	0.0137472
850.458	0.0137230
850.536	0.0135514
850.614	0.0136652
850.693	0.0134348
850.771	0.0136346
850.849	0.0136550
850.927	0.0134990
851.005	0.0134758
851.083	0.0135250
851.161	0.0134341
851.239	0.0135096
851.318	0.0136086
851.396	0.0135515
851.474	0.0136552
851.552	0.0135904
851.630	0.0134952
851.708	0.0136024
851.786	0.0136371
851.864	0.0134933
851.943	0.0134371
852.021	0.0137413
852.099	0.0136789
852.177	0.0136850
852.255	0.0136140
852.333	0.0135356
852.411	0.0136417
852.489	0.0137444
852.568	0.0138393
852.646	0.0136402
852.724	0.0137160
852.802	0.0137347
852.880	0.0138166
852.958	0.0138742
853.036	0.0138761
853.114	0.0138382
853.193	0.0139382
853.271	0.0139567
853.349	0.0138116
853.427	0.0139225
853.505	0.0138817
853.583	0.0139091
853.661	0.0139992
853.739	0.0138039
853.818	0.0137663
853.896	0.0139046
853.974	0.0137781
854.052	0.0137356
854.130	0.0137259
854.208	0.0136832
854.286	0.0136821
854.364	0.0136902
854.443	0.0137064
854.521	0.0138213
854.599	0.0138444
854.677	0.0136907
854.755	0.0136198
854.833	0.0136915
854.911	0.0136565
854.989	0.0136475
855.068	0.0136934
855.146	0.0135551
855.224	0.0135326
855.302	0.0136516
855.380	0.0136852
855.458	0.0135217
855.536	0.0135085
855.614	0.0133607
855.693	0.0135897
855.771	0.0136992
855.849	0.0135837
855.927	0.0137400
856.005	0.0137216
856.083	0.0136940
856.161	0.0137410
856.239	0.0137884
856.318	0.0138489
856.396	0.0137558
856.474	0.0139050
856.552	0.0139471
856.630	0.0138830
856.708	0.0138499
856.786	0.0139581
856.864	0.0140408
856.943	0.0139051
857.021	0.0139798
857.099	0.0138580
857.177	0.0137794
857.255	0.0138416
857.333	0.0138541
857.411	0.0138066
857.489	0.0138931
857.568	0.0137916
857.646	0.0138447
857.724	0.0137634
857.802	0.0137742
857.880	0.0138104
857.958	0.0136913
858.036	0.0136528
858.114	0.0136472
858.193	0.0137379
858.271	0.0137228
858.349	0.0135941
858.427	0.0135017
858.505	0.0135655
858.583	0.0135123
858.661	0.0135386
858.739	0.0133147
858.818	0.0134239
858.896	0.0135349
858.974	0.0133923
859.052	0.0134158
859.130	0.0135787
859.208	0.0133647
859.286	0.0133269
859.364	0.0132001
859.443	0.0133160
859.521	0.0134890
859.599	0.0133090
859.677	0.0132981
859.755	0.0133005
859.833	0.0132380
859.911	0.0132645
859.989	0.0132938
860.068	0.0132487
860.146	0.0133707
860.224	0.0133512
860.302	0.0133569
860.380	0.0133610
860.458	0.0133723
860.536	0.0134565
860.614	0.0135123
860.693	0.0134734
860.771	0.0134465
860.849	0.0135617
860.927	0.0136166
861.005	0.0136116
861.083	0.0135300
861.161	0.0136732
861.239	0.0137167
861.318	0.0137593
861.396	0.0137975
861.474	0.0137381
861.552	0.0136861
861.630	0.0136706
861.708	0.0137110
861.786	0.0136674
861.864	0.0136583
861.943	0.0139198
862.021	0.0138568
862.099	0.0136716
862.177	0.0136559
862.255	0.0136893
862.333	0.0136650
862.411	0.0137454
862.489	0.0136607
862.568	0.0137022
862.646	0.0134636
862.724	0.0135710
862.802	0.0136464
862.880	0.0135113
862.958	0.0134971
863.036	0.0134126
863.114	0.0134618
863.193	0.0134380
863.271	0.0135466
863.349	0.0134808
863.427	0.0135860
863.505	0.0133627
863.583	0.0134346
863.661	0.0136176
863.739	0.0135315
863.818	0.0135325
863.896	0.0135411
863.974	0.0134329
864.052	0.0134494
864.130	0.0135229
864.208	0.0135353
864.286	0.0135822
864.364	0.0135233
864.443	0.0136568
864.521	0.0136920
864.599	0.0137114
864.677	0.0134882
864.755	0.0136578
864.833	0.0136635
864.911	0.0138862
864.989	0.0137230
865.068	0.0136248
865.146	0.0137841
865.224	0.0137681
865.302	0.0137206
865.380	0.0136021
865.458	0.0137818
865.536	0.0137903
865.614	0.0137828
865.693	0.0136565
865.771	0.0138003
865.849	0.0136951
865.927	0.0138082
866.005	0.0137417
866.083	0.0137524
866.161	0.0136981
866.239	0.0138585
866.318	0.0137598
866.396	0.0137088
866.474	0.0138481
866.552	0.0136530
866.630	0.0136570
866.708	0.0137359
866.786	0.0137787
866.864	0.0135088
866.943	0.0136405
867.021	0.0136651
867.099	0.0135571
867.177	0.0135729
867.255	0.0136177
867.333	0.0136317
867.411	0.0136128
867.489	0.0135920
867.568	0.0135706
867.646	0.0135104
867.724	0.0135104
867.802	0.0135112
867.880	0.0136832
867.958	0.0137614
868.036	0.0136196
868.114	0.0136280
868.193	0.0137049
868.271	0.0138220
868.349	0.0137051
868.427	0.0136103
868.505	0.0136639
868.583	0.0137596
868.661	0.0137617
868.739	0.0139318
868.818	0.0138215
868.896	0.0138240
868.974	0.0137322
869.052	0.0137863
869.130	0.0139005
869.208	0.0139156
869.286	0.0137104
869.364	0.0139014
869.443	0.0138632
869.521	0.0139100
869.599	0.0138684
869.677	0.0139533
869.755	0.0137499
869.833	0.0137482
869.911	0.0138225
869.989	0.0138532
870.068	0.0136946
870.146	0.0136605
870.224	0.0137132
870.302	0.0137546
870.380	0.0136401
870.458	0.0137518
870.536	0.0136874
870.614	0.0135754
870.693	0.0136181
870.771	0.0137226
870.849	0.0134985
870.927	0.0137185
871.005	0.0137017
871.083	0.0136929
871.161	0.0136295
871.239	0.0136193
871.318	0.0136491
871.396	0.0136913
871.474	0.0138149
871.552	0.0135129
871.630	0.0135358
871.708	0.0135570
871.786	0.0135680
871.864	0.0135867
871.943	0.0137254
872.021	0.0135065
872.099	0.0136755
872.177	0.0136614
872.255	0.0137234
872.333	0.0136761
872.411	0.0136149
872.489	0.0136254
872.568	0.0137060
872.646	0.0137458
872.724	0.0137583
872.802	0.0138426
872.880	0.0135602
872.958	0.0138120
873.036	0.0137691
873.114	0.0138419
873.193	0.0138324
873.271	0.0138052
873.349	0.0136672
873.427	0.0137393
873.505	0.0136730
873.583	0.0135319
873.661	0.0136038
873.739	0.0136782
873.818	0.0136022
873.896	0.0136866
873.974	0.0136105
874.052	0.0136228
874.130	0.0136745
874.208	0.0135062
874.286	0.0134154
874.364	0.0135774
874.443	0.0135335
874.521	0.0135949
874.599	0.0134680
874.677	0.0135755
874.755	0.0134731
874.833	0.0135375
874.911	0.0136580
874.989	0.0136282
875.068	0.0135364
875.146	0.0136587
875.224	0.0136680
875.302	0.0136415
875.380	0.0137001
875.458	0.0136923
875.536	0.0136633
875.614	0.0136702
875.693	0.0137669
875.771	0.0137565
875.849	0.0138033
875.927	0.0137948
876.005	0.0138198
876.083	0.0138790
876.161	0.0137772
876.239	0.0138847
876.318	0.0138577
876.396	0.0139149
876.474	0.0139102
876.552	0.0137481
876.630	0.0137624
876.708	0.0138940
876.786	0.0137963
876.864	0.0137988
876.943	0.0137701
877.021	0.0137772
877.099	0.0135921
877.177	0.0136010
877.255	0.0137322
877.333	0.0136077
877.411	0.0135995
877.489	0.0137061
877.568	0.0136715
877.646	0.0135361
877.724	0.0136617
877.802	0.0137640
877.880	0.0136471
877.958	0.0137083
878.036	0.0136636
878.114	0.0136954
878.193	0.0136508
878.271	0.0137418
878.349	0.0136028
878.427	0.0137057
878.505	0.0137121
878.583	0.0137711
878.661	0.0136954
878.739	0.0136323
878.818	0.0137467
878.896	0.0136036
878.974	0.0137336
879.052	0.0137238
879.130	0.0135905
879.208	0.0137669
879.286	0.0138714
879.364	0.0137471
879.443	0.0136579
879.521	0.0137048
879.599	0.0137144
879.677	0.0138313
879.755	0.0137267
879.833	0.0138107
879.911	0.0138183
879.989	0.0137363
880.068	0.0136997
880.146	0.0137629
880.224	0.0139362
880.302	0.0137434
880.380	0.0137508
880.458	0.0137672
880.536	0.0137582
880.614	0.0137247
880.693	0.0137740
880.771	0.0139462
880.849	0.0137414
880.927	0.0137516
881.005	0.0137995
881.083	0.0138583
881.161	0.0138080
881.239	0.0136804
881.318	0.0137267
881.396	0.0138203
881.474	0.0137830
881.552	0.0136959
881.630	0.0136352
881.708	0.0137129
881.786	0.0138565
881.864	0.0136435
881.943	0.0135542
882.021	0.0136366
882.099	0.0135803
882.177	0.0135468
882.255	0.0134109
882.333	0.0133325
882.411	0.0134096
882.489	0.0135002
882.568	0.0134475
882.646	0.0133725
882.724	0.0134395
882.802	0.0133649
882.880	0.0134081
882.958	0.0132235
883.036	0.0133497
883.114	0.0132844
883.193	0.0132764
883.271	0.0133862
883.349	0.0132693
883.427	0.0133212
883.505	0.0134904
883.583	0.0134540
883.661	0.0133404
883.739	0.0134367
883.818	0.0132218
883.896	0.0134042
883.974	0.0134038
884.052	0.0133423
884.130	0.0135085
884.208	0.0136106
884.286	0.0135069
884.364	0.0134702
884.443	0.0135957
884.521	0.0136691
884.599	0.0135730
884.677	0.0134978
884.755	0.0134595
884.833	0.0135938
884.911	0.0136431
884.989	0.0135947
885.068	0.0135612
885.146	0.0135404
885.224	0.0135265
885.302	0.0134115
885.380	0.0135356
885.458	0.0136122
885.536	0.0134185
885.614	0.0133584
885.693	0.0135520
885.771	0.0135616
885.849	0.0134474
885.927	0.0134530
886.005	0.0133877
886.083	0.0135560
886.161	0.0135112
886.239	0.0134441
886.318	0.0134787
886.396	0.0134003
886.474	0.0134042
886.552	0.0133717
886.630	0.0135851
886.708	0.0134100
886.786	0.0133044
886.864	0.0135327
886.943	0.0134509
887.021	0.0134145
887.099	0.0136523
887.177	0.0137362
887.255	0.0134048
887.333	0.0135683
887.411	0.0135058
887.489	0.0135272
887.568	0.0136154
887.646	0.0135680
887.724	0.0134917
887.802	0.0134892
887.880	0.0135308
887.958	0.0135662
888.036	0.0135668
888.114	0.0134739
888.193	0.0136203
888.271	0.0135280
888.349	0.0134882
888.427	0.0134694
888.505	0.0134199
888.583	0.0135378
888.661	0.0135876
888.739	0.0133670
888.818	0.0134836
888.896	0.0135880
888.974	0.0134919
889.052	0.0132447
889.130	0.0134818
889.208	0.0134939
889.286	0.0133585
889.364	0.0135583
889.443	0.0135226
889.521	0.0135176
889.599	0.0134697
889.677	0.0134751
889.755	0.0136065
889.833	0.0135079
889.911	0.0134450
889.989	0.0134433
890.068	0.0134932
890.146	0.0136399
890.224	0.0134377
890.302	0.0135184
890.380	0.0135890
890.458	0.0136132
890.536	0.0134181
890.614	0.0136056
890.693	0.0136237
890.771	0.0136945
890.849	0.0136773
890.927	0.0136976
891.005	0.0136080
891.083	0.0135954
891.161	0.0136338
891.239	0.0138004
891.318	0.0137978
891.396	0.0137291
891.474	0.0137991
891.552	0.0137384
891.630	0.0137749
891.708	0.0138535
891.786	0.0138548
891.864	0.0139032
891.943	0.0138141
892.021	0.0137618
892.099	0.0137267
892.177	0.0136995
892.255	0.0137070
892.333	0.0136884
892.411	0.0137151
892.489	0.0136330
892.568	0.0136152
892.646	0.0136520
892.724	0.0137225
892.802	0.0136278
892.880	0.0134145
892.958	0.0135515
893.036	0.0135629
893.114	0.0135486
893.193	0.0136391
893.271	0.0137006
893.349	0.0135605
893.427	0.0135999
893.505	0.0133873
893.583	0.0135541
893.661	0.0135200
893.739	0.0134965
893.818	0.0135532
893.896	0.0136001
893.974	0.0135529
894.052	0.0135837
894.130	0.0137187
894.208	0.0136086
894.286	0.0135899
894.364	0.0135917
894.443	0.0135995
894.521	0.0135335
894.599	0.0135590
894.677	0.0136602
894.755	0.0136755
894.833	0.0136011
894.911	0.0136972
894.989	0.0137650
895.068	0.0137061
895.146	0.0135828
895.224	0.0136747
895.302	0.0137183
895.380	0.0136930
895.458	0.0138366
895.536	0.0136720
895.614	0.0138274
895.693	0.0137272
895.771	0.0137580
895.849	0.0137167
895.927	0.0137262
896.005	0.0137932
896.083	0.0138614
896.161	0.0138020
896.239	0.0136475
896.318	0.0138270
896.396	0.0138522
896.474	0.0139104
896.552	0.0138438
896.630	0.0137726
896.708	0.0139368
896.786	0.0139284
896.864	0.0138994
896.943	0.0137979
897.021	0.0139256
897.099	0.0139165
897.177	0.0137719
897.255	0.0138597
897.333	0.0138158
897.411	0.0138048
897.489	0.0136264
897.568	0.0137267
897.646	0.0137189
897.724	0.0137346
897.802	0.0137206
897.880	0.0136591
897.958	0.0137968
898.036	0.0135135
898.114	0.0134691
898.193	0.0135112
898.271	0.0136281
898.349	0.0135638
898.427	0.0136145
898.505	0.0134490
898.583	0.0134421
898.661	0.0135318
898.739	0.0134053
898.818	0.0133302
898.896	0.0133329
898.974	0.0133287
899.052	0.0134147
899.130	0.0134252
899.208	0.0134175
899.286	0.0134013
899.364	0.0134157
899.443	0.0135373
899.521	0.0134605
899.599	0.0133955
899.677	0.0134524
899.755	0.0135439
899.833	0.0135366
899.911	0.0136188
899.989	0.0135452
900.068	0.0136774
900.146	0.0136311
900.224	0.0136613
900.302	0.0135603
900.380	0.0137064
900.458	0.0136684
900.536	0.0137168
900.614	0.0138071
900.693	0.0137521
900.771	0.0136931
900.849	0.0137736
900.927	0.0136863
901.005	0.0135901
901.083	0.0136752
901.161	0.0136149
901.239	0.0136401
901.318	0.0136958
901.396	0.0137288
901.474	0.0135442
901.552	0.0136038
901.630	0.0137577
901.708	0.0136253
901.786	0.0136692
901.864	0.0137099
901.943	0.0135784
902.021	0.0135809
902.099	0.0135665
902.177	0.0138128
902.255	0.0134959
902.333	0.0136619
902.411	0.0136737
902.489	0.0136700
902.568	0.0137040
902.646	0.0137876
902.724	0.0137624
902.802	0.0136459
902.880	0.0136726
902.958	0.0138397
903.036	0.0137471
903.114	0.0138264
903.193	0.0136937
903.271	0.0136357
903.349	0.0136011
903.427	0.0136536
903.505	0.0138200
903.583	0.0136090
903.661	0.0136942
903.739	0.0135480
903.818	0.0135958
903.896	0.0135269
903.974	0.0136231
904.052	0.0136738
904.130	0.0135845
904.208	0.0135739
904.286	0.0135281
904.364	0.0134234
904.443	0.0135574
904.521	0.0135631
904.599	0.0135122
904.677	0.0134510
904.755	0.0134341
904.833	0.0135754
904.911	0.0135469
904.989	0.0136113
905.068	0.0135705
905.146	0.0135619
905.224	0.0134605
905.302	0.0135439
905.380	0.0135789
905.458	0.0136555
905.536	0.0136076
905.614	0.0137035
905.693	0.0137144
905.771	0.0136366
905.849	0.0136324
905.927	0.0138528
906.005	0.0136821
906.083	0.0136737
906.161	0.0136800
906.239	0.0137794
906.318	0.0137548
906.396	0.0137041
906.474	0.0139177
906.552	0.0137574
906.630	0.0137989
906.708	0.0137122
906.786	0.0137495
906.864	0.0137679
906.943	0.0138067
907.021	0.0136736
907.099	0.0137112
907.177	0.0137196
907.255	0.0136906
907.333	0.0134911
907.411	0.0136143
907.489	0.0136154
907.568	0.0137054
907.646	0.0136888
907.724	0.0136335
907.802	0.0135915
907.880	0.0135429
907.958	0.0134639
908.036	0.0135165
908.114	0.0134995
908.193	0.0136114
908.271	0.0135225
908.349	0.0135701
908.427	0.0134295
908.505	0.0135569
908.583	0.0134756
908.661	0.0135932
908.739	0.0136763
908.818	0.0135390
908.896	0.0135526
908.974	0.0134802
909.052	0.0134608
909.130	0.0134008
909.208	0.0134549
909.286	0.0135213
909.364	0.0135924
909.443	0.0135329
909.521	0.0135041
909.599	0.0134206
909.677	0.0136189
909.755	0.0135075
909.833	0.0135992
909.911	0.0133293
909.989	0.0133835
910.068	0.0135049
910.146	0.0134081
910.224	0.0134019
910.302	0.0135078
910.380	0.0135118
910.458	0.0135017
910.536	0.0133858
910.614	0.0134992
910.693	0.0132783
910.771	0.0134050
910.849	0.0133925
910.927	0.0135519
911.005	0.0133469
911.083	0.0135532
911.161	0.0133653
911.239	0.0133550
911.318	0.0134091
911.396	0.0134533
911.474	0.0134032
911.552	0.0134278
911.630	0.0134565
911.708	0.0135818
911.786	0.0134812
911.864	0.0134950
911.943	0.0133855
912.021	0.0133807
912.099	0.0134773
912.177	0.0134905
912.255	0.0133920
912.333	0.0135017
912.411	0.0135842
912.489	0.0132330
912.568	0.0133901
912.646	0.0134012
912.724	0.0134422
912.802	0.0134492
912.880	0.0134031
912.958	0.0135178
913.036	0.0135520
913.114	0.0134566
913.193	0.0135086
913.271	0.0135190
913.349	0.0136769
913.427	0.0135508
913.505	0.0136349
913.583	0.0135474
913.661	0.0135635
913.739	0.0136537
913.818	0.0137415
913.896	0.0135087
913.974	0.0135973
914.052	0.0136653
914.130	0.0136237
914.208	0.0136481
914.286	0.0136379
914.364	0.0135581
914.443	0.0137882
914.521	0.0136983
914.599	0.0136443
914.677	0.0137219
914.755	0.0137638
914.833	0.0136792
914.911	0.0136868
914.989	0.0137329
915.068	0.0137798
915.146	0.0136371
915.224	0.0137192
915.302	0.0135990
915.380	0.0137100
915.458	0.0136233
915.536	0.0137289
915.614	0.0137284
915.693	0.0136836
915.771	0.0137185
915.849	0.0137035
915.927	0.0136280
916.005	0.0136597
916.083	0.0135550
916.161	0.0136302
916.239	0.0138251
916.318	0.0136416
916.396	0.0135833
916.474	0.0135825
916.552	0.0134942
916.630	0.0136576
916.708	0.0136774
916.786	0.0138112
916.864	0.0137178
916.943	0.0137816
917.021	0.0137119
917.099	0.0136546
917.177	0.0135249
917.255	0.0137091
917.333	0.0136595
917.411	0.0137318
917.489	0.0136095
917.568	0.0135117
917.646	0.0136628
917.724	0.0135978
917.802	0.0137035
917.880	0.0136837
917.958	0.0135921
918.036	0.0135503
918.114	0.0136448
918.193	0.0135380
918.271	0.0134709
918.349	0.0136946
918.427	0.0135983
918.505	0.0136039
918.583	0.0136797
918.661	0.0136231
918.739	0.0136423
918.818	0.0135442
918.896	0.0136023
918.974	0.0136089
919.052	0.0135779
919.130	0.0136680
919.208	0.0136847
919.286	0.0135860
919.364	0.0136463
919.443	0.0135921
919.521	0.0135251
919.599	0.0136499
919.677	0.0136629
919.755	0.0136242
919.833	0.0136726
919.911	0.0136776
919.989	0.0136878
920.068	0.0137367
920.146	0.0137112
920.224	0.0135414
920.302	0.0136527
920.380	0.0136809
920.458	0.0136649
920.536	0.0137326
920.614	0.0136524
920.693	0.0135803
920.771	0.0136705
920.849	0.0136974
920.927	0.0135936
921.005	0.0137489
921.083	0.0138264
921.161	0.0136364
921.239	0.0137040
921.318	0.0136727
921.396	0.0136220
921.474	0.0136295
921.552	0.0137610
921.630	0.0136802
921.708	0.0136569
921.786	0.0137102
921.864	0.0134825
921.943	0.0136347
922.021	0.0135947
922.099	0.0136232
922.177	0.0135593
922.255	0.0135545
922.333	0.0135079
922.411	0.0135354
922.489	0.0134968
922.568	0.0135925
922.646	0.0135404
922.724	0.0133145
922.802	0.0133936
922.880	0.0136159
922.958	0.0135365
923.036	0.0135207
923.114	0.0134389
923.193	0.0136034
923.271	0.0136308
923.349	0.0135915
923.427	0.0134058
923.505	0.0133879
923.583	0.0135255
923.661	0.0134694
923.739	0.0134212
923.818	0.0134472
923.896	0.0135419
923.974	0.0135654
924.052	0.0133892
924.130	0.0134766
924.208	0.0135936
924.286	0.0135727
924.364	0.0135950
924.443	0.0135450
924.521	0.0137051
924.599	0.0135182
924.677	0.0135493
924.755	0.0136974
924.833	0.0137492
924.911	0.0135437
924.989	0.0136381
925.068	0.0137070
925.146	0.0137739
925.224	0.0138129
925.302	0.0137926
925.380	0.0137121
925.458	0.0136385
925.536	0.0136201
925.614	0.0137684
925.693	0.0137746
925.771	0.0136945
925.849	0.0137868
925.927	0.0137418
926.005	0.0137844
926.083	0.0138040
926.161	0.0138352
926.239	0.0138676
926.318	0.0137518
926.396	0.0137762
926.474	0.0137376
926.552	0.0138220
926.630	0.0137493
926.708	0.0136804
926.786	0.0136639
926.864	0.0137189
926.943	0.0137680
927.021	0.0137109
927.099	0.0136709
927.177	0.0136570
927.255	0.0136021
927.333	0.0135650
927.411	0.0135803
927.489	0.0134821
927.568	0.0137103
927.646	0.0136567
927.724	0.0135815
927.802	0.0136584
927.880	0.0137308
927.958	0.0136375
928.036	0.0135517
928.114	0.0135576
928.193	0.0136540
928.271	0.0136179
928.349	0.0135942
928.427	0.0136807
928.505	0.0136900
928.583	0.0135352
928.661	0.0135255
928.739	0.0135366
928.818	0.0135957
928.896	0.0135619
928.974	0.0136577
929.052	0.0136025
929.130	0.0135586
929.208	0.0136091
929.286	0.0136613
929.364	0.0136819
929.443	0.0136232
929.521	0.0137975
929.599	0.0137284
929.677	0.0137666
929.755	0.0137957
929.833	0.0139261
929.911	0.0138850
929.989	0.0137800
930.068	0.0138422
930.146	0.0138683
930.224	0.0138824
930.302	0.0138191
930.380	0.0140156
930.458	0.0139973
930.536	0.0138990
930.614	0.0138022
930.693	0.0139332
930.771	0.0138848
930.849	0.0138129
930.927	0.0138689
931.005	0.0138996
931.083	0.0138157
931.161	0.0139254
931.239	0.0137682
931.318	0.0139217
931.396	0.0138578
931.474	0.0137881
931.552	0.0137916
931.630	0.0137011
931.708	0.0137355
931.786	0.0138250
931.864	0.0137903
931.943	0.0138850
932.021	0.0137700
932.099	0.0137678
932.177	0.0137879
932.255	0.0136342
932.333	0.0135362
932.411	0.0138079
932.489	0.0136809
932.568	0.0137587
932.646	0.0136645
932.724	0.0137363
932.802	0.0135927
932.880	0.0136475
932.958	0.0136927
933.036	0.0136932
933.114	0.0137742
933.193	0.0136917
933.271	0.0136935
933.349	0.0136604
933.427	0.0136328
933.505	0.0137761
933.583	0.0135892
933.661	0.0136102
933.739	0.0137335
933.818	0.0137579
933.896	0.0136557
933.974	0.0137118
934.052	0.0135928
934.130	0.0136970
934.208	0.0136403
934.286	0.0136055
934.364	0.0137875
934.443	0.0135044
934.521	0.0135982
934.599	0.0136600
934.677	0.0135586
934.755	0.0135332
934.833	0.0136424
934.911	0.0135993
934.989	0.0135834
935.068	0.0134418
935.146	0.0136123
935.224	0.0134850
935.302	0.0136105
935.380	0.0135217
935.458	0.0134744
935.536	0.0135606
935.614	0.0135262
935.693	0.0135781
935.771	0.0135053
935.849	0.0135735
935.927	0.0136472
936.005	0.0136034
936.083	0.0136972
936.161	0.0135329
936.239	0.0136388
936.318	0.0136989
936.396	0.0134746
936.474	0.0136723
936.552	0.0137261
936.630	0.0137125
936.708	0.0135764
936.786	0.0136798
936.864	0.0135574
936.943	0.0136375
937.021	0.0137051
937.099	0.0137276
937.177	0.0136553
937.255	0.0136481
937.333	0.0136578
937.411	0.0136242
937.489	0.0137024
937.568	0.0135787
937.646	0.0136173
937.724	0.0136435
937.802	0.0136758
937.880	0.0136285
937.958	0.0135399
938.036	0.0134722
938.114	0.0134632
938.193	0.0135603
938.271	0.0135835
938.349	0.0133619
938.427	0.0135110
938.505	0.0135362
938.583	0.0135357
938.661	0.0135767
938.739	0.0133662
938.818	0.0133269
938.896	0.0134145
938.974	0.0133820
939.052	0.0136186
939.130	0.0135741
939.208	0.0134950
939.286	0.0136343
939.364	0.0135468
939.443	0.0134464
939.521	0.0134819
939.599	0.0135495
939.677	0.0135083
939.755	0.0133593
939.833	0.0134705
939.911	0.0134676
939.989	0.0134923
940.068	0.0135442
940.146	0.0135326
940.224	0.0134965
940.302	0.0135498
940.380	0.0135732
940.458	0.0136240
940.536	0.0134443
940.614	0.0134541
940.693	0.0135699
940.771	0.0135860
940.849	0.0135667
940.927	0.0136832
941.005	0.0133894
941.083	0.0135801
941.161	0.0135855
941.239	0.0136500
941.318	0.0136250
941.396	0.0136990
941.474	0.0136940
941.552	0.0137200
941.630	0.0136153
941.708	0.0136005
941.786	0.0135603
941.864	0.0136103
941.943	0.0137474
942.021	0.0137366
942.099	0.0137100
942.177	0.0136598
942.255	0.0135178
942.333	0.0137122
942.411	0.0136465
942.489	0.0134761
942.568	0.0136791
942.646	0.0137013
942.724	0.0135021
942.802	0.0135794
942.880	0.0137809
942.958	0.0135717
943.036	0.0135782
943.114	0.0135697
943.193	0.0136628
943.271	0.0137109
943.349	0.0136068
943.427	0.0135522
943.505	0.0136385
943.583	0.0135352
943.661	0.0136030
943.739	0.0135979
943.818	0.0135270
943.896	0.0136053
943.974	0.0136491
944.052	0.0136004
944.130	0.0137047
944.208	0.0136074
944.286	0.0135678
944.364	0.0136422
944.443	0.0137421
944.521	0.0137147
944.599	0.0135552
944.677	0.0136755
944.755	0.0136905
944.833	0.0138028
944.911	0.0136908
944.989	0.0136903
945.068	0.0135860
945.146	0.0137758
945.224	0.0137180
945.302	0.0136637
945.380	0.0136414
945.458	0.0138870
945.536	0.0136903
945.614	0.0137540
945.693	0.0137016
945.771	0.0138721
945.849	0.0137162
945.927	0.0135946
946.005	0.0138560
946.083	0.0137514
946.161	0.0136611
946.239	0.0137563
946.318	0.0137444
946.396	0.0138430
946.474	0.0137631
946.552	0.0136615
946.630	0.0136700
946.708	0.0136490
946.786	0.0138612
946.864	0.0137793
946.943	0.0137317
947.021	0.0136950
947.099	0.0136396
947.177	0.0137636
947.255	0.0136938
947.333	0.0136901
947.411	0.0136973
947.489	0.0137263
947.568	0.0137019
947.646	0.0136364
947.724	0.0137463
947.802	0.0138091
947.880	0.0138004
947.958	0.0137966
948.036	0.0137300
948.114	0.0136462
948.193	0.0137456
948.271	0.0137661
948.349	0.0137789
948.427	0.0137174
948.505	0.0138178
948.583	0.0136329
948.661	0.0137744
948.739	0.0136197
948.818	0.0137912
948.896	0.0137779
948.974	0.0138068
949.052	0.0137503
949.130	0.0138998
949.208	0.0139304
949.286	0.0137399
949.364	0.0138535
949.443	0.0138476
949.521	0.0137090
949.599	0.0138541
949.677	0.0137358
949.755	0.0138639
949.833	0.0137802
949.911	0.0138410
949.989	0.0137521
950.068	0.0138905
950.146	0.0138190
950.224	0.0136956
950.302	0.0137183
950.380	0.0138165
950.458	0.0137322
950.536	0.0137922
950.614	0.0137567
950.693	0.0136725
950.771	0.0137637
950.849	0.0137777
950.927	0.0136360
951.005	0.0135026
951.083	0.0136315
951.161	0.0135667
951.239	0.0135226
951.318	0.0135202
951.396	0.0135181
951.474	0.0135845
951.552	0.0136178
951.630	0.0134663
951.708	0.0134521
951.786	0.0135461
951.864	0.0135247
951.943	0.0135030
952.021	0.0133879
952.099	0.0135519
952.177	0.0134581
952.255	0.0135807
952.333	0.0136317
952.411	0.0135644
952.489	0.0136353
952.568	0.0135557
952.646	0.0135632
952.724	0.0135436
952.802	0.0136079
952.880	0.0135725
952.958	0.0136172
953.036	0.0136650
953.114	0.0135658
953.193	0.0135787
953.271	0.0136517
953.349	0.0136259
953.427	0.0135294
953.505	0.0134924
953.583	0.0136334
953.661	0.0136626
953.739	0.0136317
953.818	0.0136205
953.896	0.0136452
953.974	0.0135186
954.052	0.0136864
954.130	0.0136544
954.208	0.0135074
954.286	0.0136510
954.364	0.0135581
954.443	0.0135183
954.521	0.0136034
954.599	0.0135949
954.677	0.0135937
954.755	0.0135548
954.833	0.0136796
954.911	0.0135703
954.989	0.0135017
955.068	0.0136588
955.146	0.0136676
955.224	0.0134335
955.302	0.0135746
955.380	0.0135682
955.458	0.0136112
955.536	0.0137131
955.614	0.0136714
955.693	0.0137174
955.771	0.0138028
955.849	0.0136433
955.927	0.0138158
956.005	0.0138239
956.083	0.0137518
956.161	0.0138172
956.239	0.0137627
956.318	0.0135842
956.396	0.0137168
956.474	0.0137483
956.552	0.0137630
956.630	0.0136803
956.708	0.0136002
956.786	0.0137526
956.864	0.0137682
956.943	0.0136285
957.021	0.0137992
957.099	0.0136210
957.177	0.0135993
957.255	0.0138290
957.333	0.0137003
957.411	0.0136459
957.489	0.0137225
957.568	0.0136521
957.646	0.0137060
957.724	0.0137035
957.802	0.0136504
957.880	0.0137791
957.958	0.0137991
958.036	0.0137390
958.114	0.0137199
958.193	0.0136367
958.271	0.0138116
958.349	0.0135842
958.427	0.0136742
958.505	0.0137515
958.583	0.0136949
958.661	0.0136322
958.739	0.0136368
958.818	0.0136111
958.896	0.0136480
958.974	0.0135198
959.052	0.0134933
959.130	0.0134798
959.208	0.0134814
959.286	0.0135750
959.364	0.0134135
959.443	0.0134682
959.521	0.0135110
959.599	0.0135609
959.677	0.0134344
959.755	0.0135438
959.833	0.0136066
959.911	0.0134435
