05/07/2022	17:50:19	Ver.	4.1	UNKNOWN
Optical Delay	639.989416	Delta X		0.078125	Sweeps	1	Scan Rate	0/0
Coordinates	Axis 1	NaN	Axis 2	NaN	Axis 3	NaN	Axis 4	NaN	Axis 5	NaN	Axis 6	0.000000
TX Power	0.000000	RX Power	0.000000

639.989	0.0132612
640.068	0.0132888
640.146	0.0133222
640.224	0.0131154
640.302	0.0132690
640.380	0.0132475
640.458	0.0132631
640.536	0.0131203
640.614	0.0132093
640.693	0.0131242
640.771	0.0131979
640.849	0.0129955
640.927	0.0131671
641.005	0.0131224
641.083	0.0130708
641.161	0.0130721
641.239	0.0130798
641.318	0.0132088
641.396	0.0130710
641.474	0.0130882
641.552	0.0131434
641.630	0.0131811
641.708	0.0133066
641.786	0.0132883
641.864	0.0132171
641.943	0.0132117
642.021	0.0133543
642.099	0.0132451
642.177	0.0130840
642.255	0.0132235
642.333	0.0131849
642.411	0.0129999
642.489	0.0133564
642.568	0.0132829
642.646	0.0130450
642.724	0.0132060
642.802	0.0130910
642.880	0.0131242
642.958	0.0129845
643.036	0.0129578
643.114	0.0129490
643.193	0.0129684
643.271	0.0128783
643.349	0.0129092
643.427	0.0128114
643.505	0.0127975
643.583	0.0129013
643.661	0.0129125
643.739	0.0127571
643.818	0.0128667
643.896	0.0130102
643.974	0.0129305
644.052	0.0129852
644.130	0.0130865
644.208	0.0129213
644.286	0.0130450
644.364	0.0131622
644.443	0.0132010
644.521	0.0132963
644.599	0.0133839
644.677	0.0133296
644.755	0.0134561
644.833	0.0135007
644.911	0.0134537
644.989	0.0133096
645.068	0.0134100
645.146	0.0134791
645.224	0.0135535
645.302	0.0135457
645.380	0.0135945
645.458	0.0134411
645.536	0.0134105
645.614	0.0134666
645.693	0.0134539
645.771	0.0131750
645.849	0.0131284
645.927	0.0131633
646.005	0.0132023
646.083	0.0129662
646.161	0.0128596
646.239	0.0129098
646.318	0.0129984
646.396	0.0129269
646.474	0.0127203
646.552	0.0127967
646.630	0.0126065
646.708	0.0127332
646.786	0.0127287
646.864	0.0126837
646.943	0.0129295
647.021	0.0127818
647.099	0.0129710
647.177	0.0129688
647.255	0.0130233
647.333	0.0130013
647.411	0.0130727
647.489	0.0132204
647.568	0.0132053
647.646	0.0132571
647.724	0.0132806
647.802	0.0134425
647.880	0.0134544
647.958	0.0136291
648.036	0.0135599
648.114	0.0136292
648.193	0.0134895
648.271	0.0134560
648.349	0.0135597
648.427	0.0134901
648.505	0.0134142
648.583	0.0132056
648.661	0.0133128
648.739	0.0132842
648.818	0.0133130
648.896	0.0131572
648.974	0.0131435
649.052	0.0131644
649.130	0.0129066
649.208	0.0129145
649.286	0.0129315
649.364	0.0129090
649.443	0.0128577
649.521	0.0128957
649.599	0.0129794
649.677	0.0129185
649.755	0.0127673
649.833	0.0128815
649.911	0.0129185
649.989	0.0130015
650.068	0.0129822
650.146	0.0128989
650.224	0.0131120
650.302	0.0130366
650.380	0.0130354
650.458	0.0130071
650.536	0.0131955
650.614	0.0131477
650.693	0.0130733
650.771	0.0131760
650.849	0.0130659
650.927	0.0131716
651.005	0.0131472
651.083	0.0129558
651.161	0.0130946
651.239	0.0130410
651.318	0.0130522
651.396	0.0131203
651.474	0.0131232
651.552	0.0130374
651.630	0.0130556
651.708	0.0129556
651.786	0.0130062
651.864	0.0132083
651.943	0.0132927
652.021	0.0131770
652.099	0.0132113
652.177	0.0134166
652.255	0.0134514
652.333	0.0134254
652.411	0.0136635
652.489	0.0136157
652.568	0.0137234
652.646	0.0137324
652.724	0.0138618
652.802	0.0137602
652.880	0.0138712
652.958	0.0138956
653.036	0.0139563
653.114	0.0138874
653.193	0.0136929
653.271	0.0138687
653.349	0.0138672
653.427	0.0135699
653.505	0.0134930
653.583	0.0134814
653.661	0.0133498
653.739	0.0132248
653.818	0.0132358
653.896	0.0130435
653.974	0.0129458
654.052	0.0129071
654.130	0.0128426
654.208	0.0125397
654.286	0.0126800
654.364	0.0126027
654.443	0.0124386
654.521	0.0124277
654.599	0.0123349
654.677	0.0122858
654.755	0.0122710
654.833	0.0121996
654.911	0.0121588
654.989	0.0120506
655.068	0.0121265
655.146	0.0122227
655.224	0.0121182
655.302	0.0120079
655.380	0.0121642
655.458	0.0123422
655.536	0.0122291
655.614	0.0123731
655.693	0.0124954
655.771	0.0124517
655.849	0.0128777
655.927	0.0129020
656.005	0.0131443
656.083	0.0134229
656.161	0.0135303
656.239	0.0134790
656.318	0.0138081
656.396	0.0139593
656.474	0.0140605
656.552	0.0142962
656.630	0.0144045
656.708	0.0142481
656.786	0.0143947
656.864	0.0144036
656.943	0.0144817
657.021	0.0145350
657.099	0.0143838
657.177	0.0143036
657.255	0.0142038
657.333	0.0140657
657.411	0.0138181
657.489	0.0137647
657.568	0.0137084
657.646	0.0133535
657.724	0.0132130
657.802	0.0130278
657.880	0.0128960
657.958	0.0128381
658.036	0.0126243
658.114	0.0123569
658.193	0.0123704
658.271	0.0122740
658.349	0.0121085
658.427	0.0119746
658.505	0.0119282
658.583	0.0117676
658.661	0.0118840
658.739	0.0119346
658.818	0.0119322
658.896	0.0119219
658.974	0.0120480
659.052	0.0121705
659.130	0.0122877
659.208	0.0123268
659.286	0.0123042
659.364	0.0126144
659.443	0.0125546
659.521	0.0129924
659.599	0.0130309
659.677	0.0129681
659.755	0.0131218
659.833	0.0133397
659.911	0.0133218
659.989	0.0134152
660.068	0.0134720
660.146	0.0135995
660.224	0.0137428
660.302	0.0138509
660.380	0.0138523
660.458	0.0138861
660.536	0.0138586
660.614	0.0140135
660.693	0.0139988
660.771	0.0140503
660.849	0.0141630
660.927	0.0141933
661.005	0.0141925
661.083	0.0142553
661.161	0.0143997
661.239	0.0144543
661.318	0.0143420
661.396	0.0144601
661.474	0.0144567
661.552	0.0145464
661.630	0.0144571
661.708	0.0143525
661.786	0.0145026
661.864	0.0144617
661.943	0.0144044
662.021	0.0142675
662.099	0.0140829
662.177	0.0140675
662.255	0.0139668
662.333	0.0139586
662.411	0.0135265
662.489	0.0134941
662.568	0.0133333
662.646	0.0131724
662.724	0.0130395
662.802	0.0129733
662.880	0.0126447
662.958	0.0125617
663.036	0.0123620
663.114	0.0122072
663.193	0.0120932
663.271	0.0120635
663.349	0.0119807
663.427	0.0118018
663.505	0.0118032
663.583	0.0117297
663.661	0.0117097
663.739	0.0116824
663.818	0.0117498
663.896	0.0119430
663.974	0.0119643
664.052	0.0120168
664.130	0.0121324
664.208	0.0122609
664.286	0.0124483
664.364	0.0124034
664.443	0.0126879
664.521	0.0128539
664.599	0.0129946
664.677	0.0132059
664.755	0.0132035
664.833	0.0134566
664.911	0.0135806
664.989	0.0137730
665.068	0.0138599
665.146	0.0138773
665.224	0.0139622
665.302	0.0140910
665.380	0.0141544
665.458	0.0143646
665.536	0.0142382
665.614	0.0143584
665.693	0.0144589
665.771	0.0144978
665.849	0.0144260
665.927	0.0145515
666.005	0.0144471
666.083	0.0146468
666.161	0.0145935
666.239	0.0146410
666.318	0.0147190
666.396	0.0145818
666.474	0.0145609
666.552	0.0146056
666.630	0.0146174
666.708	0.0146558
666.786	0.0143383
666.864	0.0143250
666.943	0.0142290
667.021	0.0139756
667.099	0.0138493
667.177	0.0136246
667.255	0.0132898
667.333	0.0130110
667.411	0.0127348
667.489	0.0126292
667.568	0.0123213
667.646	0.0121635
667.724	0.0118515
667.802	0.0115562
667.880	0.0113895
667.958	0.0113417
668.036	0.0109025
668.114	0.0109306
668.193	0.0107199
668.271	0.0105639
668.349	0.0106119
668.427	0.0105481
668.505	0.0107687
668.583	0.0108194
668.661	0.0109134
668.739	0.0110000
668.818	0.0112085
668.896	0.0113094
668.974	0.0117404
669.052	0.0120174
669.130	0.0122491
669.208	0.0125468
669.286	0.0129185
669.364	0.0133494
669.443	0.0135988
669.521	0.0138486
669.599	0.0141904
669.677	0.0144735
669.755	0.0146655
669.833	0.0150027
669.911	0.0151361
669.989	0.0151724
670.068	0.0154472
670.146	0.0155894
670.224	0.0155359
670.302	0.0153356
670.380	0.0152913
670.458	0.0152483
670.536	0.0152985
670.614	0.0152010
670.693	0.0150388
670.771	0.0149681
670.849	0.0146520
670.927	0.0145634
671.005	0.0145380
671.083	0.0143707
671.161	0.0144160
671.239	0.0141065
671.318	0.0139730
671.396	0.0138815
671.474	0.0138711
671.552	0.0135371
671.630	0.0136185
671.708	0.0133106
671.786	0.0132307
671.864	0.0131156
671.943	0.0129739
672.021	0.0128106
672.099	0.0125745
672.177	0.0124681
672.255	0.0122060
672.333	0.0119824
672.411	0.0119329
672.489	0.0116914
672.568	0.0117050
672.646	0.0114777
672.724	0.0112299
672.802	0.0112428
672.880	0.0110576
672.958	0.0110686
673.036	0.0109787
673.114	0.0108863
673.193	0.0109090
673.271	0.0110918
673.349	0.0110423
673.427	0.0112177
673.505	0.0113414
673.583	0.0115842
673.661	0.0119216
673.739	0.0119733
673.818	0.0122491
673.896	0.0126179
673.974	0.0127909
674.052	0.0129675
674.130	0.0133974
674.208	0.0134945
674.286	0.0138880
674.364	0.0142183
674.443	0.0143918
674.521	0.0146268
674.599	0.0147614
674.677	0.0149055
674.755	0.0149466
674.833	0.0150984
674.911	0.0149654
674.989	0.0151929
675.068	0.0151701
675.146	0.0149715
675.224	0.0148592
675.302	0.0148102
675.380	0.0146056
675.458	0.0143636
675.536	0.0141601
675.614	0.0140253
675.693	0.0137736
675.771	0.0137361
675.849	0.0134486
675.927	0.0132600
676.005	0.0128883
676.083	0.0127769
676.161	0.0127491
676.239	0.0126363
676.318	0.0126558
676.396	0.0125248
676.474	0.0123045
676.552	0.0124823
676.630	0.0125293
676.708	0.0123096
676.786	0.0124407
676.864	0.0125390
676.943	0.0126299
677.021	0.0127850
677.099	0.0127113
677.177	0.0128811
677.255	0.0129322
677.333	0.0129478
677.411	0.0130450
677.489	0.0131468
677.568	0.0132359
677.646	0.0132043
677.724	0.0132070
677.802	0.0132378
677.880	0.0131197
677.958	0.0132664
678.036	0.0131459
678.114	0.0130766
678.193	0.0130219
678.271	0.0128577
678.349	0.0128526
678.427	0.0128447
678.505	0.0127199
678.583	0.0125754
678.661	0.0125199
678.739	0.0125079
678.818	0.0123458
678.896	0.0124411
678.974	0.0124660
679.052	0.0126160
679.130	0.0125990
679.208	0.0125872
679.286	0.0126614
679.364	0.0127753
679.443	0.0129060
679.521	0.0132037
679.599	0.0132481
679.677	0.0134132
679.755	0.0135585
679.833	0.0136816
679.911	0.0138081
679.989	0.0138802
680.068	0.0140251
680.146	0.0140334
680.224	0.0142596
680.302	0.0144221
680.380	0.0143489
680.458	0.0142078
680.536	0.0143630
680.614	0.0143932
680.693	0.0142827
680.771	0.0142060
680.849	0.0141221
680.927	0.0140784
681.005	0.0140314
681.083	0.0138992
681.161	0.0138158
681.239	0.0137579
681.318	0.0135808
681.396	0.0134515
681.474	0.0132793
681.552	0.0130433
681.630	0.0131508
681.708	0.0127625
681.786	0.0127865
681.864	0.0127921
681.943	0.0127509
682.021	0.0127956
682.099	0.0127335
682.177	0.0127138
682.255	0.0125859
682.333	0.0126675
682.411	0.0126544
682.489	0.0127592
682.568	0.0126753
682.646	0.0128006
682.724	0.0127618
682.802	0.0129440
682.880	0.0129034
682.958	0.0128504
683.036	0.0130037
683.114	0.0129230
683.193	0.0131265
683.271	0.0129987
683.349	0.0131751
683.427	0.0130704
683.505	0.0132307
683.583	0.0132416
683.661	0.0133941
683.739	0.0132676
683.818	0.0132546
683.896	0.0134146
683.974	0.0134475
684.052	0.0133647
684.130	0.0134355
684.208	0.0133157
684.286	0.0134654
684.364	0.0134560
684.443	0.0133513
684.521	0.0133906
684.599	0.0134097
684.677	0.0133654
684.755	0.0134873
684.833	0.0134286
684.911	0.0134200
684.989	0.0132474
685.068	0.0133733
685.146	0.0133769
685.224	0.0132533
685.302	0.0132819
685.380	0.0131528
685.458	0.0131835
685.536	0.0130114
685.614	0.0130334
685.693	0.0129037
685.771	0.0130375
685.849	0.0131050
685.927	0.0128718
686.005	0.0129382
686.083	0.0129870
686.161	0.0129860
686.239	0.0130341
686.318	0.0128729
686.396	0.0130730
686.474	0.0130539
686.552	0.0132948
686.630	0.0132130
686.708	0.0133447
686.786	0.0133585
686.864	0.0133980
686.943	0.0135587
687.021	0.0137644
687.099	0.0136607
687.177	0.0137045
687.255	0.0136669
687.333	0.0138726
687.411	0.0140576
687.489	0.0140899
687.568	0.0140655
687.646	0.0140006
687.724	0.0140437
687.802	0.0138873
687.880	0.0140742
687.958	0.0138800
688.036	0.0138747
688.114	0.0138092
688.193	0.0136534
688.271	0.0137144
688.349	0.0134280
688.427	0.0133566
688.505	0.0133091
688.583	0.0131149
688.661	0.0129812
688.739	0.0130083
688.818	0.0128823
688.896	0.0127971
688.974	0.0126067
689.052	0.0126447
689.130	0.0126145
689.208	0.0125511
689.286	0.0126191
689.364	0.0125887
689.443	0.0125199
689.521	0.0125935
689.599	0.0127338
689.677	0.0126603
689.755	0.0126508
689.833	0.0127607
689.911	0.0129017
689.989	0.0128976
690.068	0.0129288
690.146	0.0130135
690.224	0.0130730
690.302	0.0130267
690.380	0.0133719
690.458	0.0132786
690.536	0.0135455
690.614	0.0133649
690.693	0.0133835
690.771	0.0135014
690.849	0.0135043
690.927	0.0135388
691.005	0.0136237
691.083	0.0135288
691.161	0.0136278
691.239	0.0136504
691.318	0.0135834
691.396	0.0135932
691.474	0.0135149
691.552	0.0136128
691.630	0.0136562
691.708	0.0134905
691.786	0.0134830
691.864	0.0135370
691.943	0.0134966
692.021	0.0134947
692.099	0.0132697
692.177	0.0132287
692.255	0.0133643
692.333	0.0130890
692.411	0.0131279
692.489	0.0131393
692.568	0.0130511
692.646	0.0131097
692.724	0.0130115
692.802	0.0129647
692.880	0.0129742
692.958	0.0129368
693.036	0.0127142
693.114	0.0128327
693.193	0.0127365
693.271	0.0127782
693.349	0.0128095
693.427	0.0128055
693.505	0.0127222
693.583	0.0127728
693.661	0.0128790
693.739	0.0128675
693.818	0.0129871
693.896	0.0130933
693.974	0.0130921
694.052	0.0132143
694.130	0.0131197
694.208	0.0132523
694.286	0.0133560
694.364	0.0133732
694.443	0.0135932
694.521	0.0136291
694.599	0.0136189
694.677	0.0136620
694.755	0.0137827
694.833	0.0138426
694.911	0.0139306
694.989	0.0138602
695.068	0.0138802
695.146	0.0138304
695.224	0.0139215
695.302	0.0138270
695.380	0.0137590
695.458	0.0137330
695.536	0.0137422
695.614	0.0137406
695.693	0.0136035
695.771	0.0136891
695.849	0.0134707
695.927	0.0133636
696.005	0.0133817
696.083	0.0133036
696.161	0.0131070
696.239	0.0130512
696.318	0.0128859
696.396	0.0128231
696.474	0.0127075
696.552	0.0127174
696.630	0.0127096
696.708	0.0126614
696.786	0.0126526
696.864	0.0125108
696.943	0.0125489
697.021	0.0127309
697.099	0.0126044
697.177	0.0125193
697.255	0.0126147
697.333	0.0125368
697.411	0.0126955
697.489	0.0127412
697.568	0.0127005
697.646	0.0127579
697.724	0.0128828
697.802	0.0128030
697.880	0.0129366
697.958	0.0129321
698.036	0.0130781
698.114	0.0132030
698.193	0.0131088
698.271	0.0132714
698.349	0.0133277
698.427	0.0133425
698.505	0.0133902
698.583	0.0135450
698.661	0.0135627
698.739	0.0136982
698.818	0.0137070
698.896	0.0138212
698.974	0.0138937
699.052	0.0140545
699.130	0.0138881
699.208	0.0140567
699.286	0.0141813
699.364	0.0141528
699.443	0.0141705
699.521	0.0142459
699.599	0.0143359
699.677	0.0140190
699.755	0.0140939
699.833	0.0141446
699.911	0.0140188
699.989	0.0139656
700.068	0.0139539
700.146	0.0137281
700.224	0.0137783
700.302	0.0136346
700.380	0.0136067
700.458	0.0134707
700.536	0.0134656
700.614	0.0134050
700.693	0.0132223
700.771	0.0131770
700.849	0.0131156
700.927	0.0131779
701.005	0.0130488
701.083	0.0130843
701.161	0.0130226
701.239	0.0129877
701.318	0.0128401
701.396	0.0127964
701.474	0.0128327
701.552	0.0127670
701.630	0.0127405
701.708	0.0126816
701.786	0.0127129
701.864	0.0126852
701.943	0.0127656
702.021	0.0127660
702.099	0.0127637
702.177	0.0127092
702.255	0.0128291
702.333	0.0128407
702.411	0.0128090
702.489	0.0128371
702.568	0.0128819
702.646	0.0127082
702.724	0.0127914
702.802	0.0128777
702.880	0.0127793
702.958	0.0126906
703.036	0.0129918
703.114	0.0127957
703.193	0.0128036
703.271	0.0127863
703.349	0.0128397
703.427	0.0127297
703.505	0.0126768
703.583	0.0127697
703.661	0.0129729
703.739	0.0130058
703.818	0.0131152
703.896	0.0132079
703.974	0.0132600
704.052	0.0132350
704.130	0.0134259
704.208	0.0133984
704.286	0.0135464
704.364	0.0137205
704.443	0.0138593
704.521	0.0139999
704.599	0.0141022
704.677	0.0141803
704.755	0.0142714
704.833	0.0141548
704.911	0.0143993
704.989	0.0144395
705.068	0.0145271
705.146	0.0143818
705.224	0.0145287
705.302	0.0146059
705.380	0.0145631
705.458	0.0144423
705.536	0.0145331
705.614	0.0143419
705.693	0.0144055
705.771	0.0143616
705.849	0.0143432
705.927	0.0141742
706.005	0.0142052
706.083	0.0140366
706.161	0.0139342
706.239	0.0138898
706.318	0.0138033
706.396	0.0136589
706.474	0.0135484
706.552	0.0134441
706.630	0.0131676
706.708	0.0131850
706.786	0.0129975
706.864	0.0129141
706.943	0.0127487
707.021	0.0128802
707.099	0.0126469
707.177	0.0126318
707.255	0.0125118
707.333	0.0124037
707.411	0.0124805
707.489	0.0124539
707.568	0.0124748
707.646	0.0123054
707.724	0.0123409
707.802	0.0122580
707.880	0.0123465
707.958	0.0123141
708.036	0.0122572
708.114	0.0123673
708.193	0.0123460
708.271	0.0122691
708.349	0.0124055
708.427	0.0124052
708.505	0.0122793
708.583	0.0125206
708.661	0.0124039
708.739	0.0125728
708.818	0.0125623
708.896	0.0127927
708.974	0.0127163
709.052	0.0126393
709.130	0.0128212
709.208	0.0128095
709.286	0.0127554
709.364	0.0128900
709.443	0.0129656
709.521	0.0132388
709.599	0.0132949
709.677	0.0133338
709.755	0.0134509
709.833	0.0133779
709.911	0.0136408
709.989	0.0136388
710.068	0.0138295
710.146	0.0137210
710.224	0.0139545
710.302	0.0139821
710.380	0.0140436
710.458	0.0141267
710.536	0.0141640
710.614	0.0142387
710.693	0.0141425
710.771	0.0142102
710.849	0.0141513
710.927	0.0141887
711.005	0.0141330
711.083	0.0141183
711.161	0.0141184
711.239	0.0141169
711.318	0.0140958
711.396	0.0141371
711.474	0.0139833
711.552	0.0139793
711.630	0.0138602
711.708	0.0137234
711.786	0.0136621
711.864	0.0135789
711.943	0.0135237
712.021	0.0135410
712.099	0.0134247
712.177	0.0132478
712.255	0.0132287
712.333	0.0130802
712.411	0.0130437
712.489	0.0130251
712.568	0.0128603
712.646	0.0127316
712.724	0.0127270
712.802	0.0126316
712.880	0.0126414
712.958	0.0124931
713.036	0.0123738
713.114	0.0123823
713.193	0.0123023
713.271	0.0122219
713.349	0.0122708
713.427	0.0122135
713.505	0.0122503
713.583	0.0122655
713.661	0.0123309
713.739	0.0121726
713.818	0.0122766
713.896	0.0123842
713.974	0.0123806
714.052	0.0123918
714.130	0.0125703
714.208	0.0124477
714.286	0.0125761
714.364	0.0126763
714.443	0.0128770
714.521	0.0128972
714.599	0.0129776
714.677	0.0130944
714.755	0.0131323
714.833	0.0132181
714.911	0.0133076
714.989	0.0135014
715.068	0.0135354
715.146	0.0135854
715.224	0.0137060
715.302	0.0137347
715.380	0.0139064
715.458	0.0139060
715.536	0.0140181
715.614	0.0138629
715.693	0.0138840
715.771	0.0139541
715.849	0.0139223
715.927	0.0138711
716.005	0.0138617
716.083	0.0139056
716.161	0.0138721
716.239	0.0139434
716.318	0.0137220
716.396	0.0135896
716.474	0.0136149
716.552	0.0134789
716.630	0.0133946
716.708	0.0135328
716.786	0.0134844
716.864	0.0133001
716.943	0.0132551
717.021	0.0132890
717.099	0.0132996
717.177	0.0132130
717.255	0.0132836
717.333	0.0133141
717.411	0.0132054
717.489	0.0132547
717.568	0.0131562
717.646	0.0131735
717.724	0.0133653
717.802	0.0131981
717.880	0.0133052
717.958	0.0132484
718.036	0.0132862
718.114	0.0131358
718.193	0.0131782
718.271	0.0132020
718.349	0.0130365
718.427	0.0131663
718.505	0.0132529
718.583	0.0129724
718.661	0.0130375
718.739	0.0130070
718.818	0.0128279
718.896	0.0127943
718.974	0.0126126
719.052	0.0126575
719.130	0.0127231
719.208	0.0127445
719.286	0.0126472
719.364	0.0127121
719.443	0.0125310
719.521	0.0126724
719.599	0.0124789
719.677	0.0127055
719.755	0.0125327
719.833	0.0126126
719.911	0.0127546
719.989	0.0127637
720.068	0.0127459
720.146	0.0127698
720.224	0.0126517
720.302	0.0127998
720.380	0.0129475
720.458	0.0127738
720.536	0.0129422
720.614	0.0129793
720.693	0.0128950
720.771	0.0131072
720.849	0.0131227
720.927	0.0132336
721.005	0.0131369
721.083	0.0131752
721.161	0.0134904
721.239	0.0135914
721.318	0.0136028
721.396	0.0136623
721.474	0.0137950
721.552	0.0138693
721.630	0.0138519
721.708	0.0138335
721.786	0.0138876
721.864	0.0139200
721.943	0.0138680
722.021	0.0137327
722.099	0.0138192
722.177	0.0137983
722.255	0.0137788
722.333	0.0136008
722.411	0.0135635
722.489	0.0135225
722.568	0.0136259
722.646	0.0135314
722.724	0.0134713
722.802	0.0134415
722.880	0.0134084
722.958	0.0132695
723.036	0.0133096
723.114	0.0132367
723.193	0.0132372
723.271	0.0131393
723.349	0.0129768
723.427	0.0131665
723.505	0.0130903
723.583	0.0130503
723.661	0.0130521
723.739	0.0129282
723.818	0.0132336
723.896	0.0131551
723.974	0.0131083
724.052	0.0131782
724.130	0.0129654
724.208	0.0132581
724.286	0.0132523
724.364	0.0134499
724.443	0.0134035
724.521	0.0133930
724.599	0.0135308
724.677	0.0136092
724.755	0.0135011
724.833	0.0136542
724.911	0.0137038
724.989	0.0137505
725.068	0.0135986
725.146	0.0136105
725.224	0.0135559
725.302	0.0134388
725.380	0.0134377
725.458	0.0135340
725.536	0.0133907
725.614	0.0132607
725.693	0.0132393
725.771	0.0133978
725.849	0.0131197
725.927	0.0131029
726.005	0.0131374
726.083	0.0130794
726.161	0.0130937
726.239	0.0131903
726.318	0.0129621
726.396	0.0128391
726.474	0.0130323
726.552	0.0130540
726.630	0.0130951
726.708	0.0130274
726.786	0.0130779
726.864	0.0130093
726.943	0.0131226
727.021	0.0131471
727.099	0.0131159
727.177	0.0131629
727.255	0.0131881
727.333	0.0132736
727.411	0.0131335
727.489	0.0131550
727.568	0.0132023
727.646	0.0131031
727.724	0.0132847
727.802	0.0132083
727.880	0.0131402
727.958	0.0132345
728.036	0.0132922
728.114	0.0133513
728.193	0.0132151
728.271	0.0134627
728.349	0.0133947
728.427	0.0132848
728.505	0.0133815
728.583	0.0133941
728.661	0.0133725
728.739	0.0134737
728.818	0.0134650
728.896	0.0135155
728.974	0.0132612
729.052	0.0133463
729.130	0.0133852
729.208	0.0133304
729.286	0.0132931
729.364	0.0133479
729.443	0.0131523
729.521	0.0131865
729.599	0.0133163
729.677	0.0132583
729.755	0.0132204
729.833	0.0132699
729.911	0.0133322
729.989	0.0131649
730.068	0.0133298
730.146	0.0132494
730.224	0.0131603
730.302	0.0131335
730.380	0.0132435
730.458	0.0132375
730.536	0.0133960
730.614	0.0133221
730.693	0.0133829
730.771	0.0133575
730.849	0.0132983
730.927	0.0132825
731.005	0.0135338
731.083	0.0133353
731.161	0.0133689
731.239	0.0133789
731.318	0.0134320
731.396	0.0133189
731.474	0.0134257
731.552	0.0133323
731.630	0.0132265
731.708	0.0133258
731.786	0.0132274
731.864	0.0132925
731.943	0.0132029
732.021	0.0131412
732.099	0.0131448
732.177	0.0130360
732.255	0.0130337
732.333	0.0130119
732.411	0.0131473
732.489	0.0131093
732.568	0.0130215
732.646	0.0128307
732.724	0.0129177
732.802	0.0129931
732.880	0.0130051
732.958	0.0132191
733.036	0.0131619
733.114	0.0128849
733.193	0.0129694
733.271	0.0129737
733.349	0.0130155
733.427	0.0128918
733.505	0.0130330
733.583	0.0130882
733.661	0.0130781
733.739	0.0131264
733.818	0.0129622
733.896	0.0130124
733.974	0.0131100
734.052	0.0131250
734.130	0.0130508
734.208	0.0131152
734.286	0.0130918
734.364	0.0130561
734.443	0.0130796
734.521	0.0131441
734.599	0.0129698
734.677	0.0131036
734.755	0.0131885
734.833	0.0131579
734.911	0.0132265
734.989	0.0132963
735.068	0.0132316
735.146	0.0131990
735.224	0.0131890
735.302	0.0132043
735.380	0.0131280
735.458	0.0131651
735.536	0.0131290
735.614	0.0132095
735.693	0.0133822
735.771	0.0132629
735.849	0.0132972
735.927	0.0132221
736.005	0.0132664
736.083	0.0132986
736.161	0.0132349
736.239	0.0133759
736.318	0.0132852
736.396	0.0134222
736.474	0.0133973
736.552	0.0134069
736.630	0.0133965
736.708	0.0134870
736.786	0.0135509
736.864	0.0134943
736.943	0.0135768
737.021	0.0135277
737.099	0.0134212
737.177	0.0134628
737.255	0.0135389
737.333	0.0135256
737.411	0.0134302
737.489	0.0134029
737.568	0.0134380
737.646	0.0134017
737.724	0.0132532
737.802	0.0133369
737.880	0.0132738
737.958	0.0133514
738.036	0.0132469
738.114	0.0131979
738.193	0.0131152
738.271	0.0132793
738.349	0.0131906
738.427	0.0132075
738.505	0.0133065
738.583	0.0132685
738.661	0.0131438
738.739	0.0131026
738.818	0.0132571
738.896	0.0132215
738.974	0.0132895
739.052	0.0132785
739.130	0.0132012
739.208	0.0131339
739.286	0.0133768
739.364	0.0132602
739.443	0.0133260
739.521	0.0132083
739.599	0.0133763
739.677	0.0133939
739.755	0.0133609
739.833	0.0133136
739.911	0.0133336
739.989	0.0133340
740.068	0.0133541
740.146	0.0134294
740.224	0.0132656
740.302	0.0134120
740.380	0.0133821
740.458	0.0134162
740.536	0.0134198
740.614	0.0134641
740.693	0.0134624
740.771	0.0133435
740.849	0.0134107
740.927	0.0134145
741.005	0.0134113
741.083	0.0136060
741.161	0.0133552
741.239	0.0133426
741.318	0.0134038
741.396	0.0134263
741.474	0.0133803
741.552	0.0133518
741.630	0.0133702
741.708	0.0133119
741.786	0.0133931
741.864	0.0133649
741.943	0.0132392
742.021	0.0133615
742.099	0.0133211
742.177	0.0131133
742.255	0.0133466
742.333	0.0132328
742.411	0.0133167
742.489	0.0133923
742.568	0.0131891
742.646	0.0130654
742.724	0.0130612
742.802	0.0131140
742.880	0.0131889
742.958	0.0130844
743.036	0.0130489
743.114	0.0130200
743.193	0.0130907
743.271	0.0129811
743.349	0.0131834
743.427	0.0129925
743.505	0.0131527
743.583	0.0130956
743.661	0.0130277
743.739	0.0130820
743.818	0.0130251
743.896	0.0130259
743.974	0.0131864
744.052	0.0131884
744.130	0.0130730
744.208	0.0128840
744.286	0.0128582
744.364	0.0130101
744.443	0.0131288
744.521	0.0130362
744.599	0.0129733
744.677	0.0129706
744.755	0.0129748
744.833	0.0128403
744.911	0.0130310
744.989	0.0128819
745.068	0.0129185
745.146	0.0130473
745.224	0.0128671
745.302	0.0129613
745.380	0.0130331
745.458	0.0129716
745.536	0.0130264
745.614	0.0129192
745.693	0.0129414
745.771	0.0129637
745.849	0.0129729
745.927	0.0130241
746.005	0.0131327
746.083	0.0130625
746.161	0.0129325
746.239	0.0130896
746.318	0.0132355
746.396	0.0130852
746.474	0.0132378
746.552	0.0131284
746.630	0.0132270
746.708	0.0132783
746.786	0.0131911
746.864	0.0132029
746.943	0.0132413
747.021	0.0133321
747.099	0.0133514
747.177	0.0133581
747.255	0.0133428
747.333	0.0133006
747.411	0.0133049
747.489	0.0133118
747.568	0.0133875
747.646	0.0133141
747.724	0.0133461
747.802	0.0134119
747.880	0.0133211
747.958	0.0133488
748.036	0.0133376
748.114	0.0133105
748.193	0.0134444
748.271	0.0133041
748.349	0.0133484
748.427	0.0133941
748.505	0.0132243
748.583	0.0133746
748.661	0.0134103
748.739	0.0133787
748.818	0.0133369
748.896	0.0132726
748.974	0.0132678
749.052	0.0134917
749.130	0.0131624
749.208	0.0131478
749.286	0.0133994
749.364	0.0132666
749.443	0.0130842
749.521	0.0131770
749.599	0.0129935
749.677	0.0130871
749.755	0.0132331
749.833	0.0131657
749.911	0.0131671
749.989	0.0132439
750.068	0.0131325
750.146	0.0129643
750.224	0.0132136
750.302	0.0132334
750.380	0.0130846
750.458	0.0131630
750.536	0.0131769
750.614	0.0131036
750.693	0.0131233
750.771	0.0132554
750.849	0.0132157
750.927	0.0129786
751.005	0.0131441
751.083	0.0132279
751.161	0.0130979
751.239	0.0129942
751.318	0.0130958
751.396	0.0131451
751.474	0.0131575
751.552	0.0130007
751.630	0.0130545
751.708	0.0130614
751.786	0.0130318
751.864	0.0127850
751.943	0.0128382
752.021	0.0130069
752.099	0.0129608
752.177	0.0130165
752.255	0.0129039
752.333	0.0128332
752.411	0.0129147
752.489	0.0127325
752.568	0.0127312
752.646	0.0128877
752.724	0.0128873
752.802	0.0127547
752.880	0.0129506
752.958	0.0129865
753.036	0.0130254
753.114	0.0130702
753.193	0.0130351
753.271	0.0131190
753.349	0.0130561
753.427	0.0130813
753.505	0.0131415
753.583	0.0131970
753.661	0.0130925
753.739	0.0132579
753.818	0.0131551
753.896	0.0132030
753.974	0.0132330
754.052	0.0132538
754.130	0.0133514
754.208	0.0133264
754.286	0.0135014
754.364	0.0133828
754.443	0.0135007
754.521	0.0135290
754.599	0.0135396
754.677	0.0137620
754.755	0.0134567
754.833	0.0134554
754.911	0.0133696
754.989	0.0133659
755.068	0.0134064
755.146	0.0133651
755.224	0.0132272
755.302	0.0132342
755.380	0.0132806
755.458	0.0131232
755.536	0.0130901
755.614	0.0131734
755.693	0.0131772
755.771	0.0131037
755.849	0.0129650
755.927	0.0128707
756.005	0.0130206
756.083	0.0131361
756.161	0.0129486
756.239	0.0130563
756.318	0.0129463
756.396	0.0130087
756.474	0.0131422
756.552	0.0130322
756.630	0.0131200
756.708	0.0131137
756.786	0.0132442
756.864	0.0131376
756.943	0.0131405
757.021	0.0134213
757.099	0.0134541
757.177	0.0132467
757.255	0.0133659
757.333	0.0133577
757.411	0.0133958
757.489	0.0134146
757.568	0.0134798
757.646	0.0135153
757.724	0.0133832
757.802	0.0134837
757.880	0.0134231
757.958	0.0136521
758.036	0.0134286
758.114	0.0133638
758.193	0.0133550
758.271	0.0132970
758.349	0.0132622
758.427	0.0134119
758.505	0.0133526
758.583	0.0132550
758.661	0.0132745
758.739	0.0132774
758.818	0.0131931
758.896	0.0132007
758.974	0.0130091
759.052	0.0130683
759.130	0.0132020
759.208	0.0129821
759.286	0.0129494
759.364	0.0131833
759.443	0.0130618
759.521	0.0129817
759.599	0.0130670
759.677	0.0129995
759.755	0.0130739
759.833	0.0130135
759.911	0.0130340
759.989	0.0130285
760.068	0.0131195
760.146	0.0131901
760.224	0.0132426
760.302	0.0131673
760.380	0.0131537
760.458	0.0133036
760.536	0.0133726
760.614	0.0132410
760.693	0.0133427
760.771	0.0134341
760.849	0.0133566
760.927	0.0133092
761.005	0.0134040
761.083	0.0134304
761.161	0.0136283
761.239	0.0136605
761.318	0.0136897
761.396	0.0135573
761.474	0.0136968
761.552	0.0138209
761.630	0.0137112
761.708	0.0137445
761.786	0.0137419
761.864	0.0136503
761.943	0.0137905
762.021	0.0136622
762.099	0.0137250
762.177	0.0136427
762.255	0.0135820
762.333	0.0135606
762.411	0.0136013
762.489	0.0135737
762.568	0.0134689
762.646	0.0134443
762.724	0.0134502
762.802	0.0132386
762.880	0.0133321
762.958	0.0132935
763.036	0.0133982
763.114	0.0132708
763.193	0.0132848
763.271	0.0131376
763.349	0.0132430
763.427	0.0132921
763.505	0.0132900
763.583	0.0132061
763.661	0.0133025
763.739	0.0132627
763.818	0.0131120
763.896	0.0131441
763.974	0.0131773
764.052	0.0130091
764.130	0.0128977
764.208	0.0130650
764.286	0.0132065
764.364	0.0130103
764.443	0.0131557
764.521	0.0130888
764.599	0.0129607
764.677	0.0131011
764.755	0.0128928
764.833	0.0129819
764.911	0.0128193
764.989	0.0128455
765.068	0.0128035
765.146	0.0127445
765.224	0.0127397
765.302	0.0127466
765.380	0.0128101
765.458	0.0128037
765.536	0.0128076
765.614	0.0127190
765.693	0.0128215
765.771	0.0127988
765.849	0.0128957
765.927	0.0127290
766.005	0.0128965
766.083	0.0130219
766.161	0.0129236
766.239	0.0129977
766.318	0.0130289
766.396	0.0131364
766.474	0.0130563
766.552	0.0131402
766.630	0.0133179
766.708	0.0131606
766.786	0.0131059
766.864	0.0132339
766.943	0.0133302
767.021	0.0132513
767.099	0.0134212
767.177	0.0132747
767.255	0.0133630
767.333	0.0134178
767.411	0.0134687
767.489	0.0135286
767.568	0.0135029
767.646	0.0134226
767.724	0.0136198
767.802	0.0135164
767.880	0.0136111
767.958	0.0135983
768.036	0.0135578
768.114	0.0134091
768.193	0.0134161
768.271	0.0135566
768.349	0.0135880
768.427	0.0133738
768.505	0.0134605
768.583	0.0132832
768.661	0.0133128
768.739	0.0133396
768.818	0.0132917
768.896	0.0131754
768.974	0.0131824
769.052	0.0131785
769.130	0.0131609
769.208	0.0131084
769.286	0.0129668
769.364	0.0131034
769.443	0.0128141
769.521	0.0129134
769.599	0.0129697
769.677	0.0128681
769.755	0.0129346
769.833	0.0128136
769.911	0.0129063
769.989	0.0129311
770.068	0.0130856
770.146	0.0130872
770.224	0.0131711
770.302	0.0130305
770.380	0.0131313
770.458	0.0131075
770.536	0.0132723
770.614	0.0131892
770.693	0.0131689
770.771	0.0133627
770.849	0.0133013
770.927	0.0133257
771.005	0.0133979
771.083	0.0133154
771.161	0.0134411
771.239	0.0135142
771.318	0.0135251
771.396	0.0134802
771.474	0.0135303
771.552	0.0134657
771.630	0.0135770
771.708	0.0134685
771.786	0.0135907
771.864	0.0134921
771.943	0.0134150
772.021	0.0134069
772.099	0.0133617
772.177	0.0133698
772.255	0.0133334
772.333	0.0133007
772.411	0.0132357
772.489	0.0132178
772.568	0.0131375
772.646	0.0131923
772.724	0.0131065
772.802	0.0129960
772.880	0.0129871
772.958	0.0129363
773.036	0.0128914
773.114	0.0128687
773.193	0.0129314
773.271	0.0129465
773.349	0.0129887
773.427	0.0130363
773.505	0.0131004
773.583	0.0132159
773.661	0.0131470
773.739	0.0132596
773.818	0.0130396
773.896	0.0131178
773.974	0.0133108
774.052	0.0132449
774.130	0.0132475
774.208	0.0131571
774.286	0.0131476
774.364	0.0131460
774.443	0.0132048
774.521	0.0132082
774.599	0.0131467
774.677	0.0131441
774.755	0.0132086
774.833	0.0131409
774.911	0.0131641
774.989	0.0131822
775.068	0.0131768
775.146	0.0132142
775.224	0.0130627
775.302	0.0132191
775.380	0.0132597
775.458	0.0130763
775.536	0.0131156
775.614	0.0130547
775.693	0.0129858
775.771	0.0129668
775.849	0.0130621
775.927	0.0131480
776.005	0.0128239
776.083	0.0129867
776.161	0.0130731
776.239	0.0129730
776.318	0.0129523
776.396	0.0129513
776.474	0.0130695
776.552	0.0129906
776.630	0.0131496
776.708	0.0131583
776.786	0.0130473
776.864	0.0131971
776.943	0.0132640
777.021	0.0135071
777.099	0.0134844
777.177	0.0134064
777.255	0.0133829
777.333	0.0134830
777.411	0.0134293
777.489	0.0134185
777.568	0.0135819
777.646	0.0136264
777.724	0.0135175
777.802	0.0134146
777.880	0.0133902
777.958	0.0133899
778.036	0.0133522
778.114	0.0133602
778.193	0.0133057
778.271	0.0132205
778.349	0.0131770
778.427	0.0131272
778.505	0.0132063
778.583	0.0131825
778.661	0.0130273
778.739	0.0129446
778.818	0.0130144
778.896	0.0129709
778.974	0.0129578
779.052	0.0129793
779.130	0.0129623
779.208	0.0129575
779.286	0.0129725
779.364	0.0129679
779.443	0.0130096
779.521	0.0129451
779.599	0.0130251
779.677	0.0129386
779.755	0.0129540
779.833	0.0130394
779.911	0.0128977
779.989	0.0128979
780.068	0.0129212
780.146	0.0130740
780.224	0.0131274
780.302	0.0130316
780.380	0.0131100
780.458	0.0132469
780.536	0.0131998
780.614	0.0132842
780.693	0.0131594
780.771	0.0131299
780.849	0.0132516
780.927	0.0132765
781.005	0.0131564
781.083	0.0133324
781.161	0.0133717
781.239	0.0131716
781.318	0.0133609
781.396	0.0132761
781.474	0.0132545
781.552	0.0131580
781.630	0.0131583
781.708	0.0132246
781.786	0.0132529
781.864	0.0131429
781.943	0.0131055
782.021	0.0131796
782.099	0.0132034
782.177	0.0130467
782.255	0.0132281
782.333	0.0131893
782.411	0.0131908
782.489	0.0132293
782.568	0.0133103
782.646	0.0131840
782.724	0.0132317
782.802	0.0131689
782.880	0.0132797
782.958	0.0133101
783.036	0.0133905
783.114	0.0132954
783.193	0.0132217
783.271	0.0133263
783.349	0.0133096
783.427	0.0132619
783.505	0.0133012
783.583	0.0134362
783.661	0.0133434
783.739	0.0133772
783.818	0.0132658
783.896	0.0132273
783.974	0.0133193
784.052	0.0133670
784.130	0.0133009
784.208	0.0134032
784.286	0.0134806
784.364	0.0134740
784.443	0.0135088
784.521	0.0134091
784.599	0.0134071
784.677	0.0135369
784.755	0.0134285
784.833	0.0134110
784.911	0.0134837
784.989	0.0133990
785.068	0.0134418
785.146	0.0133322
785.224	0.0132459
785.302	0.0132832
785.380	0.0133180
785.458	0.0132600
785.536	0.0132080
785.614	0.0132645
785.693	0.0133279
785.771	0.0132341
785.849	0.0132005
785.927	0.0132044
786.005	0.0131618
786.083	0.0131022
786.161	0.0131857
786.239	0.0133006
786.318	0.0131802
786.396	0.0130869
786.474	0.0130622
786.552	0.0131720
786.630	0.0130638
786.708	0.0131068
786.786	0.0131973
786.864	0.0131367
786.943	0.0130527
787.021	0.0132767
787.099	0.0132032
787.177	0.0132614
787.255	0.0132371
787.333	0.0131981
787.411	0.0133491
787.489	0.0133073
787.568	0.0134226
787.646	0.0134383
787.724	0.0133367
787.802	0.0134463
787.880	0.0135649
787.958	0.0134243
788.036	0.0135409
788.114	0.0134487
788.193	0.0135462
788.271	0.0135406
788.349	0.0135226
788.427	0.0136147
788.505	0.0137144
788.583	0.0134849
788.661	0.0135300
788.739	0.0134927
788.818	0.0135197
788.896	0.0134340
788.974	0.0135722
789.052	0.0133860
789.130	0.0133305
789.208	0.0133063
789.286	0.0132805
789.364	0.0133504
789.443	0.0133350
789.521	0.0132582
789.599	0.0134055
789.677	0.0132985
789.755	0.0132973
789.833	0.0132883
789.911	0.0133375
789.989	0.0132571
790.068	0.0132815
790.146	0.0134068
790.224	0.0132870
790.302	0.0133217
790.380	0.0132644
790.458	0.0133575
790.536	0.0133868
790.614	0.0133543
790.693	0.0132525
790.771	0.0134742
790.849	0.0134896
790.927	0.0133656
791.005	0.0133742
791.083	0.0133730
791.161	0.0133206
791.239	0.0133341
791.318	0.0131683
791.396	0.0132314
791.474	0.0130843
791.552	0.0131153
791.630	0.0130235
791.708	0.0132406
791.786	0.0133072
791.864	0.0131641
791.943	0.0132921
792.021	0.0130991
792.099	0.0133038
792.177	0.0131655
792.255	0.0132563
792.333	0.0132047
792.411	0.0132542
792.489	0.0132646
792.568	0.0131739
792.646	0.0131764
792.724	0.0131815
792.802	0.0132128
792.880	0.0132412
792.958	0.0131561
793.036	0.0133177
793.114	0.0130624
793.193	0.0129807
793.271	0.0130792
793.349	0.0130111
793.427	0.0128854
793.505	0.0128367
793.583	0.0128687
793.661	0.0127955
793.739	0.0129077
793.818	0.0128306
793.896	0.0128236
793.974	0.0128941
794.052	0.0130287
794.130	0.0130289
794.208	0.0131905
794.286	0.0130621
794.364	0.0130204
794.443	0.0130377
794.521	0.0133691
794.599	0.0132471
794.677	0.0133045
794.755	0.0133437
794.833	0.0132711
794.911	0.0132703
794.989	0.0133310
795.068	0.0131379
795.146	0.0132426
795.224	0.0133335
795.302	0.0132702
795.380	0.0133041
795.458	0.0133237
795.536	0.0133724
795.614	0.0134749
795.693	0.0133778
795.771	0.0135434
795.849	0.0136451
795.927	0.0134778
796.005	0.0135505
796.083	0.0136382
796.161	0.0135944
796.239	0.0134352
796.318	0.0134026
796.396	0.0133301
796.474	0.0134228
796.552	0.0134589
796.630	0.0133643
796.708	0.0131783
796.786	0.0132698
796.864	0.0133708
796.943	0.0134226
797.021	0.0133807
797.099	0.0132219
797.177	0.0132664
797.255	0.0135102
797.333	0.0133191
797.411	0.0133936
797.489	0.0132330
797.568	0.0132774
797.646	0.0132787
797.724	0.0132304
797.802	0.0132285
797.880	0.0132799
797.958	0.0131763
798.036	0.0130487
798.114	0.0130868
798.193	0.0131082
798.271	0.0131044
798.349	0.0132372
798.427	0.0130379
798.505	0.0130005
798.583	0.0130544
798.661	0.0131295
798.739	0.0131377
798.818	0.0131618
798.896	0.0131812
798.974	0.0132289
799.052	0.0132374
799.130	0.0133080
799.208	0.0133092
799.286	0.0133307
799.364	0.0132494
799.443	0.0131586
799.521	0.0133018
799.599	0.0133519
799.677	0.0132688
799.755	0.0132923
799.833	0.0132640
799.911	0.0132319
799.989	0.0133820
800.068	0.0132564
800.146	0.0131271
800.224	0.0130325
800.302	0.0131548
800.380	0.0132919
800.458	0.0134116
800.536	0.0132021
800.614	0.0133163
800.693	0.0134248
800.771	0.0132333
800.849	0.0130386
800.927	0.0131423
801.005	0.0133205
801.083	0.0133461
801.161	0.0133233
801.239	0.0134104
801.318	0.0133505
801.396	0.0132355
801.474	0.0135223
801.552	0.0134610
801.630	0.0135506
801.708	0.0133676
801.786	0.0133144
801.864	0.0131910
801.943	0.0133080
802.021	0.0132906
802.099	0.0132328
802.177	0.0130396
802.255	0.0131761
802.333	0.0132062
802.411	0.0132355
802.489	0.0131825
802.568	0.0133029
802.646	0.0133676
802.724	0.0134166
802.802	0.0134704
802.880	0.0134872
802.958	0.0135100
803.036	0.0134673
803.114	0.0134269
803.193	0.0133685
803.271	0.0132639
803.349	0.0132198
803.427	0.0132138
803.505	0.0132243
803.583	0.0132204
803.661	0.0132616
803.739	0.0133616
803.818	0.0134150
803.896	0.0134186
803.974	0.0135204
804.052	0.0135970
804.130	0.0135788
804.208	0.0134918
804.286	0.0135708
804.364	0.0135774
804.443	0.0134318
804.521	0.0133467
804.599	0.0133069
804.677	0.0132185
804.755	0.0133137
804.833	0.0132265
804.911	0.0132017
804.989	0.0130791
805.068	0.0130998
805.146	0.0130790
805.224	0.0132162
805.302	0.0131749
805.380	0.0131324
805.458	0.0132025
805.536	0.0131298
805.614	0.0130623
805.693	0.0132565
805.771	0.0131504
805.849	0.0134125
805.927	0.0131084
806.005	0.0130844
806.083	0.0132078
806.161	0.0130858
806.239	0.0129443
806.318	0.0131049
806.396	0.0130779
806.474	0.0132395
806.552	0.0131377
806.630	0.0131236
806.708	0.0133300
806.786	0.0131747
806.864	0.0131855
806.943	0.0132384
807.021	0.0133484
807.099	0.0133075
807.177	0.0132164
807.255	0.0131805
807.333	0.0133163
807.411	0.0133451
807.489	0.0134071
807.568	0.0133255
807.646	0.0134193
807.724	0.0134388
807.802	0.0133370
807.880	0.0134013
807.958	0.0135175
808.036	0.0134113
808.114	0.0133766
808.193	0.0132833
808.271	0.0133590
808.349	0.0132764
808.427	0.0133730
808.505	0.0133232
808.583	0.0132262
808.661	0.0131635
808.739	0.0132230
808.818	0.0131594
808.896	0.0132194
808.974	0.0132625
809.052	0.0131725
809.130	0.0131562
809.208	0.0132702
809.286	0.0132429
809.364	0.0132619
809.443	0.0131527
809.521	0.0132752
809.599	0.0132037
809.677	0.0130015
809.755	0.0131297
809.833	0.0130268
809.911	0.0129577
809.989	0.0129072
810.068	0.0129052
810.146	0.0128761
810.224	0.0128363
810.302	0.0128870
810.380	0.0128278
810.458	0.0126486
810.536	0.0128146
810.614	0.0128171
810.693	0.0129080
810.771	0.0129283
810.849	0.0128781
810.927	0.0128295
811.005	0.0127975
811.083	0.0127143
811.161	0.0128107
811.239	0.0128284
811.318	0.0128230
811.396	0.0128344
811.474	0.0129783
811.552	0.0130065
811.630	0.0130354
811.708	0.0131080
811.786	0.0132442
811.864	0.0132991
811.943	0.0134210
812.021	0.0134975
812.099	0.0135572
812.177	0.0134367
812.255	0.0137906
812.333	0.0137112
812.411	0.0137260
812.489	0.0136975
812.568	0.0136055
812.646	0.0137192
812.724	0.0135117
812.802	0.0133613
812.880	0.0135531
812.958	0.0134868
813.036	0.0134468
813.114	0.0133795
813.193	0.0132726
813.271	0.0131216
813.349	0.0132349
813.427	0.0132111
813.505	0.0131002
813.583	0.0129919
813.661	0.0129524
813.739	0.0130277
813.818	0.0130252
813.896	0.0129680
813.974	0.0131577
814.052	0.0131420
814.130	0.0131076
814.208	0.0130685
814.286	0.0133182
814.364	0.0131369
814.443	0.0131069
814.521	0.0131465
814.599	0.0131458
814.677	0.0132547
814.755	0.0132835
814.833	0.0133456
814.911	0.0131262
814.989	0.0132236
815.068	0.0131578
815.146	0.0132153
815.224	0.0131983
815.302	0.0131585
815.380	0.0133442
815.458	0.0132800
815.536	0.0133145
815.614	0.0132660
815.693	0.0133240
815.771	0.0132236
815.849	0.0131036
815.927	0.0130854
816.005	0.0130688
816.083	0.0131081
816.161	0.0131692
816.239	0.0131365
816.318	0.0131343
816.396	0.0131448
816.474	0.0132114
816.552	0.0130975
816.630	0.0130345
816.708	0.0131389
816.786	0.0132770
816.864	0.0132868
816.943	0.0131933
817.021	0.0132109
817.099	0.0132209
817.177	0.0132816
817.255	0.0132527
817.333	0.0132556
817.411	0.0133892
817.489	0.0134596
817.568	0.0135034
817.646	0.0136181
817.724	0.0135991
817.802	0.0136786
817.880	0.0136225
817.958	0.0135992
818.036	0.0138163
818.114	0.0138775
818.193	0.0138858
818.271	0.0138452
818.349	0.0137279
818.427	0.0138564
818.505	0.0137869
818.583	0.0137125
818.661	0.0137879
818.739	0.0137801
818.818	0.0136472
818.896	0.0138239
818.974	0.0137660
819.052	0.0135525
819.130	0.0136019
819.208	0.0135575
819.286	0.0134284
819.364	0.0135318
819.443	0.0135648
819.521	0.0135029
819.599	0.0134796
819.677	0.0132867
819.755	0.0134411
819.833	0.0133563
819.911	0.0133690
819.989	0.0131745
820.068	0.0131496
820.146	0.0132813
820.224	0.0131712
820.302	0.0132117
820.380	0.0132722
820.458	0.0132246
820.536	0.0132398
820.614	0.0131224
820.693	0.0131876
820.771	0.0133325
820.849	0.0132493
820.927	0.0133092
821.005	0.0133427
821.083	0.0133813
821.161	0.0132803
821.239	0.0133852
821.318	0.0132125
821.396	0.0132347
821.474	0.0132465
821.552	0.0132631
821.630	0.0132730
821.708	0.0131342
821.786	0.0130305
821.864	0.0131062
821.943	0.0131348
822.021	0.0130019
822.099	0.0131433
822.177	0.0130466
822.255	0.0129993
822.333	0.0130157
822.411	0.0130325
822.489	0.0130612
822.568	0.0131149
822.646	0.0131503
822.724	0.0130952
822.802	0.0131134
822.880	0.0131631
822.958	0.0132032
823.036	0.0131094
823.114	0.0131693
823.193	0.0131371
823.271	0.0130886
823.349	0.0131672
823.427	0.0131678
823.505	0.0133279
823.583	0.0132901
823.661	0.0133880
823.739	0.0134345
823.818	0.0133949
823.896	0.0133966
823.974	0.0132739
824.052	0.0133865
824.130	0.0134248
824.208	0.0133569
824.286	0.0133669
824.364	0.0134393
824.443	0.0134102
824.521	0.0133155
824.599	0.0134765
824.677	0.0133310
824.755	0.0132391
824.833	0.0132813
824.911	0.0133986
824.989	0.0133614
825.068	0.0132990
825.146	0.0133530
825.224	0.0131484
825.302	0.0133609
825.380	0.0132664
825.458	0.0131122
825.536	0.0132246
825.614	0.0132583
825.693	0.0132407
825.771	0.0131747
825.849	0.0130857
825.927	0.0132324
826.005	0.0132309
826.083	0.0132468
826.161	0.0133299
826.239	0.0133266
826.318	0.0132133
826.396	0.0131657
826.474	0.0132349
826.552	0.0132615
826.630	0.0130798
826.708	0.0130505
826.786	0.0132236
826.864	0.0131229
826.943	0.0131571
827.021	0.0132435
827.099	0.0131165
827.177	0.0130637
827.255	0.0131866
827.333	0.0131055
827.411	0.0132931
827.489	0.0132367
827.568	0.0133234
827.646	0.0132520
827.724	0.0133501
827.802	0.0133195
827.880	0.0132868
827.958	0.0132074
828.036	0.0132286
828.114	0.0130747
828.193	0.0131590
828.271	0.0131744
828.349	0.0132313
828.427	0.0132584
828.505	0.0131419
828.583	0.0131569
828.661	0.0131396
828.739	0.0131378
828.818	0.0133002
828.896	0.0131742
828.974	0.0132363
829.052	0.0132584
829.130	0.0132812
829.208	0.0133614
829.286	0.0133779
829.364	0.0132637
829.443	0.0133218
829.521	0.0133905
829.599	0.0134117
829.677	0.0132971
829.755	0.0132727
829.833	0.0133115
829.911	0.0132446
829.989	0.0132001
830.068	0.0132272
830.146	0.0133143
830.224	0.0132764
830.302	0.0132197
830.380	0.0131413
830.458	0.0131796
830.536	0.0132194
830.614	0.0131087
830.693	0.0131007
830.771	0.0130152
830.849	0.0128966
830.927	0.0129716
831.005	0.0129917
831.083	0.0128015
831.161	0.0129616
831.239	0.0128934
831.318	0.0128413
831.396	0.0129206
831.474	0.0130539
831.552	0.0130453
831.630	0.0130614
831.708	0.0130437
831.786	0.0131670
831.864	0.0131594
831.943	0.0131040
832.021	0.0130646
832.099	0.0131078
832.177	0.0132202
832.255	0.0132317
832.333	0.0131596
832.411	0.0131219
832.489	0.0132533
832.568	0.0130431
832.646	0.0132088
832.724	0.0132158
832.802	0.0132965
832.880	0.0132587
832.958	0.0130980
833.036	0.0133022
833.114	0.0133507
833.193	0.0132952
833.271	0.0132838
833.349	0.0133525
833.427	0.0132292
833.505	0.0132150
833.583	0.0131857
833.661	0.0131931
833.739	0.0131059
833.818	0.0132156
833.896	0.0131239
833.974	0.0131323
834.052	0.0132093
834.130	0.0133565
834.208	0.0131543
834.286	0.0131219
834.364	0.0133335
834.443	0.0132747
834.521	0.0131956
834.599	0.0132440
834.677	0.0131535
834.755	0.0131079
834.833	0.0131667
834.911	0.0129771
834.989	0.0130137
835.068	0.0131682
835.146	0.0130893
835.224	0.0131860
835.302	0.0131328
835.380	0.0130840
835.458	0.0129556
835.536	0.0130006
835.614	0.0130067
835.693	0.0130910
835.771	0.0130297
835.849	0.0129794
835.927	0.0131512
836.005	0.0131931
836.083	0.0131691
836.161	0.0131540
836.239	0.0133126
836.318	0.0133493
836.396	0.0134066
836.474	0.0135571
836.552	0.0135020
836.630	0.0135934
836.708	0.0135901
836.786	0.0136260
836.864	0.0136398
836.943	0.0136395
837.021	0.0136520
837.099	0.0135385
837.177	0.0135638
837.255	0.0135135
837.333	0.0134537
837.411	0.0133748
837.489	0.0134424
837.568	0.0132755
837.646	0.0133643
837.724	0.0131869
837.802	0.0132841
837.880	0.0131772
837.958	0.0132656
838.036	0.0130504
838.114	0.0129989
838.193	0.0131181
838.271	0.0130717
838.349	0.0131371
838.427	0.0130994
838.505	0.0130931
838.583	0.0131018
838.661	0.0130657
838.739	0.0130914
838.818	0.0132522
838.896	0.0131718
838.974	0.0130983
839.052	0.0129963
839.130	0.0132404
839.208	0.0132937
839.286	0.0132431
839.364	0.0132722
839.443	0.0131177
839.521	0.0130808
839.599	0.0131789
839.677	0.0131936
839.755	0.0130809
839.833	0.0131344
839.911	0.0132325
839.989	0.0131630
840.068	0.0131786
840.146	0.0130820
840.224	0.0129485
840.302	0.0131821
840.380	0.0130138
840.458	0.0128809
840.536	0.0129933
840.614	0.0129809
840.693	0.0131113
840.771	0.0130771
840.849	0.0130414
840.927	0.0130799
841.005	0.0131519
841.083	0.0131985
841.161	0.0130399
841.239	0.0132378
841.318	0.0131892
841.396	0.0131761
841.474	0.0131601
841.552	0.0131723
841.630	0.0130701
841.708	0.0131052
841.786	0.0132270
841.864	0.0132892
841.943	0.0131609
842.021	0.0133609
842.099	0.0133567
842.177	0.0131820
842.255	0.0132926
842.333	0.0131436
842.411	0.0131754
842.489	0.0132237
842.568	0.0132071
842.646	0.0131930
842.724	0.0132405
842.802	0.0130905
842.880	0.0131881
842.958	0.0131974
843.036	0.0129545
843.114	0.0130806
843.193	0.0131804
843.271	0.0130113
843.349	0.0131052
843.427	0.0130743
843.505	0.0130376
843.583	0.0130525
843.661	0.0131017
843.739	0.0130473
843.818	0.0131107
843.896	0.0131695
843.974	0.0132124
844.052	0.0132430
844.130	0.0131612
844.208	0.0132670
844.286	0.0133028
844.364	0.0133138
844.443	0.0133928
844.521	0.0132913
844.599	0.0133107
844.677	0.0132790
844.755	0.0133813
844.833	0.0134943
844.911	0.0132836
844.989	0.0133810
845.068	0.0134982
845.146	0.0134024
845.224	0.0131625
845.302	0.0133943
845.380	0.0132291
845.458	0.0133344
845.536	0.0132542
845.614	0.0132021
845.693	0.0133617
845.771	0.0132706
845.849	0.0131906
845.927	0.0134158
846.005	0.0133228
846.083	0.0133968
846.161	0.0134364
846.239	0.0134489
846.318	0.0135074
846.396	0.0136188
846.474	0.0134876
846.552	0.0133672
846.630	0.0134270
846.708	0.0133578
846.786	0.0133611
846.864	0.0134032
846.943	0.0134339
847.021	0.0133374
847.099	0.0132972
847.177	0.0132500
847.255	0.0132878
847.333	0.0131892
847.411	0.0131408
847.489	0.0131349
847.568	0.0133315
847.646	0.0131201
847.724	0.0131857
847.802	0.0130456
847.880	0.0132625
847.958	0.0132410
848.036	0.0131484
848.114	0.0131994
848.193	0.0132738
848.271	0.0132307
848.349	0.0131793
848.427	0.0132481
848.505	0.0134112
848.583	0.0133914
848.661	0.0131699
848.739	0.0132892
848.818	0.0134241
848.896	0.0133344
848.974	0.0133847
849.052	0.0133271
849.130	0.0133870
849.208	0.0135416
849.286	0.0133113
849.364	0.0132983
849.443	0.0133105
849.521	0.0133698
849.599	0.0132086
849.677	0.0131736
849.755	0.0132226
849.833	0.0131351
849.911	0.0131355
849.989	0.0130284
850.068	0.0129934
850.146	0.0131302
850.224	0.0131981
850.302	0.0131654
850.380	0.0131632
850.458	0.0129596
850.536	0.0129868
850.614	0.0130981
850.693	0.0131433
850.771	0.0130906
850.849	0.0131406
850.927	0.0131413
851.005	0.0131314
851.083	0.0131643
851.161	0.0131039
851.239	0.0131301
851.318	0.0132278
851.396	0.0131890
851.474	0.0132024
851.552	0.0131384
851.630	0.0131184
851.708	0.0132393
851.786	0.0132968
851.864	0.0133530
851.943	0.0134321
852.021	0.0133727
852.099	0.0134830
852.177	0.0133580
852.255	0.0133631
852.333	0.0134084
852.411	0.0133509
852.489	0.0133747
852.568	0.0133859
852.646	0.0133884
852.724	0.0132798
852.802	0.0133663
852.880	0.0133823
852.958	0.0132942
853.036	0.0132476
853.114	0.0132765
853.193	0.0131927
853.271	0.0132175
853.349	0.0132817
853.427	0.0133186
853.505	0.0133296
853.583	0.0131799
853.661	0.0133028
853.739	0.0132378
853.818	0.0132465
853.896	0.0131650
853.974	0.0131808
854.052	0.0133484
854.130	0.0131882
854.208	0.0131161
854.286	0.0131223
854.364	0.0131675
854.443	0.0129415
854.521	0.0129512
854.599	0.0130383
854.677	0.0129946
854.755	0.0127983
854.833	0.0129414
854.911	0.0129182
854.989	0.0128326
855.068	0.0127962
855.146	0.0129613
855.224	0.0129650
855.302	0.0130247
855.380	0.0131162
855.458	0.0130060
855.536	0.0129193
855.614	0.0131380
855.693	0.0130885
855.771	0.0130258
855.849	0.0131278
855.927	0.0131544
856.005	0.0131239
856.083	0.0133195
856.161	0.0131865
856.239	0.0132436
856.318	0.0132880
856.396	0.0132764
856.474	0.0132875
856.552	0.0133201
856.630	0.0132043
856.708	0.0133577
856.786	0.0132045
856.864	0.0132330
856.943	0.0133102
857.021	0.0131645
857.099	0.0132481
857.177	0.0132104
857.255	0.0131402
857.333	0.0132807
857.411	0.0132194
857.489	0.0133356
857.568	0.0132382
857.646	0.0131559
857.724	0.0132405
857.802	0.0132211
857.880	0.0133335
857.958	0.0132439
858.036	0.0133163
858.114	0.0134148
858.193	0.0133138
858.271	0.0134619
858.349	0.0133178
858.427	0.0134846
858.505	0.0134836
858.583	0.0134272
858.661	0.0133990
858.739	0.0134625
858.818	0.0134640
858.896	0.0134589
858.974	0.0133842
859.052	0.0134917
859.130	0.0133399
859.208	0.0132886
859.286	0.0132345
859.364	0.0131939
859.443	0.0131947
859.521	0.0131252
859.599	0.0131013
859.677	0.0131606
859.755	0.0130923
859.833	0.0130743
859.911	0.0130281
859.989	0.0131928
860.068	0.0130883
860.146	0.0129672
860.224	0.0133067
860.302	0.0130233
860.380	0.0133054
860.458	0.0133720
860.536	0.0133278
860.614	0.0132435
860.693	0.0133121
860.771	0.0134237
860.849	0.0133812
860.927	0.0134673
861.005	0.0135303
861.083	0.0134666
861.161	0.0135178
861.239	0.0134545
861.318	0.0135258
861.396	0.0134164
861.474	0.0134200
861.552	0.0134641
861.630	0.0133047
861.708	0.0133643
861.786	0.0134592
861.864	0.0133184
861.943	0.0133340
862.021	0.0132664
862.099	0.0134017
862.177	0.0131910
862.255	0.0132823
862.333	0.0134125
862.411	0.0133074
862.489	0.0132293
862.568	0.0133492
862.646	0.0132865
862.724	0.0133163
862.802	0.0132214
862.880	0.0133144
862.958	0.0133862
863.036	0.0132050
863.114	0.0132326
863.193	0.0131800
863.271	0.0133152
863.349	0.0133511
863.427	0.0132585
863.505	0.0131240
863.583	0.0131673
863.661	0.0132613
863.739	0.0131683
863.818	0.0131808
863.896	0.0131765
863.974	0.0132141
864.052	0.0131945
864.130	0.0131947
864.208	0.0131435
864.286	0.0132146
864.364	0.0132823
864.443	0.0129836
864.521	0.0131077
864.599	0.0131955
864.677	0.0131540
864.755	0.0133381
864.833	0.0132000
864.911	0.0131877
864.989	0.0133710
865.068	0.0133264
865.146	0.0133581
865.224	0.0133664
865.302	0.0132275
865.380	0.0133817
865.458	0.0133363
865.536	0.0135450
865.614	0.0135472
865.693	0.0136274
865.771	0.0134678
865.849	0.0134779
865.927	0.0135876
866.005	0.0135059
866.083	0.0134343
866.161	0.0134608
866.239	0.0135558
866.318	0.0134065
866.396	0.0134219
866.474	0.0133163
866.552	0.0132618
866.630	0.0133143
866.708	0.0133800
866.786	0.0132332
866.864	0.0134122
866.943	0.0132848
867.021	0.0131638
867.099	0.0132076
867.177	0.0132221
867.255	0.0132744
867.333	0.0132163
867.411	0.0131567
867.489	0.0132613
867.568	0.0133059
867.646	0.0132750
867.724	0.0132724
867.802	0.0131908
867.880	0.0132115
867.958	0.0133301
868.036	0.0132401
868.114	0.0132445
868.193	0.0133538
868.271	0.0134059
868.349	0.0132859
868.427	0.0133593
868.505	0.0134440
868.583	0.0134512
868.661	0.0134750
868.739	0.0134978
868.818	0.0135687
868.896	0.0135065
868.974	0.0135199
869.052	0.0134254
869.130	0.0134364
869.208	0.0133707
869.286	0.0133495
869.364	0.0133765
869.443	0.0133391
869.521	0.0133586
869.599	0.0133592
869.677	0.0133009
869.755	0.0133283
869.833	0.0132158
869.911	0.0133092
869.989	0.0133209
870.068	0.0133863
870.146	0.0132525
870.224	0.0133482
870.302	0.0134271
870.380	0.0132872
870.458	0.0133250
870.536	0.0133868
870.614	0.0131919
870.693	0.0134396
870.771	0.0134814
870.849	0.0134556
870.927	0.0133996
871.005	0.0134254
871.083	0.0133294
871.161	0.0133018
871.239	0.0134415
871.318	0.0133315
871.396	0.0134727
871.474	0.0132928
871.552	0.0135290
871.630	0.0134133
871.708	0.0134161
871.786	0.0134050
871.864	0.0134332
871.943	0.0135814
872.021	0.0133663
872.099	0.0132910
872.177	0.0134098
872.255	0.0133877
872.333	0.0131886
872.411	0.0132098
872.489	0.0132048
872.568	0.0131963
872.646	0.0132249
872.724	0.0130589
872.802	0.0132107
872.880	0.0131689
872.958	0.0130328
873.036	0.0130112
873.114	0.0129861
873.193	0.0130324
873.271	0.0129201
873.349	0.0129261
873.427	0.0129971
873.505	0.0129721
873.583	0.0129664
873.661	0.0129169
873.739	0.0128675
873.818	0.0129733
873.896	0.0129403
873.974	0.0129271
874.052	0.0129321
874.130	0.0130371
874.208	0.0129106
874.286	0.0129287
874.364	0.0129921
874.443	0.0129433
874.521	0.0131546
874.599	0.0130194
874.677	0.0130460
874.755	0.0129345
874.833	0.0129053
874.911	0.0131582
874.989	0.0130897
875.068	0.0130040
875.146	0.0129523
875.224	0.0132122
875.302	0.0130181
875.380	0.0130024
875.458	0.0128988
875.536	0.0129082
875.614	0.0128629
875.693	0.0128938
875.771	0.0131372
875.849	0.0129382
875.927	0.0129263
876.005	0.0130038
876.083	0.0129967
876.161	0.0130032
876.239	0.0130212
876.318	0.0128725
876.396	0.0130967
876.474	0.0131130
876.552	0.0131411
876.630	0.0131181
876.708	0.0130982
876.786	0.0131694
876.864	0.0130962
876.943	0.0131419
877.021	0.0131593
877.099	0.0130549
877.177	0.0132111
877.255	0.0132095
877.333	0.0131382
877.411	0.0131139
877.489	0.0131712
877.568	0.0132918
877.646	0.0133012
877.724	0.0131675
877.802	0.0131351
877.880	0.0132554
877.958	0.0133083
878.036	0.0133453
878.114	0.0132470
878.193	0.0131528
878.271	0.0132969
878.349	0.0132764
878.427	0.0131496
878.505	0.0130986
878.583	0.0132335
878.661	0.0132835
878.739	0.0132863
878.818	0.0132023
878.896	0.0133711
878.974	0.0133718
879.052	0.0133217
879.130	0.0133975
879.208	0.0134171
879.286	0.0134332
879.364	0.0134540
879.443	0.0133621
879.521	0.0134249
879.599	0.0134901
879.677	0.0133998
879.755	0.0133910
879.833	0.0134470
879.911	0.0134614
879.989	0.0134077
880.068	0.0134840
880.146	0.0133923
880.224	0.0134030
880.302	0.0135004
880.380	0.0132385
880.458	0.0131866
880.536	0.0133316
880.614	0.0133678
880.693	0.0132286
880.771	0.0132412
880.849	0.0132257
880.927	0.0131348
881.005	0.0132667
881.083	0.0131322
881.161	0.0133703
881.239	0.0132867
881.318	0.0132681
881.396	0.0131653
881.474	0.0132325
881.552	0.0131538
881.630	0.0130679
881.708	0.0132436
881.786	0.0131911
881.864	0.0131614
881.943	0.0130614
882.021	0.0131705
882.099	0.0132460
882.177	0.0131585
882.255	0.0131867
882.333	0.0131564
882.411	0.0131684
882.489	0.0130859
882.568	0.0130938
882.646	0.0131667
882.724	0.0131947
882.802	0.0132394
882.880	0.0132639
882.958	0.0133485
883.036	0.0133489
883.114	0.0132523
883.193	0.0132979
883.271	0.0133507
883.349	0.0134386
883.427	0.0134549
883.505	0.0133830
883.583	0.0135451
883.661	0.0133250
883.739	0.0133620
883.818	0.0135117
883.896	0.0135030
883.974	0.0135371
884.052	0.0134211
884.130	0.0133921
884.208	0.0133304
884.286	0.0134981
884.364	0.0134995
884.443	0.0134774
884.521	0.0134335
884.599	0.0134037
884.677	0.0133263
884.755	0.0134742
884.833	0.0134531
884.911	0.0131577
884.989	0.0132380
885.068	0.0131292
885.146	0.0132297
885.224	0.0132410
885.302	0.0131151
885.380	0.0130919
885.458	0.0131552
885.536	0.0130762
885.614	0.0130807
885.693	0.0129997
885.771	0.0130927
885.849	0.0130199
885.927	0.0129746
886.005	0.0130357
886.083	0.0131696
886.161	0.0131275
886.239	0.0130972
886.318	0.0131754
886.396	0.0131298
886.474	0.0129971
886.552	0.0129544
886.630	0.0130788
886.708	0.0131777
886.786	0.0130288
886.864	0.0130045
886.943	0.0131865
887.021	0.0131647
887.099	0.0130778
887.177	0.0131339
887.255	0.0130157
887.333	0.0130107
887.411	0.0131947
887.489	0.0131457
887.568	0.0132001
887.646	0.0131267
887.724	0.0132331
887.802	0.0133050
887.880	0.0131942
887.958	0.0131933
888.036	0.0131468
888.114	0.0131345
888.193	0.0131573
888.271	0.0131926
888.349	0.0133337
888.427	0.0131504
888.505	0.0131334
888.583	0.0131443
888.661	0.0130173
888.739	0.0130505
888.818	0.0132457
888.896	0.0130935
888.974	0.0130746
889.052	0.0130458
889.130	0.0129336
889.208	0.0131557
889.286	0.0130465
889.364	0.0132748
889.443	0.0131762
889.521	0.0131463
889.599	0.0130469
889.677	0.0131936
889.755	0.0132998
889.833	0.0133629
889.911	0.0132384
889.989	0.0133674
890.068	0.0133639
890.146	0.0132220
890.224	0.0134228
890.302	0.0133907
890.380	0.0135196
890.458	0.0133921
890.536	0.0133627
890.614	0.0133704
890.693	0.0134954
890.771	0.0135298
890.849	0.0133315
890.927	0.0132673
891.005	0.0133418
891.083	0.0133204
891.161	0.0133882
891.239	0.0134206
891.318	0.0132314
891.396	0.0132748
891.474	0.0132997
891.552	0.0134018
891.630	0.0132605
891.708	0.0132503
891.786	0.0132841
891.864	0.0132831
891.943	0.0133976
892.021	0.0132770
892.099	0.0132008
892.177	0.0131355
892.255	0.0132542
892.333	0.0132557
892.411	0.0133074
892.489	0.0131490
892.568	0.0131507
892.646	0.0132153
892.724	0.0132626
892.802	0.0132345
892.880	0.0131909
892.958	0.0131793
893.036	0.0131026
893.114	0.0131631
893.193	0.0131516
893.271	0.0132037
893.349	0.0132158
893.427	0.0132417
893.505	0.0130469
893.583	0.0131800
893.661	0.0131644
893.739	0.0131706
893.818	0.0132182
893.896	0.0132904
893.974	0.0132823
894.052	0.0132800
894.130	0.0132623
894.208	0.0133457
894.286	0.0132381
894.364	0.0131624
894.443	0.0133026
894.521	0.0133752
894.599	0.0133579
894.677	0.0133736
894.755	0.0134689
894.833	0.0133329
894.911	0.0132915
894.989	0.0133281
895.068	0.0132614
895.146	0.0132781
895.224	0.0131648
895.302	0.0132838
895.380	0.0132957
895.458	0.0131834
895.536	0.0133038
895.614	0.0132613
895.693	0.0132841
895.771	0.0132252
895.849	0.0131792
895.927	0.0134071
896.005	0.0132101
896.083	0.0132806
896.161	0.0132345
896.239	0.0131559
896.318	0.0132867
896.396	0.0131052
896.474	0.0132275
896.552	0.0131250
896.630	0.0131334
896.708	0.0131126
896.786	0.0130670
896.864	0.0131923
896.943	0.0132381
897.021	0.0130968
897.099	0.0130671
897.177	0.0130344
897.255	0.0131764
897.333	0.0132280
897.411	0.0130166
897.489	0.0130715
897.568	0.0129510
897.646	0.0131364
897.724	0.0130045
897.802	0.0128087
897.880	0.0128984
897.958	0.0130027
898.036	0.0128323
898.114	0.0129186
898.193	0.0130018
898.271	0.0128179
898.349	0.0129981
898.427	0.0129981
898.505	0.0129243
898.583	0.0130152
898.661	0.0131115
898.739	0.0132398
898.818	0.0132006
898.896	0.0131339
898.974	0.0131149
899.052	0.0131771
899.130	0.0130963
899.208	0.0132901
899.286	0.0132424
899.364	0.0133253
899.443	0.0132445
899.521	0.0132083
899.599	0.0131469
899.677	0.0130663
899.755	0.0131793
899.833	0.0132479
899.911	0.0132174
899.989	0.0132348
900.068	0.0130956
900.146	0.0132423
900.224	0.0131190
900.302	0.0132340
900.380	0.0132069
900.458	0.0133246
900.536	0.0132504
900.614	0.0132275
900.693	0.0134142
900.771	0.0133719
900.849	0.0132346
900.927	0.0133866
901.005	0.0132921
901.083	0.0132643
901.161	0.0132614
901.239	0.0133037
901.318	0.0131738
901.396	0.0132741
901.474	0.0131718
901.552	0.0132059
901.630	0.0131480
901.708	0.0132266
901.786	0.0131107
901.864	0.0131230
901.943	0.0131726
902.021	0.0132788
902.099	0.0133456
902.177	0.0133273
902.255	0.0132513
902.333	0.0131821
902.411	0.0132037
902.489	0.0133187
902.568	0.0132764
902.646	0.0133618
902.724	0.0134738
902.802	0.0133724
902.880	0.0134095
902.958	0.0132772
903.036	0.0133320
903.114	0.0133109
903.193	0.0132790
903.271	0.0133734
903.349	0.0132270
903.427	0.0132838
903.505	0.0133275
903.583	0.0132664
903.661	0.0131500
903.739	0.0132652
903.818	0.0132137
903.896	0.0131602
903.974	0.0131218
904.052	0.0131147
904.130	0.0131619
904.208	0.0132899
904.286	0.0133762
904.364	0.0130396
904.443	0.0132177
904.521	0.0131520
904.599	0.0131310
904.677	0.0131549
904.755	0.0129871
904.833	0.0131790
904.911	0.0132292
904.989	0.0132192
905.068	0.0131335
905.146	0.0132308
905.224	0.0132289
905.302	0.0132664
905.380	0.0131248
905.458	0.0132932
905.536	0.0132845
905.614	0.0133495
905.693	0.0130917
905.771	0.0130981
905.849	0.0132342
905.927	0.0131536
906.005	0.0130594
906.083	0.0131637
906.161	0.0131107
906.239	0.0129991
906.318	0.0130110
906.396	0.0131010
906.474	0.0130907
906.552	0.0130109
906.630	0.0130875
906.708	0.0131441
906.786	0.0130384
906.864	0.0130109
906.943	0.0130587
907.021	0.0128959
907.099	0.0129660
907.177	0.0129097
907.255	0.0128931
907.333	0.0128976
907.411	0.0128764
907.489	0.0128763
907.568	0.0129176
907.646	0.0129276
907.724	0.0129364
907.802	0.0128472
907.880	0.0128830
907.958	0.0128510
908.036	0.0128785
908.114	0.0129266
908.193	0.0128789
908.271	0.0129079
908.349	0.0129267
908.427	0.0130431
908.505	0.0128478
908.583	0.0128703
908.661	0.0130193
908.739	0.0130212
908.818	0.0130273
908.896	0.0131338
908.974	0.0130134
909.052	0.0130546
909.130	0.0131839
909.208	0.0131303
909.286	0.0131988
909.364	0.0133387
909.443	0.0131763
909.521	0.0131504
909.599	0.0132587
909.677	0.0131470
909.755	0.0132196
909.833	0.0131365
909.911	0.0131076
909.989	0.0131841
910.068	0.0131213
910.146	0.0131285
910.224	0.0132418
910.302	0.0132252
910.380	0.0132819
910.458	0.0131400
910.536	0.0132626
910.614	0.0132630
910.693	0.0132136
910.771	0.0132838
910.849	0.0132613
910.927	0.0132838
911.005	0.0132375
911.083	0.0132727
911.161	0.0132822
911.239	0.0133065
911.318	0.0132974
911.396	0.0132578
911.474	0.0133215
911.552	0.0133685
911.630	0.0132748
911.708	0.0133842
911.786	0.0134254
911.864	0.0135366
911.943	0.0132977
912.021	0.0133637
912.099	0.0133532
912.177	0.0132523
912.255	0.0134180
912.333	0.0134863
912.411	0.0134343
912.489	0.0133437
912.568	0.0134893
912.646	0.0133954
912.724	0.0134962
912.802	0.0134672
912.880	0.0134245
912.958	0.0134402
913.036	0.0133804
913.114	0.0133604
913.193	0.0133118
913.271	0.0133772
913.349	0.0133546
913.427	0.0133902
913.505	0.0134146
913.583	0.0133631
913.661	0.0134123
913.739	0.0132658
913.818	0.0132891
913.896	0.0134375
913.974	0.0133167
914.052	0.0133395
914.130	0.0131168
914.208	0.0131665
914.286	0.0133184
914.364	0.0133344
914.443	0.0133244
914.521	0.0132001
914.599	0.0132694
914.677	0.0131757
914.755	0.0129950
914.833	0.0131452
914.911	0.0131999
914.989	0.0132182
915.068	0.0131335
915.146	0.0131428
915.224	0.0131457
915.302	0.0130232
915.380	0.0130556
915.458	0.0130145
915.536	0.0131088
915.614	0.0131936
915.693	0.0132658
915.771	0.0130980
915.849	0.0130605
915.927	0.0133498
916.005	0.0133226
916.083	0.0133195
916.161	0.0131926
916.239	0.0131805
916.318	0.0133620
916.396	0.0132085
916.474	0.0133451
916.552	0.0133795
916.630	0.0133122
916.708	0.0133620
916.786	0.0132639
916.864	0.0133841
916.943	0.0134691
917.021	0.0133911
917.099	0.0132795
917.177	0.0132139
917.255	0.0133418
917.333	0.0133955
917.411	0.0133102
917.489	0.0132156
917.568	0.0132475
917.646	0.0132548
917.724	0.0132439
917.802	0.0133106
917.880	0.0132359
917.958	0.0131667
918.036	0.0132698
918.114	0.0132925
918.193	0.0133312
918.271	0.0132642
918.349	0.0132337
918.427	0.0133398
918.505	0.0133795
918.583	0.0132652
918.661	0.0134080
918.739	0.0135117
918.818	0.0133315
918.896	0.0134602
918.974	0.0133099
919.052	0.0133930
919.130	0.0133287
919.208	0.0132504
919.286	0.0135005
919.364	0.0133585
919.443	0.0135245
919.521	0.0134930
919.599	0.0134681
919.677	0.0134486
919.755	0.0133423
919.833	0.0134225
919.911	0.0134417
919.989	0.0133741
920.068	0.0134374
920.146	0.0134762
920.224	0.0134971
920.302	0.0135667
920.380	0.0133813
920.458	0.0133733
920.536	0.0135030
920.614	0.0133449
920.693	0.0133479
920.771	0.0132078
920.849	0.0134097
920.927	0.0131708
921.005	0.0134720
921.083	0.0135003
921.161	0.0132601
921.239	0.0131909
921.318	0.0132485
921.396	0.0133508
921.474	0.0133348
921.552	0.0133045
921.630	0.0132607
921.708	0.0133167
921.786	0.0131759
921.864	0.0132397
921.943	0.0132921
922.021	0.0132971
922.099	0.0132356
922.177	0.0131853
922.255	0.0132136
922.333	0.0132329
922.411	0.0132780
922.489	0.0131847
922.568	0.0131182
922.646	0.0132481
922.724	0.0132104
922.802	0.0130694
922.880	0.0131626
922.958	0.0130643
923.036	0.0131879
923.114	0.0132674
923.193	0.0132088
923.271	0.0131009
923.349	0.0131329
923.427	0.0132187
923.505	0.0132645
923.583	0.0131004
923.661	0.0131452
923.739	0.0132307
923.818	0.0132791
923.896	0.0132684
923.974	0.0133078
924.052	0.0132889
924.130	0.0132801
924.208	0.0132670
924.286	0.0134265
924.364	0.0133799
924.443	0.0133210
924.521	0.0132690
924.599	0.0130811
924.677	0.0132725
924.755	0.0132568
924.833	0.0132423
924.911	0.0132619
924.989	0.0133337
925.068	0.0131821
925.146	0.0132089
925.224	0.0130908
925.302	0.0131021
925.380	0.0131491
925.458	0.0133738
925.536	0.0131707
925.614	0.0131426
925.693	0.0131423
925.771	0.0131784
925.849	0.0130814
925.927	0.0129442
926.005	0.0131203
926.083	0.0130724
926.161	0.0130644
926.239	0.0131400
926.318	0.0130289
926.396	0.0129710
926.474	0.0129727
926.552	0.0130293
926.630	0.0130223
926.708	0.0129466
926.786	0.0129308
926.864	0.0128311
926.943	0.0128667
927.021	0.0129741
927.099	0.0130309
927.177	0.0130515
927.255	0.0129337
927.333	0.0130556
927.411	0.0129823
927.489	0.0129626
927.568	0.0128498
927.646	0.0129642
927.724	0.0128942
927.802	0.0129449
927.880	0.0130070
927.958	0.0129612
928.036	0.0130947
928.114	0.0129959
928.193	0.0128835
928.271	0.0130401
928.349	0.0128172
928.427	0.0129380
928.505	0.0128642
928.583	0.0130391
928.661	0.0129154
928.739	0.0129520
928.818	0.0130828
928.896	0.0129648
928.974	0.0129472
929.052	0.0130833
929.130	0.0131615
929.208	0.0132635
929.286	0.0131907
929.364	0.0131150
929.443	0.0131620
929.521	0.0131524
929.599	0.0132774
929.677	0.0132541
929.755	0.0132085
929.833	0.0132176
929.911	0.0133637
929.989	0.0132807
930.068	0.0133295
930.146	0.0132491
930.224	0.0134032
930.302	0.0134903
930.380	0.0134846
930.458	0.0133633
930.536	0.0134257
930.614	0.0133777
930.693	0.0133572
930.771	0.0133719
930.849	0.0133234
930.927	0.0133255
931.005	0.0132751
931.083	0.0134077
931.161	0.0134182
931.239	0.0133247
931.318	0.0134684
931.396	0.0134119
931.474	0.0133043
931.552	0.0132312
931.630	0.0133392
931.708	0.0133663
931.786	0.0134192
931.864	0.0134012
931.943	0.0133330
932.021	0.0132293
932.099	0.0133560
932.177	0.0133176
932.255	0.0133340
932.333	0.0134320
932.411	0.0133327
932.489	0.0133266
932.568	0.0133402
932.646	0.0133502
932.724	0.0133678
932.802	0.0133571
932.880	0.0133727
932.958	0.0132662
933.036	0.0134407
933.114	0.0133407
933.193	0.0132870
933.271	0.0133479
933.349	0.0133386
933.427	0.0133849
933.505	0.0133662
933.583	0.0133802
933.661	0.0133508
933.739	0.0133887
933.818	0.0131888
933.896	0.0133786
933.974	0.0132219
934.052	0.0133430
934.130	0.0132540
934.208	0.0132761
934.286	0.0133177
934.364	0.0132475
934.443	0.0133454
934.521	0.0131692
934.599	0.0133723
934.677	0.0132238
934.755	0.0130857
934.833	0.0131137
934.911	0.0131765
934.989	0.0132895
935.068	0.0131892
935.146	0.0132652
935.224	0.0133395
935.302	0.0132720
935.380	0.0133169
935.458	0.0133031
935.536	0.0133273
935.614	0.0134421
935.693	0.0133644
935.771	0.0133557
935.849	0.0134348
935.927	0.0133582
936.005	0.0133585
936.083	0.0133910
936.161	0.0133405
936.239	0.0133012
936.318	0.0134794
936.396	0.0133888
936.474	0.0132327
936.552	0.0133348
936.630	0.0134147
936.708	0.0133462
936.786	0.0134270
936.864	0.0134067
936.943	0.0132822
937.021	0.0133385
937.099	0.0131750
937.177	0.0133241
937.255	0.0133485
937.333	0.0132908
937.411	0.0134289
937.489	0.0132990
937.568	0.0134134
937.646	0.0133059
937.724	0.0133559
937.802	0.0133785
937.880	0.0133047
937.958	0.0133681
938.036	0.0132990
938.114	0.0132053
938.193	0.0132275
938.271	0.0133758
938.349	0.0133031
938.427	0.0132594
938.505	0.0134239
938.583	0.0133141
938.661	0.0133019
938.739	0.0132647
938.818	0.0133662
938.896	0.0131870
938.974	0.0132825
939.052	0.0133185
939.130	0.0131010
939.208	0.0130894
939.286	0.0131371
939.364	0.0131334
939.443	0.0130756
939.521	0.0129952
939.599	0.0129814
939.677	0.0130745
939.755	0.0131496
939.833	0.0130214
939.911	0.0129411
939.989	0.0130126
940.068	0.0131065
940.146	0.0131077
940.224	0.0131622
940.302	0.0131146
940.380	0.0131215
940.458	0.0131760
940.536	0.0132407
940.614	0.0132890
940.693	0.0132938
940.771	0.0132973
940.849	0.0132905
940.927	0.0132955
941.005	0.0132920
941.083	0.0132026
941.161	0.0133094
941.239	0.0133501
941.318	0.0132702
941.396	0.0132870
941.474	0.0133755
941.552	0.0133822
941.630	0.0133485
941.708	0.0133747
941.786	0.0135709
941.864	0.0135306
941.943	0.0134441
942.021	0.0134254
942.099	0.0133160
942.177	0.0134459
942.255	0.0134610
942.333	0.0133489
942.411	0.0133768
942.489	0.0134376
942.568	0.0133036
942.646	0.0134612
942.724	0.0133689
942.802	0.0133737
942.880	0.0133726
942.958	0.0134216
943.036	0.0133327
943.114	0.0133280
943.193	0.0134016
943.271	0.0134420
943.349	0.0132742
943.427	0.0133301
943.505	0.0132289
943.583	0.0131665
943.661	0.0133909
943.739	0.0133360
943.818	0.0132221
943.896	0.0134779
943.974	0.0133774
944.052	0.0133907
944.130	0.0134386
944.208	0.0133935
944.286	0.0133782
944.364	0.0134245
944.443	0.0132718
944.521	0.0135203
944.599	0.0134499
944.677	0.0134214
944.755	0.0133425
944.833	0.0135307
944.911	0.0134275
944.989	0.0134480
945.068	0.0135114
945.146	0.0135482
945.224	0.0133184
945.302	0.0133727
945.380	0.0133825
945.458	0.0135634
945.536	0.0134230
945.614	0.0133791
945.693	0.0134427
945.771	0.0133950
945.849	0.0134093
945.927	0.0134219
946.005	0.0133762
946.083	0.0133445
946.161	0.0132816
946.239	0.0133701
946.318	0.0132479
946.396	0.0131796
946.474	0.0133961
946.552	0.0133044
946.630	0.0132568
946.708	0.0132394
946.786	0.0133241
946.864	0.0131904
946.943	0.0132553
947.021	0.0130510
947.099	0.0132053
947.177	0.0131403
947.255	0.0132472
947.333	0.0131459
947.411	0.0132162
947.489	0.0132485
947.568	0.0132726
947.646	0.0132217
947.724	0.0131588
947.802	0.0130956
947.880	0.0131320
947.958	0.0131538
948.036	0.0131094
948.114	0.0132243
948.193	0.0133083
948.271	0.0132822
948.349	0.0132834
948.427	0.0132929
948.505	0.0132209
948.583	0.0132722
948.661	0.0133419
948.739	0.0132796
948.818	0.0132279
948.896	0.0131715
948.974	0.0133225
949.052	0.0133960
949.130	0.0131979
949.208	0.0133436
949.286	0.0134383
949.364	0.0134127
949.443	0.0133665
949.521	0.0133401
949.599	0.0133524
949.677	0.0134769
949.755	0.0136889
949.833	0.0135698
949.911	0.0135139
949.989	0.0135300
950.068	0.0134383
950.146	0.0133836
950.224	0.0136096
950.302	0.0135787
950.380	0.0134451
950.458	0.0135629
950.536	0.0134982
950.614	0.0135742
950.693	0.0135719
950.771	0.0135721
950.849	0.0134425
950.927	0.0134450
951.005	0.0134081
951.083	0.0133824
951.161	0.0134191
951.239	0.0134002
951.318	0.0134435
951.396	0.0135233
951.474	0.0133967
951.552	0.0132475
951.630	0.0133175
951.708	0.0133140
951.786	0.0133468
951.864	0.0133784
951.943	0.0132507
952.021	0.0132008
952.099	0.0132528
952.177	0.0133663
952.255	0.0132744
952.333	0.0132431
952.411	0.0131174
952.489	0.0133655
952.568	0.0132482
952.646	0.0132289
952.724	0.0132721
952.802	0.0131184
952.880	0.0133102
952.958	0.0134101
953.036	0.0132526
953.114	0.0132240
953.193	0.0133727
953.271	0.0131374
953.349	0.0132491
953.427	0.0133376
953.505	0.0133346
953.583	0.0131911
953.661	0.0133696
953.739	0.0133070
953.818	0.0131829
953.896	0.0132379
953.974	0.0133536
954.052	0.0132529
954.130	0.0131820
954.208	0.0132360
954.286	0.0132761
954.364	0.0134541
954.443	0.0133855
954.521	0.0133325
954.599	0.0133791
954.677	0.0133114
954.755	0.0133868
954.833	0.0133690
954.911	0.0132999
954.989	0.0133940
955.068	0.0133040
955.146	0.0135293
955.224	0.0134566
955.302	0.0133556
955.380	0.0133816
955.458	0.0133065
955.536	0.0133292
955.614	0.0133998
955.693	0.0133533
955.771	0.0133004
955.849	0.0133578
955.927	0.0132909
956.005	0.0132679
956.083	0.0133582
956.161	0.0132225
956.239	0.0131432
956.318	0.0132102
956.396	0.0132289
956.474	0.0132364
956.552	0.0132053
956.630	0.0130376
956.708	0.0131857
956.786	0.0131573
956.864	0.0131757
956.943	0.0131548
957.021	0.0132092
957.099	0.0130470
957.177	0.0131861
957.255	0.0131586
957.333	0.0130016
957.411	0.0131491
957.489	0.0131242
957.568	0.0132789
957.646	0.0130952
957.724	0.0131104
957.802	0.0133877
957.880	0.0133904
957.958	0.0131821
958.036	0.0132964
958.114	0.0131832
958.193	0.0133803
958.271	0.0132661
958.349	0.0133315
958.427	0.0132845
958.505	0.0132802
958.583	0.0132720
958.661	0.0132969
958.739	0.0133327
958.818	0.0133158
958.896	0.0134138
958.974	0.0133367
959.052	0.0133700
959.130	0.0134467
959.208	0.0133495
959.286	0.0135171
959.364	0.0133037
959.443	0.0132147
959.521	0.0133118
959.599	0.0133426
959.677	0.0133973
959.755	0.0132061
959.833	0.0133432
959.911	0.0133171
