05/07/2022	17:05:56	Ver.	4.1	UNKNOWN
Optical Delay	639.989416	Delta X		0.078125	Sweeps	1	Scan Rate	0/0
Coordinates	Axis 1	NaN	Axis 2	NaN	Axis 3	NaN	Axis 4	NaN	Axis 5	NaN	Axis 6	0.000000
TX Power	0.000000	RX Power	0.000000

639.989	0.0123896
640.068	0.0124458
640.146	0.0124089
640.224	0.0125690
640.302	0.0124580
640.380	0.0122723
640.458	0.0121534
640.536	0.0122403
640.614	0.0123478
640.693	0.0124734
640.771	0.0124588
640.849	0.0124276
640.927	0.0123800
641.005	0.0123076
641.083	0.0123415
641.161	0.0125066
641.239	0.0125421
641.318	0.0122824
641.396	0.0123471
641.474	0.0123823
641.552	0.0122994
641.630	0.0122827
641.708	0.0122607
641.786	0.0125172
641.864	0.0123795
641.943	0.0122868
642.021	0.0124442
642.099	0.0124064
642.177	0.0123170
642.255	0.0126072
642.333	0.0124950
642.411	0.0125185
642.489	0.0123957
642.568	0.0124583
642.646	0.0123582
642.724	0.0124287
642.802	0.0126137
642.880	0.0124042
642.958	0.0124982
643.036	0.0123971
643.114	0.0124400
643.193	0.0123946
643.271	0.0123015
643.349	0.0123869
643.427	0.0124134
643.505	0.0122737
643.583	0.0124129
643.661	0.0123252
643.739	0.0123734
643.818	0.0123943
643.896	0.0122601
643.974	0.0124133
644.052	0.0123911
644.130	0.0123802
644.208	0.0124472
644.286	0.0123499
644.364	0.0124812
644.443	0.0123060
644.521	0.0124956
644.599	0.0124116
644.677	0.0124055
644.755	0.0123202
644.833	0.0124288
644.911	0.0123663
644.989	0.0125150
645.068	0.0124130
645.146	0.0123713
645.224	0.0123460
645.302	0.0123895
645.380	0.0123517
645.458	0.0124098
645.536	0.0122359
645.614	0.0124156
645.693	0.0123166
645.771	0.0123769
645.849	0.0123759
645.927	0.0125673
646.005	0.0123701
646.083	0.0125158
646.161	0.0123783
646.239	0.0123901
646.318	0.0123795
646.396	0.0123508
646.474	0.0122473
646.552	0.0124553
646.630	0.0124028
646.708	0.0123260
646.786	0.0122527
646.864	0.0122915
646.943	0.0123327
647.021	0.0124787
647.099	0.0123385
647.177	0.0124348
647.255	0.0122611
647.333	0.0123618
647.411	0.0125160
647.489	0.0123871
647.568	0.0123273
647.646	0.0122804
647.724	0.0123751
647.802	0.0123280
647.880	0.0123901
647.958	0.0123555
648.036	0.0123376
648.114	0.0122982
648.193	0.0122980
648.271	0.0124259
648.349	0.0123325
648.427	0.0124148
648.505	0.0122925
648.583	0.0122524
648.661	0.0122427
648.739	0.0123528
648.818	0.0123950
648.896	0.0124210
648.974	0.0123569
649.052	0.0124143
649.130	0.0123122
649.208	0.0124193
649.286	0.0123659
649.364	0.0124810
649.443	0.0123941
649.521	0.0123206
649.599	0.0122866
649.677	0.0124742
649.755	0.0124904
649.833	0.0124427
649.911	0.0122741
649.989	0.0124434
650.068	0.0123197
650.146	0.0123323
650.224	0.0124575
650.302	0.0123220
650.380	0.0123623
650.458	0.0123180
650.536	0.0125349
650.614	0.0124232
650.693	0.0124113
650.771	0.0123452
650.849	0.0123392
650.927	0.0123143
651.005	0.0123771
651.083	0.0123495
651.161	0.0123847
651.239	0.0123540
651.318	0.0123647
651.396	0.0123597
651.474	0.0125723
651.552	0.0125388
651.630	0.0124287
651.708	0.0122902
651.786	0.0123032
651.864	0.0122589
651.943	0.0123037
652.021	0.0123681
652.099	0.0124115
652.177	0.0123844
652.255	0.0123566
652.333	0.0124475
652.411	0.0123940
652.489	0.0124912
652.568	0.0125921
652.646	0.0123336
652.724	0.0124522
652.802	0.0125679
652.880	0.0124763
652.958	0.0125329
653.036	0.0124808
653.114	0.0125038
653.193	0.0124914
653.271	0.0125236
653.349	0.0124903
653.427	0.0123667
653.505	0.0124704
653.583	0.0123304
653.661	0.0123743
653.739	0.0124709
653.818	0.0124766
653.896	0.0124543
653.974	0.0123515
654.052	0.0124014
654.130	0.0125355
654.208	0.0124405
654.286	0.0123900
654.364	0.0124004
654.443	0.0124323
654.521	0.0123869
654.599	0.0124850
654.677	0.0124662
654.755	0.0124105
654.833	0.0124985
654.911	0.0125357
654.989	0.0123811
655.068	0.0124191
655.146	0.0124143
655.224	0.0125019
655.302	0.0124151
655.380	0.0124599
655.458	0.0123768
655.536	0.0124352
655.614	0.0123815
655.693	0.0123239
655.771	0.0124448
655.849	0.0123938
655.927	0.0124329
656.005	0.0124900
656.083	0.0125207
656.161	0.0124058
656.239	0.0123990
656.318	0.0124641
656.396	0.0124962
656.474	0.0123622
656.552	0.0124072
656.630	0.0124117
656.708	0.0122524
656.786	0.0123034
656.864	0.0124690
656.943	0.0123364
657.021	0.0125965
657.099	0.0123370
657.177	0.0123661
657.255	0.0122880
657.333	0.0124010
657.411	0.0124397
657.489	0.0122824
657.568	0.0124957
657.646	0.0123891
657.724	0.0124413
657.802	0.0122884
657.880	0.0124996
657.958	0.0124110
658.036	0.0122292
658.114	0.0123327
658.193	0.0123814
658.271	0.0124595
658.349	0.0123091
658.427	0.0124446
658.505	0.0123506
658.583	0.0122332
658.661	0.0124031
658.739	0.0124209
658.818	0.0124390
658.896	0.0125265
658.974	0.0124789
659.052	0.0123253
659.130	0.0123522
659.208	0.0124437
659.286	0.0124154
659.364	0.0122690
659.443	0.0122909
659.521	0.0124189
659.599	0.0123618
659.677	0.0124357
659.755	0.0123483
659.833	0.0123164
659.911	0.0124455
659.989	0.0124257
660.068	0.0123794
660.146	0.0123808
660.224	0.0123164
660.302	0.0123644
660.380	0.0122981
660.458	0.0123473
660.536	0.0122800
660.614	0.0124757
660.693	0.0123402
660.771	0.0122999
660.849	0.0124286
660.927	0.0124372
661.005	0.0123736
661.083	0.0122932
661.161	0.0123110
661.239	0.0123515
661.318	0.0124186
661.396	0.0123319
661.474	0.0123470
661.552	0.0124672
661.630	0.0125672
661.708	0.0123303
661.786	0.0123500
661.864	0.0124496
661.943	0.0125527
662.021	0.0123521
662.099	0.0123565
662.177	0.0123818
662.255	0.0124541
662.333	0.0121614
662.411	0.0123576
662.489	0.0124696
662.568	0.0122733
662.646	0.0123187
662.724	0.0122897
662.802	0.0124148
662.880	0.0123968
662.958	0.0124822
663.036	0.0124773
663.114	0.0124888
663.193	0.0124149
663.271	0.0122392
663.349	0.0123824
663.427	0.0123909
663.505	0.0124073
663.583	0.0126007
663.661	0.0124137
663.739	0.0123885
663.818	0.0124001
663.896	0.0124431
663.974	0.0124598
664.052	0.0125266
664.130	0.0125224
664.208	0.0124740
664.286	0.0124573
664.364	0.0124306
664.443	0.0123108
664.521	0.0123955
664.599	0.0124465
664.677	0.0123668
664.755	0.0125246
664.833	0.0123244
664.911	0.0125168
664.989	0.0126031
665.068	0.0125399
665.146	0.0125620
665.224	0.0125833
665.302	0.0123842
665.380	0.0124786
665.458	0.0124669
665.536	0.0124953
665.614	0.0122878
665.693	0.0124215
665.771	0.0125230
665.849	0.0124620
665.927	0.0123495
666.005	0.0123303
666.083	0.0123849
666.161	0.0123763
666.239	0.0125239
666.318	0.0124998
666.396	0.0124810
666.474	0.0124600
666.552	0.0123354
666.630	0.0123357
666.708	0.0124493
666.786	0.0125941
666.864	0.0125041
666.943	0.0124020
667.021	0.0124544
667.099	0.0123078
667.177	0.0124946
667.255	0.0125094
667.333	0.0122967
667.411	0.0123302
667.489	0.0123659
667.568	0.0125166
667.646	0.0124645
667.724	0.0124797
667.802	0.0125275
667.880	0.0124178
667.958	0.0124739
668.036	0.0123954
668.114	0.0123665
668.193	0.0125083
668.271	0.0123586
668.349	0.0122361
668.427	0.0124495
668.505	0.0124452
668.583	0.0123473
668.661	0.0124664
668.739	0.0124871
668.818	0.0125051
668.896	0.0124902
668.974	0.0124624
669.052	0.0123782
669.130	0.0124465
669.208	0.0124178
669.286	0.0122885
669.364	0.0123054
669.443	0.0123984
669.521	0.0122653
669.599	0.0124942
669.677	0.0124802
669.755	0.0124352
669.833	0.0125462
669.911	0.0124294
669.989	0.0124094
670.068	0.0124256
670.146	0.0122955
670.224	0.0125197
670.302	0.0125577
670.380	0.0124528
670.458	0.0124493
670.536	0.0122939
670.614	0.0125560
670.693	0.0123241
670.771	0.0122674
670.849	0.0123825
670.927	0.0124777
671.005	0.0124466
671.083	0.0124470
671.161	0.0124741
671.239	0.0124315
671.318	0.0124676
671.396	0.0124849
671.474	0.0123522
671.552	0.0124372
671.630	0.0124304
671.708	0.0123616
671.786	0.0124490
671.864	0.0125206
671.943	0.0123009
672.021	0.0124413
672.099	0.0123833
672.177	0.0124094
672.255	0.0122894
672.333	0.0122952
672.411	0.0123230
672.489	0.0123811
672.568	0.0123807
672.646	0.0123762
672.724	0.0125358
672.802	0.0124207
672.880	0.0124638
672.958	0.0124158
673.036	0.0124085
673.114	0.0122527
673.193	0.0123870
673.271	0.0123462
673.349	0.0123550
673.427	0.0123491
673.505	0.0122916
673.583	0.0124948
673.661	0.0123952
673.739	0.0122739
673.818	0.0123812
673.896	0.0123529
673.974	0.0123394
674.052	0.0123700
674.130	0.0122914
674.208	0.0123130
674.286	0.0124904
674.364	0.0123214
674.443	0.0123174
674.521	0.0122819
674.599	0.0123839
674.677	0.0123779
674.755	0.0123545
674.833	0.0123769
674.911	0.0123188
674.989	0.0123358
675.068	0.0123700
675.146	0.0123419
675.224	0.0123764
675.302	0.0123913
675.380	0.0121561
675.458	0.0123534
675.536	0.0122718
675.614	0.0122093
675.693	0.0122083
675.771	0.0124000
675.849	0.0123711
675.927	0.0124319
676.005	0.0123694
676.083	0.0123615
676.161	0.0123824
676.239	0.0124402
676.318	0.0123238
676.396	0.0122661
676.474	0.0123282
676.552	0.0123862
676.630	0.0122137
676.708	0.0124291
676.786	0.0123682
676.864	0.0123600
676.943	0.0123817
677.021	0.0122971
677.099	0.0122530
677.177	0.0123814
677.255	0.0122482
677.333	0.0123565
677.411	0.0122402
677.489	0.0123434
677.568	0.0121908
677.646	0.0124301
677.724	0.0124400
677.802	0.0122330
677.880	0.0122725
677.958	0.0124451
678.036	0.0123713
678.114	0.0124664
678.193	0.0124226
678.271	0.0124001
678.349	0.0123478
678.427	0.0123917
678.505	0.0125455
678.583	0.0125070
678.661	0.0122871
678.739	0.0124462
678.818	0.0124723
678.896	0.0123582
678.974	0.0124780
679.052	0.0123546
679.130	0.0123777
679.208	0.0124545
679.286	0.0123116
679.364	0.0124779
679.443	0.0123366
679.521	0.0123492
679.599	0.0123497
679.677	0.0122631
679.755	0.0123286
679.833	0.0124289
679.911	0.0122688
679.989	0.0123122
680.068	0.0123390
680.146	0.0122887
680.224	0.0124195
680.302	0.0123466
680.380	0.0122322
680.458	0.0124876
680.536	0.0124991
680.614	0.0123918
680.693	0.0124491
680.771	0.0124568
680.849	0.0125164
680.927	0.0124709
681.005	0.0124063
681.083	0.0123817
681.161	0.0122813
681.239	0.0122507
681.318	0.0121965
681.396	0.0122060
681.474	0.0121768
681.552	0.0121729
681.630	0.0121422
681.708	0.0120973
681.786	0.0124093
681.864	0.0124438
681.943	0.0125498
682.021	0.0125060
682.099	0.0126309
682.177	0.0126521
682.255	0.0128349
682.333	0.0126577
682.411	0.0128216
682.489	0.0127780
682.568	0.0128450
682.646	0.0127863
682.724	0.0127203
682.802	0.0126323
682.880	0.0124681
682.958	0.0121432
683.036	0.0120104
683.114	0.0117365
683.193	0.0117122
683.271	0.0117168
683.349	0.0114669
683.427	0.0114783
683.505	0.0115788
683.583	0.0116843
683.661	0.0117371
683.739	0.0119835
683.818	0.0122414
683.896	0.0124958
683.974	0.0128318
684.052	0.0130070
684.130	0.0131820
684.208	0.0134801
684.286	0.0133818
684.364	0.0134718
684.443	0.0135294
684.521	0.0136784
684.599	0.0137211
684.677	0.0135082
684.755	0.0133611
684.833	0.0132991
684.911	0.0131503
684.989	0.0128995
685.068	0.0125232
685.146	0.0123284
685.224	0.0120817
685.302	0.0115124
685.380	0.0112188
685.458	0.0108863
685.536	0.0105182
685.614	0.0101612
685.693	0.0100355
685.771	0.0101041
685.849	0.00996559
685.927	0.0100278
686.005	0.0101923
686.083	0.0106579
686.161	0.0111240
686.239	0.0118535
686.318	0.0123643
686.396	0.0131174
686.474	0.0137072
686.552	0.0144289
686.630	0.0149447
686.708	0.0152780
686.786	0.0155869
686.864	0.0157185
686.943	0.0156236
687.021	0.0155161
687.099	0.0152222
687.177	0.0147585
687.255	0.0143778
687.333	0.0138664
687.411	0.0133602
687.489	0.0129129
687.568	0.0123930
687.646	0.0119563
687.724	0.0114399
687.802	0.0111323
687.880	0.0107689
687.958	0.0105880
688.036	0.0101868
688.114	0.00998665
688.193	0.00952690
688.271	0.00944046
688.349	0.00935387
688.427	0.00933067
688.505	0.00941711
688.583	0.00950974
688.661	0.00995186
688.739	0.0102322
688.818	0.0107084
688.896	0.0113191
688.974	0.0119038
689.052	0.0125439
689.130	0.0132558
689.208	0.0138095
689.286	0.0144123
689.364	0.0149145
689.443	0.0153092
689.521	0.0155592
689.599	0.0157940
689.677	0.0158860
689.755	0.0158368
689.833	0.0157440
689.911	0.0155908
689.989	0.0154654
690.068	0.0152367
690.146	0.0150742
690.224	0.0147042
690.302	0.0141990
690.380	0.0137909
690.458	0.0133926
690.536	0.0128316
690.614	0.0121178
690.693	0.0115388
690.771	0.0109145
690.849	0.0103809
690.927	0.00966476
691.005	0.00922592
691.083	0.00861511
691.161	0.00824371
691.239	0.00798019
691.318	0.00800323
691.396	0.00818619
691.474	0.00830322
691.552	0.00858543
691.630	0.00898010
691.708	0.00962074
691.786	0.0101847
691.864	0.0107431
691.943	0.0114906
692.021	0.0121703
692.099	0.0128474
692.177	0.0134212
692.255	0.0140463
692.333	0.0146439
692.411	0.0150528
692.489	0.0157224
692.568	0.0160223
692.646	0.0162119
692.724	0.0164932
692.802	0.0167134
692.880	0.0167460
692.958	0.0165515
693.036	0.0163288
693.114	0.0160230
693.193	0.0156373
693.271	0.0151711
693.349	0.0145467
693.427	0.0139986
693.505	0.0133438
693.583	0.0126881
693.661	0.0120264
693.739	0.0113503
693.818	0.0107856
693.896	0.0100233
693.974	0.00974533
694.052	0.00924744
694.130	0.00873268
694.208	0.00877541
694.286	0.00857071
694.364	0.00853363
694.443	0.00870697
694.521	0.00903114
694.599	0.00950035
694.677	0.00975548
694.755	0.0103613
694.833	0.0110236
694.911	0.0113894
694.989	0.0121440
695.068	0.0125463
695.146	0.0130453
695.224	0.0136813
695.302	0.0141364
695.380	0.0144019
695.458	0.0146179
695.536	0.0147049
695.614	0.0149290
695.693	0.0148835
695.771	0.0146339
695.849	0.0144631
695.927	0.0143227
696.005	0.0140110
696.083	0.0136472
696.161	0.0132404
696.239	0.0127413
696.318	0.0123433
696.396	0.0120296
696.474	0.0116596
696.552	0.0113212
696.630	0.0110954
696.708	0.0109635
696.786	0.0109407
696.864	0.0109219
696.943	0.0109522
697.021	0.0112084
697.099	0.0112855
697.177	0.0116238
697.255	0.0118760
697.333	0.0122889
697.411	0.0125773
697.489	0.0129498
697.568	0.0131142
697.646	0.0134548
697.724	0.0137807
697.802	0.0139323
697.880	0.0140687
697.958	0.0142065
698.036	0.0142418
698.114	0.0140977
698.193	0.0139738
698.271	0.0139393
698.349	0.0136517
698.427	0.0133488
698.505	0.0130988
698.583	0.0126390
698.661	0.0123059
698.739	0.0120971
698.818	0.0116332
698.896	0.0112999
698.974	0.0109805
699.052	0.0107115
699.130	0.0105708
699.208	0.0100957
699.286	0.00983681
699.364	0.00991096
699.443	0.00977928
699.521	0.00978889
699.599	0.00972786
699.677	0.00980598
699.755	0.0100532
699.833	0.0101178
699.911	0.0104847
699.989	0.0108735
700.068	0.0112928
700.146	0.0116933
700.224	0.0121497
700.302	0.0125275
700.380	0.0130778
700.458	0.0138165
700.536	0.0141685
700.614	0.0146832
700.693	0.0150623
700.771	0.0151011
700.849	0.0153384
700.927	0.0155782
701.005	0.0155340
701.083	0.0156043
701.161	0.0153960
701.239	0.0151537
701.318	0.0147894
701.396	0.0144284
701.474	0.0141579
701.552	0.0137679
701.630	0.0131358
701.708	0.0125795
701.786	0.0122255
701.864	0.0118432
701.943	0.0114453
702.021	0.0109962
702.099	0.0107694
702.177	0.0103925
702.255	0.0102885
702.333	0.0102361
702.411	0.0102601
702.489	0.0103892
702.568	0.0105326
702.646	0.0106845
702.724	0.0110754
702.802	0.0112144
702.880	0.0115495
702.958	0.0118201
703.036	0.0121156
703.114	0.0123528
703.193	0.0125649
703.271	0.0127303
703.349	0.0129787
703.427	0.0129318
703.505	0.0130994
703.583	0.0132664
703.661	0.0133652
703.739	0.0130870
703.818	0.0131371
703.896	0.0130930
703.974	0.0128593
704.052	0.0128148
704.130	0.0126192
704.208	0.0125320
704.286	0.0124973
704.364	0.0123426
704.443	0.0121091
704.521	0.0119112
704.599	0.0118822
704.677	0.0116811
704.755	0.0117668
704.833	0.0116087
704.911	0.0115740
704.989	0.0115332
705.068	0.0115437
705.146	0.0115862
705.224	0.0115680
705.302	0.0115820
705.380	0.0116602
705.458	0.0117471
705.536	0.0118243
705.614	0.0118180
705.693	0.0120261
705.771	0.0121187
705.849	0.0124524
705.927	0.0126450
706.005	0.0127142
706.083	0.0128001
706.161	0.0130483
706.239	0.0133370
706.318	0.0132508
706.396	0.0135323
706.474	0.0136221
706.552	0.0138710
706.630	0.0138629
706.708	0.0138411
706.786	0.0140926
706.864	0.0139652
706.943	0.0140298
707.021	0.0139032
707.099	0.0139300
707.177	0.0137860
707.255	0.0135010
707.333	0.0133169
707.411	0.0130307
707.489	0.0128380
707.568	0.0125574
707.646	0.0121777
707.724	0.0120259
707.802	0.0116290
707.880	0.0115343
707.958	0.0111509
708.036	0.0109974
708.114	0.0108895
708.193	0.0107806
708.271	0.0107385
708.349	0.0106970
708.427	0.0107162
708.505	0.0105744
708.583	0.0106773
708.661	0.0109174
708.739	0.0107919
708.818	0.0109243
708.896	0.0109634
708.974	0.0111241
709.052	0.0112589
709.130	0.0113268
709.208	0.0115356
709.286	0.0117389
709.364	0.0118554
709.443	0.0120836
709.521	0.0123537
709.599	0.0125224
709.677	0.0125980
709.755	0.0128870
709.833	0.0128957
709.911	0.0128836
709.989	0.0128817
710.068	0.0130698
710.146	0.0130768
710.224	0.0130939
710.302	0.0131552
710.380	0.0131412
710.458	0.0130914
710.536	0.0131094
710.614	0.0131412
710.693	0.0130995
710.771	0.0129961
710.849	0.0130627
710.927	0.0131370
711.005	0.0131982
711.083	0.0132991
711.161	0.0133398
711.239	0.0133957
711.318	0.0132904
711.396	0.0133185
711.474	0.0133794
711.552	0.0131649
711.630	0.0132736
711.708	0.0131688
711.786	0.0130543
711.864	0.0129909
711.943	0.0128586
712.021	0.0127239
712.099	0.0126788
712.177	0.0123396
712.255	0.0121043
712.333	0.0120274
712.411	0.0118169
712.489	0.0115552
712.568	0.0114305
712.646	0.0112720
712.724	0.0112157
712.802	0.0110079
712.880	0.0110020
712.958	0.0108222
713.036	0.0108012
713.114	0.0108711
713.193	0.0110126
713.271	0.0109943
713.349	0.0111565
713.427	0.0111740
713.505	0.0112689
713.583	0.0114606
713.661	0.0116343
713.739	0.0119104
713.818	0.0121793
713.896	0.0121922
713.974	0.0123224
714.052	0.0127185
714.130	0.0127092
714.208	0.0129279
714.286	0.0130347
714.364	0.0129935
714.443	0.0131290
714.521	0.0131142
714.599	0.0130627
714.677	0.0130882
714.755	0.0128790
714.833	0.0128199
714.911	0.0126516
714.989	0.0125926
715.068	0.0125456
715.146	0.0123888
715.224	0.0125069
715.302	0.0121814
715.380	0.0122723
715.458	0.0122134
715.536	0.0120063
715.614	0.0120611
715.693	0.0123372
715.771	0.0124072
715.849	0.0125475
715.927	0.0126048
716.005	0.0126026
716.083	0.0128318
716.161	0.0129797
716.239	0.0130203
716.318	0.0132674
716.396	0.0134525
716.474	0.0136674
716.552	0.0137790
716.630	0.0134869
716.708	0.0136174
716.786	0.0135502
716.864	0.0133810
716.943	0.0135443
717.021	0.0132765
717.099	0.0131951
717.177	0.0131281
717.255	0.0129297
717.333	0.0127847
717.411	0.0125932
717.489	0.0123647
717.568	0.0122580
717.646	0.0122325
717.724	0.0120991
717.802	0.0119682
717.880	0.0119491
717.958	0.0118414
718.036	0.0116689
718.114	0.0115106
718.193	0.0115459
718.271	0.0115258
718.349	0.0114969
718.427	0.0114110
718.505	0.0113598
718.583	0.0112596
718.661	0.0112635
718.739	0.0113097
718.818	0.0112514
718.896	0.0111454
718.974	0.0112269
719.052	0.0112370
719.130	0.0113825
719.208	0.0115263
719.286	0.0114951
719.364	0.0118002
719.443	0.0118891
719.521	0.0120637
719.599	0.0120768
719.677	0.0123289
719.755	0.0125101
719.833	0.0127064
719.911	0.0127596
719.989	0.0128242
720.068	0.0129374
720.146	0.0127897
720.224	0.0129156
720.302	0.0128245
720.380	0.0128434
720.458	0.0128683
720.536	0.0127791
720.614	0.0127668
720.693	0.0128315
720.771	0.0128605
720.849	0.0128879
720.927	0.0130190
721.005	0.0129713
721.083	0.0129855
721.161	0.0133444
721.239	0.0133945
721.318	0.0134078
721.396	0.0134280
721.474	0.0136333
721.552	0.0136480
721.630	0.0136865
721.708	0.0137189
721.786	0.0137591
721.864	0.0136430
721.943	0.0136360
722.021	0.0134098
722.099	0.0133569
722.177	0.0133860
722.255	0.0128985
722.333	0.0128673
722.411	0.0127503
722.489	0.0124420
722.568	0.0121568
722.646	0.0120049
722.724	0.0118996
722.802	0.0116374
722.880	0.0114331
722.958	0.0114359
723.036	0.0113000
723.114	0.0111720
723.193	0.0110931
723.271	0.0110685
723.349	0.0111656
723.427	0.0110224
723.505	0.0111133
723.583	0.0110551
723.661	0.0112495
723.739	0.0113425
723.818	0.0114613
723.896	0.0115943
723.974	0.0116644
724.052	0.0118130
724.130	0.0120467
724.208	0.0121849
724.286	0.0121838
724.364	0.0123873
724.443	0.0124382
724.521	0.0124824
724.599	0.0124989
724.677	0.0126134
724.755	0.0126654
724.833	0.0125539
724.911	0.0125570
724.989	0.0125004
725.068	0.0124552
725.146	0.0123721
725.224	0.0122301
725.302	0.0123949
725.380	0.0122589
725.458	0.0122782
725.536	0.0122376
725.614	0.0120887
725.693	0.0123290
725.771	0.0122839
725.849	0.0123338
725.927	0.0125557
726.005	0.0126394
726.083	0.0127640
726.161	0.0127420
726.239	0.0128787
726.318	0.0130791
726.396	0.0132437
726.474	0.0133308
726.552	0.0134647
726.630	0.0136779
726.708	0.0136801
726.786	0.0136792
726.864	0.0136124
726.943	0.0136139
727.021	0.0135567
727.099	0.0134271
727.177	0.0132492
727.255	0.0131623
727.333	0.0130583
727.411	0.0127570
727.489	0.0125317
727.568	0.0122093
727.646	0.0120008
727.724	0.0120374
727.802	0.0117685
727.880	0.0117215
727.958	0.0116624
728.036	0.0114711
728.114	0.0115041
728.193	0.0113842
728.271	0.0115706
728.349	0.0114145
728.427	0.0114748
728.505	0.0114636
728.583	0.0116331
728.661	0.0116825
728.739	0.0119070
728.818	0.0119738
728.896	0.0120738
728.974	0.0121249
729.052	0.0121362
729.130	0.0123779
729.208	0.0123380
729.286	0.0125154
729.364	0.0122867
729.443	0.0124711
729.521	0.0125130
729.599	0.0125092
729.677	0.0125230
729.755	0.0124794
729.833	0.0124031
729.911	0.0123560
729.989	0.0125082
730.068	0.0123138
730.146	0.0122401
730.224	0.0122262
730.302	0.0122506
730.380	0.0121721
730.458	0.0120773
730.536	0.0120097
730.614	0.0120135
730.693	0.0119294
730.771	0.0118015
730.849	0.0119180
730.927	0.0118909
731.005	0.0119877
731.083	0.0119478
731.161	0.0119405
731.239	0.0119455
731.318	0.0120290
731.396	0.0123438
731.474	0.0125121
731.552	0.0126848
731.630	0.0127434
731.708	0.0129304
731.786	0.0131409
731.864	0.0130530
731.943	0.0133928
732.021	0.0133769
732.099	0.0134921
732.177	0.0135474
732.255	0.0135468
732.333	0.0135063
732.411	0.0134151
732.489	0.0134413
732.568	0.0132953
732.646	0.0131651
732.724	0.0129514
732.802	0.0128178
732.880	0.0129333
732.958	0.0126155
733.036	0.0123730
733.114	0.0123678
733.193	0.0122689
733.271	0.0120047
733.349	0.0119473
733.427	0.0119749
733.505	0.0117711
733.583	0.0117744
733.661	0.0117165
733.739	0.0117759
733.818	0.0117294
733.896	0.0117284
733.974	0.0118732
734.052	0.0117501
734.130	0.0116048
734.208	0.0117172
734.286	0.0118694
734.364	0.0118856
734.443	0.0118584
734.521	0.0119538
734.599	0.0119708
734.677	0.0120322
734.755	0.0119859
734.833	0.0123250
734.911	0.0121901
734.989	0.0122916
735.068	0.0124156
735.146	0.0123971
735.224	0.0123519
735.302	0.0124040
735.380	0.0123181
735.458	0.0123061
735.536	0.0123373
735.614	0.0123203
735.693	0.0124274
735.771	0.0123866
735.849	0.0122929
735.927	0.0121543
736.005	0.0123741
736.083	0.0122672
736.161	0.0121843
736.239	0.0122227
736.318	0.0122723
736.396	0.0124143
736.474	0.0122791
736.552	0.0122648
736.630	0.0121646
736.708	0.0122293
736.786	0.0124181
736.864	0.0123658
736.943	0.0124233
737.021	0.0125533
737.099	0.0125534
737.177	0.0124329
737.255	0.0126045
737.333	0.0126744
737.411	0.0126034
737.489	0.0127343
737.568	0.0125723
737.646	0.0126891
737.724	0.0128854
737.802	0.0127374
737.880	0.0129098
737.958	0.0129404
738.036	0.0127582
738.114	0.0127890
738.193	0.0129011
738.271	0.0127879
738.349	0.0127851
738.427	0.0127439
738.505	0.0127074
738.583	0.0126356
738.661	0.0124895
738.739	0.0124621
738.818	0.0124575
738.896	0.0123753
738.974	0.0123192
739.052	0.0122915
739.130	0.0123447
739.208	0.0121732
739.286	0.0121516
739.364	0.0120210
739.443	0.0120493
739.521	0.0119510
739.599	0.0119778
739.677	0.0119466
739.755	0.0120518
739.833	0.0120453
739.911	0.0120079
739.989	0.0121648
740.068	0.0120177
740.146	0.0118554
740.224	0.0119871
740.302	0.0120247
740.380	0.0121129
740.458	0.0120941
740.536	0.0122133
740.614	0.0120461
740.693	0.0121831
740.771	0.0122370
740.849	0.0122684
740.927	0.0124607
741.005	0.0123515
741.083	0.0123484
741.161	0.0125083
741.239	0.0126178
741.318	0.0124860
741.396	0.0126746
741.474	0.0126619
741.552	0.0126408
741.630	0.0125360
741.708	0.0127063
741.786	0.0127245
741.864	0.0127952
741.943	0.0127755
742.021	0.0126881
742.099	0.0127755
742.177	0.0126560
742.255	0.0128022
742.333	0.0127896
742.411	0.0125329
742.489	0.0125245
742.568	0.0124458
742.646	0.0122715
742.724	0.0123220
742.802	0.0122522
742.880	0.0120879
742.958	0.0121788
743.036	0.0120163
743.114	0.0120751
743.193	0.0118979
743.271	0.0120379
743.349	0.0119564
743.427	0.0119968
743.505	0.0122517
743.583	0.0122468
743.661	0.0123547
743.739	0.0124168
743.818	0.0125021
743.896	0.0126044
743.974	0.0126939
744.052	0.0126554
744.130	0.0127040
744.208	0.0128570
744.286	0.0128529
744.364	0.0128422
744.443	0.0129086
744.521	0.0129205
744.599	0.0129177
744.677	0.0127036
744.755	0.0126164
744.833	0.0127330
744.911	0.0126064
744.989	0.0124596
745.068	0.0124158
745.146	0.0122585
745.224	0.0122627
745.302	0.0122377
745.380	0.0119518
745.458	0.0118881
745.536	0.0119524
745.614	0.0118837
745.693	0.0119357
745.771	0.0118616
745.849	0.0119456
745.927	0.0120017
746.005	0.0119881
746.083	0.0120532
746.161	0.0120031
746.239	0.0120036
746.318	0.0120447
746.396	0.0122089
746.474	0.0122833
746.552	0.0124349
746.630	0.0126941
746.708	0.0126627
746.786	0.0126270
746.864	0.0128393
746.943	0.0130162
747.021	0.0130708
747.099	0.0129764
747.177	0.0130582
747.255	0.0131149
747.333	0.0130145
747.411	0.0131525
747.489	0.0130434
747.568	0.0129137
747.646	0.0129533
747.724	0.0129666
747.802	0.0129195
747.880	0.0126749
747.958	0.0127060
748.036	0.0125577
748.114	0.0124378
748.193	0.0124642
748.271	0.0122660
748.349	0.0124076
748.427	0.0122797
748.505	0.0119667
748.583	0.0120344
748.661	0.0119739
748.739	0.0119745
748.818	0.0118519
748.896	0.0118702
748.974	0.0116866
749.052	0.0117377
749.130	0.0119146
749.208	0.0118403
749.286	0.0118910
749.364	0.0118168
749.443	0.0119844
749.521	0.0121081
749.599	0.0119341
749.677	0.0121585
749.755	0.0122681
749.833	0.0123723
749.911	0.0123153
749.989	0.0124446
750.068	0.0126019
750.146	0.0126396
750.224	0.0127904
750.302	0.0126936
750.380	0.0129337
750.458	0.0129461
750.536	0.0129636
750.614	0.0129034
750.693	0.0131592
750.771	0.0131343
750.849	0.0130061
750.927	0.0129578
751.005	0.0127971
751.083	0.0129714
751.161	0.0128887
751.239	0.0127779
751.318	0.0127429
751.396	0.0127042
751.474	0.0126063
751.552	0.0126868
751.630	0.0126536
751.708	0.0125874
751.786	0.0125003
751.864	0.0123701
751.943	0.0124429
752.021	0.0124706
752.099	0.0124414
752.177	0.0124738
752.255	0.0123685
752.333	0.0124068
752.411	0.0125457
752.489	0.0124438
752.568	0.0123192
752.646	0.0124288
752.724	0.0123694
752.802	0.0125893
752.880	0.0125818
752.958	0.0124158
753.036	0.0124899
753.114	0.0123591
753.193	0.0123470
753.271	0.0123112
753.349	0.0123721
753.427	0.0124550
753.505	0.0122624
753.583	0.0122931
753.661	0.0123613
753.739	0.0121637
753.818	0.0121851
753.896	0.0121534
753.974	0.0122569
754.052	0.0121990
754.130	0.0121512
754.208	0.0122238
754.286	0.0121386
754.364	0.0122391
754.443	0.0122155
754.521	0.0121107
754.599	0.0119986
754.677	0.0119712
754.755	0.0120404
754.833	0.0121022
754.911	0.0119738
754.989	0.0120586
755.068	0.0120868
755.146	0.0119963
755.224	0.0120639
755.302	0.0120571
755.380	0.0120834
755.458	0.0119476
755.536	0.0120564
755.614	0.0121277
755.693	0.0122029
755.771	0.0122021
755.849	0.0122536
755.927	0.0122486
756.005	0.0124731
756.083	0.0124660
756.161	0.0126711
756.239	0.0126569
756.318	0.0127821
756.396	0.0128696
756.474	0.0129036
756.552	0.0129865
756.630	0.0130599
756.708	0.0130700
756.786	0.0129873
756.864	0.0131029
756.943	0.0130833
757.021	0.0129716
757.099	0.0129405
757.177	0.0130807
757.255	0.0128149
757.333	0.0127418
757.411	0.0126382
757.489	0.0126248
757.568	0.0125678
757.646	0.0125258
757.724	0.0124657
757.802	0.0124354
757.880	0.0122885
757.958	0.0123574
758.036	0.0122544
758.114	0.0122005
758.193	0.0121917
758.271	0.0121438
758.349	0.0122149
758.427	0.0121315
758.505	0.0121997
758.583	0.0121612
758.661	0.0121226
758.739	0.0122604
758.818	0.0123594
758.896	0.0122858
758.974	0.0123888
759.052	0.0123032
759.130	0.0122076
759.208	0.0122641
759.286	0.0123189
759.364	0.0122909
759.443	0.0122025
759.521	0.0122221
759.599	0.0122601
759.677	0.0121777
759.755	0.0122652
759.833	0.0120963
759.911	0.0121952
759.989	0.0121272
760.068	0.0122308
760.146	0.0121436
760.224	0.0121358
760.302	0.0121693
760.380	0.0121879
760.458	0.0121510
760.536	0.0121651
760.614	0.0121622
760.693	0.0121912
760.771	0.0121094
760.849	0.0120988
760.927	0.0123946
761.005	0.0123890
761.083	0.0122282
761.161	0.0124095
761.239	0.0123514
761.318	0.0123834
761.396	0.0124515
761.474	0.0124456
761.552	0.0123615
761.630	0.0123684
761.708	0.0123851
761.786	0.0124583
761.864	0.0123741
761.943	0.0123869
762.021	0.0124674
762.099	0.0124199
762.177	0.0126728
762.255	0.0125775
762.333	0.0126124
762.411	0.0126563
762.489	0.0127224
762.568	0.0127168
762.646	0.0127371
762.724	0.0128483
762.802	0.0128633
762.880	0.0129673
762.958	0.0129572
763.036	0.0128870
763.114	0.0126759
763.193	0.0128187
763.271	0.0127930
763.349	0.0127918
763.427	0.0128506
763.505	0.0127383
763.583	0.0126795
763.661	0.0127149
763.739	0.0125227
763.818	0.0126226
763.896	0.0125698
763.974	0.0124235
764.052	0.0123116
764.130	0.0123725
764.208	0.0123044
764.286	0.0122499
764.364	0.0122745
764.443	0.0122050
764.521	0.0121333
764.599	0.0120538
764.677	0.0119149
764.755	0.0120081
764.833	0.0119056
764.911	0.0118498
764.989	0.0118642
765.068	0.0119592
765.146	0.0119637
765.224	0.0119118
765.302	0.0118294
765.380	0.0120360
765.458	0.0120267
765.536	0.0121406
765.614	0.0119982
765.693	0.0120810
765.771	0.0123425
765.849	0.0124000
765.927	0.0125050
766.005	0.0125832
766.083	0.0126285
766.161	0.0127426
766.239	0.0127303
766.318	0.0127394
766.396	0.0128787
766.474	0.0129047
766.552	0.0129049
766.630	0.0128195
766.708	0.0128769
766.786	0.0127450
766.864	0.0129372
766.943	0.0126945
767.021	0.0127510
767.099	0.0127914
767.177	0.0125090
767.255	0.0124656
767.333	0.0124747
767.411	0.0122529
767.489	0.0122497
767.568	0.0121482
767.646	0.0120376
767.724	0.0118887
767.802	0.0119891
767.880	0.0119381
767.958	0.0118596
768.036	0.0119169
768.114	0.0118626
768.193	0.0117762
768.271	0.0119323
768.349	0.0117661
768.427	0.0119862
768.505	0.0119456
768.583	0.0118391
768.661	0.0120152
768.739	0.0121249
768.818	0.0122260
768.896	0.0123203
768.974	0.0124372
769.052	0.0123998
769.130	0.0125711
769.208	0.0125377
769.286	0.0126367
769.364	0.0127521
769.443	0.0128761
769.521	0.0128548
769.599	0.0129079
769.677	0.0129795
769.755	0.0129450
769.833	0.0130463
769.911	0.0130170
769.989	0.0129206
770.068	0.0129570
770.146	0.0129524
770.224	0.0127553
770.302	0.0127575
770.380	0.0127588
770.458	0.0128222
770.536	0.0126121
770.614	0.0125423
770.693	0.0126108
770.771	0.0125237
770.849	0.0123685
770.927	0.0123887
771.005	0.0124477
771.083	0.0123721
771.161	0.0122591
771.239	0.0121743
771.318	0.0122420
771.396	0.0122209
771.474	0.0120158
771.552	0.0120737
771.630	0.0120845
771.708	0.0121686
771.786	0.0120532
771.864	0.0121583
771.943	0.0122234
772.021	0.0122558
772.099	0.0122688
772.177	0.0122201
772.255	0.0123749
772.333	0.0124469
772.411	0.0123981
772.489	0.0124953
772.568	0.0124976
772.646	0.0125175
772.724	0.0124372
772.802	0.0124827
772.880	0.0126261
772.958	0.0125051
773.036	0.0125351
773.114	0.0125069
773.193	0.0125661
773.271	0.0125373
773.349	0.0125550
773.427	0.0124702
773.505	0.0124146
773.583	0.0123988
773.661	0.0123093
773.739	0.0123282
773.818	0.0124746
773.896	0.0123085
773.974	0.0122630
774.052	0.0121698
774.130	0.0121339
774.208	0.0121126
774.286	0.0121095
774.364	0.0121062
774.443	0.0120827
774.521	0.0120574
774.599	0.0120291
774.677	0.0120186
774.755	0.0120754
774.833	0.0121603
774.911	0.0122066
774.989	0.0123291
775.068	0.0124358
775.146	0.0123490
775.224	0.0123509
775.302	0.0124553
775.380	0.0125414
775.458	0.0125405
775.536	0.0127500
775.614	0.0126471
775.693	0.0125938
775.771	0.0126385
775.849	0.0128116
775.927	0.0126994
776.005	0.0126641
776.083	0.0127881
776.161	0.0127966
776.239	0.0127193
776.318	0.0127546
776.396	0.0127659
776.474	0.0126630
776.552	0.0126895
776.630	0.0128075
776.708	0.0128699
776.786	0.0127740
776.864	0.0127388
776.943	0.0126624
777.021	0.0127776
777.099	0.0125746
777.177	0.0126661
777.255	0.0126869
777.333	0.0126354
777.411	0.0126173
777.489	0.0125053
777.568	0.0125021
777.646	0.0123512
777.724	0.0123401
777.802	0.0122027
777.880	0.0123757
777.958	0.0121820
778.036	0.0122047
778.114	0.0122006
778.193	0.0121820
778.271	0.0120876
778.349	0.0120754
778.427	0.0120509
778.505	0.0120619
778.583	0.0122226
778.661	0.0122006
778.739	0.0121951
778.818	0.0123003
778.896	0.0120021
778.974	0.0121389
779.052	0.0121921
779.130	0.0121565
779.208	0.0122401
779.286	0.0122646
779.364	0.0124960
779.443	0.0123170
779.521	0.0122538
779.599	0.0123833
779.677	0.0122761
779.755	0.0123158
779.833	0.0122250
779.911	0.0124470
779.989	0.0122576
780.068	0.0123614
780.146	0.0123605
780.224	0.0124400
780.302	0.0123264
780.380	0.0123452
780.458	0.0124501
780.536	0.0124222
780.614	0.0124985
780.693	0.0125807
780.771	0.0124342
780.849	0.0124887
780.927	0.0125652
781.005	0.0124723
781.083	0.0124570
781.161	0.0125303
781.239	0.0124570
781.318	0.0125243
781.396	0.0124904
781.474	0.0123523
781.552	0.0123539
781.630	0.0123357
781.708	0.0123650
781.786	0.0123224
781.864	0.0123621
781.943	0.0122863
782.021	0.0124562
782.099	0.0123573
782.177	0.0123409
782.255	0.0122871
782.333	0.0123995
782.411	0.0123309
782.489	0.0125078
782.568	0.0124905
782.646	0.0125255
782.724	0.0125907
782.802	0.0125696
782.880	0.0126848
782.958	0.0127826
783.036	0.0127785
783.114	0.0127285
783.193	0.0128107
783.271	0.0127464
783.349	0.0127342
783.427	0.0127155
783.505	0.0126154
783.583	0.0125915
783.661	0.0126974
783.739	0.0126013
783.818	0.0124964
783.896	0.0124888
783.974	0.0125825
784.052	0.0125570
784.130	0.0122786
784.208	0.0123397
784.286	0.0123479
784.364	0.0122853
784.443	0.0123966
784.521	0.0121906
784.599	0.0121812
784.677	0.0122240
784.755	0.0122488
784.833	0.0120813
784.911	0.0122025
784.989	0.0121914
785.068	0.0121407
785.146	0.0119938
785.224	0.0121780
785.302	0.0121947
785.380	0.0120792
785.458	0.0120332
785.536	0.0120997
785.614	0.0121916
785.693	0.0121368
785.771	0.0121401
785.849	0.0121639
785.927	0.0122428
786.005	0.0121769
786.083	0.0124158
786.161	0.0122893
786.239	0.0124420
786.318	0.0123859
786.396	0.0125591
786.474	0.0126202
786.552	0.0125078
786.630	0.0125321
786.708	0.0127059
786.786	0.0125080
786.864	0.0125399
786.943	0.0125893
787.021	0.0125436
787.099	0.0124065
787.177	0.0123438
787.255	0.0123203
787.333	0.0121028
787.411	0.0120100
787.489	0.0121059
787.568	0.0119960
787.646	0.0118034
787.724	0.0119930
787.802	0.0119125
787.880	0.0117931
787.958	0.0117725
788.036	0.0117568
788.114	0.0118082
788.193	0.0119183
788.271	0.0118358
788.349	0.0119345
788.427	0.0118949
788.505	0.0120042
788.583	0.0122396
788.661	0.0124211
788.739	0.0125575
788.818	0.0124055
788.896	0.0127255
788.974	0.0128096
789.052	0.0128083
789.130	0.0128593
789.208	0.0128635
789.286	0.0130484
789.364	0.0131314
789.443	0.0130642
789.521	0.0132893
789.599	0.0130692
789.677	0.0130455
789.755	0.0130731
789.833	0.0129330
789.911	0.0129275
789.989	0.0128356
790.068	0.0128204
790.146	0.0127119
790.224	0.0126791
790.302	0.0125255
790.380	0.0123650
790.458	0.0122629
790.536	0.0121951
790.614	0.0121632
790.693	0.0120885
790.771	0.0119675
790.849	0.0118624
790.927	0.0118220
791.005	0.0118971
791.083	0.0117928
791.161	0.0117818
791.239	0.0117639
791.318	0.0118140
791.396	0.0119582
791.474	0.0118359
791.552	0.0119312
791.630	0.0121052
791.708	0.0122041
791.786	0.0122563
791.864	0.0124100
791.943	0.0123422
792.021	0.0123923
792.099	0.0124210
792.177	0.0125123
792.255	0.0124171
792.333	0.0124792
792.411	0.0126633
792.489	0.0125829
792.568	0.0124812
792.646	0.0126369
792.724	0.0126156
792.802	0.0125643
792.880	0.0124644
792.958	0.0125464
793.036	0.0125103
793.114	0.0124304
793.193	0.0124380
793.271	0.0123848
793.349	0.0123353
793.427	0.0124256
793.505	0.0121677
793.583	0.0122367
793.661	0.0122519
793.739	0.0122723
793.818	0.0121466
793.896	0.0122387
793.974	0.0122955
794.052	0.0122076
794.130	0.0123434
794.208	0.0123563
794.286	0.0122015
794.364	0.0123760
794.443	0.0123705
794.521	0.0124177
794.599	0.0124296
794.677	0.0122842
794.755	0.0124284
794.833	0.0125711
794.911	0.0125058
794.989	0.0124673
795.068	0.0125170
795.146	0.0125880
795.224	0.0125031
795.302	0.0123764
795.380	0.0124227
795.458	0.0122335
795.536	0.0123930
795.614	0.0124950
795.693	0.0123532
795.771	0.0121693
795.849	0.0122511
795.927	0.0120899
796.005	0.0122346
796.083	0.0122121
796.161	0.0122127
796.239	0.0121614
796.318	0.0122845
796.396	0.0121889
796.474	0.0121110
796.552	0.0122673
796.630	0.0121901
796.708	0.0122987
796.786	0.0122558
796.864	0.0122872
796.943	0.0125011
797.021	0.0123203
797.099	0.0123370
797.177	0.0124414
797.255	0.0123819
797.333	0.0125337
797.411	0.0125146
797.489	0.0124911
797.568	0.0124780
797.646	0.0125914
797.724	0.0126939
797.802	0.0126822
797.880	0.0125967
797.958	0.0126653
798.036	0.0126382
798.114	0.0126862
798.193	0.0126357
798.271	0.0125542
798.349	0.0125851
798.427	0.0124944
798.505	0.0123632
798.583	0.0124390
798.661	0.0123581
798.739	0.0122860
798.818	0.0122057
798.896	0.0121689
798.974	0.0122428
799.052	0.0120606
799.130	0.0121140
799.208	0.0120093
799.286	0.0119619
799.364	0.0120239
799.443	0.0119466
799.521	0.0119366
799.599	0.0118678
799.677	0.0119800
799.755	0.0121119
799.833	0.0119546
799.911	0.0119493
799.989	0.0122292
800.068	0.0119962
800.146	0.0121065
800.224	0.0121408
800.302	0.0121092
800.380	0.0122424
800.458	0.0121909
800.536	0.0123132
800.614	0.0123457
800.693	0.0122854
800.771	0.0123015
800.849	0.0121996
800.927	0.0123734
801.005	0.0123082
801.083	0.0123301
801.161	0.0123327
801.239	0.0124521
801.318	0.0123959
801.396	0.0125352
801.474	0.0123613
801.552	0.0123856
801.630	0.0126086
801.708	0.0125086
801.786	0.0124389
801.864	0.0125324
801.943	0.0126067
802.021	0.0125577
802.099	0.0125045
802.177	0.0124855
802.255	0.0125085
802.333	0.0124786
802.411	0.0125755
802.489	0.0126263
802.568	0.0125456
802.646	0.0126260
802.724	0.0125805
802.802	0.0125562
802.880	0.0125003
802.958	0.0125246
803.036	0.0124663
803.114	0.0125708
803.193	0.0124177
803.271	0.0124088
803.349	0.0123899
803.427	0.0124698
803.505	0.0123149
803.583	0.0122858
803.661	0.0123131
803.739	0.0123571
803.818	0.0123466
803.896	0.0122849
803.974	0.0122687
804.052	0.0121638
804.130	0.0122211
804.208	0.0122197
804.286	0.0122246
804.364	0.0121200
804.443	0.0121295
804.521	0.0122723
804.599	0.0122008
804.677	0.0121254
804.755	0.0120367
804.833	0.0120975
804.911	0.0120495
804.989	0.0120751
805.068	0.0119231
805.146	0.0119441
805.224	0.0122427
805.302	0.0121829
805.380	0.0120543
805.458	0.0122239
805.536	0.0123346
805.614	0.0123701
805.693	0.0123370
805.771	0.0122227
805.849	0.0122101
805.927	0.0123090
806.005	0.0122246
806.083	0.0120956
806.161	0.0123141
806.239	0.0122640
806.318	0.0122439
806.396	0.0122577
806.474	0.0122639
806.552	0.0123419
806.630	0.0122899
806.708	0.0124123
806.786	0.0122747
806.864	0.0122289
806.943	0.0124026
807.021	0.0121929
807.099	0.0123615
807.177	0.0123454
807.255	0.0124598
807.333	0.0124646
807.411	0.0123837
807.489	0.0125911
807.568	0.0124548
807.646	0.0125764
807.724	0.0125340
807.802	0.0125906
807.880	0.0126364
807.958	0.0126594
808.036	0.0126228
808.114	0.0126411
808.193	0.0128262
808.271	0.0125430
808.349	0.0125320
808.427	0.0126157
808.505	0.0125027
808.583	0.0125436
808.661	0.0123787
808.739	0.0125796
808.818	0.0125400
808.896	0.0124389
808.974	0.0124564
809.052	0.0123009
809.130	0.0123661
809.208	0.0123569
809.286	0.0123510
809.364	0.0125574
809.443	0.0124942
809.521	0.0123791
809.599	0.0123193
809.677	0.0125589
809.755	0.0125449
809.833	0.0124648
809.911	0.0124236
809.989	0.0124663
810.068	0.0125779
810.146	0.0125370
810.224	0.0126437
810.302	0.0126550
810.380	0.0124640
810.458	0.0125483
810.536	0.0125257
810.614	0.0125702
810.693	0.0125500
810.771	0.0124558
810.849	0.0123721
810.927	0.0123937
811.005	0.0123534
811.083	0.0122820
811.161	0.0122375
811.239	0.0123080
811.318	0.0121709
811.396	0.0122419
811.474	0.0122385
811.552	0.0121740
811.630	0.0120286
811.708	0.0120789
811.786	0.0119804
811.864	0.0119561
811.943	0.0120503
812.021	0.0120860
812.099	0.0120571
812.177	0.0120313
812.255	0.0121667
812.333	0.0121310
812.411	0.0120171
812.489	0.0120906
812.568	0.0121906
812.646	0.0121263
812.724	0.0123692
812.802	0.0124914
812.880	0.0123927
812.958	0.0124503
813.036	0.0125163
813.114	0.0125319
813.193	0.0126017
813.271	0.0126178
813.349	0.0126617
813.427	0.0127245
813.505	0.0127581
813.583	0.0128485
813.661	0.0127331
813.739	0.0127261
813.818	0.0128056
813.896	0.0126990
813.974	0.0126418
814.052	0.0126766
814.130	0.0127615
814.208	0.0126844
814.286	0.0125681
814.364	0.0125342
814.443	0.0125622
814.521	0.0123460
814.599	0.0124810
814.677	0.0124563
814.755	0.0123753
814.833	0.0124899
814.911	0.0124857
814.989	0.0123660
815.068	0.0123878
815.146	0.0124224
815.224	0.0122203
815.302	0.0121593
815.380	0.0123347
815.458	0.0122469
815.536	0.0122743
815.614	0.0120943
815.693	0.0119780
815.771	0.0120391
815.849	0.0123543
815.927	0.0122321
816.005	0.0122150
816.083	0.0123852
816.161	0.0123711
816.239	0.0124198
816.318	0.0124182
816.396	0.0123943
816.474	0.0124024
816.552	0.0124021
816.630	0.0124842
816.708	0.0123411
816.786	0.0123994
816.864	0.0123767
816.943	0.0123532
817.021	0.0123038
817.099	0.0122538
817.177	0.0122246
817.255	0.0123336
817.333	0.0122439
817.411	0.0122397
817.489	0.0122086
817.568	0.0122620
817.646	0.0120544
817.724	0.0119672
817.802	0.0120423
817.880	0.0120998
817.958	0.0121204
818.036	0.0122146
818.114	0.0120970
818.193	0.0120760
818.271	0.0122821
818.349	0.0123106
818.427	0.0122833
818.505	0.0122193
818.583	0.0124674
818.661	0.0123708
818.739	0.0124137
818.818	0.0125715
818.896	0.0126694
818.974	0.0126132
819.052	0.0125504
819.130	0.0126620
819.208	0.0125570
819.286	0.0125754
819.364	0.0124449
819.443	0.0125452
819.521	0.0126216
819.599	0.0125789
819.677	0.0126197
819.755	0.0126186
819.833	0.0126172
819.911	0.0124799
819.989	0.0124683
820.068	0.0124986
820.146	0.0123656
820.224	0.0123545
820.302	0.0122902
820.380	0.0122404
820.458	0.0120966
820.536	0.0121082
820.614	0.0121465
820.693	0.0122121
820.771	0.0120351
820.849	0.0120419
820.927	0.0121194
821.005	0.0120844
821.083	0.0121036
821.161	0.0122221
821.239	0.0122694
821.318	0.0122791
821.396	0.0124368
821.474	0.0122724
821.552	0.0123573
821.630	0.0124844
821.708	0.0125224
821.786	0.0125038
821.864	0.0124164
821.943	0.0125452
822.021	0.0125211
822.099	0.0124705
822.177	0.0126791
822.255	0.0124154
822.333	0.0125529
822.411	0.0126508
822.489	0.0124583
822.568	0.0123920
822.646	0.0125164
822.724	0.0123388
822.802	0.0124567
822.880	0.0125202
822.958	0.0125300
823.036	0.0123945
823.114	0.0124694
823.193	0.0123444
823.271	0.0122968
823.349	0.0123784
823.427	0.0124176
823.505	0.0124844
823.583	0.0124250
823.661	0.0124649
823.739	0.0124545
823.818	0.0124777
823.896	0.0123654
823.974	0.0124944
824.052	0.0124752
824.130	0.0125254
824.208	0.0124878
824.286	0.0123840
824.364	0.0125154
824.443	0.0125242
824.521	0.0126532
824.599	0.0124688
824.677	0.0124136
824.755	0.0125160
824.833	0.0124674
824.911	0.0124564
824.989	0.0125829
825.068	0.0125134
825.146	0.0124476
825.224	0.0123154
825.302	0.0124892
825.380	0.0123151
825.458	0.0122654
825.536	0.0122678
825.614	0.0123008
825.693	0.0121744
825.771	0.0123048
825.849	0.0122209
825.927	0.0122942
826.005	0.0121467
826.083	0.0121453
826.161	0.0122578
826.239	0.0120892
826.318	0.0120455
826.396	0.0121478
826.474	0.0121272
826.552	0.0120868
826.630	0.0120747
826.708	0.0120476
826.786	0.0120567
826.864	0.0120443
826.943	0.0121468
827.021	0.0120950
827.099	0.0121794
827.177	0.0122659
827.255	0.0123260
827.333	0.0123563
827.411	0.0123827
827.489	0.0123284
827.568	0.0124271
827.646	0.0122749
827.724	0.0125468
827.802	0.0124599
827.880	0.0125846
827.958	0.0126107
828.036	0.0126909
828.114	0.0126585
828.193	0.0127584
828.271	0.0125829
828.349	0.0126031
828.427	0.0127132
828.505	0.0125900
828.583	0.0126498
828.661	0.0125559
828.739	0.0125278
828.818	0.0124631
828.896	0.0126438
828.974	0.0125035
829.052	0.0125135
829.130	0.0123737
829.208	0.0124316
829.286	0.0126345
829.364	0.0125696
829.443	0.0123393
829.521	0.0123875
829.599	0.0124608
829.677	0.0124043
829.755	0.0124323
829.833	0.0123757
829.911	0.0123155
829.989	0.0124571
830.068	0.0122537
830.146	0.0124536
830.224	0.0123144
830.302	0.0124190
830.380	0.0122744
830.458	0.0123532
830.536	0.0123315
830.614	0.0123032
830.693	0.0123196
830.771	0.0123316
830.849	0.0123975
830.927	0.0121994
831.005	0.0122328
831.083	0.0122753
831.161	0.0123968
831.239	0.0124583
831.318	0.0123925
831.396	0.0124306
831.474	0.0124503
831.552	0.0124426
831.630	0.0124982
831.708	0.0124911
831.786	0.0123646
831.864	0.0123460
831.943	0.0124132
832.021	0.0124019
832.099	0.0124334
832.177	0.0124107
832.255	0.0124258
832.333	0.0124187
832.411	0.0122416
832.489	0.0124400
832.568	0.0124232
832.646	0.0125172
832.724	0.0123335
832.802	0.0122997
832.880	0.0123938
832.958	0.0124109
833.036	0.0125043
833.114	0.0123859
833.193	0.0124754
833.271	0.0125392
833.349	0.0125117
833.427	0.0124111
833.505	0.0125745
833.583	0.0125626
833.661	0.0125584
833.739	0.0124967
833.818	0.0124076
833.896	0.0124103
833.974	0.0125745
834.052	0.0125360
834.130	0.0124129
834.208	0.0125185
834.286	0.0125953
834.364	0.0126611
834.443	0.0124113
834.521	0.0124172
834.599	0.0125198
834.677	0.0124928
834.755	0.0125784
834.833	0.0126385
834.911	0.0124862
834.989	0.0124158
835.068	0.0125406
835.146	0.0127050
835.224	0.0125677
835.302	0.0125493
835.380	0.0123876
835.458	0.0125719
835.536	0.0124103
835.614	0.0124194
835.693	0.0124188
835.771	0.0124120
835.849	0.0124221
835.927	0.0122937
836.005	0.0123519
836.083	0.0122560
836.161	0.0120965
836.239	0.0121426
836.318	0.0121867
836.396	0.0120991
836.474	0.0122239
836.552	0.0122114
836.630	0.0122082
836.708	0.0120889
836.786	0.0121349
836.864	0.0121294
836.943	0.0122050
837.021	0.0121993
837.099	0.0123647
837.177	0.0121143
837.255	0.0121621
837.333	0.0122990
837.411	0.0123370
837.489	0.0122984
837.568	0.0122407
837.646	0.0124297
837.724	0.0124788
837.802	0.0125577
837.880	0.0124377
837.958	0.0124906
838.036	0.0124191
838.114	0.0124821
838.193	0.0124446
838.271	0.0124725
838.349	0.0126067
838.427	0.0126139
838.505	0.0123940
838.583	0.0126033
838.661	0.0125838
838.739	0.0124989
838.818	0.0124635
838.896	0.0126337
838.974	0.0124859
839.052	0.0124042
839.130	0.0123862
839.208	0.0123772
839.286	0.0124533
839.364	0.0123148
839.443	0.0123933
839.521	0.0124506
839.599	0.0123998
839.677	0.0124227
839.755	0.0124277
839.833	0.0123186
839.911	0.0123043
839.989	0.0121793
840.068	0.0123616
840.146	0.0123226
840.224	0.0123170
840.302	0.0122563
840.380	0.0123703
840.458	0.0124255
840.536	0.0123485
840.614	0.0124195
840.693	0.0123477
840.771	0.0124330
840.849	0.0124136
840.927	0.0123789
841.005	0.0125694
841.083	0.0124210
841.161	0.0123856
841.239	0.0124544
841.318	0.0124157
841.396	0.0122456
841.474	0.0123406
841.552	0.0125513
841.630	0.0124803
841.708	0.0122700
841.786	0.0122809
841.864	0.0122758
841.943	0.0124552
842.021	0.0123056
842.099	0.0123392
842.177	0.0124210
842.255	0.0123960
842.333	0.0123759
842.411	0.0124714
842.489	0.0124065
842.568	0.0124470
842.646	0.0123780
842.724	0.0123203
842.802	0.0124968
842.880	0.0125232
842.958	0.0125417
843.036	0.0125333
843.114	0.0126656
843.193	0.0126184
843.271	0.0126991
843.349	0.0126211
843.427	0.0126587
843.505	0.0127132
843.583	0.0127466
843.661	0.0125754
843.739	0.0126294
843.818	0.0125095
843.896	0.0126086
843.974	0.0125349
844.052	0.0125683
844.130	0.0126477
844.208	0.0126986
844.286	0.0125063
844.364	0.0124821
844.443	0.0123923
844.521	0.0124633
844.599	0.0124227
844.677	0.0123025
844.755	0.0123818
844.833	0.0122227
844.911	0.0122208
844.989	0.0122620
845.068	0.0122710
845.146	0.0123122
845.224	0.0122238
845.302	0.0122550
845.380	0.0122302
845.458	0.0122285
845.536	0.0122904
845.614	0.0123277
845.693	0.0122697
845.771	0.0123146
845.849	0.0124361
845.927	0.0122668
846.005	0.0122280
846.083	0.0122818
846.161	0.0122459
846.239	0.0125095
846.318	0.0123833
846.396	0.0124747
846.474	0.0123970
846.552	0.0123653
846.630	0.0124710
846.708	0.0123800
846.786	0.0125349
846.864	0.0124371
846.943	0.0124225
847.021	0.0125292
847.099	0.0122344
847.177	0.0123627
847.255	0.0123619
847.333	0.0124332
847.411	0.0126186
847.489	0.0124805
847.568	0.0123731
847.646	0.0123527
847.724	0.0122839
847.802	0.0124770
847.880	0.0123618
847.958	0.0124439
848.036	0.0124103
848.114	0.0124134
848.193	0.0123577
848.271	0.0126356
848.349	0.0124873
848.427	0.0125012
848.505	0.0124664
848.583	0.0125475
848.661	0.0126354
848.739	0.0126109
848.818	0.0125381
848.896	0.0126044
848.974	0.0124992
849.052	0.0125830
849.130	0.0124855
849.208	0.0123411
849.286	0.0125339
849.364	0.0125916
849.443	0.0125484
849.521	0.0126341
849.599	0.0126045
849.677	0.0126160
849.755	0.0125074
849.833	0.0125618
849.911	0.0124728
849.989	0.0124998
850.068	0.0126030
850.146	0.0126197
850.224	0.0124936
850.302	0.0124213
850.380	0.0123732
850.458	0.0123965
850.536	0.0123321
850.614	0.0124148
850.693	0.0123274
850.771	0.0122133
850.849	0.0121931
850.927	0.0122125
851.005	0.0122012
851.083	0.0120891
851.161	0.0120624
851.239	0.0120594
851.318	0.0121864
851.396	0.0121698
851.474	0.0120401
851.552	0.0120580
851.630	0.0120939
851.708	0.0120817
851.786	0.0120343
851.864	0.0121616
851.943	0.0122159
852.021	0.0121516
852.099	0.0120520
852.177	0.0120959
852.255	0.0123158
852.333	0.0121853
852.411	0.0124563
852.489	0.0124557
852.568	0.0124029
852.646	0.0124265
852.724	0.0125539
852.802	0.0126497
852.880	0.0126563
852.958	0.0126273
853.036	0.0126703
853.114	0.0125560
853.193	0.0126192
853.271	0.0126994
853.349	0.0126485
853.427	0.0124661
853.505	0.0126061
853.583	0.0125751
853.661	0.0125438
853.739	0.0125671
853.818	0.0125192
853.896	0.0126129
853.974	0.0125455
854.052	0.0124622
854.130	0.0124532
854.208	0.0124762
854.286	0.0124734
854.364	0.0125621
854.443	0.0123640
854.521	0.0124506
854.599	0.0124417
854.677	0.0124991
854.755	0.0125366
854.833	0.0124100
854.911	0.0125953
854.989	0.0126371
855.068	0.0125600
855.146	0.0125349
855.224	0.0126381
855.302	0.0126381
855.380	0.0124605
855.458	0.0123672
855.536	0.0124975
855.614	0.0124918
855.693	0.0125062
855.771	0.0123299
855.849	0.0123750
855.927	0.0124123
856.005	0.0122643
856.083	0.0123871
856.161	0.0124500
856.239	0.0123508
856.318	0.0122728
856.396	0.0122427
856.474	0.0123746
856.552	0.0122623
856.630	0.0121597
856.708	0.0122118
856.786	0.0123061
856.864	0.0123199
856.943	0.0123164
857.021	0.0123174
857.099	0.0123708
857.177	0.0123676
857.255	0.0124532
857.333	0.0121748
857.411	0.0123478
857.489	0.0123895
857.568	0.0122559
857.646	0.0123795
857.724	0.0124255
857.802	0.0121985
857.880	0.0120831
857.958	0.0121569
858.036	0.0122137
858.114	0.0121618
858.193	0.0120444
858.271	0.0121504
858.349	0.0121273
858.427	0.0121418
858.505	0.0121474
858.583	0.0121510
858.661	0.0122558
858.739	0.0121648
858.818	0.0122295
858.896	0.0123096
858.974	0.0122671
859.052	0.0122604
859.130	0.0124407
859.208	0.0124195
859.286	0.0123622
859.364	0.0123503
859.443	0.0125696
859.521	0.0126498
859.599	0.0125728
859.677	0.0126232
859.755	0.0125958
859.833	0.0126871
859.911	0.0126093
859.989	0.0126577
860.068	0.0126566
860.146	0.0126536
860.224	0.0127682
860.302	0.0126525
860.380	0.0126469
860.458	0.0125097
860.536	0.0125838
860.614	0.0125476
860.693	0.0123678
860.771	0.0123444
860.849	0.0123526
860.927	0.0123784
861.005	0.0122543
861.083	0.0122690
861.161	0.0121235
861.239	0.0121188
861.318	0.0120492
861.396	0.0122429
861.474	0.0122100
861.552	0.0120007
861.630	0.0121959
861.708	0.0123112
861.786	0.0123115
861.864	0.0123862
861.943	0.0123635
862.021	0.0122952
862.099	0.0123730
862.177	0.0122884
862.255	0.0123424
862.333	0.0124866
862.411	0.0125842
862.489	0.0124535
862.568	0.0123800
862.646	0.0123550
862.724	0.0125630
862.802	0.0124739
862.880	0.0124265
862.958	0.0123471
863.036	0.0122713
863.114	0.0123237
863.193	0.0122891
863.271	0.0122410
863.349	0.0121322
863.427	0.0121584
863.505	0.0120554
863.583	0.0121941
863.661	0.0121272
863.739	0.0122228
863.818	0.0122739
863.896	0.0122638
863.974	0.0122927
864.052	0.0120895
864.130	0.0121310
864.208	0.0123140
864.286	0.0122771
864.364	0.0124726
864.443	0.0125157
864.521	0.0125777
864.599	0.0124545
864.677	0.0123987
864.755	0.0124284
864.833	0.0124741
864.911	0.0123682
864.989	0.0125996
865.068	0.0125926
865.146	0.0124954
865.224	0.0125940
865.302	0.0124793
865.380	0.0124890
865.458	0.0124357
865.536	0.0124278
865.614	0.0123144
865.693	0.0123638
865.771	0.0124232
865.849	0.0123098
865.927	0.0122779
866.005	0.0124193
866.083	0.0123195
866.161	0.0123071
866.239	0.0122412
866.318	0.0122629
866.396	0.0124662
866.474	0.0124464
866.552	0.0123520
866.630	0.0122961
866.708	0.0124415
866.786	0.0123992
866.864	0.0124866
866.943	0.0123807
867.021	0.0124716
867.099	0.0124726
867.177	0.0124111
867.255	0.0126142
867.333	0.0124985
867.411	0.0123403
867.489	0.0123254
867.568	0.0124123
867.646	0.0124137
867.724	0.0123830
867.802	0.0125110
867.880	0.0124290
867.958	0.0123075
868.036	0.0123560
868.114	0.0124190
868.193	0.0122639
868.271	0.0122704
868.349	0.0122578
868.427	0.0123160
868.505	0.0122501
868.583	0.0121984
868.661	0.0122722
868.739	0.0121795
868.818	0.0122475
868.896	0.0122219
868.974	0.0122649
869.052	0.0123718
869.130	0.0122768
869.208	0.0123865
869.286	0.0122867
869.364	0.0123145
869.443	0.0122818
869.521	0.0123519
869.599	0.0123627
869.677	0.0122953
869.755	0.0123991
869.833	0.0124319
869.911	0.0123632
869.989	0.0123336
870.068	0.0124717
870.146	0.0124347
870.224	0.0123260
870.302	0.0122725
870.380	0.0122524
870.458	0.0122932
870.536	0.0122512
870.614	0.0123074
870.693	0.0122438
870.771	0.0123345
870.849	0.0121819
870.927	0.0122601
871.005	0.0121395
871.083	0.0121625
871.161	0.0122377
871.239	0.0123103
871.318	0.0123259
871.396	0.0122575
871.474	0.0122001
871.552	0.0122688
871.630	0.0123161
871.708	0.0124739
871.786	0.0122270
871.864	0.0123532
871.943	0.0124744
872.021	0.0125192
872.099	0.0124315
872.177	0.0124827
872.255	0.0124438
872.333	0.0124928
872.411	0.0125333
872.489	0.0125931
872.568	0.0126611
872.646	0.0126315
872.724	0.0126321
872.802	0.0125263
872.880	0.0124290
872.958	0.0127299
873.036	0.0126266
873.114	0.0124741
873.193	0.0124849
873.271	0.0125446
873.349	0.0124637
873.427	0.0124048
873.505	0.0123605
873.583	0.0125760
873.661	0.0124478
873.739	0.0124931
873.818	0.0124076
873.896	0.0123196
873.974	0.0124075
874.052	0.0124535
874.130	0.0124085
874.208	0.0123876
874.286	0.0125059
874.364	0.0125158
874.443	0.0124325
874.521	0.0124342
874.599	0.0124160
874.677	0.0123937
874.755	0.0124130
874.833	0.0123817
874.911	0.0124020
874.989	0.0123661
875.068	0.0124059
875.146	0.0122486
875.224	0.0123957
875.302	0.0123336
875.380	0.0123943
875.458	0.0124021
875.536	0.0121999
875.614	0.0124397
875.693	0.0123875
875.771	0.0122617
875.849	0.0123907
875.927	0.0125480
876.005	0.0123234
876.083	0.0123055
876.161	0.0124366
876.239	0.0122925
876.318	0.0121170
876.396	0.0121825
876.474	0.0122476
876.552	0.0122139
876.630	0.0122549
876.708	0.0121758
876.786	0.0121935
876.864	0.0121353
876.943	0.0120682
877.021	0.0121307
877.099	0.0121378
877.177	0.0120292
877.255	0.0121082
877.333	0.0121803
877.411	0.0119604
877.489	0.0119913
877.568	0.0122569
877.646	0.0119716
877.724	0.0122211
877.802	0.0124227
877.880	0.0125051
877.958	0.0125647
878.036	0.0125575
878.114	0.0126891
878.193	0.0125819
878.271	0.0128293
878.349	0.0128786
878.427	0.0128478
878.505	0.0128642
878.583	0.0129223
878.661	0.0129005
878.739	0.0128138
878.818	0.0125535
878.896	0.0125578
878.974	0.0125697
879.052	0.0126317
879.130	0.0125717
879.208	0.0124100
879.286	0.0122179
879.364	0.0121009
879.443	0.0121905
879.521	0.0121705
879.599	0.0121088
879.677	0.0120056
879.755	0.0120014
879.833	0.0119395
879.911	0.0120361
879.989	0.0119644
880.068	0.0121096
880.146	0.0119977
880.224	0.0121903
880.302	0.0122973
880.380	0.0122398
880.458	0.0122356
880.536	0.0123006
880.614	0.0125009
880.693	0.0125046
880.771	0.0126421
880.849	0.0126485
880.927	0.0128101
881.005	0.0127374
881.083	0.0128444
881.161	0.0128669
881.239	0.0128040
881.318	0.0127987
881.396	0.0127150
881.474	0.0126166
881.552	0.0125577
881.630	0.0126382
881.708	0.0124292
881.786	0.0122500
881.864	0.0122398
881.943	0.0122048
882.021	0.0121269
882.099	0.0120216
882.177	0.0120216
882.255	0.0117793
882.333	0.0117632
882.411	0.0118392
882.489	0.0118613
882.568	0.0116921
882.646	0.0119656
882.724	0.0118095
882.802	0.0117435
882.880	0.0119717
882.958	0.0119627
883.036	0.0119849
883.114	0.0119978
883.193	0.0120775
883.271	0.0122019
883.349	0.0121262
883.427	0.0124059
883.505	0.0125167
883.583	0.0126526
883.661	0.0126243
883.739	0.0126006
883.818	0.0127617
883.896	0.0126573
883.974	0.0127261
884.052	0.0127489
884.130	0.0127161
884.208	0.0126742
884.286	0.0127381
884.364	0.0127713
884.443	0.0127454
884.521	0.0126376
884.599	0.0125212
884.677	0.0125729
884.755	0.0125373
884.833	0.0125697
884.911	0.0125624
884.989	0.0123516
885.068	0.0124506
885.146	0.0122762
885.224	0.0123638
885.302	0.0124242
885.380	0.0122174
885.458	0.0121218
885.536	0.0120848
885.614	0.0122389
885.693	0.0124054
885.771	0.0122726
885.849	0.0122827
885.927	0.0122543
886.005	0.0121547
886.083	0.0123348
886.161	0.0125610
886.239	0.0124924
886.318	0.0123015
886.396	0.0123398
886.474	0.0123263
886.552	0.0126434
886.630	0.0125742
886.708	0.0124610
886.786	0.0126070
886.864	0.0125889
886.943	0.0126467
887.021	0.0125057
887.099	0.0125832
887.177	0.0124149
887.255	0.0124724
887.333	0.0124476
887.411	0.0124728
887.489	0.0123090
887.568	0.0122552
887.646	0.0122443
887.724	0.0121902
887.802	0.0122544
887.880	0.0120499
887.958	0.0121265
888.036	0.0121073
888.114	0.0120164
888.193	0.0120644
888.271	0.0121414
888.349	0.0120769
888.427	0.0121220
888.505	0.0122470
888.583	0.0122017
888.661	0.0123005
888.739	0.0124440
888.818	0.0125088
888.896	0.0125420
888.974	0.0126494
889.052	0.0126334
889.130	0.0126656
889.208	0.0126959
889.286	0.0126563
889.364	0.0127160
889.443	0.0126818
889.521	0.0126681
889.599	0.0126526
889.677	0.0124048
889.755	0.0124773
889.833	0.0123352
889.911	0.0123998
889.989	0.0122385
890.068	0.0122195
890.146	0.0121290
890.224	0.0120995
890.302	0.0119880
890.380	0.0119418
890.458	0.0119179
890.536	0.0118954
890.614	0.0119947
890.693	0.0119851
890.771	0.0119935
890.849	0.0120410
890.927	0.0120525
891.005	0.0121478
891.083	0.0122363
891.161	0.0123319
891.239	0.0124091
891.318	0.0123812
891.396	0.0124854
891.474	0.0125814
891.552	0.0124456
891.630	0.0127513
891.708	0.0127220
891.786	0.0127734
891.864	0.0128012
891.943	0.0127724
892.021	0.0127996
892.099	0.0129572
892.177	0.0128754
892.255	0.0127189
892.333	0.0128524
892.411	0.0127110
892.489	0.0126501
892.568	0.0125340
892.646	0.0125478
892.724	0.0123775
892.802	0.0124231
892.880	0.0121787
892.958	0.0122337
893.036	0.0122275
893.114	0.0121349
893.193	0.0119566
893.271	0.0119476
893.349	0.0120567
893.427	0.0119360
893.505	0.0120036
893.583	0.0119238
893.661	0.0120325
893.739	0.0121753
893.818	0.0121159
893.896	0.0121943
893.974	0.0124598
894.052	0.0123703
894.130	0.0125641
894.208	0.0126038
894.286	0.0126978
894.364	0.0127412
894.443	0.0127180
894.521	0.0128584
894.599	0.0128700
894.677	0.0128709
894.755	0.0128188
894.833	0.0128134
894.911	0.0127508
894.989	0.0126064
895.068	0.0125327
895.146	0.0125964
895.224	0.0126452
895.302	0.0125833
895.380	0.0122221
895.458	0.0122275
895.536	0.0123317
895.614	0.0120974
895.693	0.0120518
895.771	0.0119318
895.849	0.0120165
895.927	0.0119801
896.005	0.0119649
896.083	0.0119064
896.161	0.0120767
896.239	0.0120052
896.318	0.0119415
896.396	0.0121925
896.474	0.0121893
896.552	0.0122642
896.630	0.0123506
896.708	0.0125225
896.786	0.0124645
896.864	0.0125914
896.943	0.0126310
897.021	0.0127456
897.099	0.0128201
897.177	0.0125797
897.255	0.0126723
897.333	0.0128712
897.411	0.0127541
897.489	0.0127082
897.568	0.0127328
897.646	0.0127814
897.724	0.0126572
897.802	0.0125908
897.880	0.0126290
897.958	0.0125118
898.036	0.0124693
898.114	0.0125588
898.193	0.0125031
898.271	0.0124029
898.349	0.0123405
898.427	0.0123759
898.505	0.0123107
898.583	0.0123182
898.661	0.0122843
898.739	0.0124159
898.818	0.0122099
898.896	0.0122877
898.974	0.0123512
899.052	0.0122929
899.130	0.0122876
899.208	0.0123944
899.286	0.0125714
899.364	0.0123512
899.443	0.0124099
899.521	0.0124743
899.599	0.0124428
899.677	0.0123769
899.755	0.0123783
899.833	0.0123666
899.911	0.0123888
899.989	0.0124373
900.068	0.0124911
900.146	0.0126226
900.224	0.0124258
900.302	0.0123982
900.380	0.0122486
900.458	0.0122240
900.536	0.0124383
900.614	0.0125144
900.693	0.0123254
900.771	0.0122001
900.849	0.0123685
900.927	0.0123273
901.005	0.0123659
901.083	0.0123721
901.161	0.0124036
901.239	0.0122623
901.318	0.0122871
901.396	0.0122819
901.474	0.0123051
901.552	0.0122769
901.630	0.0121526
901.708	0.0122749
901.786	0.0122209
901.864	0.0124210
901.943	0.0122806
902.021	0.0122448
902.099	0.0122739
902.177	0.0121903
902.255	0.0123732
902.333	0.0124023
902.411	0.0122462
902.489	0.0123550
902.568	0.0123041
902.646	0.0122808
902.724	0.0121278
902.802	0.0122946
902.880	0.0122923
902.958	0.0123765
903.036	0.0122913
903.114	0.0122733
903.193	0.0123336
903.271	0.0123997
903.349	0.0122937
903.427	0.0122205
903.505	0.0124320
903.583	0.0122495
903.661	0.0121912
903.739	0.0122784
903.818	0.0122741
903.896	0.0123840
903.974	0.0122038
904.052	0.0123058
904.130	0.0123381
904.208	0.0124676
904.286	0.0125389
904.364	0.0125258
904.443	0.0124230
904.521	0.0123190
904.599	0.0124290
904.677	0.0124432
904.755	0.0124470
904.833	0.0125487
904.911	0.0125598
904.989	0.0125464
905.068	0.0124744
905.146	0.0124585
905.224	0.0124435
905.302	0.0125996
905.380	0.0125623
905.458	0.0123595
905.536	0.0123830
905.614	0.0124548
905.693	0.0122926
905.771	0.0122757
905.849	0.0123018
905.927	0.0121394
906.005	0.0122082
906.083	0.0123254
906.161	0.0122623
906.239	0.0120844
906.318	0.0121005
906.396	0.0121175
906.474	0.0120199
906.552	0.0121679
906.630	0.0121482
906.708	0.0121720
906.786	0.0121973
906.864	0.0120924
906.943	0.0123073
907.021	0.0123372
907.099	0.0123360
907.177	0.0123714
907.255	0.0124100
907.333	0.0125443
907.411	0.0125989
907.489	0.0126915
907.568	0.0125819
907.646	0.0127011
907.724	0.0126719
907.802	0.0126690
907.880	0.0126270
907.958	0.0128449
908.036	0.0127646
908.114	0.0127016
908.193	0.0126860
908.271	0.0126801
908.349	0.0126765
908.427	0.0126350
908.505	0.0124237
908.583	0.0124410
908.661	0.0122706
908.739	0.0121598
908.818	0.0121590
908.896	0.0122131
908.974	0.0119517
909.052	0.0120811
909.130	0.0120828
909.208	0.0120318
909.286	0.0119868
909.364	0.0119212
909.443	0.0119206
909.521	0.0118656
909.599	0.0120811
909.677	0.0120146
909.755	0.0120836
909.833	0.0121868
909.911	0.0122293
909.989	0.0121360
910.068	0.0123634
910.146	0.0121983
910.224	0.0122382
910.302	0.0123473
910.380	0.0124731
910.458	0.0124544
910.536	0.0125095
910.614	0.0124359
910.693	0.0124777
910.771	0.0125983
910.849	0.0125807
910.927	0.0125509
911.005	0.0125150
911.083	0.0127458
911.161	0.0125801
911.239	0.0125957
911.318	0.0125894
911.396	0.0125699
911.474	0.0124328
911.552	0.0125243
911.630	0.0124894
911.708	0.0125507
911.786	0.0124577
911.864	0.0125060
911.943	0.0124780
912.021	0.0123582
912.099	0.0122188
912.177	0.0123353
912.255	0.0122717
912.333	0.0124392
912.411	0.0124213
912.489	0.0122569
912.568	0.0121838
912.646	0.0122354
912.724	0.0123413
912.802	0.0122380
912.880	0.0122263
912.958	0.0123944
913.036	0.0123451
913.114	0.0123828
913.193	0.0124638
913.271	0.0124977
913.349	0.0124657
913.427	0.0123314
913.505	0.0123672
913.583	0.0124799
913.661	0.0125501
913.739	0.0124552
913.818	0.0125172
913.896	0.0124039
913.974	0.0122940
914.052	0.0124792
914.130	0.0125723
914.208	0.0123613
914.286	0.0122319
914.364	0.0123625
914.443	0.0125266
914.521	0.0123498
914.599	0.0122523
914.677	0.0121083
914.755	0.0122887
914.833	0.0122671
914.911	0.0122211
914.989	0.0122584
915.068	0.0121146
915.146	0.0121715
915.224	0.0122047
915.302	0.0122696
915.380	0.0122174
915.458	0.0121437
915.536	0.0123241
915.614	0.0124082
915.693	0.0122282
915.771	0.0123167
915.849	0.0124410
915.927	0.0125249
916.005	0.0124840
916.083	0.0124651
916.161	0.0124648
916.239	0.0125224
916.318	0.0125072
916.396	0.0127280
916.474	0.0128043
916.552	0.0126122
916.630	0.0126389
916.708	0.0127425
916.786	0.0126710
916.864	0.0126170
916.943	0.0125706
917.021	0.0126108
917.099	0.0125996
917.177	0.0125379
917.255	0.0124433
917.333	0.0124112
917.411	0.0126344
917.489	0.0125967
917.568	0.0123714
917.646	0.0124354
917.724	0.0123816
917.802	0.0124889
917.880	0.0124314
917.958	0.0123093
918.036	0.0123729
918.114	0.0126159
918.193	0.0124998
918.271	0.0126295
918.349	0.0125852
918.427	0.0126875
918.505	0.0126041
918.583	0.0127229
918.661	0.0126131
918.739	0.0126143
918.818	0.0125791
918.896	0.0125203
918.974	0.0124942
919.052	0.0124592
919.130	0.0124043
919.208	0.0124784
919.286	0.0124229
919.364	0.0124908
919.443	0.0123739
919.521	0.0123033
919.599	0.0123341
919.677	0.0123952
919.755	0.0123354
919.833	0.0122278
919.911	0.0121816
919.989	0.0121981
920.068	0.0122320
920.146	0.0122116
920.224	0.0121792
920.302	0.0121378
920.380	0.0122498
920.458	0.0122707
920.536	0.0122578
920.614	0.0122678
920.693	0.0123022
920.771	0.0123116
920.849	0.0121880
920.927	0.0124667
921.005	0.0124443
921.083	0.0125477
921.161	0.0124999
921.239	0.0125440
921.318	0.0125655
921.396	0.0124667
921.474	0.0125730
921.552	0.0125724
921.630	0.0126149
921.708	0.0124303
921.786	0.0125027
921.864	0.0125300
921.943	0.0125214
922.021	0.0124841
922.099	0.0124498
922.177	0.0123483
922.255	0.0123557
922.333	0.0123767
922.411	0.0123508
922.489	0.0122994
922.568	0.0122130
922.646	0.0123897
922.724	0.0123656
922.802	0.0123810
922.880	0.0123302
922.958	0.0122893
923.036	0.0123621
923.114	0.0123418
923.193	0.0125936
923.271	0.0124129
923.349	0.0123341
923.427	0.0124199
923.505	0.0124475
923.583	0.0125851
923.661	0.0124493
923.739	0.0125098
923.818	0.0124640
923.896	0.0124413
923.974	0.0124672
924.052	0.0123992
924.130	0.0123932
924.208	0.0124100
924.286	0.0124712
924.364	0.0122813
924.443	0.0122749
924.521	0.0124405
924.599	0.0123565
924.677	0.0121655
924.755	0.0123319
924.833	0.0124370
924.911	0.0123351
924.989	0.0121861
925.068	0.0122726
925.146	0.0123479
925.224	0.0122391
925.302	0.0122906
925.380	0.0123006
925.458	0.0124846
925.536	0.0123379
925.614	0.0122993
925.693	0.0123040
925.771	0.0124349
925.849	0.0123816
925.927	0.0123582
926.005	0.0124547
926.083	0.0123883
926.161	0.0123563
926.239	0.0123076
926.318	0.0122276
926.396	0.0123164
926.474	0.0122687
926.552	0.0123072
926.630	0.0124372
926.708	0.0122665
926.786	0.0122829
926.864	0.0123375
926.943	0.0123310
927.021	0.0122353
927.099	0.0122563
927.177	0.0122389
927.255	0.0121940
927.333	0.0122649
927.411	0.0123780
927.489	0.0122925
927.568	0.0124462
927.646	0.0122947
927.724	0.0125498
927.802	0.0124893
927.880	0.0124300
927.958	0.0122424
928.036	0.0125851
928.114	0.0124718
928.193	0.0124421
928.271	0.0123988
928.349	0.0124258
928.427	0.0125932
928.505	0.0123566
928.583	0.0124002
928.661	0.0125776
928.739	0.0125791
928.818	0.0125765
928.896	0.0125506
928.974	0.0125449
929.052	0.0123832
929.130	0.0125774
929.208	0.0125270
929.286	0.0124506
929.364	0.0123951
929.443	0.0124367
929.521	0.0125059
929.599	0.0124389
929.677	0.0124380
929.755	0.0123601
929.833	0.0124113
929.911	0.0123601
929.989	0.0123360
930.068	0.0124319
930.146	0.0122353
930.224	0.0122976
930.302	0.0122171
930.380	0.0122961
930.458	0.0122383
930.536	0.0123219
930.614	0.0122508
930.693	0.0122842
930.771	0.0122630
930.849	0.0123483
930.927	0.0123472
931.005	0.0123263
931.083	0.0124092
931.161	0.0123631
931.239	0.0123048
931.318	0.0123317
931.396	0.0123927
931.474	0.0123307
931.552	0.0123151
931.630	0.0125613
931.708	0.0126374
931.786	0.0122976
931.864	0.0125288
931.943	0.0124333
932.021	0.0124581
932.099	0.0124216
932.177	0.0125623
932.255	0.0124757
932.333	0.0123921
932.411	0.0123060
932.489	0.0123885
932.568	0.0124471
932.646	0.0123792
932.724	0.0123667
932.802	0.0124448
932.880	0.0124062
932.958	0.0123664
933.036	0.0123287
933.114	0.0124841
933.193	0.0124994
933.271	0.0123677
933.349	0.0123588
933.427	0.0124847
933.505	0.0124927
933.583	0.0123302
933.661	0.0123792
933.739	0.0125588
933.818	0.0124743
933.896	0.0125259
933.974	0.0124931
934.052	0.0125211
934.130	0.0124828
934.208	0.0125323
934.286	0.0125513
934.364	0.0124463
934.443	0.0125452
934.521	0.0124979
934.599	0.0123900
934.677	0.0123722
934.755	0.0123077
934.833	0.0124645
934.911	0.0123915
934.989	0.0124476
935.068	0.0124181
935.146	0.0123396
935.224	0.0123983
935.302	0.0123667
935.380	0.0124198
935.458	0.0123891
935.536	0.0124869
935.614	0.0124306
935.693	0.0123656
935.771	0.0123785
935.849	0.0125971
935.927	0.0126535
936.005	0.0125362
936.083	0.0126050
936.161	0.0126025
936.239	0.0125815
936.318	0.0126550
936.396	0.0126035
936.474	0.0126550
936.552	0.0126757
936.630	0.0126056
936.708	0.0127310
936.786	0.0126633
936.864	0.0126665
936.943	0.0126321
937.021	0.0124615
937.099	0.0125220
937.177	0.0123640
937.255	0.0123812
937.333	0.0123762
937.411	0.0123019
937.489	0.0124095
937.568	0.0122480
937.646	0.0122504
937.724	0.0123318
937.802	0.0122427
937.880	0.0122851
937.958	0.0122763
938.036	0.0120402
938.114	0.0122704
938.193	0.0122129
938.271	0.0122133
938.349	0.0123281
938.427	0.0123664
938.505	0.0122414
938.583	0.0123492
938.661	0.0123754
938.739	0.0125764
938.818	0.0123689
938.896	0.0124988
938.974	0.0124032
939.052	0.0125993
939.130	0.0125170
939.208	0.0126507
939.286	0.0127629
939.364	0.0125816
939.443	0.0126238
939.521	0.0125988
939.599	0.0125630
939.677	0.0125983
939.755	0.0125256
939.833	0.0125689
939.911	0.0126821
939.989	0.0127042
940.068	0.0125185
940.146	0.0125217
940.224	0.0125229
940.302	0.0124465
940.380	0.0124427
940.458	0.0124100
940.536	0.0125214
940.614	0.0123474
940.693	0.0122974
940.771	0.0123342
940.849	0.0122627
940.927	0.0122227
941.005	0.0121217
941.083	0.0122324
941.161	0.0123699
941.239	0.0124692
941.318	0.0122926
941.396	0.0123150
941.474	0.0123970
941.552	0.0124574
941.630	0.0123640
941.708	0.0123785
941.786	0.0123891
941.864	0.0125437
941.943	0.0124757
942.021	0.0126041
942.099	0.0125265
942.177	0.0124722
942.255	0.0125394
942.333	0.0124027
942.411	0.0124799
942.489	0.0125137
942.568	0.0124398
942.646	0.0122991
942.724	0.0124290
942.802	0.0123375
942.880	0.0124332
942.958	0.0123123
943.036	0.0123697
943.114	0.0122722
943.193	0.0124014
943.271	0.0122495
943.349	0.0123222
943.427	0.0123176
943.505	0.0123569
943.583	0.0122599
943.661	0.0123262
943.739	0.0122974
943.818	0.0122881
943.896	0.0123168
943.974	0.0122552
944.052	0.0122391
944.130	0.0123471
944.208	0.0122305
944.286	0.0123879
944.364	0.0123254
944.443	0.0123362
944.521	0.0122956
944.599	0.0124345
944.677	0.0124076
944.755	0.0124905
944.833	0.0123888
944.911	0.0122209
944.989	0.0123500
945.068	0.0124931
945.146	0.0126403
945.224	0.0124847
945.302	0.0124720
945.380	0.0125305
945.458	0.0125816
945.536	0.0126175
945.614	0.0126836
945.693	0.0124432
945.771	0.0125824
945.849	0.0126388
945.927	0.0125779
946.005	0.0124604
946.083	0.0124191
946.161	0.0123385
946.239	0.0124192
946.318	0.0124043
946.396	0.0123121
946.474	0.0122705
946.552	0.0123652
946.630	0.0123253
946.708	0.0123108
946.786	0.0122746
946.864	0.0123181
946.943	0.0121848
947.021	0.0123761
947.099	0.0123571
947.177	0.0123595
947.255	0.0124088
947.333	0.0124139
947.411	0.0123275
947.489	0.0124388
947.568	0.0123647
947.646	0.0122756
947.724	0.0124680
947.802	0.0124574
947.880	0.0125625
947.958	0.0125238
948.036	0.0124811
948.114	0.0124397
948.193	0.0124355
948.271	0.0124331
948.349	0.0124123
948.427	0.0123917
948.505	0.0123640
948.583	0.0124245
948.661	0.0124981
948.739	0.0123168
948.818	0.0122987
948.896	0.0122844
948.974	0.0122725
949.052	0.0122996
949.130	0.0122445
949.208	0.0123546
949.286	0.0122901
949.364	0.0123034
949.443	0.0122588
949.521	0.0122747
949.599	0.0122437
949.677	0.0121736
949.755	0.0122478
949.833	0.0122567
949.911	0.0123306
949.989	0.0122706
950.068	0.0122184
950.146	0.0122382
950.224	0.0125349
950.302	0.0125756
950.380	0.0123470
950.458	0.0125393
950.536	0.0125280
950.614	0.0125983
950.693	0.0126033
950.771	0.0125574
950.849	0.0125254
950.927	0.0127351
951.005	0.0125574
951.083	0.0126992
951.161	0.0127348
951.239	0.0126375
951.318	0.0126437
951.396	0.0124847
951.474	0.0124670
951.552	0.0125375
951.630	0.0123864
951.708	0.0123230
951.786	0.0123160
951.864	0.0124634
951.943	0.0123041
952.021	0.0123972
952.099	0.0123094
952.177	0.0121972
952.255	0.0122098
952.333	0.0122330
952.411	0.0122272
952.489	0.0122315
952.568	0.0123391
952.646	0.0122437
952.724	0.0121455
952.802	0.0122186
952.880	0.0123730
952.958	0.0123663
953.036	0.0123785
953.114	0.0124770
953.193	0.0124029
953.271	0.0124272
953.349	0.0123669
953.427	0.0123589
953.505	0.0124551
953.583	0.0123595
953.661	0.0124652
953.739	0.0124116
953.818	0.0124387
953.896	0.0125475
953.974	0.0124905
954.052	0.0124322
954.130	0.0123102
954.208	0.0124412
954.286	0.0124001
954.364	0.0123872
954.443	0.0124422
954.521	0.0123952
954.599	0.0124785
954.677	0.0123322
954.755	0.0122704
954.833	0.0124189
954.911	0.0122049
954.989	0.0122163
955.068	0.0122496
955.146	0.0121484
955.224	0.0122798
955.302	0.0122717
955.380	0.0121832
955.458	0.0121651
955.536	0.0122607
955.614	0.0121906
955.693	0.0122935
955.771	0.0122413
955.849	0.0124029
955.927	0.0124915
956.005	0.0123132
956.083	0.0122745
956.161	0.0122941
956.239	0.0123685
956.318	0.0124953
956.396	0.0124486
956.474	0.0124255
956.552	0.0123959
956.630	0.0123962
956.708	0.0125538
956.786	0.0124319
956.864	0.0124531
956.943	0.0125010
957.021	0.0125173
957.099	0.0123191
957.177	0.0124197
957.255	0.0123768
957.333	0.0123387
957.411	0.0123489
957.489	0.0123620
957.568	0.0122658
957.646	0.0123659
957.724	0.0121294
957.802	0.0122520
957.880	0.0123240
957.958	0.0121622
958.036	0.0123298
958.114	0.0124410
958.193	0.0122614
958.271	0.0123430
958.349	0.0123812
958.427	0.0124210
958.505	0.0124174
958.583	0.0124458
958.661	0.0123791
958.739	0.0125476
958.818	0.0124836
958.896	0.0124017
958.974	0.0124906
959.052	0.0124105
959.130	0.0123388
959.208	0.0124332
959.286	0.0125564
959.364	0.0124093
959.443	0.0124277
959.521	0.0124087
959.599	0.0122173
959.677	0.0123897
959.755	0.0123441
959.833	0.0122944
959.911	0.0122749
