05/07/2022	17:00:06	Ver.	4.1	UNKNOWN
Optical Delay	639.989416	Delta X		0.078125	Sweeps	1	Scan Rate	0/0
Coordinates	Axis 1	NaN	Axis 2	NaN	Axis 3	NaN	Axis 4	NaN	Axis 5	NaN	Axis 6	0.000000
TX Power	0.000000	RX Power	0.000000

639.989	0.0117248
640.068	0.0118347
640.146	0.0116675
640.224	0.0117108
640.302	0.0116674
640.380	0.0117111
640.458	0.0117712
640.536	0.0116695
640.614	0.0117960
640.693	0.0116838
640.771	0.0117290
640.849	0.0118620
640.927	0.0117683
641.005	0.0119253
641.083	0.0118075
641.161	0.0116175
641.239	0.0118721
641.318	0.0118060
641.396	0.0116948
641.474	0.0119104
641.552	0.0117432
641.630	0.0117487
641.708	0.0118114
641.786	0.0116844
641.864	0.0116168
641.943	0.0117655
642.021	0.0117075
642.099	0.0117602
642.177	0.0116478
642.255	0.0118036
642.333	0.0116434
642.411	0.0115644
642.489	0.0117506
642.568	0.0118935
642.646	0.0116168
642.724	0.0117514
642.802	0.0116547
642.880	0.0115913
642.958	0.0117902
643.036	0.0116796
643.114	0.0117631
643.193	0.0118135
643.271	0.0117435
643.349	0.0118156
643.427	0.0117975
643.505	0.0116695
643.583	0.0117411
643.661	0.0117378
643.739	0.0117250
643.818	0.0118358
643.896	0.0118118
643.974	0.0117067
644.052	0.0117567
644.130	0.0117918
644.208	0.0117468
644.286	0.0116359
644.364	0.0117563
644.443	0.0117794
644.521	0.0117819
644.599	0.0117016
644.677	0.0117931
644.755	0.0117700
644.833	0.0117302
644.911	0.0116805
644.989	0.0116589
645.068	0.0117319
645.146	0.0116570
645.224	0.0118241
645.302	0.0117765
645.380	0.0116804
645.458	0.0117455
645.536	0.0119503
645.614	0.0117363
645.693	0.0117567
645.771	0.0118600
645.849	0.0118346
645.927	0.0119039
646.005	0.0116917
646.083	0.0117762
646.161	0.0117152
646.239	0.0118153
646.318	0.0118072
646.396	0.0116849
646.474	0.0117086
646.552	0.0118287
646.630	0.0116590
646.708	0.0117000
646.786	0.0117699
646.864	0.0118433
646.943	0.0116316
647.021	0.0116127
647.099	0.0117685
647.177	0.0117557
647.255	0.0116911
647.333	0.0118068
647.411	0.0118401
647.489	0.0117680
647.568	0.0116943
647.646	0.0118507
647.724	0.0117046
647.802	0.0118694
647.880	0.0118140
647.958	0.0117574
648.036	0.0118259
648.114	0.0117750
648.193	0.0117252
648.271	0.0115879
648.349	0.0117015
648.427	0.0116915
648.505	0.0117414
648.583	0.0117789
648.661	0.0116659
648.739	0.0117005
648.818	0.0118586
648.896	0.0117147
648.974	0.0116748
649.052	0.0117547
649.130	0.0116480
649.208	0.0117204
649.286	0.0116919
649.364	0.0117171
649.443	0.0115879
649.521	0.0115594
649.599	0.0117278
649.677	0.0117358
649.755	0.0116151
649.833	0.0116979
649.911	0.0116366
649.989	0.0118584
650.068	0.0117740
650.146	0.0117097
650.224	0.0117027
650.302	0.0117590
650.380	0.0117545
650.458	0.0116643
650.536	0.0117333
650.614	0.0116359
650.693	0.0117702
650.771	0.0116534
650.849	0.0116637
650.927	0.0115725
651.005	0.0117290
651.083	0.0118291
651.161	0.0115965
651.239	0.0117127
651.318	0.0116766
651.396	0.0117425
651.474	0.0115876
651.552	0.0116553
651.630	0.0116360
651.708	0.0117699
651.786	0.0117876
651.864	0.0116861
651.943	0.0115509
652.021	0.0117148
652.099	0.0118729
652.177	0.0117809
652.255	0.0115268
652.333	0.0116490
652.411	0.0116935
652.489	0.0117993
652.568	0.0119083
652.646	0.0117139
652.724	0.0116601
652.802	0.0117333
652.880	0.0118581
652.958	0.0117011
653.036	0.0117944
653.114	0.0118353
653.193	0.0117324
653.271	0.0117605
653.349	0.0117853
653.427	0.0116351
653.505	0.0116310
653.583	0.0118840
653.661	0.0116727
653.739	0.0117578
653.818	0.0117125
653.896	0.0117728
653.974	0.0116977
654.052	0.0116747
654.130	0.0116424
654.208	0.0117397
654.286	0.0118537
654.364	0.0118472
654.443	0.0117648
654.521	0.0116463
654.599	0.0116988
654.677	0.0117521
654.755	0.0118170
654.833	0.0116815
654.911	0.0116956
654.989	0.0117884
655.068	0.0117407
655.146	0.0116924
655.224	0.0118391
655.302	0.0117600
655.380	0.0118274
655.458	0.0117461
655.536	0.0116884
655.614	0.0117508
655.693	0.0118449
655.771	0.0117114
655.849	0.0119492
655.927	0.0117978
656.005	0.0117711
656.083	0.0117796
656.161	0.0117905
656.239	0.0118197
656.318	0.0117651
656.396	0.0116154
656.474	0.0116525
656.552	0.0117059
656.630	0.0116912
656.708	0.0117102
656.786	0.0117959
656.864	0.0116507
656.943	0.0117388
657.021	0.0118372
657.099	0.0117215
657.177	0.0116809
657.255	0.0117170
657.333	0.0117607
657.411	0.0116666
657.489	0.0116984
657.568	0.0117138
657.646	0.0117332
657.724	0.0117927
657.802	0.0117824
657.880	0.0115186
657.958	0.0117558
658.036	0.0117210
658.114	0.0117739
658.193	0.0116992
658.271	0.0117294
658.349	0.0117867
658.427	0.0118166
658.505	0.0119247
658.583	0.0117151
658.661	0.0116400
658.739	0.0117384
658.818	0.0117197
658.896	0.0117081
658.974	0.0116499
659.052	0.0117146
659.130	0.0116961
659.208	0.0117946
659.286	0.0117466
659.364	0.0116588
659.443	0.0117387
659.521	0.0118240
659.599	0.0117649
659.677	0.0116209
659.755	0.0115385
659.833	0.0116148
659.911	0.0117991
659.989	0.0117120
660.068	0.0117250
660.146	0.0117609
660.224	0.0116244
660.302	0.0117497
660.380	0.0117622
660.458	0.0116531
660.536	0.0117081
660.614	0.0118013
660.693	0.0118681
660.771	0.0117424
660.849	0.0115932
660.927	0.0118880
661.005	0.0117727
661.083	0.0117584
661.161	0.0117663
661.239	0.0117699
661.318	0.0117630
661.396	0.0117580
661.474	0.0116668
661.552	0.0117471
661.630	0.0117927
661.708	0.0116930
661.786	0.0117301
661.864	0.0117507
661.943	0.0118060
662.021	0.0117782
662.099	0.0118233
662.177	0.0116266
662.255	0.0118166
662.333	0.0118320
662.411	0.0117261
662.489	0.0116729
662.568	0.0116949
662.646	0.0118274
662.724	0.0117153
662.802	0.0118964
662.880	0.0118487
662.958	0.0117700
663.036	0.0116026
663.114	0.0118065
663.193	0.0116466
663.271	0.0116479
663.349	0.0118446
663.427	0.0116740
663.505	0.0117138
663.583	0.0117047
663.661	0.0117625
663.739	0.0117610
663.818	0.0118370
663.896	0.0116901
663.974	0.0116678
664.052	0.0117233
664.130	0.0117687
664.208	0.0117205
664.286	0.0117918
664.364	0.0117052
664.443	0.0115868
664.521	0.0117307
664.599	0.0117667
664.677	0.0118640
664.755	0.0116728
664.833	0.0117422
664.911	0.0118472
664.989	0.0117923
665.068	0.0116989
665.146	0.0117820
665.224	0.0117768
665.302	0.0117509
665.380	0.0116589
665.458	0.0117120
665.536	0.0118371
665.614	0.0117420
665.693	0.0118607
665.771	0.0115522
665.849	0.0116625
665.927	0.0116814
666.005	0.0118256
666.083	0.0118060
666.161	0.0117747
666.239	0.0117529
666.318	0.0117102
666.396	0.0117302
666.474	0.0117613
666.552	0.0116605
666.630	0.0117300
666.708	0.0118465
666.786	0.0118062
666.864	0.0117770
666.943	0.0116968
667.021	0.0117285
667.099	0.0117867
667.177	0.0117625
667.255	0.0119151
667.333	0.0119049
667.411	0.0116605
667.489	0.0117210
667.568	0.0117704
667.646	0.0118002
667.724	0.0117337
667.802	0.0117658
667.880	0.0117327
667.958	0.0118272
668.036	0.0117181
668.114	0.0117298
668.193	0.0118584
668.271	0.0117365
668.349	0.0117233
668.427	0.0116869
668.505	0.0117354
668.583	0.0117472
668.661	0.0118655
668.739	0.0117554
668.818	0.0117738
668.896	0.0116817
668.974	0.0117945
669.052	0.0117958
669.130	0.0116951
669.208	0.0117484
669.286	0.0117776
669.364	0.0117633
669.443	0.0118881
669.521	0.0117136
669.599	0.0117755
669.677	0.0118179
669.755	0.0118537
669.833	0.0118392
669.911	0.0116213
669.989	0.0119202
670.068	0.0117596
670.146	0.0117345
670.224	0.0117870
670.302	0.0116026
670.380	0.0116468
670.458	0.0115687
670.536	0.0117419
670.614	0.0117144
670.693	0.0116154
670.771	0.0117506
670.849	0.0116350
670.927	0.0116007
671.005	0.0116024
671.083	0.0116753
671.161	0.0116424
671.239	0.0117157
671.318	0.0117642
671.396	0.0115699
671.474	0.0116151
671.552	0.0116467
671.630	0.0117568
671.708	0.0116887
671.786	0.0115974
671.864	0.0116554
671.943	0.0116152
672.021	0.0115536
672.099	0.0115254
672.177	0.0115194
672.255	0.0115909
672.333	0.0115106
672.411	0.0115681
672.489	0.0116248
672.568	0.0116754
672.646	0.0115289
672.724	0.0115624
672.802	0.0115624
672.880	0.0114652
672.958	0.0114728
673.036	0.0116039
673.114	0.0114666
673.193	0.0115029
673.271	0.0114986
673.349	0.0115526
673.427	0.0114941
673.505	0.0114569
673.583	0.0114924
673.661	0.0114188
673.739	0.0115695
673.818	0.0114992
673.896	0.0114828
673.974	0.0115668
674.052	0.0114175
674.130	0.0113790
674.208	0.0113797
674.286	0.0116349
674.364	0.0115217
674.443	0.0115659
674.521	0.0115395
674.599	0.0114353
674.677	0.0114016
674.755	0.0115095
674.833	0.0112441
674.911	0.0115992
674.989	0.0116225
675.068	0.0114878
675.146	0.0115417
675.224	0.0115060
675.302	0.0113617
675.380	0.0114801
675.458	0.0115889
675.536	0.0115381
675.614	0.0115151
675.693	0.0115722
675.771	0.0114970
675.849	0.0117017
675.927	0.0116008
676.005	0.0115159
676.083	0.0115055
676.161	0.0116206
676.239	0.0116075
676.318	0.0116154
676.396	0.0117160
676.474	0.0116845
676.552	0.0116054
676.630	0.0117664
676.708	0.0117747
676.786	0.0117322
676.864	0.0116707
676.943	0.0117860
677.021	0.0117463
677.099	0.0118291
677.177	0.0116346
677.255	0.0118240
677.333	0.0117821
677.411	0.0119434
677.489	0.0118313
677.568	0.0118819
677.646	0.0119102
677.724	0.0119177
677.802	0.0119105
677.880	0.0119128
677.958	0.0118556
678.036	0.0118423
678.114	0.0119035
678.193	0.0120155
678.271	0.0120812
678.349	0.0119025
678.427	0.0120235
678.505	0.0120167
678.583	0.0118842
678.661	0.0118745
678.739	0.0120000
678.818	0.0119731
678.896	0.0120599
678.974	0.0119485
679.052	0.0121380
679.130	0.0120254
679.208	0.0119659
679.286	0.0120671
679.364	0.0120120
679.443	0.0121725
679.521	0.0118562
679.599	0.0119525
679.677	0.0119614
679.755	0.0119708
679.833	0.0120844
679.911	0.0121469
679.989	0.0121790
680.068	0.0119644
680.146	0.0119926
680.224	0.0120444
680.302	0.0120819
680.380	0.0118854
680.458	0.0120134
680.536	0.0120719
680.614	0.0120778
680.693	0.0119907
680.771	0.0119972
680.849	0.0120174
680.927	0.0120536
681.005	0.0119997
681.083	0.0120411
681.161	0.0119839
681.239	0.0120146
681.318	0.0120009
681.396	0.0119066
681.474	0.0119949
681.552	0.0119975
681.630	0.0118700
681.708	0.0118096
681.786	0.0120112
681.864	0.0118356
681.943	0.0118370
682.021	0.0119746
682.099	0.0118691
682.177	0.0119749
682.255	0.0119005
682.333	0.0117607
682.411	0.0119179
682.489	0.0118465
682.568	0.0117820
682.646	0.0118800
682.724	0.0117720
682.802	0.0117207
682.880	0.0118513
682.958	0.0118253
683.036	0.0117586
683.114	0.0117362
683.193	0.0117362
683.271	0.0117412
683.349	0.0117088
683.427	0.0117835
683.505	0.0119228
683.583	0.0116584
683.661	0.0117845
683.739	0.0118449
683.818	0.0116242
683.896	0.0116306
683.974	0.0118002
684.052	0.0116779
684.130	0.0116483
684.208	0.0116795
684.286	0.0116910
684.364	0.0117141
684.443	0.0116041
684.521	0.0115890
684.599	0.0117134
684.677	0.0116756
684.755	0.0115188
684.833	0.0116131
684.911	0.0116171
684.989	0.0115050
685.068	0.0115522
685.146	0.0115412
685.224	0.0116952
685.302	0.0116362
685.380	0.0116383
685.458	0.0114720
685.536	0.0116183
685.614	0.0116199
685.693	0.0115514
685.771	0.0116773
685.849	0.0116225
685.927	0.0114597
686.005	0.0116915
686.083	0.0116437
686.161	0.0116901
686.239	0.0116735
686.318	0.0116323
686.396	0.0116392
686.474	0.0117906
686.552	0.0116496
686.630	0.0116820
686.708	0.0116648
686.786	0.0116283
686.864	0.0116634
686.943	0.0117195
687.021	0.0115809
687.099	0.0116383
687.177	0.0117422
687.255	0.0116836
687.333	0.0117348
687.411	0.0117001
687.489	0.0116895
687.568	0.0118861
687.646	0.0116370
687.724	0.0116760
687.802	0.0117555
687.880	0.0117348
687.958	0.0117637
688.036	0.0117796
688.114	0.0118454
688.193	0.0117783
688.271	0.0117107
688.349	0.0116232
688.427	0.0117278
688.505	0.0117823
688.583	0.0118058
688.661	0.0118127
688.739	0.0117682
688.818	0.0116644
688.896	0.0117527
688.974	0.0118288
689.052	0.0117178
689.130	0.0117762
689.208	0.0119347
689.286	0.0117350
689.364	0.0117913
689.443	0.0118713
689.521	0.0119012
689.599	0.0118987
689.677	0.0117532
689.755	0.0117197
689.833	0.0116978
689.911	0.0116235
689.989	0.0117799
690.068	0.0116940
690.146	0.0116171
690.224	0.0117075
690.302	0.0116254
690.380	0.0116832
690.458	0.0116906
690.536	0.0117004
690.614	0.0117163
690.693	0.0118867
690.771	0.0118948
690.849	0.0118673
690.927	0.0118290
691.005	0.0118284
691.083	0.0119487
691.161	0.0119464
691.239	0.0117759
691.318	0.0119498
691.396	0.0118222
691.474	0.0118423
691.552	0.0118974
691.630	0.0116383
691.708	0.0116298
691.786	0.0117878
691.864	0.0117398
691.943	0.0116036
692.021	0.0115177
692.099	0.0115162
692.177	0.0116188
692.255	0.0115528
692.333	0.0115652
692.411	0.0115626
692.489	0.0116840
692.568	0.0115177
692.646	0.0117043
692.724	0.0117510
692.802	0.0116544
692.880	0.0118217
692.958	0.0118283
693.036	0.0117868
693.114	0.0117076
693.193	0.0118904
693.271	0.0120742
693.349	0.0119160
693.427	0.0119469
693.505	0.0118694
693.583	0.0120051
693.661	0.0120706
693.739	0.0118704
693.818	0.0119419
693.896	0.0119358
693.974	0.0118417
694.052	0.0119025
694.130	0.0118654
694.208	0.0119320
694.286	0.0117709
694.364	0.0117725
694.443	0.0117095
694.521	0.0116751
694.599	0.0116048
694.677	0.0114053
694.755	0.0114202
694.833	0.0115752
694.911	0.0115245
694.989	0.0116306
695.068	0.0116541
695.146	0.0114930
695.224	0.0115936
695.302	0.0116301
695.380	0.0117149
695.458	0.0117091
695.536	0.0119219
695.614	0.0117653
695.693	0.0117211
695.771	0.0117595
695.849	0.0118298
695.927	0.0117883
696.005	0.0117274
696.083	0.0117619
696.161	0.0116711
696.239	0.0117110
696.318	0.0116712
696.396	0.0117466
696.474	0.0117353
696.552	0.0117542
696.630	0.0116514
696.708	0.0116602
696.786	0.0116415
696.864	0.0118466
696.943	0.0116614
697.021	0.0115502
697.099	0.0117776
697.177	0.0116747
697.255	0.0117934
697.333	0.0119011
697.411	0.0117881
697.489	0.0116850
697.568	0.0118232
697.646	0.0117525
697.724	0.0117339
697.802	0.0118195
697.880	0.0116312
697.958	0.0115682
698.036	0.0116296
698.114	0.0117667
698.193	0.0116072
698.271	0.0115844
698.349	0.0117116
698.427	0.0115211
698.505	0.0115631
698.583	0.0115547
698.661	0.0115172
698.739	0.0115955
698.818	0.0116491
698.896	0.0115559
698.974	0.0115815
699.052	0.0113280
699.130	0.0116312
699.208	0.0114536
699.286	0.0114187
699.364	0.0115470
699.443	0.0116080
699.521	0.0116251
699.599	0.0115120
699.677	0.0116471
699.755	0.0116334
699.833	0.0115562
699.911	0.0116831
699.989	0.0115695
700.068	0.0117092
700.146	0.0118160
700.224	0.0117887
700.302	0.0117820
700.380	0.0119096
700.458	0.0118761
700.536	0.0118684
700.614	0.0117812
700.693	0.0118585
700.771	0.0118515
700.849	0.0118672
700.927	0.0118307
701.005	0.0120162
701.083	0.0118135
701.161	0.0117977
701.239	0.0118613
701.318	0.0118803
701.396	0.0119514
701.474	0.0116628
701.552	0.0117868
701.630	0.0117854
701.708	0.0118628
701.786	0.0117636
701.864	0.0115658
701.943	0.0115482
702.021	0.0116249
702.099	0.0116183
702.177	0.0115079
702.255	0.0116011
702.333	0.0114610
702.411	0.0113833
702.489	0.0113329
702.568	0.0113457
702.646	0.0114711
702.724	0.0113839
702.802	0.0113456
702.880	0.0112656
702.958	0.0113688
703.036	0.0113177
703.114	0.0113882
703.193	0.0115457
703.271	0.0115698
703.349	0.0116313
703.427	0.0116398
703.505	0.0116090
703.583	0.0116658
703.661	0.0117793
703.739	0.0119543
703.818	0.0120124
703.896	0.0121622
703.974	0.0118967
704.052	0.0119629
704.130	0.0121295
704.208	0.0120345
704.286	0.0120208
704.364	0.0119819
704.443	0.0119525
704.521	0.0119598
704.599	0.0120541
704.677	0.0120263
704.755	0.0119019
704.833	0.0120153
704.911	0.0120037
704.989	0.0119934
705.068	0.0119079
705.146	0.0118459
705.224	0.0117842
705.302	0.0117374
705.380	0.0117202
705.458	0.0117955
705.536	0.0117356
705.614	0.0117365
705.693	0.0117661
705.771	0.0116847
705.849	0.0116312
705.927	0.0117080
706.005	0.0115171
706.083	0.0113919
706.161	0.0115403
706.239	0.0116969
706.318	0.0117458
706.396	0.0116190
706.474	0.0118126
706.552	0.0116023
706.630	0.0116625
706.708	0.0117330
706.786	0.0118957
706.864	0.0118240
706.943	0.0118652
707.021	0.0119997
707.099	0.0119257
707.177	0.0118797
707.255	0.0119593
707.333	0.0119041
707.411	0.0118998
707.489	0.0121520
707.568	0.0121033
707.646	0.0119661
707.724	0.0120319
707.802	0.0120087
707.880	0.0120473
707.958	0.0121404
708.036	0.0121010
708.114	0.0120004
708.193	0.0120945
708.271	0.0119666
708.349	0.0119411
708.427	0.0120699
708.505	0.0119626
708.583	0.0119057
708.661	0.0119003
708.739	0.0119831
708.818	0.0117882
708.896	0.0117828
708.974	0.0118346
709.052	0.0118883
709.130	0.0120079
709.208	0.0118614
709.286	0.0117651
709.364	0.0117334
709.443	0.0119084
709.521	0.0118097
709.599	0.0118701
709.677	0.0116422
709.755	0.0117871
709.833	0.0116538
709.911	0.0117307
709.989	0.0117290
710.068	0.0115972
710.146	0.0116892
710.224	0.0116040
710.302	0.0114452
710.380	0.0115388
710.458	0.0115961
710.536	0.0115687
710.614	0.0115742
710.693	0.0114970
710.771	0.0116780
710.849	0.0115646
710.927	0.0116798
711.005	0.0117783
711.083	0.0117615
711.161	0.0117597
711.239	0.0116927
711.318	0.0117371
711.396	0.0118778
711.474	0.0117783
711.552	0.0117360
711.630	0.0117432
711.708	0.0118823
711.786	0.0117728
711.864	0.0117368
711.943	0.0115823
712.021	0.0118121
712.099	0.0117926
712.177	0.0117881
712.255	0.0117113
712.333	0.0118423
712.411	0.0117925
712.489	0.0118192
712.568	0.0117652
712.646	0.0118268
712.724	0.0119235
712.802	0.0117894
712.880	0.0118531
712.958	0.0117345
713.036	0.0117793
713.114	0.0116312
713.193	0.0119703
713.271	0.0117924
713.349	0.0117713
713.427	0.0116963
713.505	0.0116512
713.583	0.0118077
713.661	0.0117255
713.739	0.0116013
713.818	0.0116699
713.896	0.0116856
713.974	0.0115541
714.052	0.0117667
714.130	0.0116391
714.208	0.0117114
714.286	0.0117441
714.364	0.0115679
714.443	0.0116833
714.521	0.0115683
714.599	0.0117730
714.677	0.0119209
714.755	0.0116576
714.833	0.0117037
714.911	0.0116611
714.989	0.0116872
715.068	0.0116503
715.146	0.0117003
715.224	0.0116891
715.302	0.0116336
715.380	0.0115697
715.458	0.0118015
715.536	0.0116693
715.614	0.0114779
715.693	0.0116853
715.771	0.0116978
715.849	0.0117299
715.927	0.0114872
716.005	0.0116148
716.083	0.0116382
716.161	0.0116418
716.239	0.0115324
716.318	0.0117284
716.396	0.0116927
716.474	0.0117107
716.552	0.0115865
716.630	0.0116447
716.708	0.0116840
716.786	0.0117264
716.864	0.0117067
716.943	0.0116995
717.021	0.0118549
717.099	0.0117693
717.177	0.0118735
717.255	0.0119071
717.333	0.0118111
717.411	0.0119218
717.489	0.0117670
717.568	0.0119324
717.646	0.0120438
717.724	0.0119157
717.802	0.0118546
717.880	0.0119630
717.958	0.0119316
718.036	0.0119230
718.114	0.0118638
718.193	0.0119442
718.271	0.0118549
718.349	0.0120319
718.427	0.0118203
718.505	0.0117999
718.583	0.0119607
718.661	0.0119614
718.739	0.0119925
718.818	0.0119425
718.896	0.0119035
718.974	0.0119096
719.052	0.0117709
719.130	0.0117680
719.208	0.0118765
719.286	0.0119272
719.364	0.0117451
719.443	0.0118309
719.521	0.0118442
719.599	0.0116455
719.677	0.0116330
719.755	0.0119371
719.833	0.0118522
719.911	0.0117356
719.989	0.0118101
720.068	0.0116650
720.146	0.0116131
720.224	0.0116309
720.302	0.0115962
720.380	0.0117278
720.458	0.0116772
720.536	0.0115321
720.614	0.0115132
720.693	0.0116778
720.771	0.0116789
720.849	0.0116805
720.927	0.0116226
721.005	0.0115266
721.083	0.0117844
721.161	0.0118128
721.239	0.0115753
721.318	0.0117310
721.396	0.0117437
721.474	0.0119441
721.552	0.0118420
721.630	0.0118932
721.708	0.0119418
721.786	0.0119444
721.864	0.0118655
721.943	0.0119904
722.021	0.0119164
722.099	0.0119642
722.177	0.0121265
722.255	0.0118888
722.333	0.0117407
722.411	0.0118857
722.489	0.0118343
722.568	0.0117448
722.646	0.0117432
722.724	0.0117815
722.802	0.0115680
722.880	0.0115807
722.958	0.0116746
723.036	0.0116449
723.114	0.0115450
723.193	0.0115301
723.271	0.0113896
723.349	0.0115730
723.427	0.0113532
723.505	0.0114439
723.583	0.0115649
723.661	0.0114375
723.739	0.0115386
723.818	0.0114933
723.896	0.0116888
723.974	0.0116134
724.052	0.0117066
724.130	0.0117450
724.208	0.0118046
724.286	0.0118208
724.364	0.0118184
724.443	0.0118472
724.521	0.0119401
724.599	0.0118784
724.677	0.0117791
724.755	0.0119329
724.833	0.0120167
724.911	0.0118406
724.989	0.0118631
725.068	0.0117790
725.146	0.0118119
725.224	0.0117796
725.302	0.0116560
725.380	0.0116349
725.458	0.0115961
725.536	0.0116041
725.614	0.0113361
725.693	0.0115129
725.771	0.0115270
725.849	0.0114954
725.927	0.0113812
726.005	0.0113830
726.083	0.0114378
726.161	0.0113986
726.239	0.0114894
726.318	0.0115134
726.396	0.0114032
726.474	0.0114158
726.552	0.0114689
726.630	0.0115120
726.708	0.0115105
726.786	0.0114936
726.864	0.0115273
726.943	0.0116878
727.021	0.0116582
727.099	0.0116123
727.177	0.0116774
727.255	0.0118468
727.333	0.0118520
727.411	0.0117661
727.489	0.0117561
727.568	0.0118724
727.646	0.0119210
727.724	0.0117861
727.802	0.0118187
727.880	0.0118826
727.958	0.0118078
728.036	0.0118401
728.114	0.0119543
728.193	0.0118510
728.271	0.0117419
728.349	0.0118806
728.427	0.0117803
728.505	0.0117618
728.583	0.0118587
728.661	0.0118658
728.739	0.0118587
728.818	0.0117898
728.896	0.0117975
728.974	0.0118035
729.052	0.0117072
729.130	0.0118147
729.208	0.0119142
729.286	0.0118153
729.364	0.0116958
729.443	0.0116864
729.521	0.0117027
729.599	0.0117712
729.677	0.0117912
729.755	0.0116331
729.833	0.0116335
729.911	0.0117597
729.989	0.0117089
730.068	0.0117322
730.146	0.0117464
730.224	0.0117812
730.302	0.0117853
730.380	0.0118625
730.458	0.0117355
730.536	0.0116722
730.614	0.0116196
730.693	0.0115918
730.771	0.0117209
730.849	0.0117025
730.927	0.0116349
731.005	0.0116827
731.083	0.0117089
731.161	0.0117318
731.239	0.0116111
731.318	0.0116583
731.396	0.0116821
731.474	0.0117696
731.552	0.0116840
731.630	0.0118038
731.708	0.0117300
731.786	0.0117651
731.864	0.0116643
731.943	0.0116568
732.021	0.0118661
732.099	0.0118096
732.177	0.0119126
732.255	0.0118964
732.333	0.0118840
732.411	0.0118095
732.489	0.0119114
732.568	0.0118787
732.646	0.0118201
732.724	0.0119774
732.802	0.0119215
732.880	0.0118736
732.958	0.0118842
733.036	0.0118500
733.114	0.0118134
733.193	0.0117878
733.271	0.0115474
733.349	0.0116466
733.427	0.0117555
733.505	0.0116458
733.583	0.0115919
733.661	0.0115800
733.739	0.0116390
733.818	0.0116623
733.896	0.0115805
733.974	0.0116186
734.052	0.0115054
734.130	0.0115577
734.208	0.0116321
734.286	0.0115668
734.364	0.0115011
734.443	0.0116479
734.521	0.0117054
734.599	0.0115646
734.677	0.0116480
734.755	0.0117017
734.833	0.0116010
734.911	0.0116863
734.989	0.0116537
735.068	0.0118087
735.146	0.0118143
735.224	0.0116113
735.302	0.0117411
735.380	0.0120489
735.458	0.0120145
735.536	0.0119513
735.614	0.0118934
735.693	0.0118586
735.771	0.0118783
735.849	0.0118209
735.927	0.0118478
736.005	0.0118961
736.083	0.0118859
736.161	0.0118312
736.239	0.0118993
736.318	0.0119653
736.396	0.0118298
736.474	0.0117999
736.552	0.0116145
736.630	0.0118011
736.708	0.0117902
736.786	0.0118539
736.864	0.0117195
736.943	0.0116038
737.021	0.0116258
737.099	0.0114745
737.177	0.0116329
737.255	0.0115280
737.333	0.0114953
737.411	0.0115742
737.489	0.0115340
737.568	0.0114801
737.646	0.0114780
737.724	0.0115086
737.802	0.0115395
737.880	0.0115941
737.958	0.0115623
738.036	0.0115936
738.114	0.0116477
738.193	0.0117548
738.271	0.0116559
738.349	0.0117116
738.427	0.0115255
738.505	0.0117618
738.583	0.0116951
738.661	0.0117604
738.739	0.0118369
738.818	0.0117429
738.896	0.0117130
738.974	0.0118353
739.052	0.0117696
739.130	0.0117616
739.208	0.0117497
739.286	0.0115683
739.364	0.0116197
739.443	0.0117814
739.521	0.0117902
739.599	0.0116177
739.677	0.0115707
739.755	0.0115715
739.833	0.0116071
739.911	0.0116302
739.989	0.0116045
740.068	0.0117162
740.146	0.0116804
740.224	0.0116238
740.302	0.0116628
740.380	0.0117397
740.458	0.0117109
740.536	0.0116661
740.614	0.0116132
740.693	0.0116295
740.771	0.0118871
740.849	0.0117436
740.927	0.0117012
741.005	0.0116109
741.083	0.0116669
741.161	0.0118842
741.239	0.0116994
741.318	0.0118253
741.396	0.0118372
741.474	0.0117022
741.552	0.0117677
741.630	0.0120224
741.708	0.0119183
741.786	0.0118084
741.864	0.0118344
741.943	0.0118052
742.021	0.0116204
742.099	0.0117454
742.177	0.0118163
742.255	0.0118009
742.333	0.0117885
742.411	0.0118481
742.489	0.0118430
742.568	0.0117284
742.646	0.0117708
742.724	0.0117933
742.802	0.0118512
742.880	0.0117819
742.958	0.0117350
743.036	0.0116143
743.114	0.0116801
743.193	0.0115751
743.271	0.0117428
743.349	0.0118329
743.427	0.0117264
743.505	0.0118932
743.583	0.0118409
743.661	0.0118161
743.739	0.0117000
743.818	0.0117912
743.896	0.0118259
743.974	0.0117544
744.052	0.0117443
744.130	0.0118296
744.208	0.0118474
744.286	0.0117628
744.364	0.0118761
744.443	0.0117229
744.521	0.0118111
744.599	0.0116880
744.677	0.0117173
744.755	0.0117110
744.833	0.0117189
744.911	0.0116621
744.989	0.0117805
745.068	0.0116093
745.146	0.0115836
745.224	0.0116447
745.302	0.0116296
745.380	0.0115848
745.458	0.0117442
745.536	0.0115848
745.614	0.0115952
745.693	0.0116389
745.771	0.0116445
745.849	0.0118058
745.927	0.0115264
746.005	0.0116192
746.083	0.0117266
746.161	0.0116895
746.239	0.0117328
746.318	0.0117688
746.396	0.0117249
746.474	0.0116590
746.552	0.0117443
746.630	0.0116898
746.708	0.0117799
746.786	0.0117886
746.864	0.0117203
746.943	0.0117902
747.021	0.0117926
747.099	0.0117520
747.177	0.0117205
747.255	0.0118377
747.333	0.0118099
747.411	0.0117226
747.489	0.0117348
747.568	0.0117355
747.646	0.0117963
747.724	0.0119587
747.802	0.0118283
747.880	0.0118450
747.958	0.0119052
748.036	0.0118544
748.114	0.0117763
748.193	0.0118031
748.271	0.0117645
748.349	0.0118076
748.427	0.0117933
748.505	0.0117581
748.583	0.0117194
748.661	0.0116882
748.739	0.0115979
748.818	0.0116862
748.896	0.0116273
748.974	0.0116413
749.052	0.0118304
749.130	0.0117557
749.208	0.0116375
749.286	0.0116633
749.364	0.0116650
749.443	0.0116882
749.521	0.0116206
749.599	0.0115573
749.677	0.0115225
749.755	0.0115820
749.833	0.0116237
749.911	0.0116799
749.989	0.0116228
750.068	0.0116574
750.146	0.0117375
750.224	0.0116690
750.302	0.0115845
750.380	0.0116948
750.458	0.0116264
750.536	0.0117871
750.614	0.0117837
750.693	0.0117990
750.771	0.0117542
750.849	0.0117036
750.927	0.0118696
751.005	0.0116937
751.083	0.0117714
751.161	0.0117419
751.239	0.0118937
751.318	0.0118260
751.396	0.0118024
751.474	0.0118745
751.552	0.0117798
751.630	0.0118769
751.708	0.0117918
751.786	0.0116397
751.864	0.0117474
751.943	0.0118124
752.021	0.0117014
752.099	0.0117516
752.177	0.0118030
752.255	0.0117933
752.333	0.0117792
752.411	0.0117741
752.489	0.0117898
752.568	0.0115864
752.646	0.0117090
752.724	0.0118353
752.802	0.0118456
752.880	0.0117693
752.958	0.0117378
753.036	0.0116595
753.114	0.0118190
753.193	0.0117042
753.271	0.0117046
753.349	0.0115928
753.427	0.0116533
753.505	0.0116214
753.583	0.0117073
753.661	0.0116444
753.739	0.0116330
753.818	0.0116707
753.896	0.0116039
753.974	0.0116564
754.052	0.0117088
754.130	0.0116932
754.208	0.0116357
754.286	0.0117142
754.364	0.0115729
754.443	0.0117104
754.521	0.0115596
754.599	0.0117351
754.677	0.0116348
754.755	0.0116360
754.833	0.0117163
754.911	0.0118083
754.989	0.0116870
755.068	0.0118838
755.146	0.0117818
755.224	0.0116629
755.302	0.0116563
755.380	0.0116435
755.458	0.0117747
755.536	0.0115982
755.614	0.0117781
755.693	0.0117433
755.771	0.0117243
755.849	0.0116791
755.927	0.0117405
756.005	0.0117244
756.083	0.0114929
756.161	0.0117460
756.239	0.0117247
756.318	0.0117892
756.396	0.0118358
756.474	0.0116909
756.552	0.0116472
756.630	0.0117554
756.708	0.0118095
756.786	0.0117464
756.864	0.0117863
756.943	0.0118855
757.021	0.0118347
757.099	0.0117790
757.177	0.0117979
757.255	0.0119230
757.333	0.0119252
757.411	0.0118581
757.489	0.0117747
757.568	0.0118861
757.646	0.0116038
757.724	0.0118134
757.802	0.0117654
757.880	0.0116626
757.958	0.0117471
758.036	0.0116847
758.114	0.0118625
758.193	0.0117210
758.271	0.0115678
758.349	0.0116515
758.427	0.0116430
758.505	0.0117257
758.583	0.0115558
758.661	0.0115664
758.739	0.0115920
758.818	0.0115622
758.896	0.0116971
758.974	0.0114914
759.052	0.0116920
759.130	0.0118040
759.208	0.0116981
759.286	0.0116227
759.364	0.0118566
759.443	0.0116772
759.521	0.0115721
759.599	0.0118407
759.677	0.0119173
759.755	0.0118788
759.833	0.0119101
759.911	0.0119044
759.989	0.0118143
760.068	0.0118653
760.146	0.0119038
760.224	0.0118848
760.302	0.0118692
760.380	0.0118402
760.458	0.0117941
760.536	0.0118725
760.614	0.0117478
760.693	0.0116281
760.771	0.0118251
760.849	0.0118130
760.927	0.0116941
761.005	0.0115852
761.083	0.0116770
761.161	0.0116467
761.239	0.0114819
761.318	0.0116533
761.396	0.0116259
761.474	0.0114938
761.552	0.0116306
761.630	0.0116337
761.708	0.0115308
761.786	0.0114881
761.864	0.0115838
761.943	0.0116600
762.021	0.0114953
762.099	0.0116001
762.177	0.0116205
762.255	0.0116534
762.333	0.0117066
762.411	0.0115980
762.489	0.0116464
762.568	0.0118180
762.646	0.0117416
762.724	0.0116173
762.802	0.0116333
762.880	0.0118726
762.958	0.0116592
763.036	0.0116737
763.114	0.0117281
763.193	0.0118536
763.271	0.0116784
763.349	0.0118225
763.427	0.0117280
763.505	0.0116977
763.583	0.0117057
763.661	0.0117507
763.739	0.0117506
763.818	0.0117700
763.896	0.0115717
763.974	0.0116476
764.052	0.0117831
764.130	0.0115603
764.208	0.0116971
764.286	0.0117215
764.364	0.0115627
764.443	0.0118154
764.521	0.0118398
764.599	0.0116983
764.677	0.0116981
764.755	0.0116241
764.833	0.0117027
764.911	0.0117141
764.989	0.0116569
765.068	0.0117490
765.146	0.0118150
765.224	0.0118677
765.302	0.0118058
765.380	0.0117992
765.458	0.0117390
765.536	0.0118028
765.614	0.0118154
765.693	0.0118484
765.771	0.0119144
765.849	0.0118523
765.927	0.0117651
766.005	0.0118164
766.083	0.0119083
766.161	0.0118839
766.239	0.0118725
766.318	0.0118946
766.396	0.0117332
766.474	0.0118566
766.552	0.0118466
766.630	0.0119712
766.708	0.0118211
766.786	0.0117596
766.864	0.0120432
766.943	0.0120122
767.021	0.0118394
767.099	0.0118081
767.177	0.0117924
767.255	0.0118798
767.333	0.0117867
767.411	0.0116384
767.489	0.0117987
767.568	0.0118518
767.646	0.0118481
767.724	0.0115989
767.802	0.0117410
767.880	0.0117503
767.958	0.0115131
768.036	0.0116827
768.114	0.0117523
768.193	0.0116841
768.271	0.0114542
768.349	0.0116078
768.427	0.0117433
768.505	0.0114929
768.583	0.0115479
768.661	0.0117376
768.739	0.0115736
768.818	0.0115533
768.896	0.0115293
768.974	0.0115350
769.052	0.0117492
769.130	0.0115622
769.208	0.0116325
769.286	0.0116621
769.364	0.0116981
769.443	0.0115620
769.521	0.0117011
769.599	0.0117051
769.677	0.0117385
769.755	0.0117383
769.833	0.0117633
769.911	0.0118214
769.989	0.0116703
770.068	0.0118602
770.146	0.0117850
770.224	0.0118267
770.302	0.0117773
770.380	0.0117799
770.458	0.0119109
770.536	0.0120338
770.614	0.0118236
770.693	0.0117475
770.771	0.0116213
770.849	0.0117224
770.927	0.0119564
771.005	0.0117745
771.083	0.0119148
771.161	0.0117152
771.239	0.0116922
771.318	0.0116572
771.396	0.0115331
771.474	0.0116659
771.552	0.0115932
771.630	0.0116367
771.708	0.0117183
771.786	0.0116158
771.864	0.0114580
771.943	0.0115052
772.021	0.0115594
772.099	0.0115640
772.177	0.0115118
772.255	0.0114339
772.333	0.0115243
772.411	0.0117066
772.489	0.0114934
772.568	0.0115870
772.646	0.0116194
772.724	0.0114652
772.802	0.0115698
772.880	0.0117313
772.958	0.0116000
773.036	0.0115514
773.114	0.0117146
773.193	0.0116442
773.271	0.0116376
773.349	0.0116125
773.427	0.0116480
773.505	0.0116438
773.583	0.0118045
773.661	0.0116405
773.739	0.0116566
773.818	0.0116846
773.896	0.0118244
773.974	0.0116779
774.052	0.0116820
774.130	0.0117205
774.208	0.0117641
774.286	0.0117338
774.364	0.0117767
774.443	0.0117857
774.521	0.0118132
774.599	0.0117183
774.677	0.0118705
774.755	0.0118201
774.833	0.0117352
774.911	0.0119267
774.989	0.0119656
775.068	0.0117320
775.146	0.0116909
775.224	0.0118715
775.302	0.0118400
775.380	0.0118125
775.458	0.0118956
775.536	0.0118377
775.614	0.0117406
775.693	0.0117536
775.771	0.0119212
775.849	0.0117592
775.927	0.0118697
776.005	0.0118965
776.083	0.0120026
776.161	0.0118182
776.239	0.0118507
776.318	0.0118849
776.396	0.0118037
776.474	0.0118547
776.552	0.0119547
776.630	0.0117861
776.708	0.0117874
776.786	0.0116548
776.864	0.0116086
776.943	0.0117724
777.021	0.0117711
777.099	0.0117421
777.177	0.0117046
777.255	0.0117822
777.333	0.0116175
777.411	0.0116904
777.489	0.0117099
777.568	0.0116030
777.646	0.0117424
777.724	0.0117183
777.802	0.0116523
777.880	0.0117776
777.958	0.0117045
778.036	0.0116445
778.114	0.0117297
778.193	0.0116328
778.271	0.0117003
778.349	0.0118277
778.427	0.0117176
778.505	0.0116773
778.583	0.0118938
778.661	0.0116919
778.739	0.0117302
778.818	0.0117364
778.896	0.0117265
778.974	0.0117168
779.052	0.0118496
779.130	0.0118672
779.208	0.0118675
779.286	0.0117778
779.364	0.0117796
779.443	0.0118561
779.521	0.0117889
779.599	0.0117705
779.677	0.0118190
779.755	0.0118055
779.833	0.0119476
779.911	0.0118079
779.989	0.0118370
780.068	0.0117895
780.146	0.0117036
780.224	0.0118171
780.302	0.0117181
780.380	0.0117032
780.458	0.0117270
780.536	0.0118167
780.614	0.0118566
780.693	0.0117951
780.771	0.0116733
780.849	0.0117423
780.927	0.0117403
781.005	0.0117466
781.083	0.0117939
781.161	0.0117834
781.239	0.0116725
781.318	0.0116956
781.396	0.0117413
781.474	0.0117608
781.552	0.0117819
781.630	0.0117897
781.708	0.0117551
781.786	0.0117615
781.864	0.0117795
781.943	0.0117687
782.021	0.0117492
782.099	0.0114688
782.177	0.0116929
782.255	0.0116985
782.333	0.0117583
782.411	0.0116135
782.489	0.0115862
782.568	0.0116243
782.646	0.0116981
782.724	0.0116776
782.802	0.0115087
782.880	0.0114730
782.958	0.0115754
783.036	0.0115388
783.114	0.0115144
783.193	0.0115446
783.271	0.0115914
783.349	0.0115465
783.427	0.0115881
783.505	0.0116079
783.583	0.0116605
783.661	0.0117046
783.739	0.0116064
783.818	0.0115507
783.896	0.0116853
783.974	0.0116950
784.052	0.0117776
784.130	0.0117712
784.208	0.0117621
784.286	0.0117712
784.364	0.0118901
784.443	0.0117567
784.521	0.0116921
784.599	0.0117088
784.677	0.0119546
784.755	0.0118510
784.833	0.0118671
784.911	0.0117492
784.989	0.0118001
785.068	0.0118648
785.146	0.0117812
785.224	0.0116833
785.302	0.0117307
785.380	0.0118376
785.458	0.0117899
785.536	0.0118489
785.614	0.0116740
785.693	0.0117802
785.771	0.0119029
785.849	0.0117767
785.927	0.0117055
786.005	0.0116193
786.083	0.0115262
786.161	0.0117133
786.239	0.0116887
786.318	0.0116538
786.396	0.0116694
786.474	0.0116564
786.552	0.0116115
786.630	0.0115640
786.708	0.0115168
786.786	0.0116461
786.864	0.0116887
786.943	0.0116766
787.021	0.0116874
787.099	0.0116605
787.177	0.0115837
787.255	0.0116405
787.333	0.0115850
787.411	0.0117590
787.489	0.0116172
787.568	0.0117251
787.646	0.0116597
787.724	0.0117049
787.802	0.0116730
787.880	0.0116965
787.958	0.0117465
788.036	0.0117889
788.114	0.0117020
788.193	0.0115832
788.271	0.0116585
788.349	0.0118147
788.427	0.0116290
788.505	0.0115078
788.583	0.0115327
788.661	0.0117302
788.739	0.0116261
788.818	0.0116367
788.896	0.0116691
788.974	0.0115310
789.052	0.0117518
789.130	0.0116727
789.208	0.0116595
789.286	0.0117876
789.364	0.0116657
789.443	0.0116425
789.521	0.0117178
789.599	0.0118103
789.677	0.0117686
789.755	0.0117773
789.833	0.0118182
789.911	0.0115796
789.989	0.0117226
790.068	0.0117484
790.146	0.0116660
790.224	0.0117996
790.302	0.0117532
790.380	0.0117772
790.458	0.0117127
790.536	0.0116734
790.614	0.0117580
790.693	0.0115371
790.771	0.0115825
790.849	0.0116186
790.927	0.0116167
791.005	0.0116930
791.083	0.0116030
791.161	0.0118257
791.239	0.0117472
791.318	0.0115925
791.396	0.0116090
791.474	0.0116085
791.552	0.0115846
791.630	0.0117767
791.708	0.0116184
791.786	0.0116081
791.864	0.0116260
791.943	0.0116501
792.021	0.0116145
792.099	0.0116705
792.177	0.0116610
792.255	0.0116671
792.333	0.0116658
792.411	0.0115651
792.489	0.0115928
792.568	0.0116157
792.646	0.0116557
792.724	0.0116493
792.802	0.0116447
792.880	0.0115897
792.958	0.0116051
793.036	0.0115840
793.114	0.0115800
793.193	0.0114727
793.271	0.0118327
793.349	0.0117437
793.427	0.0115914
793.505	0.0116005
793.583	0.0115782
793.661	0.0116167
793.739	0.0117438
793.818	0.0117727
793.896	0.0118871
793.974	0.0116652
794.052	0.0116063
794.130	0.0116174
794.208	0.0117412
794.286	0.0118405
794.364	0.0116628
794.443	0.0117663
794.521	0.0116948
794.599	0.0116901
794.677	0.0118413
794.755	0.0116950
794.833	0.0117013
794.911	0.0117371
794.989	0.0116811
795.068	0.0116930
795.146	0.0116973
795.224	0.0117617
795.302	0.0116659
795.380	0.0117156
795.458	0.0118059
795.536	0.0116480
795.614	0.0116119
795.693	0.0117281
795.771	0.0117461
795.849	0.0117857
795.927	0.0117788
796.005	0.0118230
796.083	0.0118051
796.161	0.0115966
796.239	0.0117075
796.318	0.0116534
796.396	0.0117685
796.474	0.0117834
796.552	0.0117975
796.630	0.0116678
796.708	0.0118029
796.786	0.0117573
796.864	0.0118776
796.943	0.0117061
797.021	0.0119788
797.099	0.0118050
797.177	0.0118741
797.255	0.0117749
797.333	0.0118613
797.411	0.0118506
797.489	0.0117598
797.568	0.0118982
797.646	0.0118907
797.724	0.0117529
797.802	0.0119312
797.880	0.0117109
797.958	0.0118722
798.036	0.0118842
798.114	0.0118117
798.193	0.0119721
798.271	0.0119195
798.349	0.0117657
798.427	0.0117748
798.505	0.0118487
798.583	0.0118578
798.661	0.0118213
798.739	0.0117435
798.818	0.0117120
798.896	0.0117972
798.974	0.0116242
799.052	0.0117214
799.130	0.0116895
799.208	0.0116884
799.286	0.0117122
799.364	0.0117400
799.443	0.0116107
799.521	0.0115250
799.599	0.0116724
799.677	0.0116620
799.755	0.0116991
799.833	0.0116572
799.911	0.0116224
799.989	0.0114902
800.068	0.0115090
800.146	0.0116857
800.224	0.0117628
800.302	0.0118137
800.380	0.0117754
800.458	0.0118535
800.536	0.0118188
800.614	0.0119124
800.693	0.0117670
800.771	0.0118171
800.849	0.0119550
800.927	0.0117364
801.005	0.0118707
801.083	0.0118584
801.161	0.0117638
801.239	0.0118685
801.318	0.0119632
801.396	0.0118100
801.474	0.0117615
801.552	0.0116690
801.630	0.0116662
801.708	0.0116106
801.786	0.0116828
801.864	0.0118221
801.943	0.0116397
802.021	0.0115655
802.099	0.0115807
802.177	0.0115579
802.255	0.0115524
802.333	0.0114565
802.411	0.0114468
802.489	0.0116994
802.568	0.0116409
802.646	0.0116796
802.724	0.0116834
802.802	0.0117154
802.880	0.0116241
802.958	0.0116708
803.036	0.0117807
803.114	0.0116753
803.193	0.0115820
803.271	0.0116492
803.349	0.0117973
803.427	0.0117564
803.505	0.0117505
803.583	0.0118888
803.661	0.0117202
803.739	0.0116388
803.818	0.0117200
803.896	0.0116694
803.974	0.0117247
804.052	0.0117138
804.130	0.0117297
804.208	0.0118018
804.286	0.0119057
804.364	0.0118492
804.443	0.0118777
804.521	0.0117244
804.599	0.0117127
804.677	0.0116734
804.755	0.0117504
804.833	0.0117421
804.911	0.0118406
804.989	0.0118160
805.068	0.0118486
805.146	0.0117912
805.224	0.0117200
805.302	0.0117657
805.380	0.0118718
805.458	0.0118899
805.536	0.0118628
805.614	0.0117754
805.693	0.0117464
805.771	0.0116734
805.849	0.0116717
805.927	0.0117422
806.005	0.0118105
806.083	0.0116807
806.161	0.0117539
806.239	0.0114909
806.318	0.0115893
806.396	0.0116460
806.474	0.0114845
806.552	0.0115861
806.630	0.0116068
806.708	0.0116325
806.786	0.0116190
806.864	0.0115191
806.943	0.0114680
807.021	0.0115626
807.099	0.0116350
807.177	0.0115124
807.255	0.0114793
807.333	0.0115997
807.411	0.0116196
807.489	0.0115052
807.568	0.0115458
807.646	0.0115017
807.724	0.0117684
807.802	0.0115569
807.880	0.0115771
807.958	0.0115453
808.036	0.0116316
808.114	0.0116619
808.193	0.0115539
808.271	0.0115748
808.349	0.0115385
808.427	0.0117410
808.505	0.0116218
808.583	0.0116492
808.661	0.0117881
808.739	0.0118130
808.818	0.0117169
808.896	0.0118050
808.974	0.0118439
809.052	0.0115637
809.130	0.0117478
809.208	0.0118788
809.286	0.0118029
809.364	0.0118019
809.443	0.0119484
809.521	0.0118325
809.599	0.0118762
809.677	0.0118799
809.755	0.0118770
809.833	0.0117317
809.911	0.0117567
809.989	0.0119119
810.068	0.0118840
810.146	0.0116432
810.224	0.0118151
810.302	0.0117218
810.380	0.0117561
810.458	0.0116692
810.536	0.0116578
810.614	0.0117885
810.693	0.0115908
810.771	0.0116265
810.849	0.0117243
810.927	0.0115867
811.005	0.0117032
811.083	0.0116930
811.161	0.0116261
811.239	0.0117442
811.318	0.0114917
811.396	0.0116295
811.474	0.0115208
811.552	0.0116778
811.630	0.0117662
811.708	0.0116839
811.786	0.0116129
811.864	0.0116713
811.943	0.0115933
812.021	0.0116761
812.099	0.0116048
812.177	0.0116455
812.255	0.0116422
812.333	0.0115690
812.411	0.0116847
812.489	0.0117728
812.568	0.0116610
812.646	0.0116205
812.724	0.0117107
812.802	0.0116307
812.880	0.0116454
812.958	0.0116669
813.036	0.0115153
813.114	0.0117238
813.193	0.0116173
813.271	0.0116027
813.349	0.0116982
813.427	0.0117499
813.505	0.0116808
813.583	0.0118664
813.661	0.0117582
813.739	0.0116680
813.818	0.0117139
813.896	0.0117223
813.974	0.0117588
814.052	0.0117749
814.130	0.0117243
814.208	0.0117532
814.286	0.0117895
814.364	0.0117840
814.443	0.0118040
814.521	0.0116685
814.599	0.0117132
814.677	0.0117601
814.755	0.0116817
814.833	0.0116275
814.911	0.0117094
814.989	0.0116935
815.068	0.0117282
815.146	0.0114823
815.224	0.0115970
815.302	0.0116758
815.380	0.0116422
815.458	0.0115533
815.536	0.0116464
815.614	0.0116582
815.693	0.0117975
815.771	0.0116163
815.849	0.0114894
815.927	0.0116737
816.005	0.0116853
816.083	0.0116824
816.161	0.0115490
816.239	0.0116068
816.318	0.0116074
816.396	0.0116203
816.474	0.0115530
816.552	0.0117469
816.630	0.0117628
816.708	0.0116635
816.786	0.0117226
816.864	0.0115647
816.943	0.0116626
817.021	0.0115487
817.099	0.0117319
817.177	0.0117334
817.255	0.0117118
817.333	0.0115925
817.411	0.0116746
817.489	0.0116782
817.568	0.0116724
817.646	0.0116214
817.724	0.0116609
817.802	0.0117258
817.880	0.0116782
817.958	0.0117301
818.036	0.0116776
818.114	0.0117658
818.193	0.0117134
818.271	0.0117189
818.349	0.0118142
818.427	0.0117440
818.505	0.0116948
818.583	0.0117834
818.661	0.0116594
818.739	0.0115520
818.818	0.0115855
818.896	0.0117318
818.974	0.0117299
819.052	0.0117763
819.130	0.0116881
819.208	0.0115895
819.286	0.0117159
819.364	0.0115238
819.443	0.0115073
819.521	0.0116174
819.599	0.0115811
819.677	0.0116851
819.755	0.0117026
819.833	0.0116291
819.911	0.0116808
819.989	0.0115817
820.068	0.0116310
820.146	0.0116006
820.224	0.0116875
820.302	0.0116633
820.380	0.0117479
820.458	0.0115784
820.536	0.0118388
820.614	0.0116785
820.693	0.0118173
820.771	0.0118649
820.849	0.0118951
820.927	0.0117298
821.005	0.0118082
821.083	0.0119486
821.161	0.0117657
821.239	0.0118501
821.318	0.0119909
821.396	0.0119947
821.474	0.0119121
821.552	0.0118349
821.630	0.0118391
821.708	0.0119530
821.786	0.0117879
821.864	0.0118787
821.943	0.0119713
822.021	0.0119018
822.099	0.0119250
822.177	0.0117262
822.255	0.0116712
822.333	0.0116673
822.411	0.0115972
822.489	0.0116877
822.568	0.0116409
822.646	0.0116435
822.724	0.0116890
822.802	0.0115848
822.880	0.0115996
822.958	0.0116702
823.036	0.0116371
823.114	0.0115588
823.193	0.0116290
823.271	0.0114803
823.349	0.0114385
823.427	0.0116022
823.505	0.0116325
823.583	0.0116177
823.661	0.0114434
823.739	0.0116185
823.818	0.0114590
823.896	0.0114204
823.974	0.0115021
824.052	0.0115632
824.130	0.0115646
824.208	0.0114058
824.286	0.0115038
824.364	0.0115704
824.443	0.0114586
824.521	0.0114713
824.599	0.0115667
824.677	0.0116444
824.755	0.0115684
824.833	0.0116697
824.911	0.0116341
824.989	0.0116613
825.068	0.0116527
825.146	0.0115477
825.224	0.0117287
825.302	0.0118237
825.380	0.0120202
825.458	0.0118346
825.536	0.0118082
825.614	0.0118169
825.693	0.0118609
825.771	0.0119067
825.849	0.0118955
825.927	0.0118059
826.005	0.0117015
826.083	0.0118326
826.161	0.0119770
826.239	0.0118439
826.318	0.0116512
826.396	0.0118110
826.474	0.0118767
826.552	0.0117987
826.630	0.0118154
826.708	0.0118900
826.786	0.0117692
826.864	0.0116654
826.943	0.0117413
827.021	0.0118809
827.099	0.0116669
827.177	0.0117660
827.255	0.0117395
827.333	0.0117427
827.411	0.0116475
827.489	0.0116361
827.568	0.0116047
827.646	0.0117206
827.724	0.0116382
827.802	0.0115045
827.880	0.0115752
827.958	0.0116016
828.036	0.0115154
828.114	0.0115424
828.193	0.0116771
828.271	0.0115237
828.349	0.0115355
828.427	0.0115497
828.505	0.0114621
828.583	0.0115873
828.661	0.0114435
828.739	0.0115619
828.818	0.0114350
828.896	0.0114643
828.974	0.0116123
829.052	0.0116850
829.130	0.0115936
829.208	0.0116502
829.286	0.0116640
829.364	0.0116441
829.443	0.0115685
829.521	0.0115962
829.599	0.0115192
829.677	0.0117049
829.755	0.0116642
829.833	0.0116660
829.911	0.0117528
829.989	0.0117719
830.068	0.0116354
830.146	0.0116359
830.224	0.0118629
830.302	0.0117498
830.380	0.0117854
830.458	0.0116964
830.536	0.0116855
830.614	0.0117946
830.693	0.0118987
830.771	0.0118302
830.849	0.0117813
830.927	0.0118439
831.005	0.0118523
831.083	0.0118103
831.161	0.0119508
831.239	0.0120491
831.318	0.0118459
831.396	0.0119423
831.474	0.0118373
831.552	0.0119129
831.630	0.0119961
831.708	0.0118852
831.786	0.0119687
831.864	0.0119372
831.943	0.0119225
832.021	0.0117548
832.099	0.0118201
832.177	0.0117457
832.255	0.0117208
832.333	0.0118049
832.411	0.0117498
832.489	0.0117368
832.568	0.0117710
832.646	0.0114863
832.724	0.0115496
832.802	0.0115229
832.880	0.0114954
832.958	0.0115057
833.036	0.0115540
833.114	0.0113954
833.193	0.0113477
833.271	0.0114274
833.349	0.0113807
833.427	0.0112492
833.505	0.0113923
833.583	0.0112905
833.661	0.0112671
833.739	0.0113910
833.818	0.0113833
833.896	0.0112708
833.974	0.0113995
834.052	0.0114130
834.130	0.0113277
834.208	0.0114476
834.286	0.0114640
834.364	0.0113982
834.443	0.0113818
834.521	0.0114491
834.599	0.0115387
834.677	0.0115677
834.755	0.0115810
834.833	0.0115674
834.911	0.0117089
834.989	0.0118162
835.068	0.0116901
835.146	0.0116718
835.224	0.0119020
835.302	0.0118744
835.380	0.0120306
835.458	0.0119679
835.536	0.0120111
835.614	0.0120598
835.693	0.0121041
835.771	0.0120199
835.849	0.0121929
835.927	0.0120497
836.005	0.0121252
836.083	0.0121320
836.161	0.0120295
836.239	0.0121008
836.318	0.0121654
836.396	0.0121217
836.474	0.0122090
836.552	0.0121565
836.630	0.0121016
836.708	0.0120521
836.786	0.0120493
836.864	0.0118728
836.943	0.0120403
837.021	0.0120055
837.099	0.0117741
837.177	0.0119202
837.255	0.0119181
837.333	0.0116525
837.411	0.0116792
837.489	0.0117021
837.568	0.0115387
837.646	0.0116112
837.724	0.0114997
837.802	0.0116321
837.880	0.0114381
837.958	0.0114951
838.036	0.0115249
838.114	0.0113888
838.193	0.0113904
838.271	0.0115130
838.349	0.0114149
838.427	0.0114331
838.505	0.0113219
838.583	0.0113617
838.661	0.0115237
838.739	0.0114292
838.818	0.0114622
838.896	0.0114454
838.974	0.0115688
839.052	0.0115209
839.130	0.0116260
839.208	0.0115174
839.286	0.0116335
839.364	0.0115156
839.443	0.0116595
839.521	0.0118178
839.599	0.0117229
839.677	0.0116997
839.755	0.0117628
839.833	0.0117941
839.911	0.0118166
839.989	0.0119772
840.068	0.0118906
840.146	0.0119900
840.224	0.0119265
840.302	0.0120136
840.380	0.0120565
840.458	0.0120447
840.536	0.0120210
840.614	0.0121484
840.693	0.0121075
840.771	0.0120798
840.849	0.0119980
840.927	0.0119487
841.005	0.0121105
841.083	0.0121474
841.161	0.0120828
841.239	0.0121336
841.318	0.0119264
841.396	0.0120495
841.474	0.0118753
841.552	0.0118883
841.630	0.0118550
841.708	0.0119676
841.786	0.0120012
841.864	0.0119157
841.943	0.0118616
842.021	0.0117273
842.099	0.0118835
842.177	0.0116833
842.255	0.0117060
842.333	0.0117303
842.411	0.0116937
842.489	0.0116724
842.568	0.0116377
842.646	0.0116609
842.724	0.0116519
842.802	0.0115389
842.880	0.0115909
842.958	0.0116312
843.036	0.0117463
843.114	0.0115790
843.193	0.0115692
843.271	0.0116495
843.349	0.0115003
843.427	0.0115739
843.505	0.0116385
843.583	0.0117638
843.661	0.0116150
843.739	0.0115273
843.818	0.0115955
843.896	0.0116882
843.974	0.0115784
844.052	0.0117111
844.130	0.0116168
844.208	0.0116923
844.286	0.0115382
844.364	0.0116707
844.443	0.0117657
844.521	0.0115750
844.599	0.0116884
844.677	0.0116319
844.755	0.0117250
844.833	0.0116735
844.911	0.0117741
844.989	0.0117940
845.068	0.0116171
845.146	0.0117576
845.224	0.0117473
845.302	0.0117653
845.380	0.0117523
845.458	0.0119282
845.536	0.0118784
845.614	0.0120637
845.693	0.0118414
845.771	0.0118524
845.849	0.0118626
845.927	0.0119373
846.005	0.0120338
846.083	0.0120689
846.161	0.0120277
846.239	0.0120065
846.318	0.0118864
846.396	0.0119524
846.474	0.0118758
846.552	0.0119051
846.630	0.0120136
846.708	0.0119446
846.786	0.0118838
846.864	0.0119084
846.943	0.0118467
847.021	0.0117477
847.099	0.0116778
847.177	0.0117670
847.255	0.0117506
847.333	0.0117316
847.411	0.0117329
847.489	0.0117126
847.568	0.0116905
847.646	0.0116788
847.724	0.0116241
847.802	0.0115993
847.880	0.0115240
847.958	0.0115400
848.036	0.0115354
848.114	0.0115991
848.193	0.0115152
848.271	0.0115069
848.349	0.0114108
848.427	0.0114906
848.505	0.0115812
848.583	0.0115684
848.661	0.0114427
848.739	0.0114895
848.818	0.0115800
848.896	0.0115617
848.974	0.0114707
849.052	0.0116573
849.130	0.0115871
849.208	0.0115368
849.286	0.0115509
849.364	0.0116294
849.443	0.0115290
849.521	0.0116200
849.599	0.0118452
849.677	0.0117490
849.755	0.0117009
849.833	0.0116298
849.911	0.0117580
849.989	0.0116999
850.068	0.0117473
850.146	0.0116583
850.224	0.0117449
850.302	0.0117921
850.380	0.0117094
850.458	0.0116940
850.536	0.0117194
850.614	0.0118233
850.693	0.0118164
850.771	0.0117524
850.849	0.0117054
850.927	0.0116919
851.005	0.0117751
851.083	0.0117640
851.161	0.0118435
851.239	0.0117531
851.318	0.0116138
851.396	0.0115664
851.474	0.0117651
851.552	0.0116468
851.630	0.0116335
851.708	0.0115972
851.786	0.0117391
851.864	0.0116480
851.943	0.0117155
852.021	0.0118047
852.099	0.0117896
852.177	0.0117625
852.255	0.0115453
852.333	0.0115783
852.411	0.0117743
852.489	0.0117786
852.568	0.0117213
852.646	0.0117000
852.724	0.0116889
852.802	0.0117089
852.880	0.0117506
852.958	0.0118245
853.036	0.0115836
853.114	0.0117499
853.193	0.0119125
853.271	0.0117375
853.349	0.0117077
853.427	0.0116556
853.505	0.0117732
853.583	0.0119742
853.661	0.0117832
853.739	0.0118872
853.818	0.0119778
853.896	0.0120538
853.974	0.0118527
854.052	0.0119449
854.130	0.0118008
854.208	0.0117392
854.286	0.0117578
854.364	0.0118732
854.443	0.0117870
854.521	0.0118624
854.599	0.0117850
854.677	0.0118502
854.755	0.0117452
854.833	0.0118113
854.911	0.0117506
854.989	0.0116079
855.068	0.0116167
855.146	0.0117413
855.224	0.0116705
855.302	0.0116143
855.380	0.0115251
855.458	0.0115403
855.536	0.0117583
855.614	0.0115978
855.693	0.0116285
855.771	0.0116006
855.849	0.0114993
855.927	0.0116525
856.005	0.0115965
856.083	0.0115825
856.161	0.0115343
856.239	0.0115904
856.318	0.0115150
856.396	0.0117328
856.474	0.0115652
856.552	0.0115498
856.630	0.0115818
856.708	0.0116891
856.786	0.0116206
856.864	0.0115148
856.943	0.0116167
857.021	0.0117580
857.099	0.0117674
857.177	0.0117809
857.255	0.0118247
857.333	0.0118663
857.411	0.0118662
857.489	0.0116949
857.568	0.0118330
857.646	0.0118397
857.724	0.0118862
857.802	0.0119405
857.880	0.0118497
857.958	0.0119605
858.036	0.0118246
858.114	0.0118015
858.193	0.0118250
858.271	0.0119078
858.349	0.0120161
858.427	0.0119160
858.505	0.0119527
858.583	0.0118457
858.661	0.0117947
858.739	0.0117475
858.818	0.0118221
858.896	0.0116669
858.974	0.0117714
859.052	0.0117249
859.130	0.0117413
859.208	0.0117928
859.286	0.0117887
859.364	0.0117439
859.443	0.0116315
859.521	0.0116264
859.599	0.0115816
859.677	0.0116293
859.755	0.0116190
859.833	0.0116611
859.911	0.0115969
859.989	0.0116044
860.068	0.0117515
860.146	0.0117865
860.224	0.0116218
860.302	0.0115444
860.380	0.0116755
860.458	0.0115150
860.536	0.0116669
860.614	0.0116366
860.693	0.0114495
860.771	0.0115599
860.849	0.0116230
860.927	0.0116978
861.005	0.0117046
861.083	0.0115929
861.161	0.0116294
861.239	0.0115593
861.318	0.0117751
861.396	0.0116453
861.474	0.0116952
861.552	0.0118492
861.630	0.0117595
861.708	0.0116837
861.786	0.0118019
861.864	0.0118321
861.943	0.0118269
862.021	0.0118042
862.099	0.0118436
862.177	0.0117789
862.255	0.0117731
862.333	0.0120136
862.411	0.0118922
862.489	0.0116848
862.568	0.0118449
862.646	0.0121189
862.724	0.0118826
862.802	0.0118701
862.880	0.0119294
862.958	0.0118884
863.036	0.0116991
863.114	0.0117361
863.193	0.0117549
863.271	0.0119313
863.349	0.0117446
863.427	0.0117595
863.505	0.0118392
863.583	0.0117696
863.661	0.0117466
863.739	0.0118502
863.818	0.0118173
863.896	0.0116888
863.974	0.0117726
864.052	0.0117106
864.130	0.0117116
864.208	0.0116360
864.286	0.0117596
864.364	0.0117074
864.443	0.0117845
864.521	0.0116981
864.599	0.0117860
864.677	0.0117017
864.755	0.0117808
864.833	0.0116834
864.911	0.0117429
864.989	0.0117097
865.068	0.0117451
865.146	0.0118267
865.224	0.0118649
865.302	0.0117086
865.380	0.0117316
865.458	0.0118113
865.536	0.0118427
865.614	0.0118505
865.693	0.0118914
865.771	0.0118584
865.849	0.0117072
865.927	0.0118420
866.005	0.0119588
866.083	0.0119293
866.161	0.0119923
866.239	0.0119338
866.318	0.0120551
866.396	0.0118670
866.474	0.0120187
866.552	0.0119643
866.630	0.0119985
866.708	0.0119033
866.786	0.0120048
866.864	0.0118811
866.943	0.0118446
867.021	0.0119878
867.099	0.0119365
867.177	0.0119006
867.255	0.0119300
867.333	0.0119361
867.411	0.0119227
867.489	0.0117290
867.568	0.0117754
867.646	0.0118456
867.724	0.0117280
867.802	0.0118694
867.880	0.0116701
867.958	0.0117241
868.036	0.0116793
868.114	0.0117226
868.193	0.0116778
868.271	0.0116245
868.349	0.0116362
868.427	0.0116486
868.505	0.0115440
868.583	0.0115838
868.661	0.0114214
868.739	0.0114700
868.818	0.0115722
868.896	0.0115649
868.974	0.0115358
869.052	0.0114790
869.130	0.0114862
869.208	0.0115562
869.286	0.0115739
869.364	0.0115247
869.443	0.0115309
869.521	0.0115664
869.599	0.0115195
869.677	0.0115215
869.755	0.0115965
869.833	0.0115907
869.911	0.0116320
869.989	0.0117516
870.068	0.0116883
870.146	0.0116911
870.224	0.0117242
870.302	0.0117725
870.380	0.0117547
870.458	0.0118606
870.536	0.0118175
870.614	0.0117232
870.693	0.0116824
870.771	0.0117989
870.849	0.0117868
870.927	0.0118864
871.005	0.0117189
871.083	0.0118663
871.161	0.0118494
871.239	0.0117845
871.318	0.0118136
871.396	0.0119038
871.474	0.0118067
871.552	0.0118017
871.630	0.0117968
871.708	0.0116947
871.786	0.0116734
871.864	0.0116325
871.943	0.0117867
872.021	0.0118427
872.099	0.0118220
872.177	0.0116920
872.255	0.0115235
872.333	0.0117948
872.411	0.0117125
872.489	0.0117598
872.568	0.0118465
872.646	0.0118686
872.724	0.0115802
872.802	0.0117174
872.880	0.0117050
872.958	0.0116196
873.036	0.0117020
873.114	0.0117410
873.193	0.0117050
873.271	0.0117207
873.349	0.0117870
873.427	0.0116064
873.505	0.0116475
873.583	0.0115935
873.661	0.0116750
873.739	0.0114555
873.818	0.0115993
873.896	0.0114861
873.974	0.0116275
874.052	0.0115237
874.130	0.0114211
874.208	0.0116036
874.286	0.0115033
874.364	0.0115843
874.443	0.0115398
874.521	0.0114550
874.599	0.0114824
874.677	0.0114504
874.755	0.0114462
874.833	0.0113334
874.911	0.0115405
874.989	0.0115728
875.068	0.0114861
875.146	0.0115686
875.224	0.0115572
875.302	0.0115035
875.380	0.0115903
875.458	0.0116834
875.536	0.0116893
875.614	0.0116833
875.693	0.0116856
875.771	0.0116739
875.849	0.0117695
875.927	0.0117108
876.005	0.0116606
876.083	0.0116990
876.161	0.0117664
876.239	0.0117703
876.318	0.0116239
876.396	0.0118638
876.474	0.0117970
876.552	0.0117117
876.630	0.0118839
876.708	0.0120438
876.786	0.0118178
876.864	0.0118578
876.943	0.0118383
877.021	0.0116801
877.099	0.0119682
877.177	0.0119102
877.255	0.0118581
877.333	0.0118273
877.411	0.0119051
877.489	0.0119611
877.568	0.0117883
877.646	0.0116808
877.724	0.0118892
877.802	0.0119787
877.880	0.0118393
877.958	0.0118698
878.036	0.0119863
878.114	0.0118022
878.193	0.0118364
878.271	0.0119418
878.349	0.0118365
878.427	0.0118176
878.505	0.0118815
878.583	0.0118020
878.661	0.0116565
878.739	0.0117095
878.818	0.0117741
878.896	0.0116562
878.974	0.0115601
879.052	0.0114169
879.130	0.0115937
879.208	0.0115057
879.286	0.0115717
879.364	0.0115346
879.443	0.0115273
879.521	0.0114961
879.599	0.0114371
879.677	0.0113703
879.755	0.0114069
879.833	0.0112421
879.911	0.0114019
879.989	0.0113937
880.068	0.0114799
880.146	0.0114722
880.224	0.0114059
880.302	0.0112869
880.380	0.0113936
880.458	0.0115675
880.536	0.0114336
880.614	0.0113280
880.693	0.0114223
880.771	0.0113621
880.849	0.0114166
880.927	0.0114492
881.005	0.0114465
881.083	0.0114317
881.161	0.0114133
881.239	0.0115788
881.318	0.0115393
881.396	0.0116153
881.474	0.0115665
881.552	0.0117309
881.630	0.0116689
881.708	0.0116328
881.786	0.0117344
881.864	0.0117878
881.943	0.0117973
882.021	0.0118569
882.099	0.0118484
882.177	0.0117122
882.255	0.0117509
882.333	0.0117477
882.411	0.0119932
882.489	0.0118252
882.568	0.0118050
882.646	0.0119288
882.724	0.0119172
882.802	0.0119652
882.880	0.0120421
882.958	0.0119899
883.036	0.0119823
883.114	0.0118634
883.193	0.0120489
883.271	0.0119088
883.349	0.0118962
883.427	0.0118655
883.505	0.0117719
883.583	0.0119943
883.661	0.0119987
883.739	0.0118434
883.818	0.0118643
883.896	0.0117832
883.974	0.0116927
884.052	0.0117621
884.130	0.0117447
884.208	0.0117934
884.286	0.0116876
884.364	0.0117684
884.443	0.0114950
884.521	0.0116040
884.599	0.0115632
884.677	0.0116650
884.755	0.0116596
884.833	0.0114212
884.911	0.0115540
884.989	0.0114896
885.068	0.0116753
885.146	0.0115095
885.224	0.0114187
885.302	0.0113545
885.380	0.0113711
885.458	0.0114970
885.536	0.0114842
885.614	0.0115429
885.693	0.0115129
885.771	0.0115254
885.849	0.0114936
885.927	0.0115282
886.005	0.0116090
886.083	0.0114845
886.161	0.0115350
886.239	0.0114285
886.318	0.0114795
886.396	0.0115571
886.474	0.0115926
886.552	0.0115237
886.630	0.0115679
886.708	0.0115821
886.786	0.0114932
886.864	0.0115990
886.943	0.0116417
887.021	0.0116834
887.099	0.0116738
887.177	0.0116337
887.255	0.0117338
887.333	0.0118464
887.411	0.0116721
887.489	0.0117718
887.568	0.0116753
887.646	0.0118163
887.724	0.0117825
887.802	0.0117393
887.880	0.0117538
887.958	0.0117529
888.036	0.0118307
888.114	0.0118598
888.193	0.0117886
888.271	0.0118644
888.349	0.0118443
888.427	0.0118967
888.505	0.0119199
888.583	0.0117748
888.661	0.0117767
888.739	0.0118642
888.818	0.0119607
888.896	0.0120513
888.974	0.0118891
889.052	0.0120323
889.130	0.0119415
889.208	0.0119630
889.286	0.0119350
889.364	0.0117992
889.443	0.0117419
889.521	0.0117490
889.599	0.0119249
889.677	0.0119244
889.755	0.0118076
889.833	0.0118550
889.911	0.0117017
889.989	0.0118268
890.068	0.0118329
890.146	0.0118096
890.224	0.0115755
890.302	0.0116566
890.380	0.0116980
890.458	0.0116678
890.536	0.0117016
890.614	0.0115494
890.693	0.0115675
890.771	0.0116512
890.849	0.0117061
890.927	0.0114419
891.005	0.0115677
891.083	0.0116115
891.161	0.0116341
891.239	0.0116270
891.318	0.0114721
891.396	0.0117204
891.474	0.0115742
891.552	0.0116239
891.630	0.0115617
891.708	0.0115412
891.786	0.0116655
891.864	0.0115627
891.943	0.0117244
892.021	0.0116309
892.099	0.0116695
892.177	0.0116673
892.255	0.0116559
892.333	0.0116285
892.411	0.0117632
892.489	0.0116088
892.568	0.0116399
892.646	0.0117961
892.724	0.0119074
892.802	0.0117906
892.880	0.0117844
892.958	0.0118644
893.036	0.0117424
893.114	0.0118021
893.193	0.0117767
893.271	0.0118117
893.349	0.0117065
893.427	0.0118356
893.505	0.0119397
893.583	0.0118979
893.661	0.0118645
893.739	0.0118056
893.818	0.0119431
893.896	0.0117665
893.974	0.0117777
894.052	0.0116060
894.130	0.0118098
894.208	0.0117749
894.286	0.0117730
894.364	0.0116776
894.443	0.0118379
894.521	0.0117281
894.599	0.0117809
894.677	0.0118119
894.755	0.0116449
894.833	0.0116611
894.911	0.0118103
894.989	0.0115620
895.068	0.0117146
895.146	0.0117426
895.224	0.0117817
895.302	0.0117487
895.380	0.0116653
895.458	0.0118016
895.536	0.0118803
895.614	0.0117713
895.693	0.0117055
895.771	0.0117261
895.849	0.0118649
895.927	0.0117697
896.005	0.0117579
896.083	0.0115885
896.161	0.0118124
896.239	0.0118010
896.318	0.0116472
896.396	0.0116283
896.474	0.0116402
896.552	0.0115744
896.630	0.0115341
896.708	0.0117056
896.786	0.0115408
896.864	0.0116452
896.943	0.0115287
897.021	0.0114952
897.099	0.0114037
897.177	0.0115175
897.255	0.0115872
897.333	0.0114696
897.411	0.0114479
897.489	0.0114383
897.568	0.0114555
897.646	0.0115855
897.724	0.0115668
897.802	0.0113007
897.880	0.0114680
897.958	0.0115591
898.036	0.0115427
898.114	0.0115883
898.193	0.0115528
898.271	0.0116132
898.349	0.0116257
898.427	0.0115244
898.505	0.0116048
898.583	0.0116158
898.661	0.0117531
898.739	0.0116140
898.818	0.0117459
898.896	0.0116497
898.974	0.0116703
899.052	0.0116988
899.130	0.0117595
899.208	0.0116569
899.286	0.0116495
899.364	0.0117365
899.443	0.0118378
899.521	0.0116355
899.599	0.0117064
899.677	0.0116780
899.755	0.0117581
899.833	0.0116277
899.911	0.0116164
899.989	0.0117352
900.068	0.0118814
900.146	0.0116556
900.224	0.0117388
900.302	0.0116684
900.380	0.0117735
900.458	0.0118028
900.536	0.0117545
900.614	0.0117489
900.693	0.0116560
900.771	0.0118576
900.849	0.0118037
900.927	0.0117986
901.005	0.0117784
901.083	0.0117128
901.161	0.0117277
901.239	0.0118575
901.318	0.0115967
901.396	0.0115546
901.474	0.0117117
901.552	0.0117259
901.630	0.0116297
901.708	0.0116448
901.786	0.0117326
901.864	0.0117692
901.943	0.0118282
902.021	0.0116840
902.099	0.0116711
902.177	0.0118419
902.255	0.0118876
902.333	0.0116894
902.411	0.0115086
902.489	0.0116053
902.568	0.0115834
902.646	0.0115158
902.724	0.0116123
902.802	0.0117155
902.880	0.0114983
902.958	0.0115162
903.036	0.0117253
903.114	0.0116517
903.193	0.0115263
903.271	0.0116759
903.349	0.0117259
903.427	0.0116154
903.505	0.0115571
903.583	0.0116356
903.661	0.0115814
903.739	0.0114330
903.818	0.0115720
903.896	0.0115368
903.974	0.0115627
904.052	0.0116192
904.130	0.0115653
904.208	0.0115173
904.286	0.0116577
904.364	0.0116268
904.443	0.0116249
904.521	0.0115520
904.599	0.0116160
904.677	0.0116100
904.755	0.0116301
904.833	0.0116714
904.911	0.0115788
904.989	0.0117498
905.068	0.0116640
905.146	0.0116955
905.224	0.0117345
905.302	0.0117118
905.380	0.0116420
905.458	0.0116643
905.536	0.0117151
905.614	0.0117687
905.693	0.0116882
905.771	0.0118311
905.849	0.0117077
905.927	0.0117689
906.005	0.0117567
906.083	0.0115846
906.161	0.0116594
906.239	0.0118562
906.318	0.0117400
906.396	0.0118270
906.474	0.0116771
906.552	0.0117226
906.630	0.0116771
906.708	0.0116998
906.786	0.0117527
906.864	0.0116698
906.943	0.0115736
907.021	0.0116266
907.099	0.0114910
907.177	0.0115858
907.255	0.0115797
907.333	0.0115768
907.411	0.0115302
907.489	0.0114188
907.568	0.0117023
907.646	0.0116063
907.724	0.0115559
907.802	0.0116991
907.880	0.0116333
907.958	0.0116515
908.036	0.0115819
908.114	0.0115651
908.193	0.0116703
908.271	0.0117836
908.349	0.0115311
908.427	0.0115636
908.505	0.0115881
908.583	0.0116650
908.661	0.0116723
908.739	0.0115743
908.818	0.0116235
908.896	0.0117167
908.974	0.0118030
909.052	0.0118179
909.130	0.0117212
909.208	0.0117171
909.286	0.0117131
909.364	0.0118334
909.443	0.0116846
909.521	0.0116740
909.599	0.0116517
909.677	0.0117270
909.755	0.0116870
909.833	0.0117678
909.911	0.0116671
909.989	0.0116631
910.068	0.0116766
910.146	0.0115843
910.224	0.0116586
910.302	0.0116502
910.380	0.0115964
910.458	0.0116529
910.536	0.0116555
910.614	0.0115906
910.693	0.0116043
910.771	0.0115692
910.849	0.0115725
910.927	0.0116770
911.005	0.0116962
911.083	0.0118108
911.161	0.0116324
911.239	0.0115928
911.318	0.0115812
911.396	0.0116257
911.474	0.0115047
911.552	0.0116223
911.630	0.0116609
911.708	0.0117328
911.786	0.0116628
911.864	0.0117900
911.943	0.0116286
912.021	0.0117787
912.099	0.0117335
912.177	0.0116889
912.255	0.0116882
912.333	0.0116206
912.411	0.0116534
912.489	0.0117517
912.568	0.0117211
912.646	0.0117491
912.724	0.0116449
912.802	0.0117275
912.880	0.0117847
912.958	0.0116334
913.036	0.0116183
913.114	0.0119053
913.193	0.0118860
913.271	0.0117797
913.349	0.0117698
913.427	0.0117472
913.505	0.0117986
913.583	0.0117943
913.661	0.0118243
913.739	0.0118623
913.818	0.0118556
913.896	0.0118752
913.974	0.0118815
914.052	0.0118375
914.130	0.0118050
914.208	0.0119456
914.286	0.0119186
914.364	0.0117017
914.443	0.0117193
914.521	0.0118006
914.599	0.0118021
914.677	0.0118667
914.755	0.0117960
914.833	0.0118095
914.911	0.0118428
914.989	0.0117104
915.068	0.0118478
915.146	0.0118328
915.224	0.0117025
915.302	0.0119234
915.380	0.0118031
915.458	0.0118739
915.536	0.0118723
915.614	0.0117461
915.693	0.0117387
915.771	0.0117204
915.849	0.0118205
915.927	0.0118044
916.005	0.0117570
916.083	0.0117628
916.161	0.0118087
916.239	0.0117133
916.318	0.0116614
916.396	0.0117651
916.474	0.0118084
916.552	0.0118672
916.630	0.0117488
916.708	0.0116730
916.786	0.0116093
916.864	0.0118197
916.943	0.0117634
917.021	0.0116860
917.099	0.0116500
917.177	0.0115826
917.255	0.0117039
917.333	0.0117384
917.411	0.0116180
917.489	0.0115837
917.568	0.0116149
917.646	0.0116865
917.724	0.0118046
917.802	0.0118027
917.880	0.0116862
917.958	0.0116145
918.036	0.0116224
918.114	0.0116667
918.193	0.0115153
918.271	0.0116241
918.349	0.0116656
918.427	0.0118343
918.505	0.0115561
918.583	0.0115562
918.661	0.0117297
918.739	0.0117162
918.818	0.0115380
918.896	0.0116448
918.974	0.0118517
919.052	0.0115820
919.130	0.0116132
919.208	0.0117162
919.286	0.0116982
919.364	0.0117441
919.443	0.0116232
919.521	0.0117573
919.599	0.0117071
919.677	0.0117117
919.755	0.0117216
919.833	0.0116826
919.911	0.0117384
919.989	0.0117831
920.068	0.0118292
920.146	0.0116378
920.224	0.0117055
920.302	0.0116152
920.380	0.0116650
920.458	0.0117897
920.536	0.0117744
920.614	0.0116434
920.693	0.0115578
920.771	0.0117222
920.849	0.0116710
920.927	0.0117608
921.005	0.0115850
921.083	0.0115574
921.161	0.0115385
921.239	0.0117329
921.318	0.0115151
921.396	0.0115862
921.474	0.0115369
921.552	0.0114856
921.630	0.0115620
921.708	0.0116405
921.786	0.0115679
921.864	0.0117197
921.943	0.0116348
922.021	0.0115601
922.099	0.0115783
922.177	0.0115983
922.255	0.0117404
922.333	0.0116587
922.411	0.0115761
922.489	0.0116180
922.568	0.0118006
922.646	0.0116537
922.724	0.0116647
922.802	0.0116546
922.880	0.0116655
922.958	0.0117133
923.036	0.0116656
923.114	0.0116231
923.193	0.0117229
923.271	0.0115551
923.349	0.0116383
923.427	0.0117596
923.505	0.0116045
923.583	0.0117494
923.661	0.0116422
923.739	0.0117291
923.818	0.0116241
923.896	0.0116148
923.974	0.0117025
924.052	0.0115627
924.130	0.0116400
924.208	0.0116866
924.286	0.0116693
924.364	0.0117411
924.443	0.0117088
924.521	0.0117119
924.599	0.0115133
924.677	0.0116485
924.755	0.0116275
924.833	0.0116211
924.911	0.0118026
924.989	0.0117191
925.068	0.0118288
925.146	0.0116742
925.224	0.0116331
925.302	0.0115436
925.380	0.0115651
925.458	0.0116820
925.536	0.0117176
925.614	0.0118555
925.693	0.0116126
925.771	0.0115224
925.849	0.0116358
925.927	0.0114437
926.005	0.0115867
926.083	0.0116092
926.161	0.0116573
926.239	0.0116618
926.318	0.0117457
926.396	0.0116986
926.474	0.0115926
926.552	0.0116606
926.630	0.0116116
926.708	0.0116896
926.786	0.0116868
926.864	0.0117265
926.943	0.0117875
927.021	0.0116676
927.099	0.0114326
927.177	0.0116565
927.255	0.0117275
927.333	0.0117754
927.411	0.0117258
927.489	0.0117039
927.568	0.0117809
927.646	0.0117661
927.724	0.0117637
927.802	0.0117274
927.880	0.0117049
927.958	0.0117899
928.036	0.0117582
928.114	0.0117426
928.193	0.0117946
928.271	0.0116478
928.349	0.0115532
928.427	0.0116823
928.505	0.0119541
928.583	0.0117924
928.661	0.0117101
928.739	0.0117451
928.818	0.0116504
928.896	0.0118566
928.974	0.0118657
929.052	0.0117648
929.130	0.0117049
929.208	0.0117403
929.286	0.0117918
929.364	0.0118823
929.443	0.0117030
929.521	0.0118432
929.599	0.0118131
929.677	0.0116891
929.755	0.0116829
929.833	0.0117987
929.911	0.0117547
929.989	0.0118550
930.068	0.0116961
930.146	0.0117017
930.224	0.0117054
930.302	0.0117571
930.380	0.0118188
930.458	0.0118430
930.536	0.0116853
930.614	0.0116171
930.693	0.0118281
930.771	0.0116730
930.849	0.0116061
930.927	0.0116390
931.005	0.0117240
931.083	0.0116862
931.161	0.0117941
931.239	0.0118941
931.318	0.0117308
931.396	0.0115814
931.474	0.0116582
931.552	0.0117688
931.630	0.0116302
931.708	0.0117548
931.786	0.0116795
931.864	0.0117458
931.943	0.0119223
932.021	0.0117584
932.099	0.0116476
932.177	0.0118011
932.255	0.0116928
932.333	0.0118211
932.411	0.0117183
932.489	0.0116923
932.568	0.0116467
932.646	0.0117911
932.724	0.0116340
932.802	0.0115633
932.880	0.0116698
932.958	0.0116588
933.036	0.0116365
933.114	0.0118276
933.193	0.0117100
933.271	0.0117534
933.349	0.0116882
933.427	0.0118074
933.505	0.0117793
933.583	0.0118941
933.661	0.0119132
933.739	0.0117196
933.818	0.0116531
933.896	0.0116435
933.974	0.0118723
934.052	0.0117379
934.130	0.0116734
934.208	0.0116505
934.286	0.0117167
934.364	0.0117112
934.443	0.0117111
934.521	0.0117123
934.599	0.0116414
934.677	0.0116873
934.755	0.0118639
934.833	0.0116319
934.911	0.0116701
934.989	0.0116253
935.068	0.0117757
935.146	0.0116670
935.224	0.0117547
935.302	0.0117521
935.380	0.0117356
935.458	0.0117660
935.536	0.0118177
935.614	0.0116900
935.693	0.0116193
935.771	0.0116875
935.849	0.0117271
935.927	0.0115632
936.005	0.0116877
936.083	0.0115674
936.161	0.0115954
936.239	0.0115420
936.318	0.0116359
936.396	0.0117291
936.474	0.0117282
936.552	0.0118444
936.630	0.0115689
936.708	0.0117676
936.786	0.0117112
936.864	0.0117419
936.943	0.0117159
937.021	0.0117811
937.099	0.0117984
937.177	0.0116553
937.255	0.0117953
937.333	0.0117406
937.411	0.0116353
937.489	0.0117375
937.568	0.0117081
937.646	0.0117243
937.724	0.0117564
937.802	0.0118398
937.880	0.0118002
937.958	0.0117347
938.036	0.0117709
938.114	0.0117863
938.193	0.0118404
938.271	0.0118235
938.349	0.0117259
938.427	0.0118671
938.505	0.0116761
938.583	0.0118752
938.661	0.0118675
938.739	0.0117356
938.818	0.0116843
938.896	0.0118550
938.974	0.0118268
939.052	0.0118421
939.130	0.0117943
939.208	0.0118699
939.286	0.0117738
939.364	0.0116988
939.443	0.0118114
939.521	0.0116774
939.599	0.0118520
939.677	0.0118073
939.755	0.0117604
939.833	0.0118413
939.911	0.0117389
939.989	0.0116727
940.068	0.0117115
940.146	0.0118747
940.224	0.0117003
940.302	0.0116352
940.380	0.0116800
940.458	0.0116969
940.536	0.0116721
940.614	0.0117520
940.693	0.0117834
940.771	0.0116751
940.849	0.0116881
940.927	0.0117358
941.005	0.0116982
941.083	0.0116999
941.161	0.0117220
941.239	0.0117492
941.318	0.0116782
941.396	0.0116956
941.474	0.0117744
941.552	0.0116732
941.630	0.0116811
941.708	0.0118037
941.786	0.0117166
941.864	0.0118650
941.943	0.0117898
942.021	0.0118068
942.099	0.0118721
942.177	0.0119313
942.255	0.0118113
942.333	0.0118137
942.411	0.0118642
942.489	0.0117394
942.568	0.0118606
942.646	0.0119411
942.724	0.0118806
942.802	0.0118951
942.880	0.0118927
942.958	0.0119665
943.036	0.0118940
943.114	0.0118852
943.193	0.0117675
943.271	0.0118184
943.349	0.0119306
943.427	0.0117772
943.505	0.0118702
943.583	0.0116324
943.661	0.0117742
943.739	0.0116857
943.818	0.0117992
943.896	0.0117410
943.974	0.0117001
944.052	0.0116506
944.130	0.0115278
944.208	0.0117262
944.286	0.0116341
944.364	0.0116333
944.443	0.0115845
944.521	0.0115405
944.599	0.0117006
944.677	0.0115245
944.755	0.0115276
944.833	0.0115112
944.911	0.0115791
944.989	0.0115658
945.068	0.0116564
945.146	0.0114977
945.224	0.0115289
945.302	0.0115462
945.380	0.0115815
945.458	0.0115934
945.536	0.0116227
945.614	0.0115067
945.693	0.0116190
945.771	0.0117025
945.849	0.0116843
945.927	0.0116766
946.005	0.0118233
946.083	0.0116651
946.161	0.0116691
946.239	0.0118327
946.318	0.0118741
946.396	0.0118509
946.474	0.0117458
946.552	0.0116693
946.630	0.0118274
946.708	0.0119054
946.786	0.0119795
946.864	0.0118676
946.943	0.0118781
947.021	0.0118610
947.099	0.0118350
947.177	0.0118944
947.255	0.0117520
947.333	0.0118314
947.411	0.0117688
947.489	0.0118906
947.568	0.0118271
947.646	0.0117626
947.724	0.0118694
947.802	0.0118354
947.880	0.0116782
947.958	0.0118286
948.036	0.0117451
948.114	0.0118166
948.193	0.0118794
948.271	0.0117860
948.349	0.0116961
948.427	0.0117374
948.505	0.0116586
948.583	0.0118118
948.661	0.0118454
948.739	0.0118238
948.818	0.0117105
948.896	0.0117091
948.974	0.0116912
949.052	0.0118157
949.130	0.0117302
949.208	0.0116219
949.286	0.0116546
949.364	0.0117420
949.443	0.0117915
949.521	0.0118787
949.599	0.0118579
949.677	0.0118279
949.755	0.0116836
949.833	0.0117066
949.911	0.0117205
949.989	0.0116939
950.068	0.0117107
950.146	0.0117727
950.224	0.0116919
950.302	0.0116655
950.380	0.0117465
950.458	0.0116423
950.536	0.0116463
950.614	0.0118022
950.693	0.0117239
950.771	0.0116682
950.849	0.0116257
950.927	0.0117783
951.005	0.0117766
951.083	0.0115637
951.161	0.0117884
951.239	0.0117702
951.318	0.0117519
951.396	0.0118183
951.474	0.0117720
951.552	0.0116095
951.630	0.0117490
951.708	0.0118189
951.786	0.0118346
951.864	0.0117996
951.943	0.0117471
952.021	0.0118188
952.099	0.0117049
952.177	0.0116913
952.255	0.0117490
952.333	0.0117686
952.411	0.0117147
952.489	0.0117306
952.568	0.0115832
952.646	0.0117493
952.724	0.0116321
952.802	0.0117349
952.880	0.0116727
952.958	0.0116503
953.036	0.0117067
953.114	0.0117143
953.193	0.0118164
953.271	0.0115398
953.349	0.0116611
953.427	0.0117700
953.505	0.0116862
953.583	0.0116666
953.661	0.0115846
953.739	0.0115977
953.818	0.0117542
953.896	0.0118902
953.974	0.0117014
954.052	0.0116708
954.130	0.0117240
954.208	0.0117292
954.286	0.0117679
954.364	0.0116946
954.443	0.0116534
954.521	0.0117425
954.599	0.0117793
954.677	0.0117159
954.755	0.0117987
954.833	0.0118061
954.911	0.0117755
954.989	0.0117635
955.068	0.0117577
955.146	0.0116273
955.224	0.0117467
955.302	0.0117195
955.380	0.0117022
955.458	0.0117332
955.536	0.0117858
955.614	0.0117123
955.693	0.0116113
955.771	0.0117149
955.849	0.0117675
955.927	0.0115933
956.005	0.0117650
956.083	0.0118157
956.161	0.0116019
956.239	0.0117455
956.318	0.0117871
956.396	0.0117035
956.474	0.0117301
956.552	0.0116032
956.630	0.0116438
956.708	0.0116866
956.786	0.0116539
956.864	0.0116492
956.943	0.0116539
957.021	0.0118317
957.099	0.0118202
957.177	0.0116631
957.255	0.0117131
957.333	0.0116296
957.411	0.0117325
957.489	0.0117336
957.568	0.0119144
957.646	0.0117570
957.724	0.0117991
957.802	0.0117318
957.880	0.0116629
957.958	0.0116051
958.036	0.0117413
958.114	0.0116914
958.193	0.0117863
958.271	0.0118376
958.349	0.0118496
958.427	0.0117631
958.505	0.0118137
958.583	0.0118073
958.661	0.0118532
958.739	0.0117921
958.818	0.0118049
958.896	0.0117367
958.974	0.0117454
959.052	0.0119409
959.130	0.0118037
959.208	0.0118149
959.286	0.0119209
959.364	0.0119302
959.443	0.0119398
959.521	0.0119022
959.599	0.0118161
959.677	0.0117809
959.755	0.0117653
959.833	0.0118874
959.911	0.0117459
