05/07/2022	17:12:22	Ver.	4.1	UNKNOWN
Optical Delay	639.989416	Delta X		0.078125	Sweeps	1	Scan Rate	0/0
Coordinates	Axis 1	NaN	Axis 2	NaN	Axis 3	NaN	Axis 4	NaN	Axis 5	NaN	Axis 6	0.000000
TX Power	0.000000	RX Power	0.000000

639.989	0.0133884
640.068	0.0134832
640.146	0.0133051
640.224	0.0133839
640.302	0.0132962
640.380	0.0133111
640.458	0.0133669
640.536	0.0134669
640.614	0.0134930
640.693	0.0134246
640.771	0.0132858
640.849	0.0132629
640.927	0.0134192
641.005	0.0133813
641.083	0.0132589
641.161	0.0132954
641.239	0.0132338
641.318	0.0132962
641.396	0.0134741
641.474	0.0133324
641.552	0.0133583
641.630	0.0133179
641.708	0.0133624
641.786	0.0133087
641.864	0.0132980
641.943	0.0134660
642.021	0.0134605
642.099	0.0133472
642.177	0.0135204
642.255	0.0132793
642.333	0.0133541
642.411	0.0134644
642.489	0.0134757
642.568	0.0134557
642.646	0.0132236
642.724	0.0133553
642.802	0.0132765
642.880	0.0134275
642.958	0.0134208
643.036	0.0134715
643.114	0.0134518
643.193	0.0134915
643.271	0.0134887
643.349	0.0134089
643.427	0.0134582
643.505	0.0133305
643.583	0.0134041
643.661	0.0134669
643.739	0.0134107
643.818	0.0134003
643.896	0.0132212
643.974	0.0132848
644.052	0.0133496
644.130	0.0133792
644.208	0.0132557
644.286	0.0134039
644.364	0.0135152
644.443	0.0134892
644.521	0.0134516
644.599	0.0135081
644.677	0.0134647
644.755	0.0135246
644.833	0.0134352
644.911	0.0133975
644.989	0.0133035
645.068	0.0133706
645.146	0.0133967
645.224	0.0134642
645.302	0.0134290
645.380	0.0133111
645.458	0.0133705
645.536	0.0132751
645.614	0.0133646
645.693	0.0132874
645.771	0.0133569
645.849	0.0134831
645.927	0.0133193
646.005	0.0133239
646.083	0.0133015
646.161	0.0133625
646.239	0.0133920
646.318	0.0133371
646.396	0.0133363
646.474	0.0134650
646.552	0.0133411
646.630	0.0132713
646.708	0.0131891
646.786	0.0132046
646.864	0.0133304
646.943	0.0133906
647.021	0.0134395
647.099	0.0134886
647.177	0.0131700
647.255	0.0132591
647.333	0.0133611
647.411	0.0133533
647.489	0.0133228
647.568	0.0132286
647.646	0.0133749
647.724	0.0132834
647.802	0.0132502
647.880	0.0134290
647.958	0.0134349
648.036	0.0133067
648.114	0.0133761
648.193	0.0132838
648.271	0.0133694
648.349	0.0133847
648.427	0.0135441
648.505	0.0132420
648.583	0.0134095
648.661	0.0134455
648.739	0.0134296
648.818	0.0132767
648.896	0.0132590
648.974	0.0132705
649.052	0.0134131
649.130	0.0133532
649.208	0.0133277
649.286	0.0133426
649.364	0.0134587
649.443	0.0133515
649.521	0.0132859
649.599	0.0133327
649.677	0.0134412
649.755	0.0133508
649.833	0.0132201
649.911	0.0134077
649.989	0.0133688
650.068	0.0133782
650.146	0.0133987
650.224	0.0133582
650.302	0.0133609
650.380	0.0133340
650.458	0.0134813
650.536	0.0133540
650.614	0.0132338
650.693	0.0132877
650.771	0.0133389
650.849	0.0133593
650.927	0.0134104
651.005	0.0134673
651.083	0.0133562
651.161	0.0132313
651.239	0.0133192
651.318	0.0133279
651.396	0.0132622
651.474	0.0131902
651.552	0.0133115
651.630	0.0133333
651.708	0.0132650
651.786	0.0131930
651.864	0.0133578
651.943	0.0132854
652.021	0.0132372
652.099	0.0133429
652.177	0.0133636
652.255	0.0132009
652.333	0.0133588
652.411	0.0134440
652.489	0.0134784
652.568	0.0132751
652.646	0.0132003
652.724	0.0134245
652.802	0.0134190
652.880	0.0132674
652.958	0.0133154
653.036	0.0133204
653.114	0.0133949
653.193	0.0134183
653.271	0.0134204
653.349	0.0133609
653.427	0.0134039
653.505	0.0134238
653.583	0.0133382
653.661	0.0133147
653.739	0.0133609
653.818	0.0133241
653.896	0.0133646
653.974	0.0133076
654.052	0.0133336
654.130	0.0134315
654.208	0.0132236
654.286	0.0134383
654.364	0.0134125
654.443	0.0131770
654.521	0.0132898
654.599	0.0134926
654.677	0.0132189
654.755	0.0132779
654.833	0.0132889
654.911	0.0132442
654.989	0.0132816
655.068	0.0133141
655.146	0.0133205
655.224	0.0134994
655.302	0.0134026
655.380	0.0133183
655.458	0.0133479
655.536	0.0133427
655.614	0.0132832
655.693	0.0133987
655.771	0.0133643
655.849	0.0133110
655.927	0.0132645
656.005	0.0132330
656.083	0.0134003
656.161	0.0133858
656.239	0.0133532
656.318	0.0133060
656.396	0.0132892
656.474	0.0133617
656.552	0.0133048
656.630	0.0132738
656.708	0.0132735
656.786	0.0133871
656.864	0.0134213
656.943	0.0134615
657.021	0.0133403
657.099	0.0132755
657.177	0.0134462
657.255	0.0133907
657.333	0.0133776
657.411	0.0133987
657.489	0.0133590
657.568	0.0131421
657.646	0.0132652
657.724	0.0135314
657.802	0.0134412
657.880	0.0132980
657.958	0.0133170
658.036	0.0133549
658.114	0.0133297
658.193	0.0133453
658.271	0.0134245
658.349	0.0132256
658.427	0.0135167
658.505	0.0133442
658.583	0.0132426
658.661	0.0133521
658.739	0.0133405
658.818	0.0132798
658.896	0.0133727
658.974	0.0133054
659.052	0.0133554
659.130	0.0134278
659.208	0.0133968
659.286	0.0132787
659.364	0.0132733
659.443	0.0132504
659.521	0.0133419
659.599	0.0133111
659.677	0.0133666
659.755	0.0134250
659.833	0.0133782
659.911	0.0132954
659.989	0.0132665
660.068	0.0133893
660.146	0.0133794
660.224	0.0131493
660.302	0.0133850
660.380	0.0134719
660.458	0.0132996
660.536	0.0133582
660.614	0.0133148
660.693	0.0134355
660.771	0.0133812
660.849	0.0133855
660.927	0.0133372
661.005	0.0132449
661.083	0.0133517
661.161	0.0133646
661.239	0.0133469
661.318	0.0133464
661.396	0.0132844
661.474	0.0133887
661.552	0.0133955
661.630	0.0133485
661.708	0.0134312
661.786	0.0133450
661.864	0.0133443
661.943	0.0133640
662.021	0.0132946
662.099	0.0134651
662.177	0.0133610
662.255	0.0133158
662.333	0.0131833
662.411	0.0134261
662.489	0.0132239
662.568	0.0132027
662.646	0.0132677
662.724	0.0133079
662.802	0.0131901
662.880	0.0133389
662.958	0.0131616
663.036	0.0133701
663.114	0.0133131
663.193	0.0133555
663.271	0.0133817
663.349	0.0134801
663.427	0.0133641
663.505	0.0134096
663.583	0.0133803
663.661	0.0133223
663.739	0.0133762
663.818	0.0132813
663.896	0.0133973
663.974	0.0133350
664.052	0.0132371
664.130	0.0134543
664.208	0.0133186
664.286	0.0132829
664.364	0.0131468
664.443	0.0134072
664.521	0.0133731
664.599	0.0132552
664.677	0.0133575
664.755	0.0132120
664.833	0.0133630
664.911	0.0133241
664.989	0.0132957
665.068	0.0133893
665.146	0.0133431
665.224	0.0133893
665.302	0.0133524
665.380	0.0132704
665.458	0.0132735
665.536	0.0132111
665.614	0.0133033
665.693	0.0132977
665.771	0.0132618
665.849	0.0133823
665.927	0.0134329
666.005	0.0132973
666.083	0.0133315
666.161	0.0132806
666.239	0.0134312
666.318	0.0133553
666.396	0.0133245
666.474	0.0132240
666.552	0.0131671
666.630	0.0133689
666.708	0.0132954
666.786	0.0134705
666.864	0.0133135
666.943	0.0132935
667.021	0.0132745
667.099	0.0132865
667.177	0.0133435
667.255	0.0134023
667.333	0.0132837
667.411	0.0132981
667.489	0.0132503
667.568	0.0133811
667.646	0.0134828
667.724	0.0135036
667.802	0.0134126
667.880	0.0133798
667.958	0.0134779
668.036	0.0132358
668.114	0.0134207
668.193	0.0133326
668.271	0.0134210
668.349	0.0134727
668.427	0.0133620
668.505	0.0133823
668.583	0.0133376
668.661	0.0133724
668.739	0.0134579
668.818	0.0133305
668.896	0.0134227
668.974	0.0133104
669.052	0.0133613
669.130	0.0132489
669.208	0.0134353
669.286	0.0134000
669.364	0.0133297
669.443	0.0133061
669.521	0.0134438
669.599	0.0134712
669.677	0.0133541
669.755	0.0134670
669.833	0.0133221
669.911	0.0134695
669.989	0.0133536
670.068	0.0132376
670.146	0.0132722
670.224	0.0133679
670.302	0.0133706
670.380	0.0133788
670.458	0.0133865
670.536	0.0133662
670.614	0.0133559
670.693	0.0132265
670.771	0.0133879
670.849	0.0133228
670.927	0.0133303
671.005	0.0133078
671.083	0.0133417
671.161	0.0134403
671.239	0.0132677
671.318	0.0134167
671.396	0.0133921
671.474	0.0133907
671.552	0.0132749
671.630	0.0130834
671.708	0.0131090
671.786	0.0133332
671.864	0.0132198
671.943	0.0132376
672.021	0.0132706
672.099	0.0134980
672.177	0.0133971
672.255	0.0134619
672.333	0.0133485
672.411	0.0133640
672.489	0.0135176
672.568	0.0135085
672.646	0.0135204
672.724	0.0134716
672.802	0.0135683
672.880	0.0136087
672.958	0.0135617
673.036	0.0133779
673.114	0.0133752
673.193	0.0132003
673.271	0.0131449
673.349	0.0132146
673.427	0.0130290
673.505	0.0128835
673.583	0.0130885
673.661	0.0131322
673.739	0.0130219
673.818	0.0130256
673.896	0.0130492
673.974	0.0131740
674.052	0.0132105
674.130	0.0133501
674.208	0.0134404
674.286	0.0135368
674.364	0.0135319
674.443	0.0135259
674.521	0.0136008
674.599	0.0137498
674.677	0.0136820
674.755	0.0136274
674.833	0.0135799
674.911	0.0135668
674.989	0.0135540
675.068	0.0135554
675.146	0.0133801
675.224	0.0133768
675.302	0.0133590
675.380	0.0133321
675.458	0.0133368
675.536	0.0132763
675.614	0.0133174
675.693	0.0132307
675.771	0.0134399
675.849	0.0133630
675.927	0.0132693
676.005	0.0132207
676.083	0.0132608
676.161	0.0133424
676.239	0.0132487
676.318	0.0132798
676.396	0.0133326
676.474	0.0132246
676.552	0.0132079
676.630	0.0130683
676.708	0.0130917
676.786	0.0131182
676.864	0.0132578
676.943	0.0130504
677.021	0.0132225
677.099	0.0133728
677.177	0.0133425
677.255	0.0134281
677.333	0.0135551
677.411	0.0136761
677.489	0.0137399
677.568	0.0137983
677.646	0.0138644
677.724	0.0138896
677.802	0.0139315
677.880	0.0139147
677.958	0.0139252
678.036	0.0139586
678.114	0.0139323
678.193	0.0139409
678.271	0.0136860
678.349	0.0137860
678.427	0.0137191
678.505	0.0135843
678.583	0.0135373
678.661	0.0131731
678.739	0.0132215
678.818	0.0131965
678.896	0.0129568
678.974	0.0129733
679.052	0.0128356
679.130	0.0129415
679.208	0.0129617
679.286	0.0130476
679.364	0.0132191
679.443	0.0130596
679.521	0.0131328
679.599	0.0131377
679.677	0.0131201
679.755	0.0130804
679.833	0.0130137
679.911	0.0130734
679.989	0.0128790
680.068	0.0127859
680.146	0.0129040
680.224	0.0128194
680.302	0.0129500
680.380	0.0130961
680.458	0.0130656
680.536	0.0133171
680.614	0.0135658
680.693	0.0137197
680.771	0.0140723
680.849	0.0143066
680.927	0.0142570
681.005	0.0144296
681.083	0.0146192
681.161	0.0147587
681.239	0.0148038
681.318	0.0145663
681.396	0.0144318
681.474	0.0144528
681.552	0.0141798
681.630	0.0139708
681.708	0.0137558
681.786	0.0135215
681.864	0.0132436
681.943	0.0131879
682.021	0.0129980
682.099	0.0128750
682.177	0.0127293
682.255	0.0125930
682.333	0.0125945
682.411	0.0125833
682.489	0.0123762
682.568	0.0124489
682.646	0.0124443
682.724	0.0123410
682.802	0.0124724
682.880	0.0123996
682.958	0.0122956
683.036	0.0124928
683.114	0.0127340
683.193	0.0126866
683.271	0.0128208
683.349	0.0128403
683.427	0.0129556
683.505	0.0131925
683.583	0.0131017
683.661	0.0132248
683.739	0.0132861
683.818	0.0133898
683.896	0.0133131
683.974	0.0135308
684.052	0.0136443
684.130	0.0136253
684.208	0.0138039
684.286	0.0139864
684.364	0.0140951
684.443	0.0140907
684.521	0.0140056
684.599	0.0142861
684.677	0.0141872
684.755	0.0144596
684.833	0.0144862
684.911	0.0145352
684.989	0.0146735
685.068	0.0145806
685.146	0.0145078
685.224	0.0145131
685.302	0.0141956
685.380	0.0142596
685.458	0.0139771
685.536	0.0136408
685.614	0.0134337
685.693	0.0132859
685.771	0.0131931
685.849	0.0130038
685.927	0.0129729
686.005	0.0128674
686.083	0.0128952
686.161	0.0127866
686.239	0.0127584
686.318	0.0125934
686.396	0.0125282
686.474	0.0124476
686.552	0.0123347
686.630	0.0122839
686.708	0.0122172
686.786	0.0121191
686.864	0.0122486
686.943	0.0120112
687.021	0.0120055
687.099	0.0118126
687.177	0.0119952
687.255	0.0119025
687.333	0.0118456
687.411	0.0121099
687.489	0.0122250
687.568	0.0123370
687.646	0.0124706
687.724	0.0125204
687.802	0.0125938
687.880	0.0127938
687.958	0.0130126
688.036	0.0130428
688.114	0.0132156
688.193	0.0134607
688.271	0.0136930
688.349	0.0139661
688.427	0.0141151
688.505	0.0142207
688.583	0.0146533
688.661	0.0148038
688.739	0.0148434
688.818	0.0150248
688.896	0.0153027
688.974	0.0154140
689.052	0.0155786
689.130	0.0156042
689.208	0.0156720
689.286	0.0157451
689.364	0.0157568
689.443	0.0157813
689.521	0.0155861
689.599	0.0157529
689.677	0.0155428
689.755	0.0153316
689.833	0.0151451
689.911	0.0148830
689.989	0.0145702
690.068	0.0141370
690.146	0.0137534
690.224	0.0131505
690.302	0.0127428
690.380	0.0123080
690.458	0.0118573
690.536	0.0113126
690.614	0.0108160
690.693	0.0104086
690.771	0.00987030
690.849	0.00963448
690.927	0.00930176
691.005	0.00915939
691.083	0.00897652
691.161	0.00896301
691.239	0.00911949
691.318	0.00925545
691.396	0.00940720
691.474	0.00975403
691.552	0.0100847
691.630	0.0107419
691.708	0.0112725
691.786	0.0117945
691.864	0.0123882
691.943	0.0130076
692.021	0.0136009
692.099	0.0140096
692.177	0.0144808
692.255	0.0148804
692.333	0.0152782
692.411	0.0155136
692.489	0.0158524
692.568	0.0160178
692.646	0.0161211
692.724	0.0164566
692.802	0.0164796
692.880	0.0167615
692.958	0.0168984
693.036	0.0171062
693.114	0.0169653
693.193	0.0170842
693.271	0.0170849
693.349	0.0168568
693.427	0.0167751
693.505	0.0165758
693.583	0.0162068
693.661	0.0158605
693.739	0.0156227
693.818	0.0153570
693.896	0.0147703
693.974	0.0145348
694.052	0.0140376
694.130	0.0137165
694.208	0.0133907
694.286	0.0129083
694.364	0.0126445
694.443	0.0123128
694.521	0.0119621
694.599	0.0118563
694.677	0.0113786
694.755	0.0112956
694.833	0.0110335
694.911	0.0108163
694.989	0.0106592
695.068	0.0102546
695.146	0.0102728
695.224	0.0101249
695.302	0.0100375
695.380	0.00988983
695.458	0.00971542
695.536	0.00964912
695.614	0.00969162
695.693	0.00958588
695.771	0.00970505
695.849	0.00973076
695.927	0.00986458
696.005	0.0102982
696.083	0.0104739
696.161	0.0109490
696.239	0.0115040
696.318	0.0120071
696.396	0.0128691
696.474	0.0133650
696.552	0.0139695
696.630	0.0146042
696.708	0.0152814
696.786	0.0156728
696.864	0.0161916
696.943	0.0163477
697.021	0.0168133
697.099	0.0169989
697.177	0.0171191
697.255	0.0170877
697.333	0.0170623
697.411	0.0171751
697.489	0.0170750
697.568	0.0170663
697.646	0.0170069
697.724	0.0167327
697.802	0.0165993
697.880	0.0164105
697.958	0.0163921
698.036	0.0161108
698.114	0.0158931
698.193	0.0155885
698.271	0.0152862
698.349	0.0150420
698.427	0.0148571
698.505	0.0144811
698.583	0.0142756
698.661	0.0140753
698.739	0.0138583
698.818	0.0134933
698.896	0.0132719
698.974	0.0130914
699.052	0.0129835
699.130	0.0126246
699.208	0.0125023
699.286	0.0122126
699.364	0.0120516
699.443	0.0118249
699.521	0.0115917
699.599	0.0114335
699.677	0.0112830
699.755	0.0108210
699.833	0.0105291
699.911	0.0104263
699.989	0.0101362
700.068	0.00968391
700.146	0.00947495
700.224	0.00919434
700.302	0.00886795
700.380	0.00861748
700.458	0.00847343
700.536	0.00844315
700.614	0.00849823
700.693	0.00849342
700.771	0.00848488
700.849	0.00892616
700.927	0.00932114
701.005	0.00984886
701.083	0.0104792
701.161	0.0111363
701.239	0.0122697
701.318	0.0130297
701.396	0.0139629
701.474	0.0150446
701.552	0.0159593
701.630	0.0168245
701.708	0.0175793
701.786	0.0182336
701.864	0.0187582
701.943	0.0193672
702.021	0.0197184
702.099	0.0198285
702.177	0.0198585
702.255	0.0200385
702.333	0.0198417
702.411	0.0194532
702.489	0.0192574
702.568	0.0189351
702.646	0.0184051
702.724	0.0177676
702.802	0.0172486
702.880	0.0164767
702.958	0.0159554
703.036	0.0151773
703.114	0.0143950
703.193	0.0137453
703.271	0.0132223
703.349	0.0126362
703.427	0.0121513
703.505	0.0117178
703.583	0.0114702
703.661	0.0111629
703.739	0.0109467
703.818	0.0111038
703.896	0.0111107
703.974	0.0111055
704.052	0.0109156
704.130	0.0112016
704.208	0.0112520
704.286	0.0113812
704.364	0.0114232
704.443	0.0115308
704.521	0.0116251
704.599	0.0114970
704.677	0.0114031
704.755	0.0112697
704.833	0.0112711
704.911	0.0108623
704.989	0.0105323
705.068	0.0101009
705.146	0.00973007
705.224	0.00948082
705.302	0.00902779
705.380	0.00881210
705.458	0.00853691
705.536	0.00843971
705.614	0.00822777
705.693	0.00831734
705.771	0.00845833
705.849	0.00884125
705.927	0.00934067
706.005	0.0100104
706.083	0.0107811
706.161	0.0117651
706.239	0.0128084
706.318	0.0137877
706.396	0.0148335
706.474	0.0160240
706.552	0.0169027
706.630	0.0179793
706.708	0.0188538
706.786	0.0195699
706.864	0.0202148
706.943	0.0206589
707.021	0.0208447
707.099	0.0211033
707.177	0.0209411
707.255	0.0207471
707.333	0.0204652
707.411	0.0200035
707.489	0.0193314
707.568	0.0188836
707.646	0.0181937
707.724	0.0174884
707.802	0.0167438
707.880	0.0159499
707.958	0.0151942
708.036	0.0143772
708.114	0.0136763
708.193	0.0130114
708.271	0.0125077
708.349	0.0118666
708.427	0.0112412
708.505	0.0108862
708.583	0.0105904
708.661	0.0103661
708.739	0.0100209
708.818	0.00991104
708.896	0.00989326
708.974	0.00991119
709.052	0.00993385
709.130	0.0100700
709.208	0.0102531
709.286	0.0104032
709.364	0.0107449
709.443	0.0108600
709.521	0.0110537
709.599	0.0112212
709.677	0.0113387
709.755	0.0114269
709.833	0.0114822
709.911	0.0115705
709.989	0.0114983
710.068	0.0114049
710.146	0.0111688
710.224	0.0111149
710.302	0.0109605
710.380	0.0106707
710.458	0.0106126
710.536	0.0106104
710.614	0.0105607
710.693	0.0106252
710.771	0.0108600
710.849	0.0110656
710.927	0.0112557
711.005	0.0115092
711.083	0.0121146
711.161	0.0124780
711.239	0.0130627
711.318	0.0136444
711.396	0.0141647
711.474	0.0146173
711.552	0.0150240
711.630	0.0152861
711.708	0.0156898
711.786	0.0158857
711.864	0.0162665
711.943	0.0165097
712.021	0.0166538
712.099	0.0168948
712.177	0.0170371
712.255	0.0171462
712.333	0.0172803
712.411	0.0173093
712.489	0.0173544
712.568	0.0172088
712.646	0.0171182
712.724	0.0170412
712.802	0.0170501
712.880	0.0167298
712.958	0.0165416
713.036	0.0163864
713.114	0.0161141
713.193	0.0158039
713.271	0.0155579
713.349	0.0152515
713.427	0.0150098
713.505	0.0146656
713.583	0.0142276
713.661	0.0139374
713.739	0.0135344
713.818	0.0130762
713.896	0.0128381
713.974	0.0123593
714.052	0.0121397
714.130	0.0116386
714.208	0.0112886
714.286	0.0111229
714.364	0.0108578
714.443	0.0105009
714.521	0.0103363
714.599	0.0101811
714.677	0.00988274
714.755	0.00968994
714.833	0.00948364
714.911	0.00928291
714.989	0.00922676
715.068	0.00921608
715.146	0.00904503
715.224	0.00894279
715.302	0.00896820
715.380	0.00909187
715.458	0.00923950
715.536	0.00959923
715.614	0.00969299
715.693	0.0102327
715.771	0.0105619
715.849	0.0109863
715.927	0.0115998
716.005	0.0120854
716.083	0.0126928
716.161	0.0132716
716.239	0.0138545
716.318	0.0146341
716.396	0.0149760
716.474	0.0152450
716.552	0.0156243
716.630	0.0159969
716.708	0.0161272
716.786	0.0162518
716.864	0.0164134
716.943	0.0161383
717.021	0.0161443
717.099	0.0160740
717.177	0.0158752
717.255	0.0157479
717.333	0.0156544
717.411	0.0153175
717.489	0.0153548
717.568	0.0152835
717.646	0.0151685
717.724	0.0152413
717.802	0.0152474
717.880	0.0152916
717.958	0.0153356
718.036	0.0152706
718.114	0.0153707
718.193	0.0155083
718.271	0.0154852
718.349	0.0155708
718.427	0.0157091
718.505	0.0156271
718.583	0.0156219
718.661	0.0154560
718.739	0.0153259
718.818	0.0150442
718.896	0.0150578
718.974	0.0147128
719.052	0.0144495
719.130	0.0140954
719.208	0.0138596
719.286	0.0133500
719.364	0.0129700
719.443	0.0125896
719.521	0.0120165
719.599	0.0116850
719.677	0.0112850
719.755	0.0109573
719.833	0.0106013
719.911	0.0100736
719.989	0.00970963
720.068	0.00943306
720.146	0.00918625
720.224	0.00891129
720.302	0.00884247
720.380	0.00881126
720.458	0.00893143
720.536	0.00909615
720.614	0.00941147
720.693	0.00977310
720.771	0.0101178
720.849	0.0107459
720.927	0.0113049
721.005	0.0118616
721.083	0.0123069
721.161	0.0127516
721.239	0.0133292
721.318	0.0137399
721.396	0.0140672
721.474	0.0146532
721.552	0.0146906
721.630	0.0150340
721.708	0.0150303
721.786	0.0151307
721.864	0.0151330
721.943	0.0148694
722.021	0.0149815
722.099	0.0148948
722.177	0.0144626
722.255	0.0143213
722.333	0.0142850
722.411	0.0139749
722.489	0.0137857
722.568	0.0136184
722.646	0.0136150
722.724	0.0136404
722.802	0.0135394
722.880	0.0134412
722.958	0.0137859
723.036	0.0137997
723.114	0.0137836
723.193	0.0140596
723.271	0.0143429
723.349	0.0144782
723.427	0.0146496
723.505	0.0148042
723.583	0.0151096
723.661	0.0153094
723.739	0.0153844
723.818	0.0153493
723.896	0.0156040
723.974	0.0156638
724.052	0.0155349
724.130	0.0154913
724.208	0.0154800
724.286	0.0152320
724.364	0.0150364
724.443	0.0150421
724.521	0.0149136
724.599	0.0146691
724.677	0.0144048
724.755	0.0140986
724.833	0.0138850
724.911	0.0134699
724.989	0.0131012
725.068	0.0128046
725.146	0.0125951
725.224	0.0122258
725.302	0.0119332
725.380	0.0117059
725.458	0.0115560
725.536	0.0112612
725.614	0.0110109
725.693	0.0108835
725.771	0.0106474
725.849	0.0103604
725.927	0.0103328
726.005	0.0104434
726.083	0.0103974
726.161	0.0103934
726.239	0.0105766
726.318	0.0106731
726.396	0.0110172
726.474	0.0111486
726.552	0.0112380
726.630	0.0113406
726.708	0.0114991
726.786	0.0117662
726.864	0.0119753
726.943	0.0121527
727.021	0.0122667
727.099	0.0125827
727.177	0.0128342
727.255	0.0130866
727.333	0.0132819
727.411	0.0134715
727.489	0.0136137
727.568	0.0137787
727.646	0.0140718
727.724	0.0142648
727.802	0.0144934
727.880	0.0147169
727.958	0.0147163
728.036	0.0149544
728.114	0.0150767
728.193	0.0153549
728.271	0.0151515
728.349	0.0154280
728.427	0.0153561
728.505	0.0152734
728.583	0.0150788
728.661	0.0150211
728.739	0.0148333
728.818	0.0147663
728.896	0.0145444
728.974	0.0144973
729.052	0.0145108
729.130	0.0142332
729.208	0.0141872
729.286	0.0141138
729.364	0.0140533
729.443	0.0139639
729.521	0.0140813
729.599	0.0140617
729.677	0.0140906
729.755	0.0139998
729.833	0.0138739
729.911	0.0141045
729.989	0.0141740
730.068	0.0141331
730.146	0.0139126
730.224	0.0141363
730.302	0.0140800
730.380	0.0139355
730.458	0.0137096
730.536	0.0136257
730.614	0.0133962
730.693	0.0133141
730.771	0.0130568
730.849	0.0129834
730.927	0.0128210
731.005	0.0126736
731.083	0.0123228
731.161	0.0122603
731.239	0.0122653
731.318	0.0119910
731.396	0.0118017
731.474	0.0117148
731.552	0.0116548
731.630	0.0114165
731.708	0.0113840
731.786	0.0113438
731.864	0.0113910
731.943	0.0114191
732.021	0.0115485
732.099	0.0115211
732.177	0.0116132
732.255	0.0118418
732.333	0.0119335
732.411	0.0120882
732.489	0.0123015
732.568	0.0124062
732.646	0.0125919
732.724	0.0127334
732.802	0.0125968
732.880	0.0128346
732.958	0.0131498
733.036	0.0129227
733.114	0.0132112
733.193	0.0132369
733.271	0.0132233
733.349	0.0133015
733.427	0.0134367
733.505	0.0134714
733.583	0.0136024
733.661	0.0137130
733.739	0.0137654
733.818	0.0139706
733.896	0.0141259
733.974	0.0140633
734.052	0.0141521
734.130	0.0141726
734.208	0.0142135
734.286	0.0145174
734.364	0.0145439
734.443	0.0145881
734.521	0.0145350
734.599	0.0146455
734.677	0.0146070
734.755	0.0148203
734.833	0.0148225
734.911	0.0146461
734.989	0.0146861
735.068	0.0148123
735.146	0.0145385
735.224	0.0146641
735.302	0.0146505
735.380	0.0143803
735.458	0.0142271
735.536	0.0142833
735.614	0.0140800
735.693	0.0139700
735.771	0.0140010
735.849	0.0136610
735.927	0.0135921
736.005	0.0134240
736.083	0.0133546
736.161	0.0132220
736.239	0.0131070
736.318	0.0129945
736.396	0.0128871
736.474	0.0128288
736.552	0.0127960
736.630	0.0127219
736.708	0.0126109
736.786	0.0126616
736.864	0.0126862
736.943	0.0126263
737.021	0.0129189
737.099	0.0128244
737.177	0.0126011
737.255	0.0127558
737.333	0.0129018
737.411	0.0128766
737.489	0.0128840
737.568	0.0127808
737.646	0.0127363
737.724	0.0125831
737.802	0.0125671
737.880	0.0126357
737.958	0.0123788
738.036	0.0122526
738.114	0.0121311
738.193	0.0120824
738.271	0.0119625
738.349	0.0117518
738.427	0.0117995
738.505	0.0118700
738.583	0.0116647
738.661	0.0118542
738.739	0.0120556
738.818	0.0119777
738.896	0.0120454
738.974	0.0124216
739.052	0.0124403
739.130	0.0126262
739.208	0.0127287
739.286	0.0130327
739.364	0.0133541
739.443	0.0137057
739.521	0.0137347
739.599	0.0141930
739.677	0.0145846
739.755	0.0144563
739.833	0.0147093
739.911	0.0149767
739.989	0.0149632
740.068	0.0151099
740.146	0.0151520
740.224	0.0150867
740.302	0.0151167
740.380	0.0149153
740.458	0.0148383
740.536	0.0147330
740.614	0.0145476
740.693	0.0144163
740.771	0.0141815
740.849	0.0141037
740.927	0.0137775
741.005	0.0136723
741.083	0.0135905
741.161	0.0134000
741.239	0.0132265
741.318	0.0131972
741.396	0.0130309
741.474	0.0129131
741.552	0.0130110
741.630	0.0131387
741.708	0.0129262
741.786	0.0129392
741.864	0.0130067
741.943	0.0130444
742.021	0.0132027
742.099	0.0133342
742.177	0.0133406
742.255	0.0134767
742.333	0.0134957
742.411	0.0134429
742.489	0.0135709
742.568	0.0136729
742.646	0.0135365
742.724	0.0135594
742.802	0.0135873
742.880	0.0135099
742.958	0.0135291
743.036	0.0135815
743.114	0.0134291
743.193	0.0134007
743.271	0.0132824
743.349	0.0130844
743.427	0.0128439
743.505	0.0127732
743.583	0.0126867
743.661	0.0125779
743.739	0.0124206
743.818	0.0123412
743.896	0.0122523
743.974	0.0122218
744.052	0.0122779
744.130	0.0122041
744.208	0.0121124
744.286	0.0122103
744.364	0.0123248
744.443	0.0123415
744.521	0.0123216
744.599	0.0125239
744.677	0.0126354
744.755	0.0126453
744.833	0.0126578
744.911	0.0125833
744.989	0.0127653
745.068	0.0129227
745.146	0.0128836
745.224	0.0129224
745.302	0.0129881
745.380	0.0132468
745.458	0.0132325
745.536	0.0131441
745.614	0.0133224
745.693	0.0133040
745.771	0.0135061
745.849	0.0135616
745.927	0.0137460
746.005	0.0139314
746.083	0.0139455
746.161	0.0140460
746.239	0.0140976
746.318	0.0143092
746.396	0.0144559
746.474	0.0142899
746.552	0.0142871
746.630	0.0143467
746.708	0.0143729
746.786	0.0143753
746.864	0.0143818
746.943	0.0141690
747.021	0.0143555
747.099	0.0142641
747.177	0.0142094
747.255	0.0141132
747.333	0.0142365
747.411	0.0141868
747.489	0.0141499
747.568	0.0139656
747.646	0.0139268
747.724	0.0137690
747.802	0.0137241
747.880	0.0136848
747.958	0.0134035
748.036	0.0134909
748.114	0.0133990
748.193	0.0130972
748.271	0.0130886
748.349	0.0130128
748.427	0.0130731
748.505	0.0129937
748.583	0.0129959
748.661	0.0128851
748.739	0.0129655
748.818	0.0128032
748.896	0.0130650
748.974	0.0128970
749.052	0.0129635
749.130	0.0130804
749.208	0.0130173
749.286	0.0130025
749.364	0.0129371
749.443	0.0129642
749.521	0.0129087
749.599	0.0129470
749.677	0.0128852
749.755	0.0127019
749.833	0.0126893
749.911	0.0127447
749.989	0.0128150
750.068	0.0126469
750.146	0.0126768
750.224	0.0125990
750.302	0.0126706
750.380	0.0126545
750.458	0.0126077
750.536	0.0126087
750.614	0.0125664
750.693	0.0125926
750.771	0.0126422
750.849	0.0126517
750.927	0.0126951
751.005	0.0125391
751.083	0.0128117
751.161	0.0128682
751.239	0.0128241
751.318	0.0129321
751.396	0.0131360
751.474	0.0132471
751.552	0.0132073
751.630	0.0132965
751.708	0.0135110
751.786	0.0136214
751.864	0.0138261
751.943	0.0138389
752.021	0.0139118
752.099	0.0139314
752.177	0.0140417
752.255	0.0140340
752.333	0.0142213
752.411	0.0141102
752.489	0.0141698
752.568	0.0141098
752.646	0.0141217
752.724	0.0142326
752.802	0.0140814
752.880	0.0141094
752.958	0.0139538
753.036	0.0137508
753.114	0.0139644
753.193	0.0137564
753.271	0.0138618
753.349	0.0137672
753.427	0.0135913
753.505	0.0135032
753.583	0.0135766
753.661	0.0133026
753.739	0.0133332
753.818	0.0132858
753.896	0.0132271
753.974	0.0132108
754.052	0.0132475
754.130	0.0131616
754.208	0.0130683
754.286	0.0130219
754.364	0.0130867
754.443	0.0131705
754.521	0.0131600
754.599	0.0130991
754.677	0.0131373
754.755	0.0130914
754.833	0.0132567
754.911	0.0132143
754.989	0.0131780
755.068	0.0133582
755.146	0.0134708
755.224	0.0134464
755.302	0.0133582
755.380	0.0134293
755.458	0.0133439
755.536	0.0134361
755.614	0.0134143
755.693	0.0134129
755.771	0.0133012
755.849	0.0132628
755.927	0.0132867
756.005	0.0130899
756.083	0.0130773
756.161	0.0129827
756.239	0.0129515
756.318	0.0129903
756.396	0.0129302
756.474	0.0129040
756.552	0.0127364
756.630	0.0128479
756.708	0.0127808
756.786	0.0128162
756.864	0.0128275
756.943	0.0127336
757.021	0.0128889
757.099	0.0128977
757.177	0.0129195
757.255	0.0126680
757.333	0.0129816
757.411	0.0130380
757.489	0.0129171
757.568	0.0129530
757.646	0.0131346
757.724	0.0132993
757.802	0.0133225
757.880	0.0134055
757.958	0.0133443
758.036	0.0135388
758.114	0.0134789
758.193	0.0135926
758.271	0.0135767
758.349	0.0137553
758.427	0.0136262
758.505	0.0137740
758.583	0.0139514
758.661	0.0139243
758.739	0.0136915
758.818	0.0138354
758.896	0.0138836
758.974	0.0140080
759.052	0.0139137
759.130	0.0138468
759.208	0.0137579
759.286	0.0136956
759.364	0.0137362
759.443	0.0136906
759.521	0.0135918
759.599	0.0134647
759.677	0.0134673
759.755	0.0133705
759.833	0.0134280
759.911	0.0134951
759.989	0.0133846
760.068	0.0136087
760.146	0.0135527
760.224	0.0134509
760.302	0.0133152
760.380	0.0134007
760.458	0.0134354
760.536	0.0133412
760.614	0.0134534
760.693	0.0133007
760.771	0.0134162
760.849	0.0134386
760.927	0.0134962
761.005	0.0134435
761.083	0.0134129
761.161	0.0134512
761.239	0.0133920
761.318	0.0133877
761.396	0.0133524
761.474	0.0134241
761.552	0.0134209
761.630	0.0133121
761.708	0.0130521
761.786	0.0133028
761.864	0.0133682
761.943	0.0130837
762.021	0.0131357
762.099	0.0131656
762.177	0.0132166
762.255	0.0132867
762.333	0.0132607
762.411	0.0130280
762.489	0.0129763
762.568	0.0130087
762.646	0.0130068
762.724	0.0130429
762.802	0.0130743
762.880	0.0128207
762.958	0.0128017
763.036	0.0127056
763.114	0.0126350
763.193	0.0128553
763.271	0.0126256
763.349	0.0126952
763.427	0.0128185
763.505	0.0128865
763.583	0.0127977
763.661	0.0128854
763.739	0.0129633
763.818	0.0128267
763.896	0.0130911
763.974	0.0132549
764.052	0.0132902
764.130	0.0132542
764.208	0.0132901
764.286	0.0132958
764.364	0.0135307
764.443	0.0134470
764.521	0.0135015
764.599	0.0135096
764.677	0.0134937
764.755	0.0136873
764.833	0.0137159
764.911	0.0136626
764.989	0.0136931
765.068	0.0136711
765.146	0.0136874
765.224	0.0137613
765.302	0.0136387
765.380	0.0138320
765.458	0.0139117
765.536	0.0138591
765.614	0.0136909
765.693	0.0138728
765.771	0.0138448
765.849	0.0139904
765.927	0.0139497
766.005	0.0138120
766.083	0.0137367
766.161	0.0136001
766.239	0.0133826
766.318	0.0134489
766.396	0.0134542
766.474	0.0133950
766.552	0.0133646
766.630	0.0133118
766.708	0.0133492
766.786	0.0132855
766.864	0.0132939
766.943	0.0133591
767.021	0.0133649
767.099	0.0132847
767.177	0.0132322
767.255	0.0133077
767.333	0.0133802
767.411	0.0134081
767.489	0.0133755
767.568	0.0133403
767.646	0.0131858
767.724	0.0131606
767.802	0.0133015
767.880	0.0132107
767.958	0.0132247
768.036	0.0133688
768.114	0.0132623
768.193	0.0132766
768.271	0.0132523
768.349	0.0132410
768.427	0.0132893
768.505	0.0133266
768.583	0.0132514
768.661	0.0133191
768.739	0.0132648
768.818	0.0131458
768.896	0.0132514
768.974	0.0132848
769.052	0.0131299
769.130	0.0130154
769.208	0.0131361
769.286	0.0131158
769.364	0.0131903
769.443	0.0130609
769.521	0.0132836
769.599	0.0132942
769.677	0.0131306
769.755	0.0130652
769.833	0.0132642
769.911	0.0131920
769.989	0.0130849
770.068	0.0133054
770.146	0.0132843
770.224	0.0133111
770.302	0.0131900
770.380	0.0131895
770.458	0.0132021
770.536	0.0132521
770.614	0.0132498
770.693	0.0132394
770.771	0.0133126
770.849	0.0133187
770.927	0.0131429
771.005	0.0131310
771.083	0.0131955
771.161	0.0132178
771.239	0.0132729
771.318	0.0133654
771.396	0.0133447
771.474	0.0133255
771.552	0.0134322
771.630	0.0135520
771.708	0.0136746
771.786	0.0136164
771.864	0.0136208
771.943	0.0137556
772.021	0.0137772
772.099	0.0138504
772.177	0.0139964
772.255	0.0139472
772.333	0.0137382
772.411	0.0138986
772.489	0.0137891
772.568	0.0137388
772.646	0.0137878
772.724	0.0137283
772.802	0.0137406
772.880	0.0136797
772.958	0.0136034
773.036	0.0136221
773.114	0.0136591
773.193	0.0134776
773.271	0.0135001
773.349	0.0134844
773.427	0.0135675
773.505	0.0134969
773.583	0.0133681
773.661	0.0134222
773.739	0.0132198
773.818	0.0132845
773.896	0.0133458
773.974	0.0132954
774.052	0.0131841
774.130	0.0132128
774.208	0.0132958
774.286	0.0132854
774.364	0.0132615
774.443	0.0131442
774.521	0.0130636
774.599	0.0131853
774.677	0.0130947
774.755	0.0131628
774.833	0.0131820
774.911	0.0131907
774.989	0.0130147
775.068	0.0131834
775.146	0.0131336
775.224	0.0131921
775.302	0.0131898
775.380	0.0132005
775.458	0.0130209
775.536	0.0130604
775.614	0.0129900
775.693	0.0131561
775.771	0.0131197
775.849	0.0130296
775.927	0.0130212
776.005	0.0130997
776.083	0.0131754
776.161	0.0130443
776.239	0.0129675
776.318	0.0132014
776.396	0.0131834
776.474	0.0132659
776.552	0.0131450
776.630	0.0133620
776.708	0.0132794
776.786	0.0133875
776.864	0.0134359
776.943	0.0135303
777.021	0.0135992
777.099	0.0135458
777.177	0.0136395
777.255	0.0134124
777.333	0.0134494
777.411	0.0134808
777.489	0.0134230
777.568	0.0135435
777.646	0.0134698
777.724	0.0133991
777.802	0.0133903
777.880	0.0135627
777.958	0.0135392
778.036	0.0134418
778.114	0.0135172
778.193	0.0134949
778.271	0.0136137
778.349	0.0136278
778.427	0.0135328
778.505	0.0135611
778.583	0.0137297
778.661	0.0136239
778.739	0.0135142
778.818	0.0135908
778.896	0.0135419
778.974	0.0134637
779.052	0.0133485
779.130	0.0134491
779.208	0.0133386
779.286	0.0133416
779.364	0.0133758
779.443	0.0132375
779.521	0.0133776
779.599	0.0134386
779.677	0.0131765
779.755	0.0131567
779.833	0.0132626
779.911	0.0130924
779.989	0.0131622
780.068	0.0133533
780.146	0.0133633
780.224	0.0132830
780.302	0.0133308
780.380	0.0133109
780.458	0.0134132
780.536	0.0133736
780.614	0.0134010
780.693	0.0134417
780.771	0.0135210
780.849	0.0134705
780.927	0.0136083
781.005	0.0135256
781.083	0.0134416
781.161	0.0136520
781.239	0.0135155
781.318	0.0134457
781.396	0.0135705
781.474	0.0136420
781.552	0.0134794
781.630	0.0133926
781.708	0.0133784
781.786	0.0134108
781.864	0.0133597
781.943	0.0133546
782.021	0.0132599
782.099	0.0131956
782.177	0.0133031
782.255	0.0131092
782.333	0.0129895
782.411	0.0130526
782.489	0.0131414
782.568	0.0131155
782.646	0.0131025
782.724	0.0132650
782.802	0.0130753
782.880	0.0130561
782.958	0.0131586
783.036	0.0131905
783.114	0.0131640
783.193	0.0131283
783.271	0.0132580
783.349	0.0132108
783.427	0.0130891
783.505	0.0132304
783.583	0.0131963
783.661	0.0133044
783.739	0.0133261
783.818	0.0134239
783.896	0.0132397
783.974	0.0131921
784.052	0.0132494
784.130	0.0134212
784.208	0.0133616
784.286	0.0133210
784.364	0.0132848
784.443	0.0131865
784.521	0.0133018
784.599	0.0133402
784.677	0.0132965
784.755	0.0134608
784.833	0.0135212
784.911	0.0133314
784.989	0.0135639
785.068	0.0133907
785.146	0.0135691
785.224	0.0135207
785.302	0.0135050
785.380	0.0135460
785.458	0.0137057
785.536	0.0137653
785.614	0.0136090
785.693	0.0137271
785.771	0.0136459
785.849	0.0137043
785.927	0.0136381
786.005	0.0137854
786.083	0.0136882
786.161	0.0137497
786.239	0.0138658
786.318	0.0136434
786.396	0.0137829
786.474	0.0136805
786.552	0.0135661
786.630	0.0136811
786.708	0.0135843
786.786	0.0133799
786.864	0.0134354
786.943	0.0134351
787.021	0.0134840
787.099	0.0134475
787.177	0.0134444
787.255	0.0132473
787.333	0.0131639
787.411	0.0130527
787.489	0.0130362
787.568	0.0129894
787.646	0.0129242
787.724	0.0128600
787.802	0.0127658
787.880	0.0129394
787.958	0.0127474
788.036	0.0127209
788.114	0.0128574
788.193	0.0128185
788.271	0.0128521
788.349	0.0128883
788.427	0.0130106
788.505	0.0128617
788.583	0.0128546
788.661	0.0130446
788.739	0.0131001
788.818	0.0130456
788.896	0.0132732
788.974	0.0133878
789.052	0.0135077
789.130	0.0134436
789.208	0.0133363
789.286	0.0136037
789.364	0.0135954
789.443	0.0136596
789.521	0.0136534
789.599	0.0137237
789.677	0.0137965
789.755	0.0139352
789.833	0.0139344
789.911	0.0138612
789.989	0.0138377
790.068	0.0137783
790.146	0.0137570
790.224	0.0138043
790.302	0.0137537
790.380	0.0136742
790.458	0.0136315
790.536	0.0136288
790.614	0.0136486
790.693	0.0135820
790.771	0.0136080
790.849	0.0137189
790.927	0.0135123
791.005	0.0135086
791.083	0.0135185
791.161	0.0135631
791.239	0.0135131
791.318	0.0134443
791.396	0.0134015
791.474	0.0134425
791.552	0.0134230
791.630	0.0132296
791.708	0.0133358
791.786	0.0133138
791.864	0.0131722
791.943	0.0133405
792.021	0.0132654
792.099	0.0130425
792.177	0.0129799
792.255	0.0130426
792.333	0.0131110
792.411	0.0130708
792.489	0.0129311
792.568	0.0130200
792.646	0.0129459
792.724	0.0128687
792.802	0.0129774
792.880	0.0128972
792.958	0.0131114
793.036	0.0130472
793.114	0.0129453
793.193	0.0129889
793.271	0.0132060
793.349	0.0132027
793.427	0.0132571
793.505	0.0133950
793.583	0.0133738
793.661	0.0133495
793.739	0.0135493
793.818	0.0136914
793.896	0.0136581
793.974	0.0137422
794.052	0.0138139
794.130	0.0138596
794.208	0.0139348
794.286	0.0138888
794.364	0.0139374
794.443	0.0140162
794.521	0.0140267
794.599	0.0140617
794.677	0.0139346
794.755	0.0139324
794.833	0.0138934
794.911	0.0138023
794.989	0.0137264
795.068	0.0137719
795.146	0.0135919
795.224	0.0136127
795.302	0.0135239
795.380	0.0134891
795.458	0.0134334
795.536	0.0134578
795.614	0.0134050
795.693	0.0133721
795.771	0.0132873
795.849	0.0131427
795.927	0.0132032
796.005	0.0132542
796.083	0.0132800
796.161	0.0131478
796.239	0.0129533
796.318	0.0130767
796.396	0.0130743
796.474	0.0128331
796.552	0.0128396
796.630	0.0128114
796.708	0.0129217
796.786	0.0129015
796.864	0.0127940
796.943	0.0127090
797.021	0.0127203
797.099	0.0127762
797.177	0.0127155
797.255	0.0126961
797.333	0.0127347
797.411	0.0126707
797.489	0.0127931
797.568	0.0127801
797.646	0.0128777
797.724	0.0130267
797.802	0.0130177
797.880	0.0130015
797.958	0.0131480
798.036	0.0131916
798.114	0.0132033
798.193	0.0134753
798.271	0.0135538
798.349	0.0136016
798.427	0.0136443
798.505	0.0138711
798.583	0.0138601
798.661	0.0140231
798.739	0.0140359
798.818	0.0141457
798.896	0.0142795
798.974	0.0143082
799.052	0.0143938
799.130	0.0143292
799.208	0.0142508
799.286	0.0143099
799.364	0.0143710
799.443	0.0140751
799.521	0.0141512
799.599	0.0139500
799.677	0.0137240
799.755	0.0137177
799.833	0.0137374
799.911	0.0135049
799.989	0.0135711
800.068	0.0134064
800.146	0.0135009
800.224	0.0133250
800.302	0.0134202
800.380	0.0132741
800.458	0.0132792
800.536	0.0132007
800.614	0.0131535
800.693	0.0131284
800.771	0.0131907
800.849	0.0131877
800.927	0.0130926
801.005	0.0129987
801.083	0.0130069
801.161	0.0130577
801.239	0.0128754
801.318	0.0128201
801.396	0.0128838
801.474	0.0129463
801.552	0.0129414
801.630	0.0128351
801.708	0.0128114
801.786	0.0126112
801.864	0.0126296
801.943	0.0126926
802.021	0.0126356
802.099	0.0125005
802.177	0.0125828
802.255	0.0126236
802.333	0.0126101
802.411	0.0126102
802.489	0.0126539
802.568	0.0127849
802.646	0.0127911
802.724	0.0129862
802.802	0.0128813
802.880	0.0128721
802.958	0.0133350
803.036	0.0133961
803.114	0.0136051
803.193	0.0136592
803.271	0.0136925
803.349	0.0138325
803.427	0.0139413
803.505	0.0139702
803.583	0.0141165
803.661	0.0142302
803.739	0.0141372
803.818	0.0143195
803.896	0.0143420
803.974	0.0142223
804.052	0.0142677
804.130	0.0143428
804.208	0.0143376
804.286	0.0142680
804.364	0.0140250
804.443	0.0139770
804.521	0.0139890
804.599	0.0139331
804.677	0.0136684
804.755	0.0137124
804.833	0.0137010
804.911	0.0135812
804.989	0.0135581
805.068	0.0135220
805.146	0.0133721
805.224	0.0133949
805.302	0.0132592
805.380	0.0131204
805.458	0.0132220
805.536	0.0131751
805.614	0.0130685
805.693	0.0129571
805.771	0.0129851
805.849	0.0131055
805.927	0.0129742
806.005	0.0130444
806.083	0.0128352
806.161	0.0128951
806.239	0.0129862
806.318	0.0129430
806.396	0.0128135
806.474	0.0128353
806.552	0.0129458
806.630	0.0129022
806.708	0.0127943
806.786	0.0127757
806.864	0.0126250
806.943	0.0126842
807.021	0.0127573
807.099	0.0125970
807.177	0.0128344
807.255	0.0129085
807.333	0.0127558
807.411	0.0127758
807.489	0.0128054
807.568	0.0130493
807.646	0.0131220
807.724	0.0131178
807.802	0.0131375
807.880	0.0132408
807.958	0.0133791
808.036	0.0135919
808.114	0.0135152
808.193	0.0135540
808.271	0.0136611
808.349	0.0137522
808.427	0.0136951
808.505	0.0139669
808.583	0.0138903
808.661	0.0138484
808.739	0.0139150
808.818	0.0140562
808.896	0.0140704
808.974	0.0139782
809.052	0.0141135
809.130	0.0137922
809.208	0.0140093
809.286	0.0139828
809.364	0.0139540
809.443	0.0139378
809.521	0.0138935
809.599	0.0138969
809.677	0.0138483
809.755	0.0138700
809.833	0.0137720
809.911	0.0137469
809.989	0.0137868
810.068	0.0137617
810.146	0.0137787
810.224	0.0136057
810.302	0.0136266
810.380	0.0135104
810.458	0.0135283
810.536	0.0133186
810.614	0.0134077
810.693	0.0133865
810.771	0.0134280
810.849	0.0130501
810.927	0.0130532
811.005	0.0131979
811.083	0.0132004
811.161	0.0130331
811.239	0.0128864
811.318	0.0128943
811.396	0.0128851
811.474	0.0128877
811.552	0.0127583
811.630	0.0126896
811.708	0.0125792
811.786	0.0127444
811.864	0.0127116
811.943	0.0125460
812.021	0.0126408
812.099	0.0124760
812.177	0.0125610
812.255	0.0125304
812.333	0.0124673
812.411	0.0125732
812.489	0.0126178
812.568	0.0127573
812.646	0.0128377
812.724	0.0128297
812.802	0.0130040
812.880	0.0129711
812.958	0.0129098
813.036	0.0131245
813.114	0.0131565
813.193	0.0132012
813.271	0.0133099
813.349	0.0133215
813.427	0.0134386
813.505	0.0136176
813.583	0.0136958
813.661	0.0136120
813.739	0.0137228
813.818	0.0137576
813.896	0.0137591
813.974	0.0139406
814.052	0.0138425
814.130	0.0140936
814.208	0.0139179
814.286	0.0140834
814.364	0.0142351
814.443	0.0141558
814.521	0.0141244
814.599	0.0141872
814.677	0.0141532
814.755	0.0141282
814.833	0.0142906
814.911	0.0141085
814.989	0.0139809
815.068	0.0141026
815.146	0.0141142
815.224	0.0139788
815.302	0.0138528
815.380	0.0137935
815.458	0.0138634
815.536	0.0136584
815.614	0.0135836
815.693	0.0134628
815.771	0.0133876
815.849	0.0132933
815.927	0.0133768
816.005	0.0132986
816.083	0.0131330
816.161	0.0130862
816.239	0.0129205
816.318	0.0130271
816.396	0.0127862
816.474	0.0127229
816.552	0.0126233
816.630	0.0126585
816.708	0.0125842
816.786	0.0124339
816.864	0.0124503
816.943	0.0122993
817.021	0.0122963
817.099	0.0122881
817.177	0.0122670
817.255	0.0123058
817.333	0.0123750
817.411	0.0123264
817.489	0.0123778
817.568	0.0124046
817.646	0.0126288
817.724	0.0126114
817.802	0.0126091
817.880	0.0127399
817.958	0.0128249
818.036	0.0128675
818.114	0.0130192
818.193	0.0131081
818.271	0.0130534
818.349	0.0131716
818.427	0.0132624
818.505	0.0134895
818.583	0.0135695
818.661	0.0135069
818.739	0.0135342
818.818	0.0137125
818.896	0.0138298
818.974	0.0136358
819.052	0.0137560
819.130	0.0138299
819.208	0.0140964
819.286	0.0140456
819.364	0.0139270
819.443	0.0140286
819.521	0.0140340
819.599	0.0140260
819.677	0.0139600
819.755	0.0139951
819.833	0.0141484
819.911	0.0140289
819.989	0.0139812
820.068	0.0141233
820.146	0.0138456
820.224	0.0139334
820.302	0.0139659
820.380	0.0138535
820.458	0.0137610
820.536	0.0137986
820.614	0.0138325
820.693	0.0138846
820.771	0.0137579
820.849	0.0137150
820.927	0.0135917
821.005	0.0134216
821.083	0.0133849
821.161	0.0134091
821.239	0.0133455
821.318	0.0131660
821.396	0.0132706
821.474	0.0132130
821.552	0.0129581
821.630	0.0129723
821.708	0.0130325
821.786	0.0129530
821.864	0.0128310
821.943	0.0127872
822.021	0.0128487
822.099	0.0128918
822.177	0.0127411
822.255	0.0127032
822.333	0.0126335
822.411	0.0128131
822.489	0.0127212
822.568	0.0126656
822.646	0.0126669
822.724	0.0127792
822.802	0.0126720
822.880	0.0126312
822.958	0.0125317
823.036	0.0125377
823.114	0.0126907
823.193	0.0127384
823.271	0.0127526
823.349	0.0126968
823.427	0.0127688
823.505	0.0129271
823.583	0.0130631
823.661	0.0130612
823.739	0.0131195
823.818	0.0131222
823.896	0.0132723
823.974	0.0133862
824.052	0.0133546
824.130	0.0133537
824.208	0.0134586
824.286	0.0133766
824.364	0.0135960
824.443	0.0135555
824.521	0.0136647
824.599	0.0139503
824.677	0.0137971
824.755	0.0139259
824.833	0.0139258
824.911	0.0139119
824.989	0.0139421
825.068	0.0138247
825.146	0.0137926
825.224	0.0139732
825.302	0.0140569
825.380	0.0139789
825.458	0.0138735
825.536	0.0139890
825.614	0.0137683
825.693	0.0138577
825.771	0.0137122
825.849	0.0137547
825.927	0.0138115
826.005	0.0137783
826.083	0.0137167
826.161	0.0137349
826.239	0.0136550
826.318	0.0136948
826.396	0.0135674
826.474	0.0135149
826.552	0.0135653
826.630	0.0134974
826.708	0.0134222
826.786	0.0134599
826.864	0.0133597
826.943	0.0131630
827.021	0.0131999
827.099	0.0133170
827.177	0.0132265
827.255	0.0130390
827.333	0.0132532
827.411	0.0130919
827.489	0.0130498
827.568	0.0129910
827.646	0.0130214
827.724	0.0128667
827.802	0.0128572
827.880	0.0129567
827.958	0.0128982
828.036	0.0128941
828.114	0.0127389
828.193	0.0128529
828.271	0.0127360
828.349	0.0129066
828.427	0.0127418
828.505	0.0126772
828.583	0.0127974
828.661	0.0128680
828.739	0.0128780
828.818	0.0128111
828.896	0.0128800
828.974	0.0130333
829.052	0.0129822
829.130	0.0129902
829.208	0.0130399
829.286	0.0129247
829.364	0.0129789
829.443	0.0131779
829.521	0.0131383
829.599	0.0131333
829.677	0.0131808
829.755	0.0131081
829.833	0.0131802
829.911	0.0132786
829.989	0.0132735
830.068	0.0132356
830.146	0.0133956
830.224	0.0135496
830.302	0.0134306
830.380	0.0134777
830.458	0.0136575
830.536	0.0136806
830.614	0.0138193
830.693	0.0136391
830.771	0.0137253
830.849	0.0138014
830.927	0.0137518
831.005	0.0137245
831.083	0.0138795
831.161	0.0140304
831.239	0.0139157
831.318	0.0138619
831.396	0.0138992
831.474	0.0137556
831.552	0.0138970
831.630	0.0138059
831.708	0.0137514
831.786	0.0136453
831.864	0.0134568
831.943	0.0135822
832.021	0.0135950
832.099	0.0134673
832.177	0.0134576
832.255	0.0134126
832.333	0.0133513
832.411	0.0133016
832.489	0.0131737
832.568	0.0132034
832.646	0.0130634
832.724	0.0130842
832.802	0.0131494
832.880	0.0131268
832.958	0.0129325
833.036	0.0130362
833.114	0.0131059
833.193	0.0130687
833.271	0.0130695
833.349	0.0130354
833.427	0.0131152
833.505	0.0131167
833.583	0.0131704
833.661	0.0131385
833.739	0.0131512
833.818	0.0131246
833.896	0.0130778
833.974	0.0131615
834.052	0.0132195
834.130	0.0132289
834.208	0.0132498
834.286	0.0132005
834.364	0.0131616
834.443	0.0132169
834.521	0.0131337
834.599	0.0131499
834.677	0.0132319
834.755	0.0130984
834.833	0.0131915
834.911	0.0132687
834.989	0.0131564
835.068	0.0132298
835.146	0.0133955
835.224	0.0133048
835.302	0.0132981
835.380	0.0133591
835.458	0.0134649
835.536	0.0134304
835.614	0.0134467
835.693	0.0134384
835.771	0.0135358
835.849	0.0134526
835.927	0.0135753
836.005	0.0135833
836.083	0.0135503
836.161	0.0136180
836.239	0.0135677
836.318	0.0135142
836.396	0.0136320
836.474	0.0135645
836.552	0.0135264
836.630	0.0134655
836.708	0.0134859
836.786	0.0135480
836.864	0.0136252
836.943	0.0135657
837.021	0.0135612
837.099	0.0134055
837.177	0.0134227
837.255	0.0135024
837.333	0.0134161
837.411	0.0134283
837.489	0.0132484
837.568	0.0132914
837.646	0.0132901
837.724	0.0133929
837.802	0.0133015
837.880	0.0132314
837.958	0.0131075
838.036	0.0130724
838.114	0.0131356
838.193	0.0131501
838.271	0.0131501
838.349	0.0130027
838.427	0.0131972
838.505	0.0132584
838.583	0.0132150
838.661	0.0131931
838.739	0.0133455
838.818	0.0132968
838.896	0.0132653
838.974	0.0132336
839.052	0.0133769
839.130	0.0135262
839.208	0.0134010
839.286	0.0133855
839.364	0.0134214
839.443	0.0133873
839.521	0.0134235
839.599	0.0136488
839.677	0.0135610
839.755	0.0134625
839.833	0.0136100
839.911	0.0134299
839.989	0.0136057
840.068	0.0134880
840.146	0.0134050
840.224	0.0135773
840.302	0.0135032
840.380	0.0135535
840.458	0.0136440
840.536	0.0134402
840.614	0.0134954
840.693	0.0134974
840.771	0.0134375
840.849	0.0134656
840.927	0.0133611
841.005	0.0134006
841.083	0.0132270
841.161	0.0133761
841.239	0.0133093
841.318	0.0132240
841.396	0.0131002
841.474	0.0132035
841.552	0.0131620
841.630	0.0131049
841.708	0.0130223
841.786	0.0130595
841.864	0.0130389
841.943	0.0131242
842.021	0.0130964
842.099	0.0131692
842.177	0.0132526
842.255	0.0133230
842.333	0.0132774
842.411	0.0132420
842.489	0.0133704
842.568	0.0133054
842.646	0.0131922
842.724	0.0132546
842.802	0.0132446
842.880	0.0133759
842.958	0.0132951
843.036	0.0133133
843.114	0.0132842
843.193	0.0134114
843.271	0.0133965
843.349	0.0133347
843.427	0.0133318
843.505	0.0134164
843.583	0.0134061
843.661	0.0133575
843.739	0.0134836
843.818	0.0134402
843.896	0.0132592
843.974	0.0134290
844.052	0.0133965
844.130	0.0133443
844.208	0.0133930
844.286	0.0134728
844.364	0.0134237
844.443	0.0133327
844.521	0.0132803
844.599	0.0135014
844.677	0.0134788
844.755	0.0133781
844.833	0.0135064
844.911	0.0133513
844.989	0.0134752
845.068	0.0136161
845.146	0.0134148
845.224	0.0135505
845.302	0.0134634
845.380	0.0133034
845.458	0.0134484
845.536	0.0137627
845.614	0.0134907
845.693	0.0135065
845.771	0.0135078
845.849	0.0134363
845.927	0.0135992
846.005	0.0134864
846.083	0.0134000
846.161	0.0134269
846.239	0.0133340
846.318	0.0133701
846.396	0.0133950
846.474	0.0134402
846.552	0.0132751
846.630	0.0131033
846.708	0.0132856
846.786	0.0132607
846.864	0.0131127
846.943	0.0131975
847.021	0.0132542
847.099	0.0131535
847.177	0.0131213
847.255	0.0131297
847.333	0.0130673
847.411	0.0130904
847.489	0.0129073
847.568	0.0129898
847.646	0.0131789
847.724	0.0131571
847.802	0.0131940
847.880	0.0131785
847.958	0.0130392
848.036	0.0131857
848.114	0.0129844
848.193	0.0130701
848.271	0.0130538
848.349	0.0132269
848.427	0.0131383
848.505	0.0131871
848.583	0.0131818
848.661	0.0132031
848.739	0.0131794
848.818	0.0132992
848.896	0.0132687
848.974	0.0133617
849.052	0.0133730
849.130	0.0135027
849.208	0.0134438
849.286	0.0133693
849.364	0.0132867
849.443	0.0134615
849.521	0.0135951
849.599	0.0135801
849.677	0.0134619
849.755	0.0135303
849.833	0.0134960
849.911	0.0133983
849.989	0.0136538
850.068	0.0136213
850.146	0.0135292
850.224	0.0135466
850.302	0.0136684
850.380	0.0136087
850.458	0.0136800
850.536	0.0136912
850.614	0.0135860
850.693	0.0136082
850.771	0.0136943
850.849	0.0135271
850.927	0.0135086
851.005	0.0135851
851.083	0.0135728
851.161	0.0135893
851.239	0.0136713
851.318	0.0134896
851.396	0.0135719
851.474	0.0134996
851.552	0.0134364
851.630	0.0133871
851.708	0.0133810
851.786	0.0134173
851.864	0.0133099
851.943	0.0131907
852.021	0.0131628
852.099	0.0132377
852.177	0.0132165
852.255	0.0132264
852.333	0.0131109
852.411	0.0132326
852.489	0.0129580
852.568	0.0130453
852.646	0.0129778
852.724	0.0129391
852.802	0.0131033
852.880	0.0130706
852.958	0.0131257
853.036	0.0131859
853.114	0.0131085
853.193	0.0130767
853.271	0.0131542
853.349	0.0132059
853.427	0.0133115
853.505	0.0130784
853.583	0.0131870
853.661	0.0132842
853.739	0.0132478
853.818	0.0132041
853.896	0.0132318
853.974	0.0132664
854.052	0.0132034
854.130	0.0134937
854.208	0.0133302
854.286	0.0132078
854.364	0.0132193
854.443	0.0132510
854.521	0.0133229
854.599	0.0133388
854.677	0.0133803
854.755	0.0134332
854.833	0.0131390
854.911	0.0131937
854.989	0.0134111
855.068	0.0134499
855.146	0.0133695
855.224	0.0133832
855.302	0.0135643
855.380	0.0136198
855.458	0.0133700
855.536	0.0133531
855.614	0.0134161
855.693	0.0134674
855.771	0.0135927
855.849	0.0134860
855.927	0.0135046
856.005	0.0135035
856.083	0.0135229
856.161	0.0134999
856.239	0.0136021
856.318	0.0135913
856.396	0.0135242
856.474	0.0133913
856.552	0.0134932
856.630	0.0136112
856.708	0.0134217
856.786	0.0134595
856.864	0.0133960
856.943	0.0133897
857.021	0.0134117
857.099	0.0133781
857.177	0.0133138
857.255	0.0133231
857.333	0.0132948
857.411	0.0133540
857.489	0.0133158
857.568	0.0133243
857.646	0.0133806
857.724	0.0133967
857.802	0.0133651
857.880	0.0133416
857.958	0.0133312
858.036	0.0132243
858.114	0.0132370
858.193	0.0132301
858.271	0.0132304
858.349	0.0133273
858.427	0.0134265
858.505	0.0132040
858.583	0.0131171
858.661	0.0130729
858.739	0.0131269
858.818	0.0134422
858.896	0.0131743
858.974	0.0131863
859.052	0.0132332
859.130	0.0131824
859.208	0.0131798
859.286	0.0133215
859.364	0.0132665
859.443	0.0132364
859.521	0.0133595
859.599	0.0133164
859.677	0.0133109
859.755	0.0132564
859.833	0.0132307
859.911	0.0135128
859.989	0.0133752
860.068	0.0133672
860.146	0.0133801
860.224	0.0134145
860.302	0.0134109
860.380	0.0133633
860.458	0.0135453
860.536	0.0134268
860.614	0.0134634
860.693	0.0134860
860.771	0.0135509
860.849	0.0135479
860.927	0.0135630
861.005	0.0134911
861.083	0.0135034
861.161	0.0134702
861.239	0.0135873
861.318	0.0135165
861.396	0.0133536
861.474	0.0133766
861.552	0.0134441
861.630	0.0134538
861.708	0.0134361
861.786	0.0133151
861.864	0.0132632
861.943	0.0132370
862.021	0.0135172
862.099	0.0133927
862.177	0.0134480
862.255	0.0134164
862.333	0.0135016
862.411	0.0133546
862.489	0.0134534
862.568	0.0136862
862.646	0.0135332
862.724	0.0134272
862.802	0.0135349
862.880	0.0135578
862.958	0.0136376
863.036	0.0136064
863.114	0.0134914
863.193	0.0135511
863.271	0.0135799
863.349	0.0134807
863.427	0.0134396
863.505	0.0134180
863.583	0.0133707
863.661	0.0134401
863.739	0.0134293
863.818	0.0132553
863.896	0.0132764
863.974	0.0132932
864.052	0.0132592
864.130	0.0133850
864.208	0.0134277
864.286	0.0131921
864.364	0.0133781
864.443	0.0132380
864.521	0.0131859
864.599	0.0132903
864.677	0.0133622
864.755	0.0133788
864.833	0.0132883
864.911	0.0133392
864.989	0.0133159
865.068	0.0133173
865.146	0.0132686
865.224	0.0132838
865.302	0.0132320
865.380	0.0132391
865.458	0.0134012
865.536	0.0131488
865.614	0.0131401
865.693	0.0132973
865.771	0.0133153
865.849	0.0131869
865.927	0.0131136
866.005	0.0132439
866.083	0.0131152
866.161	0.0133081
866.239	0.0132499
866.318	0.0132463
866.396	0.0130418
866.474	0.0132318
866.552	0.0133025
866.630	0.0131946
866.708	0.0132130
866.786	0.0133582
866.864	0.0131680
866.943	0.0132759
867.021	0.0132478
867.099	0.0133384
867.177	0.0132697
867.255	0.0133471
867.333	0.0135226
867.411	0.0134301
867.489	0.0134756
867.568	0.0134828
867.646	0.0135723
867.724	0.0136186
867.802	0.0136407
867.880	0.0136432
867.958	0.0135757
868.036	0.0136447
868.114	0.0136260
868.193	0.0136045
868.271	0.0137044
868.349	0.0136352
868.427	0.0135479
868.505	0.0133798
868.583	0.0135712
868.661	0.0136384
868.739	0.0135494
868.818	0.0135629
868.896	0.0134972
868.974	0.0135231
869.052	0.0135843
869.130	0.0134364
869.208	0.0134921
869.286	0.0135075
869.364	0.0134456
869.443	0.0134175
869.521	0.0135732
869.599	0.0134082
869.677	0.0134432
869.755	0.0134828
869.833	0.0133798
869.911	0.0132592
869.989	0.0132977
870.068	0.0131270
870.146	0.0132019
870.224	0.0132093
870.302	0.0132024
870.380	0.0131853
870.458	0.0132162
870.536	0.0131133
870.614	0.0129916
870.693	0.0129952
870.771	0.0130451
870.849	0.0130568
870.927	0.0130814
871.005	0.0130122
871.083	0.0131370
871.161	0.0130405
871.239	0.0129986
871.318	0.0131217
871.396	0.0131345
871.474	0.0130604
871.552	0.0132355
871.630	0.0131635
871.708	0.0132024
871.786	0.0133045
871.864	0.0131342
871.943	0.0130997
872.021	0.0134549
872.099	0.0133624
872.177	0.0133393
872.255	0.0135478
872.333	0.0134218
872.411	0.0134920
872.489	0.0134978
872.568	0.0135372
872.646	0.0135223
872.724	0.0137491
872.802	0.0135394
872.880	0.0136120
872.958	0.0136467
873.036	0.0135640
873.114	0.0136114
873.193	0.0135364
873.271	0.0134177
873.349	0.0133267
873.427	0.0135970
873.505	0.0134621
873.583	0.0133550
873.661	0.0134229
873.739	0.0135412
873.818	0.0134729
873.896	0.0134056
873.974	0.0135545
874.052	0.0135918
874.130	0.0134145
874.208	0.0135394
874.286	0.0134511
874.364	0.0132869
874.443	0.0134002
874.521	0.0134202
874.599	0.0133858
874.677	0.0134236
874.755	0.0134679
874.833	0.0134821
874.911	0.0133626
874.989	0.0133295
875.068	0.0135287
875.146	0.0134354
875.224	0.0134129
875.302	0.0134490
875.380	0.0133617
875.458	0.0133298
875.536	0.0133701
875.614	0.0133627
875.693	0.0133215
875.771	0.0132885
875.849	0.0133162
875.927	0.0132066
876.005	0.0133068
876.083	0.0131734
876.161	0.0132881
876.239	0.0131689
876.318	0.0132144
876.396	0.0131393
876.474	0.0132337
876.552	0.0132812
876.630	0.0132731
876.708	0.0132922
876.786	0.0132392
876.864	0.0133124
876.943	0.0132335
877.021	0.0132371
877.099	0.0133530
877.177	0.0132063
877.255	0.0131577
877.333	0.0134725
877.411	0.0134077
877.489	0.0133207
877.568	0.0134393
877.646	0.0134093
877.724	0.0134532
877.802	0.0133603
877.880	0.0134545
877.958	0.0133356
878.036	0.0134942
878.114	0.0133571
878.193	0.0133350
878.271	0.0133095
878.349	0.0133395
878.427	0.0134356
878.505	0.0132417
878.583	0.0133836
878.661	0.0133576
878.739	0.0132891
878.818	0.0132551
878.896	0.0132304
878.974	0.0132180
879.052	0.0133072
879.130	0.0132826
879.208	0.0132116
879.286	0.0132240
879.364	0.0132730
879.443	0.0132037
879.521	0.0134673
879.599	0.0133100
879.677	0.0133106
879.755	0.0133067
879.833	0.0133324
879.911	0.0133984
879.989	0.0134483
880.068	0.0133604
880.146	0.0134626
880.224	0.0134498
880.302	0.0134248
880.380	0.0134412
880.458	0.0133878
880.536	0.0135397
880.614	0.0134973
880.693	0.0134686
880.771	0.0136062
880.849	0.0135863
880.927	0.0134509
881.005	0.0133939
881.083	0.0134631
881.161	0.0133813
881.239	0.0136294
881.318	0.0134819
881.396	0.0135940
881.474	0.0135145
881.552	0.0134242
881.630	0.0135130
881.708	0.0135655
881.786	0.0134901
881.864	0.0134314
881.943	0.0134270
882.021	0.0133105
882.099	0.0133178
882.177	0.0132434
882.255	0.0132014
882.333	0.0130428
882.411	0.0130647
882.489	0.0131227
882.568	0.0129330
882.646	0.0129672
882.724	0.0129293
882.802	0.0129669
882.880	0.0129504
882.958	0.0129658
883.036	0.0129559
883.114	0.0130264
883.193	0.0130325
883.271	0.0131763
883.349	0.0131287
883.427	0.0132058
883.505	0.0134499
883.583	0.0134068
883.661	0.0132780
883.739	0.0133416
883.818	0.0135046
883.896	0.0133926
883.974	0.0134259
884.052	0.0134371
884.130	0.0134649
884.208	0.0135436
884.286	0.0134085
884.364	0.0134566
884.443	0.0135425
884.521	0.0135085
884.599	0.0134274
884.677	0.0136442
884.755	0.0135209
884.833	0.0136395
884.911	0.0134363
884.989	0.0135138
885.068	0.0134368
885.146	0.0135603
885.224	0.0136095
885.302	0.0134177
885.380	0.0134760
885.458	0.0134830
885.536	0.0134824
885.614	0.0133726
885.693	0.0133599
885.771	0.0133268
885.849	0.0133147
885.927	0.0133228
886.005	0.0133253
886.083	0.0132584
886.161	0.0134550
886.239	0.0133575
886.318	0.0132590
886.396	0.0132099
886.474	0.0133564
886.552	0.0132337
886.630	0.0131589
886.708	0.0132155
886.786	0.0130559
886.864	0.0132312
886.943	0.0131551
887.021	0.0130742
887.099	0.0130027
887.177	0.0129795
887.255	0.0129023
887.333	0.0129165
887.411	0.0130214
887.489	0.0130505
887.568	0.0129706
887.646	0.0129862
887.724	0.0128572
887.802	0.0130440
887.880	0.0129897
887.958	0.0131854
888.036	0.0134608
888.114	0.0132875
888.193	0.0133324
888.271	0.0136012
888.349	0.0136332
888.427	0.0136953
888.505	0.0136702
888.583	0.0136559
888.661	0.0138378
888.739	0.0138151
888.818	0.0138400
888.896	0.0138968
888.974	0.0138877
889.052	0.0138116
889.130	0.0136960
889.208	0.0138175
889.286	0.0135543
889.364	0.0135079
889.443	0.0135915
889.521	0.0134755
889.599	0.0135650
889.677	0.0135323
889.755	0.0133175
889.833	0.0132442
889.911	0.0132533
889.989	0.0132604
890.068	0.0132693
890.146	0.0131866
890.224	0.0131908
890.302	0.0131110
890.380	0.0132511
890.458	0.0130463
890.536	0.0132508
890.614	0.0131720
890.693	0.0131722
890.771	0.0133125
890.849	0.0133195
890.927	0.0132993
891.005	0.0133962
891.083	0.0133858
891.161	0.0134323
891.239	0.0134264
891.318	0.0134839
891.396	0.0134222
891.474	0.0134995
891.552	0.0134583
891.630	0.0134525
891.708	0.0132421
891.786	0.0132760
891.864	0.0132207
891.943	0.0132632
892.021	0.0130441
892.099	0.0131402
892.177	0.0132803
892.255	0.0132176
892.333	0.0130265
892.411	0.0129922
892.489	0.0130341
892.568	0.0131287
892.646	0.0131089
892.724	0.0131631
892.802	0.0132041
892.880	0.0132736
892.958	0.0133155
893.036	0.0134308
893.114	0.0135104
893.193	0.0136416
893.271	0.0137581
893.349	0.0138920
893.427	0.0137875
893.505	0.0137634
893.583	0.0139278
893.661	0.0139163
893.739	0.0138235
893.818	0.0139011
893.896	0.0138151
893.974	0.0137578
894.052	0.0137169
894.130	0.0137347
894.208	0.0135857
894.286	0.0135001
894.364	0.0135963
894.443	0.0134058
894.521	0.0133301
894.599	0.0132749
894.677	0.0131437
894.755	0.0131882
894.833	0.0131795
894.911	0.0130143
894.989	0.0130303
895.068	0.0130227
895.146	0.0130743
895.224	0.0130541
895.302	0.0131019
895.380	0.0129853
895.458	0.0132124
895.536	0.0132420
895.614	0.0133231
895.693	0.0133067
895.771	0.0133752
895.849	0.0133445
895.927	0.0134348
896.005	0.0135191
896.083	0.0134308
896.161	0.0135468
896.239	0.0134588
896.318	0.0134318
896.396	0.0135519
896.474	0.0134235
896.552	0.0134248
896.630	0.0133945
896.708	0.0133431
896.786	0.0133634
896.864	0.0132530
896.943	0.0132230
897.021	0.0131345
897.099	0.0130905
897.177	0.0129843
897.255	0.0129975
897.333	0.0129718
897.411	0.0129535
897.489	0.0131479
897.568	0.0131214
897.646	0.0130730
897.724	0.0132598
897.802	0.0132483
897.880	0.0132307
897.958	0.0131615
898.036	0.0133837
898.114	0.0135242
898.193	0.0135197
898.271	0.0136587
898.349	0.0137018
898.427	0.0137274
898.505	0.0135998
898.583	0.0137937
898.661	0.0136726
898.739	0.0137106
898.818	0.0138789
898.896	0.0135979
898.974	0.0136524
899.052	0.0135262
899.130	0.0134637
899.208	0.0133601
899.286	0.0132761
899.364	0.0132023
899.443	0.0133792
899.521	0.0131944
899.599	0.0130840
899.677	0.0130415
899.755	0.0129759
899.833	0.0131552
899.911	0.0132140
899.989	0.0130712
900.068	0.0132065
900.146	0.0131580
900.224	0.0130917
900.302	0.0131839
900.380	0.0132310
900.458	0.0132442
900.536	0.0133094
900.614	0.0133406
900.693	0.0134637
900.771	0.0134489
900.849	0.0134612
900.927	0.0134724
901.005	0.0137154
901.083	0.0135499
901.161	0.0135468
901.239	0.0135933
901.318	0.0136264
901.396	0.0135250
901.474	0.0135748
901.552	0.0135238
901.630	0.0135333
901.708	0.0134215
901.786	0.0132400
901.864	0.0133199
901.943	0.0132090
902.021	0.0130713
902.099	0.0130981
902.177	0.0130477
902.255	0.0129782
902.333	0.0129640
902.411	0.0130006
902.489	0.0129295
902.568	0.0128879
902.646	0.0130505
902.724	0.0128870
902.802	0.0129536
902.880	0.0130646
902.958	0.0131540
903.036	0.0131108
903.114	0.0132885
903.193	0.0132769
903.271	0.0132977
903.349	0.0132336
903.427	0.0133491
903.505	0.0134565
903.583	0.0133931
903.661	0.0134991
903.739	0.0133329
903.818	0.0132944
903.896	0.0133497
903.974	0.0133942
904.052	0.0133378
904.130	0.0135483
904.208	0.0133260
904.286	0.0134818
904.364	0.0135728
904.443	0.0135275
904.521	0.0134910
904.599	0.0134544
904.677	0.0135882
904.755	0.0134981
904.833	0.0134022
904.911	0.0134239
904.989	0.0136183
905.068	0.0135919
905.146	0.0135416
905.224	0.0135791
905.302	0.0135958
905.380	0.0135770
905.458	0.0136649
905.536	0.0135006
905.614	0.0134961
905.693	0.0135719
905.771	0.0134037
905.849	0.0134719
905.927	0.0135299
906.005	0.0133920
906.083	0.0133739
906.161	0.0132784
906.239	0.0132662
906.318	0.0131589
906.396	0.0131880
906.474	0.0131722
906.552	0.0131209
906.630	0.0130312
906.708	0.0131232
906.786	0.0129195
906.864	0.0129659
906.943	0.0129079
907.021	0.0128010
907.099	0.0128196
907.177	0.0129050
907.255	0.0126710
907.333	0.0127677
907.411	0.0128129
907.489	0.0128406
907.568	0.0127969
907.646	0.0128606
907.724	0.0130872
907.802	0.0131416
907.880	0.0131046
907.958	0.0132172
908.036	0.0132931
908.114	0.0133746
908.193	0.0134435
908.271	0.0134978
908.349	0.0134487
908.427	0.0134433
908.505	0.0135846
908.583	0.0137067
908.661	0.0136491
908.739	0.0134664
908.818	0.0134769
908.896	0.0136671
908.974	0.0136325
909.052	0.0135966
909.130	0.0136499
909.208	0.0135149
909.286	0.0135097
909.364	0.0135017
909.443	0.0135436
909.521	0.0135598
909.599	0.0136848
909.677	0.0136081
909.755	0.0136105
909.833	0.0136234
909.911	0.0135746
909.989	0.0135158
910.068	0.0134642
910.146	0.0135616
910.224	0.0134432
910.302	0.0135697
910.380	0.0135549
910.458	0.0135480
910.536	0.0131725
910.614	0.0132953
910.693	0.0131358
910.771	0.0131271
910.849	0.0130092
910.927	0.0131320
911.005	0.0129836
911.083	0.0130647
911.161	0.0130836
911.239	0.0130332
911.318	0.0130431
911.396	0.0131359
911.474	0.0129567
911.552	0.0128909
911.630	0.0129185
911.708	0.0128844
911.786	0.0131285
911.864	0.0131366
911.943	0.0129050
912.021	0.0129520
912.099	0.0130444
912.177	0.0129228
912.255	0.0129281
912.333	0.0131612
912.411	0.0132977
912.489	0.0133233
912.568	0.0135238
912.646	0.0134460
912.724	0.0134137
912.802	0.0136138
912.880	0.0137602
912.958	0.0137381
913.036	0.0137496
913.114	0.0138342
913.193	0.0137974
913.271	0.0138198
913.349	0.0137373
913.427	0.0137380
913.505	0.0138200
913.583	0.0137476
913.661	0.0137129
913.739	0.0136829
913.818	0.0135525
913.896	0.0136720
913.974	0.0134927
914.052	0.0133640
914.130	0.0135036
914.208	0.0136395
914.286	0.0134471
914.364	0.0133834
914.443	0.0132954
914.521	0.0132947
914.599	0.0133531
914.677	0.0132698
914.755	0.0132809
914.833	0.0134025
914.911	0.0133057
914.989	0.0132432
915.068	0.0132658
915.146	0.0132354
915.224	0.0132272
915.302	0.0132705
915.380	0.0132637
915.458	0.0132838
915.536	0.0131452
915.614	0.0131944
915.693	0.0131154
915.771	0.0131927
915.849	0.0131256
915.927	0.0132364
916.005	0.0129272
916.083	0.0131306
916.161	0.0131281
916.239	0.0130020
916.318	0.0130037
916.396	0.0130460
916.474	0.0131139
916.552	0.0130558
916.630	0.0131586
916.708	0.0131060
916.786	0.0130914
916.864	0.0131177
916.943	0.0131518
917.021	0.0131976
917.099	0.0132388
917.177	0.0132489
917.255	0.0132104
917.333	0.0132822
917.411	0.0133274
917.489	0.0134975
917.568	0.0136454
917.646	0.0134592
917.724	0.0134644
917.802	0.0135672
917.880	0.0134883
917.958	0.0136739
918.036	0.0136343
918.114	0.0135783
918.193	0.0136420
918.271	0.0134711
918.349	0.0135622
918.427	0.0135046
918.505	0.0133315
918.583	0.0134074
918.661	0.0133801
918.739	0.0133932
918.818	0.0133920
918.896	0.0132855
918.974	0.0132528
919.052	0.0131804
919.130	0.0132412
919.208	0.0132590
919.286	0.0131318
919.364	0.0131342
919.443	0.0130876
919.521	0.0132018
919.599	0.0131548
919.677	0.0133424
919.755	0.0132643
919.833	0.0131731
919.911	0.0133096
919.989	0.0132981
920.068	0.0132676
920.146	0.0131990
920.224	0.0132378
920.302	0.0133131
920.380	0.0132011
920.458	0.0131777
920.536	0.0131467
920.614	0.0131609
920.693	0.0130903
920.771	0.0132139
920.849	0.0131174
920.927	0.0130946
921.005	0.0131492
921.083	0.0131303
921.161	0.0132005
921.239	0.0132796
921.318	0.0133189
921.396	0.0132325
921.474	0.0131963
921.552	0.0133095
921.630	0.0131348
921.708	0.0133203
921.786	0.0132951
921.864	0.0132817
921.943	0.0132718
922.021	0.0134081
922.099	0.0134001
922.177	0.0134004
922.255	0.0134476
922.333	0.0134399
922.411	0.0133635
922.489	0.0133908
922.568	0.0134074
922.646	0.0134164
922.724	0.0133525
922.802	0.0133164
922.880	0.0133669
922.958	0.0133321
923.036	0.0133457
923.114	0.0131489
923.193	0.0132939
923.271	0.0131584
923.349	0.0132524
923.427	0.0132745
923.505	0.0131342
923.583	0.0131964
923.661	0.0130237
923.739	0.0130779
923.818	0.0131767
923.896	0.0131159
923.974	0.0131567
924.052	0.0131776
924.130	0.0131352
924.208	0.0131688
924.286	0.0132958
924.364	0.0132388
924.443	0.0132039
924.521	0.0131791
924.599	0.0133681
924.677	0.0133495
924.755	0.0133540
924.833	0.0132275
924.911	0.0133542
924.989	0.0133390
925.068	0.0133315
925.146	0.0133141
925.224	0.0132439
925.302	0.0133172
925.380	0.0132715
925.458	0.0133116
925.536	0.0133869
925.614	0.0133241
925.693	0.0134389
925.771	0.0134303
925.849	0.0134682
925.927	0.0133913
926.005	0.0133657
926.083	0.0134278
926.161	0.0134704
926.239	0.0134843
926.318	0.0135770
926.396	0.0135226
926.474	0.0134937
926.552	0.0132788
926.630	0.0133541
926.708	0.0132034
926.786	0.0132037
926.864	0.0133236
926.943	0.0132964
927.021	0.0132335
927.099	0.0132160
927.177	0.0131239
927.255	0.0132363
927.333	0.0131180
927.411	0.0131736
927.489	0.0132520
927.568	0.0131445
927.646	0.0132098
927.724	0.0133151
927.802	0.0131789
927.880	0.0131614
927.958	0.0132624
928.036	0.0133067
928.114	0.0132274
928.193	0.0133697
928.271	0.0131938
928.349	0.0132346
928.427	0.0132251
928.505	0.0134186
928.583	0.0132967
928.661	0.0134692
928.739	0.0134681
928.818	0.0132950
928.896	0.0132347
928.974	0.0133478
929.052	0.0133357
929.130	0.0133357
929.208	0.0134038
929.286	0.0132796
929.364	0.0131870
929.443	0.0133789
929.521	0.0133450
929.599	0.0131100
929.677	0.0131799
929.755	0.0131536
929.833	0.0129524
929.911	0.0132541
929.989	0.0130825
930.068	0.0131197
930.146	0.0133038
930.224	0.0131908
930.302	0.0133115
930.380	0.0131682
930.458	0.0131300
930.536	0.0131938
930.614	0.0133205
930.693	0.0132599
930.771	0.0133258
930.849	0.0134733
930.927	0.0133853
931.005	0.0135023
931.083	0.0135600
931.161	0.0134598
931.239	0.0135895
931.318	0.0137057
931.396	0.0136987
931.474	0.0136198
931.552	0.0136959
931.630	0.0136710
931.708	0.0137389
931.786	0.0135338
931.864	0.0137695
931.943	0.0138164
932.021	0.0136330
932.099	0.0135142
932.177	0.0134791
932.255	0.0134217
932.333	0.0134851
932.411	0.0134688
932.489	0.0134853
932.568	0.0133233
932.646	0.0132945
932.724	0.0132695
932.802	0.0133640
932.880	0.0133086
932.958	0.0132196
933.036	0.0134292
933.114	0.0133019
933.193	0.0132699
933.271	0.0132578
933.349	0.0133323
933.427	0.0132752
933.505	0.0131944
933.583	0.0133050
933.661	0.0132318
933.739	0.0132693
933.818	0.0133264
933.896	0.0131871
933.974	0.0132113
934.052	0.0132523
934.130	0.0132408
934.208	0.0132104
934.286	0.0131805
934.364	0.0130341
934.443	0.0131915
934.521	0.0132504
934.599	0.0132332
934.677	0.0131731
934.755	0.0132017
934.833	0.0133106
934.911	0.0130612
934.989	0.0130717
935.068	0.0131793
935.146	0.0131186
935.224	0.0131824
935.302	0.0132003
935.380	0.0132793
935.458	0.0132196
935.536	0.0132942
935.614	0.0131890
935.693	0.0131880
935.771	0.0133366
935.849	0.0133640
935.927	0.0134369
936.005	0.0134798
936.083	0.0134680
936.161	0.0135745
936.239	0.0136487
936.318	0.0136057
936.396	0.0136694
936.474	0.0136532
936.552	0.0136630
936.630	0.0137045
936.708	0.0136632
936.786	0.0136813
936.864	0.0135962
936.943	0.0136562
937.021	0.0136402
937.099	0.0135560
937.177	0.0136286
937.255	0.0136224
937.333	0.0136291
937.411	0.0134794
937.489	0.0135666
937.568	0.0135019
937.646	0.0135397
937.724	0.0135793
937.802	0.0134101
937.880	0.0135046
937.958	0.0135291
938.036	0.0134348
938.114	0.0134359
938.193	0.0135226
938.271	0.0133727
938.349	0.0134533
938.427	0.0134957
938.505	0.0131381
938.583	0.0133027
938.661	0.0132392
938.739	0.0131158
938.818	0.0130805
938.896	0.0130939
938.974	0.0129900
939.052	0.0128212
939.130	0.0128115
939.208	0.0128694
939.286	0.0126434
939.364	0.0127759
939.443	0.0128949
939.521	0.0129189
939.599	0.0129471
939.677	0.0129852
939.755	0.0128689
939.833	0.0129321
939.911	0.0130740
939.989	0.0131572
940.068	0.0130334
940.146	0.0130049
940.224	0.0131712
940.302	0.0131166
940.380	0.0132497
940.458	0.0131530
940.536	0.0132041
940.614	0.0133249
940.693	0.0131967
940.771	0.0133105
940.849	0.0133202
940.927	0.0132292
941.005	0.0133991
941.083	0.0135457
941.161	0.0134307
941.239	0.0134479
941.318	0.0134170
941.396	0.0136529
941.474	0.0135844
941.552	0.0135457
941.630	0.0135014
941.708	0.0135074
941.786	0.0134518
941.864	0.0135239
941.943	0.0134705
942.021	0.0135150
942.099	0.0134704
942.177	0.0134013
942.255	0.0134704
942.333	0.0135462
942.411	0.0135219
942.489	0.0134818
942.568	0.0135870
942.646	0.0135636
942.724	0.0134486
942.802	0.0133861
942.880	0.0133385
942.958	0.0135546
943.036	0.0135232
943.114	0.0135098
943.193	0.0135191
943.271	0.0134292
943.349	0.0133608
943.427	0.0133403
943.505	0.0132851
943.583	0.0132867
943.661	0.0133485
943.739	0.0133016
943.818	0.0132442
943.896	0.0131300
943.974	0.0131294
944.052	0.0131992
944.130	0.0130988
944.208	0.0130130
944.286	0.0130913
944.364	0.0130782
944.443	0.0131597
944.521	0.0131615
944.599	0.0129414
944.677	0.0130861
944.755	0.0130875
944.833	0.0130193
944.911	0.0129401
944.989	0.0129368
945.068	0.0131122
945.146	0.0130796
945.224	0.0131084
945.302	0.0129652
945.380	0.0129726
945.458	0.0131425
945.536	0.0132314
945.614	0.0134602
945.693	0.0131445
945.771	0.0130621
945.849	0.0133006
945.927	0.0133319
946.005	0.0132752
946.083	0.0133728
946.161	0.0134483
946.239	0.0134975
946.318	0.0134425
946.396	0.0134443
946.474	0.0135154
946.552	0.0134938
946.630	0.0134236
946.708	0.0133288
946.786	0.0133937
946.864	0.0134058
946.943	0.0135102
947.021	0.0135042
947.099	0.0134477
947.177	0.0134251
947.255	0.0135593
947.333	0.0134966
947.411	0.0134145
947.489	0.0136306
947.568	0.0136136
947.646	0.0135210
947.724	0.0135609
947.802	0.0135931
947.880	0.0134391
947.958	0.0135361
948.036	0.0135941
948.114	0.0135926
948.193	0.0132804
948.271	0.0134369
948.349	0.0135926
948.427	0.0136950
948.505	0.0133918
948.583	0.0133593
948.661	0.0133064
948.739	0.0133379
948.818	0.0133556
948.896	0.0131855
948.974	0.0132836
949.052	0.0131301
949.130	0.0132265
949.208	0.0132553
949.286	0.0131896
949.364	0.0131909
949.443	0.0130376
949.521	0.0130235
949.599	0.0130377
949.677	0.0131165
949.755	0.0130643
949.833	0.0131763
949.911	0.0130150
949.989	0.0131291
950.068	0.0131360
950.146	0.0132002
950.224	0.0132917
950.302	0.0131678
950.380	0.0132856
950.458	0.0133517
950.536	0.0133988
950.614	0.0131157
950.693	0.0132846
950.771	0.0133212
950.849	0.0133904
950.927	0.0135608
951.005	0.0134081
951.083	0.0132967
951.161	0.0132571
951.239	0.0133497
951.318	0.0133105
951.396	0.0134303
951.474	0.0134750
951.552	0.0133148
951.630	0.0132945
951.708	0.0133664
951.786	0.0133730
951.864	0.0133752
951.943	0.0133845
952.021	0.0133971
952.099	0.0132875
952.177	0.0133807
952.255	0.0133842
952.333	0.0134976
952.411	0.0135170
952.489	0.0134139
952.568	0.0134635
952.646	0.0134112
952.724	0.0135249
952.802	0.0134275
952.880	0.0134156
952.958	0.0135495
953.036	0.0134418
953.114	0.0134525
953.193	0.0134749
953.271	0.0135075
953.349	0.0134560
953.427	0.0132566
953.505	0.0133530
953.583	0.0134775
953.661	0.0134014
953.739	0.0132635
953.818	0.0133652
953.896	0.0134396
953.974	0.0133498
954.052	0.0133213
954.130	0.0133779
954.208	0.0134004
954.286	0.0132848
954.364	0.0134277
954.443	0.0133218
954.521	0.0132328
954.599	0.0132057
954.677	0.0132920
954.755	0.0132862
954.833	0.0133205
954.911	0.0132830
954.989	0.0132455
955.068	0.0133397
955.146	0.0132548
955.224	0.0133006
955.302	0.0132840
955.380	0.0133034
955.458	0.0133577
955.536	0.0134734
955.614	0.0133818
955.693	0.0133483
955.771	0.0132108
955.849	0.0133595
955.927	0.0133400
956.005	0.0133543
956.083	0.0133707
956.161	0.0134384
956.239	0.0134883
956.318	0.0132677
956.396	0.0133513
956.474	0.0134567
956.552	0.0133623
956.630	0.0134089
956.708	0.0134200
956.786	0.0135262
956.864	0.0135811
956.943	0.0135779
957.021	0.0134919
957.099	0.0134916
957.177	0.0135314
957.255	0.0134495
957.333	0.0134525
957.411	0.0133865
957.489	0.0134863
957.568	0.0134979
957.646	0.0134901
957.724	0.0132803
957.802	0.0133369
957.880	0.0134075
957.958	0.0132870
958.036	0.0133982
958.114	0.0133472
958.193	0.0131803
958.271	0.0132507
958.349	0.0132004
958.427	0.0131767
958.505	0.0131705
958.583	0.0133636
958.661	0.0133102
958.739	0.0133383
958.818	0.0133366
958.896	0.0132829
958.974	0.0133237
959.052	0.0133073
959.130	0.0132813
959.208	0.0134169
959.286	0.0133896
959.364	0.0133974
959.443	0.0135361
959.521	0.0133546
959.599	0.0133928
959.677	0.0133192
959.755	0.0134904
959.833	0.0133206
959.911	0.0134513
