05/07/2022	17:24:57	Ver.	4.1	UNKNOWN
Optical Delay	639.989416	Delta X		0.078125	Sweeps	1	Scan Rate	0/0
Coordinates	Axis 1	NaN	Axis 2	NaN	Axis 3	NaN	Axis 4	NaN	Axis 5	NaN	Axis 6	0.000000
TX Power	0.000000	RX Power	0.000000

639.989	0.0123569
640.068	0.0123688
640.146	0.0123621
640.224	0.0122257
640.302	0.0123694
640.380	0.0122114
640.458	0.0123818
640.536	0.0124043
640.614	0.0124926
640.693	0.0123063
640.771	0.0122340
640.849	0.0123211
640.927	0.0123715
641.005	0.0123775
641.083	0.0123197
641.161	0.0122859
641.239	0.0123327
641.318	0.0124184
641.396	0.0122762
641.474	0.0123267
641.552	0.0123626
641.630	0.0123318
641.708	0.0123599
641.786	0.0122971
641.864	0.0123560
641.943	0.0123375
642.021	0.0123551
642.099	0.0124223
642.177	0.0125153
642.255	0.0122952
642.333	0.0123396
642.411	0.0124052
642.489	0.0124130
642.568	0.0124389
642.646	0.0123541
642.724	0.0123113
642.802	0.0123414
642.880	0.0124092
642.958	0.0125134
643.036	0.0122222
643.114	0.0123886
643.193	0.0124217
643.271	0.0124197
643.349	0.0126246
643.427	0.0124234
643.505	0.0123762
643.583	0.0124649
643.661	0.0125710
643.739	0.0122919
643.818	0.0123166
643.896	0.0124435
643.974	0.0123283
644.052	0.0123894
644.130	0.0124458
644.208	0.0123315
644.286	0.0123775
644.364	0.0123439
644.443	0.0123614
644.521	0.0124125
644.599	0.0123582
644.677	0.0122507
644.755	0.0122437
644.833	0.0124533
644.911	0.0123546
644.989	0.0122883
645.068	0.0122733
645.146	0.0122498
645.224	0.0123631
645.302	0.0124380
645.380	0.0123574
645.458	0.0123193
645.536	0.0123872
645.614	0.0122076
645.693	0.0124099
645.771	0.0123817
645.849	0.0123650
645.927	0.0122702
646.005	0.0123624
646.083	0.0123197
646.161	0.0123123
646.239	0.0123194
646.318	0.0123200
646.396	0.0122331
646.474	0.0123766
646.552	0.0124386
646.630	0.0124105
646.708	0.0123447
646.786	0.0122427
646.864	0.0124207
646.943	0.0123016
647.021	0.0123059
647.099	0.0123480
647.177	0.0124178
647.255	0.0123734
647.333	0.0123695
647.411	0.0123579
647.489	0.0122724
647.568	0.0123443
647.646	0.0123567
647.724	0.0123340
647.802	0.0123480
647.880	0.0122881
647.958	0.0124249
648.036	0.0124737
648.114	0.0124109
648.193	0.0123074
648.271	0.0125629
648.349	0.0124366
648.427	0.0122176
648.505	0.0124706
648.583	0.0123975
648.661	0.0124242
648.739	0.0123363
648.818	0.0123204
648.896	0.0122050
648.974	0.0122573
649.052	0.0123782
649.130	0.0122912
649.208	0.0123177
649.286	0.0122055
649.364	0.0123502
649.443	0.0123054
649.521	0.0122728
649.599	0.0122134
649.677	0.0123043
649.755	0.0123256
649.833	0.0123138
649.911	0.0123721
649.989	0.0123078
650.068	0.0122887
650.146	0.0123949
650.224	0.0123268
650.302	0.0123873
650.380	0.0124110
650.458	0.0123045
650.536	0.0122881
650.614	0.0124279
650.693	0.0124362
650.771	0.0123100
650.849	0.0123134
650.927	0.0122899
651.005	0.0123057
651.083	0.0123409
651.161	0.0124041
651.239	0.0123427
651.318	0.0124069
651.396	0.0123366
651.474	0.0123492
651.552	0.0121831
651.630	0.0124448
651.708	0.0123988
651.786	0.0122037
651.864	0.0124602
651.943	0.0123659
652.021	0.0123711
652.099	0.0123407
652.177	0.0124229
652.255	0.0124654
652.333	0.0122933
652.411	0.0122926
652.489	0.0124097
652.568	0.0123412
652.646	0.0124258
652.724	0.0123049
652.802	0.0123627
652.880	0.0122739
652.958	0.0123644
653.036	0.0123167
653.114	0.0123944
653.193	0.0122018
653.271	0.0123065
653.349	0.0122402
653.427	0.0123170
653.505	0.0124347
653.583	0.0124570
653.661	0.0123596
653.739	0.0124468
653.818	0.0124407
653.896	0.0123640
653.974	0.0122846
654.052	0.0123707
654.130	0.0123354
654.208	0.0124234
654.286	0.0123080
654.364	0.0123083
654.443	0.0122777
654.521	0.0124429
654.599	0.0124208
654.677	0.0122533
654.755	0.0121167
654.833	0.0122236
654.911	0.0121415
654.989	0.0122658
655.068	0.0121909
655.146	0.0120974
655.224	0.0121917
655.302	0.0121689
655.380	0.0123122
655.458	0.0121050
655.536	0.0122245
655.614	0.0121741
655.693	0.0123448
655.771	0.0122906
655.849	0.0121947
655.927	0.0123186
656.005	0.0124583
656.083	0.0125768
656.161	0.0124407
656.239	0.0125076
656.318	0.0126801
656.396	0.0126563
656.474	0.0124947
656.552	0.0124578
656.630	0.0125968
656.708	0.0125060
656.786	0.0125197
656.864	0.0125487
656.943	0.0123439
657.021	0.0123290
657.099	0.0122727
657.177	0.0121387
657.255	0.0122038
657.333	0.0120652
657.411	0.0120150
657.489	0.0120464
657.568	0.0122142
657.646	0.0119849
657.724	0.0118427
657.802	0.0119971
657.880	0.0119101
657.958	0.0120261
658.036	0.0121648
658.114	0.0122324
658.193	0.0122536
658.271	0.0124216
658.349	0.0124612
658.427	0.0124464
658.505	0.0125694
658.583	0.0127289
658.661	0.0126954
658.739	0.0127837
658.818	0.0130390
658.896	0.0128439
658.974	0.0129221
659.052	0.0128505
659.130	0.0130153
659.208	0.0129167
659.286	0.0128330
659.364	0.0127781
659.443	0.0127006
659.521	0.0126788
659.599	0.0125626
659.677	0.0123074
659.755	0.0121966
659.833	0.0121805
659.911	0.0121352
659.989	0.0121242
660.068	0.0120688
660.146	0.0119622
660.224	0.0118153
660.302	0.0117754
660.380	0.0118243
660.458	0.0116667
660.536	0.0118121
660.614	0.0118221
660.693	0.0118129
660.771	0.0118166
660.849	0.0118757
660.927	0.0119643
661.005	0.0120970
661.083	0.0122107
661.161	0.0123259
661.239	0.0123051
661.318	0.0124710
661.396	0.0125606
661.474	0.0126418
661.552	0.0127241
661.630	0.0129197
661.708	0.0127650
661.786	0.0128523
661.864	0.0129617
661.943	0.0129586
662.021	0.0129276
662.099	0.0130687
662.177	0.0129918
662.255	0.0129445
662.333	0.0129669
662.411	0.0129233
662.489	0.0129385
662.568	0.0128738
662.646	0.0126171
662.724	0.0126002
662.802	0.0126078
662.880	0.0123754
662.958	0.0122856
663.036	0.0121611
663.114	0.0121337
663.193	0.0118443
663.271	0.0117321
663.349	0.0117004
663.427	0.0117875
663.505	0.0116757
663.583	0.0116805
663.661	0.0117431
663.739	0.0117966
663.818	0.0116511
663.896	0.0117619
663.974	0.0117670
664.052	0.0121284
664.130	0.0122658
664.208	0.0122873
664.286	0.0122532
664.364	0.0124022
664.443	0.0127627
664.521	0.0128412
664.599	0.0127479
664.677	0.0128021
664.755	0.0129028
664.833	0.0130244
664.911	0.0131639
664.989	0.0131339
665.068	0.0128590
665.146	0.0127567
665.224	0.0128950
665.302	0.0128223
665.380	0.0127347
665.458	0.0125900
665.536	0.0125005
665.614	0.0123453
665.693	0.0123712
665.771	0.0122845
665.849	0.0121623
665.927	0.0121233
666.005	0.0120248
666.083	0.0120227
666.161	0.0119926
666.239	0.0119031
666.318	0.0120389
666.396	0.0120319
666.474	0.0118394
666.552	0.0120745
666.630	0.0121776
666.708	0.0122545
666.786	0.0122315
666.864	0.0121982
666.943	0.0123772
667.021	0.0123445
667.099	0.0125314
667.177	0.0127071
667.255	0.0125417
667.333	0.0125948
667.411	0.0126969
667.489	0.0128336
667.568	0.0129428
667.646	0.0128823
667.724	0.0129620
667.802	0.0128944
667.880	0.0128255
667.958	0.0126906
668.036	0.0127502
668.114	0.0125919
668.193	0.0124644
668.271	0.0124069
668.349	0.0121510
668.427	0.0120263
668.505	0.0119611
668.583	0.0119019
668.661	0.0118449
668.739	0.0115847
668.818	0.0115551
668.896	0.0116140
668.974	0.0113683
669.052	0.0116146
669.130	0.0115302
669.208	0.0115094
669.286	0.0115237
669.364	0.0117193
669.443	0.0117964
669.521	0.0118119
669.599	0.0117149
669.677	0.0121355
669.755	0.0122868
669.833	0.0123132
669.911	0.0124266
669.989	0.0125947
670.068	0.0127089
670.146	0.0128692
670.224	0.0129935
670.302	0.0132289
670.380	0.0132401
670.458	0.0133157
670.536	0.0133484
670.614	0.0134253
670.693	0.0134479
670.771	0.0134451
670.849	0.0134407
670.927	0.0135136
671.005	0.0134141
671.083	0.0133947
671.161	0.0132945
671.239	0.0131950
671.318	0.0130807
671.396	0.0129464
671.474	0.0129568
671.552	0.0127505
671.630	0.0126276
671.708	0.0125305
671.786	0.0122952
671.864	0.0121824
671.943	0.0119866
672.021	0.0119406
672.099	0.0117321
672.177	0.0115630
672.255	0.0114571
672.333	0.0113239
672.411	0.0113631
672.489	0.0111728
672.568	0.0111037
672.646	0.0110165
672.724	0.0109517
672.802	0.0109988
672.880	0.0109698
672.958	0.0110729
673.036	0.0110454
673.114	0.0109252
673.193	0.0109409
673.271	0.0109514
673.349	0.0110864
673.427	0.0113446
673.505	0.0113337
673.583	0.0114028
673.661	0.0115804
673.739	0.0118621
673.818	0.0120516
673.896	0.0121447
673.974	0.0123046
674.052	0.0125413
674.130	0.0127749
674.208	0.0130135
674.286	0.0131537
674.364	0.0133921
674.443	0.0134697
674.521	0.0137605
674.599	0.0140062
674.677	0.0139157
674.755	0.0141536
674.833	0.0143621
674.911	0.0143048
674.989	0.0144344
675.068	0.0146089
675.146	0.0145011
675.224	0.0145602
675.302	0.0146101
675.380	0.0145197
675.458	0.0143031
675.536	0.0140886
675.614	0.0140961
675.693	0.0137418
675.771	0.0135113
675.849	0.0133295
675.927	0.0130379
676.005	0.0126154
676.083	0.0123096
676.161	0.0122118
676.239	0.0118298
676.318	0.0113449
676.396	0.0109312
676.474	0.0107746
676.552	0.0103539
676.630	0.0102364
676.708	0.00990944
676.786	0.00961304
676.864	0.00949623
676.943	0.00933693
677.021	0.00932701
677.099	0.00929031
677.177	0.00936134
677.255	0.00942780
677.333	0.00952057
677.411	0.00972916
677.489	0.0100317
677.568	0.0103469
677.646	0.0106142
677.724	0.0108730
677.802	0.0113780
677.880	0.0116181
677.958	0.0121172
678.036	0.0123126
678.114	0.0127219
678.193	0.0131903
678.271	0.0134441
678.349	0.0137193
678.427	0.0140514
678.505	0.0144375
678.583	0.0145965
678.661	0.0147176
678.739	0.0149846
678.818	0.0152054
678.896	0.0151936
678.974	0.0151453
679.052	0.0153291
679.130	0.0151685
679.208	0.0150271
679.286	0.0150883
679.364	0.0148770
679.443	0.0145519
679.521	0.0144422
679.599	0.0142146
679.677	0.0139870
679.755	0.0137579
679.833	0.0136655
679.911	0.0132219
679.989	0.0129012
680.068	0.0127120
680.146	0.0125130
680.224	0.0123534
680.302	0.0120668
680.380	0.0115874
680.458	0.0116759
680.536	0.0114960
680.614	0.0113095
680.693	0.0112611
680.771	0.0111487
680.849	0.0110863
680.927	0.0109413
681.005	0.0111861
681.083	0.0110723
681.161	0.0110351
681.239	0.0109589
681.318	0.0109963
681.396	0.0111094
681.474	0.0111147
681.552	0.0111385
681.630	0.0109457
681.708	0.0109093
681.786	0.0108549
681.864	0.0108685
681.943	0.0108388
682.021	0.0108704
682.099	0.0108479
682.177	0.0107618
682.255	0.0108063
682.333	0.0108415
682.411	0.0110442
682.489	0.0112635
682.568	0.0113068
682.646	0.0115895
682.724	0.0118527
682.802	0.0120406
682.880	0.0122340
682.958	0.0126083
683.036	0.0127496
683.114	0.0130109
683.193	0.0133031
683.271	0.0134392
683.349	0.0136700
683.427	0.0139342
683.505	0.0139981
683.583	0.0141148
683.661	0.0144653
683.739	0.0144269
683.818	0.0145814
683.896	0.0146455
683.974	0.0147573
684.052	0.0148280
684.130	0.0147872
684.208	0.0149529
684.286	0.0149834
684.364	0.0147663
684.443	0.0148600
684.521	0.0147436
684.599	0.0146574
684.677	0.0145277
684.755	0.0142435
684.833	0.0140482
684.911	0.0135905
684.989	0.0134016
685.068	0.0132619
685.146	0.0128926
685.224	0.0124348
685.302	0.0121722
685.380	0.0119201
685.458	0.0115977
685.536	0.0111548
685.614	0.0108659
685.693	0.0106682
685.771	0.0103177
685.849	0.00991768
685.927	0.00984154
686.005	0.00962303
686.083	0.00940353
686.161	0.00944496
686.239	0.00928558
686.318	0.00931618
686.396	0.00915794
686.474	0.00940163
686.552	0.00959625
686.630	0.00965439
686.708	0.00989563
686.786	0.0100700
686.864	0.0101574
686.943	0.0104388
687.021	0.0106990
687.099	0.0109639
687.177	0.0111890
687.255	0.0113540
687.333	0.0116529
687.411	0.0118856
687.489	0.0121124
687.568	0.0124050
687.646	0.0125118
687.724	0.0129277
687.802	0.0131727
687.880	0.0135303
687.958	0.0137996
688.036	0.0140812
688.114	0.0141994
688.193	0.0143458
688.271	0.0145958
688.349	0.0148113
688.427	0.0149642
688.505	0.0149893
688.583	0.0150061
688.661	0.0151121
688.739	0.0151111
688.818	0.0150764
688.896	0.0149978
688.974	0.0147861
689.052	0.0149991
689.130	0.0148303
689.208	0.0148345
689.286	0.0146413
689.364	0.0143821
689.443	0.0143205
689.521	0.0140763
689.599	0.0139059
689.677	0.0135721
689.755	0.0133944
689.833	0.0130477
689.911	0.0127189
689.989	0.0125089
690.068	0.0121595
690.146	0.0117481
690.224	0.0114468
690.302	0.0110020
690.380	0.0106082
690.458	0.0105686
690.536	0.0102182
690.614	0.00997482
690.693	0.00957306
690.771	0.00936920
690.849	0.00916985
690.927	0.00892563
691.005	0.00893593
691.083	0.00879471
691.161	0.00871490
691.239	0.00890175
691.318	0.00901901
691.396	0.00900566
691.474	0.00926079
691.552	0.00974083
691.630	0.00994102
691.708	0.0102365
691.786	0.0107328
691.864	0.0110932
691.943	0.0114035
692.021	0.0120356
692.099	0.0124767
692.177	0.0129086
692.255	0.0132724
692.333	0.0135587
692.411	0.0139438
692.489	0.0142428
692.568	0.0145582
692.646	0.0148113
692.724	0.0149038
692.802	0.0149988
692.880	0.0150176
692.958	0.0148945
693.036	0.0148161
693.114	0.0148183
693.193	0.0146130
693.271	0.0142423
693.349	0.0140228
693.427	0.0139380
693.505	0.0137937
693.583	0.0134926
693.661	0.0132939
693.739	0.0131540
693.818	0.0130527
693.896	0.0128276
693.974	0.0126749
694.052	0.0124915
694.130	0.0124610
694.208	0.0124197
694.286	0.0122764
694.364	0.0123042
694.443	0.0122840
694.521	0.0121983
694.599	0.0122278
694.677	0.0121402
694.755	0.0121917
694.833	0.0122607
694.911	0.0121291
694.989	0.0119419
695.068	0.0121140
695.146	0.0120273
695.224	0.0120236
695.302	0.0120148
695.380	0.0119076
695.458	0.0119601
695.536	0.0119301
695.614	0.0117726
695.693	0.0117072
695.771	0.0116931
695.849	0.0116489
695.927	0.0117286
696.005	0.0113836
696.083	0.0113000
696.161	0.0113819
696.239	0.0111059
696.318	0.0111980
696.396	0.0111593
696.474	0.0111359
696.552	0.0110912
696.630	0.0110924
696.708	0.0109772
696.786	0.0108930
696.864	0.0110460
696.943	0.0111436
697.021	0.0111435
697.099	0.0112997
697.177	0.0114031
697.255	0.0116115
697.333	0.0118078
697.411	0.0119358
697.489	0.0122027
697.568	0.0124090
697.646	0.0125915
697.724	0.0128821
697.802	0.0131020
697.880	0.0133233
697.958	0.0135062
698.036	0.0138395
698.114	0.0138578
698.193	0.0139593
698.271	0.0141500
698.349	0.0142200
698.427	0.0142713
698.505	0.0143652
698.583	0.0142937
698.661	0.0143587
698.739	0.0141643
698.818	0.0140794
698.896	0.0139627
698.974	0.0137246
699.052	0.0136581
699.130	0.0133801
699.208	0.0131564
699.286	0.0128363
699.364	0.0125150
699.443	0.0123499
699.521	0.0121960
699.599	0.0119225
699.677	0.0117155
699.755	0.0114716
699.833	0.0114377
699.911	0.0113412
699.989	0.0111608
700.068	0.0111642
700.146	0.0111401
700.224	0.0110748
700.302	0.0111417
700.380	0.0111987
700.458	0.0110782
700.536	0.0110960
700.614	0.0112798
700.693	0.0114622
700.771	0.0115797
700.849	0.0117160
700.927	0.0119894
701.005	0.0120004
701.083	0.0122379
701.161	0.0123457
701.239	0.0124998
701.318	0.0125864
701.396	0.0126887
701.474	0.0128896
701.552	0.0128745
701.630	0.0128170
701.708	0.0130258
701.786	0.0129891
701.864	0.0129900
701.943	0.0126682
702.021	0.0125587
702.099	0.0123879
702.177	0.0123991
702.255	0.0123569
702.333	0.0123089
702.411	0.0122356
702.489	0.0119656
702.568	0.0118767
702.646	0.0119824
702.724	0.0118597
702.802	0.0118526
702.880	0.0117056
702.958	0.0117005
703.036	0.0119485
703.114	0.0119008
703.193	0.0120181
703.271	0.0120533
703.349	0.0122444
703.427	0.0124261
703.505	0.0126208
703.583	0.0125586
703.661	0.0128503
703.739	0.0129619
703.818	0.0130334
703.896	0.0131863
703.974	0.0133259
704.052	0.0134503
704.130	0.0133846
704.208	0.0134145
704.286	0.0134120
704.364	0.0133889
704.443	0.0132638
704.521	0.0132154
704.599	0.0131650
704.677	0.0130482
704.755	0.0127588
704.833	0.0126031
704.911	0.0124516
704.989	0.0123461
705.068	0.0122002
705.146	0.0120251
705.224	0.0118024
705.302	0.0117045
705.380	0.0117575
705.458	0.0116191
705.536	0.0115672
705.614	0.0114923
705.693	0.0114711
705.771	0.0113927
705.849	0.0114335
705.927	0.0115034
706.005	0.0117818
706.083	0.0117934
706.161	0.0118573
706.239	0.0119850
706.318	0.0120718
706.396	0.0121688
706.474	0.0123431
706.552	0.0125913
706.630	0.0126985
706.708	0.0125977
706.786	0.0128553
706.864	0.0130770
706.943	0.0129858
707.021	0.0131487
707.099	0.0131907
707.177	0.0131374
707.255	0.0131396
707.333	0.0130840
707.411	0.0129440
707.489	0.0128586
707.568	0.0127841
707.646	0.0125182
707.724	0.0122092
707.802	0.0121127
707.880	0.0118880
707.958	0.0118321
708.036	0.0117810
708.114	0.0115469
708.193	0.0115691
708.271	0.0115011
708.349	0.0114620
708.427	0.0115160
708.505	0.0114314
708.583	0.0115191
708.661	0.0114362
708.739	0.0117967
708.818	0.0118066
708.896	0.0119115
708.974	0.0122321
709.052	0.0123241
709.130	0.0125813
709.208	0.0127345
709.286	0.0130148
709.364	0.0131216
709.443	0.0132577
709.521	0.0134013
709.599	0.0135015
709.677	0.0134348
709.755	0.0134857
709.833	0.0135756
709.911	0.0135782
709.989	0.0135914
710.068	0.0134962
710.146	0.0132848
710.224	0.0130886
710.302	0.0130701
710.380	0.0129166
710.458	0.0127168
710.536	0.0126953
710.614	0.0124834
710.693	0.0122828
710.771	0.0121668
710.849	0.0119258
710.927	0.0119581
711.005	0.0117838
711.083	0.0117711
711.161	0.0115003
711.239	0.0114892
711.318	0.0114039
711.396	0.0112386
711.474	0.0112505
711.552	0.0112687
711.630	0.0112672
711.708	0.0111209
711.786	0.0113038
711.864	0.0114152
711.943	0.0113948
712.021	0.0116454
712.099	0.0118347
712.177	0.0120000
712.255	0.0120443
712.333	0.0122086
712.411	0.0123894
712.489	0.0126629
712.568	0.0130086
712.646	0.0130867
712.724	0.0131850
712.802	0.0133270
712.880	0.0134901
712.958	0.0137440
713.036	0.0137187
713.114	0.0136712
713.193	0.0137568
713.271	0.0136352
713.349	0.0134466
713.427	0.0134901
713.505	0.0132970
713.583	0.0130876
713.661	0.0130618
713.739	0.0129259
713.818	0.0126720
713.896	0.0125412
713.974	0.0123363
714.052	0.0120645
714.130	0.0120928
714.208	0.0120229
714.286	0.0116787
714.364	0.0116285
714.443	0.0113778
714.521	0.0113751
714.599	0.0111198
714.677	0.0110533
714.755	0.0110893
714.833	0.0111140
714.911	0.0111580
714.989	0.0112513
715.068	0.0113546
715.146	0.0114716
715.224	0.0115833
715.302	0.0117330
715.380	0.0119020
715.458	0.0120066
715.536	0.0123071
715.614	0.0124849
715.693	0.0125182
715.771	0.0127185
715.849	0.0127988
715.927	0.0129813
716.005	0.0132513
716.083	0.0131100
716.161	0.0132012
716.239	0.0132637
716.318	0.0133416
716.396	0.0135333
716.474	0.0133587
716.552	0.0132130
716.630	0.0132227
716.708	0.0130190
716.786	0.0127473
716.864	0.0128657
716.943	0.0125777
717.021	0.0123789
717.099	0.0122477
717.177	0.0120493
717.255	0.0118083
717.333	0.0116554
717.411	0.0113966
717.489	0.0113198
717.568	0.0112153
717.646	0.0112037
717.724	0.0112272
717.802	0.0112421
717.880	0.0112975
717.958	0.0114478
718.036	0.0114894
718.114	0.0115839
718.193	0.0118188
718.271	0.0119203
718.349	0.0120544
718.427	0.0121621
718.505	0.0125120
718.583	0.0125172
718.661	0.0127520
718.739	0.0128971
718.818	0.0129404
718.896	0.0130569
718.974	0.0132343
719.052	0.0133260
719.130	0.0134402
719.208	0.0134929
719.286	0.0134692
719.364	0.0134730
719.443	0.0135671
719.521	0.0135781
719.599	0.0134270
719.677	0.0132998
719.755	0.0131628
719.833	0.0131943
719.911	0.0129037
719.989	0.0126981
720.068	0.0125910
720.146	0.0124332
720.224	0.0121852
720.302	0.0119917
720.380	0.0119144
720.458	0.0118532
720.536	0.0117508
720.614	0.0118664
720.693	0.0119878
720.771	0.0118417
720.849	0.0117151
720.927	0.0118024
721.005	0.0117153
721.083	0.0119347
721.161	0.0119946
721.239	0.0120997
721.318	0.0121706
721.396	0.0121134
721.474	0.0122276
721.552	0.0122028
721.630	0.0124268
721.708	0.0124070
721.786	0.0124218
721.864	0.0127509
721.943	0.0127916
722.021	0.0127765
722.099	0.0127449
722.177	0.0127695
722.255	0.0127309
722.333	0.0127084
722.411	0.0126060
722.489	0.0125021
722.568	0.0124567
722.646	0.0121970
722.724	0.0121477
722.802	0.0119769
722.880	0.0118038
722.958	0.0116753
723.036	0.0115995
723.114	0.0115507
723.193	0.0114917
723.271	0.0114176
723.349	0.0114919
723.427	0.0112905
723.505	0.0113879
723.583	0.0114457
723.661	0.0114714
723.739	0.0115730
723.818	0.0115705
723.896	0.0117803
723.974	0.0119774
724.052	0.0121671
724.130	0.0123058
724.208	0.0126411
724.286	0.0128249
724.364	0.0129863
724.443	0.0131791
724.521	0.0132885
724.599	0.0134609
724.677	0.0135390
724.755	0.0136441
724.833	0.0137712
724.911	0.0138274
724.989	0.0139470
725.068	0.0138919
725.146	0.0138055
725.224	0.0136054
725.302	0.0135397
725.380	0.0135117
725.458	0.0133382
725.536	0.0132434
725.614	0.0130828
725.693	0.0127972
725.771	0.0124921
725.849	0.0124420
725.927	0.0122804
726.005	0.0122785
726.083	0.0118854
726.161	0.0117966
726.239	0.0118118
726.318	0.0115598
726.396	0.0115567
726.474	0.0114223
726.552	0.0114793
726.630	0.0115902
726.708	0.0115687
726.786	0.0116489
726.864	0.0115956
726.943	0.0116895
727.021	0.0116979
727.099	0.0118671
727.177	0.0120455
727.255	0.0120396
727.333	0.0121889
727.411	0.0122484
727.489	0.0123720
727.568	0.0124413
727.646	0.0125037
727.724	0.0126286
727.802	0.0125612
727.880	0.0124931
727.958	0.0124860
728.036	0.0126186
728.114	0.0124481
728.193	0.0122218
728.271	0.0121896
728.349	0.0121642
728.427	0.0121483
728.505	0.0120514
728.583	0.0119147
728.661	0.0117888
728.739	0.0117960
728.818	0.0116333
728.896	0.0115945
728.974	0.0115865
729.052	0.0116174
729.130	0.0116579
729.208	0.0115918
729.286	0.0117473
729.364	0.0118484
729.443	0.0118563
729.521	0.0120635
729.599	0.0121336
729.677	0.0122309
729.755	0.0124009
729.833	0.0124129
729.911	0.0126207
729.989	0.0126260
730.068	0.0127656
730.146	0.0129309
730.224	0.0130177
730.302	0.0131172
730.380	0.0130756
730.458	0.0132954
730.536	0.0133401
730.614	0.0132332
730.693	0.0132574
730.771	0.0131067
730.849	0.0130997
730.927	0.0132421
731.005	0.0131692
731.083	0.0131123
731.161	0.0129422
731.239	0.0128045
731.318	0.0128226
731.396	0.0125586
731.474	0.0126121
731.552	0.0127662
731.630	0.0124703
731.708	0.0124137
731.786	0.0125310
731.864	0.0123423
731.943	0.0122887
732.021	0.0121221
732.099	0.0121194
732.177	0.0121960
732.255	0.0121186
732.333	0.0120331
732.411	0.0121117
732.489	0.0120273
732.568	0.0120569
732.646	0.0120721
732.724	0.0118986
732.802	0.0120872
732.880	0.0120116
732.958	0.0120885
733.036	0.0120120
733.114	0.0120673
733.193	0.0120559
733.271	0.0120148
733.349	0.0119830
733.427	0.0121868
733.505	0.0120604
733.583	0.0120562
733.661	0.0122471
733.739	0.0121866
733.818	0.0121608
733.896	0.0121807
733.974	0.0121186
734.052	0.0119788
734.130	0.0121430
734.208	0.0120857
734.286	0.0120035
734.364	0.0120090
734.443	0.0119296
734.521	0.0118564
734.599	0.0118591
734.677	0.0117809
734.755	0.0119186
734.833	0.0120670
734.911	0.0119268
734.989	0.0119431
735.068	0.0120274
735.146	0.0121602
735.224	0.0120686
735.302	0.0122567
735.380	0.0123296
735.458	0.0122909
735.536	0.0123138
735.614	0.0124034
735.693	0.0125281
735.771	0.0125018
735.849	0.0123726
735.927	0.0124251
736.005	0.0125694
736.083	0.0125945
736.161	0.0127205
736.239	0.0127513
736.318	0.0129139
736.396	0.0129321
736.474	0.0129644
736.552	0.0129788
736.630	0.0130624
736.708	0.0129966
736.786	0.0131050
736.864	0.0132494
736.943	0.0132515
737.021	0.0132646
737.099	0.0131088
737.177	0.0131559
737.255	0.0130982
737.333	0.0129276
737.411	0.0129198
737.489	0.0127910
737.568	0.0127975
737.646	0.0126878
737.724	0.0125488
737.802	0.0122962
737.880	0.0121745
737.958	0.0122473
738.036	0.0122257
738.114	0.0120382
738.193	0.0119145
738.271	0.0119354
738.349	0.0117281
738.427	0.0118188
738.505	0.0117624
738.583	0.0115898
738.661	0.0115646
738.739	0.0118488
738.818	0.0119633
738.896	0.0117934
738.974	0.0118796
739.052	0.0120058
739.130	0.0119911
739.208	0.0122168
739.286	0.0120373
739.364	0.0121210
739.443	0.0121587
739.521	0.0121056
739.599	0.0120708
739.677	0.0121928
739.755	0.0121329
739.833	0.0120462
739.911	0.0121979
739.989	0.0121645
740.068	0.0122084
740.146	0.0122021
740.224	0.0122374
740.302	0.0120447
740.380	0.0121104
740.458	0.0121063
740.536	0.0122330
740.614	0.0122972
740.693	0.0122523
740.771	0.0123551
740.849	0.0121416
740.927	0.0121666
741.005	0.0123446
741.083	0.0122928
741.161	0.0122838
741.239	0.0123289
741.318	0.0123121
741.396	0.0122952
741.474	0.0124942
741.552	0.0123582
741.630	0.0124821
741.708	0.0125629
741.786	0.0124890
741.864	0.0125088
741.943	0.0126433
742.021	0.0127055
742.099	0.0127515
742.177	0.0128260
742.255	0.0127682
742.333	0.0129097
742.411	0.0127993
742.489	0.0129781
742.568	0.0130532
742.646	0.0129252
742.724	0.0129704
742.802	0.0129544
742.880	0.0128905
742.958	0.0129881
743.036	0.0129747
743.114	0.0130386
743.193	0.0129462
743.271	0.0128131
743.349	0.0128502
743.427	0.0127764
743.505	0.0126508
743.583	0.0124442
743.661	0.0124405
743.739	0.0124409
743.818	0.0121470
743.896	0.0120127
743.974	0.0121961
744.052	0.0121880
744.130	0.0121877
744.208	0.0120866
744.286	0.0121638
744.364	0.0120961
744.443	0.0121192
744.521	0.0121281
744.599	0.0122453
744.677	0.0121891
744.755	0.0122328
744.833	0.0121201
744.911	0.0122409
744.989	0.0123522
745.068	0.0122979
745.146	0.0121516
745.224	0.0122956
745.302	0.0123576
745.380	0.0122688
745.458	0.0122641
745.536	0.0121752
745.614	0.0124059
745.693	0.0124010
745.771	0.0123227
745.849	0.0121685
745.927	0.0122100
746.005	0.0121495
746.083	0.0123673
746.161	0.0121826
746.239	0.0121222
746.318	0.0121430
746.396	0.0121662
746.474	0.0121763
746.552	0.0120944
746.630	0.0122622
746.708	0.0121533
746.786	0.0120744
746.864	0.0121432
746.943	0.0123023
747.021	0.0122413
747.099	0.0122026
747.177	0.0122966
747.255	0.0123570
747.333	0.0123231
747.411	0.0122073
747.489	0.0123399
747.568	0.0122384
747.646	0.0122982
747.724	0.0124865
747.802	0.0123905
747.880	0.0122848
747.958	0.0123132
748.036	0.0124449
748.114	0.0124837
748.193	0.0124471
748.271	0.0124410
748.349	0.0124453
748.427	0.0126185
748.505	0.0125190
748.583	0.0124864
748.661	0.0126093
748.739	0.0126740
748.818	0.0125983
748.896	0.0126236
748.974	0.0126486
749.052	0.0125862
749.130	0.0127734
749.208	0.0127059
749.286	0.0127190
749.364	0.0127570
749.443	0.0125587
749.521	0.0125460
749.599	0.0125333
749.677	0.0125916
749.755	0.0124066
749.833	0.0124670
749.911	0.0125623
749.989	0.0123660
750.068	0.0122034
750.146	0.0121977
750.224	0.0121595
750.302	0.0120813
750.380	0.0121666
750.458	0.0120681
750.536	0.0118845
750.614	0.0120388
750.693	0.0119966
750.771	0.0119256
750.849	0.0118777
750.927	0.0117419
751.005	0.0117463
751.083	0.0120151
751.161	0.0119066
751.239	0.0118454
751.318	0.0119921
751.396	0.0120007
751.474	0.0121695
751.552	0.0120853
751.630	0.0122167
751.708	0.0122462
751.786	0.0122184
751.864	0.0123954
751.943	0.0123498
752.021	0.0125334
752.099	0.0125793
752.177	0.0125302
752.255	0.0125258
752.333	0.0126433
752.411	0.0127051
752.489	0.0126397
752.568	0.0126024
752.646	0.0124114
752.724	0.0125204
752.802	0.0124915
752.880	0.0125267
752.958	0.0122115
753.036	0.0122897
753.114	0.0122814
753.193	0.0121365
753.271	0.0121822
753.349	0.0121066
753.427	0.0119789
753.505	0.0120237
753.583	0.0120249
753.661	0.0121598
753.739	0.0120168
753.818	0.0120183
753.896	0.0119937
753.974	0.0121507
754.052	0.0119822
754.130	0.0120096
754.208	0.0120357
754.286	0.0120823
754.364	0.0122522
754.443	0.0122072
754.521	0.0123623
754.599	0.0122840
754.677	0.0123228
754.755	0.0124433
754.833	0.0124619
754.911	0.0124756
754.989	0.0123967
755.068	0.0125014
755.146	0.0124692
755.224	0.0125009
755.302	0.0126778
755.380	0.0127330
755.458	0.0127744
755.536	0.0128283
755.614	0.0127943
755.693	0.0127522
755.771	0.0128725
755.849	0.0128642
755.927	0.0128107
756.005	0.0126891
756.083	0.0127960
756.161	0.0126720
756.239	0.0124825
756.318	0.0125994
756.396	0.0125111
756.474	0.0124688
756.552	0.0122150
756.630	0.0121225
756.708	0.0120547
756.786	0.0120583
756.864	0.0118969
756.943	0.0118299
757.021	0.0120298
757.099	0.0119120
757.177	0.0117790
757.255	0.0117027
757.333	0.0117373
757.411	0.0115538
757.489	0.0117365
757.568	0.0118040
757.646	0.0118491
757.724	0.0116972
757.802	0.0118341
757.880	0.0119888
757.958	0.0119048
758.036	0.0121487
758.114	0.0123637
758.193	0.0123547
758.271	0.0123153
758.349	0.0123387
758.427	0.0125614
758.505	0.0124442
758.583	0.0123988
758.661	0.0125851
758.739	0.0126924
758.818	0.0126376
758.896	0.0126920
758.974	0.0127396
759.052	0.0126699
759.130	0.0124651
759.208	0.0126068
759.286	0.0126089
759.364	0.0126573
759.443	0.0126385
759.521	0.0127515
759.599	0.0126195
759.677	0.0124924
759.755	0.0125757
759.833	0.0126041
759.911	0.0123969
759.989	0.0123230
760.068	0.0123242
760.146	0.0123306
760.224	0.0123982
760.302	0.0122296
760.380	0.0121420
760.458	0.0122169
760.536	0.0120717
760.614	0.0120145
760.693	0.0120097
760.771	0.0118606
760.849	0.0121228
760.927	0.0119781
761.005	0.0119562
761.083	0.0119367
761.161	0.0120979
761.239	0.0121183
761.318	0.0119808
761.396	0.0121809
761.474	0.0122939
761.552	0.0122159
761.630	0.0123502
761.708	0.0122137
761.786	0.0126157
761.864	0.0125325
761.943	0.0124434
762.021	0.0125756
762.099	0.0126090
762.177	0.0127262
762.255	0.0128889
762.333	0.0127846
762.411	0.0128719
762.489	0.0128601
762.568	0.0129057
762.646	0.0128900
762.724	0.0128356
762.802	0.0128528
762.880	0.0128493
762.958	0.0127578
763.036	0.0127039
763.114	0.0125676
763.193	0.0126042
763.271	0.0126083
763.349	0.0125492
763.427	0.0122559
763.505	0.0121507
763.583	0.0122276
763.661	0.0122417
763.739	0.0121317
763.818	0.0119751
763.896	0.0120947
763.974	0.0120750
764.052	0.0118885
764.130	0.0120702
764.208	0.0119467
764.286	0.0120754
764.364	0.0122253
764.443	0.0120129
764.521	0.0120577
764.599	0.0121911
764.677	0.0121931
764.755	0.0121127
764.833	0.0122160
764.911	0.0122110
764.989	0.0122864
765.068	0.0123436
765.146	0.0122278
765.224	0.0123340
765.302	0.0123147
765.380	0.0123820
765.458	0.0124646
765.536	0.0123616
765.614	0.0125620
765.693	0.0125111
765.771	0.0123363
765.849	0.0124207
765.927	0.0124364
766.005	0.0124252
766.083	0.0122944
766.161	0.0123121
766.239	0.0124222
766.318	0.0124311
766.396	0.0123331
766.474	0.0124077
766.552	0.0124191
766.630	0.0124911
766.708	0.0122961
766.786	0.0124828
766.864	0.0125026
766.943	0.0124651
767.021	0.0125203
767.099	0.0123649
767.177	0.0123859
767.255	0.0123645
767.333	0.0124232
767.411	0.0124092
767.489	0.0122630
767.568	0.0123476
767.646	0.0125224
767.724	0.0124043
767.802	0.0124590
767.880	0.0124706
767.958	0.0123996
768.036	0.0125219
768.114	0.0124532
768.193	0.0123026
768.271	0.0124674
768.349	0.0126273
768.427	0.0124019
768.505	0.0124200
768.583	0.0125793
768.661	0.0126241
768.739	0.0125559
768.818	0.0125305
768.896	0.0125487
768.974	0.0125846
769.052	0.0127132
769.130	0.0126486
769.208	0.0126376
769.286	0.0124262
769.364	0.0124649
769.443	0.0124477
769.521	0.0122550
769.599	0.0123132
769.677	0.0122748
769.755	0.0122159
769.833	0.0123040
769.911	0.0122456
769.989	0.0121513
770.068	0.0120884
770.146	0.0120339
770.224	0.0120274
770.302	0.0118480
770.380	0.0120061
770.458	0.0119094
770.536	0.0118902
770.614	0.0122022
770.693	0.0120418
770.771	0.0120525
770.849	0.0120703
770.927	0.0121703
771.005	0.0121317
771.083	0.0120726
771.161	0.0122421
771.239	0.0124104
771.318	0.0124453
771.396	0.0123009
771.474	0.0125512
771.552	0.0125667
771.630	0.0126525
771.708	0.0125866
771.786	0.0125528
771.864	0.0125629
771.943	0.0126601
772.021	0.0125900
772.099	0.0125260
772.177	0.0126326
772.255	0.0126969
772.333	0.0126665
772.411	0.0126614
772.489	0.0125584
772.568	0.0126286
772.646	0.0125484
772.724	0.0124337
772.802	0.0123432
772.880	0.0123555
772.958	0.0123119
773.036	0.0123930
773.114	0.0122784
773.193	0.0122588
773.271	0.0121568
773.349	0.0119291
773.427	0.0119832
773.505	0.0119387
773.583	0.0118163
773.661	0.0119347
773.739	0.0119267
773.818	0.0119076
773.896	0.0120212
773.974	0.0119308
774.052	0.0117844
774.130	0.0118834
774.208	0.0118587
774.286	0.0119209
774.364	0.0120856
774.443	0.0119418
774.521	0.0120657
774.599	0.0120760
774.677	0.0120091
774.755	0.0122162
774.833	0.0123032
774.911	0.0123674
774.989	0.0124207
775.068	0.0124271
775.146	0.0125092
775.224	0.0127142
775.302	0.0126149
775.380	0.0127039
775.458	0.0127930
775.536	0.0127380
775.614	0.0127404
775.693	0.0128418
775.771	0.0129312
775.849	0.0127338
775.927	0.0127180
776.005	0.0129285
776.083	0.0127348
776.161	0.0126065
776.239	0.0126734
776.318	0.0125649
776.396	0.0125726
776.474	0.0125632
776.552	0.0124146
776.630	0.0123096
776.708	0.0124240
776.786	0.0123881
776.864	0.0124000
776.943	0.0122769
777.021	0.0121521
777.099	0.0122179
777.177	0.0122213
777.255	0.0121623
777.333	0.0122514
777.411	0.0121761
777.489	0.0122113
777.568	0.0121082
777.646	0.0121150
777.724	0.0122639
777.802	0.0123103
777.880	0.0123031
777.958	0.0122343
778.036	0.0122054
778.114	0.0122240
778.193	0.0121399
778.271	0.0120395
778.349	0.0122198
778.427	0.0122363
778.505	0.0122030
778.583	0.0121093
778.661	0.0119598
778.739	0.0121010
778.818	0.0121375
778.896	0.0121042
778.974	0.0120696
779.052	0.0121272
779.130	0.0120878
779.208	0.0119838
779.286	0.0121195
779.364	0.0122105
779.443	0.0120677
779.521	0.0121130
779.599	0.0123385
779.677	0.0122839
779.755	0.0123911
779.833	0.0122648
779.911	0.0123365
779.989	0.0123618
780.068	0.0124618
780.146	0.0124454
780.224	0.0124575
780.302	0.0125572
780.380	0.0125153
780.458	0.0126553
780.536	0.0125890
780.614	0.0126611
780.693	0.0125040
780.771	0.0125742
780.849	0.0125518
780.927	0.0125403
781.005	0.0126965
781.083	0.0124971
781.161	0.0125736
781.239	0.0125121
781.318	0.0125849
781.396	0.0125169
781.474	0.0125749
781.552	0.0125583
781.630	0.0126568
781.708	0.0125927
781.786	0.0127193
781.864	0.0126501
781.943	0.0126917
782.021	0.0126949
782.099	0.0126485
782.177	0.0126606
782.255	0.0126436
782.333	0.0125988
782.411	0.0125918
782.489	0.0123927
782.568	0.0124725
782.646	0.0124098
782.724	0.0122518
782.802	0.0123558
782.880	0.0122202
782.958	0.0121926
783.036	0.0122301
783.114	0.0119818
783.193	0.0119460
783.271	0.0119060
783.349	0.0119759
783.427	0.0119791
783.505	0.0118314
783.583	0.0118270
783.661	0.0118609
783.739	0.0118739
783.818	0.0118509
783.896	0.0117414
783.974	0.0119583
784.052	0.0119838
784.130	0.0120724
784.208	0.0121169
784.286	0.0120982
784.364	0.0121707
784.443	0.0122308
784.521	0.0122256
784.599	0.0123980
784.677	0.0124947
784.755	0.0124668
784.833	0.0125615
784.911	0.0126038
784.989	0.0127921
785.068	0.0126529
785.146	0.0128121
785.224	0.0129591
785.302	0.0128567
785.380	0.0129241
785.458	0.0128572
785.536	0.0128686
785.614	0.0129414
785.693	0.0129194
785.771	0.0127724
785.849	0.0129690
785.927	0.0130143
786.005	0.0128712
786.083	0.0127759
786.161	0.0128907
786.239	0.0126919
786.318	0.0126737
786.396	0.0127644
786.474	0.0125402
786.552	0.0125052
786.630	0.0124633
786.708	0.0125569
786.786	0.0124804
786.864	0.0123768
786.943	0.0123171
787.021	0.0122820
787.099	0.0119642
787.177	0.0120757
787.255	0.0120848
787.333	0.0119445
787.411	0.0119749
787.489	0.0119190
787.568	0.0118924
787.646	0.0119282
787.724	0.0118925
787.802	0.0118748
787.880	0.0118905
787.958	0.0119443
788.036	0.0120242
788.114	0.0120381
788.193	0.0121780
788.271	0.0121904
788.349	0.0122619
788.427	0.0123092
788.505	0.0123808
788.583	0.0125079
788.661	0.0125871
788.739	0.0126060
788.818	0.0127116
788.896	0.0126585
788.974	0.0127732
789.052	0.0127663
789.130	0.0127139
789.208	0.0126006
789.286	0.0128276
789.364	0.0128312
789.443	0.0126775
789.521	0.0126670
789.599	0.0126271
789.677	0.0125832
789.755	0.0125434
789.833	0.0125510
789.911	0.0124239
789.989	0.0123438
790.068	0.0122981
790.146	0.0124197
790.224	0.0123465
790.302	0.0121331
790.380	0.0121989
790.458	0.0122469
790.536	0.0121951
790.614	0.0122541
790.693	0.0121723
790.771	0.0121657
790.849	0.0123151
790.927	0.0123145
791.005	0.0121422
791.083	0.0121857
791.161	0.0123000
791.239	0.0123544
791.318	0.0123871
791.396	0.0124292
791.474	0.0123827
791.552	0.0124136
791.630	0.0125727
791.708	0.0124043
791.786	0.0124834
791.864	0.0124516
791.943	0.0124999
792.021	0.0124692
792.099	0.0124209
792.177	0.0124450
792.255	0.0124410
792.333	0.0123840
792.411	0.0124416
792.489	0.0124657
792.568	0.0123650
792.646	0.0124095
792.724	0.0124232
792.802	0.0124897
792.880	0.0122807
792.958	0.0124100
793.036	0.0122813
793.114	0.0123173
793.193	0.0122436
793.271	0.0121684
793.349	0.0123941
793.427	0.0123068
793.505	0.0120918
793.583	0.0120979
793.661	0.0121793
793.739	0.0121808
793.818	0.0122276
793.896	0.0122237
793.974	0.0120531
794.052	0.0121622
794.130	0.0122719
794.208	0.0121282
794.286	0.0121832
794.364	0.0121431
794.443	0.0122862
794.521	0.0121777
794.599	0.0121554
794.677	0.0122467
794.755	0.0122229
794.833	0.0122881
794.911	0.0122777
794.989	0.0123270
795.068	0.0123403
795.146	0.0124401
795.224	0.0126096
795.302	0.0125443
795.380	0.0126790
795.458	0.0125182
795.536	0.0127201
795.614	0.0125733
795.693	0.0126128
795.771	0.0125270
795.849	0.0127210
795.927	0.0126495
796.005	0.0125713
796.083	0.0124975
796.161	0.0125265
796.239	0.0125120
796.318	0.0124700
796.396	0.0125372
796.474	0.0123566
796.552	0.0123373
796.630	0.0122545
796.708	0.0122878
796.786	0.0121587
796.864	0.0122270
796.943	0.0121811
797.021	0.0120859
797.099	0.0120305
797.177	0.0120645
797.255	0.0120432
797.333	0.0121187
797.411	0.0121333
797.489	0.0119882
797.568	0.0119836
797.646	0.0121529
797.724	0.0120473
797.802	0.0120554
797.880	0.0121564
797.958	0.0121785
798.036	0.0122454
798.114	0.0123146
798.193	0.0122376
798.271	0.0122472
798.349	0.0122741
798.427	0.0123450
798.505	0.0122430
798.583	0.0122877
798.661	0.0121577
798.739	0.0122491
798.818	0.0123772
798.896	0.0122121
798.974	0.0123351
799.052	0.0124046
799.130	0.0123409
799.208	0.0122680
799.286	0.0122817
799.364	0.0124143
799.443	0.0123950
799.521	0.0125507
799.599	0.0125664
799.677	0.0124255
799.755	0.0124187
799.833	0.0125445
799.911	0.0125383
799.989	0.0124428
800.068	0.0124493
800.146	0.0124537
800.224	0.0126272
800.302	0.0125255
800.380	0.0125067
800.458	0.0123660
800.536	0.0125353
800.614	0.0125700
800.693	0.0124934
800.771	0.0124277
800.849	0.0124043
800.927	0.0123646
801.005	0.0124222
801.083	0.0125154
801.161	0.0122591
801.239	0.0122820
801.318	0.0123985
801.396	0.0123706
801.474	0.0125249
801.552	0.0122948
801.630	0.0123693
801.708	0.0124606
801.786	0.0124696
801.864	0.0124558
801.943	0.0125558
802.021	0.0124741
802.099	0.0123997
802.177	0.0123917
802.255	0.0125077
802.333	0.0124661
802.411	0.0124869
802.489	0.0125154
802.568	0.0124369
802.646	0.0123447
802.724	0.0122169
802.802	0.0121825
802.880	0.0122836
802.958	0.0122681
803.036	0.0122251
803.114	0.0121749
803.193	0.0121396
803.271	0.0122267
803.349	0.0121989
803.427	0.0120891
803.505	0.0122680
803.583	0.0122287
803.661	0.0123354
803.739	0.0123321
803.818	0.0123800
803.896	0.0123526
803.974	0.0124323
804.052	0.0123978
804.130	0.0124877
804.208	0.0125909
804.286	0.0125732
804.364	0.0125063
804.443	0.0126288
804.521	0.0126441
804.599	0.0125471
804.677	0.0126567
804.755	0.0126431
804.833	0.0125872
804.911	0.0127197
804.989	0.0126543
805.068	0.0125849
805.146	0.0125443
805.224	0.0125986
805.302	0.0125835
805.380	0.0124634
805.458	0.0124394
805.536	0.0124532
805.614	0.0124329
805.693	0.0124269
805.771	0.0123697
805.849	0.0123926
805.927	0.0124450
806.005	0.0123125
806.083	0.0123754
806.161	0.0125127
806.239	0.0123563
806.318	0.0122763
806.396	0.0123663
806.474	0.0124928
806.552	0.0124917
806.630	0.0124847
806.708	0.0125517
806.786	0.0126043
806.864	0.0125647
806.943	0.0124923
807.021	0.0125663
807.099	0.0126426
807.177	0.0124918
807.255	0.0125943
807.333	0.0124996
807.411	0.0125912
807.489	0.0124710
807.568	0.0124252
807.646	0.0123826
807.724	0.0123442
807.802	0.0122525
807.880	0.0122552
807.958	0.0122912
808.036	0.0122788
808.114	0.0120448
808.193	0.0121784
808.271	0.0122918
808.349	0.0120551
808.427	0.0120474
808.505	0.0122778
808.583	0.0122465
808.661	0.0123197
808.739	0.0122856
808.818	0.0123331
808.896	0.0123692
808.974	0.0122983
809.052	0.0124304
809.130	0.0124474
809.208	0.0122771
809.286	0.0124898
809.364	0.0125743
809.443	0.0124400
809.521	0.0125436
809.599	0.0125694
809.677	0.0127306
809.755	0.0126745
809.833	0.0128091
809.911	0.0125739
809.989	0.0126466
810.068	0.0125854
810.146	0.0126777
810.224	0.0127377
810.302	0.0125903
810.380	0.0126259
810.458	0.0125455
810.536	0.0126867
810.614	0.0126353
810.693	0.0124805
810.771	0.0125988
810.849	0.0123371
810.927	0.0124179
811.005	0.0124052
811.083	0.0124027
811.161	0.0123987
811.239	0.0123614
811.318	0.0124291
811.396	0.0123559
811.474	0.0122197
811.552	0.0123128
811.630	0.0123714
811.708	0.0123433
811.786	0.0122598
811.864	0.0122493
811.943	0.0123782
812.021	0.0123792
812.099	0.0123456
812.177	0.0123985
812.255	0.0123456
812.333	0.0123405
812.411	0.0124096
812.489	0.0123503
812.568	0.0124392
812.646	0.0124320
812.724	0.0124895
812.802	0.0123801
812.880	0.0125975
812.958	0.0124865
813.036	0.0123498
813.114	0.0124298
813.193	0.0123582
813.271	0.0123864
813.349	0.0123924
813.427	0.0123605
813.505	0.0123281
813.583	0.0122325
813.661	0.0121839
813.739	0.0121584
813.818	0.0121856
813.896	0.0120448
813.974	0.0119872
814.052	0.0120697
814.130	0.0119602
814.208	0.0118853
814.286	0.0119064
814.364	0.0119823
814.443	0.0118942
814.521	0.0120675
814.599	0.0120761
814.677	0.0119424
814.755	0.0120892
814.833	0.0121081
814.911	0.0121065
814.989	0.0121130
815.068	0.0123959
815.146	0.0124471
815.224	0.0124898
815.302	0.0125371
815.380	0.0124270
815.458	0.0125724
815.536	0.0126888
815.614	0.0125825
815.693	0.0127958
815.771	0.0126772
815.849	0.0126938
815.927	0.0127942
816.005	0.0126902
816.083	0.0128022
816.161	0.0128329
816.239	0.0128180
816.318	0.0125810
816.396	0.0125600
816.474	0.0126069
816.552	0.0126722
816.630	0.0125528
816.708	0.0125174
816.786	0.0125448
816.864	0.0124950
816.943	0.0124380
817.021	0.0122659
817.099	0.0123741
817.177	0.0123138
817.255	0.0123965
817.333	0.0123329
817.411	0.0123904
817.489	0.0120725
817.568	0.0121501
817.646	0.0122247
817.724	0.0121398
817.802	0.0121748
817.880	0.0120924
817.958	0.0122873
818.036	0.0121710
818.114	0.0122455
818.193	0.0120484
818.271	0.0120975
818.349	0.0121852
818.427	0.0122025
818.505	0.0121835
818.583	0.0121268
818.661	0.0123153
818.739	0.0121478
818.818	0.0121955
818.896	0.0121639
818.974	0.0121722
819.052	0.0120559
819.130	0.0122110
819.208	0.0122804
819.286	0.0121119
819.364	0.0122884
819.443	0.0122138
819.521	0.0122707
819.599	0.0122469
819.677	0.0122096
819.755	0.0122662
819.833	0.0122968
819.911	0.0122242
819.989	0.0121732
820.068	0.0121624
820.146	0.0121748
820.224	0.0122576
820.302	0.0121297
820.380	0.0122770
820.458	0.0122222
820.536	0.0121786
820.614	0.0121038
820.693	0.0122821
820.771	0.0123800
820.849	0.0123157
820.927	0.0123741
821.005	0.0124395
821.083	0.0124583
821.161	0.0124738
821.239	0.0125225
821.318	0.0125278
821.396	0.0125231
821.474	0.0126443
821.552	0.0127010
821.630	0.0126574
821.708	0.0125941
821.786	0.0125823
821.864	0.0126908
821.943	0.0127607
822.021	0.0128512
822.099	0.0126949
822.177	0.0128120
822.255	0.0126772
822.333	0.0127658
822.411	0.0126261
822.489	0.0127164
822.568	0.0126001
822.646	0.0126458
822.724	0.0124445
822.802	0.0124251
822.880	0.0123454
822.958	0.0123866
823.036	0.0122882
823.114	0.0122970
823.193	0.0122373
823.271	0.0121494
823.349	0.0120729
823.427	0.0120988
823.505	0.0121322
823.583	0.0118959
823.661	0.0120555
823.739	0.0120614
823.818	0.0120502
823.896	0.0121055
823.974	0.0120436
824.052	0.0120467
824.130	0.0121591
824.208	0.0122256
824.286	0.0120811
824.364	0.0122059
824.443	0.0122829
824.521	0.0122430
824.599	0.0122099
824.677	0.0123897
824.755	0.0122874
824.833	0.0123576
824.911	0.0123925
824.989	0.0123232
825.068	0.0123939
825.146	0.0122757
825.224	0.0122615
825.302	0.0122869
825.380	0.0123273
825.458	0.0123338
825.536	0.0123782
825.614	0.0123056
825.693	0.0124515
825.771	0.0123116
825.849	0.0122282
825.927	0.0122955
826.005	0.0122975
826.083	0.0123692
826.161	0.0123568
826.239	0.0122754
826.318	0.0123721
826.396	0.0125195
826.474	0.0124457
826.552	0.0124584
826.630	0.0125377
826.708	0.0125771
826.786	0.0124969
826.864	0.0125395
826.943	0.0124883
827.021	0.0126175
827.099	0.0126340
827.177	0.0127291
827.255	0.0126707
827.333	0.0126361
827.411	0.0126355
827.489	0.0127014
827.568	0.0126102
827.646	0.0124971
827.724	0.0125388
827.802	0.0127312
827.880	0.0126611
827.958	0.0125372
828.036	0.0124733
828.114	0.0124987
828.193	0.0126068
828.271	0.0126575
828.349	0.0126150
828.427	0.0124386
828.505	0.0124224
828.583	0.0124099
828.661	0.0124251
828.739	0.0123564
828.818	0.0122738
828.896	0.0122079
828.974	0.0121281
829.052	0.0123164
829.130	0.0122276
829.208	0.0119989
829.286	0.0120405
829.364	0.0120234
829.443	0.0119794
829.521	0.0120503
829.599	0.0119975
829.677	0.0120247
829.755	0.0121696
829.833	0.0120884
829.911	0.0119846
829.989	0.0121358
830.068	0.0121960
830.146	0.0121046
830.224	0.0121762
830.302	0.0122595
830.380	0.0121989
830.458	0.0122466
830.536	0.0121346
830.614	0.0123250
830.693	0.0122811
830.771	0.0124806
830.849	0.0124413
830.927	0.0123351
831.005	0.0122672
831.083	0.0123158
831.161	0.0123349
831.239	0.0124149
831.318	0.0123669
831.396	0.0124865
831.474	0.0124271
831.552	0.0122900
831.630	0.0124408
831.708	0.0126312
831.786	0.0124433
831.864	0.0123677
831.943	0.0123963
832.021	0.0126022
832.099	0.0125220
832.177	0.0124738
832.255	0.0124072
832.333	0.0124710
832.411	0.0124010
832.489	0.0125478
832.568	0.0126604
832.646	0.0125306
832.724	0.0124863
832.802	0.0124659
832.880	0.0123952
832.958	0.0124686
833.036	0.0125914
833.114	0.0124833
833.193	0.0125294
833.271	0.0125600
833.349	0.0124961
833.427	0.0125225
833.505	0.0126039
833.583	0.0125146
833.661	0.0125215
833.739	0.0124790
833.818	0.0125561
833.896	0.0125394
833.974	0.0125110
834.052	0.0124714
834.130	0.0124635
834.208	0.0124096
834.286	0.0124990
834.364	0.0123515
834.443	0.0124148
834.521	0.0123809
834.599	0.0124429
834.677	0.0124737
834.755	0.0125138
834.833	0.0122757
834.911	0.0122159
834.989	0.0123328
835.068	0.0122913
835.146	0.0122292
835.224	0.0122493
835.302	0.0121860
835.380	0.0122718
835.458	0.0123562
835.536	0.0122022
835.614	0.0121098
835.693	0.0122235
835.771	0.0122174
835.849	0.0122810
835.927	0.0122154
836.005	0.0121236
836.083	0.0121701
836.161	0.0121439
836.239	0.0120583
836.318	0.0122681
836.396	0.0121427
836.474	0.0122961
836.552	0.0122542
836.630	0.0122595
836.708	0.0121354
836.786	0.0123965
836.864	0.0122947
836.943	0.0123467
837.021	0.0122481
837.099	0.0122667
837.177	0.0123864
837.255	0.0125009
837.333	0.0123794
837.411	0.0124129
837.489	0.0124143
837.568	0.0123804
837.646	0.0123819
837.724	0.0123702
837.802	0.0125305
837.880	0.0124867
837.958	0.0125082
838.036	0.0125148
838.114	0.0124350
838.193	0.0124720
838.271	0.0124672
838.349	0.0125764
838.427	0.0124965
838.505	0.0125967
838.583	0.0125234
838.661	0.0124372
838.739	0.0125125
838.818	0.0124843
838.896	0.0124699
838.974	0.0125590
839.052	0.0125407
839.130	0.0125674
839.208	0.0125300
839.286	0.0126005
839.364	0.0124638
839.443	0.0123779
839.521	0.0125801
839.599	0.0126353
839.677	0.0126560
839.755	0.0125731
839.833	0.0126026
839.911	0.0125027
839.989	0.0124134
840.068	0.0125158
840.146	0.0125115
840.224	0.0123957
840.302	0.0124110
840.380	0.0124428
840.458	0.0122869
840.536	0.0122662
840.614	0.0122635
840.693	0.0123685
840.771	0.0122807
840.849	0.0122581
840.927	0.0123318
841.005	0.0121825
841.083	0.0123793
841.161	0.0123740
841.239	0.0122105
841.318	0.0120802
841.396	0.0123088
841.474	0.0122591
841.552	0.0121916
841.630	0.0122440
841.708	0.0123048
841.786	0.0123318
841.864	0.0122784
841.943	0.0121979
842.021	0.0123270
842.099	0.0123573
842.177	0.0124007
842.255	0.0123091
842.333	0.0123504
842.411	0.0123374
842.489	0.0123866
842.568	0.0124505
842.646	0.0123914
842.724	0.0124084
842.802	0.0125602
842.880	0.0125032
842.958	0.0123092
843.036	0.0123687
843.114	0.0124082
843.193	0.0122282
843.271	0.0123824
843.349	0.0123834
843.427	0.0123285
843.505	0.0122964
843.583	0.0123232
843.661	0.0122924
843.739	0.0121796
843.818	0.0122887
843.896	0.0121735
843.974	0.0123177
844.052	0.0122503
844.130	0.0123676
844.208	0.0122273
844.286	0.0123686
844.364	0.0123792
844.443	0.0123622
844.521	0.0123366
844.599	0.0123540
844.677	0.0123560
844.755	0.0124467
844.833	0.0124786
844.911	0.0124687
844.989	0.0123959
845.068	0.0125105
845.146	0.0123917
845.224	0.0125375
845.302	0.0125580
845.380	0.0126334
845.458	0.0126237
845.536	0.0125223
845.614	0.0125706
845.693	0.0125522
845.771	0.0124755
845.849	0.0125854
845.927	0.0124511
846.005	0.0125222
846.083	0.0126867
846.161	0.0126037
846.239	0.0125348
846.318	0.0124050
846.396	0.0124577
846.474	0.0124300
846.552	0.0123508
846.630	0.0123680
846.708	0.0123303
846.786	0.0122597
846.864	0.0123392
846.943	0.0123928
847.021	0.0122384
847.099	0.0123981
847.177	0.0122523
847.255	0.0122236
847.333	0.0122455
847.411	0.0122486
847.489	0.0121485
847.568	0.0123000
847.646	0.0122517
847.724	0.0123871
847.802	0.0121476
847.880	0.0122047
847.958	0.0121998
848.036	0.0122173
848.114	0.0123256
848.193	0.0123001
848.271	0.0121572
848.349	0.0122151
848.427	0.0122994
848.505	0.0121873
848.583	0.0122971
848.661	0.0121819
848.739	0.0121481
848.818	0.0122253
848.896	0.0123032
848.974	0.0121402
849.052	0.0122003
849.130	0.0120454
849.208	0.0120428
849.286	0.0120595
849.364	0.0121343
849.443	0.0121906
849.521	0.0120995
849.599	0.0121278
849.677	0.0121643
849.755	0.0121513
849.833	0.0121371
849.911	0.0122073
849.989	0.0120842
850.068	0.0121549
850.146	0.0122649
850.224	0.0121528
850.302	0.0122157
850.380	0.0122315
850.458	0.0121736
850.536	0.0122635
850.614	0.0123084
850.693	0.0123042
850.771	0.0123139
850.849	0.0123286
850.927	0.0124387
851.005	0.0123973
851.083	0.0123917
851.161	0.0125002
851.239	0.0122099
851.318	0.0124165
851.396	0.0125218
851.474	0.0124144
851.552	0.0124690
851.630	0.0125584
851.708	0.0124500
851.786	0.0123943
851.864	0.0124881
851.943	0.0125172
852.021	0.0124485
852.099	0.0123006
852.177	0.0126009
852.255	0.0125096
852.333	0.0124963
852.411	0.0123574
852.489	0.0124574
852.568	0.0124466
852.646	0.0123309
852.724	0.0122202
852.802	0.0122486
852.880	0.0124094
852.958	0.0123380
853.036	0.0122208
853.114	0.0121812
853.193	0.0122302
853.271	0.0122958
853.349	0.0123011
853.427	0.0122945
853.505	0.0122736
853.583	0.0123152
853.661	0.0123734
853.739	0.0121754
853.818	0.0122317
853.896	0.0123515
853.974	0.0121761
854.052	0.0122260
854.130	0.0122874
854.208	0.0123504
854.286	0.0124662
854.364	0.0123012
854.443	0.0123920
854.521	0.0123573
854.599	0.0123779
854.677	0.0123056
854.755	0.0122946
854.833	0.0123917
854.911	0.0124860
854.989	0.0124626
855.068	0.0123367
855.146	0.0123968
855.224	0.0123465
855.302	0.0122466
855.380	0.0124071
855.458	0.0123798
855.536	0.0122991
855.614	0.0123405
855.693	0.0123910
855.771	0.0123898
855.849	0.0122782
855.927	0.0122701
856.005	0.0125140
856.083	0.0123425
856.161	0.0122834
856.239	0.0121634
856.318	0.0123024
856.396	0.0123325
856.474	0.0123433
856.552	0.0123190
856.630	0.0122987
856.708	0.0124081
856.786	0.0123176
856.864	0.0123306
856.943	0.0122918
857.021	0.0123000
857.099	0.0123908
857.177	0.0122623
857.255	0.0123419
857.333	0.0122473
857.411	0.0122958
857.489	0.0123538
857.568	0.0123440
857.646	0.0123817
857.724	0.0124094
857.802	0.0122631
857.880	0.0123502
857.958	0.0123073
858.036	0.0123741
858.114	0.0124118
858.193	0.0124458
858.271	0.0124434
858.349	0.0125574
858.427	0.0124259
858.505	0.0125346
858.583	0.0124525
858.661	0.0125339
858.739	0.0126015
858.818	0.0123753
858.896	0.0125472
858.974	0.0126843
859.052	0.0124680
859.130	0.0125403
859.208	0.0126982
859.286	0.0125824
859.364	0.0124404
859.443	0.0125772
859.521	0.0126078
859.599	0.0125008
859.677	0.0124700
859.755	0.0125143
859.833	0.0126580
859.911	0.0124809
859.989	0.0126653
860.068	0.0123477
860.146	0.0124159
860.224	0.0124215
860.302	0.0124232
860.380	0.0123047
860.458	0.0122442
860.536	0.0123754
860.614	0.0123425
860.693	0.0122971
860.771	0.0123396
860.849	0.0122581
860.927	0.0124068
861.005	0.0122995
861.083	0.0124060
861.161	0.0122750
861.239	0.0124031
861.318	0.0123445
861.396	0.0123678
861.474	0.0123660
861.552	0.0123891
861.630	0.0125355
861.708	0.0123223
861.786	0.0122948
861.864	0.0123302
861.943	0.0124664
862.021	0.0123328
862.099	0.0122075
862.177	0.0122460
862.255	0.0124103
862.333	0.0123426
862.411	0.0123343
862.489	0.0122031
862.568	0.0122633
862.646	0.0122713
862.724	0.0122592
862.802	0.0124214
862.880	0.0122994
862.958	0.0124261
863.036	0.0124470
863.114	0.0124349
863.193	0.0123962
863.271	0.0125161
863.349	0.0125385
863.427	0.0125404
863.505	0.0125286
863.583	0.0126055
863.661	0.0126177
863.739	0.0125416
863.818	0.0124706
863.896	0.0125804
863.974	0.0125132
864.052	0.0124168
864.130	0.0123972
864.208	0.0124699
864.286	0.0123882
864.364	0.0125170
864.443	0.0124395
864.521	0.0124991
864.599	0.0122981
864.677	0.0122975
864.755	0.0123972
864.833	0.0123776
864.911	0.0123336
864.989	0.0122562
865.068	0.0123540
865.146	0.0122338
865.224	0.0122557
865.302	0.0121677
865.380	0.0121423
865.458	0.0123817
865.536	0.0121894
865.614	0.0122588
865.693	0.0123221
865.771	0.0124414
865.849	0.0123603
865.927	0.0123483
866.005	0.0124937
866.083	0.0122932
866.161	0.0124624
866.239	0.0124520
866.318	0.0124461
866.396	0.0127505
866.474	0.0125706
866.552	0.0126041
866.630	0.0125833
866.708	0.0128130
866.786	0.0126408
866.864	0.0125883
866.943	0.0125423
867.021	0.0126484
867.099	0.0126213
867.177	0.0126537
867.255	0.0125456
867.333	0.0124887
867.411	0.0123814
867.489	0.0123597
867.568	0.0123338
867.646	0.0123460
867.724	0.0122163
867.802	0.0122961
867.880	0.0122969
867.958	0.0122964
868.036	0.0119926
868.114	0.0120837
868.193	0.0121597
868.271	0.0120403
868.349	0.0120515
868.427	0.0120728
868.505	0.0120843
868.583	0.0121561
868.661	0.0120249
868.739	0.0120421
868.818	0.0120436
868.896	0.0120683
868.974	0.0121653
869.052	0.0120560
869.130	0.0121500
869.208	0.0122276
869.286	0.0124120
869.364	0.0124659
869.443	0.0123331
869.521	0.0125151
869.599	0.0124902
869.677	0.0125420
869.755	0.0125751
869.833	0.0125327
869.911	0.0125053
869.989	0.0124959
870.068	0.0126370
870.146	0.0126736
870.224	0.0125384
870.302	0.0125293
870.380	0.0123566
870.458	0.0125371
870.536	0.0125419
870.614	0.0125068
870.693	0.0125079
870.771	0.0125176
870.849	0.0124556
870.927	0.0124147
871.005	0.0123455
871.083	0.0125214
871.161	0.0124671
871.239	0.0124026
871.318	0.0124442
871.396	0.0123981
871.474	0.0123170
871.552	0.0123420
871.630	0.0122497
871.708	0.0123855
871.786	0.0125433
871.864	0.0123499
871.943	0.0123558
872.021	0.0124145
872.099	0.0121801
872.177	0.0122671
872.255	0.0122462
872.333	0.0121375
872.411	0.0122034
872.489	0.0123112
872.568	0.0121374
872.646	0.0121038
872.724	0.0121831
872.802	0.0122060
872.880	0.0121920
872.958	0.0122265
873.036	0.0120905
873.114	0.0118763
873.193	0.0122104
873.271	0.0121663
873.349	0.0121632
873.427	0.0122094
873.505	0.0121185
873.583	0.0120642
873.661	0.0122266
873.739	0.0121844
873.818	0.0121612
873.896	0.0122665
873.974	0.0122260
874.052	0.0123686
874.130	0.0122363
874.208	0.0123129
874.286	0.0124482
874.364	0.0123412
874.443	0.0124744
874.521	0.0124612
874.599	0.0123013
874.677	0.0124844
874.755	0.0124685
874.833	0.0125511
874.911	0.0123427
874.989	0.0124728
875.068	0.0124965
875.146	0.0123946
875.224	0.0123434
875.302	0.0124460
875.380	0.0123705
875.458	0.0124625
875.536	0.0123711
875.614	0.0123925
875.693	0.0123839
875.771	0.0123436
875.849	0.0123884
875.927	0.0123302
876.005	0.0123870
876.083	0.0123681
876.161	0.0123340
876.239	0.0120587
876.318	0.0123619
876.396	0.0122613
876.474	0.0123386
876.552	0.0123601
876.630	0.0122567
876.708	0.0123812
876.786	0.0122775
876.864	0.0121162
876.943	0.0121622
877.021	0.0122591
877.099	0.0121668
877.177	0.0121540
877.255	0.0121895
877.333	0.0121513
877.411	0.0121069
877.489	0.0122008
877.568	0.0121688
877.646	0.0121910
877.724	0.0121600
877.802	0.0120403
877.880	0.0120918
877.958	0.0121829
878.036	0.0121370
878.114	0.0121347
878.193	0.0121478
878.271	0.0121663
878.349	0.0122188
878.427	0.0122543
878.505	0.0123399
878.583	0.0123038
878.661	0.0122952
878.739	0.0122483
878.818	0.0124456
878.896	0.0124596
878.974	0.0123035
879.052	0.0123277
879.130	0.0124503
879.208	0.0124747
879.286	0.0126015
879.364	0.0126994
879.443	0.0125694
879.521	0.0125735
879.599	0.0125392
879.677	0.0125449
879.755	0.0126484
879.833	0.0125900
879.911	0.0125639
879.989	0.0124364
880.068	0.0125709
880.146	0.0124581
880.224	0.0125009
880.302	0.0126098
880.380	0.0124673
880.458	0.0125084
880.536	0.0124493
880.614	0.0123289
880.693	0.0123670
880.771	0.0123813
880.849	0.0123214
880.927	0.0122206
881.005	0.0123174
881.083	0.0122508
881.161	0.0123622
881.239	0.0123468
881.318	0.0123227
881.396	0.0123133
881.474	0.0122774
881.552	0.0120947
881.630	0.0120199
881.708	0.0121382
881.786	0.0122053
881.864	0.0122392
881.943	0.0122324
882.021	0.0121244
882.099	0.0121857
882.177	0.0121126
882.255	0.0121412
882.333	0.0122773
882.411	0.0121559
882.489	0.0122542
882.568	0.0122784
882.646	0.0122191
882.724	0.0122713
882.802	0.0123223
882.880	0.0123008
882.958	0.0122608
883.036	0.0123264
883.114	0.0123140
883.193	0.0124448
883.271	0.0125869
883.349	0.0125562
883.427	0.0123754
883.505	0.0123494
883.583	0.0124335
883.661	0.0124644
883.739	0.0124970
883.818	0.0125894
883.896	0.0124259
883.974	0.0124044
884.052	0.0124253
884.130	0.0124107
884.208	0.0125768
884.286	0.0124417
884.364	0.0122679
884.443	0.0123875
884.521	0.0123864
884.599	0.0123275
884.677	0.0123483
884.755	0.0125234
884.833	0.0124320
884.911	0.0123402
884.989	0.0122199
885.068	0.0123198
885.146	0.0124078
885.224	0.0124114
885.302	0.0123596
885.380	0.0123296
885.458	0.0123872
885.536	0.0124348
885.614	0.0125384
885.693	0.0125927
885.771	0.0123717
885.849	0.0124033
885.927	0.0125387
886.005	0.0126847
886.083	0.0127901
886.161	0.0126945
886.239	0.0128304
886.318	0.0128062
886.396	0.0127172
886.474	0.0126857
886.552	0.0127639
886.630	0.0126217
886.708	0.0126456
886.786	0.0126014
886.864	0.0126184
886.943	0.0125212
887.021	0.0126575
887.099	0.0124609
887.177	0.0124576
887.255	0.0124683
887.333	0.0124380
887.411	0.0124373
887.489	0.0123141
887.568	0.0123904
887.646	0.0122909
887.724	0.0121358
887.802	0.0122957
887.880	0.0121907
887.958	0.0121270
888.036	0.0121132
888.114	0.0121992
888.193	0.0122563
888.271	0.0122576
888.349	0.0122194
888.427	0.0122600
888.505	0.0122211
888.583	0.0123048
888.661	0.0122843
888.739	0.0121825
888.818	0.0122372
888.896	0.0122234
888.974	0.0122777
889.052	0.0123417
889.130	0.0123289
889.208	0.0123884
889.286	0.0123367
889.364	0.0124199
889.443	0.0123984
889.521	0.0125328
889.599	0.0124483
889.677	0.0124755
889.755	0.0124697
889.833	0.0124661
889.911	0.0125588
889.989	0.0124812
890.068	0.0124715
890.146	0.0124319
890.224	0.0123770
890.302	0.0124526
890.380	0.0124603
890.458	0.0124591
890.536	0.0124713
890.614	0.0124950
890.693	0.0125161
890.771	0.0123885
890.849	0.0124718
890.927	0.0124863
891.005	0.0123308
891.083	0.0122631
891.161	0.0124498
891.239	0.0124888
891.318	0.0123070
891.396	0.0122700
891.474	0.0125719
891.552	0.0123786
891.630	0.0124271
891.708	0.0122396
891.786	0.0122836
891.864	0.0122704
891.943	0.0122498
892.021	0.0122375
892.099	0.0121670
892.177	0.0122477
892.255	0.0122057
892.333	0.0122585
892.411	0.0124400
892.489	0.0123379
892.568	0.0121278
892.646	0.0122367
892.724	0.0122867
892.802	0.0122464
892.880	0.0122581
892.958	0.0122279
893.036	0.0123035
893.114	0.0122623
893.193	0.0122231
893.271	0.0122744
893.349	0.0122314
893.427	0.0123722
893.505	0.0123805
893.583	0.0122205
893.661	0.0123481
893.739	0.0122997
893.818	0.0122504
893.896	0.0123679
893.974	0.0122758
894.052	0.0122459
894.130	0.0123516
894.208	0.0123377
894.286	0.0123508
894.364	0.0123655
894.443	0.0124574
894.521	0.0123299
894.599	0.0122884
894.677	0.0123966
894.755	0.0124262
894.833	0.0123266
894.911	0.0123667
894.989	0.0124368
895.068	0.0124696
895.146	0.0123619
895.224	0.0124007
895.302	0.0124095
895.380	0.0122386
895.458	0.0122358
895.536	0.0123086
895.614	0.0123847
895.693	0.0124837
895.771	0.0124874
895.849	0.0123713
895.927	0.0124512
896.005	0.0123702
896.083	0.0123380
896.161	0.0122850
896.239	0.0124284
896.318	0.0121941
896.396	0.0122786
896.474	0.0124425
896.552	0.0122866
896.630	0.0123170
896.708	0.0120163
896.786	0.0122417
896.864	0.0122686
896.943	0.0121039
897.021	0.0121819
897.099	0.0122211
897.177	0.0121562
897.255	0.0122562
897.333	0.0122048
897.411	0.0122544
897.489	0.0121397
897.568	0.0122428
897.646	0.0122843
897.724	0.0121780
897.802	0.0121439
897.880	0.0121737
897.958	0.0123956
898.036	0.0123445
898.114	0.0123231
898.193	0.0122103
898.271	0.0122701
898.349	0.0122637
898.427	0.0122286
898.505	0.0123368
898.583	0.0123648
898.661	0.0123488
898.739	0.0122551
898.818	0.0124726
898.896	0.0123140
898.974	0.0122357
899.052	0.0123611
899.130	0.0126092
899.208	0.0125247
899.286	0.0124778
899.364	0.0123856
899.443	0.0124648
899.521	0.0125111
899.599	0.0124394
899.677	0.0124297
899.755	0.0124563
899.833	0.0124335
899.911	0.0125017
899.989	0.0123763
900.068	0.0123325
900.146	0.0123140
900.224	0.0124261
900.302	0.0124500
900.380	0.0123799
900.458	0.0124364
900.536	0.0122991
900.614	0.0121666
900.693	0.0122157
900.771	0.0123389
900.849	0.0124261
900.927	0.0122560
901.005	0.0122216
901.083	0.0122744
901.161	0.0122548
901.239	0.0122490
901.318	0.0122853
901.396	0.0120918
901.474	0.0121600
901.552	0.0122636
901.630	0.0122052
901.708	0.0121426
901.786	0.0121036
901.864	0.0121378
901.943	0.0121561
902.021	0.0121364
902.099	0.0121750
902.177	0.0121959
902.255	0.0121248
902.333	0.0121210
902.411	0.0123570
902.489	0.0122512
902.568	0.0122433
902.646	0.0121564
902.724	0.0122759
902.802	0.0123484
902.880	0.0122691
902.958	0.0123035
903.036	0.0124123
903.114	0.0124325
903.193	0.0125325
903.271	0.0124889
903.349	0.0124709
903.427	0.0123866
903.505	0.0124743
903.583	0.0123730
903.661	0.0124715
903.739	0.0125118
903.818	0.0125157
903.896	0.0124367
903.974	0.0125029
904.052	0.0125163
904.130	0.0124622
904.208	0.0125250
904.286	0.0124727
904.364	0.0124532
904.443	0.0124969
904.521	0.0125484
904.599	0.0125114
904.677	0.0124294
904.755	0.0123794
904.833	0.0124644
904.911	0.0124340
904.989	0.0125075
905.068	0.0125651
905.146	0.0124449
905.224	0.0123067
905.302	0.0124589
905.380	0.0124184
905.458	0.0123940
905.536	0.0122947
905.614	0.0122351
905.693	0.0122598
905.771	0.0123309
905.849	0.0123185
905.927	0.0123427
906.005	0.0121692
906.083	0.0120888
906.161	0.0121175
906.239	0.0122272
906.318	0.0123464
906.396	0.0122765
906.474	0.0122301
906.552	0.0121478
906.630	0.0121892
906.708	0.0123447
906.786	0.0123564
906.864	0.0122854
906.943	0.0122132
907.021	0.0122434
907.099	0.0122263
907.177	0.0123718
907.255	0.0123491
907.333	0.0124535
907.411	0.0124123
907.489	0.0122456
907.568	0.0124580
907.646	0.0124562
907.724	0.0124751
907.802	0.0123859
907.880	0.0124377
907.958	0.0123128
908.036	0.0123052
908.114	0.0123283
908.193	0.0123283
908.271	0.0125129
908.349	0.0124512
908.427	0.0124772
908.505	0.0125879
908.583	0.0126028
908.661	0.0123653
908.739	0.0123583
908.818	0.0123122
908.896	0.0124030
908.974	0.0124031
909.052	0.0123971
909.130	0.0124605
909.208	0.0124204
909.286	0.0122246
909.364	0.0122678
909.443	0.0123972
909.521	0.0123865
909.599	0.0122774
909.677	0.0122643
909.755	0.0122929
909.833	0.0122639
909.911	0.0123651
909.989	0.0122701
910.068	0.0123512
910.146	0.0122989
910.224	0.0123524
910.302	0.0124512
910.380	0.0123670
910.458	0.0122898
910.536	0.0123710
910.614	0.0122888
910.693	0.0123554
910.771	0.0122872
910.849	0.0125065
910.927	0.0124228
911.005	0.0123629
911.083	0.0123241
911.161	0.0124914
911.239	0.0124463
911.318	0.0124136
911.396	0.0124326
911.474	0.0123745
911.552	0.0123062
911.630	0.0124700
911.708	0.0124415
911.786	0.0123523
911.864	0.0123920
911.943	0.0124250
912.021	0.0121932
912.099	0.0123363
912.177	0.0121478
912.255	0.0123551
912.333	0.0123537
912.411	0.0122496
912.489	0.0121781
912.568	0.0123729
912.646	0.0122476
912.724	0.0122362
912.802	0.0122713
912.880	0.0122308
912.958	0.0124615
913.036	0.0124252
913.114	0.0122823
913.193	0.0123753
913.271	0.0123903
913.349	0.0123719
913.427	0.0124310
913.505	0.0125537
913.583	0.0124010
913.661	0.0124555
913.739	0.0125394
913.818	0.0125780
913.896	0.0124990
913.974	0.0124911
914.052	0.0125848
914.130	0.0125268
914.208	0.0125955
914.286	0.0125228
914.364	0.0125300
914.443	0.0124857
914.521	0.0124981
914.599	0.0125259
914.677	0.0124489
914.755	0.0122901
914.833	0.0123962
914.911	0.0124137
914.989	0.0125192
915.068	0.0122240
915.146	0.0121847
915.224	0.0122832
915.302	0.0121612
915.380	0.0121575
915.458	0.0122043
915.536	0.0122192
915.614	0.0123224
915.693	0.0122756
915.771	0.0122736
915.849	0.0121376
915.927	0.0123227
916.005	0.0122589
916.083	0.0122354
916.161	0.0121445
916.239	0.0123125
916.318	0.0121410
916.396	0.0122782
916.474	0.0122930
916.552	0.0124959
916.630	0.0123460
916.708	0.0123492
916.786	0.0122784
916.864	0.0123376
916.943	0.0122762
917.021	0.0123846
917.099	0.0125239
917.177	0.0124090
917.255	0.0124138
917.333	0.0123886
917.411	0.0124859
917.489	0.0124286
917.568	0.0123708
917.646	0.0123882
917.724	0.0123816
917.802	0.0125145
917.880	0.0123728
917.958	0.0124019
918.036	0.0125220
918.114	0.0123184
918.193	0.0124635
918.271	0.0124687
918.349	0.0123949
918.427	0.0123013
918.505	0.0123383
918.583	0.0124319
918.661	0.0124567
918.739	0.0124628
918.818	0.0123906
918.896	0.0122816
918.974	0.0122632
919.052	0.0124342
919.130	0.0123087
919.208	0.0122691
919.286	0.0124026
919.364	0.0124294
919.443	0.0124038
919.521	0.0123158
919.599	0.0123705
919.677	0.0124413
919.755	0.0123116
919.833	0.0122729
919.911	0.0125249
919.989	0.0124125
920.068	0.0123525
920.146	0.0121716
920.224	0.0121871
920.302	0.0120071
920.380	0.0120703
920.458	0.0120802
920.536	0.0121786
920.614	0.0120702
920.693	0.0122304
920.771	0.0121818
920.849	0.0122610
920.927	0.0122414
921.005	0.0121943
921.083	0.0120845
921.161	0.0123199
921.239	0.0122830
921.318	0.0123111
921.396	0.0122295
921.474	0.0122232
921.552	0.0122684
921.630	0.0123708
921.708	0.0123178
921.786	0.0122582
921.864	0.0123592
921.943	0.0123517
922.021	0.0123732
922.099	0.0124055
922.177	0.0123817
922.255	0.0122778
922.333	0.0123900
922.411	0.0123217
922.489	0.0125266
922.568	0.0123962
922.646	0.0123460
922.724	0.0123289
922.802	0.0124114
922.880	0.0125061
922.958	0.0123033
923.036	0.0123448
923.114	0.0124752
923.193	0.0125131
923.271	0.0123757
923.349	0.0123306
923.427	0.0124272
923.505	0.0123575
923.583	0.0123907
923.661	0.0124744
923.739	0.0125204
923.818	0.0124291
923.896	0.0124394
923.974	0.0124954
924.052	0.0123478
924.130	0.0123493
924.208	0.0124241
924.286	0.0123743
924.364	0.0124275
924.443	0.0123071
924.521	0.0123854
924.599	0.0123206
924.677	0.0122738
924.755	0.0122820
924.833	0.0123279
924.911	0.0122366
924.989	0.0122723
925.068	0.0121992
925.146	0.0122279
925.224	0.0121368
925.302	0.0122603
925.380	0.0122065
925.458	0.0122382
925.536	0.0123706
925.614	0.0122943
925.693	0.0123975
925.771	0.0124158
925.849	0.0122860
925.927	0.0123274
926.005	0.0122414
926.083	0.0122239
926.161	0.0123418
926.239	0.0123723
926.318	0.0122961
926.396	0.0123338
926.474	0.0123419
926.552	0.0123119
926.630	0.0122829
926.708	0.0123100
926.786	0.0122700
926.864	0.0123137
926.943	0.0121354
927.021	0.0122755
927.099	0.0123822
927.177	0.0123561
927.255	0.0122118
927.333	0.0123122
927.411	0.0123539
927.489	0.0123232
927.568	0.0123865
927.646	0.0124409
927.724	0.0123727
927.802	0.0123545
927.880	0.0124541
927.958	0.0125169
928.036	0.0123948
928.114	0.0124507
928.193	0.0123132
928.271	0.0124712
928.349	0.0125484
928.427	0.0124233
928.505	0.0125901
928.583	0.0126538
928.661	0.0125216
928.739	0.0124576
928.818	0.0124782
928.896	0.0124322
928.974	0.0124659
929.052	0.0123943
929.130	0.0124561
929.208	0.0123404
929.286	0.0123846
929.364	0.0124128
929.443	0.0124263
929.521	0.0122849
929.599	0.0120863
929.677	0.0122289
929.755	0.0123323
929.833	0.0120932
929.911	0.0121533
929.989	0.0121861
930.068	0.0121510
930.146	0.0122951
930.224	0.0122673
930.302	0.0121668
930.380	0.0122425
930.458	0.0122334
930.536	0.0121869
930.614	0.0123606
930.693	0.0122968
930.771	0.0122508
930.849	0.0122980
930.927	0.0123431
931.005	0.0122930
931.083	0.0124551
931.161	0.0124110
931.239	0.0124101
931.318	0.0123560
931.396	0.0123221
931.474	0.0125255
931.552	0.0124635
931.630	0.0124117
931.708	0.0124980
931.786	0.0124415
931.864	0.0122969
931.943	0.0124072
932.021	0.0123548
932.099	0.0123967
932.177	0.0121960
932.255	0.0124357
932.333	0.0123405
932.411	0.0122067
932.489	0.0124090
932.568	0.0123409
932.646	0.0123631
932.724	0.0123164
932.802	0.0122577
932.880	0.0122978
932.958	0.0123701
933.036	0.0122903
933.114	0.0122993
933.193	0.0123067
933.271	0.0122438
933.349	0.0123942
933.427	0.0124850
933.505	0.0122962
933.583	0.0123239
933.661	0.0123975
933.739	0.0123833
933.818	0.0124882
933.896	0.0124665
933.974	0.0124505
934.052	0.0123624
934.130	0.0124704
934.208	0.0123573
934.286	0.0124449
934.364	0.0124418
934.443	0.0123753
934.521	0.0123522
934.599	0.0123730
934.677	0.0122169
934.755	0.0123389
934.833	0.0124437
934.911	0.0122147
934.989	0.0123296
935.068	0.0122911
935.146	0.0123724
935.224	0.0121652
935.302	0.0123215
935.380	0.0121751
935.458	0.0121638
935.536	0.0122839
935.614	0.0121781
935.693	0.0120832
935.771	0.0121506
935.849	0.0122105
935.927	0.0119076
936.005	0.0122005
936.083	0.0121658
936.161	0.0121545
936.239	0.0122952
936.318	0.0121005
936.396	0.0121868
936.474	0.0121516
936.552	0.0123209
936.630	0.0122794
936.708	0.0123444
936.786	0.0123633
936.864	0.0123309
936.943	0.0124415
937.021	0.0122855
937.099	0.0124165
937.177	0.0123119
937.255	0.0122961
937.333	0.0123508
937.411	0.0123443
937.489	0.0123620
937.568	0.0123131
937.646	0.0124277
937.724	0.0124130
937.802	0.0124406
937.880	0.0123820
937.958	0.0122432
938.036	0.0123141
938.114	0.0123932
938.193	0.0123525
938.271	0.0123189
938.349	0.0123273
938.427	0.0123917
938.505	0.0123976
938.583	0.0124200
938.661	0.0124966
938.739	0.0124185
938.818	0.0123897
938.896	0.0125674
938.974	0.0123459
939.052	0.0122840
939.130	0.0124649
939.208	0.0125307
939.286	0.0123743
939.364	0.0122672
939.443	0.0123877
939.521	0.0124761
939.599	0.0123028
939.677	0.0123238
939.755	0.0123779
939.833	0.0123309
939.911	0.0123420
939.989	0.0124421
940.068	0.0122545
940.146	0.0124147
940.224	0.0122730
940.302	0.0122334
940.380	0.0122134
940.458	0.0122693
940.536	0.0123113
940.614	0.0123549
940.693	0.0122437
940.771	0.0121888
940.849	0.0122275
940.927	0.0123679
941.005	0.0122887
941.083	0.0123650
941.161	0.0122171
941.239	0.0122040
941.318	0.0122172
941.396	0.0123841
941.474	0.0122733
941.552	0.0121864
941.630	0.0122570
941.708	0.0123653
941.786	0.0123929
941.864	0.0122710
941.943	0.0123412
942.021	0.0123892
942.099	0.0124326
942.177	0.0125344
942.255	0.0122963
942.333	0.0123753
942.411	0.0123846
942.489	0.0124726
942.568	0.0124996
942.646	0.0124010
942.724	0.0122752
942.802	0.0123266
942.880	0.0124815
942.958	0.0123980
943.036	0.0123190
943.114	0.0124563
943.193	0.0124265
943.271	0.0123362
943.349	0.0124834
943.427	0.0123690
943.505	0.0123494
943.583	0.0123110
943.661	0.0124109
943.739	0.0124023
943.818	0.0124523
943.896	0.0123065
943.974	0.0123463
944.052	0.0123587
944.130	0.0122701
944.208	0.0124260
944.286	0.0123338
944.364	0.0122212
944.443	0.0124601
944.521	0.0124723
944.599	0.0122546
944.677	0.0122799
944.755	0.0123861
944.833	0.0123676
944.911	0.0124443
944.989	0.0124251
945.068	0.0122775
945.146	0.0123251
945.224	0.0123900
945.302	0.0124429
945.380	0.0124892
945.458	0.0122980
945.536	0.0122509
945.614	0.0122810
945.693	0.0123167
945.771	0.0123223
945.849	0.0122152
945.927	0.0123528
946.005	0.0123186
946.083	0.0123059
946.161	0.0123553
946.239	0.0122400
946.318	0.0123132
946.396	0.0123685
946.474	0.0122459
946.552	0.0121683
946.630	0.0122746
946.708	0.0122827
946.786	0.0123418
946.864	0.0122321
946.943	0.0121101
947.021	0.0120728
947.099	0.0121956
947.177	0.0123179
947.255	0.0124195
947.333	0.0123077
947.411	0.0122015
947.489	0.0122927
947.568	0.0123058
947.646	0.0123704
947.724	0.0122961
947.802	0.0122890
947.880	0.0123391
947.958	0.0124561
948.036	0.0124603
948.114	0.0122855
948.193	0.0124458
948.271	0.0124446
948.349	0.0123708
948.427	0.0123037
948.505	0.0125196
948.583	0.0124718
948.661	0.0123234
948.739	0.0124001
948.818	0.0125877
948.896	0.0124796
948.974	0.0125668
949.052	0.0124181
949.130	0.0126656
949.208	0.0124914
949.286	0.0124963
949.364	0.0126133
949.443	0.0124280
949.521	0.0124886
949.599	0.0124523
949.677	0.0125083
949.755	0.0124129
949.833	0.0123714
949.911	0.0125925
949.989	0.0125211
950.068	0.0124230
950.146	0.0123614
950.224	0.0123537
950.302	0.0123334
950.380	0.0123595
950.458	0.0123586
950.536	0.0122892
950.614	0.0125102
950.693	0.0125136
950.771	0.0123013
950.849	0.0122955
950.927	0.0122327
951.005	0.0123626
951.083	0.0122868
951.161	0.0123814
951.239	0.0123183
951.318	0.0122966
951.396	0.0123119
951.474	0.0123409
951.552	0.0123185
951.630	0.0122565
951.708	0.0122737
951.786	0.0123336
951.864	0.0123494
951.943	0.0122546
952.021	0.0123550
952.099	0.0124477
952.177	0.0124134
952.255	0.0122369
952.333	0.0122372
952.411	0.0122410
952.489	0.0123285
952.568	0.0123291
952.646	0.0122918
952.724	0.0123750
952.802	0.0124040
952.880	0.0121720
952.958	0.0122651
953.036	0.0123444
953.114	0.0123507
953.193	0.0123668
953.271	0.0122436
953.349	0.0123270
953.427	0.0123943
953.505	0.0124181
953.583	0.0123209
953.661	0.0122909
953.739	0.0124838
953.818	0.0125332
953.896	0.0123969
953.974	0.0124078
954.052	0.0125654
954.130	0.0124864
954.208	0.0123087
954.286	0.0123546
954.364	0.0124654
954.443	0.0122684
954.521	0.0123752
954.599	0.0125613
954.677	0.0123154
954.755	0.0123920
954.833	0.0123364
954.911	0.0123148
954.989	0.0124683
955.068	0.0123093
955.146	0.0123927
955.224	0.0122884
955.302	0.0122910
955.380	0.0123292
955.458	0.0123414
955.536	0.0122849
955.614	0.0122983
955.693	0.0123979
955.771	0.0122716
955.849	0.0122717
955.927	0.0122990
956.005	0.0123652
956.083	0.0123368
956.161	0.0123364
956.239	0.0122858
956.318	0.0124535
956.396	0.0123682
956.474	0.0124078
956.552	0.0124197
956.630	0.0124091
956.708	0.0123087
956.786	0.0123735
956.864	0.0122635
956.943	0.0122408
957.021	0.0124936
957.099	0.0124574
957.177	0.0125402
957.255	0.0124356
957.333	0.0124786
957.411	0.0123976
957.489	0.0123444
957.568	0.0123872
957.646	0.0124403
957.724	0.0123485
957.802	0.0124919
957.880	0.0123988
957.958	0.0122473
958.036	0.0123518
958.114	0.0122663
958.193	0.0123091
958.271	0.0121777
958.349	0.0123002
958.427	0.0123510
958.505	0.0124368
958.583	0.0123763
958.661	0.0121103
958.739	0.0123181
958.818	0.0122500
958.896	0.0123610
958.974	0.0124187
959.052	0.0123949
959.130	0.0123344
959.208	0.0123421
959.286	0.0123843
959.364	0.0125011
959.443	0.0123208
959.521	0.0124488
959.599	0.0124955
959.677	0.0123701
959.755	0.0124663
959.833	0.0123843
959.911	0.0124576
