05/07/2022	17:01:41	Ver.	4.1	UNKNOWN
Optical Delay	639.989416	Delta X		0.078125	Sweeps	1	Scan Rate	0/0
Coordinates	Axis 1	NaN	Axis 2	NaN	Axis 3	NaN	Axis 4	NaN	Axis 5	NaN	Axis 6	0.000000
TX Power	0.000000	RX Power	0.000000

639.989	0.0124609
640.068	0.0125204
640.146	0.0125483
640.224	0.0125026
640.302	0.0124670
640.380	0.0124483
640.458	0.0125929
640.536	0.0124726
640.614	0.0125517
640.693	0.0124775
640.771	0.0124292
640.849	0.0123639
640.927	0.0125351
641.005	0.0126015
641.083	0.0125647
641.161	0.0125935
641.239	0.0124938
641.318	0.0125737
641.396	0.0124923
641.474	0.0123936
641.552	0.0124285
641.630	0.0125538
641.708	0.0125303
641.786	0.0124461
641.864	0.0125323
641.943	0.0125632
642.021	0.0125500
642.099	0.0124903
642.177	0.0124895
642.255	0.0125792
642.333	0.0124419
642.411	0.0124387
642.489	0.0125716
642.568	0.0126238
642.646	0.0125179
642.724	0.0123431
642.802	0.0125606
642.880	0.0124004
642.958	0.0123731
643.036	0.0125976
643.114	0.0125942
643.193	0.0123634
643.271	0.0123802
643.349	0.0124636
643.427	0.0124298
643.505	0.0125163
643.583	0.0124756
643.661	0.0124543
643.739	0.0125959
643.818	0.0125660
643.896	0.0124515
643.974	0.0125226
644.052	0.0124557
644.130	0.0124421
644.208	0.0124650
644.286	0.0124336
644.364	0.0124575
644.443	0.0124992
644.521	0.0125950
644.599	0.0123650
644.677	0.0123530
644.755	0.0125061
644.833	0.0125194
644.911	0.0125336
644.989	0.0125525
645.068	0.0124973
645.146	0.0124951
645.224	0.0125053
645.302	0.0124669
645.380	0.0125193
645.458	0.0125874
645.536	0.0124747
645.614	0.0124191
645.693	0.0124751
645.771	0.0125594
645.849	0.0124314
645.927	0.0124228
646.005	0.0125706
646.083	0.0126158
646.161	0.0123963
646.239	0.0123724
646.318	0.0125223
646.396	0.0124873
646.474	0.0124776
646.552	0.0124770
646.630	0.0124616
646.708	0.0123474
646.786	0.0123742
646.864	0.0125673
646.943	0.0124413
647.021	0.0124385
647.099	0.0124966
647.177	0.0124609
647.255	0.0124409
647.333	0.0124390
647.411	0.0123526
647.489	0.0125471
647.568	0.0124806
647.646	0.0124690
647.724	0.0123574
647.802	0.0125201
647.880	0.0124551
647.958	0.0124764
648.036	0.0125241
648.114	0.0124424
648.193	0.0125375
648.271	0.0124235
648.349	0.0124590
648.427	0.0123698
648.505	0.0124084
648.583	0.0124383
648.661	0.0125148
648.739	0.0124677
648.818	0.0125072
648.896	0.0124735
648.974	0.0125047
649.052	0.0125485
649.130	0.0125895
649.208	0.0122951
649.286	0.0124730
649.364	0.0124174
649.443	0.0124409
649.521	0.0124825
649.599	0.0124799
649.677	0.0125431
649.755	0.0124153
649.833	0.0125352
649.911	0.0124764
649.989	0.0124162
650.068	0.0125641
650.146	0.0126180
650.224	0.0125138
650.302	0.0124896
650.380	0.0124384
650.458	0.0125273
650.536	0.0125071
650.614	0.0125602
650.693	0.0125592
650.771	0.0126226
650.849	0.0123920
650.927	0.0125949
651.005	0.0126679
651.083	0.0123891
651.161	0.0123610
651.239	0.0124132
651.318	0.0123961
651.396	0.0125204
651.474	0.0125458
651.552	0.0125986
651.630	0.0124905
651.708	0.0127126
651.786	0.0126229
651.864	0.0124258
651.943	0.0125553
652.021	0.0125793
652.099	0.0125152
652.177	0.0125040
652.255	0.0123650
652.333	0.0124860
652.411	0.0124867
652.489	0.0124226
652.568	0.0124551
652.646	0.0125195
652.724	0.0124095
652.802	0.0125575
652.880	0.0125988
652.958	0.0125076
653.036	0.0124702
653.114	0.0125632
653.193	0.0125774
653.271	0.0124075
653.349	0.0124847
653.427	0.0124743
653.505	0.0124606
653.583	0.0124905
653.661	0.0124263
653.739	0.0124171
653.818	0.0125881
653.896	0.0125056
653.974	0.0124447
654.052	0.0124104
654.130	0.0125528
654.208	0.0125142
654.286	0.0125149
654.364	0.0125403
654.443	0.0125574
654.521	0.0124493
654.599	0.0125580
654.677	0.0125775
654.755	0.0125164
654.833	0.0124281
654.911	0.0124418
654.989	0.0125195
655.068	0.0124013
655.146	0.0125105
655.224	0.0124696
655.302	0.0126284
655.380	0.0124876
655.458	0.0125160
655.536	0.0125336
655.614	0.0125784
655.693	0.0125713
655.771	0.0123665
655.849	0.0124747
655.927	0.0124120
656.005	0.0124906
656.083	0.0124722
656.161	0.0124821
656.239	0.0124738
656.318	0.0124979
656.396	0.0124035
656.474	0.0125587
656.552	0.0125581
656.630	0.0124556
656.708	0.0124751
656.786	0.0126724
656.864	0.0124509
656.943	0.0124645
657.021	0.0125873
657.099	0.0124458
657.177	0.0124609
657.255	0.0125422
657.333	0.0124990
657.411	0.0125695
657.489	0.0124772
657.568	0.0125275
657.646	0.0125741
657.724	0.0124626
657.802	0.0126343
657.880	0.0125534
657.958	0.0125412
658.036	0.0124935
658.114	0.0124004
658.193	0.0125621
658.271	0.0124779
658.349	0.0125065
658.427	0.0126268
658.505	0.0125327
658.583	0.0126307
658.661	0.0125004
658.739	0.0124522
658.818	0.0125405
658.896	0.0125346
658.974	0.0124628
659.052	0.0124406
659.130	0.0124680
659.208	0.0123972
659.286	0.0125994
659.364	0.0125986
659.443	0.0124890
659.521	0.0123820
659.599	0.0125294
659.677	0.0125826
659.755	0.0124654
659.833	0.0123991
659.911	0.0123950
659.989	0.0125171
660.068	0.0123604
660.146	0.0124805
660.224	0.0125735
660.302	0.0124808
660.380	0.0124321
660.458	0.0125278
660.536	0.0126414
660.614	0.0125962
660.693	0.0125040
660.771	0.0124857
660.849	0.0123943
660.927	0.0124853
661.005	0.0125647
661.083	0.0126001
661.161	0.0125514
661.239	0.0125243
661.318	0.0124688
661.396	0.0123930
661.474	0.0124889
661.552	0.0126347
661.630	0.0125261
661.708	0.0124603
661.786	0.0124474
661.864	0.0125465
661.943	0.0125471
662.021	0.0125456
662.099	0.0124884
662.177	0.0124828
662.255	0.0124627
662.333	0.0124154
662.411	0.0125168
662.489	0.0125427
662.568	0.0124635
662.646	0.0125751
662.724	0.0123662
662.802	0.0124176
662.880	0.0126373
662.958	0.0125417
663.036	0.0123826
663.114	0.0124807
663.193	0.0125817
663.271	0.0125246
663.349	0.0124600
663.427	0.0125058
663.505	0.0123796
663.583	0.0124195
663.661	0.0125150
663.739	0.0125309
663.818	0.0125169
663.896	0.0124561
663.974	0.0123895
664.052	0.0124084
664.130	0.0125226
664.208	0.0125758
664.286	0.0125643
664.364	0.0125060
664.443	0.0124899
664.521	0.0126160
664.599	0.0124657
664.677	0.0124528
664.755	0.0124765
664.833	0.0125014
664.911	0.0124716
664.989	0.0124185
665.068	0.0123705
665.146	0.0124339
665.224	0.0124683
665.302	0.0124915
665.380	0.0125075
665.458	0.0124531
665.536	0.0125432
665.614	0.0125488
665.693	0.0124967
665.771	0.0125201
665.849	0.0125389
665.927	0.0124799
666.005	0.0126121
666.083	0.0124226
666.161	0.0124571
666.239	0.0124876
666.318	0.0124873
666.396	0.0122963
666.474	0.0124673
666.552	0.0124745
666.630	0.0125449
666.708	0.0125945
666.786	0.0124119
666.864	0.0124533
666.943	0.0124276
667.021	0.0126677
667.099	0.0124748
667.177	0.0123453
667.255	0.0125257
667.333	0.0124302
667.411	0.0124973
667.489	0.0125328
667.568	0.0124908
667.646	0.0125208
667.724	0.0124570
667.802	0.0125523
667.880	0.0125522
667.958	0.0125120
668.036	0.0123755
668.114	0.0123296
668.193	0.0123058
668.271	0.0123245
668.349	0.0124795
668.427	0.0125276
668.505	0.0124339
668.583	0.0123602
668.661	0.0123952
668.739	0.0123905
668.818	0.0122507
668.896	0.0125680
668.974	0.0124644
669.052	0.0124574
669.130	0.0123895
669.208	0.0125465
669.286	0.0124557
669.364	0.0124970
669.443	0.0124503
669.521	0.0123726
669.599	0.0124026
669.677	0.0122955
669.755	0.0123902
669.833	0.0123820
669.911	0.0124075
669.989	0.0124457
670.068	0.0124648
670.146	0.0123882
670.224	0.0125313
670.302	0.0124543
670.380	0.0123901
670.458	0.0125190
670.536	0.0123960
670.614	0.0124013
670.693	0.0124414
670.771	0.0125061
670.849	0.0124895
670.927	0.0124315
671.005	0.0125108
671.083	0.0124641
671.161	0.0123930
671.239	0.0123909
671.318	0.0124188
671.396	0.0123989
671.474	0.0125562
671.552	0.0124812
671.630	0.0124315
671.708	0.0125101
671.786	0.0124554
671.864	0.0124519
671.943	0.0123902
672.021	0.0124682
672.099	0.0125173
672.177	0.0124959
672.255	0.0123779
672.333	0.0122767
672.411	0.0124357
672.489	0.0124454
672.568	0.0123788
672.646	0.0124756
672.724	0.0124664
672.802	0.0124175
672.880	0.0124862
672.958	0.0124663
673.036	0.0123657
673.114	0.0123037
673.193	0.0124809
673.271	0.0123412
673.349	0.0122070
673.427	0.0124075
673.505	0.0123785
673.583	0.0122514
673.661	0.0123700
673.739	0.0122932
673.818	0.0124396
673.896	0.0123181
673.974	0.0123788
674.052	0.0125014
674.130	0.0123540
674.208	0.0123557
674.286	0.0123866
674.364	0.0123877
674.443	0.0124829
674.521	0.0123937
674.599	0.0124170
674.677	0.0125076
674.755	0.0124750
674.833	0.0124981
674.911	0.0125420
674.989	0.0124537
675.068	0.0125298
675.146	0.0125136
675.224	0.0123991
675.302	0.0124797
675.380	0.0125756
675.458	0.0124597
675.536	0.0124876
675.614	0.0125373
675.693	0.0125345
675.771	0.0125238
675.849	0.0126108
675.927	0.0124378
676.005	0.0124464
676.083	0.0123558
676.161	0.0124881
676.239	0.0124200
676.318	0.0124869
676.396	0.0124613
676.474	0.0126010
676.552	0.0123804
676.630	0.0125726
676.708	0.0124469
676.786	0.0125504
676.864	0.0125819
676.943	0.0124518
677.021	0.0123725
677.099	0.0124740
677.177	0.0125434
677.255	0.0125287
677.333	0.0125985
677.411	0.0126163
677.489	0.0124482
677.568	0.0125159
677.646	0.0126978
677.724	0.0126350
677.802	0.0125222
677.880	0.0125596
677.958	0.0125183
678.036	0.0124795
678.114	0.0125253
678.193	0.0124648
678.271	0.0125613
678.349	0.0126317
678.427	0.0125420
678.505	0.0124165
678.583	0.0125820
678.661	0.0125114
678.739	0.0124265
678.818	0.0126749
678.896	0.0126015
678.974	0.0125459
679.052	0.0125870
679.130	0.0127412
679.208	0.0125921
679.286	0.0124900
679.364	0.0125501
679.443	0.0126505
679.521	0.0125613
679.599	0.0125109
679.677	0.0126882
679.755	0.0125858
679.833	0.0126345
679.911	0.0125776
679.989	0.0126140
680.068	0.0125482
680.146	0.0124854
680.224	0.0125750
680.302	0.0126118
680.380	0.0126353
680.458	0.0126624
680.536	0.0125835
680.614	0.0125726
680.693	0.0125329
680.771	0.0125070
680.849	0.0125459
680.927	0.0126487
681.005	0.0124901
681.083	0.0126865
681.161	0.0126363
681.239	0.0125499
681.318	0.0127089
681.396	0.0127096
681.474	0.0125631
681.552	0.0126270
681.630	0.0126270
681.708	0.0127287
681.786	0.0125803
681.864	0.0126041
681.943	0.0125630
682.021	0.0125215
682.099	0.0124990
682.177	0.0125135
682.255	0.0124753
682.333	0.0128077
682.411	0.0127269
682.489	0.0125940
682.568	0.0125115
682.646	0.0125166
682.724	0.0126954
682.802	0.0126315
682.880	0.0125229
682.958	0.0125581
683.036	0.0124857
683.114	0.0127091
683.193	0.0126488
683.271	0.0124827
683.349	0.0124596
683.427	0.0126189
683.505	0.0125454
683.583	0.0125510
683.661	0.0124386
683.739	0.0126328
683.818	0.0126653
683.896	0.0125792
683.974	0.0126299
684.052	0.0125680
684.130	0.0124539
684.208	0.0125356
684.286	0.0124978
684.364	0.0126003
684.443	0.0125211
684.521	0.0124963
684.599	0.0126176
684.677	0.0124944
684.755	0.0125205
684.833	0.0125741
684.911	0.0125728
684.989	0.0125243
685.068	0.0123411
685.146	0.0123882
685.224	0.0124224
685.302	0.0125498
685.380	0.0124690
685.458	0.0124740
685.536	0.0124617
685.614	0.0125796
685.693	0.0124622
685.771	0.0124364
685.849	0.0125155
685.927	0.0124140
686.005	0.0124464
686.083	0.0125079
686.161	0.0124798
686.239	0.0124509
686.318	0.0125008
686.396	0.0126099
686.474	0.0124883
686.552	0.0125224
686.630	0.0124234
686.708	0.0124674
686.786	0.0124648
686.864	0.0124126
686.943	0.0122782
687.021	0.0123348
687.099	0.0122575
687.177	0.0123867
687.255	0.0123620
687.333	0.0123632
687.411	0.0124304
687.489	0.0125597
687.568	0.0125858
687.646	0.0127283
687.724	0.0127068
687.802	0.0128024
687.880	0.0128795
687.958	0.0127538
688.036	0.0129182
688.114	0.0127692
688.193	0.0125466
688.271	0.0124000
688.349	0.0123616
688.427	0.0122833
688.505	0.0121850
688.583	0.0121397
688.661	0.0118166
688.739	0.0119907
688.818	0.0121701
688.896	0.0121207
688.974	0.0120593
689.052	0.0124343
689.130	0.0125700
689.208	0.0125934
689.286	0.0127930
689.364	0.0128024
689.443	0.0128638
689.521	0.0129617
689.599	0.0129984
689.677	0.0129445
689.755	0.0128372
689.833	0.0126730
689.911	0.0126865
689.989	0.0126277
690.068	0.0124254
690.146	0.0123096
690.224	0.0121136
690.302	0.0120282
690.380	0.0119356
690.458	0.0121140
690.536	0.0120658
690.614	0.0120512
690.693	0.0119233
690.771	0.0121509
690.849	0.0119734
690.927	0.0122852
691.005	0.0121616
691.083	0.0124660
691.161	0.0123486
691.239	0.0124786
691.318	0.0126814
691.396	0.0126378
691.474	0.0126358
691.552	0.0125950
691.630	0.0125356
691.708	0.0126602
691.786	0.0128242
691.864	0.0127455
691.943	0.0126409
692.021	0.0127044
692.099	0.0126740
692.177	0.0126875
692.255	0.0126354
692.333	0.0126550
692.411	0.0126984
692.489	0.0128209
692.568	0.0127133
692.646	0.0126340
692.724	0.0126387
692.802	0.0125205
692.880	0.0124483
692.958	0.0123619
693.036	0.0122268
693.114	0.0123432
693.193	0.0123647
693.271	0.0123242
693.349	0.0121204
693.427	0.0123079
693.505	0.0120370
693.583	0.0119791
693.661	0.0120422
693.739	0.0119955
693.818	0.0120561
693.896	0.0120738
693.974	0.0121294
694.052	0.0121897
694.130	0.0122691
694.208	0.0123168
694.286	0.0124175
694.364	0.0125745
694.443	0.0126139
694.521	0.0127541
694.599	0.0127991
694.677	0.0128885
694.755	0.0128198
694.833	0.0127760
694.911	0.0128077
694.989	0.0128485
695.068	0.0127235
695.146	0.0128342
695.224	0.0126205
695.302	0.0126326
695.380	0.0126608
695.458	0.0124031
695.536	0.0126317
695.614	0.0123616
695.693	0.0122499
695.771	0.0121234
695.849	0.0122134
695.927	0.0122539
696.005	0.0121051
696.083	0.0123974
696.161	0.0122144
696.239	0.0123222
696.318	0.0124044
696.396	0.0123977
696.474	0.0125385
696.552	0.0125237
696.630	0.0123594
696.708	0.0124587
696.786	0.0125508
696.864	0.0125040
696.943	0.0123533
697.021	0.0123512
697.099	0.0125504
697.177	0.0123975
697.255	0.0123627
697.333	0.0124631
697.411	0.0124178
697.489	0.0123547
697.568	0.0122118
697.646	0.0124078
697.724	0.0122717
697.802	0.0124289
697.880	0.0123365
697.958	0.0124918
698.036	0.0124960
698.114	0.0124031
698.193	0.0123464
698.271	0.0125433
698.349	0.0124024
698.427	0.0123866
698.505	0.0125708
698.583	0.0125972
698.661	0.0125032
698.739	0.0125631
698.818	0.0125990
698.896	0.0125534
698.974	0.0126775
699.052	0.0126202
699.130	0.0124968
699.208	0.0123942
699.286	0.0125840
699.364	0.0124042
699.443	0.0125817
699.521	0.0126135
699.599	0.0125639
699.677	0.0125312
699.755	0.0125053
699.833	0.0126126
699.911	0.0126918
699.989	0.0127453
700.068	0.0127125
700.146	0.0125572
700.224	0.0124763
700.302	0.0125999
700.380	0.0126418
700.458	0.0125085
700.536	0.0124599
700.614	0.0123885
700.693	0.0123672
700.771	0.0122056
700.849	0.0123185
700.927	0.0121304
701.005	0.0120027
701.083	0.0121948
701.161	0.0120358
701.239	0.0119791
701.318	0.0118340
701.396	0.0118822
701.474	0.0121155
701.552	0.0120583
701.630	0.0120311
701.708	0.0119862
701.786	0.0120688
701.864	0.0120573
701.943	0.0119936
702.021	0.0121266
702.099	0.0121349
702.177	0.0122302
702.255	0.0125873
702.333	0.0126378
702.411	0.0126192
702.489	0.0126569
702.568	0.0128500
702.646	0.0129974
702.724	0.0128900
702.802	0.0129427
702.880	0.0131757
702.958	0.0131311
703.036	0.0129845
703.114	0.0131647
703.193	0.0131172
703.271	0.0130869
703.349	0.0128761
703.427	0.0128085
703.505	0.0126794
703.583	0.0126679
703.661	0.0128101
703.739	0.0125851
703.818	0.0124810
703.896	0.0123510
703.974	0.0123396
704.052	0.0123095
704.130	0.0124670
704.208	0.0123199
704.286	0.0121288
704.364	0.0120876
704.443	0.0121873
704.521	0.0121290
704.599	0.0120463
704.677	0.0120824
704.755	0.0121341
704.833	0.0122300
704.911	0.0121412
704.989	0.0121629
705.068	0.0120605
705.146	0.0121309
705.224	0.0121737
705.302	0.0123241
705.380	0.0123607
705.458	0.0124945
705.536	0.0125991
705.614	0.0124373
705.693	0.0124918
705.771	0.0126041
705.849	0.0126604
705.927	0.0125940
706.005	0.0126056
706.083	0.0127900
706.161	0.0126726
706.239	0.0127627
706.318	0.0128016
706.396	0.0127282
706.474	0.0128584
706.552	0.0128689
706.630	0.0129862
706.708	0.0128597
706.786	0.0128876
706.864	0.0129538
706.943	0.0130048
707.021	0.0129427
707.099	0.0129240
707.177	0.0128572
707.255	0.0128619
707.333	0.0127932
707.411	0.0129131
707.489	0.0127747
707.568	0.0126931
707.646	0.0126770
707.724	0.0125855
707.802	0.0125442
707.880	0.0125384
707.958	0.0125133
708.036	0.0125539
708.114	0.0125092
708.193	0.0124709
708.271	0.0125653
708.349	0.0127283
708.427	0.0125108
708.505	0.0123961
708.583	0.0124043
708.661	0.0122595
708.739	0.0123245
708.818	0.0122981
708.896	0.0122680
708.974	0.0122360
709.052	0.0121033
709.130	0.0121055
709.208	0.0121638
709.286	0.0121355
709.364	0.0123226
709.443	0.0123083
709.521	0.0122898
709.599	0.0122458
709.677	0.0124023
709.755	0.0123672
709.833	0.0125001
709.911	0.0123939
709.989	0.0123078
710.068	0.0124852
710.146	0.0124635
710.224	0.0126932
710.302	0.0126580
710.380	0.0128403
710.458	0.0125331
710.536	0.0126938
710.614	0.0127053
710.693	0.0127630
710.771	0.0127264
710.849	0.0128214
710.927	0.0128404
711.005	0.0129022
711.083	0.0128445
711.161	0.0127188
711.239	0.0127247
711.318	0.0126366
711.396	0.0126620
711.474	0.0127524
711.552	0.0126370
711.630	0.0127577
711.708	0.0127487
711.786	0.0126893
711.864	0.0126943
711.943	0.0126018
712.021	0.0126625
712.099	0.0127193
712.177	0.0126242
712.255	0.0126100
712.333	0.0125779
712.411	0.0124064
712.489	0.0123476
712.568	0.0124428
712.646	0.0124088
712.724	0.0125883
712.802	0.0124304
712.880	0.0124174
712.958	0.0124142
713.036	0.0125735
713.114	0.0125507
713.193	0.0124451
713.271	0.0125035
713.349	0.0124097
713.427	0.0123320
713.505	0.0124431
713.583	0.0125853
713.661	0.0123675
713.739	0.0123581
713.818	0.0121294
713.896	0.0122509
713.974	0.0123247
714.052	0.0120988
714.130	0.0122933
714.208	0.0123774
714.286	0.0121683
714.364	0.0122026
714.443	0.0122046
714.521	0.0121364
714.599	0.0121952
714.677	0.0121707
714.755	0.0122957
714.833	0.0122166
714.911	0.0122956
714.989	0.0122491
715.068	0.0122833
715.146	0.0122630
715.224	0.0124490
715.302	0.0124288
715.380	0.0124951
715.458	0.0124599
715.536	0.0124334
715.614	0.0124841
715.693	0.0125423
715.771	0.0125441
715.849	0.0126008
715.927	0.0125552
716.005	0.0127306
716.083	0.0126131
716.161	0.0128322
716.239	0.0128204
716.318	0.0128059
716.396	0.0125577
716.474	0.0127025
716.552	0.0128633
716.630	0.0127724
716.708	0.0128279
716.786	0.0127272
716.864	0.0126443
716.943	0.0126690
717.021	0.0125936
717.099	0.0129450
717.177	0.0127694
717.255	0.0126201
717.333	0.0126835
717.411	0.0126923
717.489	0.0126619
717.568	0.0125201
717.646	0.0126862
717.724	0.0124595
717.802	0.0125509
717.880	0.0126801
717.958	0.0124489
718.036	0.0123229
718.114	0.0123399
718.193	0.0123926
718.271	0.0124055
718.349	0.0124252
718.427	0.0123940
718.505	0.0123057
718.583	0.0123434
718.661	0.0124332
718.739	0.0124222
718.818	0.0124211
718.896	0.0122580
718.974	0.0122695
719.052	0.0122160
719.130	0.0123115
719.208	0.0123549
719.286	0.0122332
719.364	0.0122747
719.443	0.0123404
719.521	0.0122747
719.599	0.0122481
719.677	0.0123137
719.755	0.0123396
719.833	0.0122683
719.911	0.0122680
719.989	0.0122180
720.068	0.0124738
720.146	0.0125642
720.224	0.0124571
720.302	0.0125916
720.380	0.0125790
720.458	0.0127660
720.536	0.0128313
720.614	0.0127956
720.693	0.0128783
720.771	0.0129459
720.849	0.0129146
720.927	0.0130214
721.005	0.0129452
721.083	0.0128318
721.161	0.0128336
721.239	0.0128571
721.318	0.0129441
721.396	0.0127139
721.474	0.0126215
721.552	0.0125204
721.630	0.0124858
721.708	0.0123021
721.786	0.0123595
721.864	0.0122980
721.943	0.0119572
722.021	0.0121254
722.099	0.0120234
722.177	0.0120206
722.255	0.0119897
722.333	0.0120045
722.411	0.0120027
722.489	0.0119502
722.568	0.0119774
722.646	0.0121153
722.724	0.0121597
722.802	0.0121595
722.880	0.0123309
722.958	0.0123048
723.036	0.0124340
723.114	0.0125818
723.193	0.0126164
723.271	0.0126621
723.349	0.0126463
723.427	0.0128235
723.505	0.0129316
723.583	0.0127277
723.661	0.0127561
723.739	0.0127117
723.818	0.0127132
723.896	0.0126351
723.974	0.0125543
724.052	0.0124979
724.130	0.0125224
724.208	0.0123532
724.286	0.0123315
724.364	0.0122684
724.443	0.0121038
724.521	0.0120778
724.599	0.0120770
724.677	0.0120396
724.755	0.0120841
724.833	0.0120684
724.911	0.0119521
724.989	0.0119229
725.068	0.0119763
725.146	0.0120805
725.224	0.0121046
725.302	0.0120483
725.380	0.0121526
725.458	0.0122556
725.536	0.0122231
725.614	0.0123219
725.693	0.0126456
725.771	0.0124752
725.849	0.0125220
725.927	0.0125857
726.005	0.0125741
726.083	0.0126392
726.161	0.0128372
726.239	0.0127634
726.318	0.0126736
726.396	0.0127313
726.474	0.0127178
726.552	0.0127527
726.630	0.0126138
726.708	0.0127026
726.786	0.0125844
726.864	0.0123721
726.943	0.0125262
727.021	0.0124184
727.099	0.0124276
727.177	0.0124290
727.255	0.0122361
727.333	0.0123878
727.411	0.0124272
727.489	0.0123386
727.568	0.0123648
727.646	0.0123282
727.724	0.0123397
727.802	0.0122828
727.880	0.0122192
727.958	0.0124576
728.036	0.0124682
728.114	0.0125307
728.193	0.0125139
728.271	0.0124951
728.349	0.0125291
728.427	0.0125872
728.505	0.0125833
728.583	0.0126034
728.661	0.0126474
728.739	0.0126553
728.818	0.0125500
728.896	0.0127001
728.974	0.0125936
729.052	0.0125100
729.130	0.0125754
729.208	0.0125714
729.286	0.0124220
729.364	0.0124230
729.443	0.0123167
729.521	0.0123262
729.599	0.0122849
729.677	0.0122814
729.755	0.0121810
729.833	0.0121687
729.911	0.0121998
729.989	0.0121620
730.068	0.0121867
730.146	0.0122423
730.224	0.0121602
730.302	0.0122970
730.380	0.0121969
730.458	0.0123022
730.536	0.0123790
730.614	0.0124172
730.693	0.0124194
730.771	0.0124752
730.849	0.0125541
730.927	0.0125798
731.005	0.0125706
731.083	0.0126363
731.161	0.0126689
731.239	0.0126989
731.318	0.0128828
731.396	0.0128783
731.474	0.0128400
731.552	0.0129139
731.630	0.0129427
731.708	0.0128325
731.786	0.0128036
731.864	0.0130208
731.943	0.0127985
732.021	0.0126876
732.099	0.0127432
732.177	0.0126424
732.255	0.0125150
732.333	0.0123337
732.411	0.0124142
732.489	0.0122954
732.568	0.0121967
732.646	0.0121902
732.724	0.0122472
732.802	0.0121672
732.880	0.0121615
732.958	0.0120980
733.036	0.0121507
733.114	0.0121689
733.193	0.0121012
733.271	0.0121864
733.349	0.0122247
733.427	0.0122964
733.505	0.0122630
733.583	0.0124086
733.661	0.0123726
733.739	0.0123342
733.818	0.0126149
733.896	0.0125094
733.974	0.0125491
734.052	0.0126544
734.130	0.0127431
734.208	0.0128823
734.286	0.0127796
734.364	0.0127261
734.443	0.0128004
734.521	0.0128290
734.599	0.0127980
734.677	0.0128107
734.755	0.0128360
734.833	0.0126978
734.911	0.0126274
734.989	0.0127122
735.068	0.0126065
735.146	0.0125746
735.224	0.0125605
735.302	0.0125394
735.380	0.0124449
735.458	0.0124097
735.536	0.0122388
735.614	0.0122882
735.693	0.0123172
735.771	0.0122323
735.849	0.0123148
735.927	0.0123210
736.005	0.0122191
736.083	0.0123746
736.161	0.0122604
736.239	0.0122028
736.318	0.0123544
736.396	0.0123000
736.474	0.0123937
736.552	0.0123775
736.630	0.0122335
736.708	0.0124011
736.786	0.0124750
736.864	0.0124409
736.943	0.0125258
737.021	0.0126048
737.099	0.0126000
737.177	0.0126613
737.255	0.0126942
737.333	0.0125993
737.411	0.0128208
737.489	0.0127703
737.568	0.0126594
737.646	0.0127449
737.724	0.0125385
737.802	0.0125737
737.880	0.0126762
737.958	0.0125665
738.036	0.0125562
738.114	0.0125754
738.193	0.0126179
738.271	0.0127017
738.349	0.0125229
738.427	0.0124459
738.505	0.0123993
738.583	0.0124788
738.661	0.0123390
738.739	0.0124355
738.818	0.0124408
738.896	0.0124542
738.974	0.0123425
739.052	0.0123595
739.130	0.0124553
739.208	0.0123311
739.286	0.0123676
739.364	0.0124360
739.443	0.0123073
739.521	0.0122590
739.599	0.0123836
739.677	0.0123628
739.755	0.0123835
739.833	0.0122298
739.911	0.0123198
739.989	0.0125668
740.068	0.0123593
740.146	0.0125184
740.224	0.0125303
740.302	0.0125072
740.380	0.0125495
740.458	0.0125925
740.536	0.0125362
740.614	0.0126167
740.693	0.0124837
740.771	0.0126138
740.849	0.0125033
740.927	0.0124908
741.005	0.0124997
741.083	0.0125269
741.161	0.0124402
741.239	0.0123213
741.318	0.0122949
741.396	0.0123042
741.474	0.0124243
741.552	0.0123039
741.630	0.0123228
741.708	0.0122754
741.786	0.0124167
741.864	0.0122921
741.943	0.0124368
742.021	0.0125039
742.099	0.0123978
742.177	0.0123649
742.255	0.0125347
742.333	0.0126624
742.411	0.0124358
742.489	0.0125858
742.568	0.0124848
742.646	0.0125957
742.724	0.0126438
742.802	0.0127500
742.880	0.0126015
742.958	0.0126257
743.036	0.0125089
743.114	0.0126874
743.193	0.0125539
743.271	0.0126481
743.349	0.0126532
743.427	0.0126060
743.505	0.0126523
743.583	0.0125335
743.661	0.0125232
743.739	0.0125084
743.818	0.0125175
743.896	0.0123971
743.974	0.0124240
744.052	0.0123641
744.130	0.0123294
744.208	0.0123775
744.286	0.0124865
744.364	0.0122601
744.443	0.0123962
744.521	0.0125135
744.599	0.0124017
744.677	0.0124157
744.755	0.0124789
744.833	0.0124850
744.911	0.0125789
744.989	0.0124897
745.068	0.0125698
745.146	0.0125865
745.224	0.0124260
745.302	0.0125845
745.380	0.0126347
745.458	0.0124749
745.536	0.0125840
745.614	0.0125014
745.693	0.0125969
745.771	0.0126184
745.849	0.0125996
745.927	0.0125830
746.005	0.0125011
746.083	0.0125096
746.161	0.0125589
746.239	0.0125983
746.318	0.0127431
746.396	0.0126526
746.474	0.0125672
746.552	0.0127269
746.630	0.0126915
746.708	0.0126440
746.786	0.0126404
746.864	0.0126611
746.943	0.0124545
747.021	0.0125802
747.099	0.0125588
747.177	0.0126128
747.255	0.0125841
747.333	0.0123962
747.411	0.0123625
747.489	0.0124742
747.568	0.0124051
747.646	0.0123540
747.724	0.0124745
747.802	0.0123427
747.880	0.0122610
747.958	0.0123906
748.036	0.0123283
748.114	0.0124364
748.193	0.0121675
748.271	0.0121578
748.349	0.0122466
748.427	0.0123134
748.505	0.0124696
748.583	0.0123717
748.661	0.0121726
748.739	0.0122907
748.818	0.0124821
748.896	0.0122600
748.974	0.0124200
749.052	0.0124689
749.130	0.0123882
749.208	0.0126669
749.286	0.0126385
749.364	0.0124593
749.443	0.0126511
749.521	0.0125821
749.599	0.0125957
749.677	0.0126436
749.755	0.0127222
749.833	0.0126416
749.911	0.0126818
749.989	0.0126277
750.068	0.0127044
750.146	0.0127274
750.224	0.0126087
750.302	0.0126620
750.380	0.0124493
750.458	0.0125650
750.536	0.0124238
750.614	0.0123437
750.693	0.0124690
750.771	0.0123425
750.849	0.0124658
750.927	0.0123574
751.005	0.0124429
751.083	0.0123597
751.161	0.0123219
751.239	0.0123831
751.318	0.0124498
751.396	0.0124693
751.474	0.0124790
751.552	0.0123474
751.630	0.0124361
751.708	0.0123473
751.786	0.0124561
751.864	0.0124782
751.943	0.0124757
752.021	0.0125683
752.099	0.0124908
752.177	0.0123856
752.255	0.0123953
752.333	0.0124017
752.411	0.0126791
752.489	0.0125280
752.568	0.0124744
752.646	0.0125806
752.724	0.0124470
752.802	0.0126746
752.880	0.0125078
752.958	0.0123399
753.036	0.0123921
753.114	0.0124286
753.193	0.0123119
753.271	0.0125012
753.349	0.0124834
753.427	0.0123811
753.505	0.0124498
753.583	0.0124669
753.661	0.0123447
753.739	0.0122522
753.818	0.0124401
753.896	0.0124200
753.974	0.0123801
754.052	0.0123517
754.130	0.0124601
754.208	0.0122025
754.286	0.0122401
754.364	0.0123196
754.443	0.0122594
754.521	0.0124839
754.599	0.0123754
754.677	0.0123175
754.755	0.0122118
754.833	0.0123743
754.911	0.0122906
754.989	0.0124256
755.068	0.0123148
755.146	0.0124448
755.224	0.0125687
755.302	0.0125842
755.380	0.0125030
755.458	0.0124927
755.536	0.0126469
755.614	0.0126330
755.693	0.0126633
755.771	0.0126633
755.849	0.0126891
755.927	0.0126813
756.005	0.0127740
756.083	0.0126131
756.161	0.0127843
756.239	0.0126122
756.318	0.0125074
756.396	0.0125469
756.474	0.0125592
756.552	0.0124853
756.630	0.0125517
756.708	0.0125063
756.786	0.0123749
756.864	0.0122540
756.943	0.0122964
757.021	0.0124146
757.099	0.0121684
757.177	0.0122260
757.255	0.0122798
757.333	0.0122590
757.411	0.0122209
757.489	0.0123352
757.568	0.0123233
757.646	0.0124512
757.724	0.0123164
757.802	0.0124067
757.880	0.0124673
757.958	0.0124698
758.036	0.0124915
758.114	0.0126430
758.193	0.0126461
758.271	0.0126887
758.349	0.0125479
758.427	0.0125509
758.505	0.0128210
758.583	0.0127185
758.661	0.0127103
758.739	0.0127511
758.818	0.0127741
758.896	0.0127520
758.974	0.0128303
759.052	0.0126089
759.130	0.0126147
759.208	0.0126014
759.286	0.0125355
759.364	0.0126074
759.443	0.0124136
759.521	0.0124181
759.599	0.0122701
759.677	0.0123596
759.755	0.0123426
759.833	0.0122038
759.911	0.0120186
759.989	0.0121960
760.068	0.0122012
760.146	0.0121440
760.224	0.0122341
760.302	0.0120975
760.380	0.0120951
760.458	0.0122438
760.536	0.0120461
760.614	0.0121194
760.693	0.0122347
760.771	0.0122710
760.849	0.0123635
760.927	0.0123763
761.005	0.0124687
761.083	0.0123964
761.161	0.0124205
761.239	0.0123720
761.318	0.0124246
761.396	0.0124951
761.474	0.0126381
761.552	0.0125913
761.630	0.0126808
761.708	0.0125438
761.786	0.0126689
761.864	0.0125980
761.943	0.0125517
762.021	0.0125121
762.099	0.0125571
762.177	0.0123824
762.255	0.0123737
762.333	0.0124777
762.411	0.0125195
762.489	0.0124579
762.568	0.0123852
762.646	0.0123354
762.724	0.0125039
762.802	0.0125166
762.880	0.0123878
762.958	0.0124734
763.036	0.0124878
763.114	0.0125537
763.193	0.0124310
763.271	0.0124259
763.349	0.0124644
763.427	0.0125144
763.505	0.0126434
763.583	0.0125557
763.661	0.0125807
763.739	0.0126833
763.818	0.0125353
763.896	0.0126118
763.974	0.0126493
764.052	0.0126635
764.130	0.0126025
764.208	0.0126106
764.286	0.0126894
764.364	0.0127061
764.443	0.0125973
764.521	0.0126539
764.599	0.0125051
764.677	0.0126319
764.755	0.0126231
764.833	0.0124909
764.911	0.0126355
764.989	0.0126273
765.068	0.0125063
765.146	0.0124992
765.224	0.0125629
765.302	0.0125352
765.380	0.0125335
765.458	0.0124249
765.536	0.0125153
765.614	0.0124393
765.693	0.0125934
765.771	0.0126227
765.849	0.0124962
765.927	0.0124836
766.005	0.0125637
766.083	0.0125373
766.161	0.0123905
766.239	0.0125535
766.318	0.0125014
766.396	0.0125490
766.474	0.0123215
766.552	0.0123804
766.630	0.0123306
766.708	0.0125429
766.786	0.0123705
766.864	0.0125429
766.943	0.0123001
767.021	0.0124232
767.099	0.0123736
767.177	0.0122449
767.255	0.0123940
767.333	0.0123308
767.411	0.0122704
767.489	0.0122643
767.568	0.0123818
767.646	0.0124763
767.724	0.0122832
767.802	0.0123756
767.880	0.0122783
767.958	0.0124211
768.036	0.0124156
768.114	0.0125974
768.193	0.0125317
768.271	0.0126603
768.349	0.0127016
768.427	0.0126739
768.505	0.0126851
768.583	0.0126839
768.661	0.0129276
768.739	0.0126641
768.818	0.0126638
768.896	0.0129042
768.974	0.0127745
769.052	0.0128829
769.130	0.0126501
769.208	0.0127599
769.286	0.0126141
769.364	0.0126959
769.443	0.0126200
769.521	0.0126623
769.599	0.0126357
769.677	0.0125446
769.755	0.0125571
769.833	0.0122488
769.911	0.0122935
769.989	0.0123521
770.068	0.0122059
770.146	0.0121674
770.224	0.0122376
770.302	0.0122363
770.380	0.0121257
770.458	0.0121245
770.536	0.0122206
770.614	0.0122709
770.693	0.0121866
770.771	0.0123440
770.849	0.0122369
770.927	0.0122420
771.005	0.0122440
771.083	0.0121768
771.161	0.0121143
771.239	0.0123208
771.318	0.0124268
771.396	0.0124704
771.474	0.0124857
771.552	0.0124006
771.630	0.0123793
771.708	0.0125372
771.786	0.0125856
771.864	0.0124766
771.943	0.0125027
772.021	0.0124728
772.099	0.0124995
772.177	0.0123947
772.255	0.0125062
772.333	0.0125371
772.411	0.0122960
772.489	0.0123648
772.568	0.0123615
772.646	0.0125061
772.724	0.0123917
772.802	0.0124259
772.880	0.0124221
772.958	0.0123433
773.036	0.0123407
773.114	0.0123252
773.193	0.0124137
773.271	0.0125152
773.349	0.0126192
773.427	0.0125501
773.505	0.0124976
773.583	0.0124523
773.661	0.0126497
773.739	0.0127121
773.818	0.0126704
773.896	0.0126324
773.974	0.0127745
774.052	0.0126626
774.130	0.0129168
774.208	0.0127162
774.286	0.0127110
774.364	0.0127901
774.443	0.0127222
774.521	0.0128252
774.599	0.0126723
774.677	0.0126736
774.755	0.0128213
774.833	0.0126868
774.911	0.0126498
774.989	0.0126548
775.068	0.0127426
775.146	0.0127288
775.224	0.0126595
775.302	0.0124184
775.380	0.0124843
775.458	0.0124863
775.536	0.0124654
775.614	0.0124471
775.693	0.0123383
775.771	0.0124258
775.849	0.0123203
775.927	0.0122911
776.005	0.0123122
776.083	0.0124712
776.161	0.0122778
776.239	0.0123127
776.318	0.0122986
776.396	0.0124600
776.474	0.0123833
776.552	0.0123256
776.630	0.0124182
776.708	0.0124763
776.786	0.0124848
776.864	0.0124889
776.943	0.0125963
777.021	0.0124892
777.099	0.0126037
777.177	0.0125761
777.255	0.0125368
777.333	0.0125865
777.411	0.0125838
777.489	0.0126582
777.568	0.0125496
777.646	0.0127396
777.724	0.0126785
777.802	0.0126329
777.880	0.0126110
777.958	0.0127255
778.036	0.0126030
778.114	0.0125600
778.193	0.0125270
778.271	0.0123849
778.349	0.0125312
778.427	0.0124801
778.505	0.0124643
778.583	0.0123779
778.661	0.0123798
778.739	0.0123653
778.818	0.0123325
778.896	0.0124008
778.974	0.0123907
779.052	0.0123850
779.130	0.0125473
779.208	0.0124756
779.286	0.0123804
779.364	0.0124040
779.443	0.0126088
779.521	0.0125071
779.599	0.0126280
779.677	0.0125561
779.755	0.0125912
779.833	0.0125808
779.911	0.0125996
779.989	0.0126511
780.068	0.0125521
780.146	0.0126175
780.224	0.0126376
780.302	0.0126243
780.380	0.0125014
780.458	0.0125537
780.536	0.0125328
780.614	0.0124767
780.693	0.0125218
780.771	0.0123843
780.849	0.0124944
780.927	0.0124230
781.005	0.0125508
781.083	0.0125993
781.161	0.0123577
781.239	0.0124567
781.318	0.0125385
781.396	0.0122991
781.474	0.0123890
781.552	0.0124146
781.630	0.0125050
781.708	0.0124023
781.786	0.0123924
781.864	0.0124055
781.943	0.0123251
782.021	0.0123479
782.099	0.0124967
782.177	0.0124951
782.255	0.0123383
782.333	0.0123526
782.411	0.0124403
782.489	0.0124081
782.568	0.0124557
782.646	0.0124989
782.724	0.0124225
782.802	0.0123997
782.880	0.0124110
782.958	0.0124947
783.036	0.0124239
783.114	0.0124892
783.193	0.0126173
783.271	0.0125832
783.349	0.0125938
783.427	0.0126522
783.505	0.0125947
783.583	0.0126178
783.661	0.0126949
783.739	0.0125727
783.818	0.0125594
783.896	0.0125954
783.974	0.0125976
784.052	0.0125877
784.130	0.0124850
784.208	0.0126120
784.286	0.0125610
784.364	0.0124186
784.443	0.0125215
784.521	0.0125797
784.599	0.0125229
784.677	0.0124839
784.755	0.0124843
784.833	0.0124654
784.911	0.0124620
784.989	0.0125325
785.068	0.0125410
785.146	0.0123534
785.224	0.0123615
785.302	0.0124390
785.380	0.0123830
785.458	0.0123412
785.536	0.0124426
785.614	0.0124126
785.693	0.0124044
785.771	0.0124577
785.849	0.0123930
785.927	0.0124583
786.005	0.0124290
786.083	0.0124371
786.161	0.0123871
786.239	0.0122909
786.318	0.0124040
786.396	0.0125859
786.474	0.0125310
786.552	0.0124767
786.630	0.0124574
786.708	0.0125056
786.786	0.0125745
786.864	0.0125790
786.943	0.0125631
787.021	0.0123165
787.099	0.0125854
787.177	0.0123866
787.255	0.0124911
787.333	0.0124846
787.411	0.0125180
787.489	0.0124115
787.568	0.0124123
787.646	0.0124320
787.724	0.0123982
787.802	0.0124254
787.880	0.0124859
787.958	0.0125063
788.036	0.0124068
788.114	0.0124972
788.193	0.0124317
788.271	0.0124441
788.349	0.0124033
788.427	0.0123887
788.505	0.0124753
788.583	0.0124187
788.661	0.0124499
788.739	0.0124687
788.818	0.0124434
788.896	0.0125248
788.974	0.0124383
789.052	0.0124725
789.130	0.0125210
789.208	0.0125937
789.286	0.0124272
789.364	0.0123220
789.443	0.0123795
789.521	0.0123808
789.599	0.0125455
789.677	0.0124625
789.755	0.0123707
789.833	0.0123254
789.911	0.0124570
789.989	0.0123732
790.068	0.0123744
790.146	0.0125126
790.224	0.0124722
790.302	0.0122692
790.380	0.0124036
790.458	0.0124313
790.536	0.0124615
790.614	0.0125428
790.693	0.0124757
790.771	0.0124561
790.849	0.0123621
790.927	0.0123896
791.005	0.0123676
791.083	0.0124030
791.161	0.0124042
791.239	0.0125518
791.318	0.0124722
791.396	0.0125171
791.474	0.0124557
791.552	0.0122717
791.630	0.0123506
791.708	0.0123553
791.786	0.0123470
791.864	0.0125011
791.943	0.0124615
792.021	0.0123922
792.099	0.0124718
792.177	0.0124872
792.255	0.0126019
792.333	0.0126113
792.411	0.0125005
792.489	0.0124420
792.568	0.0124126
792.646	0.0124065
792.724	0.0123933
792.802	0.0124986
792.880	0.0125637
792.958	0.0124570
793.036	0.0125187
793.114	0.0125671
793.193	0.0124398
793.271	0.0124155
793.349	0.0124691
793.427	0.0124754
793.505	0.0123676
793.583	0.0123222
793.661	0.0125455
793.739	0.0124908
793.818	0.0122864
793.896	0.0124094
793.974	0.0123197
794.052	0.0124004
794.130	0.0125122
794.208	0.0124036
794.286	0.0125767
794.364	0.0125570
794.443	0.0124969
794.521	0.0126233
794.599	0.0124679
794.677	0.0124881
794.755	0.0125806
794.833	0.0126308
794.911	0.0126701
794.989	0.0127148
795.068	0.0126364
795.146	0.0126640
795.224	0.0126297
795.302	0.0126952
795.380	0.0126646
795.458	0.0125839
795.536	0.0127179
795.614	0.0126042
795.693	0.0126317
795.771	0.0125373
795.849	0.0125038
795.927	0.0126019
796.005	0.0126205
796.083	0.0126687
796.161	0.0126399
796.239	0.0126011
796.318	0.0126058
796.396	0.0124856
796.474	0.0126363
796.552	0.0125233
796.630	0.0126112
796.708	0.0125096
796.786	0.0124960
796.864	0.0126521
796.943	0.0126673
797.021	0.0124416
797.099	0.0124344
797.177	0.0123445
797.255	0.0125024
797.333	0.0123189
797.411	0.0123904
797.489	0.0124213
797.568	0.0123481
797.646	0.0122404
797.724	0.0122736
797.802	0.0122492
797.880	0.0122200
797.958	0.0122351
798.036	0.0121015
798.114	0.0122787
798.193	0.0122600
798.271	0.0120868
798.349	0.0121926
798.427	0.0122266
798.505	0.0123049
798.583	0.0124212
798.661	0.0123692
798.739	0.0124438
798.818	0.0124223
798.896	0.0124467
798.974	0.0125239
799.052	0.0125253
799.130	0.0125208
799.208	0.0126024
799.286	0.0126402
799.364	0.0126935
799.443	0.0124945
799.521	0.0127470
799.599	0.0125918
799.677	0.0126379
799.755	0.0127708
799.833	0.0125504
799.911	0.0125350
799.989	0.0124838
800.068	0.0125639
800.146	0.0123720
800.224	0.0125591
800.302	0.0123305
800.380	0.0123218
800.458	0.0123462
800.536	0.0123660
800.614	0.0121043
800.693	0.0123161
800.771	0.0123145
800.849	0.0122724
800.927	0.0122528
801.005	0.0124066
801.083	0.0122892
801.161	0.0122600
801.239	0.0122069
801.318	0.0121965
801.396	0.0122869
801.474	0.0123014
801.552	0.0124752
801.630	0.0123759
801.708	0.0124179
801.786	0.0124786
801.864	0.0122572
801.943	0.0125054
802.021	0.0124300
802.099	0.0125243
802.177	0.0123827
802.255	0.0125189
802.333	0.0125158
802.411	0.0124844
802.489	0.0125106
802.568	0.0124837
802.646	0.0126654
802.724	0.0125320
802.802	0.0126241
802.880	0.0126559
802.958	0.0125254
803.036	0.0125051
803.114	0.0124562
803.193	0.0126521
803.271	0.0126205
803.349	0.0125995
803.427	0.0127442
803.505	0.0127220
803.583	0.0127925
803.661	0.0127803
803.739	0.0127030
803.818	0.0128999
803.896	0.0127505
803.974	0.0128396
804.052	0.0127498
804.130	0.0126771
804.208	0.0127441
804.286	0.0126721
804.364	0.0126780
804.443	0.0125941
804.521	0.0125546
804.599	0.0125324
804.677	0.0124730
804.755	0.0125365
804.833	0.0124397
804.911	0.0123498
804.989	0.0126216
805.068	0.0124134
805.146	0.0124181
805.224	0.0124592
805.302	0.0125209
805.380	0.0124168
805.458	0.0122894
805.536	0.0123495
805.614	0.0123476
805.693	0.0123271
805.771	0.0124031
805.849	0.0123522
805.927	0.0124010
806.005	0.0124316
806.083	0.0124365
806.161	0.0122976
806.239	0.0123567
806.318	0.0123151
806.396	0.0122099
806.474	0.0121960
806.552	0.0121842
806.630	0.0122659
806.708	0.0121556
806.786	0.0123618
806.864	0.0122945
806.943	0.0121851
807.021	0.0123975
807.099	0.0124089
807.177	0.0123584
807.255	0.0123411
807.333	0.0122289
807.411	0.0124191
807.489	0.0123900
807.568	0.0123558
807.646	0.0125070
807.724	0.0124792
807.802	0.0125471
807.880	0.0126939
807.958	0.0126723
808.036	0.0126472
808.114	0.0126611
808.193	0.0127763
808.271	0.0127301
808.349	0.0127039
808.427	0.0127915
808.505	0.0126687
808.583	0.0125346
808.661	0.0127184
808.739	0.0126878
808.818	0.0127073
808.896	0.0126809
808.974	0.0126913
809.052	0.0126782
809.130	0.0126231
809.208	0.0125179
809.286	0.0125611
809.364	0.0125757
809.443	0.0124586
809.521	0.0125334
809.599	0.0122820
809.677	0.0124759
809.755	0.0124874
809.833	0.0123380
809.911	0.0125784
809.989	0.0124185
810.068	0.0124022
810.146	0.0123914
810.224	0.0124017
810.302	0.0124434
810.380	0.0124397
810.458	0.0124011
810.536	0.0125270
810.614	0.0122922
810.693	0.0123746
810.771	0.0122826
810.849	0.0123878
810.927	0.0124235
811.005	0.0122961
811.083	0.0122408
811.161	0.0123076
811.239	0.0123938
811.318	0.0122807
811.396	0.0122157
811.474	0.0120628
811.552	0.0123627
811.630	0.0122839
811.708	0.0121830
811.786	0.0122464
811.864	0.0122800
811.943	0.0122618
812.021	0.0123270
812.099	0.0123427
812.177	0.0123530
812.255	0.0122957
812.333	0.0123807
812.411	0.0122731
812.489	0.0125108
812.568	0.0123798
812.646	0.0125502
812.724	0.0124415
812.802	0.0124239
812.880	0.0125375
812.958	0.0125647
813.036	0.0124279
813.114	0.0124456
813.193	0.0125190
813.271	0.0124693
813.349	0.0126692
813.427	0.0125402
813.505	0.0125826
813.583	0.0126651
813.661	0.0126544
813.739	0.0125411
813.818	0.0126231
813.896	0.0126868
813.974	0.0126683
814.052	0.0125427
814.130	0.0124837
814.208	0.0125140
814.286	0.0125379
814.364	0.0125765
814.443	0.0125269
814.521	0.0125080
814.599	0.0125431
814.677	0.0124571
814.755	0.0124288
814.833	0.0125186
814.911	0.0124892
814.989	0.0124988
815.068	0.0123565
815.146	0.0123923
815.224	0.0125642
815.302	0.0124696
815.380	0.0124424
815.458	0.0124269
815.536	0.0124299
815.614	0.0124128
815.693	0.0123127
815.771	0.0124144
815.849	0.0122702
815.927	0.0122475
816.005	0.0123534
816.083	0.0122675
816.161	0.0123412
816.239	0.0123262
816.318	0.0122143
816.396	0.0122686
816.474	0.0123375
816.552	0.0122913
816.630	0.0122160
816.708	0.0122848
816.786	0.0121751
816.864	0.0122456
816.943	0.0123959
817.021	0.0124691
817.099	0.0124184
817.177	0.0124155
817.255	0.0124009
817.333	0.0124434
817.411	0.0125435
817.489	0.0124358
817.568	0.0126071
817.646	0.0126627
817.724	0.0126353
817.802	0.0127388
817.880	0.0126927
817.958	0.0127788
818.036	0.0127140
818.114	0.0127067
818.193	0.0127145
818.271	0.0128503
818.349	0.0127535
818.427	0.0127085
818.505	0.0128030
818.583	0.0127769
818.661	0.0127842
818.739	0.0127532
818.818	0.0126899
818.896	0.0127715
818.974	0.0125954
819.052	0.0126305
819.130	0.0126392
819.208	0.0124946
819.286	0.0125671
819.364	0.0126214
819.443	0.0125698
819.521	0.0125372
819.599	0.0124748
819.677	0.0125240
819.755	0.0125413
819.833	0.0124039
819.911	0.0124288
819.989	0.0124163
820.068	0.0123436
820.146	0.0124320
820.224	0.0124404
820.302	0.0123881
820.380	0.0123979
820.458	0.0125696
820.536	0.0124784
820.614	0.0124730
820.693	0.0122928
820.771	0.0122724
820.849	0.0123263
820.927	0.0122624
821.005	0.0123279
821.083	0.0123166
821.161	0.0122172
821.239	0.0123225
821.318	0.0123669
821.396	0.0124928
821.474	0.0122421
821.552	0.0122698
821.630	0.0124121
821.708	0.0124908
821.786	0.0124488
821.864	0.0123931
821.943	0.0124783
822.021	0.0125204
822.099	0.0125820
822.177	0.0125263
822.255	0.0124779
822.333	0.0125035
822.411	0.0126532
822.489	0.0125260
822.568	0.0124996
822.646	0.0124898
822.724	0.0125190
822.802	0.0125561
822.880	0.0124454
822.958	0.0123761
823.036	0.0123991
823.114	0.0124461
823.193	0.0123582
823.271	0.0123759
823.349	0.0123905
823.427	0.0124846
823.505	0.0124406
823.583	0.0124438
823.661	0.0125190
823.739	0.0123540
823.818	0.0123282
823.896	0.0123700
823.974	0.0123979
824.052	0.0124311
824.130	0.0124652
824.208	0.0124927
824.286	0.0125690
824.364	0.0124302
824.443	0.0124635
824.521	0.0124772
824.599	0.0124204
824.677	0.0125655
824.755	0.0124705
824.833	0.0124420
824.911	0.0123967
824.989	0.0125074
825.068	0.0125922
825.146	0.0123053
825.224	0.0124261
825.302	0.0125019
825.380	0.0123782
825.458	0.0122942
825.536	0.0123289
825.614	0.0124155
825.693	0.0123879
825.771	0.0123952
825.849	0.0121939
825.927	0.0122916
826.005	0.0121550
826.083	0.0122058
826.161	0.0123101
826.239	0.0122639
826.318	0.0122604
826.396	0.0122643
826.474	0.0123076
826.552	0.0122517
826.630	0.0123052
826.708	0.0123766
826.786	0.0123983
826.864	0.0123228
826.943	0.0123557
827.021	0.0124245
827.099	0.0124303
827.177	0.0124266
827.255	0.0125836
827.333	0.0125291
827.411	0.0124722
827.489	0.0126170
827.568	0.0125422
827.646	0.0128454
827.724	0.0126507
827.802	0.0127309
827.880	0.0128780
827.958	0.0128468
828.036	0.0126784
828.114	0.0127393
828.193	0.0127804
828.271	0.0127610
828.349	0.0127704
828.427	0.0126421
828.505	0.0127393
828.583	0.0127375
828.661	0.0127918
828.739	0.0128706
828.818	0.0125958
828.896	0.0125957
828.974	0.0126674
829.052	0.0124632
829.130	0.0126672
829.208	0.0125354
829.286	0.0124451
829.364	0.0125069
829.443	0.0123694
829.521	0.0123447
829.599	0.0123788
829.677	0.0125171
829.755	0.0123817
829.833	0.0123378
829.911	0.0122628
829.989	0.0123898
830.068	0.0122594
830.146	0.0120429
830.224	0.0122224
830.302	0.0120641
830.380	0.0121922
830.458	0.0121593
830.536	0.0119033
830.614	0.0119386
830.693	0.0120266
830.771	0.0120192
830.849	0.0121147
830.927	0.0120594
831.005	0.0119144
831.083	0.0119200
831.161	0.0119583
831.239	0.0120483
831.318	0.0121838
831.396	0.0120429
831.474	0.0121256
831.552	0.0122778
831.630	0.0121242
831.708	0.0120999
831.786	0.0123417
831.864	0.0124608
831.943	0.0124430
832.021	0.0124760
832.099	0.0124211
832.177	0.0125877
832.255	0.0126084
832.333	0.0127419
832.411	0.0128087
832.489	0.0126347
832.568	0.0128670
832.646	0.0129561
832.724	0.0130417
832.802	0.0130395
832.880	0.0129913
832.958	0.0130286
833.036	0.0131588
833.114	0.0131033
833.193	0.0130264
833.271	0.0130641
833.349	0.0129280
833.427	0.0130213
833.505	0.0130080
833.583	0.0129288
833.661	0.0129264
833.739	0.0127843
833.818	0.0128952
833.896	0.0128368
833.974	0.0126820
834.052	0.0126598
834.130	0.0126317
834.208	0.0127035
834.286	0.0125253
834.364	0.0125053
834.443	0.0124412
834.521	0.0122694
834.599	0.0124480
834.677	0.0123141
834.755	0.0122618
834.833	0.0122320
834.911	0.0123459
834.989	0.0123670
835.068	0.0122354
835.146	0.0122400
835.224	0.0122168
835.302	0.0122913
835.380	0.0122659
835.458	0.0121902
835.536	0.0123917
835.614	0.0123242
835.693	0.0122548
835.771	0.0121326
835.849	0.0122467
835.927	0.0122617
836.005	0.0122109
836.083	0.0122129
836.161	0.0122257
836.239	0.0122339
836.318	0.0121777
836.396	0.0123186
836.474	0.0124897
836.552	0.0124641
836.630	0.0123920
836.708	0.0124493
836.786	0.0125224
836.864	0.0125417
836.943	0.0126067
837.021	0.0126958
837.099	0.0126461
837.177	0.0126151
837.255	0.0125643
837.333	0.0127235
837.411	0.0129108
837.489	0.0128206
837.568	0.0128848
837.646	0.0127798
837.724	0.0128075
837.802	0.0130570
837.880	0.0128440
837.958	0.0127531
838.036	0.0128088
838.114	0.0128288
838.193	0.0127597
838.271	0.0127179
838.349	0.0127448
838.427	0.0127580
838.505	0.0126551
838.583	0.0125378
838.661	0.0125837
838.739	0.0126541
838.818	0.0126460
838.896	0.0125387
838.974	0.0125182
839.052	0.0124981
839.130	0.0125256
839.208	0.0125041
839.286	0.0124805
839.364	0.0123894
839.443	0.0123499
839.521	0.0123257
839.599	0.0122087
839.677	0.0122076
839.755	0.0123237
839.833	0.0123075
839.911	0.0121967
839.989	0.0122070
840.068	0.0121561
840.146	0.0123560
840.224	0.0121465
840.302	0.0122866
840.380	0.0123309
840.458	0.0124791
840.536	0.0124300
840.614	0.0123203
840.693	0.0121992
840.771	0.0121948
840.849	0.0122548
840.927	0.0124345
841.005	0.0125063
841.083	0.0123492
841.161	0.0123546
841.239	0.0123813
841.318	0.0125246
841.396	0.0124915
841.474	0.0124198
841.552	0.0123698
841.630	0.0125294
841.708	0.0125978
841.786	0.0125616
841.864	0.0125327
841.943	0.0125687
842.021	0.0125085
842.099	0.0125096
842.177	0.0125740
842.255	0.0127689
842.333	0.0127050
842.411	0.0127943
842.489	0.0126645
842.568	0.0127621
842.646	0.0127772
842.724	0.0128584
842.802	0.0128261
842.880	0.0129105
842.958	0.0127296
843.036	0.0127869
843.114	0.0128854
843.193	0.0129588
843.271	0.0128912
843.349	0.0129163
843.427	0.0128037
843.505	0.0128142
843.583	0.0127943
843.661	0.0128856
843.739	0.0129690
843.818	0.0129080
843.896	0.0126906
843.974	0.0128016
844.052	0.0128590
844.130	0.0127430
844.208	0.0126620
844.286	0.0127273
844.364	0.0126280
844.443	0.0126755
844.521	0.0125023
844.599	0.0125684
844.677	0.0124422
844.755	0.0124493
844.833	0.0124454
844.911	0.0124143
844.989	0.0123778
845.068	0.0123022
845.146	0.0122954
845.224	0.0123206
845.302	0.0123289
845.380	0.0122687
845.458	0.0123200
845.536	0.0123158
845.614	0.0123442
845.693	0.0122381
845.771	0.0123001
845.849	0.0123887
845.927	0.0123626
846.005	0.0123278
846.083	0.0123362
846.161	0.0124402
846.239	0.0125298
846.318	0.0123589
846.396	0.0124350
846.474	0.0124789
846.552	0.0124825
846.630	0.0124800
846.708	0.0125565
846.786	0.0124289
846.864	0.0126121
846.943	0.0125783
847.021	0.0125013
847.099	0.0125154
847.177	0.0124551
847.255	0.0125993
847.333	0.0127023
847.411	0.0125850
847.489	0.0125615
847.568	0.0125705
847.646	0.0127084
847.724	0.0126973
847.802	0.0127731
847.880	0.0127015
847.958	0.0125423
848.036	0.0125158
848.114	0.0125822
848.193	0.0125195
848.271	0.0125552
848.349	0.0125199
848.427	0.0124263
848.505	0.0125768
848.583	0.0124878
848.661	0.0125097
848.739	0.0124799
848.818	0.0125097
848.896	0.0124618
848.974	0.0122868
849.052	0.0124762
849.130	0.0125154
849.208	0.0125153
849.286	0.0124326
849.364	0.0123494
849.443	0.0122433
849.521	0.0123032
849.599	0.0123576
849.677	0.0124410
849.755	0.0124799
849.833	0.0123656
849.911	0.0124979
849.989	0.0124398
850.068	0.0124164
850.146	0.0125071
850.224	0.0122977
850.302	0.0124931
850.380	0.0126025
850.458	0.0125704
850.536	0.0125552
850.614	0.0126657
850.693	0.0125382
850.771	0.0126617
850.849	0.0125961
850.927	0.0126489
851.005	0.0127314
851.083	0.0125861
851.161	0.0126196
851.239	0.0125491
851.318	0.0125058
851.396	0.0125272
851.474	0.0126111
851.552	0.0125427
851.630	0.0123926
851.708	0.0124048
851.786	0.0124609
851.864	0.0123391
851.943	0.0125217
852.021	0.0125221
852.099	0.0123406
852.177	0.0125362
852.255	0.0123288
852.333	0.0123371
852.411	0.0123944
852.489	0.0122435
852.568	0.0123547
852.646	0.0124918
852.724	0.0124956
852.802	0.0124084
852.880	0.0122622
852.958	0.0124257
853.036	0.0123315
853.114	0.0123949
853.193	0.0123661
853.271	0.0124216
853.349	0.0123681
853.427	0.0123091
853.505	0.0123734
853.583	0.0123787
853.661	0.0124421
853.739	0.0123766
853.818	0.0123298
853.896	0.0123370
853.974	0.0124461
854.052	0.0123544
854.130	0.0124608
854.208	0.0124265
854.286	0.0126288
854.364	0.0125085
854.443	0.0126085
854.521	0.0125271
854.599	0.0125076
854.677	0.0126865
854.755	0.0127366
854.833	0.0127077
854.911	0.0127563
854.989	0.0126736
855.068	0.0127939
855.146	0.0127794
855.224	0.0127001
855.302	0.0128180
855.380	0.0129086
855.458	0.0126866
855.536	0.0127326
855.614	0.0127494
855.693	0.0127889
855.771	0.0126741
855.849	0.0126707
855.927	0.0125032
856.005	0.0125506
856.083	0.0126261
856.161	0.0124595
856.239	0.0125230
856.318	0.0125417
856.396	0.0123869
856.474	0.0124324
856.552	0.0124796
856.630	0.0124858
856.708	0.0124453
856.786	0.0123270
856.864	0.0122104
856.943	0.0123553
857.021	0.0122230
857.099	0.0122101
857.177	0.0123974
857.255	0.0124085
857.333	0.0122535
857.411	0.0123376
857.489	0.0122453
857.568	0.0123428
857.646	0.0123669
857.724	0.0122295
857.802	0.0123679
857.880	0.0123581
857.958	0.0124193
858.036	0.0123895
858.114	0.0125155
858.193	0.0124373
858.271	0.0125161
858.349	0.0125258
858.427	0.0124860
858.505	0.0124550
858.583	0.0127187
858.661	0.0125443
858.739	0.0126000
858.818	0.0125567
858.896	0.0126565
858.974	0.0127563
859.052	0.0125517
859.130	0.0126243
859.208	0.0126232
859.286	0.0125341
859.364	0.0127000
859.443	0.0126611
859.521	0.0125856
859.599	0.0125893
859.677	0.0126885
859.755	0.0126329
859.833	0.0125159
859.911	0.0124886
859.989	0.0126601
860.068	0.0125366
860.146	0.0125878
860.224	0.0127034
860.302	0.0124316
860.380	0.0125256
860.458	0.0125609
860.536	0.0124181
860.614	0.0124018
860.693	0.0125577
860.771	0.0125829
860.849	0.0124121
860.927	0.0124353
861.005	0.0124538
861.083	0.0123512
861.161	0.0123901
861.239	0.0123387
861.318	0.0123110
861.396	0.0122392
861.474	0.0123428
861.552	0.0124869
861.630	0.0123995
861.708	0.0123118
861.786	0.0123683
861.864	0.0123199
861.943	0.0123780
862.021	0.0124284
862.099	0.0124681
862.177	0.0124464
862.255	0.0124598
862.333	0.0126988
862.411	0.0125992
862.489	0.0125553
862.568	0.0126984
862.646	0.0126375
862.724	0.0126567
862.802	0.0126282
862.880	0.0127219
862.958	0.0127082
863.036	0.0126730
863.114	0.0128007
863.193	0.0127815
863.271	0.0126472
863.349	0.0127415
863.427	0.0127509
863.505	0.0126429
863.583	0.0126978
863.661	0.0126505
863.739	0.0125990
863.818	0.0127054
863.896	0.0126111
863.974	0.0125373
864.052	0.0125164
864.130	0.0126020
864.208	0.0126241
864.286	0.0125745
864.364	0.0125150
864.443	0.0125507
864.521	0.0125841
864.599	0.0123206
864.677	0.0124872
864.755	0.0124101
864.833	0.0126231
864.911	0.0124930
864.989	0.0123679
865.068	0.0125011
865.146	0.0124454
865.224	0.0123817
865.302	0.0123972
865.380	0.0124192
865.458	0.0124400
865.536	0.0124380
865.614	0.0124174
865.693	0.0124192
865.771	0.0124227
865.849	0.0123630
865.927	0.0123528
866.005	0.0124123
866.083	0.0124454
866.161	0.0123570
866.239	0.0123983
866.318	0.0123409
866.396	0.0123518
866.474	0.0124492
866.552	0.0122807
866.630	0.0122076
866.708	0.0122662
866.786	0.0122902
866.864	0.0125176
866.943	0.0122911
867.021	0.0124206
867.099	0.0124750
867.177	0.0124274
867.255	0.0125103
867.333	0.0126479
867.411	0.0125674
867.489	0.0125909
867.568	0.0125770
867.646	0.0126330
867.724	0.0126058
867.802	0.0126331
867.880	0.0126633
867.958	0.0125124
868.036	0.0125891
868.114	0.0124934
868.193	0.0125208
868.271	0.0125547
868.349	0.0125549
868.427	0.0126835
868.505	0.0124883
868.583	0.0125805
868.661	0.0124799
868.739	0.0127084
868.818	0.0126767
868.896	0.0125391
868.974	0.0126792
869.052	0.0125468
869.130	0.0125793
869.208	0.0125114
869.286	0.0125187
869.364	0.0125487
869.443	0.0125720
869.521	0.0125047
869.599	0.0125196
869.677	0.0124953
869.755	0.0124347
869.833	0.0125281
869.911	0.0125359
869.989	0.0125068
870.068	0.0124059
870.146	0.0124415
870.224	0.0125259
870.302	0.0123968
870.380	0.0124439
870.458	0.0124676
870.536	0.0124086
870.614	0.0123531
870.693	0.0123529
870.771	0.0124135
870.849	0.0125042
870.927	0.0124454
871.005	0.0123368
871.083	0.0123581
871.161	0.0125371
871.239	0.0124249
871.318	0.0124259
871.396	0.0122596
871.474	0.0123627
871.552	0.0123376
871.630	0.0122447
871.708	0.0123782
871.786	0.0123877
871.864	0.0122162
871.943	0.0122769
872.021	0.0122904
872.099	0.0124771
872.177	0.0124078
872.255	0.0122224
872.333	0.0123836
872.411	0.0123254
872.489	0.0124889
872.568	0.0123672
872.646	0.0124695
872.724	0.0124227
872.802	0.0124520
872.880	0.0125943
872.958	0.0123882
873.036	0.0123690
873.114	0.0125586
873.193	0.0125208
873.271	0.0124506
873.349	0.0126923
873.427	0.0127148
873.505	0.0125320
873.583	0.0126050
873.661	0.0124361
873.739	0.0125040
873.818	0.0126939
873.896	0.0127518
873.974	0.0127733
874.052	0.0125962
874.130	0.0125386
874.208	0.0123995
874.286	0.0125974
874.364	0.0125808
874.443	0.0127055
874.521	0.0126086
874.599	0.0126802
874.677	0.0127194
874.755	0.0125021
874.833	0.0126626
874.911	0.0126949
874.989	0.0126799
875.068	0.0127179
875.146	0.0124643
875.224	0.0126085
875.302	0.0125433
875.380	0.0126171
875.458	0.0127103
875.536	0.0125220
875.614	0.0125726
875.693	0.0125700
875.771	0.0124898
875.849	0.0124690
875.927	0.0125009
876.005	0.0124136
876.083	0.0124487
876.161	0.0124023
876.239	0.0125016
876.318	0.0124378
876.396	0.0123486
876.474	0.0123533
876.552	0.0124261
876.630	0.0124039
876.708	0.0122709
876.786	0.0123666
876.864	0.0123164
876.943	0.0121936
877.021	0.0123626
877.099	0.0123340
877.177	0.0122678
877.255	0.0124073
877.333	0.0122376
877.411	0.0122760
877.489	0.0123439
877.568	0.0122854
877.646	0.0121510
877.724	0.0123672
877.802	0.0122877
877.880	0.0123273
877.958	0.0121593
878.036	0.0122276
878.114	0.0124287
878.193	0.0122602
878.271	0.0123591
878.349	0.0124498
878.427	0.0122650
878.505	0.0123502
878.583	0.0123335
878.661	0.0124226
878.739	0.0124414
878.818	0.0121913
878.896	0.0123526
878.974	0.0124453
879.052	0.0124725
879.130	0.0124720
879.208	0.0125104
879.286	0.0125692
879.364	0.0127074
879.443	0.0125035
879.521	0.0126969
879.599	0.0126527
879.677	0.0126975
879.755	0.0127162
879.833	0.0127027
879.911	0.0127943
879.989	0.0128252
880.068	0.0126289
880.146	0.0125770
880.224	0.0127410
880.302	0.0126981
880.380	0.0126527
880.458	0.0127159
880.536	0.0126628
880.614	0.0126912
880.693	0.0126923
880.771	0.0127249
880.849	0.0127015
880.927	0.0125838
881.005	0.0127058
881.083	0.0127112
881.161	0.0125663
881.239	0.0126184
881.318	0.0125078
881.396	0.0126721
881.474	0.0125912
881.552	0.0125552
881.630	0.0125101
881.708	0.0124435
881.786	0.0125600
881.864	0.0124035
881.943	0.0124285
882.021	0.0124365
882.099	0.0123557
882.177	0.0125394
882.255	0.0124383
882.333	0.0123489
882.411	0.0123206
882.489	0.0123263
882.568	0.0125437
882.646	0.0123402
882.724	0.0122459
882.802	0.0121637
882.880	0.0122423
882.958	0.0120620
883.036	0.0122120
883.114	0.0122475
883.193	0.0122418
883.271	0.0121584
883.349	0.0122855
883.427	0.0122460
883.505	0.0123091
883.583	0.0123038
883.661	0.0123091
883.739	0.0121679
883.818	0.0122330
883.896	0.0123415
883.974	0.0122607
884.052	0.0123270
884.130	0.0125219
884.208	0.0122559
884.286	0.0123669
884.364	0.0122858
884.443	0.0123318
884.521	0.0124045
884.599	0.0124296
884.677	0.0124924
884.755	0.0125397
884.833	0.0123959
884.911	0.0122983
884.989	0.0124127
885.068	0.0123730
885.146	0.0125729
885.224	0.0125484
885.302	0.0124891
885.380	0.0125485
885.458	0.0124992
885.536	0.0126046
885.614	0.0124845
885.693	0.0125214
885.771	0.0125806
885.849	0.0124815
885.927	0.0126333
886.005	0.0126015
886.083	0.0126606
886.161	0.0125563
886.239	0.0124828
886.318	0.0125382
886.396	0.0126679
886.474	0.0126691
886.552	0.0125191
886.630	0.0126270
886.708	0.0125698
886.786	0.0125190
886.864	0.0126904
886.943	0.0125144
887.021	0.0124886
887.099	0.0124323
887.177	0.0124904
887.255	0.0123957
887.333	0.0124588
887.411	0.0124949
887.489	0.0126275
887.568	0.0124698
887.646	0.0124360
887.724	0.0123558
887.802	0.0125017
887.880	0.0124716
887.958	0.0123291
888.036	0.0123086
888.114	0.0123980
888.193	0.0123305
888.271	0.0121748
888.349	0.0123088
888.427	0.0122730
888.505	0.0123676
888.583	0.0123351
888.661	0.0123001
888.739	0.0121866
888.818	0.0122559
888.896	0.0121774
888.974	0.0121057
889.052	0.0123043
889.130	0.0121719
889.208	0.0123914
889.286	0.0122196
889.364	0.0121909
889.443	0.0122790
889.521	0.0122338
889.599	0.0122471
889.677	0.0122998
889.755	0.0123208
889.833	0.0121797
889.911	0.0123312
889.989	0.0122875
890.068	0.0122498
890.146	0.0122549
890.224	0.0124092
890.302	0.0124294
890.380	0.0123788
890.458	0.0123376
890.536	0.0124759
890.614	0.0124648
890.693	0.0124256
890.771	0.0124828
890.849	0.0123717
890.927	0.0124873
891.005	0.0125456
891.083	0.0125149
891.161	0.0124866
891.239	0.0125401
891.318	0.0124568
891.396	0.0124512
891.474	0.0124031
891.552	0.0123889
891.630	0.0123847
891.708	0.0124988
891.786	0.0123618
891.864	0.0124802
891.943	0.0123825
892.021	0.0123708
892.099	0.0123552
892.177	0.0125050
892.255	0.0122559
892.333	0.0124181
892.411	0.0123932
892.489	0.0124063
892.568	0.0122853
892.646	0.0125066
892.724	0.0125153
892.802	0.0124438
892.880	0.0124185
892.958	0.0124509
893.036	0.0125034
893.114	0.0125369
893.193	0.0126934
893.271	0.0126310
893.349	0.0125271
893.427	0.0124764
893.505	0.0124188
893.583	0.0126250
893.661	0.0125582
893.739	0.0126369
893.818	0.0125951
893.896	0.0126008
893.974	0.0125465
894.052	0.0124970
894.130	0.0125675
894.208	0.0126916
894.286	0.0126353
894.364	0.0124930
894.443	0.0126462
894.521	0.0125648
894.599	0.0125185
894.677	0.0124789
894.755	0.0124570
894.833	0.0124889
894.911	0.0125357
894.989	0.0124310
895.068	0.0124596
895.146	0.0124005
895.224	0.0124071
895.302	0.0122468
895.380	0.0124041
895.458	0.0123676
895.536	0.0122420
895.614	0.0122230
895.693	0.0123733
895.771	0.0122913
895.849	0.0122765
895.927	0.0123284
896.005	0.0120580
896.083	0.0121780
896.161	0.0122918
896.239	0.0122086
896.318	0.0122627
896.396	0.0123528
896.474	0.0123491
896.552	0.0124134
896.630	0.0124049
896.708	0.0124769
896.786	0.0124077
896.864	0.0123504
896.943	0.0124342
897.021	0.0124321
897.099	0.0124037
897.177	0.0127180
897.255	0.0126221
897.333	0.0126245
897.411	0.0127110
897.489	0.0127408
897.568	0.0126324
897.646	0.0126180
897.724	0.0124947
897.802	0.0126359
897.880	0.0126283
897.958	0.0125323
898.036	0.0126497
898.114	0.0125367
898.193	0.0127395
898.271	0.0125960
898.349	0.0126998
898.427	0.0126405
898.505	0.0125372
898.583	0.0126705
898.661	0.0126316
898.739	0.0126165
898.818	0.0127530
898.896	0.0126932
898.974	0.0126034
899.052	0.0127433
899.130	0.0126801
899.208	0.0125852
899.286	0.0125611
899.364	0.0125626
899.443	0.0124924
899.521	0.0125368
899.599	0.0123751
899.677	0.0124168
899.755	0.0123415
899.833	0.0122958
899.911	0.0123541
899.989	0.0123215
900.068	0.0121801
900.146	0.0121795
900.224	0.0122950
900.302	0.0121506
900.380	0.0122020
900.458	0.0122147
900.536	0.0121529
900.614	0.0123036
900.693	0.0122680
900.771	0.0122060
900.849	0.0122990
900.927	0.0122637
901.005	0.0123226
901.083	0.0123588
901.161	0.0123196
901.239	0.0123843
901.318	0.0124080
901.396	0.0123580
901.474	0.0124948
901.552	0.0124644
901.630	0.0124770
901.708	0.0123660
901.786	0.0124954
901.864	0.0124077
901.943	0.0125219
902.021	0.0126044
902.099	0.0124895
902.177	0.0125053
902.255	0.0124088
902.333	0.0124733
902.411	0.0126116
902.489	0.0124939
902.568	0.0124420
902.646	0.0125581
902.724	0.0126619
902.802	0.0125599
902.880	0.0123965
902.958	0.0124899
903.036	0.0124627
903.114	0.0125500
903.193	0.0124036
903.271	0.0123880
903.349	0.0124812
903.427	0.0124126
903.505	0.0124313
903.583	0.0123920
903.661	0.0124598
903.739	0.0123567
903.818	0.0123687
903.896	0.0122666
903.974	0.0123823
904.052	0.0125220
904.130	0.0124504
904.208	0.0122814
904.286	0.0124290
904.364	0.0124304
904.443	0.0124016
904.521	0.0122224
904.599	0.0122888
904.677	0.0123903
904.755	0.0124233
904.833	0.0124992
904.911	0.0125381
904.989	0.0125929
905.068	0.0123717
905.146	0.0124439
905.224	0.0124403
905.302	0.0126120
905.380	0.0124996
905.458	0.0124340
905.536	0.0124931
905.614	0.0124966
905.693	0.0124070
905.771	0.0126946
905.849	0.0124528
905.927	0.0123844
906.005	0.0124919
906.083	0.0125510
906.161	0.0124361
906.239	0.0125696
906.318	0.0125468
906.396	0.0125751
906.474	0.0125334
906.552	0.0125173
906.630	0.0124686
906.708	0.0125534
906.786	0.0126888
906.864	0.0125584
906.943	0.0126842
907.021	0.0126833
907.099	0.0125668
907.177	0.0126192
907.255	0.0125554
907.333	0.0126119
907.411	0.0124668
907.489	0.0124902
907.568	0.0123902
907.646	0.0124284
907.724	0.0125726
907.802	0.0123418
907.880	0.0122947
907.958	0.0124760
908.036	0.0123540
908.114	0.0122758
908.193	0.0123007
908.271	0.0124291
908.349	0.0123847
908.427	0.0122277
908.505	0.0123323
908.583	0.0124485
908.661	0.0124213
908.739	0.0122997
908.818	0.0123759
908.896	0.0124188
908.974	0.0123812
909.052	0.0123020
909.130	0.0123387
909.208	0.0123341
909.286	0.0122951
909.364	0.0124419
909.443	0.0123188
909.521	0.0123457
909.599	0.0123730
909.677	0.0122486
909.755	0.0123141
909.833	0.0123956
909.911	0.0123370
909.989	0.0123112
910.068	0.0124734
910.146	0.0124496
910.224	0.0124717
910.302	0.0123824
910.380	0.0123705
910.458	0.0124747
910.536	0.0124538
910.614	0.0124563
910.693	0.0125859
910.771	0.0124130
910.849	0.0124607
910.927	0.0125981
911.005	0.0123289
911.083	0.0125191
911.161	0.0125554
911.239	0.0124045
911.318	0.0124381
911.396	0.0125362
911.474	0.0123972
911.552	0.0125430
911.630	0.0123840
911.708	0.0124817
911.786	0.0124944
911.864	0.0125494
911.943	0.0126847
912.021	0.0126622
912.099	0.0124814
912.177	0.0124738
912.255	0.0124937
912.333	0.0125846
912.411	0.0125484
912.489	0.0124812
912.568	0.0125266
912.646	0.0126348
912.724	0.0125031
912.802	0.0124167
912.880	0.0125143
912.958	0.0125543
913.036	0.0126009
913.114	0.0124462
913.193	0.0124357
913.271	0.0126183
913.349	0.0124978
913.427	0.0124327
913.505	0.0124372
913.583	0.0125996
913.661	0.0123900
913.739	0.0124435
913.818	0.0125140
913.896	0.0125359
913.974	0.0124872
914.052	0.0123830
914.130	0.0125429
914.208	0.0125222
914.286	0.0123806
914.364	0.0124178
914.443	0.0123817
914.521	0.0124829
914.599	0.0123667
914.677	0.0123514
914.755	0.0125194
914.833	0.0122977
914.911	0.0124519
914.989	0.0124796
915.068	0.0124968
915.146	0.0125207
915.224	0.0124306
915.302	0.0125671
915.380	0.0123682
915.458	0.0123750
915.536	0.0125108
915.614	0.0123874
915.693	0.0123706
915.771	0.0123902
915.849	0.0123783
915.927	0.0123462
916.005	0.0125285
916.083	0.0125179
916.161	0.0124598
916.239	0.0124333
916.318	0.0124853
916.396	0.0125313
916.474	0.0123289
916.552	0.0124359
916.630	0.0123820
916.708	0.0124702
916.786	0.0125016
916.864	0.0124554
916.943	0.0124072
917.021	0.0124122
917.099	0.0125254
917.177	0.0124203
917.255	0.0125708
917.333	0.0124704
917.411	0.0124129
917.489	0.0123557
917.568	0.0124870
917.646	0.0125652
917.724	0.0125381
917.802	0.0125378
917.880	0.0125042
917.958	0.0126082
918.036	0.0125871
918.114	0.0126321
918.193	0.0125134
918.271	0.0124657
918.349	0.0124844
918.427	0.0125533
918.505	0.0125087
918.583	0.0124554
918.661	0.0124151
918.739	0.0125208
918.818	0.0124876
918.896	0.0124453
918.974	0.0125529
919.052	0.0124674
919.130	0.0124399
919.208	0.0125625
919.286	0.0125854
919.364	0.0124715
919.443	0.0124223
919.521	0.0124326
919.599	0.0124058
919.677	0.0124248
919.755	0.0123508
919.833	0.0125034
919.911	0.0123887
919.989	0.0124545
920.068	0.0125375
920.146	0.0124524
920.224	0.0125314
920.302	0.0123934
920.380	0.0123870
920.458	0.0124175
920.536	0.0124915
920.614	0.0126138
920.693	0.0126158
920.771	0.0124859
920.849	0.0124535
920.927	0.0125226
921.005	0.0125739
921.083	0.0125682
921.161	0.0124214
921.239	0.0124203
921.318	0.0125105
921.396	0.0123238
921.474	0.0126155
921.552	0.0124853
921.630	0.0125626
921.708	0.0124351
921.786	0.0123916
921.864	0.0124783
921.943	0.0125038
922.021	0.0123917
922.099	0.0124094
922.177	0.0124067
922.255	0.0124061
922.333	0.0123817
922.411	0.0125711
922.489	0.0124203
922.568	0.0124277
922.646	0.0124139
922.724	0.0123831
922.802	0.0124637
922.880	0.0122285
922.958	0.0122752
923.036	0.0123352
923.114	0.0123997
923.193	0.0123452
923.271	0.0123403
923.349	0.0124238
923.427	0.0124632
923.505	0.0124038
923.583	0.0123624
923.661	0.0124323
923.739	0.0124461
923.818	0.0124067
923.896	0.0125415
923.974	0.0124828
924.052	0.0125265
924.130	0.0125654
924.208	0.0124349
924.286	0.0125903
924.364	0.0126004
924.443	0.0125171
924.521	0.0125070
924.599	0.0125600
924.677	0.0125459
924.755	0.0126016
924.833	0.0125641
924.911	0.0124356
924.989	0.0124219
925.068	0.0125291
925.146	0.0124532
925.224	0.0124596
925.302	0.0126639
925.380	0.0125059
925.458	0.0124531
925.536	0.0124673
925.614	0.0124598
925.693	0.0124096
925.771	0.0124908
925.849	0.0125452
925.927	0.0124562
926.005	0.0123867
926.083	0.0123102
926.161	0.0125269
926.239	0.0125411
926.318	0.0124419
926.396	0.0122511
926.474	0.0124519
926.552	0.0124112
926.630	0.0124154
926.708	0.0125612
926.786	0.0124916
926.864	0.0124683
926.943	0.0123878
927.021	0.0123978
927.099	0.0123811
927.177	0.0124994
927.255	0.0125354
927.333	0.0125567
927.411	0.0124959
927.489	0.0123725
927.568	0.0124483
927.646	0.0125476
927.724	0.0122650
927.802	0.0123804
927.880	0.0124979
927.958	0.0124743
928.036	0.0125487
928.114	0.0123838
928.193	0.0123674
928.271	0.0124469
928.349	0.0126006
928.427	0.0124521
928.505	0.0124424
928.583	0.0125836
928.661	0.0126387
928.739	0.0125185
928.818	0.0124782
928.896	0.0124625
928.974	0.0125977
929.052	0.0125400
929.130	0.0125723
929.208	0.0123875
929.286	0.0127032
929.364	0.0126658
929.443	0.0125227
929.521	0.0125153
929.599	0.0125218
929.677	0.0125031
929.755	0.0125269
929.833	0.0124005
929.911	0.0125809
929.989	0.0124410
930.068	0.0125153
930.146	0.0124710
930.224	0.0124681
930.302	0.0122784
930.380	0.0124468
930.458	0.0124677
930.536	0.0123969
930.614	0.0123665
930.693	0.0125391
930.771	0.0125899
930.849	0.0125211
930.927	0.0124963
931.005	0.0124260
931.083	0.0125656
931.161	0.0125188
931.239	0.0124796
931.318	0.0124368
931.396	0.0124655
931.474	0.0124229
931.552	0.0125649
931.630	0.0124516
931.708	0.0124503
931.786	0.0126324
931.864	0.0124042
931.943	0.0124549
932.021	0.0125289
932.099	0.0125673
932.177	0.0126575
932.255	0.0126291
932.333	0.0125220
932.411	0.0126301
932.489	0.0125691
932.568	0.0124941
932.646	0.0125391
932.724	0.0124937
932.802	0.0124970
932.880	0.0124426
932.958	0.0124815
933.036	0.0124909
933.114	0.0124002
933.193	0.0125073
933.271	0.0124094
933.349	0.0124025
933.427	0.0125497
933.505	0.0123460
933.583	0.0123872
933.661	0.0124763
933.739	0.0124994
933.818	0.0125584
933.896	0.0124435
933.974	0.0126543
934.052	0.0128220
934.130	0.0124902
934.208	0.0125033
934.286	0.0125239
934.364	0.0126418
934.443	0.0126286
934.521	0.0126720
934.599	0.0125191
934.677	0.0125433
934.755	0.0126439
934.833	0.0126380
934.911	0.0125872
934.989	0.0125259
935.068	0.0127109
935.146	0.0126542
935.224	0.0126601
935.302	0.0126128
935.380	0.0124998
935.458	0.0126541
935.536	0.0126679
935.614	0.0125044
935.693	0.0126633
935.771	0.0125623
935.849	0.0125568
935.927	0.0125741
936.005	0.0125540
936.083	0.0126860
936.161	0.0125391
936.239	0.0125916
936.318	0.0125328
936.396	0.0125878
936.474	0.0126380
936.552	0.0124560
936.630	0.0124518
936.708	0.0126295
936.786	0.0124539
936.864	0.0125652
936.943	0.0124245
937.021	0.0125139
937.099	0.0125473
937.177	0.0125227
937.255	0.0124581
937.333	0.0123538
937.411	0.0124056
937.489	0.0124558
937.568	0.0124396
937.646	0.0125446
937.724	0.0125926
937.802	0.0125822
937.880	0.0124289
937.958	0.0125680
938.036	0.0124004
938.114	0.0124548
938.193	0.0125425
938.271	0.0124188
938.349	0.0124365
938.427	0.0123478
938.505	0.0125405
938.583	0.0125212
938.661	0.0124208
938.739	0.0123499
938.818	0.0123802
938.896	0.0125200
938.974	0.0125839
939.052	0.0126263
939.130	0.0123428
939.208	0.0123724
939.286	0.0124311
939.364	0.0125471
939.443	0.0124372
939.521	0.0124448
939.599	0.0124826
939.677	0.0126154
939.755	0.0125371
939.833	0.0123515
939.911	0.0126419
939.989	0.0126298
940.068	0.0125658
940.146	0.0124814
940.224	0.0124989
940.302	0.0126225
940.380	0.0125732
940.458	0.0125166
940.536	0.0124584
940.614	0.0124054
940.693	0.0124236
940.771	0.0125559
940.849	0.0125958
940.927	0.0125195
941.005	0.0126883
941.083	0.0125514
941.161	0.0124660
941.239	0.0125002
941.318	0.0124437
941.396	0.0124753
941.474	0.0125597
941.552	0.0125531
941.630	0.0125534
941.708	0.0125904
941.786	0.0124986
941.864	0.0124970
941.943	0.0124051
942.021	0.0123574
942.099	0.0124918
942.177	0.0125401
942.255	0.0123879
942.333	0.0124273
942.411	0.0123677
942.489	0.0123824
942.568	0.0123635
942.646	0.0123826
942.724	0.0125398
942.802	0.0124199
942.880	0.0123110
942.958	0.0123176
943.036	0.0123856
943.114	0.0124575
943.193	0.0124327
943.271	0.0124620
943.349	0.0124966
943.427	0.0123573
943.505	0.0124258
943.583	0.0124184
943.661	0.0123157
943.739	0.0123489
943.818	0.0124594
943.896	0.0123589
943.974	0.0124078
944.052	0.0125129
944.130	0.0124800
944.208	0.0124498
944.286	0.0124709
944.364	0.0125846
944.443	0.0125360
944.521	0.0124637
944.599	0.0124785
944.677	0.0127110
944.755	0.0126025
944.833	0.0125569
944.911	0.0125993
944.989	0.0125446
945.068	0.0125927
945.146	0.0126834
945.224	0.0127245
945.302	0.0126297
945.380	0.0125937
945.458	0.0125018
945.536	0.0126012
945.614	0.0124973
945.693	0.0124981
945.771	0.0125446
945.849	0.0124553
945.927	0.0125974
946.005	0.0126958
946.083	0.0126485
946.161	0.0126283
946.239	0.0127014
946.318	0.0126178
946.396	0.0125372
946.474	0.0126561
946.552	0.0125930
946.630	0.0126192
946.708	0.0126505
946.786	0.0126756
946.864	0.0126814
946.943	0.0125142
947.021	0.0126733
947.099	0.0127896
947.177	0.0127334
947.255	0.0125728
947.333	0.0126211
947.411	0.0127738
947.489	0.0126925
947.568	0.0127164
947.646	0.0126108
947.724	0.0126994
947.802	0.0127197
947.880	0.0124850
947.958	0.0124753
948.036	0.0125255
948.114	0.0125727
948.193	0.0125232
948.271	0.0123986
948.349	0.0123659
948.427	0.0123439
948.505	0.0123059
948.583	0.0124352
948.661	0.0123162
948.739	0.0122800
948.818	0.0123501
948.896	0.0123785
948.974	0.0122927
949.052	0.0123796
949.130	0.0122271
949.208	0.0122927
949.286	0.0123938
949.364	0.0124377
949.443	0.0124361
949.521	0.0124685
949.599	0.0124268
949.677	0.0124143
949.755	0.0124939
949.833	0.0125084
949.911	0.0125002
949.989	0.0126210
950.068	0.0124469
950.146	0.0125035
950.224	0.0124718
950.302	0.0125781
950.380	0.0123552
950.458	0.0125542
950.536	0.0124982
950.614	0.0124364
950.693	0.0124206
950.771	0.0125470
950.849	0.0125373
950.927	0.0123576
951.005	0.0124834
951.083	0.0124870
951.161	0.0124807
951.239	0.0123934
951.318	0.0124712
951.396	0.0124964
951.474	0.0125597
951.552	0.0125063
951.630	0.0124948
951.708	0.0123022
951.786	0.0122390
951.864	0.0125028
951.943	0.0124142
952.021	0.0124826
952.099	0.0123869
952.177	0.0122383
952.255	0.0124517
952.333	0.0122708
952.411	0.0124963
952.489	0.0125377
952.568	0.0124876
952.646	0.0124918
952.724	0.0124738
952.802	0.0124649
952.880	0.0125717
952.958	0.0123627
953.036	0.0124369
953.114	0.0125481
953.193	0.0125029
953.271	0.0124290
953.349	0.0125169
953.427	0.0124655
953.505	0.0124369
953.583	0.0124371
953.661	0.0124047
953.739	0.0123169
953.818	0.0123264
953.896	0.0123578
953.974	0.0124603
954.052	0.0124238
954.130	0.0124595
954.208	0.0123956
954.286	0.0124409
954.364	0.0125168
954.443	0.0123037
954.521	0.0124117
954.599	0.0125446
954.677	0.0125562
954.755	0.0125772
954.833	0.0124452
954.911	0.0125218
954.989	0.0123388
955.068	0.0125689
955.146	0.0126059
955.224	0.0125191
955.302	0.0125982
955.380	0.0125706
955.458	0.0126405
955.536	0.0124151
955.614	0.0125252
955.693	0.0126269
955.771	0.0125879
955.849	0.0126440
955.927	0.0124534
956.005	0.0124604
956.083	0.0124479
956.161	0.0126077
956.239	0.0124527
956.318	0.0124712
956.396	0.0124587
956.474	0.0126026
956.552	0.0125697
956.630	0.0124514
956.708	0.0124278
956.786	0.0123761
956.864	0.0124209
956.943	0.0125463
957.021	0.0124464
957.099	0.0126215
957.177	0.0126471
957.255	0.0125932
957.333	0.0126340
957.411	0.0125642
957.489	0.0127177
957.568	0.0125250
957.646	0.0125653
957.724	0.0124755
957.802	0.0125043
957.880	0.0126243
957.958	0.0125697
958.036	0.0123640
958.114	0.0124685
958.193	0.0124306
958.271	0.0123548
958.349	0.0124504
958.427	0.0125667
958.505	0.0124760
958.583	0.0124941
958.661	0.0125620
958.739	0.0124581
958.818	0.0124989
958.896	0.0125559
958.974	0.0123763
959.052	0.0125743
959.130	0.0125284
959.208	0.0124730
959.286	0.0124419
959.364	0.0123697
959.443	0.0124846
959.521	0.0123887
959.599	0.0124461
959.677	0.0125127
959.755	0.0123828
959.833	0.0123812
959.911	0.0125529
