05/07/2022	17:28:13	Ver.	4.1	UNKNOWN
Optical Delay	639.989416	Delta X		0.078125	Sweeps	1	Scan Rate	0/0
Coordinates	Axis 1	NaN	Axis 2	NaN	Axis 3	NaN	Axis 4	NaN	Axis 5	NaN	Axis 6	0.000000
TX Power	0.000000	RX Power	0.000000

639.989	0.0134003
640.068	0.0134345
640.146	0.0134835
640.224	0.0134162
640.302	0.0134390
640.380	0.0133607
640.458	0.0133909
640.536	0.0135246
640.614	0.0135050
640.693	0.0134608
640.771	0.0134811
640.849	0.0134391
640.927	0.0136128
641.005	0.0136272
641.083	0.0134564
641.161	0.0134373
641.239	0.0134437
641.318	0.0136462
641.396	0.0134217
641.474	0.0133920
641.552	0.0135937
641.630	0.0134836
641.708	0.0134726
641.786	0.0135396
641.864	0.0136710
641.943	0.0135229
642.021	0.0134992
642.099	0.0136282
642.177	0.0135151
642.255	0.0133495
642.333	0.0133749
642.411	0.0135426
642.489	0.0135613
642.568	0.0135789
642.646	0.0134013
642.724	0.0134197
642.802	0.0135294
642.880	0.0135895
642.958	0.0133662
643.036	0.0134792
643.114	0.0132751
643.193	0.0135185
643.271	0.0134061
643.349	0.0134570
643.427	0.0134634
643.505	0.0135151
643.583	0.0134065
643.661	0.0134446
643.739	0.0133680
643.818	0.0135300
643.896	0.0134422
643.974	0.0133749
644.052	0.0134410
644.130	0.0133556
644.208	0.0133392
644.286	0.0134644
644.364	0.0135445
644.443	0.0135606
644.521	0.0133736
644.599	0.0134085
644.677	0.0133498
644.755	0.0134953
644.833	0.0134892
644.911	0.0135034
644.989	0.0132908
645.068	0.0134024
645.146	0.0134769
645.224	0.0135377
645.302	0.0134119
645.380	0.0133944
645.458	0.0133910
645.536	0.0134364
645.614	0.0134953
645.693	0.0133607
645.771	0.0133286
645.849	0.0133265
645.927	0.0134150
646.005	0.0135441
646.083	0.0134850
646.161	0.0134439
646.239	0.0135602
646.318	0.0134174
646.396	0.0134750
646.474	0.0133784
646.552	0.0134136
646.630	0.0134318
646.708	0.0133939
646.786	0.0134212
646.864	0.0136135
646.943	0.0134289
647.021	0.0134090
647.099	0.0134624
647.177	0.0134680
647.255	0.0134421
647.333	0.0135472
647.411	0.0135173
647.489	0.0134463
647.568	0.0134073
647.646	0.0136160
647.724	0.0133958
647.802	0.0134571
647.880	0.0135685
647.958	0.0134344
648.036	0.0136034
648.114	0.0134070
648.193	0.0135886
648.271	0.0133972
648.349	0.0135921
648.427	0.0134692
648.505	0.0136071
648.583	0.0135523
648.661	0.0135202
648.739	0.0135571
648.818	0.0134971
648.896	0.0135867
648.974	0.0134679
649.052	0.0134631
649.130	0.0133936
649.208	0.0133517
649.286	0.0135324
649.364	0.0132629
649.443	0.0133192
649.521	0.0133414
649.599	0.0131886
649.677	0.0133921
649.755	0.0132800
649.833	0.0133369
649.911	0.0131563
649.989	0.0132110
650.068	0.0133511
650.146	0.0133497
650.224	0.0132297
650.302	0.0133856
650.380	0.0133980
650.458	0.0133728
650.536	0.0133453
650.614	0.0133549
650.693	0.0136391
650.771	0.0135924
650.849	0.0134914
650.927	0.0136780
651.005	0.0135457
651.083	0.0134737
651.161	0.0135488
651.239	0.0135711
651.318	0.0136011
651.396	0.0134937
651.474	0.0134121
651.552	0.0135232
651.630	0.0132839
651.708	0.0133793
651.786	0.0132942
651.864	0.0133273
651.943	0.0131266
652.021	0.0132284
652.099	0.0131778
652.177	0.0132849
652.255	0.0130962
652.333	0.0131091
652.411	0.0131269
652.489	0.0129208
652.568	0.0129279
652.646	0.0130320
652.724	0.0130484
652.802	0.0131670
652.880	0.0131638
652.958	0.0133086
653.036	0.0132974
653.114	0.0134116
653.193	0.0135491
653.271	0.0134363
653.349	0.0135220
653.427	0.0137654
653.505	0.0138264
653.583	0.0138920
653.661	0.0138611
653.739	0.0140417
653.818	0.0138921
653.896	0.0139349
653.974	0.0139986
654.052	0.0139680
654.130	0.0139700
654.208	0.0137475
654.286	0.0136900
654.364	0.0135696
654.443	0.0135914
654.521	0.0133896
654.599	0.0133189
654.677	0.0132185
654.755	0.0129929
654.833	0.0130270
654.911	0.0129090
654.989	0.0128158
655.068	0.0127868
655.146	0.0127273
655.224	0.0127118
655.302	0.0125922
655.380	0.0125436
655.458	0.0127100
655.536	0.0128635
655.614	0.0127314
655.693	0.0129356
655.771	0.0128680
655.849	0.0131384
655.927	0.0131535
656.005	0.0132450
656.083	0.0133863
656.161	0.0136043
656.239	0.0137617
656.318	0.0138995
656.396	0.0140919
656.474	0.0141770
656.552	0.0141619
656.630	0.0142593
656.708	0.0145264
656.786	0.0145676
656.864	0.0144327
656.943	0.0144187
657.021	0.0144061
657.099	0.0143372
657.177	0.0142333
657.255	0.0142017
657.333	0.0141399
657.411	0.0138837
657.489	0.0137201
657.568	0.0135359
657.646	0.0133045
657.724	0.0130254
657.802	0.0129062
657.880	0.0128127
657.958	0.0126083
658.036	0.0124656
658.114	0.0123476
658.193	0.0122820
658.271	0.0121689
658.349	0.0121065
658.427	0.0121629
658.505	0.0120271
658.583	0.0122324
658.661	0.0122354
658.739	0.0123010
658.818	0.0125802
658.896	0.0127120
658.974	0.0127578
659.052	0.0129261
659.130	0.0130199
659.208	0.0133201
659.286	0.0134129
659.364	0.0137160
659.443	0.0137892
659.521	0.0139426
659.599	0.0141889
659.677	0.0143299
659.755	0.0143964
659.833	0.0143886
659.911	0.0145304
659.989	0.0144940
660.068	0.0146514
660.146	0.0145309
660.224	0.0143977
660.302	0.0144484
660.380	0.0143362
660.458	0.0142349
660.536	0.0141792
660.614	0.0140705
660.693	0.0139436
660.771	0.0139210
660.849	0.0136677
660.927	0.0136316
661.005	0.0136507
661.083	0.0132348
661.161	0.0130578
661.239	0.0130861
661.318	0.0129133
661.396	0.0127679
661.474	0.0128375
661.552	0.0126927
661.630	0.0127858
661.708	0.0127297
661.786	0.0127027
661.864	0.0126585
661.943	0.0126735
662.021	0.0126398
662.099	0.0127457
662.177	0.0126032
662.255	0.0127182
662.333	0.0127837
662.411	0.0127013
662.489	0.0126376
662.568	0.0128584
662.646	0.0129337
662.724	0.0130005
662.802	0.0131918
662.880	0.0133668
662.958	0.0132416
663.036	0.0134241
663.114	0.0136474
663.193	0.0137314
663.271	0.0136672
663.349	0.0138435
663.427	0.0138712
663.505	0.0140458
663.583	0.0140839
663.661	0.0141436
663.739	0.0141245
663.818	0.0141776
663.896	0.0140782
663.974	0.0142966
664.052	0.0143425
664.130	0.0142207
664.208	0.0140884
664.286	0.0142004
664.364	0.0141408
664.443	0.0141586
664.521	0.0141008
664.599	0.0139103
664.677	0.0138268
664.755	0.0136614
664.833	0.0138043
664.911	0.0136050
664.989	0.0137651
665.068	0.0135309
665.146	0.0134863
665.224	0.0135358
665.302	0.0135310
665.380	0.0133463
665.458	0.0131463
665.536	0.0132013
665.614	0.0131759
665.693	0.0128873
665.771	0.0129060
665.849	0.0128352
665.927	0.0127693
666.005	0.0125780
666.083	0.0127348
666.161	0.0124548
666.239	0.0125024
666.318	0.0123695
666.396	0.0124434
666.474	0.0127021
666.552	0.0125287
666.630	0.0124046
666.708	0.0125877
666.786	0.0127327
666.864	0.0127689
666.943	0.0128257
667.021	0.0130212
667.099	0.0130626
667.177	0.0132251
667.255	0.0134967
667.333	0.0136069
667.411	0.0135899
667.489	0.0138600
667.568	0.0139912
667.646	0.0140309
667.724	0.0142466
667.802	0.0143356
667.880	0.0143137
667.958	0.0143553
668.036	0.0142534
668.114	0.0142624
668.193	0.0143398
668.271	0.0142229
668.349	0.0140818
668.427	0.0141479
668.505	0.0138947
668.583	0.0138027
668.661	0.0137930
668.739	0.0136686
668.818	0.0134670
668.896	0.0132565
668.974	0.0132257
669.052	0.0130625
669.130	0.0130483
669.208	0.0128420
669.286	0.0127981
669.364	0.0127919
669.443	0.0127590
669.521	0.0126295
669.599	0.0125407
669.677	0.0126994
669.755	0.0128003
669.833	0.0129740
669.911	0.0129311
669.989	0.0131448
670.068	0.0133134
670.146	0.0134066
670.224	0.0135632
670.302	0.0137722
670.380	0.0138554
670.458	0.0139552
670.536	0.0140614
670.614	0.0141872
670.693	0.0141876
670.771	0.0139815
670.849	0.0140786
670.927	0.0139713
671.005	0.0139427
671.083	0.0138345
671.161	0.0135195
671.239	0.0133450
671.318	0.0132616
671.396	0.0131745
671.474	0.0131174
671.552	0.0127823
671.630	0.0128046
671.708	0.0125347
671.786	0.0126220
671.864	0.0124700
671.943	0.0125051
672.021	0.0124697
672.099	0.0124149
672.177	0.0124097
672.255	0.0124260
672.333	0.0126056
672.411	0.0127863
672.489	0.0128487
672.568	0.0129140
672.646	0.0131852
672.724	0.0131304
672.802	0.0131799
672.880	0.0134071
672.958	0.0135032
673.036	0.0136282
673.114	0.0137761
673.193	0.0138207
673.271	0.0138176
673.349	0.0138927
673.427	0.0141028
673.505	0.0140386
673.583	0.0139709
673.661	0.0140560
673.739	0.0141733
673.818	0.0138537
673.896	0.0139474
673.974	0.0139904
674.052	0.0138104
674.130	0.0137350
674.208	0.0137370
674.286	0.0135331
674.364	0.0135346
674.443	0.0133826
674.521	0.0132978
674.599	0.0131800
674.677	0.0133161
674.755	0.0131361
674.833	0.0132490
674.911	0.0132130
674.989	0.0132556
675.068	0.0132292
675.146	0.0134864
675.224	0.0133703
675.302	0.0134277
675.380	0.0137166
675.458	0.0135514
675.536	0.0137904
675.614	0.0138297
675.693	0.0139339
675.771	0.0140202
675.849	0.0140820
675.927	0.0138850
676.005	0.0139107
676.083	0.0138712
676.161	0.0138116
676.239	0.0134971
676.318	0.0134191
676.396	0.0133634
676.474	0.0131347
676.552	0.0128278
676.630	0.0126840
676.708	0.0124726
676.786	0.0121677
676.864	0.0121847
676.943	0.0118748
677.021	0.0118139
677.099	0.0118845
677.177	0.0117215
677.255	0.0118739
677.333	0.0117985
677.411	0.0119946
677.489	0.0120255
677.568	0.0121449
677.646	0.0124165
677.724	0.0122770
677.802	0.0125735
677.880	0.0130092
677.958	0.0131914
678.036	0.0133905
678.114	0.0135406
678.193	0.0138768
678.271	0.0140298
678.349	0.0142267
678.427	0.0143993
678.505	0.0146078
678.583	0.0148570
678.661	0.0148646
678.739	0.0149805
678.818	0.0149638
678.896	0.0149828
678.974	0.0149524
679.052	0.0150222
679.130	0.0149020
679.208	0.0149053
679.286	0.0147064
679.364	0.0145137
679.443	0.0143292
679.521	0.0144373
679.599	0.0142625
679.677	0.0140656
679.755	0.0139531
679.833	0.0139729
679.911	0.0137611
679.989	0.0136743
680.068	0.0135315
680.146	0.0134824
680.224	0.0135489
680.302	0.0135241
680.380	0.0136035
680.458	0.0136842
680.536	0.0135927
680.614	0.0136771
680.693	0.0137038
680.771	0.0136894
680.849	0.0138974
680.927	0.0137700
681.005	0.0135708
681.083	0.0135564
681.161	0.0134914
681.239	0.0133501
681.318	0.0133062
681.396	0.0131190
681.474	0.0128067
681.552	0.0127969
681.630	0.0125990
681.708	0.0123499
681.786	0.0121659
681.864	0.0118368
681.943	0.0118612
682.021	0.0115517
682.099	0.0113985
682.177	0.0112857
682.255	0.0112957
682.333	0.0112807
682.411	0.0114194
682.489	0.0111958
682.568	0.0113451
682.646	0.0115041
682.724	0.0116351
682.802	0.0118532
682.880	0.0120435
682.958	0.0122227
683.036	0.0126966
683.114	0.0130352
683.193	0.0134149
683.271	0.0135767
683.349	0.0142587
683.427	0.0147059
683.505	0.0149992
683.583	0.0152129
683.661	0.0155991
683.739	0.0158879
683.818	0.0160018
683.896	0.0161504
683.974	0.0164314
684.052	0.0166611
684.130	0.0164499
684.208	0.0163168
684.286	0.0163523
684.364	0.0163463
684.443	0.0161536
684.521	0.0159949
684.599	0.0159006
684.677	0.0156087
684.755	0.0151360
684.833	0.0149156
684.911	0.0147106
684.989	0.0143686
685.068	0.0142170
685.146	0.0137852
685.224	0.0134086
685.302	0.0133379
685.380	0.0130484
685.458	0.0127407
685.536	0.0125838
685.614	0.0123979
685.693	0.0120892
685.771	0.0118871
685.849	0.0117554
685.927	0.0116872
686.005	0.0115485
686.083	0.0115570
686.161	0.0115703
686.239	0.0115961
686.318	0.0115117
686.396	0.0116333
686.474	0.0118062
686.552	0.0116261
686.630	0.0118719
686.708	0.0119009
686.786	0.0119638
686.864	0.0120248
686.943	0.0119242
687.021	0.0118863
687.099	0.0121645
687.177	0.0122504
687.255	0.0121593
687.333	0.0123076
687.411	0.0124287
687.489	0.0124632
687.568	0.0125630
687.646	0.0126700
687.724	0.0128468
687.802	0.0129691
687.880	0.0131557
687.958	0.0131440
688.036	0.0133733
688.114	0.0135919
688.193	0.0137592
688.271	0.0139906
688.349	0.0142157
688.427	0.0143845
688.505	0.0145753
688.583	0.0147340
688.661	0.0150920
688.739	0.0152984
688.818	0.0155518
688.896	0.0155761
688.974	0.0155347
689.052	0.0158495
689.130	0.0157919
689.208	0.0158055
689.286	0.0156734
689.364	0.0156846
689.443	0.0155000
689.521	0.0152389
689.599	0.0150780
689.677	0.0148042
689.755	0.0147401
689.833	0.0143111
689.911	0.0139660
689.989	0.0140229
690.068	0.0136520
690.146	0.0133488
690.224	0.0131364
690.302	0.0129350
690.380	0.0127910
690.458	0.0127709
690.536	0.0123812
690.614	0.0123803
690.693	0.0123169
690.771	0.0121333
690.849	0.0121728
690.927	0.0120827
691.005	0.0122279
691.083	0.0123000
691.161	0.0121902
691.239	0.0122945
691.318	0.0124686
691.396	0.0125242
691.474	0.0124178
691.552	0.0125237
691.630	0.0127455
691.708	0.0129086
691.786	0.0130572
691.864	0.0130175
691.943	0.0130962
692.021	0.0130605
692.099	0.0131235
692.177	0.0130039
692.255	0.0130785
692.333	0.0130572
692.411	0.0131351
692.489	0.0129938
692.568	0.0129651
692.646	0.0129549
692.724	0.0127647
692.802	0.0126868
692.880	0.0126320
692.958	0.0125510
693.036	0.0126299
693.114	0.0124656
693.193	0.0123569
693.271	0.0124368
693.349	0.0125301
693.427	0.0124427
693.505	0.0124792
693.583	0.0126311
693.661	0.0126594
693.739	0.0127198
693.818	0.0128838
693.896	0.0128168
693.974	0.0130184
694.052	0.0130304
694.130	0.0134467
694.208	0.0135720
694.286	0.0136815
694.364	0.0138120
694.443	0.0141184
694.521	0.0143074
694.599	0.0144843
694.677	0.0146040
694.755	0.0148072
694.833	0.0150275
694.911	0.0152260
694.989	0.0153767
695.068	0.0154341
695.146	0.0153754
695.224	0.0154601
695.302	0.0154538
695.380	0.0154298
695.458	0.0154958
695.536	0.0155045
695.614	0.0153139
695.693	0.0152257
695.771	0.0151251
695.849	0.0150968
695.927	0.0148592
696.005	0.0147031
696.083	0.0145654
696.161	0.0144003
696.239	0.0143543
696.318	0.0142542
696.396	0.0140242
696.474	0.0137351
696.552	0.0137029
696.630	0.0134096
696.708	0.0133562
696.786	0.0130219
696.864	0.0128541
696.943	0.0125706
697.021	0.0121871
697.099	0.0119935
697.177	0.0117513
697.255	0.0117522
697.333	0.0114426
697.411	0.0110983
697.489	0.0108195
697.568	0.0106596
697.646	0.0106294
697.724	0.0105087
697.802	0.0103398
697.880	0.0104149
697.958	0.0104291
698.036	0.0105419
698.114	0.0105767
698.193	0.0107239
698.271	0.0109235
698.349	0.0110844
698.427	0.0114421
698.505	0.0117750
698.583	0.0119456
698.661	0.0122635
698.739	0.0125587
698.818	0.0128999
698.896	0.0132848
698.974	0.0135581
699.052	0.0137527
699.130	0.0142364
699.208	0.0144822
699.286	0.0147097
699.364	0.0148513
699.443	0.0149525
699.521	0.0150503
699.599	0.0154263
699.677	0.0154802
699.755	0.0152983
699.833	0.0154108
699.911	0.0154455
699.989	0.0153539
700.068	0.0155327
700.146	0.0157176
700.224	0.0158277
700.302	0.0157237
700.380	0.0155357
700.458	0.0156476
700.536	0.0155623
700.614	0.0157302
700.693	0.0157253
700.771	0.0156055
700.849	0.0155241
700.927	0.0154704
701.005	0.0154131
701.083	0.0152074
701.161	0.0150464
701.239	0.0148495
701.318	0.0145466
701.396	0.0144966
701.474	0.0142193
701.552	0.0141250
701.630	0.0137670
701.708	0.0136960
701.786	0.0134210
701.864	0.0132024
701.943	0.0129160
702.021	0.0128368
702.099	0.0125881
702.177	0.0122211
702.255	0.0120848
702.333	0.0120904
702.411	0.0118511
702.489	0.0115430
702.568	0.0115795
702.646	0.0113009
702.724	0.0111939
702.802	0.0112068
702.880	0.0112198
702.958	0.0110734
703.036	0.0109426
703.114	0.0109559
703.193	0.0109721
703.271	0.0110969
703.349	0.0109614
703.427	0.0110665
703.505	0.0111787
703.583	0.0112897
703.661	0.0113924
703.739	0.0116512
703.818	0.0117310
703.896	0.0119302
703.974	0.0123658
704.052	0.0123740
704.130	0.0126046
704.208	0.0130105
704.286	0.0131686
704.364	0.0133584
704.443	0.0136773
704.521	0.0138886
704.599	0.0141059
704.677	0.0143621
704.755	0.0144936
704.833	0.0146744
704.911	0.0147058
704.989	0.0148879
705.068	0.0151235
705.146	0.0152603
705.224	0.0151781
705.302	0.0154214
705.380	0.0155202
705.458	0.0154000
705.536	0.0154385
705.614	0.0155456
705.693	0.0155756
705.771	0.0154095
705.849	0.0153472
705.927	0.0154468
706.005	0.0153207
706.083	0.0153252
706.161	0.0152866
706.239	0.0152862
706.318	0.0153922
706.396	0.0153965
706.474	0.0152605
706.552	0.0151952
706.630	0.0149688
706.708	0.0150282
706.786	0.0149796
706.864	0.0147974
706.943	0.0147247
707.021	0.0145364
707.099	0.0141319
707.177	0.0141081
707.255	0.0139082
707.333	0.0134575
707.411	0.0132016
707.489	0.0128204
707.568	0.0128108
707.646	0.0125787
707.724	0.0122230
707.802	0.0119700
707.880	0.0119805
707.958	0.0116870
708.036	0.0114874
708.114	0.0114246
708.193	0.0112177
708.271	0.0111253
708.349	0.0112080
708.427	0.0112813
708.505	0.0111985
708.583	0.0113725
708.661	0.0112688
708.739	0.0116324
708.818	0.0115875
708.896	0.0116762
708.974	0.0118558
709.052	0.0119531
709.130	0.0120400
709.208	0.0120697
709.286	0.0121972
709.364	0.0123232
709.443	0.0124751
709.521	0.0125712
709.599	0.0126187
709.677	0.0126560
709.755	0.0128754
709.833	0.0131694
709.911	0.0133017
709.989	0.0133436
710.068	0.0135661
710.146	0.0138428
710.224	0.0139515
710.302	0.0141082
710.380	0.0143434
710.458	0.0145303
710.536	0.0147433
710.614	0.0147072
710.693	0.0148447
710.771	0.0149490
710.849	0.0151904
710.927	0.0152200
711.005	0.0152855
711.083	0.0151592
711.161	0.0152927
711.239	0.0153781
711.318	0.0153967
711.396	0.0152090
711.474	0.0152273
711.552	0.0152483
711.630	0.0151826
711.708	0.0150428
711.786	0.0150698
711.864	0.0149226
711.943	0.0146924
712.021	0.0147852
712.099	0.0146500
712.177	0.0144260
712.255	0.0142390
712.333	0.0140480
712.411	0.0140221
712.489	0.0139513
712.568	0.0137231
712.646	0.0134959
712.724	0.0134473
712.802	0.0132525
712.880	0.0131411
712.958	0.0127711
713.036	0.0127127
713.114	0.0127210
713.193	0.0125244
713.271	0.0126082
713.349	0.0122501
713.427	0.0123093
713.505	0.0123187
713.583	0.0122475
713.661	0.0122327
713.739	0.0121688
713.818	0.0120341
713.896	0.0121404
713.974	0.0121507
714.052	0.0120777
714.130	0.0121181
714.208	0.0120831
714.286	0.0121572
714.364	0.0121772
714.443	0.0120345
714.521	0.0122031
714.599	0.0120625
714.677	0.0121067
714.755	0.0121297
714.833	0.0122367
714.911	0.0124586
714.989	0.0122028
715.068	0.0121687
715.146	0.0122093
715.224	0.0123733
715.302	0.0125322
715.380	0.0125222
715.458	0.0125362
715.536	0.0129232
715.614	0.0129209
715.693	0.0131141
715.771	0.0131400
715.849	0.0133067
715.927	0.0133793
716.005	0.0137040
716.083	0.0137612
716.161	0.0140468
716.239	0.0142419
716.318	0.0145179
716.396	0.0145420
716.474	0.0148177
716.552	0.0148775
716.630	0.0150948
716.708	0.0152898
716.786	0.0154323
716.864	0.0153423
716.943	0.0154420
717.021	0.0154796
717.099	0.0154958
717.177	0.0153973
717.255	0.0152699
717.333	0.0151567
717.411	0.0150517
717.489	0.0149787
717.568	0.0148100
717.646	0.0145840
717.724	0.0144955
717.802	0.0140351
717.880	0.0140107
717.958	0.0138058
718.036	0.0134405
718.114	0.0133345
718.193	0.0132442
718.271	0.0129986
718.349	0.0129215
718.427	0.0127364
718.505	0.0127836
718.583	0.0126443
718.661	0.0125323
718.739	0.0124658
718.818	0.0122829
718.896	0.0125000
718.974	0.0125216
719.052	0.0126133
719.130	0.0127628
719.208	0.0126320
719.286	0.0125813
719.364	0.0129373
719.443	0.0129308
719.521	0.0129314
719.599	0.0129224
719.677	0.0129802
719.755	0.0128999
719.833	0.0129939
719.911	0.0129494
719.989	0.0130987
720.068	0.0131540
720.146	0.0128324
720.224	0.0129740
720.302	0.0128747
720.380	0.0128475
720.458	0.0128978
720.536	0.0128930
720.614	0.0129530
720.693	0.0128758
720.771	0.0129353
720.849	0.0129540
720.927	0.0128627
721.005	0.0129718
721.083	0.0128838
721.161	0.0128902
721.239	0.0130386
721.318	0.0130383
721.396	0.0131672
721.474	0.0132269
721.552	0.0133463
721.630	0.0133294
721.708	0.0135281
721.786	0.0133817
721.864	0.0135737
721.943	0.0135327
722.021	0.0135828
722.099	0.0137555
722.177	0.0137463
722.255	0.0138165
722.333	0.0137338
722.411	0.0139886
722.489	0.0140462
722.568	0.0140361
722.646	0.0140289
722.724	0.0141956
722.802	0.0142432
722.880	0.0142921
722.958	0.0143343
723.036	0.0143800
723.114	0.0143873
723.193	0.0145846
723.271	0.0145739
723.349	0.0144759
723.427	0.0145744
723.505	0.0146255
723.583	0.0143807
723.661	0.0144933
723.739	0.0143396
723.818	0.0143648
723.896	0.0144975
723.974	0.0143488
724.052	0.0141852
724.130	0.0141332
724.208	0.0140009
724.286	0.0139828
724.364	0.0140126
724.443	0.0137163
724.521	0.0135351
724.599	0.0134097
724.677	0.0133201
724.755	0.0132446
724.833	0.0130585
724.911	0.0130128
724.989	0.0129189
725.068	0.0126295
725.146	0.0125612
725.224	0.0125092
725.302	0.0124343
725.380	0.0121462
725.458	0.0120984
725.536	0.0119912
725.614	0.0119888
725.693	0.0119976
725.771	0.0120132
725.849	0.0118787
725.927	0.0119153
726.005	0.0118787
726.083	0.0119567
726.161	0.0121828
726.239	0.0122009
726.318	0.0123830
726.396	0.0124280
726.474	0.0125717
726.552	0.0127256
726.630	0.0129384
726.708	0.0130676
726.786	0.0132402
726.864	0.0133488
726.943	0.0135868
727.021	0.0136178
727.099	0.0138359
727.177	0.0141133
727.255	0.0141094
727.333	0.0141712
727.411	0.0143283
727.489	0.0142935
727.568	0.0142785
727.646	0.0143498
727.724	0.0143755
727.802	0.0144098
727.880	0.0143369
727.958	0.0143556
728.036	0.0142557
728.114	0.0140397
728.193	0.0142358
728.271	0.0140351
728.349	0.0141888
728.427	0.0141633
728.505	0.0139993
728.583	0.0140021
728.661	0.0138007
728.739	0.0139814
728.818	0.0139124
728.896	0.0139400
728.974	0.0141043
729.052	0.0139355
729.130	0.0138552
729.208	0.0139915
729.286	0.0138933
729.364	0.0137391
729.443	0.0138311
729.521	0.0138391
729.599	0.0137274
729.677	0.0137170
729.755	0.0135929
729.833	0.0136291
729.911	0.0134403
729.989	0.0134519
730.068	0.0133984
730.146	0.0132343
730.224	0.0132993
730.302	0.0132774
730.380	0.0131411
730.458	0.0130199
730.536	0.0131302
730.614	0.0130330
730.693	0.0130775
730.771	0.0131055
730.849	0.0131402
730.927	0.0130434
731.005	0.0131384
731.083	0.0131820
731.161	0.0130095
731.239	0.0131341
731.318	0.0131487
731.396	0.0130630
731.474	0.0131104
731.552	0.0130017
731.630	0.0129417
731.708	0.0130002
731.786	0.0129098
731.864	0.0129935
731.943	0.0130024
732.021	0.0128867
732.099	0.0129228
732.177	0.0128676
732.255	0.0128264
732.333	0.0128148
732.411	0.0130327
732.489	0.0130695
732.568	0.0129094
732.646	0.0132124
732.724	0.0131764
732.802	0.0132367
732.880	0.0135375
732.958	0.0135339
733.036	0.0135833
733.114	0.0136071
733.193	0.0135081
733.271	0.0138076
733.349	0.0137410
733.427	0.0138211
733.505	0.0139521
733.583	0.0138703
733.661	0.0139978
733.739	0.0140434
733.818	0.0140694
733.896	0.0139233
733.974	0.0139884
734.052	0.0140776
734.130	0.0139261
734.208	0.0138311
734.286	0.0139650
734.364	0.0140157
734.443	0.0138081
734.521	0.0138958
734.599	0.0138183
734.677	0.0138232
734.755	0.0136475
734.833	0.0135460
734.911	0.0136546
734.989	0.0135248
735.068	0.0134041
735.146	0.0132822
735.224	0.0131923
735.302	0.0131241
735.380	0.0130595
735.458	0.0130003
735.536	0.0129769
735.614	0.0129296
735.693	0.0129340
735.771	0.0129243
735.849	0.0129970
735.927	0.0128070
736.005	0.0129137
736.083	0.0128207
736.161	0.0127708
736.239	0.0129778
736.318	0.0130750
736.396	0.0132162
736.474	0.0131258
736.552	0.0131080
736.630	0.0133854
736.708	0.0134885
736.786	0.0135157
736.864	0.0135358
736.943	0.0135695
737.021	0.0137302
737.099	0.0136870
737.177	0.0136639
737.255	0.0137336
737.333	0.0137605
737.411	0.0136871
737.489	0.0136816
737.568	0.0135999
737.646	0.0135163
737.724	0.0134585
737.802	0.0133853
737.880	0.0131871
737.958	0.0132598
738.036	0.0132159
738.114	0.0132393
738.193	0.0131685
738.271	0.0129326
738.349	0.0131985
738.427	0.0131889
738.505	0.0130886
738.583	0.0130914
738.661	0.0130107
738.739	0.0130305
738.818	0.0130992
738.896	0.0130533
738.974	0.0131317
739.052	0.0131274
739.130	0.0130440
739.208	0.0131600
739.286	0.0131658
739.364	0.0134588
739.443	0.0133713
739.521	0.0134710
739.599	0.0134437
739.677	0.0133926
739.755	0.0135889
739.833	0.0135766
739.911	0.0136716
739.989	0.0136037
740.068	0.0134625
740.146	0.0137064
740.224	0.0136840
740.302	0.0136270
740.380	0.0135644
740.458	0.0136527
740.536	0.0135561
740.614	0.0136742
740.693	0.0135023
740.771	0.0134962
740.849	0.0134100
740.927	0.0133603
741.005	0.0133659
741.083	0.0134103
741.161	0.0134284
741.239	0.0134370
741.318	0.0134414
741.396	0.0134280
741.474	0.0134284
741.552	0.0134666
741.630	0.0133694
741.708	0.0134678
741.786	0.0134148
741.864	0.0135297
741.943	0.0134703
742.021	0.0134198
742.099	0.0135274
742.177	0.0133508
742.255	0.0134827
742.333	0.0134818
742.411	0.0133575
742.489	0.0134389
742.568	0.0135007
742.646	0.0134634
742.724	0.0133716
742.802	0.0134165
742.880	0.0133771
742.958	0.0134579
743.036	0.0133066
743.114	0.0133123
743.193	0.0132533
743.271	0.0133009
743.349	0.0132890
743.427	0.0133398
743.505	0.0133225
743.583	0.0133290
743.661	0.0134855
743.739	0.0133560
743.818	0.0133347
743.896	0.0134039
743.974	0.0134240
744.052	0.0133429
744.130	0.0133938
744.208	0.0133753
744.286	0.0133440
744.364	0.0133588
744.443	0.0134824
744.521	0.0133279
744.599	0.0132888
744.677	0.0132554
744.755	0.0133305
744.833	0.0134227
744.911	0.0132919
744.989	0.0132193
745.068	0.0132217
745.146	0.0132784
745.224	0.0132472
745.302	0.0132880
745.380	0.0131869
745.458	0.0132951
745.536	0.0132336
745.614	0.0132347
745.693	0.0132239
745.771	0.0132727
745.849	0.0133288
745.927	0.0132684
746.005	0.0134422
746.083	0.0134195
746.161	0.0133650
746.239	0.0135092
746.318	0.0133911
746.396	0.0136697
746.474	0.0135599
746.552	0.0135206
746.630	0.0136282
746.708	0.0134279
746.786	0.0136574
746.864	0.0136440
746.943	0.0136383
747.021	0.0136961
747.099	0.0136176
747.177	0.0138163
747.255	0.0138253
747.333	0.0138264
747.411	0.0139129
747.489	0.0137501
747.568	0.0137340
747.646	0.0137382
747.724	0.0137290
747.802	0.0137164
747.880	0.0138128
747.958	0.0136385
748.036	0.0135634
748.114	0.0136185
748.193	0.0133762
748.271	0.0135670
748.349	0.0133388
748.427	0.0132302
748.505	0.0132584
748.583	0.0131858
748.661	0.0132978
748.739	0.0129118
748.818	0.0130593
748.896	0.0130694
748.974	0.0129859
749.052	0.0131124
749.130	0.0131212
749.208	0.0130779
749.286	0.0131374
749.364	0.0133865
749.443	0.0132792
749.521	0.0133073
749.599	0.0134373
749.677	0.0133740
749.755	0.0133766
749.833	0.0135039
749.911	0.0136636
749.989	0.0135683
750.068	0.0135967
750.146	0.0136549
750.224	0.0135934
750.302	0.0136486
750.380	0.0136320
750.458	0.0136729
750.536	0.0136993
750.614	0.0136379
750.693	0.0136387
750.771	0.0135753
750.849	0.0137377
750.927	0.0134607
751.005	0.0134502
751.083	0.0135313
751.161	0.0133556
751.239	0.0133662
751.318	0.0133792
751.396	0.0133031
751.474	0.0132260
751.552	0.0132439
751.630	0.0133030
751.708	0.0132791
751.786	0.0131956
751.864	0.0133752
751.943	0.0133762
752.021	0.0133338
752.099	0.0133792
752.177	0.0133374
752.255	0.0132852
752.333	0.0133398
752.411	0.0135654
752.489	0.0133654
752.568	0.0133482
752.646	0.0134329
752.724	0.0134880
752.802	0.0135610
752.880	0.0135187
752.958	0.0136554
753.036	0.0135786
753.114	0.0135683
753.193	0.0136072
753.271	0.0136250
753.349	0.0135924
753.427	0.0137909
753.505	0.0139227
753.583	0.0139503
753.661	0.0138188
753.739	0.0137711
753.818	0.0139777
753.896	0.0139425
753.974	0.0138103
754.052	0.0137040
754.130	0.0137788
754.208	0.0137785
754.286	0.0136434
754.364	0.0135466
754.443	0.0134637
754.521	0.0134527
754.599	0.0133315
754.677	0.0133608
754.755	0.0131785
754.833	0.0132126
754.911	0.0131252
754.989	0.0129848
755.068	0.0129706
755.146	0.0130345
755.224	0.0130000
755.302	0.0129149
755.380	0.0128658
755.458	0.0127958
755.536	0.0129119
755.614	0.0129268
755.693	0.0129306
755.771	0.0131529
755.849	0.0131806
755.927	0.0132691
756.005	0.0132729
756.083	0.0132084
756.161	0.0133073
756.239	0.0134849
756.318	0.0134109
756.396	0.0135638
756.474	0.0135150
756.552	0.0135705
756.630	0.0135758
756.708	0.0136931
756.786	0.0137344
756.864	0.0137032
756.943	0.0137529
757.021	0.0137206
757.099	0.0135680
757.177	0.0135970
757.255	0.0136563
757.333	0.0134735
757.411	0.0134319
757.489	0.0134869
757.568	0.0134588
757.646	0.0133272
757.724	0.0133046
757.802	0.0132825
757.880	0.0132713
757.958	0.0131224
758.036	0.0131995
758.114	0.0130269
758.193	0.0130774
758.271	0.0130388
758.349	0.0131022
758.427	0.0131139
758.505	0.0129496
758.583	0.0128552
758.661	0.0129893
758.739	0.0130770
758.818	0.0130555
758.896	0.0131623
758.974	0.0131980
759.052	0.0133680
759.130	0.0132558
759.208	0.0133046
759.286	0.0133091
759.364	0.0134193
759.443	0.0134303
759.521	0.0134888
759.599	0.0133981
759.677	0.0135159
759.755	0.0137521
759.833	0.0135937
759.911	0.0135815
759.989	0.0135999
760.068	0.0136911
760.146	0.0135963
760.224	0.0136053
760.302	0.0136483
760.380	0.0136034
760.458	0.0137601
760.536	0.0135931
760.614	0.0135514
760.693	0.0135369
760.771	0.0134088
760.849	0.0134103
760.927	0.0134528
761.005	0.0134431
761.083	0.0133923
761.161	0.0133902
761.239	0.0133662
761.318	0.0132749
761.396	0.0131575
761.474	0.0131743
761.552	0.0132321
761.630	0.0132070
761.708	0.0132330
761.786	0.0132085
761.864	0.0132410
761.943	0.0130298
762.021	0.0129836
762.099	0.0131269
762.177	0.0130673
762.255	0.0131380
762.333	0.0129987
762.411	0.0132100
762.489	0.0132405
762.568	0.0131702
762.646	0.0131329
762.724	0.0132433
762.802	0.0132748
762.880	0.0132753
762.958	0.0131792
763.036	0.0134444
763.114	0.0133908
763.193	0.0134815
763.271	0.0133418
763.349	0.0134133
763.427	0.0134654
763.505	0.0133244
763.583	0.0133841
763.661	0.0135117
763.739	0.0135101
763.818	0.0134928
763.896	0.0134435
763.974	0.0135656
764.052	0.0136012
764.130	0.0135313
764.208	0.0134126
764.286	0.0134717
764.364	0.0134084
764.443	0.0134928
764.521	0.0133841
764.599	0.0133733
764.677	0.0133201
764.755	0.0132498
764.833	0.0133311
764.911	0.0132661
764.989	0.0134966
765.068	0.0132861
765.146	0.0133994
765.224	0.0133220
765.302	0.0134056
765.380	0.0132603
765.458	0.0132380
765.536	0.0134077
765.614	0.0135136
765.693	0.0133760
765.771	0.0132123
765.849	0.0134528
765.927	0.0133915
766.005	0.0132316
766.083	0.0133784
766.161	0.0134463
766.239	0.0133542
766.318	0.0135132
766.396	0.0134405
766.474	0.0135960
766.552	0.0134859
766.630	0.0135065
766.708	0.0135011
766.786	0.0134854
766.864	0.0135367
766.943	0.0135027
767.021	0.0135451
767.099	0.0135216
767.177	0.0135439
767.255	0.0134533
767.333	0.0134479
767.411	0.0136522
767.489	0.0134424
767.568	0.0134109
767.646	0.0134306
767.724	0.0135067
767.802	0.0133615
767.880	0.0135725
767.958	0.0136523
768.036	0.0135470
768.114	0.0133945
768.193	0.0134482
768.271	0.0134203
768.349	0.0132844
768.427	0.0133847
768.505	0.0132188
768.583	0.0133640
768.661	0.0133340
768.739	0.0131751
768.818	0.0134794
768.896	0.0133421
768.974	0.0133270
769.052	0.0132920
769.130	0.0132652
769.208	0.0133306
769.286	0.0134885
769.364	0.0134310
769.443	0.0134495
769.521	0.0134804
769.599	0.0134140
769.677	0.0135494
769.755	0.0135780
769.833	0.0135780
769.911	0.0136572
769.989	0.0134846
770.068	0.0134811
770.146	0.0136008
770.224	0.0134862
770.302	0.0135856
770.380	0.0135229
770.458	0.0136216
770.536	0.0134774
770.614	0.0134717
770.693	0.0135974
770.771	0.0135689
770.849	0.0133403
770.927	0.0132937
771.005	0.0134087
771.083	0.0133784
771.161	0.0133256
771.239	0.0132494
771.318	0.0134766
771.396	0.0133727
771.474	0.0133498
771.552	0.0134088
771.630	0.0134122
771.708	0.0133741
771.786	0.0133082
771.864	0.0133470
771.943	0.0134997
772.021	0.0135444
772.099	0.0134959
772.177	0.0135444
772.255	0.0135987
772.333	0.0135012
772.411	0.0136038
772.489	0.0138413
772.568	0.0138383
772.646	0.0137444
772.724	0.0137138
772.802	0.0137106
772.880	0.0136936
772.958	0.0137235
773.036	0.0137122
773.114	0.0136905
773.193	0.0137383
773.271	0.0136606
773.349	0.0137460
773.427	0.0136163
773.505	0.0135336
773.583	0.0135718
773.661	0.0136099
773.739	0.0135819
773.818	0.0134408
773.896	0.0135042
773.974	0.0133165
774.052	0.0134142
774.130	0.0132341
774.208	0.0134002
774.286	0.0132631
774.364	0.0131744
774.443	0.0132912
774.521	0.0131606
774.599	0.0132833
774.677	0.0131960
774.755	0.0131370
774.833	0.0131167
774.911	0.0131970
774.989	0.0132023
775.068	0.0131987
775.146	0.0131776
775.224	0.0133570
775.302	0.0132124
775.380	0.0133118
775.458	0.0132746
775.536	0.0133380
775.614	0.0132677
775.693	0.0135571
775.771	0.0134792
775.849	0.0135285
775.927	0.0136089
776.005	0.0136270
776.083	0.0136920
776.161	0.0137710
776.239	0.0137407
776.318	0.0138326
776.396	0.0138850
776.474	0.0138572
776.552	0.0138581
776.630	0.0137671
776.708	0.0137401
776.786	0.0136813
776.864	0.0136850
776.943	0.0136575
777.021	0.0136900
777.099	0.0136520
777.177	0.0135765
777.255	0.0135083
777.333	0.0135328
777.411	0.0136131
777.489	0.0135251
777.568	0.0134758
777.646	0.0135354
777.724	0.0135797
777.802	0.0135136
777.880	0.0133979
777.958	0.0134526
778.036	0.0133481
778.114	0.0133037
778.193	0.0133172
778.271	0.0133086
778.349	0.0133601
778.427	0.0133813
778.505	0.0133324
778.583	0.0133070
778.661	0.0132648
778.739	0.0132801
778.818	0.0132162
778.896	0.0132414
778.974	0.0133454
779.052	0.0132697
779.130	0.0132290
779.208	0.0132939
779.286	0.0132538
779.364	0.0132357
779.443	0.0133549
779.521	0.0134544
779.599	0.0134109
779.677	0.0134035
779.755	0.0135675
779.833	0.0135994
779.911	0.0135945
779.989	0.0135807
780.068	0.0136670
780.146	0.0136121
780.224	0.0136143
780.302	0.0136475
780.380	0.0136756
780.458	0.0137254
780.536	0.0138992
780.614	0.0137469
780.693	0.0137298
780.771	0.0136389
780.849	0.0136724
780.927	0.0137688
781.005	0.0136729
781.083	0.0137864
781.161	0.0136522
781.239	0.0137141
781.318	0.0135246
781.396	0.0134598
781.474	0.0135649
781.552	0.0134359
781.630	0.0134009
781.708	0.0134654
781.786	0.0135265
781.864	0.0134795
781.943	0.0133955
782.021	0.0134010
782.099	0.0134364
782.177	0.0134227
782.255	0.0134333
782.333	0.0133463
782.411	0.0134422
782.489	0.0134115
782.568	0.0133709
782.646	0.0133141
782.724	0.0133971
782.802	0.0134354
782.880	0.0134021
782.958	0.0132958
783.036	0.0134545
783.114	0.0133511
783.193	0.0133354
783.271	0.0133368
783.349	0.0134956
783.427	0.0133227
783.505	0.0133686
783.583	0.0132841
783.661	0.0132048
783.739	0.0131555
783.818	0.0131847
783.896	0.0133778
783.974	0.0132967
784.052	0.0131946
784.130	0.0131435
784.208	0.0131902
784.286	0.0131290
784.364	0.0132095
784.443	0.0132549
784.521	0.0132471
784.599	0.0131961
784.677	0.0132610
784.755	0.0134235
784.833	0.0133140
784.911	0.0132794
784.989	0.0133751
785.068	0.0133393
785.146	0.0134528
785.224	0.0136526
785.302	0.0136214
785.380	0.0136964
785.458	0.0136174
785.536	0.0137186
785.614	0.0138731
785.693	0.0138602
785.771	0.0138768
785.849	0.0139788
785.927	0.0141093
786.005	0.0140331
786.083	0.0140083
786.161	0.0141782
786.239	0.0140535
786.318	0.0140851
786.396	0.0141272
786.474	0.0140325
786.552	0.0140861
786.630	0.0141227
786.708	0.0139058
786.786	0.0138406
786.864	0.0137836
786.943	0.0135714
787.021	0.0136687
787.099	0.0135076
787.177	0.0133801
787.255	0.0132426
787.333	0.0133752
787.411	0.0133311
787.489	0.0131589
787.568	0.0131087
787.646	0.0129243
787.724	0.0129800
787.802	0.0130341
787.880	0.0130478
787.958	0.0128699
788.036	0.0129644
788.114	0.0129829
788.193	0.0129210
788.271	0.0128997
788.349	0.0129933
788.427	0.0128977
788.505	0.0129762
788.583	0.0129979
788.661	0.0130770
788.739	0.0129799
788.818	0.0130852
788.896	0.0131432
788.974	0.0132072
789.052	0.0131268
789.130	0.0131568
789.208	0.0129070
789.286	0.0131210
789.364	0.0131937
789.443	0.0131604
789.521	0.0131600
789.599	0.0132392
789.677	0.0131812
789.755	0.0133040
789.833	0.0133569
789.911	0.0132968
789.989	0.0132795
790.068	0.0133128
790.146	0.0134420
790.224	0.0134532
790.302	0.0132912
790.380	0.0134684
790.458	0.0134966
790.536	0.0133984
790.614	0.0134530
790.693	0.0134753
790.771	0.0134782
790.849	0.0134728
790.927	0.0132852
791.005	0.0134824
791.083	0.0134499
791.161	0.0134634
791.239	0.0136694
791.318	0.0135534
791.396	0.0134841
791.474	0.0134892
791.552	0.0136655
791.630	0.0136873
791.708	0.0137409
791.786	0.0137093
791.864	0.0137548
791.943	0.0137817
792.021	0.0138735
792.099	0.0138566
792.177	0.0137518
792.255	0.0137538
792.333	0.0138136
792.411	0.0138332
792.489	0.0137722
792.568	0.0136010
792.646	0.0135840
792.724	0.0135888
792.802	0.0136409
792.880	0.0136665
792.958	0.0136040
793.036	0.0136441
793.114	0.0134647
793.193	0.0134911
793.271	0.0134620
793.349	0.0133569
793.427	0.0134208
793.505	0.0132889
793.583	0.0132131
793.661	0.0131424
793.739	0.0131129
793.818	0.0132527
793.896	0.0129526
793.974	0.0128443
794.052	0.0129039
794.130	0.0128757
794.208	0.0128471
794.286	0.0128207
794.364	0.0127932
794.443	0.0127049
794.521	0.0126527
794.599	0.0126503
794.677	0.0126929
794.755	0.0127943
794.833	0.0127160
794.911	0.0129011
794.989	0.0127454
795.068	0.0127866
795.146	0.0128129
795.224	0.0129761
795.302	0.0129955
795.380	0.0130902
795.458	0.0130618
795.536	0.0133047
795.614	0.0132619
795.693	0.0133359
795.771	0.0133052
795.849	0.0133862
795.927	0.0135513
796.005	0.0137831
796.083	0.0136928
796.161	0.0138500
796.239	0.0139915
796.318	0.0139173
796.396	0.0139767
796.474	0.0141383
796.552	0.0142799
796.630	0.0141022
796.708	0.0142693
796.786	0.0143639
796.864	0.0143191
796.943	0.0143340
797.021	0.0143163
797.099	0.0142473
797.177	0.0142328
797.255	0.0142093
797.333	0.0142333
797.411	0.0141264
797.489	0.0139691
797.568	0.0139338
797.646	0.0140270
797.724	0.0138447
797.802	0.0138154
797.880	0.0137309
797.958	0.0136656
798.036	0.0136769
798.114	0.0135983
798.193	0.0135912
798.271	0.0135242
798.349	0.0134700
798.427	0.0133934
798.505	0.0132117
798.583	0.0133457
798.661	0.0134521
798.739	0.0132632
798.818	0.0131692
798.896	0.0130717
798.974	0.0130679
799.052	0.0130353
799.130	0.0131019
799.208	0.0129498
799.286	0.0128967
799.364	0.0128695
799.443	0.0129464
799.521	0.0129746
799.599	0.0130766
799.677	0.0129932
799.755	0.0130006
799.833	0.0129996
799.911	0.0129723
799.989	0.0129163
800.068	0.0130239
800.146	0.0131579
800.224	0.0130138
800.302	0.0131452
800.380	0.0131128
800.458	0.0130454
800.536	0.0130412
800.614	0.0131599
800.693	0.0132504
800.771	0.0132639
800.849	0.0132186
800.927	0.0132990
801.005	0.0134288
801.083	0.0134956
801.161	0.0134699
801.239	0.0134521
801.318	0.0136249
801.396	0.0135393
801.474	0.0137123
801.552	0.0138136
801.630	0.0139011
801.708	0.0138381
801.786	0.0138833
801.864	0.0139206
801.943	0.0138960
802.021	0.0139122
802.099	0.0139645
802.177	0.0140380
802.255	0.0140932
802.333	0.0140073
802.411	0.0139098
802.489	0.0142447
802.568	0.0140595
802.646	0.0139453
802.724	0.0141306
802.802	0.0139388
802.880	0.0140647
802.958	0.0140761
803.036	0.0139278
803.114	0.0140830
803.193	0.0137822
803.271	0.0137510
803.349	0.0137802
803.427	0.0137875
803.505	0.0136018
803.583	0.0135995
803.661	0.0137751
803.739	0.0137120
803.818	0.0135795
803.896	0.0134560
803.974	0.0134962
804.052	0.0135016
804.130	0.0134573
804.208	0.0135251
804.286	0.0134438
804.364	0.0132572
804.443	0.0133926
804.521	0.0132225
804.599	0.0133545
804.677	0.0133122
804.755	0.0131955
804.833	0.0131644
804.911	0.0130913
804.989	0.0130321
805.068	0.0131310
805.146	0.0131486
805.224	0.0131593
805.302	0.0131127
805.380	0.0131203
805.458	0.0129494
805.536	0.0130907
805.614	0.0131361
805.693	0.0131054
805.771	0.0130874
805.849	0.0132986
805.927	0.0130502
806.005	0.0132543
806.083	0.0132401
806.161	0.0133234
806.239	0.0133131
806.318	0.0133331
806.396	0.0133340
806.474	0.0133869
806.552	0.0134815
806.630	0.0135560
806.708	0.0134228
806.786	0.0134987
806.864	0.0134608
806.943	0.0135674
807.021	0.0135951
807.099	0.0136209
807.177	0.0136809
807.255	0.0137819
807.333	0.0137086
807.411	0.0136559
807.489	0.0136150
807.568	0.0137216
807.646	0.0137162
807.724	0.0138014
807.802	0.0138010
807.880	0.0137025
807.958	0.0138477
808.036	0.0139527
808.114	0.0138515
808.193	0.0138081
808.271	0.0137984
808.349	0.0139387
808.427	0.0136909
808.505	0.0137776
808.583	0.0138869
808.661	0.0136607
808.739	0.0136098
808.818	0.0135799
808.896	0.0135702
808.974	0.0135415
809.052	0.0134574
809.130	0.0137003
809.208	0.0136485
809.286	0.0136555
809.364	0.0135808
809.443	0.0135213
809.521	0.0135890
809.599	0.0136190
809.677	0.0134312
809.755	0.0133727
809.833	0.0134912
809.911	0.0134006
809.989	0.0134007
810.068	0.0133669
810.146	0.0133024
810.224	0.0131689
810.302	0.0133303
810.380	0.0132353
810.458	0.0132140
810.536	0.0134142
810.614	0.0131877
810.693	0.0131918
810.771	0.0131580
810.849	0.0131296
810.927	0.0131670
811.005	0.0130669
811.083	0.0130902
811.161	0.0131364
811.239	0.0131077
811.318	0.0131147
811.396	0.0131560
811.474	0.0132748
811.552	0.0131387
811.630	0.0132282
811.708	0.0132368
811.786	0.0133002
811.864	0.0134535
811.943	0.0134151
812.021	0.0134754
812.099	0.0133708
812.177	0.0133897
812.255	0.0135713
812.333	0.0136259
812.411	0.0136231
812.489	0.0135954
812.568	0.0136211
812.646	0.0136138
812.724	0.0136819
812.802	0.0136694
812.880	0.0136488
812.958	0.0135965
813.036	0.0136664
813.114	0.0137207
813.193	0.0136645
813.271	0.0137449
813.349	0.0135856
813.427	0.0137539
813.505	0.0135397
813.583	0.0135658
813.661	0.0135682
813.739	0.0136034
813.818	0.0136596
813.896	0.0137033
813.974	0.0137522
814.052	0.0136620
814.130	0.0135703
814.208	0.0135175
814.286	0.0135981
814.364	0.0134515
814.443	0.0134326
814.521	0.0133613
814.599	0.0134350
814.677	0.0134840
814.755	0.0133823
814.833	0.0134145
814.911	0.0133366
814.989	0.0132677
815.068	0.0131548
815.146	0.0131455
815.224	0.0132004
815.302	0.0131465
815.380	0.0128539
815.458	0.0129756
815.536	0.0129534
815.614	0.0129395
815.693	0.0130655
815.771	0.0129690
815.849	0.0128652
815.927	0.0128693
816.005	0.0129617
816.083	0.0129308
816.161	0.0128238
816.239	0.0130567
816.318	0.0130170
816.396	0.0128924
816.474	0.0130846
816.552	0.0130861
816.630	0.0131604
816.708	0.0131720
816.786	0.0131783
816.864	0.0132567
816.943	0.0131667
817.021	0.0132044
817.099	0.0132654
817.177	0.0132668
817.255	0.0132475
817.333	0.0133627
817.411	0.0134296
817.489	0.0134046
817.568	0.0133614
817.646	0.0133897
817.724	0.0133755
817.802	0.0133817
817.880	0.0134500
817.958	0.0133499
818.036	0.0133167
818.114	0.0134547
818.193	0.0133463
818.271	0.0133301
818.349	0.0133224
818.427	0.0134381
818.505	0.0132195
818.583	0.0133018
818.661	0.0132516
818.739	0.0133327
818.818	0.0133000
818.896	0.0132692
818.974	0.0133401
819.052	0.0132263
819.130	0.0132874
819.208	0.0133284
819.286	0.0133402
819.364	0.0132957
819.443	0.0133887
819.521	0.0134069
819.599	0.0134519
819.677	0.0133900
819.755	0.0134409
819.833	0.0134524
819.911	0.0134631
819.989	0.0135397
820.068	0.0135014
820.146	0.0132994
820.224	0.0134841
820.302	0.0135915
820.380	0.0135527
820.458	0.0133887
820.536	0.0134647
820.614	0.0135466
820.693	0.0134457
820.771	0.0134255
820.849	0.0134607
820.927	0.0135268
821.005	0.0133732
821.083	0.0133603
821.161	0.0134941
821.239	0.0133645
821.318	0.0133091
821.396	0.0133727
821.474	0.0132541
821.552	0.0132651
821.630	0.0131223
821.708	0.0130749
821.786	0.0131266
821.864	0.0131664
821.943	0.0132103
822.021	0.0131727
822.099	0.0130469
822.177	0.0130446
822.255	0.0131321
822.333	0.0131359
822.411	0.0133058
822.489	0.0132185
822.568	0.0132696
822.646	0.0132281
822.724	0.0133102
822.802	0.0132670
822.880	0.0132445
822.958	0.0134051
823.036	0.0134441
823.114	0.0134908
823.193	0.0134573
823.271	0.0135587
823.349	0.0135536
823.427	0.0134802
823.505	0.0133631
823.583	0.0135182
823.661	0.0135576
823.739	0.0135152
823.818	0.0136166
823.896	0.0135331
823.974	0.0134648
824.052	0.0134645
824.130	0.0134171
824.208	0.0134227
824.286	0.0132317
824.364	0.0135196
824.443	0.0135316
824.521	0.0134740
824.599	0.0135234
824.677	0.0133335
824.755	0.0134972
824.833	0.0135118
824.911	0.0134772
824.989	0.0132967
825.068	0.0134978
825.146	0.0134686
825.224	0.0133881
825.302	0.0136075
825.380	0.0135095
825.458	0.0135459
825.536	0.0133242
825.614	0.0134669
825.693	0.0136377
825.771	0.0135910
825.849	0.0135248
825.927	0.0137807
826.005	0.0135497
826.083	0.0135404
826.161	0.0137164
826.239	0.0136637
826.318	0.0137859
826.396	0.0137962
826.474	0.0137803
826.552	0.0136627
826.630	0.0137796
826.708	0.0136884
826.786	0.0136408
826.864	0.0136463
826.943	0.0137409
827.021	0.0136877
827.099	0.0136373
827.177	0.0135768
827.255	0.0137246
827.333	0.0136660
827.411	0.0136250
827.489	0.0135725
827.568	0.0135063
827.646	0.0134298
827.724	0.0134633
827.802	0.0133967
827.880	0.0134104
827.958	0.0132931
828.036	0.0133739
828.114	0.0133307
828.193	0.0133282
828.271	0.0132891
828.349	0.0132263
828.427	0.0133784
828.505	0.0134019
828.583	0.0134431
828.661	0.0133405
828.739	0.0133981
828.818	0.0133487
828.896	0.0134657
828.974	0.0133636
829.052	0.0133591
829.130	0.0134901
829.208	0.0133929
829.286	0.0134853
829.364	0.0133846
829.443	0.0133161
829.521	0.0134780
829.599	0.0135148
829.677	0.0134208
829.755	0.0134280
829.833	0.0135303
829.911	0.0134190
829.989	0.0134531
830.068	0.0135240
830.146	0.0134293
830.224	0.0134321
830.302	0.0134911
830.380	0.0133721
830.458	0.0135252
830.536	0.0134702
830.614	0.0133552
830.693	0.0133115
830.771	0.0134924
830.849	0.0133912
830.927	0.0134154
831.005	0.0134599
831.083	0.0133022
831.161	0.0134370
831.239	0.0134461
831.318	0.0135604
831.396	0.0134083
831.474	0.0134716
831.552	0.0135786
831.630	0.0135815
831.708	0.0136618
831.786	0.0135765
831.864	0.0135507
831.943	0.0137133
832.021	0.0136680
832.099	0.0136050
832.177	0.0136082
832.255	0.0136874
832.333	0.0136761
832.411	0.0136001
832.489	0.0135352
832.568	0.0136273
832.646	0.0135641
832.724	0.0136480
832.802	0.0135838
832.880	0.0134531
832.958	0.0134800
833.036	0.0135228
833.114	0.0134695
833.193	0.0135234
833.271	0.0134206
833.349	0.0133239
833.427	0.0135055
833.505	0.0133824
833.583	0.0135145
833.661	0.0132858
833.739	0.0132899
833.818	0.0134738
833.896	0.0135040
833.974	0.0133733
834.052	0.0133533
834.130	0.0134156
834.208	0.0134637
834.286	0.0135026
834.364	0.0134015
834.443	0.0133304
834.521	0.0133545
834.599	0.0132855
834.677	0.0134200
834.755	0.0133884
834.833	0.0132381
834.911	0.0131965
834.989	0.0132113
835.068	0.0132175
835.146	0.0130288
835.224	0.0131700
835.302	0.0131610
835.380	0.0131264
835.458	0.0130595
835.536	0.0131777
835.614	0.0132395
835.693	0.0132062
835.771	0.0131910
835.849	0.0131197
835.927	0.0132449
836.005	0.0132839
836.083	0.0132419
836.161	0.0133241
836.239	0.0132458
836.318	0.0132445
836.396	0.0134526
836.474	0.0133182
836.552	0.0133710
836.630	0.0134158
836.708	0.0134469
836.786	0.0135002
836.864	0.0134782
836.943	0.0134353
837.021	0.0134599
837.099	0.0135037
837.177	0.0136100
837.255	0.0136002
837.333	0.0135272
837.411	0.0135818
837.489	0.0136564
837.568	0.0134513
837.646	0.0133920
837.724	0.0134357
837.802	0.0135110
837.880	0.0134883
837.958	0.0135168
838.036	0.0134303
838.114	0.0133833
838.193	0.0136083
838.271	0.0135120
838.349	0.0133650
838.427	0.0134363
838.505	0.0133749
838.583	0.0134432
838.661	0.0133760
838.739	0.0133751
838.818	0.0133991
838.896	0.0133903
838.974	0.0134877
839.052	0.0134454
839.130	0.0132931
839.208	0.0133932
839.286	0.0135010
839.364	0.0134606
839.443	0.0134451
839.521	0.0133986
839.599	0.0134242
839.677	0.0134486
839.755	0.0134484
839.833	0.0134780
839.911	0.0134348
839.989	0.0135375
840.068	0.0134149
840.146	0.0132935
840.224	0.0133476
840.302	0.0133965
840.380	0.0133517
840.458	0.0132687
840.536	0.0133892
840.614	0.0132674
840.693	0.0131950
840.771	0.0132125
840.849	0.0132088
840.927	0.0131863
841.005	0.0132182
841.083	0.0133266
841.161	0.0131563
841.239	0.0130740
841.318	0.0129662
841.396	0.0130838
841.474	0.0131233
841.552	0.0132561
841.630	0.0130611
841.708	0.0131569
841.786	0.0130592
841.864	0.0131775
841.943	0.0132242
842.021	0.0131261
842.099	0.0130647
842.177	0.0130921
842.255	0.0133071
842.333	0.0133138
842.411	0.0133016
842.489	0.0133212
842.568	0.0133249
842.646	0.0133919
842.724	0.0133431
842.802	0.0136158
842.880	0.0134169
842.958	0.0133983
843.036	0.0134387
843.114	0.0134927
843.193	0.0135629
843.271	0.0136317
843.349	0.0136250
843.427	0.0135651
843.505	0.0133977
843.583	0.0133561
843.661	0.0135447
843.739	0.0134801
843.818	0.0134764
843.896	0.0135020
843.974	0.0134672
844.052	0.0136090
844.130	0.0133688
844.208	0.0133090
844.286	0.0133970
844.364	0.0133699
844.443	0.0135501
844.521	0.0135076
844.599	0.0133748
844.677	0.0133993
844.755	0.0133950
844.833	0.0133080
844.911	0.0134192
844.989	0.0134573
845.068	0.0133739
845.146	0.0133331
845.224	0.0134330
845.302	0.0135433
845.380	0.0133769
845.458	0.0132955
845.536	0.0133508
845.614	0.0133575
845.693	0.0134534
845.771	0.0134313
845.849	0.0133763
845.927	0.0133781
846.005	0.0133855
846.083	0.0132676
846.161	0.0132381
846.239	0.0133631
846.318	0.0133826
846.396	0.0132851
846.474	0.0131931
846.552	0.0132033
846.630	0.0133216
846.708	0.0133067
846.786	0.0132640
846.864	0.0131655
846.943	0.0131265
847.021	0.0132211
847.099	0.0132220
847.177	0.0132518
847.255	0.0132206
847.333	0.0132394
847.411	0.0133103
847.489	0.0133233
847.568	0.0133041
847.646	0.0132127
847.724	0.0132013
847.802	0.0131288
847.880	0.0132204
847.958	0.0132888
848.036	0.0133128
848.114	0.0134414
848.193	0.0132629
848.271	0.0132738
848.349	0.0132985
848.427	0.0133563
848.505	0.0133985
848.583	0.0134297
848.661	0.0133731
848.739	0.0133442
848.818	0.0133894
848.896	0.0133322
848.974	0.0133177
849.052	0.0134180
849.130	0.0134644
849.208	0.0134656
849.286	0.0133390
849.364	0.0133963
849.443	0.0134128
849.521	0.0134790
849.599	0.0133880
849.677	0.0134814
849.755	0.0135578
849.833	0.0134230
849.911	0.0133347
849.989	0.0133222
850.068	0.0134538
850.146	0.0134630
850.224	0.0136036
850.302	0.0136663
850.380	0.0136150
850.458	0.0136961
850.536	0.0135499
850.614	0.0135663
850.693	0.0135823
850.771	0.0138000
850.849	0.0137147
850.927	0.0135458
851.005	0.0135677
851.083	0.0135902
851.161	0.0135930
851.239	0.0135307
851.318	0.0136279
851.396	0.0136025
851.474	0.0135725
851.552	0.0135604
851.630	0.0133760
851.708	0.0134670
851.786	0.0135211
851.864	0.0133544
851.943	0.0133279
852.021	0.0133556
852.099	0.0132162
852.177	0.0130545
852.255	0.0130854
852.333	0.0131933
852.411	0.0132542
852.489	0.0132702
852.568	0.0131190
852.646	0.0132884
852.724	0.0131927
852.802	0.0130621
852.880	0.0132977
852.958	0.0132888
853.036	0.0131918
853.114	0.0132677
853.193	0.0133182
853.271	0.0133390
853.349	0.0134225
853.427	0.0135168
853.505	0.0133710
853.583	0.0134251
853.661	0.0133742
853.739	0.0134600
853.818	0.0134405
853.896	0.0133516
853.974	0.0133447
854.052	0.0133658
854.130	0.0132784
854.208	0.0133992
854.286	0.0132869
854.364	0.0132861
854.443	0.0133647
854.521	0.0133083
854.599	0.0132657
854.677	0.0132428
854.755	0.0133308
854.833	0.0134081
854.911	0.0133994
854.989	0.0133506
855.068	0.0134949
855.146	0.0134001
855.224	0.0134591
855.302	0.0135123
855.380	0.0134808
855.458	0.0135411
855.536	0.0137329
855.614	0.0136268
855.693	0.0135725
855.771	0.0137415
855.849	0.0134925
855.927	0.0137585
856.005	0.0136993
856.083	0.0136844
856.161	0.0136095
856.239	0.0136882
856.318	0.0136825
856.396	0.0136376
856.474	0.0135287
856.552	0.0135709
856.630	0.0135838
856.708	0.0136317
856.786	0.0134121
856.864	0.0136612
856.943	0.0134996
857.021	0.0135040
857.099	0.0134266
857.177	0.0133517
857.255	0.0133362
857.333	0.0133790
857.411	0.0132816
857.489	0.0133118
857.568	0.0131725
857.646	0.0132650
857.724	0.0133618
857.802	0.0131053
857.880	0.0131804
857.958	0.0132224
858.036	0.0133669
858.114	0.0134641
858.193	0.0130958
858.271	0.0133506
858.349	0.0132671
858.427	0.0133078
858.505	0.0132135
858.583	0.0134845
858.661	0.0133273
858.739	0.0134316
858.818	0.0133253
858.896	0.0133484
858.974	0.0134441
859.052	0.0135339
859.130	0.0134116
859.208	0.0134016
859.286	0.0134491
859.364	0.0134418
859.443	0.0134339
859.521	0.0134675
859.599	0.0133172
859.677	0.0135043
859.755	0.0133952
859.833	0.0133981
859.911	0.0133691
859.989	0.0133633
860.068	0.0134283
860.146	0.0134123
860.224	0.0133871
860.302	0.0134071
860.380	0.0133439
860.458	0.0133162
860.536	0.0133047
860.614	0.0133052
860.693	0.0132571
860.771	0.0131985
860.849	0.0133326
860.927	0.0133395
861.005	0.0133463
861.083	0.0133864
861.161	0.0132731
861.239	0.0132514
861.318	0.0131791
861.396	0.0134406
861.474	0.0134167
861.552	0.0133949
861.630	0.0134746
861.708	0.0136372
861.786	0.0134528
861.864	0.0134987
861.943	0.0136108
862.021	0.0135779
862.099	0.0135871
862.177	0.0137212
862.255	0.0135995
862.333	0.0137456
862.411	0.0135061
862.489	0.0135217
862.568	0.0137265
862.646	0.0134687
862.724	0.0133911
862.802	0.0134501
862.880	0.0134856
862.958	0.0133302
863.036	0.0133286
863.114	0.0132889
863.193	0.0133905
863.271	0.0133582
863.349	0.0131723
863.427	0.0133026
863.505	0.0131763
863.583	0.0131962
863.661	0.0131715
863.739	0.0132652
863.818	0.0132283
863.896	0.0132155
863.974	0.0133801
864.052	0.0131532
864.130	0.0131758
864.208	0.0132395
864.286	0.0133371
864.364	0.0131935
864.443	0.0132657
864.521	0.0132013
864.599	0.0131182
864.677	0.0131889
864.755	0.0133090
864.833	0.0132645
864.911	0.0131475
864.989	0.0131751
865.068	0.0132799
865.146	0.0132343
865.224	0.0132784
865.302	0.0134331
865.380	0.0133340
865.458	0.0132845
865.536	0.0133666
865.614	0.0134613
865.693	0.0133545
865.771	0.0133230
865.849	0.0134103
865.927	0.0133268
866.005	0.0133491
866.083	0.0134383
866.161	0.0134400
866.239	0.0134843
866.318	0.0135878
866.396	0.0135896
866.474	0.0135384
866.552	0.0134992
866.630	0.0135349
866.708	0.0135714
866.786	0.0137286
866.864	0.0137444
866.943	0.0137532
867.021	0.0137914
867.099	0.0137327
867.177	0.0136851
867.255	0.0136411
867.333	0.0135286
867.411	0.0136362
867.489	0.0136095
867.568	0.0136282
867.646	0.0136473
867.724	0.0135518
867.802	0.0135162
867.880	0.0135401
867.958	0.0133441
868.036	0.0133713
868.114	0.0133694
868.193	0.0133026
868.271	0.0132101
868.349	0.0133142
868.427	0.0132564
868.505	0.0132835
868.583	0.0132969
868.661	0.0132116
868.739	0.0130942
868.818	0.0131751
868.896	0.0131941
868.974	0.0131829
869.052	0.0131555
869.130	0.0132290
869.208	0.0131679
869.286	0.0131251
869.364	0.0132703
869.443	0.0133814
869.521	0.0132836
869.599	0.0133659
869.677	0.0133212
869.755	0.0133413
869.833	0.0133630
869.911	0.0134763
869.989	0.0135199
870.068	0.0135265
870.146	0.0135634
870.224	0.0135425
870.302	0.0135538
870.380	0.0136194
870.458	0.0137070
870.536	0.0134963
870.614	0.0135918
870.693	0.0135246
870.771	0.0134751
870.849	0.0133614
870.927	0.0133330
871.005	0.0135503
871.083	0.0134776
871.161	0.0134628
871.239	0.0134123
871.318	0.0134148
871.396	0.0135590
871.474	0.0135458
871.552	0.0134399
871.630	0.0134811
871.708	0.0135846
871.786	0.0135650
871.864	0.0135388
871.943	0.0133881
872.021	0.0136134
872.099	0.0134975
872.177	0.0135596
872.255	0.0134668
872.333	0.0134560
872.411	0.0133828
872.489	0.0134759
872.568	0.0134937
872.646	0.0133947
872.724	0.0132851
872.802	0.0132877
872.880	0.0132915
872.958	0.0135339
873.036	0.0133507
873.114	0.0133320
873.193	0.0132645
873.271	0.0132166
873.349	0.0131594
873.427	0.0130968
873.505	0.0131273
873.583	0.0130074
873.661	0.0131731
873.739	0.0131133
873.818	0.0131818
873.896	0.0131451
873.974	0.0129922
874.052	0.0131426
874.130	0.0131323
874.208	0.0130679
874.286	0.0131821
874.364	0.0132024
874.443	0.0133180
874.521	0.0132323
874.599	0.0133513
874.677	0.0134767
874.755	0.0135576
874.833	0.0134500
874.911	0.0135976
874.989	0.0135632
875.068	0.0136102
875.146	0.0136197
875.224	0.0135819
875.302	0.0137285
875.380	0.0136581
875.458	0.0136271
875.536	0.0136794
875.614	0.0137318
875.693	0.0137412
875.771	0.0136214
875.849	0.0136677
875.927	0.0134594
876.005	0.0133743
876.083	0.0135050
876.161	0.0134664
876.239	0.0133137
876.318	0.0132602
876.396	0.0133296
876.474	0.0133087
876.552	0.0132764
876.630	0.0132214
876.708	0.0132127
876.786	0.0132839
876.864	0.0132990
876.943	0.0131890
877.021	0.0132825
877.099	0.0132374
877.177	0.0132240
877.255	0.0131879
877.333	0.0132830
877.411	0.0132753
877.489	0.0132793
877.568	0.0133312
877.646	0.0133092
877.724	0.0133846
877.802	0.0134543
877.880	0.0132735
877.958	0.0132526
878.036	0.0134357
878.114	0.0133620
878.193	0.0132962
878.271	0.0133736
878.349	0.0134458
878.427	0.0133421
878.505	0.0133868
878.583	0.0133250
878.661	0.0133239
878.739	0.0133243
878.818	0.0135038
878.896	0.0133453
878.974	0.0133171
879.052	0.0133919
879.130	0.0133506
879.208	0.0132345
879.286	0.0132333
879.364	0.0132989
879.443	0.0132888
879.521	0.0132398
879.599	0.0132290
879.677	0.0132597
879.755	0.0131201
879.833	0.0133553
879.911	0.0133214
879.989	0.0133342
880.068	0.0133459
880.146	0.0133530
880.224	0.0134279
880.302	0.0133885
880.380	0.0132527
880.458	0.0134166
880.536	0.0134812
880.614	0.0135698
880.693	0.0133527
880.771	0.0134754
880.849	0.0135653
880.927	0.0135670
881.005	0.0133755
881.083	0.0135258
881.161	0.0134710
881.239	0.0133620
881.318	0.0135105
881.396	0.0134345
881.474	0.0133716
881.552	0.0132095
881.630	0.0133526
881.708	0.0134045
881.786	0.0134520
881.864	0.0134049
881.943	0.0135041
882.021	0.0133421
882.099	0.0132907
882.177	0.0133035
882.255	0.0134155
882.333	0.0133998
882.411	0.0134033
882.489	0.0135121
882.568	0.0135018
882.646	0.0133919
882.724	0.0134691
882.802	0.0134296
882.880	0.0134475
882.958	0.0135117
883.036	0.0135699
883.114	0.0135114
883.193	0.0135349
883.271	0.0135456
883.349	0.0136040
883.427	0.0136999
883.505	0.0135171
883.583	0.0135328
883.661	0.0137012
883.739	0.0134840
883.818	0.0134538
883.896	0.0134729
883.974	0.0136364
884.052	0.0135413
884.130	0.0134352
884.208	0.0134431
884.286	0.0132716
884.364	0.0134597
884.443	0.0135076
884.521	0.0133824
884.599	0.0134762
884.677	0.0133560
884.755	0.0133197
884.833	0.0132571
884.911	0.0133980
884.989	0.0133102
885.068	0.0133588
885.146	0.0133205
885.224	0.0134092
885.302	0.0132903
885.380	0.0133562
885.458	0.0132766
885.536	0.0132797
885.614	0.0133914
885.693	0.0134526
885.771	0.0133302
885.849	0.0133346
885.927	0.0134627
886.005	0.0135254
886.083	0.0135126
886.161	0.0134283
886.239	0.0135650
886.318	0.0135219
886.396	0.0135804
886.474	0.0135271
886.552	0.0136179
886.630	0.0135374
886.708	0.0135608
886.786	0.0136488
886.864	0.0135359
886.943	0.0136108
887.021	0.0135903
887.099	0.0135300
887.177	0.0135458
887.255	0.0134624
887.333	0.0133817
887.411	0.0135506
887.489	0.0134358
887.568	0.0134515
887.646	0.0133368
887.724	0.0134587
887.802	0.0134502
887.880	0.0133478
887.958	0.0133826
888.036	0.0132854
888.114	0.0133837
888.193	0.0133469
888.271	0.0134198
888.349	0.0133076
888.427	0.0133771
888.505	0.0133997
888.583	0.0134098
888.661	0.0135020
888.739	0.0134720
888.818	0.0133642
888.896	0.0133347
888.974	0.0134509
889.052	0.0132679
889.130	0.0132639
889.208	0.0131754
889.286	0.0132563
889.364	0.0133170
889.443	0.0134019
889.521	0.0133220
889.599	0.0132930
889.677	0.0133333
889.755	0.0134506
889.833	0.0133284
889.911	0.0133673
889.989	0.0134261
890.068	0.0134425
890.146	0.0135143
890.224	0.0134825
890.302	0.0134685
890.380	0.0134959
890.458	0.0135615
890.536	0.0136197
890.614	0.0135754
890.693	0.0136707
890.771	0.0137092
890.849	0.0136459
890.927	0.0137811
891.005	0.0136893
891.083	0.0137767
891.161	0.0136170
891.239	0.0136069
891.318	0.0135568
891.396	0.0136349
891.474	0.0136709
891.552	0.0135494
891.630	0.0134733
891.708	0.0134701
891.786	0.0135429
891.864	0.0135672
891.943	0.0133176
892.021	0.0134927
892.099	0.0133739
892.177	0.0134254
892.255	0.0135318
892.333	0.0134433
892.411	0.0132566
892.489	0.0134234
892.568	0.0133812
892.646	0.0133804
892.724	0.0133977
892.802	0.0133948
892.880	0.0133342
892.958	0.0132018
893.036	0.0133390
893.114	0.0132753
893.193	0.0132094
893.271	0.0133445
893.349	0.0133179
893.427	0.0131687
893.505	0.0131097
893.583	0.0131186
893.661	0.0131030
893.739	0.0130328
893.818	0.0132116
893.896	0.0132274
893.974	0.0131732
894.052	0.0132719
894.130	0.0131612
894.208	0.0132449
894.286	0.0132223
894.364	0.0132608
894.443	0.0131823
894.521	0.0134452
894.599	0.0134581
894.677	0.0132777
894.755	0.0135175
894.833	0.0134537
894.911	0.0133268
894.989	0.0134054
895.068	0.0135055
895.146	0.0135398
895.224	0.0135216
895.302	0.0134968
895.380	0.0135200
895.458	0.0133321
895.536	0.0135556
895.614	0.0136369
895.693	0.0135429
895.771	0.0135945
895.849	0.0133165
895.927	0.0134994
896.005	0.0136378
896.083	0.0134995
896.161	0.0135253
896.239	0.0133965
896.318	0.0134727
896.396	0.0134878
896.474	0.0135925
896.552	0.0134435
896.630	0.0134997
896.708	0.0134973
896.786	0.0134720
896.864	0.0135141
896.943	0.0135483
897.021	0.0135781
897.099	0.0134863
897.177	0.0134128
897.255	0.0135236
897.333	0.0133892
897.411	0.0135296
897.489	0.0134479
897.568	0.0134852
897.646	0.0133186
897.724	0.0134466
897.802	0.0132403
897.880	0.0133070
897.958	0.0133676
898.036	0.0132022
898.114	0.0132286
898.193	0.0133832
898.271	0.0134133
898.349	0.0133336
898.427	0.0133559
898.505	0.0132862
898.583	0.0132704
898.661	0.0133681
898.739	0.0134297
898.818	0.0134237
898.896	0.0134051
898.974	0.0133835
899.052	0.0133412
899.130	0.0134492
899.208	0.0133907
899.286	0.0133778
899.364	0.0133215
899.443	0.0132693
899.521	0.0133790
899.599	0.0135487
899.677	0.0134009
899.755	0.0132228
899.833	0.0133618
899.911	0.0133215
899.989	0.0134261
900.068	0.0134509
900.146	0.0134212
900.224	0.0136335
900.302	0.0134626
900.380	0.0134305
900.458	0.0133949
900.536	0.0135390
900.614	0.0134607
900.693	0.0135060
900.771	0.0134315
900.849	0.0133842
900.927	0.0134685
901.005	0.0134109
901.083	0.0133786
901.161	0.0132827
901.239	0.0134637
901.318	0.0132926
901.396	0.0133316
901.474	0.0132749
901.552	0.0133203
901.630	0.0133272
901.708	0.0132912
901.786	0.0134346
901.864	0.0133030
901.943	0.0133397
902.021	0.0132791
902.099	0.0133540
902.177	0.0133806
902.255	0.0133920
902.333	0.0134489
902.411	0.0133984
902.489	0.0134747
902.568	0.0134318
902.646	0.0134061
902.724	0.0134587
902.802	0.0135202
902.880	0.0134348
902.958	0.0134837
903.036	0.0134731
903.114	0.0136447
903.193	0.0135667
903.271	0.0135667
903.349	0.0135239
903.427	0.0135892
903.505	0.0135856
903.583	0.0136088
903.661	0.0135635
903.739	0.0135327
903.818	0.0135432
903.896	0.0135035
903.974	0.0134238
904.052	0.0134916
904.130	0.0135137
904.208	0.0135143
904.286	0.0133670
904.364	0.0133777
904.443	0.0135287
904.521	0.0134266
904.599	0.0132832
904.677	0.0133551
904.755	0.0132328
904.833	0.0133135
904.911	0.0132991
904.989	0.0133118
905.068	0.0133540
905.146	0.0133537
905.224	0.0132642
905.302	0.0133372
905.380	0.0133153
905.458	0.0133646
905.536	0.0133159
905.614	0.0134200
905.693	0.0134174
905.771	0.0133692
905.849	0.0134481
905.927	0.0134544
906.005	0.0134390
906.083	0.0135014
906.161	0.0134393
906.239	0.0135084
906.318	0.0135388
906.396	0.0135156
906.474	0.0134314
906.552	0.0132616
906.630	0.0134250
906.708	0.0134332
906.786	0.0135174
906.864	0.0135689
906.943	0.0134344
907.021	0.0132641
907.099	0.0133502
907.177	0.0133334
907.255	0.0134286
907.333	0.0134946
907.411	0.0133208
907.489	0.0133041
907.568	0.0133019
907.646	0.0132778
907.724	0.0133268
907.802	0.0133669
907.880	0.0133585
907.958	0.0132471
908.036	0.0132330
908.114	0.0133704
908.193	0.0133836
908.271	0.0132915
908.349	0.0132185
908.427	0.0133006
908.505	0.0132766
908.583	0.0134908
908.661	0.0135067
908.739	0.0134137
908.818	0.0134501
908.896	0.0132713
908.974	0.0134218
909.052	0.0134625
909.130	0.0133357
909.208	0.0133024
909.286	0.0134012
909.364	0.0133225
909.443	0.0134210
909.521	0.0133279
909.599	0.0134408
909.677	0.0134776
909.755	0.0133768
909.833	0.0134970
909.911	0.0134409
909.989	0.0133099
910.068	0.0133888
910.146	0.0133994
910.224	0.0134885
910.302	0.0132838
910.380	0.0132624
910.458	0.0133086
910.536	0.0134804
910.614	0.0133253
910.693	0.0133262
910.771	0.0134537
910.849	0.0134207
910.927	0.0134078
911.005	0.0133830
911.083	0.0134234
911.161	0.0133097
911.239	0.0132885
911.318	0.0133448
911.396	0.0133759
911.474	0.0133929
911.552	0.0134241
911.630	0.0134276
911.708	0.0132832
911.786	0.0135589
911.864	0.0132956
911.943	0.0133698
912.021	0.0133317
912.099	0.0132907
912.177	0.0133806
912.255	0.0134047
912.333	0.0133790
912.411	0.0134181
912.489	0.0133539
912.568	0.0132287
912.646	0.0134096
912.724	0.0133115
912.802	0.0134005
912.880	0.0133782
912.958	0.0134782
913.036	0.0134516
913.114	0.0134584
913.193	0.0133752
913.271	0.0135159
913.349	0.0134168
913.427	0.0135114
913.505	0.0134801
913.583	0.0135574
913.661	0.0133903
913.739	0.0133023
913.818	0.0134341
913.896	0.0133821
913.974	0.0133021
914.052	0.0132712
914.130	0.0134695
914.208	0.0135049
914.286	0.0134588
914.364	0.0133838
914.443	0.0134470
914.521	0.0134099
914.599	0.0135176
914.677	0.0134457
914.755	0.0134512
914.833	0.0135303
914.911	0.0134438
914.989	0.0135442
915.068	0.0133978
915.146	0.0135011
915.224	0.0133179
915.302	0.0134058
915.380	0.0133200
915.458	0.0133532
915.536	0.0134241
915.614	0.0133994
915.693	0.0133107
915.771	0.0134180
915.849	0.0132274
915.927	0.0132821
916.005	0.0133987
916.083	0.0134705
916.161	0.0133081
916.239	0.0132899
916.318	0.0133703
916.396	0.0133336
916.474	0.0131519
916.552	0.0134372
916.630	0.0134326
916.708	0.0132613
916.786	0.0133738
916.864	0.0134702
916.943	0.0134171
917.021	0.0133772
917.099	0.0133748
917.177	0.0134357
917.255	0.0133512
917.333	0.0135033
917.411	0.0134968
917.489	0.0134712
917.568	0.0134262
917.646	0.0133908
917.724	0.0132704
917.802	0.0134071
917.880	0.0134905
917.958	0.0135394
918.036	0.0134834
918.114	0.0134483
918.193	0.0134909
918.271	0.0135538
918.349	0.0134752
918.427	0.0134378
918.505	0.0134727
918.583	0.0134648
918.661	0.0134415
918.739	0.0135522
918.818	0.0137140
918.896	0.0135078
918.974	0.0137811
919.052	0.0136320
919.130	0.0134761
919.208	0.0135794
919.286	0.0135330
919.364	0.0135146
919.443	0.0135184
919.521	0.0134483
919.599	0.0135793
919.677	0.0134394
919.755	0.0133936
919.833	0.0134046
919.911	0.0133804
919.989	0.0133364
920.068	0.0133326
920.146	0.0133906
920.224	0.0132870
920.302	0.0132712
920.380	0.0132929
920.458	0.0133834
920.536	0.0133160
920.614	0.0132757
920.693	0.0132207
920.771	0.0131844
920.849	0.0132148
920.927	0.0130586
921.005	0.0132386
921.083	0.0132934
921.161	0.0132587
921.239	0.0130567
921.318	0.0131026
921.396	0.0132516
921.474	0.0131187
921.552	0.0132565
921.630	0.0131049
921.708	0.0132388
921.786	0.0132804
921.864	0.0131609
921.943	0.0131500
922.021	0.0132015
922.099	0.0132830
922.177	0.0132484
922.255	0.0132961
922.333	0.0133257
922.411	0.0132788
922.489	0.0133308
922.568	0.0133051
922.646	0.0132915
922.724	0.0134597
922.802	0.0135131
922.880	0.0134015
922.958	0.0134519
923.036	0.0134701
923.114	0.0134172
923.193	0.0133753
923.271	0.0133454
923.349	0.0134814
923.427	0.0133662
923.505	0.0133020
923.583	0.0133835
923.661	0.0134229
923.739	0.0133326
923.818	0.0132889
923.896	0.0134122
923.974	0.0133735
924.052	0.0133329
924.130	0.0133555
924.208	0.0134868
924.286	0.0134952
924.364	0.0133647
924.443	0.0135029
924.521	0.0134350
924.599	0.0135246
924.677	0.0135397
924.755	0.0135493
924.833	0.0136073
924.911	0.0137013
924.989	0.0134887
925.068	0.0135719
925.146	0.0136078
925.224	0.0136018
925.302	0.0136384
925.380	0.0136698
925.458	0.0135962
925.536	0.0134305
925.614	0.0135681
925.693	0.0135241
925.771	0.0135960
925.849	0.0135561
925.927	0.0134973
926.005	0.0134711
926.083	0.0133419
926.161	0.0134023
926.239	0.0134083
926.318	0.0134124
926.396	0.0133725
926.474	0.0132744
926.552	0.0134332
926.630	0.0133893
926.708	0.0133149
926.786	0.0132315
926.864	0.0134309
926.943	0.0131845
927.021	0.0133392
927.099	0.0133842
927.177	0.0132178
927.255	0.0132297
927.333	0.0133117
927.411	0.0134131
927.489	0.0133787
927.568	0.0132308
927.646	0.0133757
927.724	0.0132757
927.802	0.0132434
927.880	0.0132008
927.958	0.0132552
928.036	0.0133354
928.114	0.0133678
928.193	0.0133837
928.271	0.0133020
928.349	0.0132356
928.427	0.0133574
928.505	0.0133982
928.583	0.0134765
928.661	0.0134044
928.739	0.0134579
928.818	0.0134161
928.896	0.0133165
928.974	0.0134076
929.052	0.0132973
929.130	0.0134120
929.208	0.0134222
929.286	0.0134597
929.364	0.0134285
929.443	0.0133430
929.521	0.0134112
929.599	0.0133963
929.677	0.0134892
929.755	0.0134428
929.833	0.0135061
929.911	0.0135497
929.989	0.0135027
930.068	0.0135915
930.146	0.0134405
930.224	0.0134174
930.302	0.0134058
930.380	0.0134995
930.458	0.0136066
930.536	0.0136711
930.614	0.0136709
930.693	0.0137129
930.771	0.0135863
930.849	0.0135627
930.927	0.0134888
931.005	0.0135189
931.083	0.0136695
931.161	0.0135503
931.239	0.0136465
931.318	0.0135769
931.396	0.0134296
931.474	0.0134860
931.552	0.0134823
931.630	0.0134289
931.708	0.0134801
931.786	0.0133411
931.864	0.0133475
931.943	0.0132504
932.021	0.0134599
932.099	0.0134044
932.177	0.0132609
932.255	0.0132169
932.333	0.0133665
932.411	0.0132304
932.489	0.0131585
932.568	0.0133298
932.646	0.0133076
932.724	0.0132438
932.802	0.0132562
932.880	0.0134018
932.958	0.0133739
933.036	0.0131669
933.114	0.0131053
933.193	0.0131556
933.271	0.0132415
933.349	0.0132472
933.427	0.0132291
933.505	0.0131546
933.583	0.0131999
933.661	0.0132186
933.739	0.0132771
933.818	0.0132230
933.896	0.0131532
933.974	0.0132711
934.052	0.0131976
934.130	0.0132187
934.208	0.0131886
934.286	0.0131577
934.364	0.0131493
934.443	0.0132920
934.521	0.0132241
934.599	0.0132581
934.677	0.0132727
934.755	0.0131717
934.833	0.0132722
934.911	0.0132047
934.989	0.0131851
935.068	0.0134089
935.146	0.0134323
935.224	0.0133390
935.302	0.0135153
935.380	0.0135165
935.458	0.0134123
935.536	0.0135656
935.614	0.0134306
935.693	0.0135188
935.771	0.0133688
935.849	0.0135022
935.927	0.0134753
936.005	0.0135057
936.083	0.0135424
936.161	0.0135638
936.239	0.0133727
936.318	0.0133134
936.396	0.0135176
936.474	0.0134303
936.552	0.0133170
936.630	0.0133626
936.708	0.0135611
936.786	0.0133459
936.864	0.0134587
936.943	0.0134572
937.021	0.0133629
937.099	0.0133819
937.177	0.0134588
937.255	0.0135388
937.333	0.0134549
937.411	0.0133742
937.489	0.0135632
937.568	0.0134525
937.646	0.0134218
937.724	0.0134097
937.802	0.0133699
937.880	0.0135177
937.958	0.0134582
938.036	0.0134733
938.114	0.0135800
938.193	0.0134520
938.271	0.0134768
938.349	0.0133925
938.427	0.0134068
938.505	0.0134335
938.583	0.0133143
938.661	0.0133678
938.739	0.0134233
938.818	0.0134355
938.896	0.0133701
938.974	0.0133475
939.052	0.0134702
939.130	0.0133311
939.208	0.0132464
939.286	0.0133823
939.364	0.0133795
939.443	0.0133158
939.521	0.0133084
939.599	0.0134225
939.677	0.0134136
939.755	0.0133682
939.833	0.0132051
939.911	0.0132816
939.989	0.0132719
940.068	0.0132403
940.146	0.0131771
940.224	0.0131775
940.302	0.0132584
940.380	0.0132535
940.458	0.0133315
940.536	0.0132654
940.614	0.0132317
940.693	0.0131841
940.771	0.0132751
940.849	0.0133695
940.927	0.0133868
941.005	0.0134081
941.083	0.0133116
941.161	0.0133237
941.239	0.0133568
941.318	0.0132897
941.396	0.0132949
941.474	0.0132352
941.552	0.0133906
941.630	0.0135410
941.708	0.0134520
941.786	0.0133539
941.864	0.0133751
941.943	0.0133487
942.021	0.0133658
942.099	0.0134524
942.177	0.0132787
942.255	0.0133266
942.333	0.0134238
942.411	0.0134567
942.489	0.0133611
942.568	0.0133405
942.646	0.0134208
942.724	0.0132389
942.802	0.0135835
942.880	0.0134305
942.958	0.0133758
943.036	0.0134790
943.114	0.0134689
943.193	0.0135206
943.271	0.0134042
943.349	0.0134953
943.427	0.0135537
943.505	0.0134823
943.583	0.0134908
943.661	0.0135192
943.739	0.0133028
943.818	0.0134466
943.896	0.0134406
943.974	0.0135511
944.052	0.0135858
944.130	0.0134089
944.208	0.0134866
944.286	0.0135683
944.364	0.0134449
944.443	0.0134508
944.521	0.0135797
944.599	0.0135474
944.677	0.0134377
944.755	0.0134140
944.833	0.0135277
944.911	0.0135178
944.989	0.0133462
945.068	0.0133919
945.146	0.0135049
945.224	0.0134970
945.302	0.0135061
945.380	0.0133901
945.458	0.0133958
945.536	0.0133777
945.614	0.0133466
945.693	0.0133441
945.771	0.0134471
945.849	0.0133791
945.927	0.0133175
946.005	0.0132561
946.083	0.0133583
946.161	0.0133134
946.239	0.0133911
946.318	0.0132724
946.396	0.0133241
946.474	0.0132867
946.552	0.0133324
946.630	0.0134358
946.708	0.0132739
946.786	0.0131964
946.864	0.0132952
946.943	0.0132854
947.021	0.0133459
947.099	0.0135425
947.177	0.0134968
947.255	0.0134750
947.333	0.0134468
947.411	0.0134132
947.489	0.0134093
947.568	0.0134423
947.646	0.0134651
947.724	0.0134765
947.802	0.0135132
947.880	0.0134283
947.958	0.0135230
948.036	0.0136646
948.114	0.0134983
948.193	0.0134402
948.271	0.0134948
948.349	0.0136028
948.427	0.0133777
948.505	0.0134120
948.583	0.0134331
948.661	0.0134514
948.739	0.0134827
948.818	0.0134838
948.896	0.0133526
948.974	0.0133888
949.052	0.0135335
949.130	0.0134160
949.208	0.0134472
949.286	0.0136176
949.364	0.0136808
949.443	0.0135491
949.521	0.0135802
949.599	0.0136692
949.677	0.0134216
949.755	0.0135434
949.833	0.0134386
949.911	0.0134074
949.989	0.0133727
950.068	0.0134948
950.146	0.0136175
950.224	0.0136364
950.302	0.0135011
950.380	0.0133735
950.458	0.0134863
950.536	0.0134464
950.614	0.0133556
950.693	0.0134553
950.771	0.0134776
950.849	0.0135802
950.927	0.0133923
951.005	0.0133963
951.083	0.0133789
951.161	0.0133488
951.239	0.0132986
951.318	0.0134618
951.396	0.0134757
951.474	0.0135172
951.552	0.0135593
951.630	0.0133417
951.708	0.0133926
951.786	0.0132883
951.864	0.0133791
951.943	0.0133632
952.021	0.0133940
952.099	0.0135473
952.177	0.0133147
952.255	0.0132139
952.333	0.0134410
952.411	0.0133534
952.489	0.0131701
952.568	0.0132798
952.646	0.0133707
952.724	0.0133586
952.802	0.0134538
952.880	0.0134468
952.958	0.0133598
953.036	0.0133360
953.114	0.0133934
953.193	0.0134082
953.271	0.0133440
953.349	0.0133611
953.427	0.0133516
953.505	0.0135305
953.583	0.0133691
953.661	0.0133683
953.739	0.0134489
953.818	0.0134113
953.896	0.0133086
953.974	0.0133189
954.052	0.0134228
954.130	0.0133577
954.208	0.0133932
954.286	0.0133752
954.364	0.0133617
954.443	0.0134373
954.521	0.0134519
954.599	0.0134227
954.677	0.0134380
954.755	0.0133149
954.833	0.0133911
954.911	0.0132321
954.989	0.0134566
955.068	0.0133682
955.146	0.0134391
955.224	0.0134901
955.302	0.0132832
955.380	0.0134541
955.458	0.0133789
955.536	0.0133575
955.614	0.0133572
955.693	0.0133689
955.771	0.0133058
955.849	0.0133113
955.927	0.0135242
956.005	0.0133122
956.083	0.0133226
956.161	0.0133390
956.239	0.0133028
956.318	0.0133529
956.396	0.0133943
956.474	0.0132922
956.552	0.0133023
956.630	0.0132405
956.708	0.0132764
956.786	0.0133857
956.864	0.0135061
956.943	0.0132841
957.021	0.0131824
957.099	0.0132178
957.177	0.0132261
957.255	0.0132165
957.333	0.0131413
957.411	0.0134135
957.489	0.0133582
957.568	0.0131933
957.646	0.0132568
957.724	0.0132253
957.802	0.0133658
957.880	0.0133099
957.958	0.0132843
958.036	0.0134304
958.114	0.0134585
958.193	0.0134707
958.271	0.0132852
958.349	0.0133703
958.427	0.0133064
958.505	0.0134600
958.583	0.0133565
958.661	0.0135005
958.739	0.0134708
958.818	0.0132630
958.896	0.0133442
958.974	0.0134770
959.052	0.0134469
959.130	0.0133161
959.208	0.0132872
959.286	0.0134151
959.364	0.0135203
959.443	0.0133578
959.521	0.0132735
959.599	0.0134396
959.677	0.0134115
959.755	0.0133325
959.833	0.0133608
959.911	0.0132484
