05/07/2022	17:29:28	Ver.	4.1	UNKNOWN
Optical Delay	639.989416	Delta X		0.078125	Sweeps	1	Scan Rate	0/0
Coordinates	Axis 1	NaN	Axis 2	NaN	Axis 3	NaN	Axis 4	NaN	Axis 5	NaN	Axis 6	0.000000
TX Power	0.000000	RX Power	0.000000

639.989	0.0124982
640.068	0.0124452
640.146	0.0124078
640.224	0.0124751
640.302	0.0123490
640.380	0.0123921
640.458	0.0124060
640.536	0.0124239
640.614	0.0123323
640.693	0.0124431
640.771	0.0124492
640.849	0.0124362
640.927	0.0124049
641.005	0.0122834
641.083	0.0124664
641.161	0.0123463
641.239	0.0123777
641.318	0.0124384
641.396	0.0123225
641.474	0.0122961
641.552	0.0123952
641.630	0.0124471
641.708	0.0123791
641.786	0.0123740
641.864	0.0124205
641.943	0.0124427
642.021	0.0123462
642.099	0.0123409
642.177	0.0124059
642.255	0.0124854
642.333	0.0123632
642.411	0.0124162
642.489	0.0124583
642.568	0.0124826
642.646	0.0124184
642.724	0.0124284
642.802	0.0124191
642.880	0.0123646
642.958	0.0123962
643.036	0.0124421
643.114	0.0124320
643.193	0.0124366
643.271	0.0125621
643.349	0.0123997
643.427	0.0124200
643.505	0.0124469
643.583	0.0125474
643.661	0.0123449
643.739	0.0125446
643.818	0.0125607
643.896	0.0123789
643.974	0.0124261
644.052	0.0124921
644.130	0.0125475
644.208	0.0123596
644.286	0.0123734
644.364	0.0124758
644.443	0.0124238
644.521	0.0124042
644.599	0.0124643
644.677	0.0124016
644.755	0.0124270
644.833	0.0122655
644.911	0.0123566
644.989	0.0125262
645.068	0.0124664
645.146	0.0123938
645.224	0.0123844
645.302	0.0125419
645.380	0.0123672
645.458	0.0124384
645.536	0.0123627
645.614	0.0122527
645.693	0.0124061
645.771	0.0124514
645.849	0.0125109
645.927	0.0123476
646.005	0.0123806
646.083	0.0123918
646.161	0.0124479
646.239	0.0124608
646.318	0.0124556
646.396	0.0123864
646.474	0.0124513
646.552	0.0125347
646.630	0.0125463
646.708	0.0125654
646.786	0.0126127
646.864	0.0125623
646.943	0.0125405
647.021	0.0123666
647.099	0.0124694
647.177	0.0125629
647.255	0.0124919
647.333	0.0124187
647.411	0.0124123
647.489	0.0124847
647.568	0.0125507
647.646	0.0124203
647.724	0.0124222
647.802	0.0123048
647.880	0.0123368
647.958	0.0124481
648.036	0.0124761
648.114	0.0125127
648.193	0.0123811
648.271	0.0123060
648.349	0.0123665
648.427	0.0124647
648.505	0.0123470
648.583	0.0123834
648.661	0.0122739
648.739	0.0123225
648.818	0.0124584
648.896	0.0125622
648.974	0.0125478
649.052	0.0124019
649.130	0.0123412
649.208	0.0124508
649.286	0.0123932
649.364	0.0125407
649.443	0.0125896
649.521	0.0124749
649.599	0.0125848
649.677	0.0125178
649.755	0.0125688
649.833	0.0125726
649.911	0.0125352
649.989	0.0127165
650.068	0.0124767
650.146	0.0125305
650.224	0.0125748
650.302	0.0124966
650.380	0.0125539
650.458	0.0124180
650.536	0.0123003
650.614	0.0123934
650.693	0.0123312
650.771	0.0121852
650.849	0.0120704
650.927	0.0122110
651.005	0.0121001
651.083	0.0121325
651.161	0.0122336
651.239	0.0121839
651.318	0.0121442
651.396	0.0121588
651.474	0.0121097
651.552	0.0122178
651.630	0.0123140
651.708	0.0122704
651.786	0.0123021
651.864	0.0124147
651.943	0.0124525
652.021	0.0124141
652.099	0.0126048
652.177	0.0126807
652.255	0.0125959
652.333	0.0126534
652.411	0.0126588
652.489	0.0129193
652.568	0.0129210
652.646	0.0128111
652.724	0.0127974
652.802	0.0128333
652.880	0.0129258
652.958	0.0127995
653.036	0.0127917
653.114	0.0127927
653.193	0.0127842
653.271	0.0127168
653.349	0.0126115
653.427	0.0124562
653.505	0.0123762
653.583	0.0123943
653.661	0.0122650
653.739	0.0120168
653.818	0.0119880
653.896	0.0119405
653.974	0.0118910
654.052	0.0118668
654.130	0.0116982
654.208	0.0116726
654.286	0.0116826
654.364	0.0117734
654.443	0.0116572
654.521	0.0118641
654.599	0.0118581
654.677	0.0119473
654.755	0.0121363
654.833	0.0122679
654.911	0.0123540
654.989	0.0124750
655.068	0.0126693
655.146	0.0128295
655.224	0.0128830
655.302	0.0128852
655.380	0.0130403
655.458	0.0133103
655.536	0.0133440
655.614	0.0132330
655.693	0.0136158
655.771	0.0135925
655.849	0.0135683
655.927	0.0135683
656.005	0.0135051
656.083	0.0133131
656.161	0.0134700
656.239	0.0134066
656.318	0.0130118
656.396	0.0128960
656.474	0.0127848
656.552	0.0126802
656.630	0.0125453
656.708	0.0122265
656.786	0.0121062
656.864	0.0118773
656.943	0.0116602
657.021	0.0116070
657.099	0.0114630
657.177	0.0113609
657.255	0.0111405
657.333	0.0110601
657.411	0.0111900
657.489	0.0111089
657.568	0.0111107
657.646	0.0112125
657.724	0.0114984
657.802	0.0115197
657.880	0.0117956
657.958	0.0119211
658.036	0.0120010
658.114	0.0123578
658.193	0.0126585
658.271	0.0127384
658.349	0.0129275
658.427	0.0131966
658.505	0.0133694
658.583	0.0134274
658.661	0.0135586
658.739	0.0138210
658.818	0.0138816
658.896	0.0139616
658.974	0.0140565
659.052	0.0140084
659.130	0.0138952
659.208	0.0138423
659.286	0.0137589
659.364	0.0136615
659.443	0.0134898
659.521	0.0134768
659.599	0.0133842
659.677	0.0131535
659.755	0.0129549
659.833	0.0128423
659.911	0.0126135
659.989	0.0125183
660.068	0.0123622
660.146	0.0121376
660.224	0.0121321
660.302	0.0119524
660.380	0.0117130
660.458	0.0116660
660.536	0.0115322
660.614	0.0114648
660.693	0.0115089
660.771	0.0115167
660.849	0.0114517
660.927	0.0112103
661.005	0.0113196
661.083	0.0114216
661.161	0.0115201
661.239	0.0116208
661.318	0.0116179
661.396	0.0117274
661.474	0.0119384
661.552	0.0119955
661.630	0.0121231
661.708	0.0121519
661.786	0.0123797
661.864	0.0125274
661.943	0.0125246
662.021	0.0126701
662.099	0.0127063
662.177	0.0127927
662.255	0.0127657
662.333	0.0130407
662.411	0.0131416
662.489	0.0132246
662.568	0.0131809
662.646	0.0131128
662.724	0.0131428
662.802	0.0131745
662.880	0.0132675
662.958	0.0133321
663.036	0.0132928
663.114	0.0132720
663.193	0.0132512
663.271	0.0133945
663.349	0.0133547
663.427	0.0133682
663.505	0.0132513
663.583	0.0132631
663.661	0.0131844
663.739	0.0131528
663.818	0.0130482
663.896	0.0130662
663.974	0.0129058
664.052	0.0127768
664.130	0.0127082
664.208	0.0127534
664.286	0.0125053
664.364	0.0124380
664.443	0.0122354
664.521	0.0121204
664.599	0.0119904
664.677	0.0120239
664.755	0.0117030
664.833	0.0115253
664.911	0.0114404
664.989	0.0112063
665.068	0.0112704
665.146	0.0111526
665.224	0.0111756
665.302	0.0109879
665.380	0.0110339
665.458	0.0109652
665.536	0.0110336
665.614	0.0112684
665.693	0.0112445
665.771	0.0113187
665.849	0.0115000
665.927	0.0116764
666.005	0.0118772
666.083	0.0119904
666.161	0.0123259
666.239	0.0125312
666.318	0.0127792
666.396	0.0128955
666.474	0.0131449
666.552	0.0134711
666.630	0.0135037
666.708	0.0136627
666.786	0.0137992
666.864	0.0139705
666.943	0.0140508
667.021	0.0143320
667.099	0.0141652
667.177	0.0142471
667.255	0.0142867
667.333	0.0141454
667.411	0.0141206
667.489	0.0138255
667.568	0.0137200
667.646	0.0135140
667.724	0.0132170
667.802	0.0129255
667.880	0.0127853
667.958	0.0126414
668.036	0.0123024
668.114	0.0122338
668.193	0.0119410
668.271	0.0117268
668.349	0.0114196
668.427	0.0114127
668.505	0.0112819
668.583	0.0111474
668.661	0.0111635
668.739	0.0110604
668.818	0.0108893
668.896	0.0110631
668.974	0.0110062
669.052	0.0111052
669.130	0.0112196
669.208	0.0114306
669.286	0.0116673
669.364	0.0118523
669.443	0.0117300
669.521	0.0119838
669.599	0.0122822
669.677	0.0124754
669.755	0.0126426
669.833	0.0126192
669.911	0.0126888
669.989	0.0129067
670.068	0.0127813
670.146	0.0128845
670.224	0.0129484
670.302	0.0129048
670.380	0.0126557
670.458	0.0126841
670.536	0.0126537
670.614	0.0126733
670.693	0.0124436
670.771	0.0126545
670.849	0.0123946
670.927	0.0123470
671.005	0.0123472
671.083	0.0123365
671.161	0.0123242
671.239	0.0124750
671.318	0.0123750
671.396	0.0124255
671.474	0.0123790
671.552	0.0124627
671.630	0.0126426
671.708	0.0127002
671.786	0.0128055
671.864	0.0128214
671.943	0.0130657
672.021	0.0129503
672.099	0.0128703
672.177	0.0130151
672.255	0.0130999
672.333	0.0131013
672.411	0.0129556
672.489	0.0130675
672.568	0.0132494
672.646	0.0129840
672.724	0.0128155
672.802	0.0127361
672.880	0.0125547
672.958	0.0125532
673.036	0.0124385
673.114	0.0122170
673.193	0.0119492
673.271	0.0119171
673.349	0.0118631
673.427	0.0116766
673.505	0.0117977
673.583	0.0117061
673.661	0.0114971
673.739	0.0114545
673.818	0.0115075
673.896	0.0117085
673.974	0.0117582
674.052	0.0119431
674.130	0.0119064
674.208	0.0121148
674.286	0.0121266
674.364	0.0123905
674.443	0.0123575
674.521	0.0124876
674.599	0.0125520
674.677	0.0125579
674.755	0.0128716
674.833	0.0127231
674.911	0.0128236
674.989	0.0128512
675.068	0.0129809
675.146	0.0129191
675.224	0.0128748
675.302	0.0129539
675.380	0.0129149
675.458	0.0127306
675.536	0.0127868
675.614	0.0127355
675.693	0.0125998
675.771	0.0125665
675.849	0.0124704
675.927	0.0123934
676.005	0.0122814
676.083	0.0122802
676.161	0.0122982
676.239	0.0122230
676.318	0.0122368
676.396	0.0122749
676.474	0.0122103
676.552	0.0122173
676.630	0.0124402
676.708	0.0124242
676.786	0.0124360
676.864	0.0125046
676.943	0.0126437
677.021	0.0126715
677.099	0.0126479
677.177	0.0126204
677.255	0.0125334
677.333	0.0125664
677.411	0.0124514
677.489	0.0124380
677.568	0.0124879
677.646	0.0123173
677.724	0.0121942
677.802	0.0121038
677.880	0.0121709
677.958	0.0119386
678.036	0.0119467
678.114	0.0118044
678.193	0.0117944
678.271	0.0117366
678.349	0.0115697
678.427	0.0117258
678.505	0.0117620
678.583	0.0120361
678.661	0.0120078
678.739	0.0122214
678.818	0.0122272
678.896	0.0126549
678.974	0.0130286
679.052	0.0129814
679.130	0.0131897
679.208	0.0134750
679.286	0.0136621
679.364	0.0137898
679.443	0.0140101
679.521	0.0142859
679.599	0.0143787
679.677	0.0143443
679.755	0.0143752
679.833	0.0144918
679.911	0.0145416
679.989	0.0143830
680.068	0.0142111
680.146	0.0140025
680.224	0.0137571
680.302	0.0136411
680.380	0.0132193
680.458	0.0128252
680.536	0.0125134
680.614	0.0121787
680.693	0.0118159
680.771	0.0113383
680.849	0.0109863
680.927	0.0107007
681.005	0.0102217
681.083	0.0101335
681.161	0.00996529
681.239	0.00962051
681.318	0.00959923
681.396	0.00948273
681.474	0.00950729
681.552	0.00961189
681.630	0.00971115
681.708	0.00984177
681.786	0.0100650
681.864	0.0103841
681.943	0.0107428
682.021	0.0110117
682.099	0.0112853
682.177	0.0118208
682.255	0.0122118
682.333	0.0126190
682.411	0.0130721
682.489	0.0133442
682.568	0.0136053
682.646	0.0140215
682.724	0.0142663
682.802	0.0145143
682.880	0.0146124
682.958	0.0149383
683.036	0.0151418
683.114	0.0152078
683.193	0.0151604
683.271	0.0151092
683.349	0.0151316
683.427	0.0150433
683.505	0.0149104
683.583	0.0148969
683.661	0.0146569
683.739	0.0144049
683.818	0.0142651
683.896	0.0139778
683.974	0.0135535
684.052	0.0134327
684.130	0.0131811
684.208	0.0129429
684.286	0.0128103
684.364	0.0124866
684.443	0.0122262
684.521	0.0120881
684.599	0.0119775
684.677	0.0117771
684.755	0.0115804
684.833	0.0117879
684.911	0.0114960
684.989	0.0114993
685.068	0.0115452
685.146	0.0113147
685.224	0.0113230
685.302	0.0112138
685.380	0.0111897
685.458	0.0111777
685.536	0.0111958
685.614	0.0111486
685.693	0.0109494
685.771	0.0110129
685.849	0.0109816
685.927	0.0110770
686.005	0.0108868
686.083	0.0108469
686.161	0.0108653
686.239	0.0107709
686.318	0.0106754
686.396	0.0107597
686.474	0.0107491
686.552	0.0107488
686.630	0.0107787
686.708	0.0109223
686.786	0.0111143
686.864	0.0110978
686.943	0.0113594
687.021	0.0116579
687.099	0.0118489
687.177	0.0121265
687.255	0.0124479
687.333	0.0127209
687.411	0.0131040
687.489	0.0133703
687.568	0.0137505
687.646	0.0142046
687.724	0.0146541
687.802	0.0147755
687.880	0.0151250
687.958	0.0154462
688.036	0.0155385
688.114	0.0157120
688.193	0.0157191
688.271	0.0159246
688.349	0.0158250
688.427	0.0155688
688.505	0.0154143
688.583	0.0152785
688.661	0.0149238
688.739	0.0147060
688.818	0.0141866
688.896	0.0137781
688.974	0.0135488
689.052	0.0132650
689.130	0.0127512
689.208	0.0122613
689.286	0.0121539
689.364	0.0118005
689.443	0.0115422
689.521	0.0111986
689.599	0.0109355
689.677	0.0108255
689.755	0.0107419
689.833	0.0105990
689.911	0.0105414
689.989	0.0105251
690.068	0.0106236
690.146	0.0107199
690.224	0.0107504
690.302	0.0107677
690.380	0.0110389
690.458	0.0111134
690.536	0.0112794
690.614	0.0115800
690.693	0.0116371
690.771	0.0117646
690.849	0.0119607
690.927	0.0120467
691.005	0.0121860
691.083	0.0122391
691.161	0.0121928
691.239	0.0123154
691.318	0.0122714
691.396	0.0123519
691.474	0.0120949
691.552	0.0119788
691.630	0.0118616
691.708	0.0118284
691.786	0.0116949
691.864	0.0115060
691.943	0.0116149
692.021	0.0114700
692.099	0.0114574
692.177	0.0115188
692.255	0.0115347
692.333	0.0114704
692.411	0.0118457
692.489	0.0120863
692.568	0.0121301
692.646	0.0123858
692.724	0.0126593
692.802	0.0128127
692.880	0.0130141
692.958	0.0132831
693.036	0.0134902
693.114	0.0136358
693.193	0.0138493
693.271	0.0140428
693.349	0.0141235
693.427	0.0144296
693.505	0.0142986
693.583	0.0143794
693.661	0.0145395
693.739	0.0145361
693.818	0.0144900
693.896	0.0143955
693.974	0.0142539
694.052	0.0141903
694.130	0.0139270
694.208	0.0137754
694.286	0.0135080
694.364	0.0132814
694.443	0.0129314
694.521	0.0128902
694.599	0.0125498
694.677	0.0121667
694.755	0.0120592
694.833	0.0117388
694.911	0.0117948
694.989	0.0115273
695.068	0.0112482
695.146	0.0113757
695.224	0.0113051
695.302	0.0113404
695.380	0.0113932
695.458	0.0113780
695.536	0.0112942
695.614	0.0114130
695.693	0.0116594
695.771	0.0118037
695.849	0.0117297
695.927	0.0119070
696.005	0.0118001
696.083	0.0119564
696.161	0.0121709
696.239	0.0121084
696.318	0.0121494
696.396	0.0119313
696.474	0.0120081
696.552	0.0120715
696.630	0.0119968
696.708	0.0118676
696.786	0.0119005
696.864	0.0117790
696.943	0.0118728
697.021	0.0117690
697.099	0.0116572
697.177	0.0118604
697.255	0.0118909
697.333	0.0118048
697.411	0.0117834
697.489	0.0118683
697.568	0.0119895
697.646	0.0118974
697.724	0.0120271
697.802	0.0122855
697.880	0.0122494
697.958	0.0123415
698.036	0.0123533
698.114	0.0123344
698.193	0.0124223
698.271	0.0124778
698.349	0.0125250
698.427	0.0125677
698.505	0.0126298
698.583	0.0126150
698.661	0.0126078
698.739	0.0126145
698.818	0.0126816
698.896	0.0127358
698.974	0.0126431
699.052	0.0128203
699.130	0.0128598
699.208	0.0129893
699.286	0.0131251
699.364	0.0133118
699.443	0.0134356
699.521	0.0136156
699.599	0.0136784
699.677	0.0137865
699.755	0.0137538
699.833	0.0137654
699.911	0.0141102
699.989	0.0141529
700.068	0.0140117
700.146	0.0139539
700.224	0.0139509
700.302	0.0137933
700.380	0.0138162
700.458	0.0137049
700.536	0.0136610
700.614	0.0135487
700.693	0.0135350
700.771	0.0132957
700.849	0.0132209
700.927	0.0131332
701.005	0.0129271
701.083	0.0126836
701.161	0.0125715
701.239	0.0123467
701.318	0.0123803
701.396	0.0121392
701.474	0.0117574
701.552	0.0117704
701.630	0.0116570
701.708	0.0114693
701.786	0.0114727
701.864	0.0112950
701.943	0.0110140
702.021	0.0111847
702.099	0.0109877
702.177	0.0109296
702.255	0.0108971
702.333	0.0108235
702.411	0.0109631
702.489	0.0108904
702.568	0.0109424
702.646	0.0110759
702.724	0.0111534
702.802	0.0112445
702.880	0.0114474
702.958	0.0115116
703.036	0.0116580
703.114	0.0117532
703.193	0.0118669
703.271	0.0120844
703.349	0.0122262
703.427	0.0124080
703.505	0.0125156
703.583	0.0125224
703.661	0.0126649
703.739	0.0125770
703.818	0.0127204
703.896	0.0127891
703.974	0.0126495
704.052	0.0126107
704.130	0.0127718
704.208	0.0125888
704.286	0.0126430
704.364	0.0126263
704.443	0.0126254
704.521	0.0126842
704.599	0.0127509
704.677	0.0128216
704.755	0.0129080
704.833	0.0131104
704.911	0.0131518
704.989	0.0131675
705.068	0.0132307
705.146	0.0134227
705.224	0.0133770
705.302	0.0137440
705.380	0.0137603
705.458	0.0137708
705.536	0.0138157
705.614	0.0140026
705.693	0.0140940
705.771	0.0140795
705.849	0.0141308
705.927	0.0141721
706.005	0.0139603
706.083	0.0138903
706.161	0.0138761
706.239	0.0139034
706.318	0.0137074
706.396	0.0135838
706.474	0.0134929
706.552	0.0134287
706.630	0.0131232
706.708	0.0130135
706.786	0.0127717
706.864	0.0127397
706.943	0.0125285
707.021	0.0125842
707.099	0.0123086
707.177	0.0121464
707.255	0.0119247
707.333	0.0118842
707.411	0.0117920
707.489	0.0116427
707.568	0.0114384
707.646	0.0113302
707.724	0.0112103
707.802	0.0112908
707.880	0.0110831
707.958	0.0110016
708.036	0.0108246
708.114	0.0108189
708.193	0.0106465
708.271	0.0107235
708.349	0.0105656
708.427	0.0104995
708.505	0.0104928
708.583	0.0106246
708.661	0.0106178
708.739	0.0107669
708.818	0.0109152
708.896	0.0109349
708.974	0.0110711
709.052	0.0114062
709.130	0.0115218
709.208	0.0117090
709.286	0.0118433
709.364	0.0121030
709.443	0.0122430
709.521	0.0123942
709.599	0.0125011
709.677	0.0126091
709.755	0.0127755
709.833	0.0128542
709.911	0.0129556
709.989	0.0131161
710.068	0.0133351
710.146	0.0133169
710.224	0.0132767
710.302	0.0134330
710.380	0.0135683
710.458	0.0137101
710.536	0.0137817
710.614	0.0138969
710.693	0.0139418
710.771	0.0140620
710.849	0.0140887
710.927	0.0141319
711.005	0.0141522
711.083	0.0141811
711.161	0.0141170
711.239	0.0142142
711.318	0.0141874
711.396	0.0141939
711.474	0.0142862
711.552	0.0142257
711.630	0.0141607
711.708	0.0139813
711.786	0.0138511
711.864	0.0138664
711.943	0.0136674
712.021	0.0134406
712.099	0.0134367
712.177	0.0132340
712.255	0.0131062
712.333	0.0130151
712.411	0.0129554
712.489	0.0126316
712.568	0.0123802
712.646	0.0122176
712.724	0.0121798
712.802	0.0118768
712.880	0.0115359
712.958	0.0115963
713.036	0.0114877
713.114	0.0111909
713.193	0.0110598
713.271	0.0109463
713.349	0.0106602
713.427	0.0107293
713.505	0.0106496
713.583	0.0105779
713.661	0.0105307
713.739	0.0103539
713.818	0.0104669
713.896	0.0105368
713.974	0.0103997
714.052	0.0104219
714.130	0.0104857
714.208	0.0104575
714.286	0.0107239
714.364	0.0108553
714.443	0.0108965
714.521	0.0108026
714.599	0.0110045
714.677	0.0111057
714.755	0.0114741
714.833	0.0114416
714.911	0.0114484
714.989	0.0118465
715.068	0.0117778
715.146	0.0119411
715.224	0.0121798
715.302	0.0122780
715.380	0.0124367
715.458	0.0126839
715.536	0.0127526
715.614	0.0129381
715.693	0.0131923
715.771	0.0132788
715.849	0.0133558
715.927	0.0135510
716.005	0.0136417
716.083	0.0137563
716.161	0.0141017
716.239	0.0141013
716.318	0.0142192
716.396	0.0143201
716.474	0.0143863
716.552	0.0142590
716.630	0.0144846
716.708	0.0145345
716.786	0.0146088
716.864	0.0144645
716.943	0.0144771
717.021	0.0144834
717.099	0.0142701
717.177	0.0141676
717.255	0.0140599
717.333	0.0140284
717.411	0.0138387
717.489	0.0136495
717.568	0.0135464
717.646	0.0133465
717.724	0.0130698
717.802	0.0129319
717.880	0.0127633
717.958	0.0125468
718.036	0.0123167
718.114	0.0119576
718.193	0.0120091
718.271	0.0119011
718.349	0.0117709
718.427	0.0115809
718.505	0.0113904
718.583	0.0112447
718.661	0.0112393
718.739	0.0110065
718.818	0.0110442
718.896	0.0109692
718.974	0.0109055
719.052	0.0109525
719.130	0.0107643
719.208	0.0107301
719.286	0.0106437
719.364	0.0106636
719.443	0.0106525
719.521	0.0105768
719.599	0.0105586
719.677	0.0106284
719.755	0.0108681
719.833	0.0107168
719.911	0.0108497
719.989	0.0109151
720.068	0.0109602
720.146	0.0111562
720.224	0.0113290
720.302	0.0114095
720.380	0.0116351
720.458	0.0117123
720.536	0.0117525
720.614	0.0120435
720.693	0.0121369
720.771	0.0122395
720.849	0.0124359
720.927	0.0125800
721.005	0.0126874
721.083	0.0128699
721.161	0.0129578
721.239	0.0128962
721.318	0.0131748
721.396	0.0132713
721.474	0.0134095
721.552	0.0134724
721.630	0.0134877
721.708	0.0136433
721.786	0.0137421
721.864	0.0137771
721.943	0.0138305
722.021	0.0138107
722.099	0.0138902
722.177	0.0140157
722.255	0.0138068
722.333	0.0140297
722.411	0.0138109
722.489	0.0139983
722.568	0.0138516
722.646	0.0137809
722.724	0.0136739
722.802	0.0136959
722.880	0.0135570
722.958	0.0133638
723.036	0.0134511
723.114	0.0133207
723.193	0.0132359
723.271	0.0131519
723.349	0.0129706
723.427	0.0128657
723.505	0.0126449
723.583	0.0125227
723.661	0.0125665
723.739	0.0123284
723.818	0.0122997
723.896	0.0121026
723.974	0.0119678
724.052	0.0119266
724.130	0.0119791
724.208	0.0118279
724.286	0.0117062
724.364	0.0117429
724.443	0.0117123
724.521	0.0116916
724.599	0.0116893
724.677	0.0116287
724.755	0.0118343
724.833	0.0117159
724.911	0.0117242
724.989	0.0115933
725.068	0.0115117
725.146	0.0116416
725.224	0.0115737
725.302	0.0117030
725.380	0.0116372
725.458	0.0117724
725.536	0.0116161
725.614	0.0117355
725.693	0.0117510
725.771	0.0117175
725.849	0.0118938
725.927	0.0118768
726.005	0.0118147
726.083	0.0118665
726.161	0.0121215
726.239	0.0121098
726.318	0.0120473
726.396	0.0122057
726.474	0.0121431
726.552	0.0122788
726.630	0.0122025
726.708	0.0122820
726.786	0.0123966
726.864	0.0124555
726.943	0.0123321
727.021	0.0124856
727.099	0.0124921
727.177	0.0126944
727.255	0.0127947
727.333	0.0127641
727.411	0.0128191
727.489	0.0129556
727.568	0.0130090
727.646	0.0131078
727.724	0.0131507
727.802	0.0132539
727.880	0.0134538
727.958	0.0134072
728.036	0.0134810
728.114	0.0136495
728.193	0.0135406
728.271	0.0136178
728.349	0.0134966
728.427	0.0137439
728.505	0.0136782
728.583	0.0135641
728.661	0.0136102
728.739	0.0134944
728.818	0.0135793
728.896	0.0133123
728.974	0.0133949
729.052	0.0133714
729.130	0.0130807
729.208	0.0130631
729.286	0.0131473
729.364	0.0130473
729.443	0.0129015
729.521	0.0126543
729.599	0.0127478
729.677	0.0127012
729.755	0.0124719
729.833	0.0124782
729.911	0.0125851
729.989	0.0123859
730.068	0.0123275
730.146	0.0122935
730.224	0.0121734
730.302	0.0121790
730.380	0.0120226
730.458	0.0120050
730.536	0.0120029
730.614	0.0119519
730.693	0.0117728
730.771	0.0118644
730.849	0.0119794
730.927	0.0117891
731.005	0.0117867
731.083	0.0118555
731.161	0.0116588
731.239	0.0116834
731.318	0.0115386
731.396	0.0115566
731.474	0.0115369
731.552	0.0114785
731.630	0.0116882
731.708	0.0117784
731.786	0.0117391
731.864	0.0118925
731.943	0.0119131
732.021	0.0120256
732.099	0.0121174
732.177	0.0121482
732.255	0.0123251
732.333	0.0123698
732.411	0.0123400
732.489	0.0123495
732.568	0.0123984
732.646	0.0125951
732.724	0.0126223
732.802	0.0126363
732.880	0.0128541
732.958	0.0127715
733.036	0.0127698
733.114	0.0128766
733.193	0.0129337
733.271	0.0130080
733.349	0.0131181
733.427	0.0130867
733.505	0.0129626
733.583	0.0130997
733.661	0.0130959
733.739	0.0130791
733.818	0.0129909
733.896	0.0129480
733.974	0.0128060
734.052	0.0128298
734.130	0.0127374
734.208	0.0127512
734.286	0.0127388
734.364	0.0127013
734.443	0.0125734
734.521	0.0125883
734.599	0.0126888
734.677	0.0125394
734.755	0.0125359
734.833	0.0125396
734.911	0.0126328
734.989	0.0125893
735.068	0.0125856
735.146	0.0124696
735.224	0.0125761
735.302	0.0126044
735.380	0.0125706
735.458	0.0125855
735.536	0.0127565
735.614	0.0128043
735.693	0.0126814
735.771	0.0127976
735.849	0.0128128
735.927	0.0128764
736.005	0.0128032
736.083	0.0128646
736.161	0.0128738
736.239	0.0126826
736.318	0.0125697
736.396	0.0124371
736.474	0.0125811
736.552	0.0122737
736.630	0.0122024
736.708	0.0122172
736.786	0.0122389
736.864	0.0120200
736.943	0.0121119
737.021	0.0118403
737.099	0.0117339
737.177	0.0117732
737.255	0.0117281
737.333	0.0115388
737.411	0.0114838
737.489	0.0115935
737.568	0.0114407
737.646	0.0115779
737.724	0.0115451
737.802	0.0115891
737.880	0.0117575
737.958	0.0116582
738.036	0.0117671
738.114	0.0119776
738.193	0.0118903
738.271	0.0119413
738.349	0.0120993
738.427	0.0121526
738.505	0.0122639
738.583	0.0123660
738.661	0.0123370
738.739	0.0124344
738.818	0.0127304
738.896	0.0127116
738.974	0.0125813
739.052	0.0126477
739.130	0.0127436
739.208	0.0126598
739.286	0.0127309
739.364	0.0127187
739.443	0.0127613
739.521	0.0127618
739.599	0.0126999
739.677	0.0126396
739.755	0.0126016
739.833	0.0126864
739.911	0.0123487
739.989	0.0124605
740.068	0.0127061
740.146	0.0124180
740.224	0.0125639
740.302	0.0125642
740.380	0.0125217
740.458	0.0123982
740.536	0.0126162
740.614	0.0124751
740.693	0.0124305
740.771	0.0124892
740.849	0.0124969
740.927	0.0126265
741.005	0.0125108
741.083	0.0125517
741.161	0.0125214
741.239	0.0126008
741.318	0.0126324
741.396	0.0126064
741.474	0.0126215
741.552	0.0124622
741.630	0.0125903
741.708	0.0125043
741.786	0.0125529
741.864	0.0125095
741.943	0.0124699
742.021	0.0125348
742.099	0.0125914
742.177	0.0123622
742.255	0.0124399
742.333	0.0124419
742.411	0.0125153
742.489	0.0125517
742.568	0.0123463
742.646	0.0123541
742.724	0.0124009
742.802	0.0123395
742.880	0.0122599
742.958	0.0121925
743.036	0.0122816
743.114	0.0123456
743.193	0.0124314
743.271	0.0121236
743.349	0.0121051
743.427	0.0121490
743.505	0.0121533
743.583	0.0120706
743.661	0.0122026
743.739	0.0120111
743.818	0.0119943
743.896	0.0119741
743.974	0.0119562
744.052	0.0119362
744.130	0.0119269
744.208	0.0119289
744.286	0.0119367
744.364	0.0121898
744.443	0.0120479
744.521	0.0121562
744.599	0.0122198
744.677	0.0122488
744.755	0.0123093
744.833	0.0122856
744.911	0.0122821
744.989	0.0123730
745.068	0.0124823
745.146	0.0124409
745.224	0.0124605
745.302	0.0124562
745.380	0.0125506
745.458	0.0125578
745.536	0.0124911
745.614	0.0124660
745.693	0.0125523
745.771	0.0125578
745.849	0.0125584
745.927	0.0125600
746.005	0.0124316
746.083	0.0126077
746.161	0.0127551
746.239	0.0126256
746.318	0.0126970
746.396	0.0126744
746.474	0.0127803
746.552	0.0127749
746.630	0.0129012
746.708	0.0129553
746.786	0.0130193
746.864	0.0130125
746.943	0.0128274
747.021	0.0129305
747.099	0.0129208
747.177	0.0128977
747.255	0.0128410
747.333	0.0128627
747.411	0.0128772
747.489	0.0127152
747.568	0.0128573
747.646	0.0127744
747.724	0.0126566
747.802	0.0124708
747.880	0.0126229
747.958	0.0124688
748.036	0.0124425
748.114	0.0125310
748.193	0.0123040
748.271	0.0123923
748.349	0.0123280
748.427	0.0124162
748.505	0.0123383
748.583	0.0123932
748.661	0.0124734
748.739	0.0126353
748.818	0.0124847
748.896	0.0125150
748.974	0.0127346
749.052	0.0126635
749.130	0.0126698
749.208	0.0126630
749.286	0.0126437
749.364	0.0126507
749.443	0.0127422
749.521	0.0126150
749.599	0.0124959
749.677	0.0124641
749.755	0.0124286
749.833	0.0124734
749.911	0.0122855
749.989	0.0122653
750.068	0.0123003
750.146	0.0121557
750.224	0.0120145
750.302	0.0121610
750.380	0.0123252
750.458	0.0120628
750.536	0.0120476
750.614	0.0121558
750.693	0.0121289
750.771	0.0121433
750.849	0.0121278
750.927	0.0123557
751.005	0.0123669
751.083	0.0123100
751.161	0.0125686
751.239	0.0124545
751.318	0.0124479
751.396	0.0124624
751.474	0.0126125
751.552	0.0125585
751.630	0.0126098
751.708	0.0126093
751.786	0.0126952
751.864	0.0127201
751.943	0.0126933
752.021	0.0127486
752.099	0.0127915
752.177	0.0127747
752.255	0.0128452
752.333	0.0127719
752.411	0.0127445
752.489	0.0126962
752.568	0.0128594
752.646	0.0127637
752.724	0.0128684
752.802	0.0129112
752.880	0.0127540
752.958	0.0126865
753.036	0.0125282
753.114	0.0125945
753.193	0.0126178
753.271	0.0125729
753.349	0.0126254
753.427	0.0126154
753.505	0.0126263
753.583	0.0125128
753.661	0.0123331
753.739	0.0125228
753.818	0.0126103
753.896	0.0123558
753.974	0.0123147
754.052	0.0122380
754.130	0.0122243
754.208	0.0122992
754.286	0.0121236
754.364	0.0122908
754.443	0.0121391
754.521	0.0123096
754.599	0.0122962
754.677	0.0121854
754.755	0.0122407
754.833	0.0122812
754.911	0.0123931
754.989	0.0123912
755.068	0.0123114
755.146	0.0122807
755.224	0.0124723
755.302	0.0123317
755.380	0.0124477
755.458	0.0125084
755.536	0.0126865
755.614	0.0126308
755.693	0.0126550
755.771	0.0125167
755.849	0.0126144
755.927	0.0127422
756.005	0.0125476
756.083	0.0125891
756.161	0.0125403
756.239	0.0125628
756.318	0.0126911
756.396	0.0125500
756.474	0.0125002
756.552	0.0123694
756.630	0.0123983
756.708	0.0123446
756.786	0.0123596
756.864	0.0122675
756.943	0.0122670
757.021	0.0123178
757.099	0.0123163
757.177	0.0122769
757.255	0.0124225
757.333	0.0121967
757.411	0.0122746
757.489	0.0122992
757.568	0.0123365
757.646	0.0124469
757.724	0.0122768
757.802	0.0123206
757.880	0.0123512
757.958	0.0124943
758.036	0.0123391
758.114	0.0122513
758.193	0.0123066
758.271	0.0124603
758.349	0.0124412
758.427	0.0124465
758.505	0.0124915
758.583	0.0125253
758.661	0.0125038
758.739	0.0124575
758.818	0.0125388
758.896	0.0124395
758.974	0.0125731
759.052	0.0125977
759.130	0.0127438
759.208	0.0125550
759.286	0.0124668
759.364	0.0126736
759.443	0.0126740
759.521	0.0124192
759.599	0.0125793
759.677	0.0124997
759.755	0.0125079
759.833	0.0127312
759.911	0.0126283
759.989	0.0127987
760.068	0.0127358
760.146	0.0127695
760.224	0.0127557
760.302	0.0129311
760.380	0.0128959
760.458	0.0128182
760.536	0.0127203
760.614	0.0128358
760.693	0.0126621
760.771	0.0128922
760.849	0.0126686
760.927	0.0124586
761.005	0.0124535
761.083	0.0126102
761.161	0.0124210
761.239	0.0122527
761.318	0.0122900
761.396	0.0121899
761.474	0.0121379
761.552	0.0122674
761.630	0.0122391
761.708	0.0122311
761.786	0.0122498
761.864	0.0123461
761.943	0.0122952
762.021	0.0122226
762.099	0.0123247
762.177	0.0123638
762.255	0.0122873
762.333	0.0124132
762.411	0.0123057
762.489	0.0123920
762.568	0.0123553
762.646	0.0123109
762.724	0.0125430
762.802	0.0124261
762.880	0.0124210
762.958	0.0123527
763.036	0.0123749
763.114	0.0124223
763.193	0.0124762
763.271	0.0125531
763.349	0.0124505
763.427	0.0125191
763.505	0.0123595
763.583	0.0126569
763.661	0.0125984
763.739	0.0124001
763.818	0.0125390
763.896	0.0126619
763.974	0.0125327
764.052	0.0125662
764.130	0.0125256
764.208	0.0127505
764.286	0.0126086
764.364	0.0125795
764.443	0.0125632
764.521	0.0126756
764.599	0.0127068
764.677	0.0125471
764.755	0.0125675
764.833	0.0123952
764.911	0.0125716
764.989	0.0124876
765.068	0.0124270
765.146	0.0123598
765.224	0.0124975
765.302	0.0123624
765.380	0.0122768
765.458	0.0122239
765.536	0.0121658
765.614	0.0122596
765.693	0.0121780
765.771	0.0121703
765.849	0.0123418
765.927	0.0123978
766.005	0.0123263
766.083	0.0122658
766.161	0.0122373
766.239	0.0123858
766.318	0.0125181
766.396	0.0125215
766.474	0.0125604
766.552	0.0127458
766.630	0.0126249
766.708	0.0126606
766.786	0.0126888
766.864	0.0128228
766.943	0.0128763
767.021	0.0127698
767.099	0.0127221
767.177	0.0127531
767.255	0.0127142
767.333	0.0127037
767.411	0.0126098
767.489	0.0127214
767.568	0.0126877
767.646	0.0124329
767.724	0.0124112
767.802	0.0124768
767.880	0.0124679
767.958	0.0124351
768.036	0.0123349
768.114	0.0124898
768.193	0.0126016
768.271	0.0122395
768.349	0.0123515
768.427	0.0125261
768.505	0.0124229
768.583	0.0124654
768.661	0.0123466
768.739	0.0122977
768.818	0.0122531
768.896	0.0123757
768.974	0.0124446
769.052	0.0123219
769.130	0.0124525
769.208	0.0123473
769.286	0.0124500
769.364	0.0123466
769.443	0.0124278
769.521	0.0123108
769.599	0.0122628
769.677	0.0123370
769.755	0.0123179
769.833	0.0122731
769.911	0.0122332
769.989	0.0121662
770.068	0.0120184
770.146	0.0120228
770.224	0.0120602
770.302	0.0119344
770.380	0.0120165
770.458	0.0120910
770.536	0.0119230
770.614	0.0121531
770.693	0.0121447
770.771	0.0120861
770.849	0.0121382
770.927	0.0121364
771.005	0.0122771
771.083	0.0122811
771.161	0.0121605
771.239	0.0123030
771.318	0.0123730
771.396	0.0123550
771.474	0.0122795
771.552	0.0125152
771.630	0.0124469
771.708	0.0124342
771.786	0.0125454
771.864	0.0126379
771.943	0.0125170
772.021	0.0127078
772.099	0.0126746
772.177	0.0126875
772.255	0.0127541
772.333	0.0126478
772.411	0.0126109
772.489	0.0126580
772.568	0.0126250
772.646	0.0126615
772.724	0.0126449
772.802	0.0125638
772.880	0.0126583
772.958	0.0126296
773.036	0.0126451
773.114	0.0126443
773.193	0.0125488
773.271	0.0126929
773.349	0.0127693
773.427	0.0127160
773.505	0.0125475
773.583	0.0126493
773.661	0.0125636
773.739	0.0124894
773.818	0.0124475
773.896	0.0125041
773.974	0.0124451
774.052	0.0123429
774.130	0.0122852
774.208	0.0122729
774.286	0.0122684
774.364	0.0121852
774.443	0.0120982
774.521	0.0121185
774.599	0.0121389
774.677	0.0120073
774.755	0.0120341
774.833	0.0120927
774.911	0.0120202
774.989	0.0121112
775.068	0.0121031
775.146	0.0120972
775.224	0.0121278
775.302	0.0122286
775.380	0.0123033
775.458	0.0123248
775.536	0.0123022
775.614	0.0124126
775.693	0.0122527
775.771	0.0124813
775.849	0.0126023
775.927	0.0126505
776.005	0.0125975
776.083	0.0126360
776.161	0.0127285
776.239	0.0127885
776.318	0.0129012
776.396	0.0127287
776.474	0.0128680
776.552	0.0127735
776.630	0.0126277
776.708	0.0128722
776.786	0.0128383
776.864	0.0126452
776.943	0.0125867
777.021	0.0125995
777.099	0.0126334
777.177	0.0126019
777.255	0.0125428
777.333	0.0123878
777.411	0.0123607
777.489	0.0124709
777.568	0.0123160
777.646	0.0122581
777.724	0.0122752
777.802	0.0122622
777.880	0.0121750
777.958	0.0120464
778.036	0.0121807
778.114	0.0122005
778.193	0.0121545
778.271	0.0122569
778.349	0.0123051
778.427	0.0121543
778.505	0.0122072
778.583	0.0122969
778.661	0.0122265
778.739	0.0122128
778.818	0.0123800
778.896	0.0124026
778.974	0.0124538
779.052	0.0124654
779.130	0.0125246
779.208	0.0125211
779.286	0.0124242
779.364	0.0125538
779.443	0.0127081
779.521	0.0127173
779.599	0.0127845
779.677	0.0128184
779.755	0.0128201
779.833	0.0129108
779.911	0.0129573
779.989	0.0129263
780.068	0.0129512
780.146	0.0128598
780.224	0.0128525
780.302	0.0128510
780.380	0.0128895
780.458	0.0127931
780.536	0.0128223
780.614	0.0126918
780.693	0.0127163
780.771	0.0126803
780.849	0.0126505
780.927	0.0125599
781.005	0.0125216
781.083	0.0124332
781.161	0.0124609
781.239	0.0123787
781.318	0.0123313
781.396	0.0124575
781.474	0.0123453
781.552	0.0122841
781.630	0.0123456
781.708	0.0122820
781.786	0.0123384
781.864	0.0122115
781.943	0.0123042
782.021	0.0122284
782.099	0.0122358
782.177	0.0123230
782.255	0.0124254
782.333	0.0123473
782.411	0.0124891
782.489	0.0123431
782.568	0.0123373
782.646	0.0123332
782.724	0.0123650
782.802	0.0124133
782.880	0.0122752
782.958	0.0122700
783.036	0.0122163
783.114	0.0123163
783.193	0.0122007
783.271	0.0120930
783.349	0.0122231
783.427	0.0122604
783.505	0.0121629
783.583	0.0122578
783.661	0.0121840
783.739	0.0122424
783.818	0.0124216
783.896	0.0124237
783.974	0.0124585
784.052	0.0124743
784.130	0.0126285
784.208	0.0126154
784.286	0.0126736
784.364	0.0128679
784.443	0.0129378
784.521	0.0128612
784.599	0.0129936
784.677	0.0130064
784.755	0.0130950
784.833	0.0130241
784.911	0.0130389
784.989	0.0132561
785.068	0.0133199
785.146	0.0131607
785.224	0.0131650
785.302	0.0131270
785.380	0.0131319
785.458	0.0131364
785.536	0.0131470
785.614	0.0130428
785.693	0.0129560
785.771	0.0128319
785.849	0.0127991
785.927	0.0127402
786.005	0.0128279
786.083	0.0127090
786.161	0.0126243
786.239	0.0126033
786.318	0.0125233
786.396	0.0125648
786.474	0.0124133
786.552	0.0123638
786.630	0.0122714
786.708	0.0123071
786.786	0.0122012
786.864	0.0122455
786.943	0.0121769
787.021	0.0123527
787.099	0.0122016
787.177	0.0122875
787.255	0.0121751
787.333	0.0121532
787.411	0.0122071
787.489	0.0121326
787.568	0.0121168
787.646	0.0121534
787.724	0.0122646
787.802	0.0121809
787.880	0.0122837
787.958	0.0121663
788.036	0.0122092
788.114	0.0121831
788.193	0.0122503
788.271	0.0122455
788.349	0.0122608
788.427	0.0122260
788.505	0.0121831
788.583	0.0123983
788.661	0.0123417
788.739	0.0123634
788.818	0.0122880
788.896	0.0124238
788.974	0.0124635
789.052	0.0123852
789.130	0.0124654
789.208	0.0125018
789.286	0.0124549
789.364	0.0125283
789.443	0.0126264
789.521	0.0125955
789.599	0.0126334
789.677	0.0126396
789.755	0.0127510
789.833	0.0128767
789.911	0.0128426
789.989	0.0128040
790.068	0.0127319
790.146	0.0129433
790.224	0.0129681
790.302	0.0129147
790.380	0.0130683
790.458	0.0128905
790.536	0.0129082
790.614	0.0130296
790.693	0.0129130
790.771	0.0130651
790.849	0.0130693
790.927	0.0129050
791.005	0.0128277
791.083	0.0127586
791.161	0.0128881
791.239	0.0127561
791.318	0.0126779
791.396	0.0126767
791.474	0.0125399
791.552	0.0126266
791.630	0.0125426
791.708	0.0123940
791.786	0.0124105
791.864	0.0124277
791.943	0.0123341
792.021	0.0122414
792.099	0.0122095
792.177	0.0122849
792.255	0.0121875
792.333	0.0123510
792.411	0.0122980
792.489	0.0121089
792.568	0.0122802
792.646	0.0122810
792.724	0.0122091
792.802	0.0121533
792.880	0.0121246
792.958	0.0121405
793.036	0.0121558
793.114	0.0121323
793.193	0.0122864
793.271	0.0122886
793.349	0.0120679
793.427	0.0122045
793.505	0.0121031
793.583	0.0122266
793.661	0.0120995
793.739	0.0120671
793.818	0.0122903
793.896	0.0121288
793.974	0.0120753
794.052	0.0120676
794.130	0.0120405
794.208	0.0120483
794.286	0.0119003
794.364	0.0120343
794.443	0.0121851
794.521	0.0121395
794.599	0.0120132
794.677	0.0121594
794.755	0.0123732
794.833	0.0121526
794.911	0.0121807
794.989	0.0123770
795.068	0.0124116
795.146	0.0123351
795.224	0.0124232
795.302	0.0125349
795.380	0.0125418
795.458	0.0126765
795.536	0.0127732
795.614	0.0126977
795.693	0.0126868
795.771	0.0128306
795.849	0.0127791
795.927	0.0127302
796.005	0.0128216
796.083	0.0128496
796.161	0.0128464
796.239	0.0127708
796.318	0.0127751
796.396	0.0128028
796.474	0.0128815
796.552	0.0127605
796.630	0.0127274
796.708	0.0126929
796.786	0.0129040
796.864	0.0127824
796.943	0.0124967
797.021	0.0126390
797.099	0.0126955
797.177	0.0125412
797.255	0.0125304
797.333	0.0126688
797.411	0.0124448
797.489	0.0123829
797.568	0.0122926
797.646	0.0122534
797.724	0.0122832
797.802	0.0122807
797.880	0.0121021
797.958	0.0122259
798.036	0.0121306
798.114	0.0121320
798.193	0.0121365
798.271	0.0120087
798.349	0.0119479
798.427	0.0119179
798.505	0.0119285
798.583	0.0120057
798.661	0.0118150
798.739	0.0119075
798.818	0.0119917
798.896	0.0119437
798.974	0.0119171
799.052	0.0119588
799.130	0.0119170
799.208	0.0119973
799.286	0.0120121
799.364	0.0120976
799.443	0.0122757
799.521	0.0122290
799.599	0.0122137
799.677	0.0122698
799.755	0.0123288
799.833	0.0122934
799.911	0.0121900
799.989	0.0123184
800.068	0.0123564
800.146	0.0124781
800.224	0.0124530
800.302	0.0124017
800.380	0.0124265
800.458	0.0124644
800.536	0.0125845
800.614	0.0126047
800.693	0.0126376
800.771	0.0125996
800.849	0.0125616
800.927	0.0126972
801.005	0.0126044
801.083	0.0127367
801.161	0.0126313
801.239	0.0126637
801.318	0.0128135
801.396	0.0128207
801.474	0.0127245
801.552	0.0127105
801.630	0.0128239
801.708	0.0129047
801.786	0.0126745
801.864	0.0126711
801.943	0.0127071
802.021	0.0127229
802.099	0.0126534
802.177	0.0125581
802.255	0.0126831
802.333	0.0126235
802.411	0.0127435
802.489	0.0126342
802.568	0.0125033
802.646	0.0124712
802.724	0.0124834
802.802	0.0125823
802.880	0.0126648
802.958	0.0126394
803.036	0.0126296
803.114	0.0123038
803.193	0.0124216
803.271	0.0123931
803.349	0.0124091
803.427	0.0123119
803.505	0.0122598
803.583	0.0122521
803.661	0.0122010
803.739	0.0122954
803.818	0.0122620
803.896	0.0122527
803.974	0.0121989
804.052	0.0122384
804.130	0.0121851
804.208	0.0121317
804.286	0.0121050
804.364	0.0120956
804.443	0.0122150
804.521	0.0123203
804.599	0.0122478
804.677	0.0120885
804.755	0.0120393
804.833	0.0121387
804.911	0.0121877
804.989	0.0121687
805.068	0.0121157
805.146	0.0122174
805.224	0.0121894
805.302	0.0123124
805.380	0.0122993
805.458	0.0123252
805.536	0.0124129
805.614	0.0124346
805.693	0.0125320
805.771	0.0124873
805.849	0.0126589
805.927	0.0125777
806.005	0.0126814
806.083	0.0126746
806.161	0.0128107
806.239	0.0128153
806.318	0.0127997
806.396	0.0128218
806.474	0.0128795
806.552	0.0128616
806.630	0.0128188
806.708	0.0129134
806.786	0.0130531
806.864	0.0129163
806.943	0.0128215
807.021	0.0128259
807.099	0.0128037
807.177	0.0127752
807.255	0.0127815
807.333	0.0128957
807.411	0.0128438
807.489	0.0127221
807.568	0.0126911
807.646	0.0126982
807.724	0.0125301
807.802	0.0126195
807.880	0.0126948
807.958	0.0126514
808.036	0.0126257
808.114	0.0125111
808.193	0.0128640
808.271	0.0126974
808.349	0.0124931
808.427	0.0125464
808.505	0.0127467
808.583	0.0126312
808.661	0.0124587
808.739	0.0125800
808.818	0.0126765
808.896	0.0126019
808.974	0.0128616
809.052	0.0127204
809.130	0.0126564
809.208	0.0127531
809.286	0.0127149
809.364	0.0124622
809.443	0.0126405
809.521	0.0126756
809.599	0.0125652
809.677	0.0124149
809.755	0.0124033
809.833	0.0124039
809.911	0.0123538
809.989	0.0123808
810.068	0.0122937
810.146	0.0121943
810.224	0.0121184
810.302	0.0121489
810.380	0.0121473
810.458	0.0121032
810.536	0.0120676
810.614	0.0119569
810.693	0.0117432
810.771	0.0119911
810.849	0.0119712
810.927	0.0119173
811.005	0.0119588
811.083	0.0120987
811.161	0.0121478
811.239	0.0121413
811.318	0.0120764
811.396	0.0120742
811.474	0.0121688
811.552	0.0123850
811.630	0.0123874
811.708	0.0123723
811.786	0.0124800
811.864	0.0125442
811.943	0.0126434
812.021	0.0125994
812.099	0.0127048
812.177	0.0127246
812.255	0.0127498
812.333	0.0127959
812.411	0.0128887
812.489	0.0128815
812.568	0.0129400
812.646	0.0128438
812.724	0.0129103
812.802	0.0129885
812.880	0.0128972
812.958	0.0129443
813.036	0.0128983
813.114	0.0128194
813.193	0.0129004
813.271	0.0127634
813.349	0.0127964
813.427	0.0126896
813.505	0.0126042
813.583	0.0126907
813.661	0.0127477
813.739	0.0126620
813.818	0.0125867
813.896	0.0125420
813.974	0.0124469
814.052	0.0123565
814.130	0.0123740
814.208	0.0124174
814.286	0.0124454
814.364	0.0123032
814.443	0.0122560
814.521	0.0122368
814.599	0.0123044
814.677	0.0123631
814.755	0.0122493
814.833	0.0121304
814.911	0.0122963
814.989	0.0121830
815.068	0.0121455
815.146	0.0122138
815.224	0.0122256
815.302	0.0122469
815.380	0.0122323
815.458	0.0120777
815.536	0.0119983
815.614	0.0122113
815.693	0.0120453
815.771	0.0120867
815.849	0.0120692
815.927	0.0122876
816.005	0.0120314
816.083	0.0121861
816.161	0.0121762
816.239	0.0120785
816.318	0.0121825
816.396	0.0120396
816.474	0.0123039
816.552	0.0121827
816.630	0.0123202
816.708	0.0121568
816.786	0.0121874
816.864	0.0122666
816.943	0.0123341
817.021	0.0123108
817.099	0.0123418
817.177	0.0122482
817.255	0.0122665
817.333	0.0124256
817.411	0.0125206
817.489	0.0124310
817.568	0.0123779
817.646	0.0125636
817.724	0.0124556
817.802	0.0125534
817.880	0.0126295
817.958	0.0125194
818.036	0.0126530
818.114	0.0125012
818.193	0.0124886
818.271	0.0126150
818.349	0.0126841
818.427	0.0126128
818.505	0.0126263
818.583	0.0126705
818.661	0.0126326
818.739	0.0125308
818.818	0.0125193
818.896	0.0125243
818.974	0.0127051
819.052	0.0126895
819.130	0.0127821
819.208	0.0127160
819.286	0.0126274
819.364	0.0125023
819.443	0.0127868
819.521	0.0128302
819.599	0.0126208
819.677	0.0126060
819.755	0.0126743
819.833	0.0126649
819.911	0.0125320
819.989	0.0126161
820.068	0.0124118
820.146	0.0125456
820.224	0.0124526
820.302	0.0123938
820.380	0.0123374
820.458	0.0124227
820.536	0.0122282
820.614	0.0122046
820.693	0.0122099
820.771	0.0122160
820.849	0.0121238
820.927	0.0122244
821.005	0.0120863
821.083	0.0119910
821.161	0.0119930
821.239	0.0121428
821.318	0.0120567
821.396	0.0121056
821.474	0.0120530
821.552	0.0120047
821.630	0.0120077
821.708	0.0121291
821.786	0.0122103
821.864	0.0121485
821.943	0.0121139
822.021	0.0121848
822.099	0.0122170
822.177	0.0121786
822.255	0.0122619
822.333	0.0122569
822.411	0.0124023
822.489	0.0123466
822.568	0.0123833
822.646	0.0124375
822.724	0.0125262
822.802	0.0123026
822.880	0.0123920
822.958	0.0124747
823.036	0.0124105
823.114	0.0124280
823.193	0.0123923
823.271	0.0123561
823.349	0.0122604
823.427	0.0123878
823.505	0.0124133
823.583	0.0122820
823.661	0.0121692
823.739	0.0123248
823.818	0.0123805
823.896	0.0122553
823.974	0.0122747
824.052	0.0121666
824.130	0.0124624
824.208	0.0123917
824.286	0.0121906
824.364	0.0124228
824.443	0.0124673
824.521	0.0125180
824.599	0.0123824
824.677	0.0124131
824.755	0.0123888
824.833	0.0124252
824.911	0.0124508
824.989	0.0125169
825.068	0.0126067
825.146	0.0125911
825.224	0.0125877
825.302	0.0126154
825.380	0.0127771
825.458	0.0127357
825.536	0.0126058
825.614	0.0127340
825.693	0.0127253
825.771	0.0126268
825.849	0.0127074
825.927	0.0127438
826.005	0.0127008
826.083	0.0125052
826.161	0.0127258
826.239	0.0125495
826.318	0.0126276
826.396	0.0126573
826.474	0.0126428
826.552	0.0126531
826.630	0.0126620
826.708	0.0125515
826.786	0.0125727
826.864	0.0125571
826.943	0.0125338
827.021	0.0124283
827.099	0.0124421
827.177	0.0123349
827.255	0.0122910
827.333	0.0124251
827.411	0.0122678
827.489	0.0122866
827.568	0.0123416
827.646	0.0121885
827.724	0.0121705
827.802	0.0123289
827.880	0.0123341
827.958	0.0122468
828.036	0.0122528
828.114	0.0123451
828.193	0.0123399
828.271	0.0122359
828.349	0.0121452
828.427	0.0124024
828.505	0.0122964
828.583	0.0122026
828.661	0.0122483
828.739	0.0122623
828.818	0.0122681
828.896	0.0123860
828.974	0.0122339
829.052	0.0122092
829.130	0.0124213
829.208	0.0123054
829.286	0.0124139
829.364	0.0123328
829.443	0.0124434
829.521	0.0123412
829.599	0.0124926
829.677	0.0124741
829.755	0.0124685
829.833	0.0124779
829.911	0.0126269
829.989	0.0125896
830.068	0.0126013
830.146	0.0126279
830.224	0.0126258
830.302	0.0126706
830.380	0.0127332
830.458	0.0127667
830.536	0.0128865
830.614	0.0127243
830.693	0.0127325
830.771	0.0127234
830.849	0.0128757
830.927	0.0127538
831.005	0.0128651
831.083	0.0128228
831.161	0.0126395
831.239	0.0126408
831.318	0.0126490
831.396	0.0127352
831.474	0.0127084
831.552	0.0124740
831.630	0.0125671
831.708	0.0126272
831.786	0.0125149
831.864	0.0123830
831.943	0.0124483
832.021	0.0124465
832.099	0.0123527
832.177	0.0124666
832.255	0.0124678
832.333	0.0124186
832.411	0.0124194
832.489	0.0125493
832.568	0.0123879
832.646	0.0124727
832.724	0.0125641
832.802	0.0126022
832.880	0.0126122
832.958	0.0126388
833.036	0.0125034
833.114	0.0125242
833.193	0.0125076
833.271	0.0124975
833.349	0.0125070
833.427	0.0124580
833.505	0.0124589
833.583	0.0124509
833.661	0.0125189
833.739	0.0124690
833.818	0.0123481
833.896	0.0123717
833.974	0.0123670
834.052	0.0122708
834.130	0.0123567
834.208	0.0123501
834.286	0.0122630
834.364	0.0123213
834.443	0.0121889
834.521	0.0123121
834.599	0.0122733
834.677	0.0121698
834.755	0.0123057
834.833	0.0123017
834.911	0.0123248
834.989	0.0121728
835.068	0.0122319
835.146	0.0122514
835.224	0.0123508
835.302	0.0122101
835.380	0.0124558
835.458	0.0122778
835.536	0.0122623
835.614	0.0124471
835.693	0.0124480
835.771	0.0124770
835.849	0.0125083
835.927	0.0124282
836.005	0.0123720
836.083	0.0125202
836.161	0.0125060
836.239	0.0125957
836.318	0.0126299
836.396	0.0126060
836.474	0.0126271
836.552	0.0125373
836.630	0.0125710
836.708	0.0126929
836.786	0.0126163
836.864	0.0125831
836.943	0.0126277
837.021	0.0125368
837.099	0.0125473
837.177	0.0126159
837.255	0.0125098
837.333	0.0126054
837.411	0.0125430
837.489	0.0125806
837.568	0.0125580
837.646	0.0126093
837.724	0.0126303
837.802	0.0126059
837.880	0.0125381
837.958	0.0124620
838.036	0.0125571
838.114	0.0124821
838.193	0.0124653
838.271	0.0125136
838.349	0.0125558
838.427	0.0125020
838.505	0.0125753
838.583	0.0124996
838.661	0.0125661
838.739	0.0125163
838.818	0.0125208
838.896	0.0125838
838.974	0.0124688
839.052	0.0125385
839.130	0.0123390
839.208	0.0125520
839.286	0.0124531
839.364	0.0125180
839.443	0.0123773
839.521	0.0123040
839.599	0.0123560
839.677	0.0122610
839.755	0.0122580
839.833	0.0123666
839.911	0.0122961
839.989	0.0121353
840.068	0.0121873
840.146	0.0122019
840.224	0.0120642
840.302	0.0120605
840.380	0.0121474
840.458	0.0121379
840.536	0.0122323
840.614	0.0120783
840.693	0.0120605
840.771	0.0121133
840.849	0.0121207
840.927	0.0122611
841.005	0.0122080
841.083	0.0121649
841.161	0.0123130
841.239	0.0123160
841.318	0.0122961
841.396	0.0123207
841.474	0.0123606
841.552	0.0125307
841.630	0.0125370
841.708	0.0124265
841.786	0.0125751
841.864	0.0126964
841.943	0.0124895
842.021	0.0124497
842.099	0.0124971
842.177	0.0125815
842.255	0.0126288
842.333	0.0124505
842.411	0.0124188
842.489	0.0125494
842.568	0.0124966
842.646	0.0125486
842.724	0.0124081
842.802	0.0125401
842.880	0.0125096
842.958	0.0124931
843.036	0.0125621
843.114	0.0126272
843.193	0.0125386
843.271	0.0125959
843.349	0.0126675
843.427	0.0125219
843.505	0.0125655
843.583	0.0125852
843.661	0.0125477
843.739	0.0124892
843.818	0.0125566
843.896	0.0125236
843.974	0.0125809
844.052	0.0126363
844.130	0.0127613
844.208	0.0125423
844.286	0.0125638
844.364	0.0125250
844.443	0.0125530
844.521	0.0125352
844.599	0.0125037
844.677	0.0125864
844.755	0.0126441
844.833	0.0124067
844.911	0.0124104
844.989	0.0124402
845.068	0.0123757
845.146	0.0123686
845.224	0.0123341
845.302	0.0123241
845.380	0.0121870
845.458	0.0123470
845.536	0.0122901
845.614	0.0123563
845.693	0.0123826
845.771	0.0121900
845.849	0.0122477
845.927	0.0123033
846.005	0.0123901
846.083	0.0122903
846.161	0.0121917
846.239	0.0123496
846.318	0.0123080
846.396	0.0122796
846.474	0.0124120
846.552	0.0123410
846.630	0.0124685
846.708	0.0125697
846.786	0.0124821
846.864	0.0125010
846.943	0.0123603
847.021	0.0124457
847.099	0.0125047
847.177	0.0124674
847.255	0.0124057
847.333	0.0124315
847.411	0.0124167
847.489	0.0123937
847.568	0.0124861
847.646	0.0123609
847.724	0.0123529
847.802	0.0123412
847.880	0.0123583
847.958	0.0122916
848.036	0.0122853
848.114	0.0123470
848.193	0.0123428
848.271	0.0123708
848.349	0.0123063
848.427	0.0124693
848.505	0.0124372
848.583	0.0123127
848.661	0.0125484
848.739	0.0125030
848.818	0.0125026
848.896	0.0126688
848.974	0.0126499
849.052	0.0126891
849.130	0.0126154
849.208	0.0125891
849.286	0.0127870
849.364	0.0127368
849.443	0.0126681
849.521	0.0128165
849.599	0.0128313
849.677	0.0127856
849.755	0.0127481
849.833	0.0127727
849.911	0.0128078
849.989	0.0127920
850.068	0.0128271
850.146	0.0126369
850.224	0.0127290
850.302	0.0127472
850.380	0.0126305
850.458	0.0126828
850.536	0.0125657
850.614	0.0125604
850.693	0.0126123
850.771	0.0124541
850.849	0.0123298
850.927	0.0124662
851.005	0.0123218
851.083	0.0122837
851.161	0.0122671
851.239	0.0122270
851.318	0.0120665
851.396	0.0122189
851.474	0.0122574
851.552	0.0122234
851.630	0.0121789
851.708	0.0120360
851.786	0.0121170
851.864	0.0121265
851.943	0.0122585
852.021	0.0123446
852.099	0.0122201
852.177	0.0122916
852.255	0.0122282
852.333	0.0121186
852.411	0.0123173
852.489	0.0123112
852.568	0.0122703
852.646	0.0121236
852.724	0.0121519
852.802	0.0122775
852.880	0.0123764
852.958	0.0123097
853.036	0.0121481
853.114	0.0122410
853.193	0.0123940
853.271	0.0122231
853.349	0.0124249
853.427	0.0124960
853.505	0.0124306
853.583	0.0123543
853.661	0.0124067
853.739	0.0125131
853.818	0.0125842
853.896	0.0125818
853.974	0.0126006
854.052	0.0124352
854.130	0.0125333
854.208	0.0127506
854.286	0.0126112
854.364	0.0125100
854.443	0.0127540
854.521	0.0127778
854.599	0.0125544
854.677	0.0126386
854.755	0.0126468
854.833	0.0127119
854.911	0.0126814
854.989	0.0127013
855.068	0.0126926
855.146	0.0127388
855.224	0.0127023
855.302	0.0127582
855.380	0.0125124
855.458	0.0126375
855.536	0.0125809
855.614	0.0125616
855.693	0.0125409
855.771	0.0123704
855.849	0.0123512
855.927	0.0124416
856.005	0.0123988
856.083	0.0123951
856.161	0.0123392
856.239	0.0123153
856.318	0.0122972
856.396	0.0122332
856.474	0.0122033
856.552	0.0122683
856.630	0.0122240
856.708	0.0122041
856.786	0.0122517
856.864	0.0121326
856.943	0.0123066
857.021	0.0122140
857.099	0.0121763
857.177	0.0122586
857.255	0.0122916
857.333	0.0123419
857.411	0.0122034
857.489	0.0123674
857.568	0.0123350
857.646	0.0123579
857.724	0.0123586
857.802	0.0123239
857.880	0.0123422
857.958	0.0123725
858.036	0.0124097
858.114	0.0124514
858.193	0.0124622
858.271	0.0123575
858.349	0.0125061
858.427	0.0125430
858.505	0.0125749
858.583	0.0125970
858.661	0.0125356
858.739	0.0124075
858.818	0.0124361
858.896	0.0126010
858.974	0.0124809
859.052	0.0125958
859.130	0.0125331
859.208	0.0125087
859.286	0.0124754
859.364	0.0125214
859.443	0.0124898
859.521	0.0123386
859.599	0.0125053
859.677	0.0123131
859.755	0.0123599
859.833	0.0123261
859.911	0.0124338
859.989	0.0125905
860.068	0.0123727
860.146	0.0124834
860.224	0.0125868
860.302	0.0124705
860.380	0.0123548
860.458	0.0125478
860.536	0.0125063
860.614	0.0124897
860.693	0.0124986
860.771	0.0126200
860.849	0.0124267
860.927	0.0125162
861.005	0.0127599
861.083	0.0126541
861.161	0.0124551
861.239	0.0126196
861.318	0.0125433
861.396	0.0124542
861.474	0.0125393
861.552	0.0126077
861.630	0.0126099
861.708	0.0125226
861.786	0.0124901
861.864	0.0126425
861.943	0.0125023
862.021	0.0124406
862.099	0.0124587
862.177	0.0124734
862.255	0.0125669
862.333	0.0124871
862.411	0.0124512
862.489	0.0123196
862.568	0.0125716
862.646	0.0125914
862.724	0.0124591
862.802	0.0124421
862.880	0.0124838
862.958	0.0124741
863.036	0.0124788
863.114	0.0126630
863.193	0.0125810
863.271	0.0125510
863.349	0.0124461
863.427	0.0125384
863.505	0.0123967
863.583	0.0126556
863.661	0.0126917
863.739	0.0125392
863.818	0.0124835
863.896	0.0124945
863.974	0.0125037
864.052	0.0123557
864.130	0.0125010
864.208	0.0124968
864.286	0.0124258
864.364	0.0123143
864.443	0.0122372
864.521	0.0122304
864.599	0.0122992
864.677	0.0122728
864.755	0.0123409
864.833	0.0123220
864.911	0.0123646
864.989	0.0121658
865.068	0.0123618
865.146	0.0122950
865.224	0.0123238
865.302	0.0122766
865.380	0.0122648
865.458	0.0124158
865.536	0.0124258
865.614	0.0123327
865.693	0.0124738
865.771	0.0124399
865.849	0.0124382
865.927	0.0124796
866.005	0.0126685
866.083	0.0125882
866.161	0.0127097
866.239	0.0125658
866.318	0.0126684
866.396	0.0126163
866.474	0.0125982
866.552	0.0127750
866.630	0.0125645
866.708	0.0126387
866.786	0.0125554
866.864	0.0127070
866.943	0.0125871
867.021	0.0125502
867.099	0.0126171
867.177	0.0124594
867.255	0.0125959
867.333	0.0125644
867.411	0.0124419
867.489	0.0124713
867.568	0.0125500
867.646	0.0123193
867.724	0.0126177
867.802	0.0124020
867.880	0.0121967
867.958	0.0122989
868.036	0.0124380
868.114	0.0124823
868.193	0.0124120
868.271	0.0124489
868.349	0.0123972
868.427	0.0124290
868.505	0.0123689
868.583	0.0123914
868.661	0.0124800
868.739	0.0124595
868.818	0.0124969
868.896	0.0126115
868.974	0.0125650
869.052	0.0125031
869.130	0.0125830
869.208	0.0124621
869.286	0.0124337
869.364	0.0124654
869.443	0.0126502
869.521	0.0124737
869.599	0.0124664
869.677	0.0126003
869.755	0.0124426
869.833	0.0124526
869.911	0.0125053
869.989	0.0124697
870.068	0.0125839
870.146	0.0125323
870.224	0.0124685
870.302	0.0125965
870.380	0.0126946
870.458	0.0126362
870.536	0.0126688
870.614	0.0127249
870.693	0.0126141
870.771	0.0126559
870.849	0.0126949
870.927	0.0127230
871.005	0.0126749
871.083	0.0126087
871.161	0.0127372
871.239	0.0127616
871.318	0.0127460
871.396	0.0126058
871.474	0.0126085
871.552	0.0127051
871.630	0.0125871
871.708	0.0124089
871.786	0.0125532
871.864	0.0125348
871.943	0.0124891
872.021	0.0125060
872.099	0.0124308
872.177	0.0124483
872.255	0.0123366
872.333	0.0123687
872.411	0.0122447
872.489	0.0123334
872.568	0.0122481
872.646	0.0122639
872.724	0.0120981
872.802	0.0122058
872.880	0.0121353
872.958	0.0121697
873.036	0.0123375
873.114	0.0121929
873.193	0.0122221
873.271	0.0122694
873.349	0.0124310
873.427	0.0123686
873.505	0.0124236
873.583	0.0125594
873.661	0.0123740
873.739	0.0124944
873.818	0.0123324
873.896	0.0123787
873.974	0.0125718
874.052	0.0125838
874.130	0.0125422
874.208	0.0125737
874.286	0.0126881
874.364	0.0128376
874.443	0.0126726
874.521	0.0126025
874.599	0.0126753
874.677	0.0126244
874.755	0.0125956
874.833	0.0124918
874.911	0.0126622
874.989	0.0127351
875.068	0.0124947
875.146	0.0125960
875.224	0.0125731
875.302	0.0125483
875.380	0.0125957
875.458	0.0124149
875.536	0.0123770
875.614	0.0124577
875.693	0.0123882
875.771	0.0122245
875.849	0.0122755
875.927	0.0122938
876.005	0.0121920
876.083	0.0123462
876.161	0.0122794
876.239	0.0121758
876.318	0.0122572
876.396	0.0122511
876.474	0.0123971
876.552	0.0122099
876.630	0.0122977
876.708	0.0123525
876.786	0.0123825
876.864	0.0122330
876.943	0.0123553
877.021	0.0123856
877.099	0.0124098
877.177	0.0124527
877.255	0.0124837
877.333	0.0124785
877.411	0.0124463
877.489	0.0124978
877.568	0.0125246
877.646	0.0125242
877.724	0.0124407
877.802	0.0125551
877.880	0.0125699
877.958	0.0124683
878.036	0.0125292
878.114	0.0126012
878.193	0.0126064
878.271	0.0126163
878.349	0.0125145
878.427	0.0124551
878.505	0.0125227
878.583	0.0125724
878.661	0.0125214
878.739	0.0126553
878.818	0.0125971
878.896	0.0125867
878.974	0.0126473
879.052	0.0125568
879.130	0.0125466
879.208	0.0127470
879.286	0.0126301
879.364	0.0127242
879.443	0.0128566
879.521	0.0127029
879.599	0.0127915
879.677	0.0126552
879.755	0.0126624
879.833	0.0125667
879.911	0.0126443
879.989	0.0125786
880.068	0.0126657
880.146	0.0127308
880.224	0.0125236
880.302	0.0125118
880.380	0.0125095
880.458	0.0124924
880.536	0.0124143
880.614	0.0124982
880.693	0.0123518
880.771	0.0123016
880.849	0.0122546
880.927	0.0123518
881.005	0.0121889
881.083	0.0121543
881.161	0.0123254
881.239	0.0121744
881.318	0.0122025
881.396	0.0122722
881.474	0.0123349
881.552	0.0123370
881.630	0.0123750
881.708	0.0123392
881.786	0.0123405
881.864	0.0124256
881.943	0.0123810
882.021	0.0124838
882.099	0.0124305
882.177	0.0125586
882.255	0.0124715
882.333	0.0124701
882.411	0.0125866
882.489	0.0124871
882.568	0.0125665
882.646	0.0126022
882.724	0.0123357
882.802	0.0124559
882.880	0.0123265
882.958	0.0125301
883.036	0.0124874
883.114	0.0124038
883.193	0.0124424
883.271	0.0123676
883.349	0.0123409
883.427	0.0123405
883.505	0.0124040
883.583	0.0123187
883.661	0.0123841
883.739	0.0124831
883.818	0.0124467
883.896	0.0124246
883.974	0.0124353
884.052	0.0124039
884.130	0.0123543
884.208	0.0123746
884.286	0.0125117
884.364	0.0123624
884.443	0.0126546
884.521	0.0124140
884.599	0.0126086
884.677	0.0126772
884.755	0.0126282
884.833	0.0125143
884.911	0.0125806
884.989	0.0124864
885.068	0.0126254
885.146	0.0125905
885.224	0.0125834
885.302	0.0126021
885.380	0.0124644
885.458	0.0125386
885.536	0.0125245
885.614	0.0125187
885.693	0.0124619
885.771	0.0124277
885.849	0.0123591
885.927	0.0124766
886.005	0.0124656
886.083	0.0123923
886.161	0.0122853
886.239	0.0123042
886.318	0.0123690
886.396	0.0123445
886.474	0.0124106
886.552	0.0124210
886.630	0.0123195
886.708	0.0121220
886.786	0.0123287
886.864	0.0123863
886.943	0.0123949
887.021	0.0123902
887.099	0.0122770
887.177	0.0124403
887.255	0.0124559
887.333	0.0126110
887.411	0.0124809
887.489	0.0124892
887.568	0.0125117
887.646	0.0124418
887.724	0.0124787
887.802	0.0124826
887.880	0.0125931
887.958	0.0123209
888.036	0.0125916
888.114	0.0125494
888.193	0.0125243
888.271	0.0124306
888.349	0.0124899
888.427	0.0123435
888.505	0.0125910
888.583	0.0124876
888.661	0.0124565
888.739	0.0122637
888.818	0.0123408
888.896	0.0124090
888.974	0.0125105
889.052	0.0126171
889.130	0.0124355
889.208	0.0124195
889.286	0.0125076
889.364	0.0125200
889.443	0.0125704
889.521	0.0126336
889.599	0.0125179
889.677	0.0125825
889.755	0.0126525
889.833	0.0126173
889.911	0.0125086
889.989	0.0125214
890.068	0.0126275
890.146	0.0125761
890.224	0.0125385
890.302	0.0125171
890.380	0.0124893
890.458	0.0126392
890.536	0.0124925
890.614	0.0123195
890.693	0.0123631
890.771	0.0123452
890.849	0.0122713
890.927	0.0124944
891.005	0.0124995
891.083	0.0123969
891.161	0.0123013
891.239	0.0125143
891.318	0.0123672
891.396	0.0124049
891.474	0.0123711
891.552	0.0126147
891.630	0.0124635
891.708	0.0125033
891.786	0.0124686
891.864	0.0123415
891.943	0.0124336
892.021	0.0123969
892.099	0.0124621
892.177	0.0123486
892.255	0.0123375
892.333	0.0124306
892.411	0.0125433
892.489	0.0123752
892.568	0.0123805
892.646	0.0123643
892.724	0.0122875
892.802	0.0122227
892.880	0.0122986
892.958	0.0123794
893.036	0.0123407
893.114	0.0121693
893.193	0.0122395
893.271	0.0124972
893.349	0.0122886
893.427	0.0123533
893.505	0.0123778
893.583	0.0124201
893.661	0.0123743
893.739	0.0124295
893.818	0.0124921
893.896	0.0124558
893.974	0.0124667
894.052	0.0124822
894.130	0.0125553
894.208	0.0125491
894.286	0.0125032
894.364	0.0126981
894.443	0.0127068
894.521	0.0125723
894.599	0.0126720
894.677	0.0126756
894.755	0.0126595
894.833	0.0127054
894.911	0.0127013
894.989	0.0127559
895.068	0.0127950
895.146	0.0128482
895.224	0.0129590
895.302	0.0128046
895.380	0.0125686
895.458	0.0126714
895.536	0.0127701
895.614	0.0128217
895.693	0.0126925
895.771	0.0127753
895.849	0.0127045
895.927	0.0125847
896.005	0.0126529
896.083	0.0125833
896.161	0.0125487
896.239	0.0125726
896.318	0.0125233
896.396	0.0126291
896.474	0.0124709
896.552	0.0125091
896.630	0.0123960
896.708	0.0124001
896.786	0.0123915
896.864	0.0124593
896.943	0.0123100
897.021	0.0123357
897.099	0.0123930
897.177	0.0124695
897.255	0.0124323
897.333	0.0123977
897.411	0.0123077
897.489	0.0124326
897.568	0.0124018
897.646	0.0125042
897.724	0.0123740
897.802	0.0124503
897.880	0.0124616
897.958	0.0126160
898.036	0.0124757
898.114	0.0122704
898.193	0.0124063
898.271	0.0125616
898.349	0.0124892
898.427	0.0125127
898.505	0.0123975
898.583	0.0123998
898.661	0.0123775
898.739	0.0125021
898.818	0.0124407
898.896	0.0124628
898.974	0.0123358
899.052	0.0123713
899.130	0.0123309
899.208	0.0124087
899.286	0.0123055
899.364	0.0124120
899.443	0.0125137
899.521	0.0124780
899.599	0.0123337
899.677	0.0125149
899.755	0.0124763
899.833	0.0123393
899.911	0.0122937
899.989	0.0124937
900.068	0.0124026
900.146	0.0125362
900.224	0.0123734
900.302	0.0123447
900.380	0.0124377
900.458	0.0124883
900.536	0.0126115
900.614	0.0124549
900.693	0.0126138
900.771	0.0125890
900.849	0.0124545
900.927	0.0125797
901.005	0.0125675
901.083	0.0124625
901.161	0.0125725
901.239	0.0126968
901.318	0.0125673
901.396	0.0125103
901.474	0.0125963
901.552	0.0126164
901.630	0.0124329
901.708	0.0124710
901.786	0.0125623
901.864	0.0126012
901.943	0.0123724
902.021	0.0124431
902.099	0.0125809
902.177	0.0125771
902.255	0.0125071
902.333	0.0124406
902.411	0.0125480
902.489	0.0124442
902.568	0.0124693
902.646	0.0125325
902.724	0.0124860
902.802	0.0123832
902.880	0.0123235
902.958	0.0124084
903.036	0.0124384
903.114	0.0125637
903.193	0.0124349
903.271	0.0124045
903.349	0.0124945
903.427	0.0126344
903.505	0.0125422
903.583	0.0125097
903.661	0.0124447
903.739	0.0125607
903.818	0.0125747
903.896	0.0125496
903.974	0.0126264
904.052	0.0126718
904.130	0.0125245
904.208	0.0126029
904.286	0.0124770
904.364	0.0124699
904.443	0.0124622
904.521	0.0124982
904.599	0.0126691
904.677	0.0125135
904.755	0.0126069
904.833	0.0124245
904.911	0.0124284
904.989	0.0123869
905.068	0.0124100
905.146	0.0125731
905.224	0.0126214
905.302	0.0125092
905.380	0.0125431
905.458	0.0125325
905.536	0.0124863
905.614	0.0125633
905.693	0.0125799
905.771	0.0126370
905.849	0.0126469
905.927	0.0125270
906.005	0.0125468
906.083	0.0125742
906.161	0.0125957
906.239	0.0126550
906.318	0.0126491
906.396	0.0125904
906.474	0.0127858
906.552	0.0125260
906.630	0.0127144
906.708	0.0126519
906.786	0.0125101
906.864	0.0125673
906.943	0.0125328
907.021	0.0124492
907.099	0.0125413
907.177	0.0125195
907.255	0.0123624
907.333	0.0125240
907.411	0.0124723
907.489	0.0125375
907.568	0.0125657
907.646	0.0124772
907.724	0.0125127
907.802	0.0124724
907.880	0.0125433
907.958	0.0124093
908.036	0.0123804
908.114	0.0124518
908.193	0.0125607
908.271	0.0123798
908.349	0.0125365
908.427	0.0125396
908.505	0.0125127
908.583	0.0126259
908.661	0.0125179
908.739	0.0123777
908.818	0.0124529
908.896	0.0124307
908.974	0.0124537
909.052	0.0124100
909.130	0.0125627
909.208	0.0124580
909.286	0.0123540
909.364	0.0124435
909.443	0.0124386
909.521	0.0124559
909.599	0.0122789
909.677	0.0122339
909.755	0.0124318
909.833	0.0125433
909.911	0.0123605
909.989	0.0123340
910.068	0.0122298
910.146	0.0121883
910.224	0.0123724
910.302	0.0122375
910.380	0.0123680
910.458	0.0123816
910.536	0.0121797
910.614	0.0123120
910.693	0.0123410
910.771	0.0122483
910.849	0.0124159
910.927	0.0124157
911.005	0.0123338
911.083	0.0122610
911.161	0.0122359
911.239	0.0123322
911.318	0.0123217
911.396	0.0121425
911.474	0.0123524
911.552	0.0123550
911.630	0.0122941
911.708	0.0123319
911.786	0.0122017
911.864	0.0123034
911.943	0.0124041
912.021	0.0122663
912.099	0.0123573
912.177	0.0123833
912.255	0.0124472
912.333	0.0124580
912.411	0.0124682
912.489	0.0122820
912.568	0.0125613
912.646	0.0123811
912.724	0.0124996
912.802	0.0125357
912.880	0.0125041
912.958	0.0124509
913.036	0.0126192
913.114	0.0124857
913.193	0.0125391
913.271	0.0124720
913.349	0.0125922
913.427	0.0125639
913.505	0.0123917
913.583	0.0125796
913.661	0.0124638
913.739	0.0124802
913.818	0.0126138
913.896	0.0125465
913.974	0.0125092
914.052	0.0124461
914.130	0.0124924
914.208	0.0123952
914.286	0.0125217
914.364	0.0123376
914.443	0.0124242
914.521	0.0123418
914.599	0.0123457
914.677	0.0123077
914.755	0.0123515
914.833	0.0122610
914.911	0.0122911
914.989	0.0123270
915.068	0.0123237
915.146	0.0123971
915.224	0.0123473
915.302	0.0122643
915.380	0.0122182
915.458	0.0123228
915.536	0.0123360
915.614	0.0121969
915.693	0.0122598
915.771	0.0123217
915.849	0.0123206
915.927	0.0123998
916.005	0.0121761
916.083	0.0122386
916.161	0.0123952
916.239	0.0124963
916.318	0.0122263
916.396	0.0123141
916.474	0.0124271
916.552	0.0123725
916.630	0.0124651
916.708	0.0124293
916.786	0.0124123
916.864	0.0123804
916.943	0.0123660
917.021	0.0123934
917.099	0.0124303
917.177	0.0125159
917.255	0.0125436
917.333	0.0125784
917.411	0.0124493
917.489	0.0124598
917.568	0.0125340
917.646	0.0126666
917.724	0.0125874
917.802	0.0126043
917.880	0.0125943
917.958	0.0126184
918.036	0.0126077
918.114	0.0126464
918.193	0.0127732
918.271	0.0126309
918.349	0.0126830
918.427	0.0127661
918.505	0.0126794
918.583	0.0126025
918.661	0.0126768
918.739	0.0126892
918.818	0.0126896
918.896	0.0125455
918.974	0.0126176
919.052	0.0125716
919.130	0.0125348
919.208	0.0126220
919.286	0.0125727
919.364	0.0124604
919.443	0.0125352
919.521	0.0125317
919.599	0.0123418
919.677	0.0123861
919.755	0.0123002
919.833	0.0122509
919.911	0.0123455
919.989	0.0123493
920.068	0.0122637
920.146	0.0122327
920.224	0.0122840
920.302	0.0122440
920.380	0.0121906
920.458	0.0122125
920.536	0.0122227
920.614	0.0121910
920.693	0.0122128
920.771	0.0122821
920.849	0.0122095
920.927	0.0120885
921.005	0.0121523
921.083	0.0121890
921.161	0.0122888
921.239	0.0122282
921.318	0.0121669
921.396	0.0122701
921.474	0.0122234
921.552	0.0123596
921.630	0.0122872
921.708	0.0123344
921.786	0.0123445
921.864	0.0124000
921.943	0.0124132
922.021	0.0123462
922.099	0.0124063
922.177	0.0123598
922.255	0.0124610
922.333	0.0124453
922.411	0.0124697
922.489	0.0124186
922.568	0.0122838
922.646	0.0123469
922.724	0.0124857
922.802	0.0124622
922.880	0.0124969
922.958	0.0124294
923.036	0.0123514
923.114	0.0127357
923.193	0.0124812
923.271	0.0124473
923.349	0.0125759
923.427	0.0124081
923.505	0.0125323
923.583	0.0126392
923.661	0.0126452
923.739	0.0126661
923.818	0.0126116
923.896	0.0126013
923.974	0.0125634
924.052	0.0127499
924.130	0.0127098
924.208	0.0127318
924.286	0.0126536
924.364	0.0126012
924.443	0.0127405
924.521	0.0127278
924.599	0.0126429
924.677	0.0126584
924.755	0.0126243
924.833	0.0127725
924.911	0.0125925
924.989	0.0125131
925.068	0.0125710
925.146	0.0124162
925.224	0.0126917
925.302	0.0125684
925.380	0.0126470
925.458	0.0127190
925.536	0.0125202
925.614	0.0125570
925.693	0.0125881
925.771	0.0124491
925.849	0.0125036
925.927	0.0123685
926.005	0.0125723
926.083	0.0126218
926.161	0.0123946
926.239	0.0125439
926.318	0.0123410
926.396	0.0124123
926.474	0.0123946
926.552	0.0124113
926.630	0.0124664
926.708	0.0125494
926.786	0.0123714
926.864	0.0124107
926.943	0.0124539
927.021	0.0124723
927.099	0.0123074
927.177	0.0122773
927.255	0.0123003
927.333	0.0124876
927.411	0.0124067
927.489	0.0123611
927.568	0.0124170
927.646	0.0123338
927.724	0.0123128
927.802	0.0123243
927.880	0.0123579
927.958	0.0123708
928.036	0.0122791
928.114	0.0123290
928.193	0.0123211
928.271	0.0124245
928.349	0.0123683
928.427	0.0122622
928.505	0.0125784
928.583	0.0123512
928.661	0.0124658
928.739	0.0122382
928.818	0.0124109
928.896	0.0124426
928.974	0.0125397
929.052	0.0125359
929.130	0.0123775
929.208	0.0123643
929.286	0.0123633
929.364	0.0125150
929.443	0.0126016
929.521	0.0125508
929.599	0.0125778
929.677	0.0127106
929.755	0.0126513
929.833	0.0126635
929.911	0.0126939
929.989	0.0127392
930.068	0.0126862
930.146	0.0126613
930.224	0.0127122
930.302	0.0126154
930.380	0.0126557
930.458	0.0126124
930.536	0.0126570
930.614	0.0124758
930.693	0.0125611
930.771	0.0125377
930.849	0.0124541
930.927	0.0125158
931.005	0.0124634
931.083	0.0124503
931.161	0.0123215
931.239	0.0123461
931.318	0.0123557
931.396	0.0124767
931.474	0.0123397
931.552	0.0124431
931.630	0.0123588
931.708	0.0124547
931.786	0.0124183
931.864	0.0123756
931.943	0.0123283
932.021	0.0123950
932.099	0.0124431
932.177	0.0123632
932.255	0.0124334
932.333	0.0125021
932.411	0.0124169
932.489	0.0124160
932.568	0.0123501
932.646	0.0124641
932.724	0.0123494
932.802	0.0123536
932.880	0.0123884
932.958	0.0123548
933.036	0.0123453
933.114	0.0123605
933.193	0.0122263
933.271	0.0123484
933.349	0.0123069
933.427	0.0122891
933.505	0.0121526
933.583	0.0122603
933.661	0.0122472
933.739	0.0121972
933.818	0.0121027
933.896	0.0123159
933.974	0.0122380
934.052	0.0122521
934.130	0.0123193
934.208	0.0123674
934.286	0.0121889
934.364	0.0123103
934.443	0.0123863
934.521	0.0123020
934.599	0.0123167
934.677	0.0125015
934.755	0.0123235
934.833	0.0123966
934.911	0.0123777
934.989	0.0122943
935.068	0.0124074
935.146	0.0125055
935.224	0.0123073
935.302	0.0123337
935.380	0.0124773
935.458	0.0125107
935.536	0.0125459
935.614	0.0124889
935.693	0.0124320
935.771	0.0124535
935.849	0.0124715
935.927	0.0126355
936.005	0.0124488
936.083	0.0124397
936.161	0.0124404
936.239	0.0125323
936.318	0.0125922
936.396	0.0124618
936.474	0.0126766
936.552	0.0124945
936.630	0.0124704
936.708	0.0125088
936.786	0.0125387
936.864	0.0126632
936.943	0.0126522
937.021	0.0125403
937.099	0.0125922
937.177	0.0125970
937.255	0.0123565
937.333	0.0125524
937.411	0.0122968
937.489	0.0124639
937.568	0.0126031
937.646	0.0124645
937.724	0.0124648
937.802	0.0125482
937.880	0.0124711
937.958	0.0124232
938.036	0.0124473
938.114	0.0124113
938.193	0.0125105
938.271	0.0124979
938.349	0.0123489
938.427	0.0124422
938.505	0.0123817
938.583	0.0124937
938.661	0.0126150
938.739	0.0124174
938.818	0.0123957
938.896	0.0123936
938.974	0.0123923
939.052	0.0123757
939.130	0.0124792
939.208	0.0123779
939.286	0.0122130
939.364	0.0123934
939.443	0.0123033
939.521	0.0122320
939.599	0.0123140
939.677	0.0122326
939.755	0.0120907
939.833	0.0121648
939.911	0.0123160
939.989	0.0120829
940.068	0.0122302
940.146	0.0122791
940.224	0.0122643
940.302	0.0122952
940.380	0.0122485
940.458	0.0124331
940.536	0.0124096
940.614	0.0124487
940.693	0.0124980
940.771	0.0124726
940.849	0.0124921
940.927	0.0122762
941.005	0.0124482
941.083	0.0124493
941.161	0.0124978
941.239	0.0124022
941.318	0.0126201
941.396	0.0126080
941.474	0.0125184
941.552	0.0124725
941.630	0.0123846
941.708	0.0124738
941.786	0.0125191
941.864	0.0125033
941.943	0.0124133
942.021	0.0125481
942.099	0.0125845
942.177	0.0126586
942.255	0.0124818
942.333	0.0125638
942.411	0.0125868
942.489	0.0125303
942.568	0.0126733
942.646	0.0127051
942.724	0.0126077
942.802	0.0124801
942.880	0.0124942
942.958	0.0125282
943.036	0.0125022
943.114	0.0125877
943.193	0.0125299
943.271	0.0125044
943.349	0.0126627
943.427	0.0126640
943.505	0.0124740
943.583	0.0126669
943.661	0.0125304
943.739	0.0125443
943.818	0.0125121
943.896	0.0124752
943.974	0.0124097
944.052	0.0125365
944.130	0.0125162
944.208	0.0123638
944.286	0.0123972
944.364	0.0123968
944.443	0.0123687
944.521	0.0124267
944.599	0.0123447
944.677	0.0123386
944.755	0.0122121
944.833	0.0122952
944.911	0.0122494
944.989	0.0122028
945.068	0.0121316
945.146	0.0123619
945.224	0.0123434
945.302	0.0121360
945.380	0.0122073
945.458	0.0122588
945.536	0.0122935
945.614	0.0122543
945.693	0.0122112
945.771	0.0124318
945.849	0.0123550
945.927	0.0123144
946.005	0.0123420
946.083	0.0124791
946.161	0.0124479
946.239	0.0125906
946.318	0.0124435
946.396	0.0125513
946.474	0.0126200
946.552	0.0125775
946.630	0.0127024
946.708	0.0126343
946.786	0.0125613
946.864	0.0126775
946.943	0.0125803
947.021	0.0126071
947.099	0.0125171
947.177	0.0125499
947.255	0.0126297
947.333	0.0126077
947.411	0.0125202
947.489	0.0126678
947.568	0.0124611
947.646	0.0124883
947.724	0.0125134
947.802	0.0124548
947.880	0.0124658
947.958	0.0125259
948.036	0.0125264
948.114	0.0125961
948.193	0.0124767
948.271	0.0125397
948.349	0.0126354
948.427	0.0127322
948.505	0.0125289
948.583	0.0125346
948.661	0.0126534
948.739	0.0125600
948.818	0.0126502
948.896	0.0125504
948.974	0.0126038
949.052	0.0126875
949.130	0.0125728
949.208	0.0125026
949.286	0.0125181
949.364	0.0126400
949.443	0.0126115
949.521	0.0125554
949.599	0.0124065
949.677	0.0125544
949.755	0.0125160
949.833	0.0124853
949.911	0.0125938
949.989	0.0126014
950.068	0.0124989
950.146	0.0123827
950.224	0.0123895
950.302	0.0123756
950.380	0.0125908
950.458	0.0124221
950.536	0.0125066
950.614	0.0123225
950.693	0.0124272
950.771	0.0123932
950.849	0.0124406
950.927	0.0123890
951.005	0.0123635
951.083	0.0123516
951.161	0.0124757
951.239	0.0124181
951.318	0.0123341
951.396	0.0123473
951.474	0.0123620
951.552	0.0123573
951.630	0.0123340
951.708	0.0122042
951.786	0.0122634
951.864	0.0123176
951.943	0.0124393
952.021	0.0122712
952.099	0.0122298
952.177	0.0123265
952.255	0.0121893
952.333	0.0123056
952.411	0.0122495
952.489	0.0123331
952.568	0.0121604
952.646	0.0122041
952.724	0.0122314
952.802	0.0122066
952.880	0.0121144
952.958	0.0122340
953.036	0.0123652
953.114	0.0121828
953.193	0.0123222
953.271	0.0123654
953.349	0.0122427
953.427	0.0122932
953.505	0.0123094
953.583	0.0124265
953.661	0.0122634
953.739	0.0122922
953.818	0.0124496
953.896	0.0123825
953.974	0.0124174
954.052	0.0125212
954.130	0.0124434
954.208	0.0124969
954.286	0.0125976
954.364	0.0125577
954.443	0.0125407
954.521	0.0125040
954.599	0.0124198
954.677	0.0125060
954.755	0.0126894
954.833	0.0124969
954.911	0.0124848
954.989	0.0125890
955.068	0.0126081
955.146	0.0125140
955.224	0.0126154
955.302	0.0125819
955.380	0.0126332
955.458	0.0125595
955.536	0.0126550
955.614	0.0125650
955.693	0.0125260
955.771	0.0126221
955.849	0.0125221
955.927	0.0126235
956.005	0.0125605
956.083	0.0126279
956.161	0.0124789
956.239	0.0123785
956.318	0.0124763
956.396	0.0124615
956.474	0.0126072
956.552	0.0124685
956.630	0.0123760
956.708	0.0123875
956.786	0.0124382
956.864	0.0123215
956.943	0.0123460
957.021	0.0124594
957.099	0.0123978
957.177	0.0124213
957.255	0.0125089
957.333	0.0124602
957.411	0.0123292
957.489	0.0123914
957.568	0.0124520
957.646	0.0123745
957.724	0.0122806
957.802	0.0124117
957.880	0.0125167
957.958	0.0126051
958.036	0.0123930
958.114	0.0125269
958.193	0.0124064
958.271	0.0123919
958.349	0.0124787
958.427	0.0123855
958.505	0.0123318
958.583	0.0123964
958.661	0.0124600
958.739	0.0123317
958.818	0.0122884
958.896	0.0124209
958.974	0.0124374
959.052	0.0124632
959.130	0.0125134
959.208	0.0124088
959.286	0.0124937
959.364	0.0124863
959.443	0.0124686
959.521	0.0125298
959.599	0.0126317
959.677	0.0124730
959.755	0.0124751
959.833	0.0125724
959.911	0.0125401
