05/07/2022	17:30:18	Ver.	4.1	UNKNOWN
Optical Delay	639.989416	Delta X		0.078125	Sweeps	1	Scan Rate	0/0
Coordinates	Axis 1	NaN	Axis 2	NaN	Axis 3	NaN	Axis 4	NaN	Axis 5	NaN	Axis 6	0.000000
TX Power	0.000000	RX Power	0.000000

639.989	0.0137215
640.068	0.0137556
640.146	0.0137450
640.224	0.0136743
640.302	0.0137582
640.380	0.0138719
640.458	0.0136145
640.536	0.0136239
640.614	0.0136686
640.693	0.0138471
640.771	0.0136554
640.849	0.0136652
640.927	0.0137690
641.005	0.0138337
641.083	0.0137423
641.161	0.0137486
641.239	0.0136906
641.318	0.0137584
641.396	0.0136355
641.474	0.0137588
641.552	0.0137074
641.630	0.0137793
641.708	0.0137483
641.786	0.0138068
641.864	0.0138420
641.943	0.0137250
642.021	0.0138282
642.099	0.0136252
642.177	0.0137756
642.255	0.0137992
642.333	0.0137623
642.411	0.0137802
642.489	0.0138022
642.568	0.0137968
642.646	0.0138914
642.724	0.0136874
642.802	0.0138014
642.880	0.0138781
642.958	0.0138300
643.036	0.0136438
643.114	0.0137407
643.193	0.0138214
643.271	0.0137606
643.349	0.0137125
643.427	0.0138126
643.505	0.0140189
643.583	0.0138638
643.661	0.0137207
643.739	0.0136486
643.818	0.0138223
643.896	0.0138313
643.974	0.0139245
644.052	0.0136910
644.130	0.0137596
644.208	0.0138513
644.286	0.0137862
644.364	0.0138328
644.443	0.0137592
644.521	0.0138787
644.599	0.0138544
644.677	0.0140282
644.755	0.0138703
644.833	0.0137351
644.911	0.0138072
644.989	0.0139688
645.068	0.0138391
645.146	0.0137703
645.224	0.0137432
645.302	0.0138579
645.380	0.0139957
645.458	0.0139156
645.536	0.0138344
645.614	0.0139052
645.693	0.0139130
645.771	0.0137534
645.849	0.0137425
645.927	0.0139520
646.005	0.0137592
646.083	0.0137148
646.161	0.0139140
646.239	0.0137836
646.318	0.0137218
646.396	0.0137148
646.474	0.0139304
646.552	0.0138219
646.630	0.0137486
646.708	0.0137341
646.786	0.0137039
646.864	0.0139095
646.943	0.0139005
647.021	0.0137116
647.099	0.0138354
647.177	0.0138184
647.255	0.0137536
647.333	0.0137097
647.411	0.0137504
647.489	0.0137810
647.568	0.0137653
647.646	0.0138924
647.724	0.0136954
647.802	0.0136855
647.880	0.0137590
647.958	0.0137785
648.036	0.0137871
648.114	0.0137879
648.193	0.0138834
648.271	0.0138071
648.349	0.0138277
648.427	0.0139040
648.505	0.0140260
648.583	0.0139442
648.661	0.0139694
648.739	0.0140385
648.818	0.0141740
648.896	0.0140743
648.974	0.0140553
649.052	0.0138527
649.130	0.0138274
649.208	0.0137853
649.286	0.0137674
649.364	0.0135798
649.443	0.0137495
649.521	0.0136085
649.599	0.0137106
649.677	0.0137131
649.755	0.0136411
649.833	0.0136237
649.911	0.0136086
649.989	0.0135345
650.068	0.0136309
650.146	0.0136266
650.224	0.0135370
650.302	0.0136411
650.380	0.0136875
650.458	0.0136453
650.536	0.0137494
650.614	0.0138407
650.693	0.0136811
650.771	0.0137438
650.849	0.0138609
650.927	0.0137786
651.005	0.0139908
651.083	0.0141161
651.161	0.0140990
651.239	0.0141212
651.318	0.0141816
651.396	0.0139953
651.474	0.0141231
651.552	0.0142687
651.630	0.0141455
651.708	0.0142168
651.786	0.0141073
651.864	0.0140096
651.943	0.0140657
652.021	0.0140436
652.099	0.0138564
652.177	0.0139788
652.255	0.0139162
652.333	0.0136627
652.411	0.0135268
652.489	0.0136634
652.568	0.0134039
652.646	0.0132607
652.724	0.0133012
652.802	0.0131576
652.880	0.0131763
652.958	0.0131006
653.036	0.0131803
653.114	0.0131161
653.193	0.0131594
653.271	0.0130682
653.349	0.0132240
653.427	0.0132311
653.505	0.0133103
653.583	0.0133592
653.661	0.0134549
653.739	0.0134974
653.818	0.0136813
653.896	0.0136501
653.974	0.0139136
654.052	0.0140470
654.130	0.0141946
654.208	0.0143697
654.286	0.0143483
654.364	0.0144372
654.443	0.0145734
654.521	0.0147123
654.599	0.0146453
654.677	0.0146787
654.755	0.0145815
654.833	0.0147287
654.911	0.0147366
654.989	0.0146609
655.068	0.0145023
655.146	0.0142549
655.224	0.0142567
655.302	0.0140693
655.380	0.0140128
655.458	0.0137162
655.536	0.0136125
655.614	0.0134042
655.693	0.0133904
655.771	0.0131061
655.849	0.0129166
655.927	0.0127254
656.005	0.0125724
656.083	0.0125624
656.161	0.0124706
656.239	0.0123874
656.318	0.0122897
656.396	0.0123608
656.474	0.0125422
656.552	0.0125242
656.630	0.0125724
656.708	0.0127197
656.786	0.0128672
656.864	0.0131638
656.943	0.0133306
657.021	0.0134386
657.099	0.0137840
657.177	0.0139486
657.255	0.0140961
657.333	0.0143530
657.411	0.0145863
657.489	0.0146806
657.568	0.0148321
657.646	0.0150467
657.724	0.0151643
657.802	0.0152015
657.880	0.0153676
657.958	0.0153363
658.036	0.0152663
658.114	0.0152036
658.193	0.0150124
658.271	0.0151526
658.349	0.0149350
658.427	0.0148762
658.505	0.0146615
658.583	0.0145310
658.661	0.0143332
658.739	0.0141452
658.818	0.0137659
658.896	0.0135464
658.974	0.0133050
659.052	0.0131690
659.130	0.0130796
659.208	0.0129899
659.286	0.0128449
659.364	0.0128061
659.443	0.0126454
659.521	0.0125005
659.599	0.0123483
659.677	0.0123939
659.755	0.0123998
659.833	0.0124920
659.911	0.0124142
659.989	0.0123872
660.068	0.0125610
660.146	0.0126348
660.224	0.0128719
660.302	0.0128824
660.380	0.0129496
660.458	0.0132001
660.536	0.0133844
660.614	0.0134895
660.693	0.0137257
660.771	0.0138458
660.849	0.0139632
660.927	0.0141134
661.005	0.0142056
661.083	0.0143521
661.161	0.0146107
661.239	0.0145461
661.318	0.0147263
661.396	0.0147459
661.474	0.0147710
661.552	0.0147594
661.630	0.0147144
661.708	0.0147530
661.786	0.0146589
661.864	0.0147020
661.943	0.0148179
662.021	0.0145349
662.099	0.0145840
662.177	0.0145820
662.255	0.0145791
662.333	0.0144505
662.411	0.0144474
662.489	0.0145432
662.568	0.0144021
662.646	0.0142035
662.724	0.0144032
662.802	0.0142065
662.880	0.0141391
662.958	0.0139785
663.036	0.0138579
663.114	0.0139459
663.193	0.0137181
663.271	0.0136848
663.349	0.0132992
663.427	0.0133882
663.505	0.0132989
663.583	0.0129468
663.661	0.0130054
663.739	0.0127770
663.818	0.0128076
663.896	0.0126105
663.974	0.0124593
664.052	0.0123968
664.130	0.0122089
664.208	0.0123016
664.286	0.0122649
664.364	0.0121898
664.443	0.0122713
664.521	0.0122308
664.599	0.0123947
664.677	0.0125108
664.755	0.0126034
664.833	0.0127244
664.911	0.0129366
664.989	0.0131912
665.068	0.0134323
665.146	0.0135992
665.224	0.0140272
665.302	0.0141764
665.380	0.0144511
665.458	0.0147373
665.536	0.0148440
665.614	0.0150555
665.693	0.0152634
665.771	0.0154893
665.849	0.0155831
665.927	0.0156824
666.005	0.0158643
666.083	0.0156857
666.161	0.0157718
666.239	0.0159534
666.318	0.0159308
666.396	0.0156738
666.474	0.0154288
666.552	0.0153801
666.630	0.0152114
666.708	0.0148599
666.786	0.0146516
666.864	0.0144113
666.943	0.0140663
667.021	0.0137129
667.099	0.0134256
667.177	0.0132227
667.255	0.0129565
667.333	0.0127703
667.411	0.0123109
667.489	0.0122861
667.568	0.0121761
667.646	0.0119549
667.724	0.0120174
667.802	0.0116945
667.880	0.0118301
667.958	0.0119511
668.036	0.0118833
668.114	0.0119796
668.193	0.0120302
668.271	0.0122520
668.349	0.0124529
668.427	0.0126165
668.505	0.0129149
668.583	0.0129893
668.661	0.0131825
668.739	0.0134573
668.818	0.0134660
668.896	0.0137079
668.974	0.0138651
669.052	0.0138776
669.130	0.0140147
669.208	0.0141520
669.286	0.0143036
669.364	0.0142768
669.443	0.0143613
669.521	0.0143631
669.599	0.0144550
669.677	0.0144490
669.755	0.0145944
669.833	0.0144820
669.911	0.0146068
669.989	0.0145393
670.068	0.0146545
670.146	0.0146883
670.224	0.0147108
670.302	0.0146704
670.380	0.0147453
670.458	0.0147474
670.536	0.0148509
670.614	0.0148393
670.693	0.0147882
670.771	0.0147688
670.849	0.0148282
670.927	0.0147355
671.005	0.0146071
671.083	0.0145515
671.161	0.0145973
671.239	0.0143726
671.318	0.0141729
671.396	0.0140997
671.474	0.0139362
671.552	0.0137590
671.630	0.0137087
671.708	0.0134042
671.786	0.0132780
671.864	0.0130902
671.943	0.0129799
672.021	0.0128333
672.099	0.0128408
672.177	0.0125693
672.255	0.0124950
672.333	0.0122628
672.411	0.0123181
672.489	0.0124590
672.568	0.0123994
672.646	0.0124567
672.724	0.0125083
672.802	0.0126183
672.880	0.0128671
672.958	0.0129204
673.036	0.0132241
673.114	0.0133723
673.193	0.0135858
673.271	0.0137754
673.349	0.0138158
673.427	0.0141832
673.505	0.0141933
673.583	0.0142049
673.661	0.0142467
673.739	0.0145478
673.818	0.0145282
673.896	0.0143574
673.974	0.0145860
674.052	0.0145195
674.130	0.0145440
674.208	0.0145313
674.286	0.0144613
674.364	0.0143098
674.443	0.0142109
674.521	0.0142676
674.599	0.0141047
674.677	0.0140900
674.755	0.0139939
674.833	0.0138980
674.911	0.0139159
674.989	0.0139223
675.068	0.0140372
675.146	0.0138255
675.224	0.0138892
675.302	0.0140589
675.380	0.0140758
675.458	0.0141089
675.536	0.0140616
675.614	0.0141312
675.693	0.0143018
675.771	0.0142308
675.849	0.0142251
675.927	0.0142225
676.005	0.0141523
676.083	0.0141161
676.161	0.0140843
676.239	0.0140790
676.318	0.0137129
676.396	0.0137674
676.474	0.0136380
676.552	0.0134448
676.630	0.0132060
676.708	0.0130408
676.786	0.0130038
676.864	0.0128578
676.943	0.0124774
677.021	0.0124839
677.099	0.0124853
677.177	0.0121332
677.255	0.0122616
677.333	0.0122009
677.411	0.0123166
677.489	0.0122958
677.568	0.0123733
677.646	0.0124438
677.724	0.0127399
677.802	0.0129345
677.880	0.0131779
677.958	0.0135448
678.036	0.0137724
678.114	0.0141996
678.193	0.0145503
678.271	0.0148628
678.349	0.0148796
678.427	0.0152803
678.505	0.0154884
678.583	0.0157444
678.661	0.0157860
678.739	0.0160358
678.818	0.0159845
678.896	0.0160278
678.974	0.0159913
679.052	0.0158437
679.130	0.0156548
679.208	0.0155542
679.286	0.0152099
679.364	0.0148930
679.443	0.0145225
679.521	0.0142577
679.599	0.0139626
679.677	0.0135332
679.755	0.0130637
679.833	0.0128271
679.911	0.0124306
679.989	0.0120775
680.068	0.0117418
680.146	0.0115732
680.224	0.0114535
680.302	0.0112076
680.380	0.0112448
680.458	0.0110501
680.536	0.0111230
680.614	0.0113115
680.693	0.0114490
680.771	0.0114636
680.849	0.0116976
680.927	0.0120869
681.005	0.0124200
681.083	0.0125902
681.161	0.0130190
681.239	0.0131906
681.318	0.0134264
681.396	0.0139603
681.474	0.0142250
681.552	0.0144419
681.630	0.0144766
681.708	0.0147740
681.786	0.0149571
681.864	0.0151314
681.943	0.0153661
682.021	0.0152467
682.099	0.0153342
682.177	0.0154438
682.255	0.0155057
682.333	0.0153471
682.411	0.0153959
682.489	0.0152675
682.568	0.0152701
682.646	0.0151509
682.724	0.0150125
682.802	0.0149406
682.880	0.0150198
682.958	0.0148413
683.036	0.0149252
683.114	0.0145701
683.193	0.0145600
683.271	0.0145284
683.349	0.0143038
683.427	0.0143580
683.505	0.0143434
683.583	0.0142304
683.661	0.0140314
683.739	0.0139221
683.818	0.0141012
683.896	0.0139069
683.974	0.0137424
684.052	0.0136818
684.130	0.0134763
684.208	0.0134347
684.286	0.0133283
684.364	0.0133495
684.443	0.0131223
684.521	0.0128938
684.599	0.0128145
684.677	0.0126508
684.755	0.0124126
684.833	0.0124055
684.911	0.0121166
684.989	0.0118197
685.068	0.0116094
685.146	0.0117469
685.224	0.0116464
685.302	0.0114956
685.380	0.0115010
685.458	0.0114291
685.536	0.0115215
685.614	0.0115898
685.693	0.0116933
685.771	0.0119635
685.849	0.0120277
685.927	0.0122578
686.005	0.0126746
686.083	0.0129296
686.161	0.0133038
686.239	0.0134953
686.318	0.0139326
686.396	0.0141699
686.474	0.0146062
686.552	0.0149905
686.630	0.0153530
686.708	0.0155810
686.786	0.0159474
686.864	0.0161379
686.943	0.0164242
687.021	0.0164211
687.099	0.0166049
687.177	0.0165836
687.255	0.0165859
687.333	0.0165488
687.411	0.0163058
687.489	0.0163225
687.568	0.0159353
687.646	0.0156933
687.724	0.0155013
687.802	0.0151672
687.880	0.0151463
687.958	0.0146352
688.036	0.0141964
688.114	0.0138596
688.193	0.0136369
688.271	0.0133549
688.349	0.0131480
688.427	0.0129182
688.505	0.0126491
688.583	0.0127434
688.661	0.0124755
688.739	0.0123280
688.818	0.0123020
688.896	0.0122946
688.974	0.0123891
689.052	0.0123181
689.130	0.0123965
689.208	0.0123359
689.286	0.0124448
689.364	0.0124994
689.443	0.0127233
689.521	0.0128364
689.599	0.0130370
689.677	0.0130521
689.755	0.0130931
689.833	0.0131026
689.911	0.0134181
689.989	0.0135473
690.068	0.0134523
690.146	0.0135149
690.224	0.0136675
690.302	0.0135497
690.380	0.0134644
690.458	0.0132866
690.536	0.0132086
690.614	0.0130434
690.693	0.0129416
690.771	0.0128300
690.849	0.0127982
690.927	0.0127641
691.005	0.0125437
691.083	0.0126266
691.161	0.0126104
691.239	0.0126887
691.318	0.0126871
691.396	0.0127920
691.474	0.0129228
691.552	0.0131573
691.630	0.0132447
691.708	0.0134006
691.786	0.0136952
691.864	0.0139519
691.943	0.0144230
692.021	0.0146441
692.099	0.0148867
692.177	0.0152122
692.255	0.0154122
692.333	0.0157924
692.411	0.0160900
692.489	0.0162975
692.568	0.0162906
692.646	0.0163793
692.724	0.0163840
692.802	0.0162902
692.880	0.0162058
692.958	0.0161749
693.036	0.0161107
693.114	0.0158459
693.193	0.0154298
693.271	0.0151745
693.349	0.0149781
693.427	0.0145751
693.505	0.0144830
693.583	0.0141090
693.661	0.0136945
693.739	0.0135760
693.818	0.0134490
693.896	0.0131489
693.974	0.0128951
694.052	0.0128557
694.130	0.0127455
694.208	0.0124201
694.286	0.0125928
694.364	0.0123080
694.443	0.0123776
694.521	0.0122489
694.599	0.0123244
694.677	0.0123746
694.755	0.0123414
694.833	0.0124593
694.911	0.0125675
694.989	0.0126221
695.068	0.0127193
695.146	0.0126886
695.224	0.0128275
695.302	0.0128171
695.380	0.0128545
695.458	0.0128914
695.536	0.0129715
695.614	0.0129196
695.693	0.0130534
695.771	0.0129487
695.849	0.0130946
695.927	0.0130996
696.005	0.0132440
696.083	0.0133092
696.161	0.0133150
696.239	0.0135249
696.318	0.0135303
696.396	0.0135565
696.474	0.0138076
696.552	0.0138841
696.630	0.0139923
696.708	0.0140401
696.786	0.0140796
696.864	0.0141656
696.943	0.0143835
697.021	0.0144466
697.099	0.0143288
697.177	0.0145460
697.255	0.0144067
697.333	0.0146178
697.411	0.0146654
697.489	0.0146275
697.568	0.0146964
697.646	0.0146144
697.724	0.0145463
697.802	0.0145737
697.880	0.0145821
697.958	0.0145315
698.036	0.0145274
698.114	0.0145122
698.193	0.0145301
698.271	0.0144881
698.349	0.0142938
698.427	0.0144461
698.505	0.0145061
698.583	0.0143651
698.661	0.0143075
698.739	0.0143276
698.818	0.0143755
698.896	0.0143390
698.974	0.0140176
699.052	0.0140461
699.130	0.0138643
699.208	0.0138503
699.286	0.0136726
699.364	0.0137199
699.443	0.0136024
699.521	0.0135056
699.599	0.0134841
699.677	0.0134322
699.755	0.0134599
699.833	0.0134519
699.911	0.0133714
699.989	0.0132901
700.068	0.0133829
700.146	0.0133596
700.224	0.0133551
700.302	0.0133635
700.380	0.0135773
700.458	0.0134597
700.536	0.0133861
700.614	0.0134299
700.693	0.0133884
700.771	0.0134654
700.849	0.0133591
700.927	0.0133367
701.005	0.0133216
701.083	0.0133106
701.161	0.0132761
701.239	0.0132133
701.318	0.0130692
701.396	0.0132165
701.474	0.0133060
701.552	0.0131787
701.630	0.0131580
701.708	0.0132875
701.786	0.0132720
701.864	0.0132454
701.943	0.0132446
702.021	0.0132703
702.099	0.0136230
702.177	0.0135628
702.255	0.0133586
702.333	0.0135480
702.411	0.0134325
702.489	0.0135110
702.568	0.0135258
702.646	0.0134613
702.724	0.0134470
702.802	0.0134428
702.880	0.0133946
702.958	0.0132374
703.036	0.0132607
703.114	0.0132872
703.193	0.0133875
703.271	0.0132906
703.349	0.0132414
703.427	0.0134039
703.505	0.0133616
703.583	0.0134904
703.661	0.0135017
703.739	0.0136640
703.818	0.0136053
703.896	0.0140064
703.974	0.0140179
704.052	0.0143250
704.130	0.0145722
704.208	0.0146298
704.286	0.0147839
704.364	0.0149561
704.443	0.0152110
704.521	0.0151456
704.599	0.0152433
704.677	0.0153330
704.755	0.0152701
704.833	0.0151976
704.911	0.0153046
704.989	0.0153331
705.068	0.0150011
705.146	0.0148701
705.224	0.0148962
705.302	0.0147878
705.380	0.0144190
705.458	0.0143993
705.536	0.0141859
705.614	0.0140832
705.693	0.0139031
705.771	0.0137009
705.849	0.0136893
705.927	0.0135662
706.005	0.0134877
706.083	0.0134296
706.161	0.0132663
706.239	0.0131962
706.318	0.0130836
706.396	0.0130715
706.474	0.0129944
706.552	0.0131047
706.630	0.0129742
706.708	0.0129016
706.786	0.0128848
706.864	0.0127614
706.943	0.0127447
707.021	0.0125805
707.099	0.0125295
707.177	0.0126136
707.255	0.0123816
707.333	0.0123461
707.411	0.0123845
707.489	0.0123513
707.568	0.0124520
707.646	0.0125356
707.724	0.0124344
707.802	0.0125537
707.880	0.0126119
707.958	0.0127586
708.036	0.0128823
708.114	0.0128654
708.193	0.0129018
708.271	0.0130611
708.349	0.0133002
708.427	0.0134406
708.505	0.0133555
708.583	0.0134165
708.661	0.0135443
708.739	0.0137661
708.818	0.0137519
708.896	0.0139248
708.974	0.0139469
709.052	0.0140397
709.130	0.0141869
709.208	0.0140063
709.286	0.0142902
709.364	0.0142564
709.443	0.0143697
709.521	0.0144218
709.599	0.0143963
709.677	0.0146077
709.755	0.0146683
709.833	0.0145771
709.911	0.0147775
709.989	0.0147575
710.068	0.0147384
710.146	0.0149144
710.224	0.0148158
710.302	0.0149610
710.380	0.0149240
710.458	0.0149631
710.536	0.0149828
710.614	0.0150610
710.693	0.0149709
710.771	0.0150480
710.849	0.0151603
710.927	0.0150933
711.005	0.0149329
711.083	0.0149128
711.161	0.0150700
711.239	0.0148814
711.318	0.0148225
711.396	0.0147734
711.474	0.0143890
711.552	0.0144227
711.630	0.0142553
711.708	0.0141921
711.786	0.0139727
711.864	0.0137213
711.943	0.0136523
712.021	0.0134798
712.099	0.0132690
712.177	0.0132224
712.255	0.0130608
712.333	0.0128984
712.411	0.0127954
712.489	0.0125128
712.568	0.0123310
712.646	0.0124073
712.724	0.0122485
712.802	0.0120772
712.880	0.0121040
712.958	0.0120073
713.036	0.0120334
713.114	0.0119780
713.193	0.0119516
713.271	0.0120354
713.349	0.0119537
713.427	0.0121731
713.505	0.0122203
713.583	0.0124073
713.661	0.0124490
713.739	0.0128573
713.818	0.0127090
713.896	0.0129634
713.974	0.0132309
714.052	0.0134486
714.130	0.0134595
714.208	0.0137138
714.286	0.0138583
714.364	0.0138410
714.443	0.0140909
714.521	0.0141392
714.599	0.0142521
714.677	0.0141245
714.755	0.0142363
714.833	0.0143714
714.911	0.0143221
714.989	0.0144766
715.068	0.0143455
715.146	0.0144534
715.224	0.0144746
715.302	0.0145055
715.380	0.0145346
715.458	0.0146587
715.536	0.0146816
715.614	0.0146674
715.693	0.0148589
715.771	0.0148289
715.849	0.0149044
715.927	0.0148707
716.005	0.0151298
716.083	0.0151088
716.161	0.0152059
716.239	0.0152380
716.318	0.0153831
716.396	0.0153571
716.474	0.0152903
716.552	0.0152822
716.630	0.0153734
716.708	0.0152546
716.786	0.0151225
716.864	0.0151177
716.943	0.0149404
717.021	0.0148975
717.099	0.0146331
717.177	0.0146307
717.255	0.0143726
717.333	0.0142634
717.411	0.0140950
717.489	0.0139920
717.568	0.0138345
717.646	0.0136787
717.724	0.0135054
717.802	0.0132124
717.880	0.0131208
717.958	0.0129969
718.036	0.0127563
718.114	0.0126715
718.193	0.0126551
718.271	0.0124359
718.349	0.0123927
718.427	0.0122616
718.505	0.0122758
718.583	0.0121136
718.661	0.0121523
718.739	0.0120227
718.818	0.0121062
718.896	0.0121552
718.974	0.0120117
719.052	0.0121375
719.130	0.0121436
719.208	0.0123357
719.286	0.0123132
719.364	0.0123191
719.443	0.0124960
719.521	0.0126215
719.599	0.0127486
719.677	0.0127365
719.755	0.0128852
719.833	0.0130879
719.911	0.0132107
719.989	0.0131747
720.068	0.0133401
720.146	0.0136508
720.224	0.0135730
720.302	0.0137350
720.380	0.0138995
720.458	0.0139352
720.536	0.0140289
720.614	0.0141296
720.693	0.0142835
720.771	0.0143562
720.849	0.0145766
720.927	0.0147484
721.005	0.0147791
721.083	0.0149046
721.161	0.0150402
721.239	0.0150740
721.318	0.0150802
721.396	0.0152225
721.474	0.0152362
721.552	0.0151830
721.630	0.0153297
721.708	0.0153957
721.786	0.0153888
721.864	0.0153332
721.943	0.0153787
722.021	0.0151404
722.099	0.0152948
722.177	0.0151204
722.255	0.0150634
722.333	0.0149651
722.411	0.0148069
722.489	0.0147178
722.568	0.0147124
722.646	0.0144567
722.724	0.0143355
722.802	0.0141965
722.880	0.0141068
722.958	0.0139219
723.036	0.0138147
723.114	0.0136703
723.193	0.0133282
723.271	0.0133521
723.349	0.0133478
723.427	0.0131834
723.505	0.0130779
723.583	0.0131104
723.661	0.0130566
723.739	0.0129839
723.818	0.0129445
723.896	0.0125793
723.974	0.0126490
724.052	0.0127280
724.130	0.0126463
724.208	0.0126183
724.286	0.0125742
724.364	0.0125457
724.443	0.0126322
724.521	0.0124596
724.599	0.0123166
724.677	0.0124778
724.755	0.0125059
724.833	0.0124102
724.911	0.0124840
724.989	0.0126109
725.068	0.0125323
725.146	0.0126097
725.224	0.0125757
725.302	0.0126596
725.380	0.0126589
725.458	0.0127647
725.536	0.0129069
725.614	0.0131177
725.693	0.0129349
725.771	0.0131397
725.849	0.0131299
725.927	0.0133141
726.005	0.0135057
726.083	0.0137407
726.161	0.0138165
726.239	0.0137024
726.318	0.0139536
726.396	0.0140617
726.474	0.0141263
726.552	0.0142850
726.630	0.0143314
726.708	0.0145243
726.786	0.0145146
726.864	0.0146551
726.943	0.0148045
727.021	0.0147733
727.099	0.0148834
727.177	0.0148201
727.255	0.0148803
727.333	0.0148807
727.411	0.0149107
727.489	0.0147741
727.568	0.0146707
727.646	0.0146821
727.724	0.0147855
727.802	0.0146395
727.880	0.0145291
727.958	0.0143655
728.036	0.0145781
728.114	0.0144464
728.193	0.0142986
728.271	0.0143272
728.349	0.0143155
728.427	0.0141989
728.505	0.0140793
728.583	0.0140930
728.661	0.0141199
728.739	0.0140496
728.818	0.0141214
728.896	0.0139619
728.974	0.0138678
729.052	0.0137551
729.130	0.0137100
729.208	0.0137205
729.286	0.0136094
729.364	0.0135272
729.443	0.0134779
729.521	0.0134309
729.599	0.0133138
729.677	0.0131952
729.755	0.0131811
729.833	0.0131505
729.911	0.0128953
729.989	0.0129852
730.068	0.0128121
730.146	0.0128135
730.224	0.0129681
730.302	0.0126192
730.380	0.0126998
730.458	0.0128304
730.536	0.0126893
730.614	0.0127699
730.693	0.0129395
730.771	0.0130325
730.849	0.0131651
730.927	0.0129747
731.005	0.0129602
731.083	0.0132185
731.161	0.0133302
731.239	0.0132033
731.318	0.0132923
731.396	0.0133965
731.474	0.0134354
731.552	0.0135394
731.630	0.0136048
731.708	0.0135747
731.786	0.0135696
731.864	0.0138616
731.943	0.0137896
732.021	0.0137680
732.099	0.0138051
732.177	0.0139699
732.255	0.0141109
732.333	0.0141006
732.411	0.0140385
732.489	0.0142172
732.568	0.0143224
732.646	0.0141102
732.724	0.0141901
732.802	0.0142318
732.880	0.0143120
732.958	0.0143804
733.036	0.0142028
733.114	0.0143302
733.193	0.0143884
733.271	0.0143323
733.349	0.0141532
733.427	0.0141971
733.505	0.0143278
733.583	0.0142295
733.661	0.0142495
733.739	0.0143635
733.818	0.0142149
733.896	0.0143203
733.974	0.0142817
734.052	0.0142673
734.130	0.0142793
734.208	0.0143877
734.286	0.0144506
734.364	0.0143784
734.443	0.0144501
734.521	0.0144423
734.599	0.0144881
734.677	0.0143938
734.755	0.0144128
734.833	0.0144552
734.911	0.0142764
734.989	0.0142401
735.068	0.0143938
735.146	0.0142281
735.224	0.0140154
735.302	0.0140652
735.380	0.0138902
735.458	0.0138178
735.536	0.0138377
735.614	0.0135768
735.693	0.0134920
735.771	0.0134979
735.849	0.0133679
735.927	0.0131612
736.005	0.0132024
736.083	0.0131508
736.161	0.0130247
736.239	0.0130298
736.318	0.0129915
736.396	0.0129852
736.474	0.0130234
736.552	0.0129240
736.630	0.0129268
736.708	0.0129963
736.786	0.0130657
736.864	0.0131493
736.943	0.0130259
737.021	0.0131545
737.099	0.0132874
737.177	0.0132174
737.255	0.0133510
737.333	0.0132951
737.411	0.0136447
737.489	0.0135847
737.568	0.0135556
737.646	0.0136304
737.724	0.0136824
737.802	0.0136747
737.880	0.0137301
737.958	0.0138100
738.036	0.0138457
738.114	0.0139011
738.193	0.0138649
738.271	0.0137542
738.349	0.0138634
738.427	0.0139896
738.505	0.0139364
738.583	0.0138111
738.661	0.0138414
738.739	0.0138544
738.818	0.0138708
738.896	0.0138398
738.974	0.0140122
739.052	0.0139926
739.130	0.0139949
739.208	0.0140179
739.286	0.0140755
739.364	0.0141566
739.443	0.0142020
739.521	0.0141656
739.599	0.0141713
739.677	0.0141709
739.755	0.0142493
739.833	0.0141629
739.911	0.0142098
739.989	0.0144367
740.068	0.0143129
740.146	0.0142042
740.224	0.0143600
740.302	0.0141521
740.380	0.0141489
740.458	0.0141589
740.536	0.0140907
740.614	0.0141947
740.693	0.0142944
740.771	0.0142113
740.849	0.0141404
740.927	0.0142396
741.005	0.0142784
741.083	0.0140489
741.161	0.0140569
741.239	0.0141508
741.318	0.0140306
741.396	0.0139713
741.474	0.0139848
741.552	0.0138807
741.630	0.0139521
741.708	0.0138601
741.786	0.0139573
741.864	0.0137715
741.943	0.0136092
742.021	0.0135986
742.099	0.0136340
742.177	0.0135838
742.255	0.0135407
742.333	0.0135834
742.411	0.0135224
742.489	0.0134180
742.568	0.0134531
742.646	0.0132745
742.724	0.0131503
742.802	0.0131393
742.880	0.0133688
742.958	0.0132973
743.036	0.0132000
743.114	0.0132384
743.193	0.0132710
743.271	0.0133195
743.349	0.0133766
743.427	0.0134463
743.505	0.0133639
743.583	0.0134451
743.661	0.0135122
743.739	0.0133894
743.818	0.0135287
743.896	0.0136560
743.974	0.0136269
744.052	0.0136369
744.130	0.0137813
744.208	0.0136946
744.286	0.0137603
744.364	0.0137833
744.443	0.0137481
744.521	0.0138745
744.599	0.0137807
744.677	0.0137537
744.755	0.0138819
744.833	0.0137540
744.911	0.0138215
744.989	0.0139795
745.068	0.0137833
745.146	0.0139220
745.224	0.0139688
745.302	0.0138876
745.380	0.0138416
745.458	0.0140950
745.536	0.0139265
745.614	0.0139214
745.693	0.0141475
745.771	0.0142837
745.849	0.0141466
745.927	0.0142300
746.005	0.0142677
746.083	0.0141042
746.161	0.0140706
746.239	0.0141948
746.318	0.0141501
746.396	0.0143202
746.474	0.0141556
746.552	0.0142003
746.630	0.0141904
746.708	0.0139589
746.786	0.0139384
746.864	0.0140401
746.943	0.0138950
747.021	0.0138120
747.099	0.0137226
747.177	0.0136129
747.255	0.0137672
747.333	0.0137300
747.411	0.0138657
747.489	0.0136969
747.568	0.0136363
747.646	0.0136246
747.724	0.0137426
747.802	0.0137601
747.880	0.0137792
747.958	0.0138071
748.036	0.0136466
748.114	0.0137420
748.193	0.0136452
748.271	0.0137061
748.349	0.0136512
748.427	0.0137155
748.505	0.0136266
748.583	0.0137694
748.661	0.0137291
748.739	0.0136942
748.818	0.0137059
748.896	0.0135681
748.974	0.0134325
749.052	0.0135573
749.130	0.0134061
749.208	0.0135748
749.286	0.0134840
749.364	0.0135063
749.443	0.0134062
749.521	0.0132630
749.599	0.0133001
749.677	0.0135465
749.755	0.0132994
749.833	0.0133191
749.911	0.0133511
749.989	0.0134188
750.068	0.0134271
750.146	0.0135215
750.224	0.0134430
750.302	0.0135928
750.380	0.0135606
750.458	0.0136026
750.536	0.0137144
750.614	0.0137989
750.693	0.0139095
750.771	0.0138290
750.849	0.0140157
750.927	0.0139642
751.005	0.0138958
751.083	0.0141150
751.161	0.0141225
751.239	0.0141169
751.318	0.0140637
751.396	0.0139688
751.474	0.0140536
751.552	0.0141937
751.630	0.0142419
751.708	0.0140632
751.786	0.0139452
751.864	0.0141615
751.943	0.0140938
752.021	0.0139531
752.099	0.0138595
752.177	0.0139824
752.255	0.0139925
752.333	0.0138806
752.411	0.0139004
752.489	0.0138635
752.568	0.0138082
752.646	0.0137666
752.724	0.0137935
752.802	0.0138267
752.880	0.0136320
752.958	0.0137019
753.036	0.0136859
753.114	0.0137144
753.193	0.0137165
753.271	0.0136155
753.349	0.0136595
753.427	0.0136253
753.505	0.0135117
753.583	0.0136079
753.661	0.0137251
753.739	0.0137218
753.818	0.0136087
753.896	0.0137148
753.974	0.0138159
754.052	0.0138622
754.130	0.0138230
754.208	0.0139745
754.286	0.0141235
754.364	0.0140285
754.443	0.0141959
754.521	0.0141565
754.599	0.0141373
754.677	0.0140534
754.755	0.0141352
754.833	0.0141101
754.911	0.0141204
754.989	0.0140538
755.068	0.0138828
755.146	0.0139009
755.224	0.0140205
755.302	0.0139117
755.380	0.0138173
755.458	0.0137675
755.536	0.0138112
755.614	0.0135860
755.693	0.0134615
755.771	0.0134109
755.849	0.0134421
755.927	0.0132979
756.005	0.0132887
756.083	0.0134106
756.161	0.0132677
756.239	0.0133473
756.318	0.0131355
756.396	0.0132564
756.474	0.0134336
756.552	0.0134206
756.630	0.0133140
756.708	0.0134532
756.786	0.0135442
756.864	0.0134811
756.943	0.0135976
757.021	0.0136891
757.099	0.0136723
757.177	0.0137685
757.255	0.0139079
757.333	0.0140305
757.411	0.0139427
757.489	0.0138390
757.568	0.0138070
757.646	0.0138433
757.724	0.0139684
757.802	0.0138966
757.880	0.0139384
757.958	0.0138612
758.036	0.0137694
758.114	0.0139613
758.193	0.0137917
758.271	0.0137981
758.349	0.0138388
758.427	0.0139996
758.505	0.0139371
758.583	0.0138544
758.661	0.0139054
758.739	0.0139327
758.818	0.0140923
758.896	0.0140481
758.974	0.0140689
759.052	0.0141512
759.130	0.0141105
759.208	0.0142893
759.286	0.0142524
759.364	0.0141696
759.443	0.0141538
759.521	0.0141888
759.599	0.0140910
759.677	0.0140267
759.755	0.0139767
759.833	0.0139674
759.911	0.0139928
759.989	0.0137936
760.068	0.0139386
760.146	0.0139137
760.224	0.0137704
760.302	0.0137231
760.380	0.0136726
760.458	0.0137193
760.536	0.0136539
760.614	0.0137412
760.693	0.0136533
760.771	0.0137714
760.849	0.0136130
760.927	0.0136841
761.005	0.0136421
761.083	0.0137119
761.161	0.0137208
761.239	0.0137391
761.318	0.0134965
761.396	0.0136739
761.474	0.0136566
761.552	0.0135372
761.630	0.0137178
761.708	0.0136855
761.786	0.0137493
761.864	0.0137571
761.943	0.0138320
762.021	0.0137996
762.099	0.0137651
762.177	0.0136994
762.255	0.0138487
762.333	0.0137233
762.411	0.0137260
762.489	0.0137289
762.568	0.0137261
762.646	0.0137778
762.724	0.0139004
762.802	0.0138680
762.880	0.0137984
762.958	0.0137735
763.036	0.0138937
763.114	0.0136816
763.193	0.0136655
763.271	0.0137246
763.349	0.0138658
763.427	0.0138640
763.505	0.0138116
763.583	0.0138039
763.661	0.0138937
763.739	0.0138453
763.818	0.0137291
763.896	0.0136417
763.974	0.0138111
764.052	0.0136761
764.130	0.0138084
764.208	0.0136978
764.286	0.0135317
764.364	0.0135735
764.443	0.0134976
764.521	0.0136462
764.599	0.0135349
764.677	0.0136218
764.755	0.0135219
764.833	0.0135387
764.911	0.0134081
764.989	0.0135603
765.068	0.0135497
765.146	0.0135569
765.224	0.0135390
765.302	0.0137170
765.380	0.0135986
765.458	0.0136618
765.536	0.0135234
765.614	0.0137469
765.693	0.0139632
765.771	0.0137595
765.849	0.0139192
765.927	0.0139861
766.005	0.0140128
766.083	0.0141190
766.161	0.0141672
766.239	0.0140416
766.318	0.0141642
766.396	0.0141749
766.474	0.0141213
766.552	0.0140756
766.630	0.0140814
766.708	0.0141035
766.786	0.0141329
766.864	0.0138705
766.943	0.0140889
767.021	0.0139919
767.099	0.0138683
767.177	0.0139336
767.255	0.0139604
767.333	0.0137958
767.411	0.0137116
767.489	0.0139228
767.568	0.0138052
767.646	0.0137086
767.724	0.0139626
767.802	0.0137942
767.880	0.0137966
767.958	0.0136840
768.036	0.0137001
768.114	0.0137428
768.193	0.0137369
768.271	0.0137077
768.349	0.0137186
768.427	0.0136226
768.505	0.0136121
768.583	0.0136157
768.661	0.0136065
768.739	0.0136250
768.818	0.0136420
768.896	0.0135605
768.974	0.0133492
769.052	0.0134547
769.130	0.0134838
769.208	0.0134972
769.286	0.0132665
769.364	0.0133555
769.443	0.0134667
769.521	0.0134370
769.599	0.0133345
769.677	0.0134810
769.755	0.0134867
769.833	0.0135574
769.911	0.0136802
769.989	0.0136163
770.068	0.0135943
770.146	0.0138691
770.224	0.0138070
770.302	0.0139488
770.380	0.0138177
770.458	0.0138594
770.536	0.0139730
770.614	0.0140593
770.693	0.0138413
770.771	0.0139491
770.849	0.0140173
770.927	0.0139423
771.005	0.0139370
771.083	0.0140107
771.161	0.0138807
771.239	0.0140861
771.318	0.0139560
771.396	0.0139553
771.474	0.0139487
771.552	0.0138890
771.630	0.0139448
771.708	0.0139631
771.786	0.0139928
771.864	0.0138744
771.943	0.0140366
772.021	0.0139581
772.099	0.0140350
772.177	0.0139624
772.255	0.0139862
772.333	0.0140616
772.411	0.0141412
772.489	0.0141232
772.568	0.0140165
772.646	0.0139017
772.724	0.0139648
772.802	0.0139773
772.880	0.0139057
772.958	0.0138499
773.036	0.0136174
773.114	0.0138674
773.193	0.0137084
773.271	0.0136857
773.349	0.0135307
773.427	0.0136467
773.505	0.0136252
773.583	0.0135777
773.661	0.0136327
773.739	0.0136943
773.818	0.0136008
773.896	0.0136666
773.974	0.0136474
774.052	0.0136654
774.130	0.0136349
774.208	0.0137494
774.286	0.0136739
774.364	0.0136846
774.443	0.0136608
774.521	0.0137025
774.599	0.0136526
774.677	0.0137675
774.755	0.0137634
774.833	0.0136127
774.911	0.0136521
774.989	0.0139262
775.068	0.0137864
775.146	0.0137696
775.224	0.0138612
775.302	0.0137964
775.380	0.0138992
775.458	0.0138779
775.536	0.0137437
775.614	0.0137366
775.693	0.0139204
775.771	0.0138128
775.849	0.0137527
775.927	0.0136629
776.005	0.0137228
776.083	0.0137177
776.161	0.0137394
776.239	0.0138296
776.318	0.0136837
776.396	0.0136135
776.474	0.0136845
776.552	0.0137106
776.630	0.0136592
776.708	0.0136146
776.786	0.0136392
776.864	0.0135936
776.943	0.0136672
777.021	0.0136617
777.099	0.0136908
777.177	0.0135657
777.255	0.0136047
777.333	0.0136279
777.411	0.0134177
777.489	0.0134586
777.568	0.0136162
777.646	0.0135906
777.724	0.0136034
777.802	0.0136993
777.880	0.0135229
777.958	0.0136189
778.036	0.0135247
778.114	0.0135722
778.193	0.0136616
778.271	0.0137482
778.349	0.0136649
778.427	0.0136706
778.505	0.0136539
778.583	0.0137469
778.661	0.0137024
778.739	0.0137242
778.818	0.0138682
778.896	0.0139246
778.974	0.0137825
779.052	0.0138615
779.130	0.0139851
779.208	0.0141277
779.286	0.0140376
779.364	0.0139614
779.443	0.0140493
779.521	0.0141353
779.599	0.0140564
779.677	0.0140364
779.755	0.0138770
779.833	0.0139700
779.911	0.0138921
779.989	0.0138667
780.068	0.0139116
780.146	0.0137982
780.224	0.0137453
780.302	0.0138108
780.380	0.0136878
780.458	0.0136346
780.536	0.0136782
780.614	0.0137507
780.693	0.0137418
780.771	0.0136635
780.849	0.0136512
780.927	0.0137685
781.005	0.0138669
781.083	0.0135780
781.161	0.0134554
781.239	0.0136456
781.318	0.0135221
781.396	0.0136356
781.474	0.0135469
781.552	0.0135918
781.630	0.0136259
781.708	0.0135680
781.786	0.0133554
781.864	0.0134145
781.943	0.0135442
782.021	0.0133728
782.099	0.0134412
782.177	0.0132236
782.255	0.0132224
782.333	0.0131216
782.411	0.0132023
782.489	0.0132421
782.568	0.0131046
782.646	0.0133868
782.724	0.0133826
782.802	0.0133795
782.880	0.0134235
782.958	0.0134102
783.036	0.0135442
783.114	0.0137332
783.193	0.0138161
783.271	0.0139355
783.349	0.0139265
783.427	0.0140582
783.505	0.0140948
783.583	0.0140749
783.661	0.0142117
783.739	0.0142220
783.818	0.0143062
783.896	0.0143053
783.974	0.0142502
784.052	0.0143327
784.130	0.0143018
784.208	0.0142525
784.286	0.0142612
784.364	0.0142678
784.443	0.0141254
784.521	0.0140435
784.599	0.0141810
784.677	0.0142139
784.755	0.0140269
784.833	0.0139581
784.911	0.0140047
784.989	0.0137593
785.068	0.0137655
785.146	0.0135995
785.224	0.0137030
785.302	0.0136293
785.380	0.0136935
785.458	0.0135728
785.536	0.0134540
785.614	0.0135384
785.693	0.0135442
785.771	0.0133344
785.849	0.0132713
785.927	0.0133158
786.005	0.0133577
786.083	0.0133675
786.161	0.0132903
786.239	0.0134297
786.318	0.0134483
786.396	0.0132980
786.474	0.0133042
786.552	0.0133258
786.630	0.0133664
786.708	0.0133892
786.786	0.0134339
786.864	0.0134799
786.943	0.0135364
787.021	0.0135631
787.099	0.0134338
787.177	0.0135783
787.255	0.0136710
787.333	0.0136389
787.411	0.0136127
787.489	0.0135978
787.568	0.0136929
787.646	0.0136225
787.724	0.0137494
787.802	0.0137393
787.880	0.0137261
787.958	0.0135671
788.036	0.0136814
788.114	0.0136251
788.193	0.0137811
788.271	0.0137451
788.349	0.0136322
788.427	0.0138295
788.505	0.0138049
788.583	0.0137993
788.661	0.0137794
788.739	0.0138038
788.818	0.0138045
788.896	0.0139886
788.974	0.0138226
789.052	0.0140089
789.130	0.0140421
789.208	0.0140177
789.286	0.0140030
789.364	0.0140639
789.443	0.0142892
789.521	0.0141509
789.599	0.0141191
789.677	0.0142786
789.755	0.0140807
789.833	0.0140092
789.911	0.0141876
789.989	0.0141847
790.068	0.0140718
790.146	0.0139684
790.224	0.0140250
790.302	0.0140173
790.380	0.0140887
790.458	0.0139692
790.536	0.0136106
790.614	0.0138535
790.693	0.0139006
790.771	0.0135866
790.849	0.0138235
790.927	0.0137018
791.005	0.0136235
791.083	0.0135149
791.161	0.0135990
791.239	0.0136791
791.318	0.0137396
791.396	0.0138078
791.474	0.0137283
791.552	0.0136900
791.630	0.0136414
791.708	0.0137144
791.786	0.0138762
791.864	0.0135620
791.943	0.0136258
792.021	0.0137775
792.099	0.0136251
792.177	0.0137608
792.255	0.0135255
792.333	0.0135190
792.411	0.0136258
792.489	0.0137009
792.568	0.0135898
792.646	0.0134650
792.724	0.0136638
792.802	0.0136096
792.880	0.0136195
792.958	0.0136368
793.036	0.0136299
793.114	0.0136484
793.193	0.0137159
793.271	0.0137246
793.349	0.0137057
793.427	0.0136931
793.505	0.0138248
793.583	0.0138361
793.661	0.0138268
793.739	0.0138417
793.818	0.0137833
793.896	0.0137896
793.974	0.0136914
794.052	0.0137553
794.130	0.0138706
794.208	0.0138522
794.286	0.0139040
794.364	0.0140839
794.443	0.0140643
794.521	0.0139351
794.599	0.0140457
794.677	0.0140811
794.755	0.0142092
794.833	0.0140616
794.911	0.0139359
794.989	0.0141368
795.068	0.0141789
795.146	0.0142478
795.224	0.0141468
795.302	0.0141557
795.380	0.0142851
795.458	0.0140849
795.536	0.0140202
795.614	0.0141492
795.693	0.0140514
795.771	0.0141251
795.849	0.0140825
795.927	0.0140398
796.005	0.0139785
796.083	0.0140659
796.161	0.0138494
796.239	0.0138739
796.318	0.0139510
796.396	0.0137320
796.474	0.0137804
796.552	0.0137870
796.630	0.0136548
796.708	0.0136544
796.786	0.0136438
796.864	0.0136128
796.943	0.0135415
797.021	0.0133830
797.099	0.0136103
797.177	0.0134169
797.255	0.0134283
797.333	0.0133603
797.411	0.0133198
797.489	0.0134830
797.568	0.0133958
797.646	0.0134086
797.724	0.0133101
797.802	0.0133437
797.880	0.0133402
797.958	0.0133105
798.036	0.0134383
798.114	0.0132703
798.193	0.0133679
798.271	0.0134496
798.349	0.0135252
798.427	0.0133981
798.505	0.0136666
798.583	0.0134775
798.661	0.0136058
798.739	0.0137756
798.818	0.0137136
798.896	0.0135927
798.974	0.0137944
799.052	0.0137112
799.130	0.0137994
799.208	0.0139031
799.286	0.0137761
799.364	0.0139186
799.443	0.0139749
799.521	0.0140443
799.599	0.0139405
799.677	0.0139741
799.755	0.0139117
799.833	0.0140186
799.911	0.0142323
799.989	0.0141205
800.068	0.0140298
800.146	0.0141116
800.224	0.0140961
800.302	0.0140230
800.380	0.0140237
800.458	0.0140965
800.536	0.0141595
800.614	0.0140102
800.693	0.0139545
800.771	0.0139061
800.849	0.0138792
800.927	0.0139001
801.005	0.0139861
801.083	0.0138317
801.161	0.0139295
801.239	0.0138741
801.318	0.0138631
801.396	0.0140225
801.474	0.0138907
801.552	0.0138219
801.630	0.0137428
801.708	0.0136827
801.786	0.0137981
801.864	0.0137332
801.943	0.0137624
802.021	0.0137786
802.099	0.0138193
802.177	0.0136162
802.255	0.0136209
802.333	0.0135651
802.411	0.0136680
802.489	0.0136243
802.568	0.0134547
802.646	0.0134734
802.724	0.0134238
802.802	0.0133553
802.880	0.0134895
802.958	0.0133596
803.036	0.0133786
803.114	0.0133837
803.193	0.0133627
803.271	0.0132841
803.349	0.0134048
803.427	0.0133244
803.505	0.0132912
803.583	0.0133162
803.661	0.0134109
803.739	0.0135240
803.818	0.0135262
803.896	0.0134790
803.974	0.0134271
804.052	0.0134844
804.130	0.0134693
804.208	0.0133996
804.286	0.0136286
804.364	0.0136494
804.443	0.0134407
804.521	0.0134464
804.599	0.0134439
804.677	0.0133376
804.755	0.0133470
804.833	0.0134641
804.911	0.0134531
804.989	0.0136377
805.068	0.0134705
805.146	0.0135375
805.224	0.0135777
805.302	0.0135389
805.380	0.0136971
805.458	0.0137418
805.536	0.0136146
805.614	0.0136997
805.693	0.0138101
805.771	0.0136842
805.849	0.0138353
805.927	0.0139891
806.005	0.0138219
806.083	0.0137489
806.161	0.0139285
806.239	0.0138648
806.318	0.0138876
806.396	0.0138451
806.474	0.0140017
806.552	0.0138262
806.630	0.0138705
806.708	0.0137509
806.786	0.0137254
806.864	0.0141196
806.943	0.0139610
807.021	0.0138511
807.099	0.0139262
807.177	0.0139729
807.255	0.0138615
807.333	0.0139719
807.411	0.0139437
807.489	0.0138219
807.568	0.0138605
807.646	0.0138890
807.724	0.0139671
807.802	0.0138782
807.880	0.0139494
807.958	0.0138178
808.036	0.0137691
808.114	0.0138116
808.193	0.0138313
808.271	0.0138860
808.349	0.0138307
808.427	0.0136619
808.505	0.0138400
808.583	0.0136574
808.661	0.0135921
808.739	0.0136771
808.818	0.0135580
808.896	0.0135232
808.974	0.0134775
809.052	0.0134792
809.130	0.0133231
809.208	0.0132331
809.286	0.0133420
809.364	0.0133569
809.443	0.0133706
809.521	0.0133780
809.599	0.0132120
809.677	0.0132233
809.755	0.0132652
809.833	0.0133466
809.911	0.0132461
809.989	0.0132288
810.068	0.0133496
810.146	0.0133072
810.224	0.0134608
810.302	0.0134575
810.380	0.0134260
810.458	0.0134657
810.536	0.0135331
810.614	0.0135654
810.693	0.0135780
810.771	0.0137285
810.849	0.0137682
810.927	0.0138113
811.005	0.0136942
811.083	0.0139729
811.161	0.0141109
811.239	0.0140258
811.318	0.0139944
811.396	0.0139745
811.474	0.0141959
811.552	0.0141369
811.630	0.0139515
811.708	0.0141583
811.786	0.0139959
811.864	0.0140656
811.943	0.0140877
812.021	0.0141113
812.099	0.0141991
812.177	0.0141756
812.255	0.0139362
812.333	0.0140405
812.411	0.0140219
812.489	0.0140642
812.568	0.0140685
812.646	0.0141644
812.724	0.0139659
812.802	0.0139872
812.880	0.0141234
812.958	0.0140588
813.036	0.0140759
813.114	0.0139301
813.193	0.0139777
813.271	0.0141006
813.349	0.0141201
813.427	0.0140179
813.505	0.0138950
813.583	0.0140062
813.661	0.0140858
813.739	0.0139993
813.818	0.0138403
813.896	0.0139039
813.974	0.0139117
814.052	0.0139464
814.130	0.0137461
814.208	0.0137891
814.286	0.0138021
814.364	0.0136507
814.443	0.0135620
814.521	0.0136384
814.599	0.0135934
814.677	0.0136682
814.755	0.0136189
814.833	0.0135416
814.911	0.0133795
814.989	0.0134620
815.068	0.0133036
815.146	0.0134009
815.224	0.0133155
815.302	0.0134204
815.380	0.0133178
815.458	0.0133664
815.536	0.0133138
815.614	0.0133698
815.693	0.0134292
815.771	0.0132583
815.849	0.0133376
815.927	0.0134963
816.005	0.0135490
816.083	0.0134014
816.161	0.0132784
816.239	0.0134821
816.318	0.0134610
816.396	0.0135873
816.474	0.0136906
816.552	0.0136755
816.630	0.0136823
816.708	0.0138941
816.786	0.0137419
816.864	0.0137499
816.943	0.0138446
817.021	0.0140272
817.099	0.0139287
817.177	0.0139356
817.255	0.0141380
817.333	0.0140181
817.411	0.0141969
817.489	0.0140525
817.568	0.0141200
817.646	0.0142933
817.724	0.0141080
817.802	0.0142027
817.880	0.0142624
817.958	0.0141541
818.036	0.0140947
818.114	0.0142475
818.193	0.0142323
818.271	0.0140797
818.349	0.0141348
818.427	0.0141850
818.505	0.0140703
818.583	0.0140050
818.661	0.0141041
818.739	0.0141174
818.818	0.0139149
818.896	0.0139163
818.974	0.0139842
819.052	0.0140617
819.130	0.0139292
819.208	0.0138671
819.286	0.0136784
819.364	0.0136163
819.443	0.0137113
819.521	0.0138165
819.599	0.0138008
819.677	0.0136217
819.755	0.0134825
819.833	0.0136904
819.911	0.0135729
819.989	0.0136263
820.068	0.0136750
820.146	0.0135571
820.224	0.0135628
820.302	0.0136123
820.380	0.0135869
820.458	0.0135740
820.536	0.0136838
820.614	0.0135849
820.693	0.0135511
820.771	0.0136389
820.849	0.0136444
820.927	0.0137547
821.005	0.0135580
821.083	0.0137008
821.161	0.0137115
821.239	0.0137270
821.318	0.0137507
821.396	0.0137461
821.474	0.0136303
821.552	0.0135944
821.630	0.0136750
821.708	0.0137181
821.786	0.0137261
821.864	0.0136582
821.943	0.0135970
822.021	0.0137092
822.099	0.0136740
822.177	0.0134697
822.255	0.0136736
822.333	0.0136032
822.411	0.0134604
822.489	0.0136771
822.568	0.0136512
822.646	0.0136538
822.724	0.0135847
822.802	0.0135831
822.880	0.0136542
822.958	0.0135893
823.036	0.0136197
823.114	0.0136454
823.193	0.0137163
823.271	0.0136236
823.349	0.0136144
823.427	0.0136791
823.505	0.0138422
823.583	0.0137993
823.661	0.0138705
823.739	0.0138876
823.818	0.0140313
823.896	0.0139769
823.974	0.0140311
824.052	0.0140942
824.130	0.0139936
824.208	0.0141238
824.286	0.0140507
824.364	0.0141056
824.443	0.0140293
824.521	0.0141708
824.599	0.0141375
824.677	0.0139885
824.755	0.0141846
824.833	0.0140212
824.911	0.0140537
824.989	0.0139762
825.068	0.0140038
825.146	0.0138704
825.224	0.0137946
825.302	0.0139349
825.380	0.0139178
825.458	0.0137463
825.536	0.0137630
825.614	0.0137634
825.693	0.0136484
825.771	0.0136254
825.849	0.0136387
825.927	0.0137488
826.005	0.0137627
826.083	0.0137066
826.161	0.0136697
826.239	0.0135940
826.318	0.0136569
826.396	0.0135857
826.474	0.0135511
826.552	0.0136856
826.630	0.0136020
826.708	0.0136430
826.786	0.0136491
826.864	0.0134275
826.943	0.0135941
827.021	0.0138463
827.099	0.0137269
827.177	0.0134996
827.255	0.0136102
827.333	0.0137003
827.411	0.0136353
827.489	0.0135111
827.568	0.0134457
827.646	0.0134981
827.724	0.0136127
827.802	0.0135957
827.880	0.0134738
827.958	0.0136077
828.036	0.0135712
828.114	0.0135599
828.193	0.0135208
828.271	0.0136485
828.349	0.0137415
828.427	0.0136452
828.505	0.0136591
828.583	0.0136616
828.661	0.0136070
828.739	0.0136476
828.818	0.0137511
828.896	0.0136001
828.974	0.0138137
829.052	0.0137354
829.130	0.0137733
829.208	0.0136258
829.286	0.0138542
829.364	0.0137663
829.443	0.0137375
829.521	0.0137949
829.599	0.0138545
829.677	0.0139216
829.755	0.0139635
829.833	0.0139315
829.911	0.0139271
829.989	0.0137735
830.068	0.0139034
830.146	0.0138699
830.224	0.0139508
830.302	0.0138786
830.380	0.0138167
830.458	0.0138735
830.536	0.0138177
830.614	0.0138884
830.693	0.0138335
830.771	0.0138548
830.849	0.0138328
830.927	0.0137753
831.005	0.0138641
831.083	0.0138350
831.161	0.0138080
831.239	0.0139824
831.318	0.0139709
831.396	0.0139281
831.474	0.0138530
831.552	0.0138721
831.630	0.0140633
831.708	0.0140009
831.786	0.0138925
831.864	0.0137926
831.943	0.0137617
832.021	0.0137282
832.099	0.0136796
832.177	0.0136665
832.255	0.0138048
832.333	0.0137781
832.411	0.0135477
832.489	0.0135977
832.568	0.0136562
832.646	0.0136201
832.724	0.0134663
832.802	0.0134422
832.880	0.0134967
832.958	0.0135217
833.036	0.0134946
833.114	0.0136402
833.193	0.0135667
833.271	0.0134554
833.349	0.0134888
833.427	0.0134117
833.505	0.0134740
833.583	0.0134192
833.661	0.0135001
833.739	0.0136069
833.818	0.0135413
833.896	0.0135712
833.974	0.0136005
834.052	0.0135271
834.130	0.0135997
834.208	0.0135744
834.286	0.0135649
834.364	0.0137050
834.443	0.0137617
834.521	0.0136827
834.599	0.0137007
834.677	0.0136062
834.755	0.0137724
834.833	0.0137505
834.911	0.0137115
834.989	0.0138629
835.068	0.0139056
835.146	0.0136938
835.224	0.0138162
835.302	0.0139433
835.380	0.0139133
835.458	0.0138484
835.536	0.0137316
835.614	0.0138717
835.693	0.0138266
835.771	0.0138106
835.849	0.0138899
835.927	0.0138200
836.005	0.0137052
836.083	0.0137038
836.161	0.0136900
836.239	0.0138902
836.318	0.0137858
836.396	0.0136847
836.474	0.0137411
836.552	0.0138499
836.630	0.0137489
836.708	0.0137907
836.786	0.0138035
836.864	0.0137793
836.943	0.0138503
837.021	0.0137422
837.099	0.0139339
837.177	0.0139233
837.255	0.0137568
837.333	0.0139230
837.411	0.0139598
837.489	0.0137875
837.568	0.0138071
837.646	0.0138122
837.724	0.0138592
837.802	0.0137979
837.880	0.0138309
837.958	0.0138962
838.036	0.0139024
838.114	0.0139436
838.193	0.0138866
838.271	0.0137700
838.349	0.0138774
838.427	0.0138453
838.505	0.0137264
838.583	0.0137276
838.661	0.0136674
838.739	0.0135226
838.818	0.0135152
838.896	0.0135329
838.974	0.0136299
839.052	0.0134602
839.130	0.0135361
839.208	0.0135757
839.286	0.0134875
839.364	0.0133741
839.443	0.0134200
839.521	0.0135129
839.599	0.0133419
839.677	0.0132906
839.755	0.0133408
839.833	0.0135132
839.911	0.0135953
839.989	0.0134741
840.068	0.0134667
840.146	0.0134373
840.224	0.0134195
840.302	0.0134489
840.380	0.0136049
840.458	0.0136277
840.536	0.0136272
840.614	0.0136903
840.693	0.0136630
840.771	0.0136636
840.849	0.0136867
840.927	0.0135986
841.005	0.0135068
841.083	0.0136656
841.161	0.0138019
841.239	0.0138547
841.318	0.0136452
841.396	0.0137210
841.474	0.0136301
841.552	0.0136298
841.630	0.0137450
841.708	0.0137039
841.786	0.0137309
841.864	0.0137136
841.943	0.0137950
842.021	0.0139066
842.099	0.0137454
842.177	0.0137566
842.255	0.0139175
842.333	0.0138395
842.411	0.0139593
842.489	0.0138656
842.568	0.0138183
842.646	0.0138351
842.724	0.0139339
842.802	0.0140347
842.880	0.0139201
842.958	0.0138672
843.036	0.0138615
843.114	0.0138225
843.193	0.0138996
843.271	0.0138826
843.349	0.0138467
843.427	0.0138306
843.505	0.0138572
843.583	0.0137766
843.661	0.0139012
843.739	0.0137326
843.818	0.0138143
843.896	0.0136472
843.974	0.0136810
844.052	0.0138047
844.130	0.0137724
844.208	0.0136562
844.286	0.0136914
844.364	0.0136752
844.443	0.0137302
844.521	0.0135704
844.599	0.0134960
844.677	0.0136210
844.755	0.0135336
844.833	0.0136761
844.911	0.0136749
844.989	0.0135129
845.068	0.0135448
845.146	0.0137238
845.224	0.0136655
845.302	0.0137755
845.380	0.0137980
845.458	0.0136346
845.536	0.0136418
845.614	0.0136580
845.693	0.0137868
845.771	0.0137414
845.849	0.0136882
845.927	0.0137076
846.005	0.0138340
846.083	0.0136822
846.161	0.0137694
846.239	0.0137992
846.318	0.0136479
846.396	0.0137816
846.474	0.0136017
846.552	0.0137441
846.630	0.0137064
846.708	0.0136665
846.786	0.0138188
846.864	0.0136033
846.943	0.0136398
847.021	0.0136828
847.099	0.0136232
847.177	0.0135641
847.255	0.0136205
847.333	0.0136256
847.411	0.0137018
847.489	0.0136983
847.568	0.0136758
847.646	0.0136731
847.724	0.0137035
847.802	0.0136175
847.880	0.0137098
847.958	0.0137336
848.036	0.0137956
848.114	0.0138321
848.193	0.0139354
848.271	0.0138648
848.349	0.0138854
848.427	0.0138817
848.505	0.0139026
848.583	0.0139887
848.661	0.0140277
848.739	0.0141463
848.818	0.0140707
848.896	0.0142085
848.974	0.0141359
849.052	0.0142435
849.130	0.0141555
849.208	0.0141885
849.286	0.0140147
849.364	0.0140486
849.443	0.0141077
849.521	0.0140950
849.599	0.0140749
849.677	0.0139582
849.755	0.0138764
849.833	0.0138424
849.911	0.0137915
849.989	0.0137881
850.068	0.0137960
850.146	0.0137668
850.224	0.0136337
850.302	0.0136681
850.380	0.0136119
850.458	0.0135745
850.536	0.0135558
850.614	0.0136017
850.693	0.0134846
850.771	0.0134609
850.849	0.0135290
850.927	0.0135260
851.005	0.0135022
851.083	0.0134811
851.161	0.0136695
851.239	0.0137184
851.318	0.0135477
851.396	0.0135409
851.474	0.0136102
851.552	0.0136547
851.630	0.0136720
851.708	0.0136761
851.786	0.0136017
851.864	0.0136212
851.943	0.0133984
852.021	0.0135275
852.099	0.0135990
852.177	0.0136761
852.255	0.0137107
852.333	0.0135538
852.411	0.0137205
852.489	0.0135921
852.568	0.0137745
852.646	0.0137808
852.724	0.0137833
852.802	0.0138739
852.880	0.0137823
852.958	0.0138668
853.036	0.0138324
853.114	0.0138783
853.193	0.0140376
853.271	0.0140560
853.349	0.0139095
853.427	0.0140158
853.505	0.0141113
853.583	0.0139759
853.661	0.0141324
853.739	0.0140614
853.818	0.0140784
853.896	0.0141120
853.974	0.0139999
854.052	0.0140775
854.130	0.0139061
854.208	0.0140050
854.286	0.0139294
854.364	0.0138713
854.443	0.0141162
854.521	0.0139685
854.599	0.0138421
854.677	0.0138829
854.755	0.0139162
854.833	0.0139446
854.911	0.0138396
854.989	0.0139912
855.068	0.0135870
855.146	0.0137529
855.224	0.0138818
855.302	0.0136496
855.380	0.0135567
855.458	0.0137462
855.536	0.0136491
855.614	0.0136739
855.693	0.0136911
855.771	0.0136813
855.849	0.0136908
855.927	0.0135247
856.005	0.0136695
856.083	0.0137878
856.161	0.0136545
856.239	0.0138290
856.318	0.0138009
856.396	0.0136642
856.474	0.0138115
856.552	0.0137888
856.630	0.0137875
856.708	0.0137628
856.786	0.0136445
856.864	0.0136862
856.943	0.0138522
857.021	0.0138004
857.099	0.0138614
857.177	0.0139594
857.255	0.0137280
857.333	0.0137367
857.411	0.0137878
857.489	0.0137621
857.568	0.0136935
857.646	0.0137910
857.724	0.0138520
857.802	0.0137661
857.880	0.0137949
857.958	0.0137952
858.036	0.0137005
858.114	0.0137027
858.193	0.0137685
858.271	0.0136802
858.349	0.0136275
858.427	0.0136576
858.505	0.0136942
858.583	0.0135120
858.661	0.0135464
858.739	0.0133891
858.818	0.0135373
858.896	0.0136442
858.974	0.0136746
859.052	0.0137023
859.130	0.0135442
859.208	0.0136326
859.286	0.0136117
859.364	0.0135850
859.443	0.0136337
859.521	0.0136465
859.599	0.0136393
859.677	0.0136517
859.755	0.0136559
859.833	0.0135921
859.911	0.0136375
859.989	0.0137276
860.068	0.0137498
860.146	0.0138107
860.224	0.0138521
860.302	0.0138385
860.380	0.0139340
860.458	0.0139137
860.536	0.0138701
860.614	0.0137397
860.693	0.0139218
860.771	0.0137387
860.849	0.0138987
860.927	0.0138625
861.005	0.0138982
861.083	0.0139771
861.161	0.0139010
861.239	0.0138215
861.318	0.0138047
861.396	0.0139500
861.474	0.0138948
861.552	0.0139012
861.630	0.0137794
861.708	0.0139658
861.786	0.0139044
861.864	0.0137794
861.943	0.0138021
862.021	0.0137530
862.099	0.0139009
862.177	0.0138611
862.255	0.0137492
862.333	0.0139782
862.411	0.0138337
862.489	0.0137704
862.568	0.0138351
862.646	0.0138615
862.724	0.0138947
862.802	0.0138315
862.880	0.0138628
862.958	0.0138010
863.036	0.0138584
863.114	0.0136743
863.193	0.0137186
863.271	0.0136155
863.349	0.0135566
863.427	0.0136617
863.505	0.0135889
863.583	0.0136507
863.661	0.0134716
863.739	0.0136242
863.818	0.0133970
863.896	0.0134927
863.974	0.0136172
864.052	0.0134971
864.130	0.0133992
864.208	0.0136897
864.286	0.0133344
864.364	0.0136104
864.443	0.0135996
864.521	0.0137620
864.599	0.0136796
864.677	0.0137059
864.755	0.0137923
864.833	0.0137497
864.911	0.0137899
864.989	0.0139003
865.068	0.0137832
865.146	0.0139568
865.224	0.0139046
865.302	0.0139676
865.380	0.0138219
865.458	0.0138997
865.536	0.0139372
865.614	0.0139903
865.693	0.0139593
865.771	0.0138473
865.849	0.0138534
865.927	0.0139581
866.005	0.0137365
866.083	0.0137192
866.161	0.0137476
866.239	0.0136781
866.318	0.0137609
866.396	0.0135892
866.474	0.0135276
866.552	0.0136086
866.630	0.0137118
866.708	0.0136470
866.786	0.0134573
866.864	0.0135495
866.943	0.0135734
867.021	0.0135045
867.099	0.0135963
867.177	0.0135510
867.255	0.0133721
867.333	0.0135983
867.411	0.0136221
867.489	0.0135954
867.568	0.0136346
867.646	0.0136929
867.724	0.0136725
867.802	0.0136774
867.880	0.0138189
867.958	0.0135957
868.036	0.0137000
868.114	0.0136098
868.193	0.0137022
868.271	0.0136324
868.349	0.0136230
868.427	0.0136234
868.505	0.0137054
868.583	0.0137407
868.661	0.0137045
868.739	0.0136917
868.818	0.0135426
868.896	0.0136717
868.974	0.0136577
869.052	0.0136932
869.130	0.0136313
869.208	0.0136416
869.286	0.0137873
869.364	0.0137119
869.443	0.0137572
869.521	0.0138548
869.599	0.0139498
869.677	0.0138385
869.755	0.0139787
869.833	0.0138599
869.911	0.0138175
869.989	0.0140054
870.068	0.0138578
870.146	0.0139545
870.224	0.0139120
870.302	0.0139643
870.380	0.0138967
870.458	0.0139227
870.536	0.0138873
870.614	0.0138644
870.693	0.0138355
870.771	0.0138425
870.849	0.0136987
870.927	0.0138207
871.005	0.0137966
871.083	0.0136616
871.161	0.0137187
871.239	0.0137424
871.318	0.0136115
871.396	0.0136345
871.474	0.0136064
871.552	0.0135600
871.630	0.0135483
871.708	0.0135593
871.786	0.0135162
871.864	0.0135844
871.943	0.0136884
872.021	0.0135919
872.099	0.0136693
872.177	0.0135792
872.255	0.0135072
872.333	0.0135317
872.411	0.0137121
872.489	0.0137951
872.568	0.0138061
872.646	0.0138740
872.724	0.0138605
872.802	0.0138139
872.880	0.0137698
872.958	0.0138829
873.036	0.0141070
873.114	0.0140591
873.193	0.0140984
873.271	0.0139469
873.349	0.0141563
873.427	0.0140626
873.505	0.0139639
873.583	0.0139402
873.661	0.0140165
873.739	0.0140117
873.818	0.0139115
873.896	0.0140105
873.974	0.0139697
874.052	0.0139147
874.130	0.0138779
874.208	0.0137305
874.286	0.0139468
874.364	0.0138583
874.443	0.0137788
874.521	0.0138033
874.599	0.0138718
874.677	0.0137184
874.755	0.0135812
874.833	0.0136681
874.911	0.0137250
874.989	0.0138046
875.068	0.0137643
875.146	0.0136062
875.224	0.0137103
875.302	0.0136243
875.380	0.0137457
875.458	0.0137760
875.536	0.0136663
875.614	0.0137082
875.693	0.0136085
875.771	0.0137006
875.849	0.0139059
875.927	0.0137105
876.005	0.0136437
876.083	0.0136580
876.161	0.0138551
876.239	0.0136680
876.318	0.0137184
876.396	0.0137525
876.474	0.0136209
876.552	0.0137296
876.630	0.0138139
876.708	0.0138111
876.786	0.0138216
876.864	0.0137164
876.943	0.0138034
877.021	0.0136008
877.099	0.0138590
877.177	0.0138682
877.255	0.0138820
877.333	0.0137629
877.411	0.0138278
877.489	0.0139218
877.568	0.0139967
877.646	0.0138474
877.724	0.0139387
877.802	0.0140063
877.880	0.0139059
877.958	0.0138846
878.036	0.0139896
878.114	0.0139031
878.193	0.0140908
878.271	0.0138943
878.349	0.0138452
878.427	0.0138634
878.505	0.0140883
878.583	0.0139651
878.661	0.0138667
878.739	0.0139028
878.818	0.0139817
878.896	0.0138097
878.974	0.0137357
879.052	0.0137593
879.130	0.0137793
879.208	0.0137584
879.286	0.0138441
879.364	0.0137539
879.443	0.0138060
879.521	0.0137074
879.599	0.0136787
879.677	0.0136826
879.755	0.0136890
879.833	0.0135990
879.911	0.0136179
879.989	0.0135969
880.068	0.0134952
880.146	0.0136295
880.224	0.0135762
880.302	0.0136591
880.380	0.0135852
880.458	0.0135655
880.536	0.0135686
880.614	0.0136882
880.693	0.0137543
880.771	0.0139130
880.849	0.0137899
880.927	0.0137354
881.005	0.0137130
881.083	0.0137531
881.161	0.0138683
881.239	0.0139578
881.318	0.0139149
881.396	0.0138509
881.474	0.0139976
881.552	0.0139887
881.630	0.0138683
881.708	0.0136252
881.786	0.0138804
881.864	0.0137287
881.943	0.0138184
882.021	0.0138353
882.099	0.0138042
882.177	0.0136943
882.255	0.0137612
882.333	0.0136142
882.411	0.0135668
882.489	0.0137335
882.568	0.0135020
882.646	0.0135144
882.724	0.0135463
882.802	0.0135668
882.880	0.0136182
882.958	0.0134810
883.036	0.0134153
883.114	0.0135686
883.193	0.0136037
883.271	0.0136104
883.349	0.0135835
883.427	0.0136917
883.505	0.0136321
883.583	0.0136628
883.661	0.0137523
883.739	0.0136249
883.818	0.0138338
883.896	0.0138811
883.974	0.0137777
884.052	0.0137838
884.130	0.0139423
884.208	0.0138287
884.286	0.0138538
884.364	0.0138953
884.443	0.0139486
884.521	0.0139547
884.599	0.0137070
884.677	0.0138940
884.755	0.0138805
884.833	0.0138087
884.911	0.0138678
884.989	0.0137666
885.068	0.0138383
885.146	0.0136895
885.224	0.0134894
885.302	0.0135738
885.380	0.0136069
885.458	0.0135183
885.536	0.0136469
885.614	0.0135307
885.693	0.0136174
885.771	0.0136331
885.849	0.0136765
885.927	0.0135365
886.005	0.0134871
886.083	0.0136085
886.161	0.0137289
886.239	0.0136730
886.318	0.0136216
886.396	0.0136728
886.474	0.0137888
886.552	0.0138100
886.630	0.0136442
886.708	0.0136547
886.786	0.0137407
886.864	0.0138391
886.943	0.0137647
887.021	0.0136684
887.099	0.0137306
887.177	0.0137741
887.255	0.0136361
887.333	0.0136546
887.411	0.0138176
887.489	0.0137486
887.568	0.0137046
887.646	0.0136453
887.724	0.0136971
887.802	0.0137170
887.880	0.0137450
887.958	0.0135400
888.036	0.0136343
888.114	0.0136895
888.193	0.0137276
888.271	0.0138529
888.349	0.0138525
888.427	0.0137477
888.505	0.0138026
888.583	0.0138548
888.661	0.0137971
888.739	0.0139110
888.818	0.0140231
888.896	0.0139194
888.974	0.0139896
889.052	0.0140723
889.130	0.0140602
889.208	0.0139175
889.286	0.0138498
889.364	0.0139341
889.443	0.0138089
889.521	0.0139939
889.599	0.0139624
889.677	0.0140385
889.755	0.0140575
889.833	0.0138242
889.911	0.0138935
889.989	0.0138900
890.068	0.0138232
890.146	0.0140710
890.224	0.0139468
890.302	0.0137923
890.380	0.0138550
890.458	0.0138905
890.536	0.0138510
890.614	0.0137769
890.693	0.0137315
890.771	0.0137801
890.849	0.0138113
890.927	0.0138234
891.005	0.0137029
891.083	0.0137036
891.161	0.0137253
891.239	0.0137883
891.318	0.0137514
891.396	0.0135638
891.474	0.0136094
891.552	0.0136626
891.630	0.0137537
891.708	0.0135169
891.786	0.0136298
891.864	0.0135622
891.943	0.0136709
892.021	0.0136095
892.099	0.0136437
892.177	0.0135373
892.255	0.0136788
892.333	0.0135637
892.411	0.0137339
892.489	0.0136861
892.568	0.0137196
892.646	0.0136237
892.724	0.0136099
892.802	0.0136982
892.880	0.0138195
892.958	0.0138270
893.036	0.0137847
893.114	0.0138391
893.193	0.0138758
893.271	0.0137472
893.349	0.0139699
893.427	0.0138687
893.505	0.0137997
893.583	0.0137911
893.661	0.0137784
893.739	0.0136852
893.818	0.0137401
893.896	0.0138478
893.974	0.0139697
894.052	0.0138860
894.130	0.0139573
894.208	0.0139230
894.286	0.0138953
894.364	0.0138699
894.443	0.0139694
894.521	0.0138812
894.599	0.0138142
894.677	0.0138940
894.755	0.0138604
894.833	0.0139465
894.911	0.0138622
894.989	0.0139864
895.068	0.0138206
895.146	0.0137917
895.224	0.0138020
895.302	0.0136035
895.380	0.0137722
895.458	0.0136552
895.536	0.0136117
895.614	0.0136888
895.693	0.0136261
895.771	0.0136127
895.849	0.0136571
895.927	0.0136744
896.005	0.0135152
896.083	0.0136197
896.161	0.0137602
896.239	0.0137576
896.318	0.0138292
896.396	0.0136926
896.474	0.0136451
896.552	0.0135858
896.630	0.0136321
896.708	0.0135563
896.786	0.0136021
896.864	0.0136395
896.943	0.0136712
897.021	0.0136043
897.099	0.0136078
897.177	0.0138204
897.255	0.0137774
897.333	0.0135643
897.411	0.0136173
897.489	0.0137151
897.568	0.0138127
897.646	0.0136046
897.724	0.0136375
897.802	0.0136767
897.880	0.0137582
897.958	0.0138244
898.036	0.0136834
898.114	0.0136662
898.193	0.0138032
898.271	0.0138408
898.349	0.0136124
898.427	0.0137390
898.505	0.0137125
898.583	0.0138688
898.661	0.0137668
898.739	0.0138204
898.818	0.0137872
898.896	0.0137203
898.974	0.0138111
899.052	0.0138178
899.130	0.0136902
899.208	0.0136906
899.286	0.0136620
899.364	0.0137424
899.443	0.0138435
899.521	0.0137730
899.599	0.0138106
899.677	0.0138654
899.755	0.0139049
899.833	0.0138322
899.911	0.0138898
899.989	0.0137284
900.068	0.0138106
900.146	0.0139481
900.224	0.0139912
900.302	0.0139779
900.380	0.0139833
900.458	0.0140080
900.536	0.0139352
900.614	0.0140096
900.693	0.0140214
900.771	0.0139668
900.849	0.0140676
900.927	0.0139009
901.005	0.0139088
901.083	0.0138334
901.161	0.0138621
901.239	0.0137775
901.318	0.0138132
901.396	0.0137818
901.474	0.0138718
901.552	0.0138738
901.630	0.0136925
901.708	0.0137949
901.786	0.0138443
901.864	0.0136493
901.943	0.0137862
902.021	0.0137490
902.099	0.0137304
902.177	0.0137278
902.255	0.0137589
902.333	0.0137653
902.411	0.0137006
902.489	0.0138244
902.568	0.0136613
902.646	0.0137415
902.724	0.0137183
902.802	0.0137608
902.880	0.0137452
902.958	0.0137994
903.036	0.0136890
903.114	0.0137643
903.193	0.0136530
903.271	0.0136464
903.349	0.0136064
903.427	0.0135653
903.505	0.0138162
903.583	0.0137963
903.661	0.0138563
903.739	0.0137104
903.818	0.0135123
903.896	0.0136690
903.974	0.0136173
904.052	0.0137756
904.130	0.0136390
904.208	0.0135151
904.286	0.0137285
904.364	0.0136117
904.443	0.0135513
904.521	0.0135881
904.599	0.0136035
904.677	0.0136717
904.755	0.0135120
904.833	0.0137794
904.911	0.0136292
904.989	0.0137294
905.068	0.0137758
905.146	0.0137926
905.224	0.0137774
905.302	0.0137513
905.380	0.0138680
905.458	0.0138116
905.536	0.0137016
905.614	0.0138119
905.693	0.0138613
905.771	0.0138287
905.849	0.0138821
905.927	0.0138004
906.005	0.0137927
906.083	0.0138238
906.161	0.0137889
906.239	0.0137602
906.318	0.0138077
906.396	0.0137037
906.474	0.0137234
906.552	0.0137217
906.630	0.0138332
906.708	0.0137451
906.786	0.0137392
906.864	0.0137988
906.943	0.0136317
907.021	0.0137949
907.099	0.0136818
907.177	0.0137523
907.255	0.0137952
907.333	0.0138363
907.411	0.0136885
907.489	0.0138596
907.568	0.0138506
907.646	0.0139680
907.724	0.0139201
907.802	0.0138803
907.880	0.0140141
907.958	0.0139714
908.036	0.0139211
908.114	0.0140055
908.193	0.0140472
908.271	0.0139215
908.349	0.0138824
908.427	0.0140315
908.505	0.0139933
908.583	0.0139037
908.661	0.0139498
908.739	0.0138741
908.818	0.0139666
908.896	0.0137570
908.974	0.0137292
909.052	0.0137403
909.130	0.0138253
909.208	0.0139722
909.286	0.0137859
909.364	0.0138210
909.443	0.0138500
909.521	0.0138887
909.599	0.0137577
909.677	0.0137378
909.755	0.0138037
909.833	0.0137121
909.911	0.0137259
909.989	0.0136902
910.068	0.0137917
910.146	0.0137717
910.224	0.0136681
910.302	0.0136432
910.380	0.0136856
910.458	0.0136987
910.536	0.0137415
910.614	0.0137650
910.693	0.0136915
910.771	0.0137943
910.849	0.0137797
910.927	0.0138329
911.005	0.0136763
911.083	0.0137693
911.161	0.0137576
911.239	0.0135894
911.318	0.0138168
911.396	0.0137922
911.474	0.0138803
911.552	0.0137739
911.630	0.0138054
911.708	0.0135959
911.786	0.0137510
911.864	0.0138556
911.943	0.0137769
912.021	0.0137263
912.099	0.0139075
912.177	0.0138499
912.255	0.0137495
912.333	0.0137342
912.411	0.0139436
912.489	0.0139722
912.568	0.0137635
912.646	0.0137752
912.724	0.0139381
912.802	0.0138876
912.880	0.0139227
912.958	0.0139697
913.036	0.0139085
913.114	0.0139662
913.193	0.0139687
913.271	0.0139163
913.349	0.0140031
913.427	0.0137847
913.505	0.0138418
913.583	0.0138603
913.661	0.0136930
913.739	0.0138959
913.818	0.0137874
913.896	0.0136747
913.974	0.0136770
914.052	0.0138879
914.130	0.0137540
914.208	0.0137733
914.286	0.0137708
914.364	0.0137559
914.443	0.0136994
914.521	0.0136951
914.599	0.0137862
914.677	0.0136787
914.755	0.0137218
914.833	0.0138359
914.911	0.0137452
914.989	0.0136393
915.068	0.0137016
915.146	0.0137460
915.224	0.0137590
915.302	0.0137924
915.380	0.0137834
915.458	0.0136407
915.536	0.0136703
915.614	0.0137226
915.693	0.0136813
915.771	0.0136785
915.849	0.0138204
915.927	0.0138530
916.005	0.0137677
916.083	0.0138821
916.161	0.0137691
916.239	0.0136952
916.318	0.0138220
916.396	0.0136334
916.474	0.0137836
916.552	0.0136907
916.630	0.0137744
916.708	0.0136844
916.786	0.0137256
916.864	0.0138196
916.943	0.0137634
917.021	0.0136658
917.099	0.0137177
917.177	0.0137315
917.255	0.0138323
917.333	0.0138747
917.411	0.0138171
917.489	0.0137141
917.568	0.0138660
917.646	0.0138144
917.724	0.0137464
917.802	0.0138763
917.880	0.0139640
917.958	0.0139238
918.036	0.0139236
918.114	0.0140498
918.193	0.0139656
918.271	0.0138147
918.349	0.0139198
918.427	0.0139722
918.505	0.0139577
918.583	0.0139520
918.661	0.0138390
918.739	0.0137925
918.818	0.0137683
918.896	0.0138174
918.974	0.0138645
919.052	0.0139583
919.130	0.0136819
919.208	0.0136729
919.286	0.0137483
919.364	0.0137124
919.443	0.0137120
919.521	0.0137862
919.599	0.0136794
919.677	0.0136359
919.755	0.0136761
919.833	0.0137099
919.911	0.0135855
919.989	0.0136799
920.068	0.0136623
920.146	0.0135953
920.224	0.0135213
920.302	0.0137253
920.380	0.0137220
920.458	0.0136430
920.536	0.0136154
920.614	0.0136501
920.693	0.0137326
920.771	0.0137245
920.849	0.0136733
920.927	0.0138103
921.005	0.0135461
921.083	0.0136718
921.161	0.0137537
921.239	0.0137450
921.318	0.0137426
921.396	0.0136840
921.474	0.0138010
921.552	0.0137463
921.630	0.0137598
921.708	0.0138518
921.786	0.0136404
921.864	0.0137666
921.943	0.0137464
922.021	0.0136863
922.099	0.0137917
922.177	0.0138413
922.255	0.0138123
922.333	0.0138496
922.411	0.0138304
922.489	0.0139093
922.568	0.0137399
922.646	0.0138234
922.724	0.0139258
922.802	0.0138747
922.880	0.0138293
922.958	0.0137866
923.036	0.0140843
923.114	0.0137518
923.193	0.0137916
923.271	0.0137659
923.349	0.0138360
923.427	0.0138986
923.505	0.0138264
923.583	0.0137373
923.661	0.0138164
923.739	0.0138145
923.818	0.0138311
923.896	0.0138144
923.974	0.0138966
924.052	0.0139211
924.130	0.0138206
924.208	0.0137595
924.286	0.0137603
924.364	0.0137351
924.443	0.0137643
924.521	0.0139816
924.599	0.0138638
924.677	0.0135842
924.755	0.0137620
924.833	0.0139928
924.911	0.0137822
924.989	0.0136810
925.068	0.0138432
925.146	0.0138059
925.224	0.0138308
925.302	0.0137960
925.380	0.0137431
925.458	0.0136887
925.536	0.0137035
925.614	0.0137633
925.693	0.0137106
925.771	0.0138290
925.849	0.0136934
925.927	0.0136317
926.005	0.0134959
926.083	0.0135761
926.161	0.0136092
926.239	0.0135323
926.318	0.0135789
926.396	0.0137083
926.474	0.0137526
926.552	0.0136813
926.630	0.0136033
926.708	0.0135294
926.786	0.0135176
926.864	0.0136993
926.943	0.0136527
927.021	0.0134755
927.099	0.0136100
927.177	0.0135862
927.255	0.0136136
927.333	0.0136122
927.411	0.0136208
927.489	0.0136771
927.568	0.0135839
927.646	0.0136033
927.724	0.0137061
927.802	0.0136912
927.880	0.0136752
927.958	0.0136699
928.036	0.0137436
928.114	0.0136070
928.193	0.0136758
928.271	0.0138327
928.349	0.0137424
928.427	0.0138672
928.505	0.0138248
928.583	0.0138741
928.661	0.0138768
928.739	0.0139312
928.818	0.0138828
928.896	0.0139935
928.974	0.0137853
929.052	0.0139217
929.130	0.0138865
929.208	0.0138877
929.286	0.0139570
929.364	0.0138876
929.443	0.0138960
929.521	0.0138628
929.599	0.0137742
929.677	0.0139158
929.755	0.0138421
929.833	0.0137267
929.911	0.0137611
929.989	0.0137265
930.068	0.0138723
930.146	0.0137530
930.224	0.0135629
930.302	0.0136758
930.380	0.0137394
930.458	0.0137280
930.536	0.0138489
930.614	0.0138635
930.693	0.0138464
930.771	0.0138023
930.849	0.0137372
930.927	0.0138503
931.005	0.0138234
931.083	0.0137508
931.161	0.0137958
931.239	0.0139665
931.318	0.0138665
931.396	0.0138612
931.474	0.0139041
931.552	0.0138959
931.630	0.0136779
931.708	0.0138777
931.786	0.0137755
931.864	0.0137626
931.943	0.0137688
932.021	0.0137469
932.099	0.0135300
932.177	0.0137401
932.255	0.0137233
932.333	0.0137228
932.411	0.0136697
932.489	0.0136794
932.568	0.0136185
932.646	0.0136950
932.724	0.0136532
932.802	0.0135733
932.880	0.0138486
932.958	0.0136493
933.036	0.0135853
933.114	0.0137469
933.193	0.0137653
933.271	0.0136824
933.349	0.0136362
933.427	0.0137148
933.505	0.0137333
933.583	0.0136327
933.661	0.0138122
933.739	0.0136240
933.818	0.0136765
933.896	0.0136691
933.974	0.0136104
934.052	0.0136590
934.130	0.0137509
934.208	0.0137979
934.286	0.0136195
934.364	0.0135751
934.443	0.0137051
934.521	0.0137840
934.599	0.0136168
934.677	0.0137576
934.755	0.0136959
934.833	0.0138280
934.911	0.0137949
934.989	0.0137831
935.068	0.0137592
935.146	0.0137535
935.224	0.0136981
935.302	0.0137997
935.380	0.0137826
935.458	0.0137868
935.536	0.0138696
935.614	0.0138387
935.693	0.0137372
935.771	0.0137815
935.849	0.0138329
935.927	0.0137365
936.005	0.0138342
936.083	0.0138904
936.161	0.0137157
936.239	0.0137421
936.318	0.0137761
936.396	0.0137621
936.474	0.0137952
936.552	0.0139962
936.630	0.0137196
936.708	0.0137779
936.786	0.0138032
936.864	0.0136620
936.943	0.0136259
937.021	0.0137241
937.099	0.0136216
937.177	0.0136246
937.255	0.0135522
937.333	0.0136422
937.411	0.0136742
937.489	0.0136636
937.568	0.0136958
937.646	0.0136430
937.724	0.0135655
937.802	0.0135376
937.880	0.0134893
937.958	0.0135791
938.036	0.0134619
938.114	0.0136000
938.193	0.0136464
938.271	0.0134990
938.349	0.0135163
938.427	0.0135051
938.505	0.0135880
938.583	0.0134544
938.661	0.0134788
938.739	0.0134884
938.818	0.0134743
938.896	0.0134530
938.974	0.0134675
939.052	0.0134840
939.130	0.0136661
939.208	0.0136494
939.286	0.0137783
939.364	0.0137870
939.443	0.0136636
939.521	0.0138035
939.599	0.0137979
939.677	0.0137264
939.755	0.0136124
939.833	0.0137284
939.911	0.0138203
939.989	0.0138826
940.068	0.0138342
940.146	0.0139064
940.224	0.0137234
940.302	0.0139554
940.380	0.0138681
940.458	0.0139239
940.536	0.0139507
940.614	0.0138602
940.693	0.0139471
940.771	0.0140237
940.849	0.0139759
940.927	0.0139362
941.005	0.0138991
941.083	0.0139781
941.161	0.0138316
941.239	0.0137035
941.318	0.0139080
941.396	0.0140107
941.474	0.0139066
941.552	0.0137591
941.630	0.0138634
941.708	0.0138291
941.786	0.0139035
941.864	0.0137672
941.943	0.0138129
942.021	0.0139713
942.099	0.0139497
942.177	0.0139018
942.255	0.0137801
942.333	0.0137717
942.411	0.0139445
942.489	0.0138620
942.568	0.0138139
942.646	0.0139876
942.724	0.0137955
942.802	0.0138223
942.880	0.0138510
942.958	0.0138465
943.036	0.0137009
943.114	0.0137663
943.193	0.0137819
943.271	0.0138830
943.349	0.0137704
943.427	0.0137772
943.505	0.0136127
943.583	0.0135570
943.661	0.0136191
943.739	0.0137461
943.818	0.0136375
943.896	0.0134887
943.974	0.0134196
944.052	0.0134592
944.130	0.0135798
944.208	0.0136981
944.286	0.0135707
944.364	0.0137570
944.443	0.0137612
944.521	0.0135597
944.599	0.0136292
944.677	0.0136881
944.755	0.0136755
944.833	0.0137895
944.911	0.0137167
944.989	0.0137040
945.068	0.0138142
945.146	0.0137743
945.224	0.0138501
945.302	0.0138969
945.380	0.0137795
945.458	0.0138763
945.536	0.0139088
945.614	0.0139629
945.693	0.0138725
945.771	0.0138178
945.849	0.0140097
945.927	0.0139952
946.005	0.0138073
946.083	0.0138126
946.161	0.0139455
946.239	0.0138665
946.318	0.0138109
946.396	0.0137946
946.474	0.0138406
946.552	0.0138110
946.630	0.0137297
946.708	0.0138555
946.786	0.0138082
946.864	0.0137759
946.943	0.0138641
947.021	0.0139523
947.099	0.0138845
947.177	0.0138704
947.255	0.0137768
947.333	0.0137823
947.411	0.0137464
947.489	0.0137949
947.568	0.0135811
947.646	0.0138595
947.724	0.0138081
947.802	0.0138319
947.880	0.0138367
947.958	0.0137128
948.036	0.0137575
948.114	0.0138492
948.193	0.0140261
948.271	0.0139336
948.349	0.0138953
948.427	0.0139225
948.505	0.0139747
948.583	0.0138414
948.661	0.0139639
948.739	0.0140150
948.818	0.0138265
948.896	0.0139027
948.974	0.0138720
949.052	0.0139102
949.130	0.0136677
949.208	0.0139071
949.286	0.0138272
949.364	0.0137820
949.443	0.0138461
949.521	0.0137255
949.599	0.0136976
949.677	0.0136221
949.755	0.0138412
949.833	0.0138448
949.911	0.0136745
949.989	0.0136404
950.068	0.0137444
950.146	0.0138097
950.224	0.0137565
950.302	0.0137628
950.380	0.0138380
950.458	0.0137523
950.536	0.0137260
950.614	0.0137393
950.693	0.0139172
950.771	0.0136481
950.849	0.0137865
950.927	0.0137446
951.005	0.0137233
951.083	0.0136870
951.161	0.0136499
951.239	0.0137511
951.318	0.0137035
951.396	0.0136234
951.474	0.0136734
951.552	0.0136727
951.630	0.0136307
951.708	0.0135514
951.786	0.0135043
951.864	0.0136479
951.943	0.0137165
952.021	0.0136916
952.099	0.0134901
952.177	0.0134933
952.255	0.0135934
952.333	0.0136479
952.411	0.0137353
952.489	0.0136009
952.568	0.0137257
952.646	0.0136304
952.724	0.0136713
952.802	0.0137801
952.880	0.0137232
952.958	0.0136626
953.036	0.0138009
953.114	0.0138486
953.193	0.0137920
953.271	0.0138010
953.349	0.0137891
953.427	0.0138309
953.505	0.0137412
953.583	0.0137357
953.661	0.0138663
953.739	0.0137024
953.818	0.0138406
953.896	0.0138667
953.974	0.0136968
954.052	0.0137306
954.130	0.0137334
954.208	0.0136285
954.286	0.0137997
954.364	0.0137712
954.443	0.0134922
954.521	0.0136177
954.599	0.0137929
954.677	0.0137847
954.755	0.0136031
954.833	0.0136375
954.911	0.0137376
954.989	0.0135615
955.068	0.0138451
955.146	0.0135572
955.224	0.0135332
955.302	0.0136662
955.380	0.0137260
955.458	0.0136897
955.536	0.0136473
955.614	0.0136850
955.693	0.0136094
955.771	0.0137189
955.849	0.0137582
955.927	0.0136738
956.005	0.0136604
956.083	0.0137626
956.161	0.0137651
956.239	0.0137502
956.318	0.0136413
956.396	0.0138184
956.474	0.0136651
956.552	0.0136249
956.630	0.0136373
956.708	0.0136887
956.786	0.0136480
956.864	0.0137272
956.943	0.0137511
957.021	0.0136650
957.099	0.0137707
957.177	0.0137489
957.255	0.0136282
957.333	0.0137122
957.411	0.0137801
957.489	0.0136925
957.568	0.0135763
957.646	0.0137476
957.724	0.0138450
957.802	0.0137177
957.880	0.0137225
957.958	0.0136787
958.036	0.0136478
958.114	0.0137537
958.193	0.0137640
958.271	0.0139126
958.349	0.0137357
958.427	0.0137250
958.505	0.0138233
958.583	0.0136414
958.661	0.0137708
958.739	0.0137939
958.818	0.0139188
958.896	0.0137357
958.974	0.0138651
959.052	0.0139883
959.130	0.0139000
959.208	0.0139475
959.286	0.0140063
959.364	0.0139535
959.443	0.0137720
959.521	0.0139233
959.599	0.0138194
959.677	0.0137869
959.755	0.0138464
959.833	0.0139732
959.911	0.0138550
