05/07/2022	17:30:33	Ver.	4.1	UNKNOWN
Optical Delay	639.989416	Delta X		0.078125	Sweeps	1	Scan Rate	0/0
Coordinates	Axis 1	NaN	Axis 2	NaN	Axis 3	NaN	Axis 4	NaN	Axis 5	NaN	Axis 6	0.000000
TX Power	0.000000	RX Power	0.000000

639.989	0.0133730
640.068	0.0133291
640.146	0.0134419
640.224	0.0133897
640.302	0.0133171
640.380	0.0133241
640.458	0.0133144
640.536	0.0133824
640.614	0.0134712
640.693	0.0135077
640.771	0.0134151
640.849	0.0133997
640.927	0.0134433
641.005	0.0134665
641.083	0.0133518
641.161	0.0133224
641.239	0.0134538
641.318	0.0134119
641.396	0.0133914
641.474	0.0135321
641.552	0.0133621
641.630	0.0134303
641.708	0.0134216
641.786	0.0135114
641.864	0.0135373
641.943	0.0133989
642.021	0.0136024
642.099	0.0135132
642.177	0.0133671
642.255	0.0133366
642.333	0.0133688
642.411	0.0133451
642.489	0.0134268
642.568	0.0134860
642.646	0.0133543
642.724	0.0133590
642.802	0.0133867
642.880	0.0133481
642.958	0.0132634
643.036	0.0134333
643.114	0.0134000
643.193	0.0134247
643.271	0.0134222
643.349	0.0134431
643.427	0.0133733
643.505	0.0135255
643.583	0.0134035
643.661	0.0133356
643.739	0.0134000
643.818	0.0134881
643.896	0.0135340
643.974	0.0134114
644.052	0.0134166
644.130	0.0133613
644.208	0.0134106
644.286	0.0133484
644.364	0.0134785
644.443	0.0134065
644.521	0.0133488
644.599	0.0135139
644.677	0.0133733
644.755	0.0133128
644.833	0.0134008
644.911	0.0134773
644.989	0.0133765
645.068	0.0133199
645.146	0.0133450
645.224	0.0133708
645.302	0.0134522
645.380	0.0134633
645.458	0.0133644
645.536	0.0134059
645.614	0.0133288
645.693	0.0134212
645.771	0.0133975
645.849	0.0134050
645.927	0.0132962
646.005	0.0132076
646.083	0.0134911
646.161	0.0132707
646.239	0.0133130
646.318	0.0132767
646.396	0.0132758
646.474	0.0132768
646.552	0.0133157
646.630	0.0133327
646.708	0.0134672
646.786	0.0132658
646.864	0.0132864
646.943	0.0131138
647.021	0.0132188
647.099	0.0132678
647.177	0.0133212
647.255	0.0133042
647.333	0.0132876
647.411	0.0132513
647.489	0.0132702
647.568	0.0131651
647.646	0.0133162
647.724	0.0135697
647.802	0.0133465
647.880	0.0132616
647.958	0.0134772
648.036	0.0135925
648.114	0.0134330
648.193	0.0134933
648.271	0.0134730
648.349	0.0135638
648.427	0.0135905
648.505	0.0134490
648.583	0.0134602
648.661	0.0135054
648.739	0.0134434
648.818	0.0133502
648.896	0.0134068
648.974	0.0134849
649.052	0.0132986
649.130	0.0132602
649.208	0.0132862
649.286	0.0132427
649.364	0.0131776
649.443	0.0131062
649.521	0.0131645
649.599	0.0132902
649.677	0.0132608
649.755	0.0131736
649.833	0.0132455
649.911	0.0131949
649.989	0.0133253
650.068	0.0133693
650.146	0.0131540
650.224	0.0132879
650.302	0.0133429
650.380	0.0133715
650.458	0.0135014
650.536	0.0135584
650.614	0.0135521
650.693	0.0135814
650.771	0.0137037
650.849	0.0136626
650.927	0.0136573
651.005	0.0138145
651.083	0.0136001
651.161	0.0137466
651.239	0.0137939
651.318	0.0136990
651.396	0.0136053
651.474	0.0136610
651.552	0.0135339
651.630	0.0136545
651.708	0.0135064
651.786	0.0133322
651.864	0.0133593
651.943	0.0131951
652.021	0.0132378
652.099	0.0130969
652.177	0.0129777
652.255	0.0129137
652.333	0.0128798
652.411	0.0127737
652.489	0.0127926
652.568	0.0129527
652.646	0.0126944
652.724	0.0126633
652.802	0.0127956
652.880	0.0129319
652.958	0.0128463
653.036	0.0128950
653.114	0.0129064
653.193	0.0132544
653.271	0.0131255
653.349	0.0130561
653.427	0.0132713
653.505	0.0134318
653.583	0.0136173
653.661	0.0135923
653.739	0.0137866
653.818	0.0138605
653.896	0.0140505
653.974	0.0140440
654.052	0.0141763
654.130	0.0143880
654.208	0.0141692
654.286	0.0143520
654.364	0.0142633
654.443	0.0142995
654.521	0.0143648
654.599	0.0142642
654.677	0.0141804
654.755	0.0139986
654.833	0.0138825
654.911	0.0137182
654.989	0.0136023
655.068	0.0132343
655.146	0.0131315
655.224	0.0129599
655.302	0.0129765
655.380	0.0126851
655.458	0.0127978
655.536	0.0124073
655.614	0.0123751
655.693	0.0121468
655.771	0.0119679
655.849	0.0120759
655.927	0.0121274
656.005	0.0120872
656.083	0.0120512
656.161	0.0121383
656.239	0.0122765
656.318	0.0122252
656.396	0.0125041
656.474	0.0127039
656.552	0.0129438
656.630	0.0131232
656.708	0.0133360
656.786	0.0135873
656.864	0.0138767
656.943	0.0139628
657.021	0.0142693
657.099	0.0144855
657.177	0.0146732
657.255	0.0147627
657.333	0.0147747
657.411	0.0147772
657.489	0.0148647
657.568	0.0149991
657.646	0.0150318
657.724	0.0148749
657.802	0.0147881
657.880	0.0146957
657.958	0.0145702
658.036	0.0144698
658.114	0.0142191
658.193	0.0140905
658.271	0.0137485
658.349	0.0136626
658.427	0.0133994
658.505	0.0130730
658.583	0.0129880
658.661	0.0128478
658.739	0.0125127
658.818	0.0124570
658.896	0.0121857
658.974	0.0121249
659.052	0.0120335
659.130	0.0120404
659.208	0.0119375
659.286	0.0118853
659.364	0.0119344
659.443	0.0120081
659.521	0.0119528
659.599	0.0122115
659.677	0.0122327
659.755	0.0122425
659.833	0.0122911
659.911	0.0125201
659.989	0.0126205
660.068	0.0128393
660.146	0.0130615
660.224	0.0131205
660.302	0.0132790
660.380	0.0135389
660.458	0.0136333
660.536	0.0138299
660.614	0.0139766
660.693	0.0141245
660.771	0.0141380
660.849	0.0143718
660.927	0.0144953
661.005	0.0145254
661.083	0.0145001
661.161	0.0144698
661.239	0.0144301
661.318	0.0145926
661.396	0.0145777
661.474	0.0144140
661.552	0.0143123
661.630	0.0142458
661.708	0.0141866
661.786	0.0141373
661.864	0.0139797
661.943	0.0140267
662.021	0.0138977
662.099	0.0138820
662.177	0.0138922
662.255	0.0137228
662.333	0.0136756
662.411	0.0136320
662.489	0.0135756
662.568	0.0135300
662.646	0.0134029
662.724	0.0132967
662.802	0.0132036
662.880	0.0131846
662.958	0.0129895
663.036	0.0127803
663.114	0.0127650
663.193	0.0125738
663.271	0.0124596
663.349	0.0124588
663.427	0.0123432
663.505	0.0121135
663.583	0.0120232
663.661	0.0120261
663.739	0.0118857
663.818	0.0119556
663.896	0.0118744
663.974	0.0118320
664.052	0.0119117
664.130	0.0119254
664.208	0.0119715
664.286	0.0120487
664.364	0.0123275
664.443	0.0124845
664.521	0.0126428
664.599	0.0128046
664.677	0.0131705
664.755	0.0133930
664.833	0.0135194
664.911	0.0138458
664.989	0.0141268
665.068	0.0143945
665.146	0.0146045
665.224	0.0148070
665.302	0.0151291
665.380	0.0153207
665.458	0.0154214
665.536	0.0154799
665.614	0.0156678
665.693	0.0157504
665.771	0.0156561
665.849	0.0155716
665.927	0.0155157
666.005	0.0155085
666.083	0.0153809
666.161	0.0152288
666.239	0.0150764
666.318	0.0147182
666.396	0.0145068
666.474	0.0143143
666.552	0.0139944
666.630	0.0135769
666.708	0.0132320
666.786	0.0129578
666.864	0.0124143
666.943	0.0123751
667.021	0.0121261
667.099	0.0119518
667.177	0.0116943
667.255	0.0114394
667.333	0.0114649
667.411	0.0113316
667.489	0.0112144
667.568	0.0113425
667.646	0.0114064
667.724	0.0114944
667.802	0.0115767
667.880	0.0117001
667.958	0.0117711
668.036	0.0121798
668.114	0.0122330
668.193	0.0124165
668.271	0.0126468
668.349	0.0128893
668.427	0.0131316
668.505	0.0132967
668.583	0.0134167
668.661	0.0135067
668.739	0.0137292
668.818	0.0138434
668.896	0.0140306
668.974	0.0140828
669.052	0.0141726
669.130	0.0142522
669.208	0.0143387
669.286	0.0144382
669.364	0.0143919
669.443	0.0144458
669.521	0.0144657
669.599	0.0145115
669.677	0.0145358
669.755	0.0147034
669.833	0.0146616
669.911	0.0146303
669.989	0.0147092
670.068	0.0148347
670.146	0.0147121
670.224	0.0147759
670.302	0.0147157
670.380	0.0147131
670.458	0.0144984
670.536	0.0145164
670.614	0.0143203
670.693	0.0142284
670.771	0.0140892
670.849	0.0140317
670.927	0.0137566
671.005	0.0136533
671.083	0.0133985
671.161	0.0132030
671.239	0.0130637
671.318	0.0128844
671.396	0.0126994
671.474	0.0124590
671.552	0.0123380
671.630	0.0122435
671.708	0.0120004
671.786	0.0119324
671.864	0.0117291
671.943	0.0116927
672.021	0.0117024
672.099	0.0116662
672.177	0.0116108
672.255	0.0118985
672.333	0.0119645
672.411	0.0119866
672.489	0.0120599
672.568	0.0124617
672.646	0.0126265
672.724	0.0128114
672.802	0.0130178
672.880	0.0132959
672.958	0.0134800
673.036	0.0135823
673.114	0.0137878
673.193	0.0139970
673.271	0.0139575
673.349	0.0140581
673.427	0.0141745
673.505	0.0141836
673.583	0.0142711
673.661	0.0143578
673.739	0.0143191
673.818	0.0142689
673.896	0.0141172
673.974	0.0142705
674.052	0.0142525
674.130	0.0141080
674.208	0.0139774
674.286	0.0137695
674.364	0.0138348
674.443	0.0137687
674.521	0.0137849
674.599	0.0136934
674.677	0.0137575
674.755	0.0136677
674.833	0.0137264
674.911	0.0136378
674.989	0.0137885
675.068	0.0137880
675.146	0.0138902
675.224	0.0138630
675.302	0.0139719
675.380	0.0139677
675.458	0.0139751
675.536	0.0139298
675.614	0.0139072
675.693	0.0137845
675.771	0.0137912
675.849	0.0135703
675.927	0.0134858
676.005	0.0133207
676.083	0.0131345
676.161	0.0129374
676.239	0.0127373
676.318	0.0126462
676.396	0.0125454
676.474	0.0122192
676.552	0.0119331
676.630	0.0119038
676.708	0.0117813
676.786	0.0118291
676.864	0.0117397
676.943	0.0115937
677.021	0.0116830
677.099	0.0117225
677.177	0.0117945
677.255	0.0120831
677.333	0.0122245
677.411	0.0123996
677.489	0.0128249
677.568	0.0130547
677.646	0.0131989
677.724	0.0136372
677.802	0.0139731
677.880	0.0142675
677.958	0.0146521
678.036	0.0149916
678.114	0.0152021
678.193	0.0151538
678.271	0.0154124
678.349	0.0155124
678.427	0.0155804
678.505	0.0155772
678.583	0.0155265
678.661	0.0153666
678.739	0.0152306
678.818	0.0151495
678.896	0.0149208
678.974	0.0147077
679.052	0.0142973
679.130	0.0140355
679.208	0.0137650
679.286	0.0134583
679.364	0.0131082
679.443	0.0126017
679.521	0.0124205
679.599	0.0121418
679.677	0.0118209
679.755	0.0115178
679.833	0.0115051
679.911	0.0111880
679.989	0.0110999
680.068	0.0111617
680.146	0.0110452
680.224	0.0113821
680.302	0.0113271
680.380	0.0114484
680.458	0.0117589
680.536	0.0120415
680.614	0.0122517
680.693	0.0124405
680.771	0.0127144
680.849	0.0129577
680.927	0.0130197
681.005	0.0131740
681.083	0.0134684
681.161	0.0137007
681.239	0.0137641
681.318	0.0137731
681.396	0.0141036
681.474	0.0142476
681.552	0.0141505
681.630	0.0142445
681.708	0.0143584
681.786	0.0142632
681.864	0.0142830
681.943	0.0143861
682.021	0.0144072
682.099	0.0141903
682.177	0.0141862
682.255	0.0142576
682.333	0.0142352
682.411	0.0142304
682.489	0.0141162
682.568	0.0141533
682.646	0.0140340
682.724	0.0141772
682.802	0.0140958
682.880	0.0141607
682.958	0.0141791
683.036	0.0141175
683.114	0.0142825
683.193	0.0143324
683.271	0.0143000
683.349	0.0143346
683.427	0.0142666
683.505	0.0141953
683.583	0.0142513
683.661	0.0140348
683.739	0.0139299
683.818	0.0138234
683.896	0.0136501
683.974	0.0134575
684.052	0.0132642
684.130	0.0130216
684.208	0.0127653
684.286	0.0125404
684.364	0.0122327
684.443	0.0120910
684.521	0.0118810
684.599	0.0116203
684.677	0.0113665
684.755	0.0111818
684.833	0.0110868
684.911	0.0111200
684.989	0.0110091
685.068	0.0108940
685.146	0.0106393
685.224	0.0109484
685.302	0.0111171
685.380	0.0113374
685.458	0.0113491
685.536	0.0116145
685.614	0.0121166
685.693	0.0123508
685.771	0.0126228
685.849	0.0130102
685.927	0.0133494
686.005	0.0140391
686.083	0.0140702
686.161	0.0144337
686.239	0.0149324
686.318	0.0151569
686.396	0.0154995
686.474	0.0156927
686.552	0.0157878
686.630	0.0159184
686.708	0.0161237
686.786	0.0159572
686.864	0.0160513
686.943	0.0161066
687.021	0.0160495
687.099	0.0159676
687.177	0.0156223
687.255	0.0154713
687.333	0.0153677
687.411	0.0149654
687.489	0.0148056
687.568	0.0143970
687.646	0.0140129
687.724	0.0137341
687.802	0.0133907
687.880	0.0131504
687.958	0.0129736
688.036	0.0128412
688.114	0.0125524
688.193	0.0126027
688.271	0.0124711
688.349	0.0123809
688.427	0.0125445
688.505	0.0123911
688.583	0.0122771
688.661	0.0124825
688.739	0.0124569
688.818	0.0123977
688.896	0.0124687
688.974	0.0125946
689.052	0.0124967
689.130	0.0126356
689.208	0.0125269
689.286	0.0125571
689.364	0.0126678
689.443	0.0128281
689.521	0.0128323
689.599	0.0128880
689.677	0.0128075
689.755	0.0127233
689.833	0.0127858
689.911	0.0126967
689.989	0.0126566
690.068	0.0127269
690.146	0.0128004
690.224	0.0124744
690.302	0.0124409
690.380	0.0125513
690.458	0.0125024
690.536	0.0123170
690.614	0.0122556
690.693	0.0122529
690.771	0.0122390
690.849	0.0124284
690.927	0.0123614
691.005	0.0125734
691.083	0.0126547
691.161	0.0127946
691.239	0.0130994
691.318	0.0134879
691.396	0.0137490
691.474	0.0137511
691.552	0.0142006
691.630	0.0144012
691.708	0.0147410
691.786	0.0150282
691.864	0.0153222
691.943	0.0154169
692.021	0.0155221
692.099	0.0157652
692.177	0.0159183
692.255	0.0159559
692.333	0.0160724
692.411	0.0159540
692.489	0.0159413
692.568	0.0156521
692.646	0.0154713
692.724	0.0153516
692.802	0.0151239
692.880	0.0149392
692.958	0.0145992
693.036	0.0142605
693.114	0.0141066
693.193	0.0138141
693.271	0.0134264
693.349	0.0131583
693.427	0.0129684
693.505	0.0127905
693.583	0.0126025
693.661	0.0124166
693.739	0.0122795
693.818	0.0122193
693.896	0.0121309
693.974	0.0121432
694.052	0.0120772
694.130	0.0119790
694.208	0.0120341
694.286	0.0121298
694.364	0.0121883
694.443	0.0121424
694.521	0.0121012
694.599	0.0122665
694.677	0.0123005
694.755	0.0123725
694.833	0.0123631
694.911	0.0124683
694.989	0.0123693
695.068	0.0125404
695.146	0.0127019
695.224	0.0126196
695.302	0.0127142
695.380	0.0127959
695.458	0.0129301
695.536	0.0128964
695.614	0.0127721
695.693	0.0130468
695.771	0.0130887
695.849	0.0131327
695.927	0.0132159
696.005	0.0130660
696.083	0.0133931
696.161	0.0134176
696.239	0.0134061
696.318	0.0134014
696.396	0.0136995
696.474	0.0136127
696.552	0.0137319
696.630	0.0138144
696.708	0.0138755
696.786	0.0140689
696.864	0.0140393
696.943	0.0140794
697.021	0.0140156
697.099	0.0142446
697.177	0.0140543
697.255	0.0143034
697.333	0.0143044
697.411	0.0142506
697.489	0.0141939
697.568	0.0142838
697.646	0.0141798
697.724	0.0142239
697.802	0.0142882
697.880	0.0140623
697.958	0.0141927
698.036	0.0141138
698.114	0.0141737
698.193	0.0141397
698.271	0.0142381
698.349	0.0140822
698.427	0.0141391
698.505	0.0139278
698.583	0.0138247
698.661	0.0135538
698.739	0.0136059
698.818	0.0134722
698.896	0.0133620
698.974	0.0131232
699.052	0.0130938
699.130	0.0130669
699.208	0.0129322
699.286	0.0126498
699.364	0.0126681
699.443	0.0127732
699.521	0.0126994
699.599	0.0126244
699.677	0.0124732
699.755	0.0124754
699.833	0.0126559
699.911	0.0125900
699.989	0.0125851
700.068	0.0127871
700.146	0.0126936
700.224	0.0128708
700.302	0.0128873
700.380	0.0129408
700.458	0.0130991
700.536	0.0131999
700.614	0.0131618
700.693	0.0131232
700.771	0.0132622
700.849	0.0133855
700.927	0.0132886
701.005	0.0132334
701.083	0.0131871
701.161	0.0133350
701.239	0.0132389
701.318	0.0131924
701.396	0.0131541
701.474	0.0131663
701.552	0.0131577
701.630	0.0130962
701.708	0.0132864
701.786	0.0133025
701.864	0.0132877
701.943	0.0131562
702.021	0.0131062
702.099	0.0130986
702.177	0.0130946
702.255	0.0130602
702.333	0.0130412
702.411	0.0129575
702.489	0.0128569
702.568	0.0129652
702.646	0.0128625
702.724	0.0127876
702.802	0.0128496
702.880	0.0129338
702.958	0.0129826
703.036	0.0129697
703.114	0.0130344
703.193	0.0131474
703.271	0.0132198
703.349	0.0133620
703.427	0.0135529
703.505	0.0136975
703.583	0.0138299
703.661	0.0139642
703.739	0.0142185
703.818	0.0142365
703.896	0.0144378
703.974	0.0145621
704.052	0.0146085
704.130	0.0147691
704.208	0.0149303
704.286	0.0150621
704.364	0.0147816
704.443	0.0148903
704.521	0.0147972
704.599	0.0147728
704.677	0.0146214
704.755	0.0144415
704.833	0.0144049
704.911	0.0143180
704.989	0.0140541
705.068	0.0139571
705.146	0.0138035
705.224	0.0136906
705.302	0.0132854
705.380	0.0131709
705.458	0.0131668
705.536	0.0130151
705.614	0.0129582
705.693	0.0128838
705.771	0.0126911
705.849	0.0126996
705.927	0.0127988
706.005	0.0126530
706.083	0.0126819
706.161	0.0127184
706.239	0.0126807
706.318	0.0126671
706.396	0.0127139
706.474	0.0127275
706.552	0.0125580
706.630	0.0126187
706.708	0.0126968
706.786	0.0125167
706.864	0.0126181
706.943	0.0123841
707.021	0.0124684
707.099	0.0125807
707.177	0.0125773
707.255	0.0125267
707.333	0.0125136
707.411	0.0127171
707.489	0.0126873
707.568	0.0127246
707.646	0.0129276
707.724	0.0129654
707.802	0.0129623
707.880	0.0130909
707.958	0.0131563
708.036	0.0131594
708.114	0.0130984
708.193	0.0132603
708.271	0.0132177
708.349	0.0134521
708.427	0.0133929
708.505	0.0133844
708.583	0.0133497
708.661	0.0134302
708.739	0.0134618
708.818	0.0135049
708.896	0.0135955
708.974	0.0137366
709.052	0.0134563
709.130	0.0136048
709.208	0.0136799
709.286	0.0137019
709.364	0.0138789
709.443	0.0138760
709.521	0.0140337
709.599	0.0141384
709.677	0.0140239
709.755	0.0142558
709.833	0.0142697
709.911	0.0141783
709.989	0.0143172
710.068	0.0144611
710.146	0.0145012
710.224	0.0143917
710.302	0.0144138
710.380	0.0145065
710.458	0.0144715
710.536	0.0144955
710.614	0.0143662
710.693	0.0143767
710.771	0.0144325
710.849	0.0143142
710.927	0.0143697
711.005	0.0142031
711.083	0.0141542
711.161	0.0141452
711.239	0.0138706
711.318	0.0139343
711.396	0.0138748
711.474	0.0137125
711.552	0.0135365
711.630	0.0133715
711.708	0.0132704
711.786	0.0132049
711.864	0.0129950
711.943	0.0127465
712.021	0.0127368
712.099	0.0124997
712.177	0.0122597
712.255	0.0123370
712.333	0.0121781
712.411	0.0120702
712.489	0.0118751
712.568	0.0119794
712.646	0.0119404
712.724	0.0117982
712.802	0.0117447
712.880	0.0117578
712.958	0.0118880
713.036	0.0117646
713.114	0.0118581
713.193	0.0120491
713.271	0.0121210
713.349	0.0124006
713.427	0.0124292
713.505	0.0125685
713.583	0.0126898
713.661	0.0128755
713.739	0.0130656
713.818	0.0130596
713.896	0.0133285
713.974	0.0133784
714.052	0.0134070
714.130	0.0134470
714.208	0.0134476
714.286	0.0137240
714.364	0.0137063
714.443	0.0136295
714.521	0.0137326
714.599	0.0137502
714.677	0.0138015
714.755	0.0137452
714.833	0.0137899
714.911	0.0138854
714.989	0.0138537
715.068	0.0139392
715.146	0.0138097
715.224	0.0139997
715.302	0.0141043
715.380	0.0138667
715.458	0.0141555
715.536	0.0143315
715.614	0.0143515
715.693	0.0145000
715.771	0.0147046
715.849	0.0146284
715.927	0.0147747
716.005	0.0148214
716.083	0.0146198
716.161	0.0147732
716.239	0.0148277
716.318	0.0147124
716.396	0.0147429
716.474	0.0147458
716.552	0.0146770
716.630	0.0145974
716.708	0.0143470
716.786	0.0142493
716.864	0.0141341
716.943	0.0139196
717.021	0.0139403
717.099	0.0137708
717.177	0.0135254
717.255	0.0133765
717.333	0.0132883
717.411	0.0131874
717.489	0.0129649
717.568	0.0127521
717.646	0.0125291
717.724	0.0123961
717.802	0.0123615
717.880	0.0122706
717.958	0.0122815
718.036	0.0121533
718.114	0.0119220
718.193	0.0118375
718.271	0.0118513
718.349	0.0117497
718.427	0.0117899
718.505	0.0118430
718.583	0.0118600
718.661	0.0118528
718.739	0.0119215
718.818	0.0117584
718.896	0.0120057
718.974	0.0122274
719.052	0.0122188
719.130	0.0123235
719.208	0.0123791
719.286	0.0124730
719.364	0.0125159
719.443	0.0126221
719.521	0.0127091
719.599	0.0128149
719.677	0.0128511
719.755	0.0129902
719.833	0.0128717
719.911	0.0130668
719.989	0.0132317
720.068	0.0132961
720.146	0.0133327
720.224	0.0133670
720.302	0.0132879
720.380	0.0134707
720.458	0.0136326
720.536	0.0135229
720.614	0.0137887
720.693	0.0138737
720.771	0.0140446
720.849	0.0141891
720.927	0.0141682
721.005	0.0142968
721.083	0.0143398
721.161	0.0144978
721.239	0.0145342
721.318	0.0146049
721.396	0.0147137
721.474	0.0147795
721.552	0.0147560
721.630	0.0147489
721.708	0.0148963
721.786	0.0149987
721.864	0.0148747
721.943	0.0147156
722.021	0.0146915
722.099	0.0145667
722.177	0.0145106
722.255	0.0144764
722.333	0.0144312
722.411	0.0141874
722.489	0.0141796
722.568	0.0140501
722.646	0.0139544
722.724	0.0138589
722.802	0.0137163
722.880	0.0134898
722.958	0.0134306
723.036	0.0133250
723.114	0.0132410
723.193	0.0131752
723.271	0.0131073
723.349	0.0128775
723.427	0.0127726
723.505	0.0128335
723.583	0.0129778
723.661	0.0127039
723.739	0.0125954
723.818	0.0125756
723.896	0.0125428
723.974	0.0125495
724.052	0.0124547
724.130	0.0124096
724.208	0.0122919
724.286	0.0121429
724.364	0.0123111
724.443	0.0121620
724.521	0.0120050
724.599	0.0121516
724.677	0.0120353
724.755	0.0121956
724.833	0.0121615
724.911	0.0121186
724.989	0.0120956
725.068	0.0123016
725.146	0.0123536
725.224	0.0123918
725.302	0.0123373
725.380	0.0124755
725.458	0.0126367
725.536	0.0127600
725.614	0.0127550
725.693	0.0129644
725.771	0.0132799
725.849	0.0131552
725.927	0.0134219
726.005	0.0135144
726.083	0.0137544
726.161	0.0138156
726.239	0.0141004
726.318	0.0142348
726.396	0.0142705
726.474	0.0143429
726.552	0.0144830
726.630	0.0144616
726.708	0.0147521
726.786	0.0148722
726.864	0.0148664
726.943	0.0147500
727.021	0.0147668
727.099	0.0146425
727.177	0.0147207
727.255	0.0144629
727.333	0.0145229
727.411	0.0145146
727.489	0.0145420
727.568	0.0143090
727.646	0.0143320
727.724	0.0144331
727.802	0.0142490
727.880	0.0140931
727.958	0.0141821
728.036	0.0140655
728.114	0.0140889
728.193	0.0139731
728.271	0.0139298
728.349	0.0139795
728.427	0.0139809
728.505	0.0138081
728.583	0.0137707
728.661	0.0137609
728.739	0.0136229
728.818	0.0136758
728.896	0.0135236
728.974	0.0133324
729.052	0.0133228
729.130	0.0133234
729.208	0.0132258
729.286	0.0130328
729.364	0.0129662
729.443	0.0129781
729.521	0.0128297
729.599	0.0128276
729.677	0.0128021
729.755	0.0125902
729.833	0.0125904
729.911	0.0124515
729.989	0.0123026
730.068	0.0124383
730.146	0.0123940
730.224	0.0124255
730.302	0.0124323
730.380	0.0125497
730.458	0.0124575
730.536	0.0125198
730.614	0.0127526
730.693	0.0127760
730.771	0.0126763
730.849	0.0127425
730.927	0.0126086
731.005	0.0127658
731.083	0.0129230
731.161	0.0128636
731.239	0.0128944
731.318	0.0130193
731.396	0.0130543
731.474	0.0130494
731.552	0.0131113
731.630	0.0133399
731.708	0.0133554
731.786	0.0133124
731.864	0.0133763
731.943	0.0135492
732.021	0.0133639
732.099	0.0136467
732.177	0.0136750
732.255	0.0135840
732.333	0.0136668
732.411	0.0135735
732.489	0.0136617
732.568	0.0137321
732.646	0.0137039
732.724	0.0136816
732.802	0.0135578
732.880	0.0137702
732.958	0.0136259
733.036	0.0136659
733.114	0.0136415
733.193	0.0136690
733.271	0.0136735
733.349	0.0137640
733.427	0.0138230
733.505	0.0139152
733.583	0.0139236
733.661	0.0139885
733.739	0.0140559
733.818	0.0141880
733.896	0.0139896
733.974	0.0140641
734.052	0.0141225
734.130	0.0142264
734.208	0.0142689
734.286	0.0143247
734.364	0.0143505
734.443	0.0141022
734.521	0.0142006
734.599	0.0142133
734.677	0.0140492
734.755	0.0142451
734.833	0.0140499
734.911	0.0138824
734.989	0.0137903
735.068	0.0137112
735.146	0.0134570
735.224	0.0134667
735.302	0.0134050
735.380	0.0132279
735.458	0.0132026
735.536	0.0129120
735.614	0.0128394
735.693	0.0127465
735.771	0.0126904
735.849	0.0127315
735.927	0.0123264
736.005	0.0124892
736.083	0.0125333
736.161	0.0125786
736.239	0.0125159
736.318	0.0126017
736.396	0.0125490
736.474	0.0126955
736.552	0.0127886
736.630	0.0126718
736.708	0.0126536
736.786	0.0129567
736.864	0.0130546
736.943	0.0130520
737.021	0.0131888
737.099	0.0131850
737.177	0.0130215
737.255	0.0132021
737.333	0.0132743
737.411	0.0132023
737.489	0.0133003
737.568	0.0131667
737.646	0.0133287
737.724	0.0132375
737.802	0.0133856
737.880	0.0133586
737.958	0.0133418
738.036	0.0133330
738.114	0.0133469
738.193	0.0136101
738.271	0.0135712
738.349	0.0135992
738.427	0.0135104
738.505	0.0135065
738.583	0.0136768
738.661	0.0134410
738.739	0.0135683
738.818	0.0136243
738.896	0.0137318
738.974	0.0136364
739.052	0.0136115
739.130	0.0136883
739.208	0.0137299
739.286	0.0138621
739.364	0.0138042
739.443	0.0138123
739.521	0.0138853
739.599	0.0138608
739.677	0.0139639
739.755	0.0138692
739.833	0.0138550
739.911	0.0139140
739.989	0.0138437
740.068	0.0137836
740.146	0.0138306
740.224	0.0140215
740.302	0.0139465
740.380	0.0138367
740.458	0.0137635
740.536	0.0139250
740.614	0.0137363
740.693	0.0138102
740.771	0.0136637
740.849	0.0136949
740.927	0.0135778
741.005	0.0136034
741.083	0.0137151
741.161	0.0136865
741.239	0.0136327
741.318	0.0136296
741.396	0.0135503
741.474	0.0135426
741.552	0.0134116
741.630	0.0133741
741.708	0.0133598
741.786	0.0132155
741.864	0.0131535
741.943	0.0131009
742.021	0.0130972
742.099	0.0129615
742.177	0.0129105
742.255	0.0127640
742.333	0.0128300
742.411	0.0128126
742.489	0.0128182
742.568	0.0129077
742.646	0.0128232
742.724	0.0127555
742.802	0.0126881
742.880	0.0126367
742.958	0.0126842
743.036	0.0127061
743.114	0.0128325
743.193	0.0127620
743.271	0.0128366
743.349	0.0129032
743.427	0.0129133
743.505	0.0129994
743.583	0.0130531
743.661	0.0130267
743.739	0.0131720
743.818	0.0131422
743.896	0.0130301
743.974	0.0132219
744.052	0.0132553
744.130	0.0132586
744.208	0.0132525
744.286	0.0133282
744.364	0.0134343
744.443	0.0133093
744.521	0.0134271
744.599	0.0135130
744.677	0.0133934
744.755	0.0135551
744.833	0.0134875
744.911	0.0134600
744.989	0.0136520
745.068	0.0136826
745.146	0.0135970
745.224	0.0138089
745.302	0.0137376
745.380	0.0137791
745.458	0.0138840
745.536	0.0138192
745.614	0.0138262
745.693	0.0138879
745.771	0.0139309
745.849	0.0138797
745.927	0.0138509
746.005	0.0138607
746.083	0.0138412
746.161	0.0138502
746.239	0.0138042
746.318	0.0136678
746.396	0.0137173
746.474	0.0136700
746.552	0.0136649
746.630	0.0136328
746.708	0.0134138
746.786	0.0135851
746.864	0.0134617
746.943	0.0133926
747.021	0.0133418
747.099	0.0134477
747.177	0.0133070
747.255	0.0134362
747.333	0.0135043
747.411	0.0133500
747.489	0.0133901
747.568	0.0134030
747.646	0.0133772
747.724	0.0133497
747.802	0.0134348
747.880	0.0132607
747.958	0.0132372
748.036	0.0134029
748.114	0.0133135
748.193	0.0132384
748.271	0.0132294
748.349	0.0132326
748.427	0.0131215
748.505	0.0132373
748.583	0.0132500
748.661	0.0130657
748.739	0.0130217
748.818	0.0129834
748.896	0.0132118
748.974	0.0128721
749.052	0.0128734
749.130	0.0130097
749.208	0.0128851
749.286	0.0129293
749.364	0.0130849
749.443	0.0129992
749.521	0.0129350
749.599	0.0129180
749.677	0.0128832
749.755	0.0129957
749.833	0.0130056
749.911	0.0130538
749.989	0.0131348
750.068	0.0130503
750.146	0.0131971
750.224	0.0132477
750.302	0.0132688
750.380	0.0133578
750.458	0.0133137
750.536	0.0133419
750.614	0.0133692
750.693	0.0134483
750.771	0.0136149
750.849	0.0135794
750.927	0.0135790
751.005	0.0136801
751.083	0.0136232
751.161	0.0136169
751.239	0.0136700
751.318	0.0137054
751.396	0.0136678
751.474	0.0135006
751.552	0.0135843
751.630	0.0135952
751.708	0.0135208
751.786	0.0136218
751.864	0.0136632
751.943	0.0134624
752.021	0.0136114
752.099	0.0135548
752.177	0.0135634
752.255	0.0134333
752.333	0.0135442
752.411	0.0133249
752.489	0.0133410
752.568	0.0134338
752.646	0.0132813
752.724	0.0133689
752.802	0.0133171
752.880	0.0134467
752.958	0.0132520
753.036	0.0133705
753.114	0.0132948
753.193	0.0132893
753.271	0.0132286
753.349	0.0132560
753.427	0.0133357
753.505	0.0134384
753.583	0.0135608
753.661	0.0136491
753.739	0.0135422
753.818	0.0135872
753.896	0.0137078
753.974	0.0137220
754.052	0.0136596
754.130	0.0137891
754.208	0.0137272
754.286	0.0139149
754.364	0.0139311
754.443	0.0138934
754.521	0.0137293
754.599	0.0137589
754.677	0.0137829
754.755	0.0137730
754.833	0.0137918
754.911	0.0136950
754.989	0.0135079
755.068	0.0133849
755.146	0.0133619
755.224	0.0132935
755.302	0.0132600
755.380	0.0132613
755.458	0.0130522
755.536	0.0127926
755.614	0.0129657
755.693	0.0129255
755.771	0.0127643
755.849	0.0127528
755.927	0.0127440
756.005	0.0127263
756.083	0.0127735
756.161	0.0128797
756.239	0.0128430
756.318	0.0129922
756.396	0.0129117
756.474	0.0129552
756.552	0.0131463
756.630	0.0131023
756.708	0.0133163
756.786	0.0132416
756.864	0.0134335
756.943	0.0133512
757.021	0.0133413
757.099	0.0134666
757.177	0.0136137
757.255	0.0134925
757.333	0.0135193
757.411	0.0134902
757.489	0.0135818
757.568	0.0134538
757.646	0.0135228
757.724	0.0134325
757.802	0.0134467
757.880	0.0133301
757.958	0.0135384
758.036	0.0135429
758.114	0.0134930
758.193	0.0137597
758.271	0.0136956
758.349	0.0135388
758.427	0.0135344
758.505	0.0136540
758.583	0.0137560
758.661	0.0138564
758.739	0.0137431
758.818	0.0138521
758.896	0.0139277
758.974	0.0138338
759.052	0.0139172
759.130	0.0138113
759.208	0.0137046
759.286	0.0138062
759.364	0.0137181
759.443	0.0136715
759.521	0.0136234
759.599	0.0135169
759.677	0.0136197
759.755	0.0134672
759.833	0.0134068
759.911	0.0135532
759.989	0.0135323
760.068	0.0133337
760.146	0.0134497
760.224	0.0133730
760.302	0.0133961
760.380	0.0132978
760.458	0.0133138
760.536	0.0131544
760.614	0.0132554
760.693	0.0135155
760.771	0.0132474
760.849	0.0132401
760.927	0.0133321
761.005	0.0132585
761.083	0.0132760
761.161	0.0132708
761.239	0.0133637
761.318	0.0132397
761.396	0.0132252
761.474	0.0132405
761.552	0.0133276
761.630	0.0132822
761.708	0.0133236
761.786	0.0131393
761.864	0.0133041
761.943	0.0131697
762.021	0.0133402
762.099	0.0133575
762.177	0.0132518
762.255	0.0133613
762.333	0.0134742
762.411	0.0132014
762.489	0.0134145
762.568	0.0134265
762.646	0.0134388
762.724	0.0135700
762.802	0.0134248
762.880	0.0135215
762.958	0.0134195
763.036	0.0133741
763.114	0.0135325
763.193	0.0135016
763.271	0.0134085
763.349	0.0133370
763.427	0.0133273
763.505	0.0134122
763.583	0.0135494
763.661	0.0134497
763.739	0.0133080
763.818	0.0133640
763.896	0.0132532
763.974	0.0132491
764.052	0.0132443
764.130	0.0131783
764.208	0.0131087
764.286	0.0132365
764.364	0.0131724
764.443	0.0131801
764.521	0.0130698
764.599	0.0130727
764.677	0.0131146
764.755	0.0132230
764.833	0.0132315
764.911	0.0134121
764.989	0.0133958
765.068	0.0133261
765.146	0.0133802
765.224	0.0134992
765.302	0.0134918
765.380	0.0137433
765.458	0.0136462
765.536	0.0136195
765.614	0.0137521
765.693	0.0136771
765.771	0.0137687
765.849	0.0138512
765.927	0.0138179
766.005	0.0137600
766.083	0.0137863
766.161	0.0138827
766.239	0.0136256
766.318	0.0136715
766.396	0.0136308
766.474	0.0136813
766.552	0.0136562
766.630	0.0136400
766.708	0.0134698
766.786	0.0135977
766.864	0.0134941
766.943	0.0134369
767.021	0.0134413
767.099	0.0134197
767.177	0.0134474
767.255	0.0134820
767.333	0.0133575
767.411	0.0135323
767.489	0.0134942
767.568	0.0134770
767.646	0.0134719
767.724	0.0132691
767.802	0.0134135
767.880	0.0133732
767.958	0.0133224
768.036	0.0131984
768.114	0.0131532
768.193	0.0131358
768.271	0.0130235
768.349	0.0131215
768.427	0.0132048
768.505	0.0130853
768.583	0.0129190
768.661	0.0127545
768.739	0.0129182
768.818	0.0129367
768.896	0.0127591
768.974	0.0127463
769.052	0.0128523
769.130	0.0128561
769.208	0.0128372
769.286	0.0128935
769.364	0.0128423
769.443	0.0129974
769.521	0.0130097
769.599	0.0131293
769.677	0.0133013
769.755	0.0132443
769.833	0.0132500
769.911	0.0132881
769.989	0.0133060
770.068	0.0134384
770.146	0.0134364
770.224	0.0135664
770.302	0.0135702
770.380	0.0136459
770.458	0.0135288
770.536	0.0136419
770.614	0.0135729
770.693	0.0136596
770.771	0.0137370
770.849	0.0134595
770.927	0.0135715
771.005	0.0136537
771.083	0.0135614
771.161	0.0136175
771.239	0.0135169
771.318	0.0135369
771.396	0.0135372
771.474	0.0135003
771.552	0.0136620
771.630	0.0136248
771.708	0.0134697
771.786	0.0136143
771.864	0.0135043
771.943	0.0135477
772.021	0.0135964
772.099	0.0133850
772.177	0.0135318
772.255	0.0135162
772.333	0.0135249
772.411	0.0135009
772.489	0.0134909
772.568	0.0134220
772.646	0.0133135
772.724	0.0133109
772.802	0.0132264
772.880	0.0132697
772.958	0.0132413
773.036	0.0132851
773.114	0.0131486
773.193	0.0131956
773.271	0.0130930
773.349	0.0132207
773.427	0.0131292
773.505	0.0132189
773.583	0.0131130
773.661	0.0130769
773.739	0.0130379
773.818	0.0131182
773.896	0.0132410
773.974	0.0132597
774.052	0.0132576
774.130	0.0131583
774.208	0.0131911
774.286	0.0131126
774.364	0.0131654
774.443	0.0132272
774.521	0.0132722
774.599	0.0133579
774.677	0.0133379
774.755	0.0132505
774.833	0.0132001
774.911	0.0132418
774.989	0.0132504
775.068	0.0131219
775.146	0.0133062
775.224	0.0133340
775.302	0.0132874
775.380	0.0134407
775.458	0.0133807
775.536	0.0132814
775.614	0.0132564
775.693	0.0131300
775.771	0.0132762
775.849	0.0133679
775.927	0.0132304
776.005	0.0132585
776.083	0.0132693
776.161	0.0131425
776.239	0.0131561
776.318	0.0131707
776.396	0.0131029
776.474	0.0131176
776.552	0.0131982
776.630	0.0132447
776.708	0.0133992
776.786	0.0132579
776.864	0.0133063
776.943	0.0131792
777.021	0.0131683
777.099	0.0133566
777.177	0.0133969
777.255	0.0131971
777.333	0.0131634
777.411	0.0132848
777.489	0.0133393
777.568	0.0133369
777.646	0.0132807
777.724	0.0135158
777.802	0.0132906
777.880	0.0132774
777.958	0.0132509
778.036	0.0133363
778.114	0.0133833
778.193	0.0132587
778.271	0.0132888
778.349	0.0135075
778.427	0.0133362
778.505	0.0134974
778.583	0.0135970
778.661	0.0135442
778.739	0.0135036
778.818	0.0135091
778.896	0.0136294
778.974	0.0135152
779.052	0.0135088
779.130	0.0135759
779.208	0.0136162
779.286	0.0135509
779.364	0.0135070
779.443	0.0134589
779.521	0.0134561
779.599	0.0134666
779.677	0.0133228
779.755	0.0133550
779.833	0.0133913
779.911	0.0133958
779.989	0.0133807
780.068	0.0134469
780.146	0.0133589
780.224	0.0132371
780.302	0.0133201
780.380	0.0134410
780.458	0.0133147
780.536	0.0133127
780.614	0.0133170
780.693	0.0133067
780.771	0.0133410
780.849	0.0133298
780.927	0.0133516
781.005	0.0133416
781.083	0.0131996
781.161	0.0132248
781.239	0.0133878
781.318	0.0133188
781.396	0.0130904
781.474	0.0130886
781.552	0.0131548
781.630	0.0132043
781.708	0.0131812
781.786	0.0131338
781.864	0.0129351
781.943	0.0129343
782.021	0.0129832
782.099	0.0129697
782.177	0.0129024
782.255	0.0127698
782.333	0.0129095
782.411	0.0130949
782.489	0.0129657
782.568	0.0129282
782.646	0.0130336
782.724	0.0131999
782.802	0.0131647
782.880	0.0132716
782.958	0.0133459
783.036	0.0135497
783.114	0.0136034
783.193	0.0137051
783.271	0.0138192
783.349	0.0139400
783.427	0.0140139
783.505	0.0139463
783.583	0.0140207
783.661	0.0141737
783.739	0.0140310
783.818	0.0140302
783.896	0.0138886
783.974	0.0140525
784.052	0.0139744
784.130	0.0139284
784.208	0.0139246
784.286	0.0137246
784.364	0.0137587
784.443	0.0135804
784.521	0.0136700
784.599	0.0137097
784.677	0.0135562
784.755	0.0134805
784.833	0.0134462
784.911	0.0134661
784.989	0.0133095
785.068	0.0133859
785.146	0.0132191
785.224	0.0132025
785.302	0.0134013
785.380	0.0131934
785.458	0.0131361
785.536	0.0131473
785.614	0.0133770
785.693	0.0130674
785.771	0.0131659
785.849	0.0130389
785.927	0.0131235
786.005	0.0131718
786.083	0.0131427
786.161	0.0133427
786.239	0.0131954
786.318	0.0132532
786.396	0.0132365
786.474	0.0130842
786.552	0.0130953
786.630	0.0131860
786.708	0.0130830
786.786	0.0132500
786.864	0.0131998
786.943	0.0132568
787.021	0.0133540
787.099	0.0133591
787.177	0.0132811
787.255	0.0132499
787.333	0.0134316
787.411	0.0133501
787.489	0.0134512
787.568	0.0135247
787.646	0.0134872
787.724	0.0134067
787.802	0.0133292
787.880	0.0133870
787.958	0.0134955
788.036	0.0134504
788.114	0.0134987
788.193	0.0134840
788.271	0.0134020
788.349	0.0134157
788.427	0.0135579
788.505	0.0135520
788.583	0.0135278
788.661	0.0134338
788.739	0.0137292
788.818	0.0136047
788.896	0.0135143
788.974	0.0137238
789.052	0.0136659
789.130	0.0135326
789.208	0.0137155
789.286	0.0136943
789.364	0.0136425
789.443	0.0137222
789.521	0.0136496
789.599	0.0136401
789.677	0.0136752
789.755	0.0135332
789.833	0.0135264
789.911	0.0135335
789.989	0.0134669
790.068	0.0136739
790.146	0.0134678
790.224	0.0134541
790.302	0.0134430
790.380	0.0132858
790.458	0.0133934
790.536	0.0133450
790.614	0.0133706
790.693	0.0133060
790.771	0.0132643
790.849	0.0132001
790.927	0.0131566
791.005	0.0131831
791.083	0.0131814
791.161	0.0131772
791.239	0.0131609
791.318	0.0131624
791.396	0.0130483
791.474	0.0131091
791.552	0.0131497
791.630	0.0132186
791.708	0.0132005
791.786	0.0132992
791.864	0.0132134
791.943	0.0133549
792.021	0.0133113
792.099	0.0131902
792.177	0.0131842
792.255	0.0130661
792.333	0.0131554
792.411	0.0131644
792.489	0.0132171
792.568	0.0131438
792.646	0.0130788
792.724	0.0131275
792.802	0.0131553
792.880	0.0131178
792.958	0.0131939
793.036	0.0133138
793.114	0.0131649
793.193	0.0133213
793.271	0.0132071
793.349	0.0133998
793.427	0.0134592
793.505	0.0134365
793.583	0.0134689
793.661	0.0134251
793.739	0.0133350
793.818	0.0133917
793.896	0.0133856
793.974	0.0136328
794.052	0.0135634
794.130	0.0134902
794.208	0.0135869
794.286	0.0135381
794.364	0.0136113
794.443	0.0135793
794.521	0.0137685
794.599	0.0135321
794.677	0.0135641
794.755	0.0135788
794.833	0.0135468
794.911	0.0136575
794.989	0.0135768
795.068	0.0136250
795.146	0.0136597
795.224	0.0137138
795.302	0.0136992
795.380	0.0136526
795.458	0.0135728
795.536	0.0135108
795.614	0.0135504
795.693	0.0134695
795.771	0.0135206
795.849	0.0133663
795.927	0.0133350
796.005	0.0133277
796.083	0.0132626
796.161	0.0132273
796.239	0.0132570
796.318	0.0134127
796.396	0.0132131
796.474	0.0131396
796.552	0.0131829
796.630	0.0132475
796.708	0.0131691
796.786	0.0130479
796.864	0.0130565
796.943	0.0130573
797.021	0.0130888
797.099	0.0130318
797.177	0.0129538
797.255	0.0130152
797.333	0.0129517
797.411	0.0129605
797.489	0.0129211
797.568	0.0130325
797.646	0.0129514
797.724	0.0129241
797.802	0.0129438
797.880	0.0130227
797.958	0.0132312
798.036	0.0130114
798.114	0.0130188
798.193	0.0130751
798.271	0.0131285
798.349	0.0131171
798.427	0.0131885
798.505	0.0131557
798.583	0.0132510
798.661	0.0133614
798.739	0.0133395
798.818	0.0132985
798.896	0.0133462
798.974	0.0133421
799.052	0.0133081
799.130	0.0133023
799.208	0.0135282
799.286	0.0135600
799.364	0.0136039
799.443	0.0136673
799.521	0.0136945
799.599	0.0135606
799.677	0.0135761
799.755	0.0136162
799.833	0.0136217
799.911	0.0136500
799.989	0.0136224
800.068	0.0137104
800.146	0.0136523
800.224	0.0136896
800.302	0.0136960
800.380	0.0137732
800.458	0.0137390
800.536	0.0136167
800.614	0.0135609
800.693	0.0134866
800.771	0.0135505
800.849	0.0135844
800.927	0.0134351
801.005	0.0135136
801.083	0.0133767
801.161	0.0134320
801.239	0.0133843
801.318	0.0133653
801.396	0.0133637
801.474	0.0133308
801.552	0.0133662
801.630	0.0133039
801.708	0.0133167
801.786	0.0131715
801.864	0.0131718
801.943	0.0131111
802.021	0.0131667
802.099	0.0131425
802.177	0.0131872
802.255	0.0130801
802.333	0.0130746
802.411	0.0130521
802.489	0.0131239
802.568	0.0131422
802.646	0.0131511
802.724	0.0131152
802.802	0.0131222
802.880	0.0131384
802.958	0.0131824
803.036	0.0130907
803.114	0.0130392
803.193	0.0133308
803.271	0.0133329
803.349	0.0132887
803.427	0.0133401
803.505	0.0132906
803.583	0.0134290
803.661	0.0131849
803.739	0.0131625
803.818	0.0134512
803.896	0.0133883
803.974	0.0133700
804.052	0.0133555
804.130	0.0133495
804.208	0.0133092
804.286	0.0133730
804.364	0.0134048
804.443	0.0133440
804.521	0.0133657
804.599	0.0134090
804.677	0.0133434
804.755	0.0133479
804.833	0.0133235
804.911	0.0133463
804.989	0.0134690
805.068	0.0134760
805.146	0.0133148
805.224	0.0133307
805.302	0.0135557
805.380	0.0134975
805.458	0.0135246
805.536	0.0134803
805.614	0.0135987
805.693	0.0135152
805.771	0.0135226
805.849	0.0136863
805.927	0.0136474
806.005	0.0136414
806.083	0.0135826
806.161	0.0136609
806.239	0.0135383
806.318	0.0136878
806.396	0.0137140
806.474	0.0136496
806.552	0.0137095
806.630	0.0137982
806.708	0.0137116
806.786	0.0137213
806.864	0.0137003
806.943	0.0137631
807.021	0.0137303
807.099	0.0138071
807.177	0.0137912
807.255	0.0136857
807.333	0.0138171
807.411	0.0137382
807.489	0.0136683
807.568	0.0136823
807.646	0.0135460
807.724	0.0135297
807.802	0.0136465
807.880	0.0135386
807.958	0.0134736
808.036	0.0137384
808.114	0.0134085
808.193	0.0135078
808.271	0.0134267
808.349	0.0134097
808.427	0.0133002
808.505	0.0132352
808.583	0.0131966
808.661	0.0131938
808.739	0.0130820
808.818	0.0130357
808.896	0.0131520
808.974	0.0130610
809.052	0.0129613
809.130	0.0128914
809.208	0.0128633
809.286	0.0129053
809.364	0.0129875
809.443	0.0127812
809.521	0.0128822
809.599	0.0129010
809.677	0.0129252
809.755	0.0129810
809.833	0.0129753
809.911	0.0129836
809.989	0.0130482
810.068	0.0131796
810.146	0.0132496
810.224	0.0132456
810.302	0.0133804
810.380	0.0134312
810.458	0.0134167
810.536	0.0134755
810.614	0.0136178
810.693	0.0136747
810.771	0.0136631
810.849	0.0136605
810.927	0.0136380
811.005	0.0136388
811.083	0.0137724
811.161	0.0136931
811.239	0.0136926
811.318	0.0137264
811.396	0.0137486
811.474	0.0137434
811.552	0.0137440
811.630	0.0137335
811.708	0.0137031
811.786	0.0137949
811.864	0.0136987
811.943	0.0137989
812.021	0.0137076
812.099	0.0137935
812.177	0.0136133
812.255	0.0135867
812.333	0.0138680
812.411	0.0136747
812.489	0.0135461
812.568	0.0136564
812.646	0.0135031
812.724	0.0136051
812.802	0.0135933
812.880	0.0136594
812.958	0.0136470
813.036	0.0136975
813.114	0.0135439
813.193	0.0135405
813.271	0.0135876
813.349	0.0136472
813.427	0.0135633
813.505	0.0134787
813.583	0.0135373
813.661	0.0134824
813.739	0.0133961
813.818	0.0135178
813.896	0.0134148
813.974	0.0133489
814.052	0.0133296
814.130	0.0133694
814.208	0.0132706
814.286	0.0132953
814.364	0.0131526
814.443	0.0131796
814.521	0.0132027
814.599	0.0131504
814.677	0.0130930
814.755	0.0130512
814.833	0.0130158
814.911	0.0131682
814.989	0.0131155
815.068	0.0129316
815.146	0.0130414
815.224	0.0131096
815.302	0.0130284
815.380	0.0129245
815.458	0.0128993
815.536	0.0129634
815.614	0.0130373
815.693	0.0130933
815.771	0.0129688
815.849	0.0130865
815.927	0.0130875
816.005	0.0129911
816.083	0.0131194
816.161	0.0130537
816.239	0.0133044
816.318	0.0133102
816.396	0.0132066
816.474	0.0132143
816.552	0.0133660
816.630	0.0134901
816.708	0.0135230
816.786	0.0134679
816.864	0.0135601
816.943	0.0136847
817.021	0.0137718
817.099	0.0136498
817.177	0.0137503
817.255	0.0138152
817.333	0.0138349
817.411	0.0137149
817.489	0.0138199
817.568	0.0139899
817.646	0.0137312
817.724	0.0137096
817.802	0.0138333
817.880	0.0137779
817.958	0.0138258
818.036	0.0137534
818.114	0.0136736
818.193	0.0136192
818.271	0.0136990
818.349	0.0138355
818.427	0.0136810
818.505	0.0135204
818.583	0.0134873
818.661	0.0134650
818.739	0.0133784
818.818	0.0134261
818.896	0.0134032
818.974	0.0132757
819.052	0.0132033
819.130	0.0132051
819.208	0.0132256
819.286	0.0132860
819.364	0.0132393
819.443	0.0130816
819.521	0.0130944
819.599	0.0131173
819.677	0.0131646
819.755	0.0131857
819.833	0.0131752
819.911	0.0130061
819.989	0.0131424
820.068	0.0132053
820.146	0.0130948
820.224	0.0132806
820.302	0.0133912
820.380	0.0131525
820.458	0.0131483
820.536	0.0132091
820.614	0.0132872
820.693	0.0133135
820.771	0.0134616
820.849	0.0132669
820.927	0.0134395
821.005	0.0134418
821.083	0.0132652
821.161	0.0133984
821.239	0.0132534
821.318	0.0133400
821.396	0.0132565
821.474	0.0132878
821.552	0.0131607
821.630	0.0131869
821.708	0.0132391
821.786	0.0132376
821.864	0.0131863
821.943	0.0132478
822.021	0.0130658
822.099	0.0130397
822.177	0.0130762
822.255	0.0130568
822.333	0.0131095
822.411	0.0131268
822.489	0.0131326
822.568	0.0131341
822.646	0.0131577
822.724	0.0131446
822.802	0.0132117
822.880	0.0133356
822.958	0.0132746
823.036	0.0132591
823.114	0.0133160
823.193	0.0133791
823.271	0.0134678
823.349	0.0135369
823.427	0.0136259
823.505	0.0136302
823.583	0.0136149
823.661	0.0136852
823.739	0.0136401
823.818	0.0136522
823.896	0.0138859
823.974	0.0136655
824.052	0.0137386
824.130	0.0136099
824.208	0.0137507
824.286	0.0138946
824.364	0.0136708
824.443	0.0136278
824.521	0.0136473
824.599	0.0137724
824.677	0.0137005
824.755	0.0136713
824.833	0.0135986
824.911	0.0137654
824.989	0.0136461
825.068	0.0134850
825.146	0.0135642
825.224	0.0134341
825.302	0.0131606
825.380	0.0133672
825.458	0.0134365
825.536	0.0133533
825.614	0.0133484
825.693	0.0132275
825.771	0.0133017
825.849	0.0133998
825.927	0.0132693
826.005	0.0131988
826.083	0.0132222
826.161	0.0132292
826.239	0.0133002
826.318	0.0132888
826.396	0.0132050
826.474	0.0132079
826.552	0.0131947
826.630	0.0133864
826.708	0.0132018
826.786	0.0131154
826.864	0.0131760
826.943	0.0130276
827.021	0.0132088
827.099	0.0131979
827.177	0.0132019
827.255	0.0131333
827.333	0.0132018
827.411	0.0132518
827.489	0.0131646
827.568	0.0132397
827.646	0.0133247
827.724	0.0132204
827.802	0.0131190
827.880	0.0131279
827.958	0.0130780
828.036	0.0132258
828.114	0.0131807
828.193	0.0133703
828.271	0.0133357
828.349	0.0133852
828.427	0.0135411
828.505	0.0135492
828.583	0.0133495
828.661	0.0133502
828.739	0.0133383
828.818	0.0133178
828.896	0.0134202
828.974	0.0135841
829.052	0.0134692
829.130	0.0134147
829.208	0.0135538
829.286	0.0136388
829.364	0.0136536
829.443	0.0132960
829.521	0.0134335
829.599	0.0136139
829.677	0.0134671
829.755	0.0135718
829.833	0.0135356
829.911	0.0135210
829.989	0.0136510
830.068	0.0135119
830.146	0.0133630
830.224	0.0135229
830.302	0.0134518
830.380	0.0135921
830.458	0.0134579
830.536	0.0135464
830.614	0.0135441
830.693	0.0135623
830.771	0.0136934
830.849	0.0136419
830.927	0.0135467
831.005	0.0135439
831.083	0.0134334
831.161	0.0135835
831.239	0.0135693
831.318	0.0134389
831.396	0.0135513
831.474	0.0136433
831.552	0.0134436
831.630	0.0136917
831.708	0.0134596
831.786	0.0133692
831.864	0.0134280
831.943	0.0134833
832.021	0.0132383
832.099	0.0132168
832.177	0.0133192
832.255	0.0132325
832.333	0.0132857
832.411	0.0131248
832.489	0.0130778
832.568	0.0130737
832.646	0.0132143
832.724	0.0132336
832.802	0.0131609
832.880	0.0130579
832.958	0.0130946
833.036	0.0130305
833.114	0.0131081
833.193	0.0130981
833.271	0.0129950
833.349	0.0130190
833.427	0.0130046
833.505	0.0130318
833.583	0.0130865
833.661	0.0131153
833.739	0.0130940
833.818	0.0130445
833.896	0.0131886
833.974	0.0132973
834.052	0.0132193
834.130	0.0132433
834.208	0.0132607
834.286	0.0132530
834.364	0.0133248
834.443	0.0132872
834.521	0.0134557
834.599	0.0134003
834.677	0.0134765
834.755	0.0134482
834.833	0.0133460
834.911	0.0136200
834.989	0.0134398
835.068	0.0134747
835.146	0.0135410
835.224	0.0134833
835.302	0.0132636
835.380	0.0133581
835.458	0.0134524
835.536	0.0134815
835.614	0.0135381
835.693	0.0132983
835.771	0.0133069
835.849	0.0133547
835.927	0.0134087
836.005	0.0134260
836.083	0.0133071
836.161	0.0133215
836.239	0.0132449
836.318	0.0133636
836.396	0.0134053
836.474	0.0133309
836.552	0.0133889
836.630	0.0133894
836.708	0.0133694
836.786	0.0134080
836.864	0.0134566
836.943	0.0134530
837.021	0.0135248
837.099	0.0134314
837.177	0.0134541
837.255	0.0134922
837.333	0.0133788
837.411	0.0134496
837.489	0.0135401
837.568	0.0133106
837.646	0.0134029
837.724	0.0134521
837.802	0.0134609
837.880	0.0133226
837.958	0.0134075
838.036	0.0133553
838.114	0.0134319
838.193	0.0134056
838.271	0.0133677
838.349	0.0132362
838.427	0.0132086
838.505	0.0132288
838.583	0.0132459
838.661	0.0132635
838.739	0.0132084
838.818	0.0132768
838.896	0.0132893
838.974	0.0132604
839.052	0.0131829
839.130	0.0131742
839.208	0.0131975
839.286	0.0131649
839.364	0.0132011
839.443	0.0130755
839.521	0.0132358
839.599	0.0132016
839.677	0.0133617
839.755	0.0132571
839.833	0.0134409
839.911	0.0133875
839.989	0.0133316
840.068	0.0134026
840.146	0.0134098
840.224	0.0134145
840.302	0.0133927
840.380	0.0134338
840.458	0.0135262
840.536	0.0134151
840.614	0.0133208
840.693	0.0133961
840.771	0.0134040
840.849	0.0133553
840.927	0.0134312
841.005	0.0134458
841.083	0.0133584
841.161	0.0132085
841.239	0.0134493
841.318	0.0133133
841.396	0.0133859
841.474	0.0134066
841.552	0.0134721
841.630	0.0133997
841.708	0.0133829
841.786	0.0133174
841.864	0.0134921
841.943	0.0134792
842.021	0.0134736
842.099	0.0135593
842.177	0.0134918
842.255	0.0135033
842.333	0.0135975
842.411	0.0136235
842.489	0.0136066
842.568	0.0135113
842.646	0.0135296
842.724	0.0135954
842.802	0.0137991
842.880	0.0135296
842.958	0.0135828
843.036	0.0137440
843.114	0.0136550
843.193	0.0136364
843.271	0.0135638
843.349	0.0134577
843.427	0.0134856
843.505	0.0134629
843.583	0.0135582
843.661	0.0134964
843.739	0.0133720
843.818	0.0134426
843.896	0.0132700
843.974	0.0132525
844.052	0.0134100
844.130	0.0133862
844.208	0.0133318
844.286	0.0133837
844.364	0.0134048
844.443	0.0133449
844.521	0.0134300
844.599	0.0134309
844.677	0.0134210
844.755	0.0134649
844.833	0.0133344
844.911	0.0133809
844.989	0.0134506
845.068	0.0133630
845.146	0.0134427
845.224	0.0132889
845.302	0.0133545
845.380	0.0132566
845.458	0.0134563
845.536	0.0133940
845.614	0.0133658
845.693	0.0132919
845.771	0.0132693
845.849	0.0134264
845.927	0.0135092
846.005	0.0133114
846.083	0.0133086
846.161	0.0133345
846.239	0.0132384
846.318	0.0132492
846.396	0.0133187
846.474	0.0133389
846.552	0.0131860
846.630	0.0134142
846.708	0.0133482
846.786	0.0132270
846.864	0.0133046
846.943	0.0133179
847.021	0.0132927
847.099	0.0133511
847.177	0.0132319
847.255	0.0132816
847.333	0.0132712
847.411	0.0133238
847.489	0.0134499
847.568	0.0134301
847.646	0.0133978
847.724	0.0135505
847.802	0.0134928
847.880	0.0134187
847.958	0.0135546
848.036	0.0136987
848.114	0.0136615
848.193	0.0137747
848.271	0.0138120
848.349	0.0138425
848.427	0.0137048
848.505	0.0138280
848.583	0.0138854
848.661	0.0138486
848.739	0.0138171
848.818	0.0139894
848.896	0.0138940
848.974	0.0138886
849.052	0.0137591
849.130	0.0137528
849.208	0.0138680
849.286	0.0137985
849.364	0.0136684
849.443	0.0137445
849.521	0.0137029
849.599	0.0135649
849.677	0.0135118
849.755	0.0134503
849.833	0.0134956
849.911	0.0133863
849.989	0.0131938
850.068	0.0131625
850.146	0.0132291
850.224	0.0132830
850.302	0.0132740
850.380	0.0131643
850.458	0.0132110
850.536	0.0131046
850.614	0.0130190
850.693	0.0130333
850.771	0.0130328
850.849	0.0130236
850.927	0.0130582
851.005	0.0130735
851.083	0.0130207
851.161	0.0130328
851.239	0.0130578
851.318	0.0130745
851.396	0.0130566
851.474	0.0129604
851.552	0.0131281
851.630	0.0130957
851.708	0.0131123
851.786	0.0130579
851.864	0.0133098
851.943	0.0130787
852.021	0.0130567
852.099	0.0132367
852.177	0.0133700
852.255	0.0132262
852.333	0.0133199
852.411	0.0133079
852.489	0.0133865
852.568	0.0133858
852.646	0.0134145
852.724	0.0132546
852.802	0.0134733
852.880	0.0135409
852.958	0.0133755
853.036	0.0134171
853.114	0.0133675
853.193	0.0135150
853.271	0.0135329
853.349	0.0135818
853.427	0.0135020
853.505	0.0135171
853.583	0.0134869
853.661	0.0136080
853.739	0.0136169
853.818	0.0135554
853.896	0.0136927
853.974	0.0135336
854.052	0.0135031
854.130	0.0134435
854.208	0.0133498
854.286	0.0133966
854.364	0.0133930
854.443	0.0134703
854.521	0.0134196
854.599	0.0134440
854.677	0.0132159
854.755	0.0133947
854.833	0.0131489
854.911	0.0132923
854.989	0.0134000
855.068	0.0134216
855.146	0.0133137
855.224	0.0133257
855.302	0.0132870
855.380	0.0133646
855.458	0.0132139
855.536	0.0132706
855.614	0.0133372
855.693	0.0133527
855.771	0.0133588
855.849	0.0133440
855.927	0.0133955
856.005	0.0134935
856.083	0.0134647
856.161	0.0133185
856.239	0.0134544
856.318	0.0134416
856.396	0.0133776
856.474	0.0135704
856.552	0.0134799
856.630	0.0133179
856.708	0.0134595
856.786	0.0133546
856.864	0.0135082
856.943	0.0135664
857.021	0.0134154
857.099	0.0134655
857.177	0.0135577
857.255	0.0134489
857.333	0.0133541
857.411	0.0133976
857.489	0.0135600
857.568	0.0134305
857.646	0.0134422
857.724	0.0133129
857.802	0.0133331
857.880	0.0135096
857.958	0.0132690
858.036	0.0133681
858.114	0.0132530
858.193	0.0131037
858.271	0.0130666
858.349	0.0132480
858.427	0.0132298
858.505	0.0131966
858.583	0.0130746
858.661	0.0132056
858.739	0.0131654
858.818	0.0132791
858.896	0.0132063
858.974	0.0132922
859.052	0.0132087
859.130	0.0132412
859.208	0.0132355
859.286	0.0132463
859.364	0.0133762
859.443	0.0132507
859.521	0.0134141
859.599	0.0133516
859.677	0.0133376
859.755	0.0134369
859.833	0.0134037
859.911	0.0133710
859.989	0.0134844
860.068	0.0134229
860.146	0.0133107
860.224	0.0133814
860.302	0.0133562
860.380	0.0132303
860.458	0.0134453
860.536	0.0134279
860.614	0.0134030
860.693	0.0132849
860.771	0.0131895
860.849	0.0133710
860.927	0.0132899
861.005	0.0133089
861.083	0.0132659
861.161	0.0134085
861.239	0.0135155
861.318	0.0134274
861.396	0.0134245
861.474	0.0135242
861.552	0.0134505
861.630	0.0135439
861.708	0.0134792
861.786	0.0133282
861.864	0.0134561
861.943	0.0135373
862.021	0.0134513
862.099	0.0136103
862.177	0.0134354
862.255	0.0133910
862.333	0.0134826
862.411	0.0133717
862.489	0.0133611
862.568	0.0133811
862.646	0.0132612
862.724	0.0132220
862.802	0.0131822
862.880	0.0132096
862.958	0.0131419
863.036	0.0130534
863.114	0.0130713
863.193	0.0130313
863.271	0.0130997
863.349	0.0130456
863.427	0.0130418
863.505	0.0130824
863.583	0.0130458
863.661	0.0130166
863.739	0.0130521
863.818	0.0131220
863.896	0.0131847
863.974	0.0130608
864.052	0.0132431
864.130	0.0132954
864.208	0.0132482
864.286	0.0134659
864.364	0.0134457
864.443	0.0136082
864.521	0.0134451
864.599	0.0136300
864.677	0.0136850
864.755	0.0136217
864.833	0.0137904
864.911	0.0136896
864.989	0.0135638
865.068	0.0136430
865.146	0.0137496
865.224	0.0136488
865.302	0.0136669
865.380	0.0135835
865.458	0.0135995
865.536	0.0136370
865.614	0.0135786
865.693	0.0135493
865.771	0.0134751
865.849	0.0135839
865.927	0.0135278
866.005	0.0134635
866.083	0.0133884
866.161	0.0133746
866.239	0.0135366
866.318	0.0134037
866.396	0.0132784
866.474	0.0133430
866.552	0.0132595
866.630	0.0133461
866.708	0.0132841
866.786	0.0132604
866.864	0.0134364
866.943	0.0133603
867.021	0.0133242
867.099	0.0135194
867.177	0.0135094
867.255	0.0135021
867.333	0.0135001
867.411	0.0135545
867.489	0.0134371
867.568	0.0134267
867.646	0.0135010
867.724	0.0134695
867.802	0.0133846
867.880	0.0134180
867.958	0.0134413
868.036	0.0133251
868.114	0.0134469
868.193	0.0133462
868.271	0.0133221
868.349	0.0132641
868.427	0.0132737
868.505	0.0134011
868.583	0.0134100
868.661	0.0133135
868.739	0.0133462
868.818	0.0134016
868.896	0.0132256
868.974	0.0133457
869.052	0.0134780
869.130	0.0134422
869.208	0.0134214
869.286	0.0134505
869.364	0.0134031
869.443	0.0135261
869.521	0.0135706
869.599	0.0136389
869.677	0.0135195
869.755	0.0136125
869.833	0.0135802
869.911	0.0135059
869.989	0.0136010
870.068	0.0136211
870.146	0.0135606
870.224	0.0135143
870.302	0.0135453
870.380	0.0133852
870.458	0.0134299
870.536	0.0133418
870.614	0.0134013
870.693	0.0134026
870.771	0.0133232
870.849	0.0132700
870.927	0.0133339
871.005	0.0132965
871.083	0.0132487
871.161	0.0132435
871.239	0.0132573
871.318	0.0131495
871.396	0.0130518
871.474	0.0130891
871.552	0.0130242
871.630	0.0131699
871.708	0.0131355
871.786	0.0131343
871.864	0.0131569
871.943	0.0132560
872.021	0.0132878
872.099	0.0132133
872.177	0.0133530
872.255	0.0133709
872.333	0.0134677
872.411	0.0134778
872.489	0.0134919
872.568	0.0135737
872.646	0.0136164
872.724	0.0136189
872.802	0.0135355
872.880	0.0135030
872.958	0.0136629
873.036	0.0135978
873.114	0.0136699
873.193	0.0136179
873.271	0.0136098
873.349	0.0136539
873.427	0.0136069
873.505	0.0135625
873.583	0.0135027
873.661	0.0135719
873.739	0.0136186
873.818	0.0136078
873.896	0.0135494
873.974	0.0135684
874.052	0.0133413
874.130	0.0134108
874.208	0.0134910
874.286	0.0134604
874.364	0.0133540
874.443	0.0132955
874.521	0.0132637
874.599	0.0132369
874.677	0.0133159
874.755	0.0132431
874.833	0.0132777
874.911	0.0132182
874.989	0.0132159
875.068	0.0131970
875.146	0.0131979
875.224	0.0132233
875.302	0.0133170
875.380	0.0133195
875.458	0.0131831
875.536	0.0132403
875.614	0.0131856
875.693	0.0132000
875.771	0.0131853
875.849	0.0132193
875.927	0.0132947
876.005	0.0132387
876.083	0.0132671
876.161	0.0132598
876.239	0.0132764
876.318	0.0131808
876.396	0.0132333
876.474	0.0131933
876.552	0.0132843
876.630	0.0133799
876.708	0.0133322
876.786	0.0131861
876.864	0.0131545
876.943	0.0132508
877.021	0.0132769
877.099	0.0135117
877.177	0.0133748
877.255	0.0132970
877.333	0.0134056
877.411	0.0133762
877.489	0.0134625
877.568	0.0134196
877.646	0.0134975
877.724	0.0134678
877.802	0.0133854
877.880	0.0133205
877.958	0.0134633
878.036	0.0135008
878.114	0.0134423
878.193	0.0133215
878.271	0.0134703
878.349	0.0135088
878.427	0.0134297
878.505	0.0134377
878.583	0.0132771
878.661	0.0132873
878.739	0.0135030
878.818	0.0133822
878.896	0.0132011
878.974	0.0134636
879.052	0.0133749
879.130	0.0132755
879.208	0.0132809
879.286	0.0132393
879.364	0.0131519
879.443	0.0132533
879.521	0.0131857
879.599	0.0131076
879.677	0.0131641
879.755	0.0131310
879.833	0.0131224
879.911	0.0131702
879.989	0.0133451
880.068	0.0132838
880.146	0.0131308
880.224	0.0132513
880.302	0.0132947
880.380	0.0134499
880.458	0.0134005
880.536	0.0133057
880.614	0.0135069
880.693	0.0134222
880.771	0.0133539
880.849	0.0135989
880.927	0.0134292
881.005	0.0135542
881.083	0.0135779
881.161	0.0134441
881.239	0.0134589
881.318	0.0136959
881.396	0.0135494
881.474	0.0135704
881.552	0.0134995
881.630	0.0135813
881.708	0.0134332
881.786	0.0135217
881.864	0.0134641
881.943	0.0134755
882.021	0.0134830
882.099	0.0133573
882.177	0.0134830
882.255	0.0133817
882.333	0.0133607
882.411	0.0133820
882.489	0.0133623
882.568	0.0134597
882.646	0.0133262
882.724	0.0134186
882.802	0.0132668
882.880	0.0133070
882.958	0.0133566
883.036	0.0133183
883.114	0.0133385
883.193	0.0134416
883.271	0.0135420
883.349	0.0134927
883.427	0.0133942
883.505	0.0135519
883.583	0.0135148
883.661	0.0133105
883.739	0.0134659
883.818	0.0135036
883.896	0.0135649
883.974	0.0135829
884.052	0.0136845
884.130	0.0135342
884.208	0.0135081
884.286	0.0135432
884.364	0.0136092
884.443	0.0134924
884.521	0.0134712
884.599	0.0134596
884.677	0.0134106
884.755	0.0134266
884.833	0.0134644
884.911	0.0133163
884.989	0.0133736
885.068	0.0133423
885.146	0.0132513
885.224	0.0133775
885.302	0.0134229
885.380	0.0133840
885.458	0.0135584
885.536	0.0134146
885.614	0.0132806
885.693	0.0134028
885.771	0.0133630
885.849	0.0133683
885.927	0.0133894
886.005	0.0134891
886.083	0.0133429
886.161	0.0134065
886.239	0.0133746
886.318	0.0133789
886.396	0.0133231
886.474	0.0135069
886.552	0.0133553
886.630	0.0135300
886.708	0.0133809
886.786	0.0132431
886.864	0.0133026
886.943	0.0133315
887.021	0.0133013
887.099	0.0134284
887.177	0.0132644
887.255	0.0132308
887.333	0.0131936
887.411	0.0132456
887.489	0.0133976
887.568	0.0132822
887.646	0.0133012
887.724	0.0133652
887.802	0.0133183
887.880	0.0133911
887.958	0.0133235
888.036	0.0134384
888.114	0.0134518
888.193	0.0134273
888.271	0.0135223
888.349	0.0133410
888.427	0.0134145
888.505	0.0133804
888.583	0.0134560
888.661	0.0133886
888.739	0.0132744
888.818	0.0135698
888.896	0.0133411
888.974	0.0134981
889.052	0.0133533
889.130	0.0134470
889.208	0.0134708
889.286	0.0134888
889.364	0.0133650
889.443	0.0134731
889.521	0.0135202
889.599	0.0133652
889.677	0.0134137
889.755	0.0134506
889.833	0.0133931
889.911	0.0134238
889.989	0.0136613
890.068	0.0133418
890.146	0.0134029
890.224	0.0134176
890.302	0.0133526
890.380	0.0133590
890.458	0.0133390
890.536	0.0133677
890.614	0.0133517
890.693	0.0132245
890.771	0.0134442
890.849	0.0134640
890.927	0.0132146
891.005	0.0132473
891.083	0.0133154
891.161	0.0133652
891.239	0.0131341
891.318	0.0132958
891.396	0.0132755
891.474	0.0132109
891.552	0.0131484
891.630	0.0132426
891.708	0.0132012
891.786	0.0131445
891.864	0.0131915
891.943	0.0133907
892.021	0.0132687
892.099	0.0132442
892.177	0.0134647
892.255	0.0133256
892.333	0.0133360
892.411	0.0133154
892.489	0.0134149
892.568	0.0133321
892.646	0.0133208
892.724	0.0133625
892.802	0.0134328
892.880	0.0132355
892.958	0.0134253
893.036	0.0134032
893.114	0.0133727
893.193	0.0134216
893.271	0.0135663
893.349	0.0135408
893.427	0.0136050
893.505	0.0135079
893.583	0.0135447
893.661	0.0135487
893.739	0.0135786
893.818	0.0136586
893.896	0.0136142
893.974	0.0135251
894.052	0.0135318
894.130	0.0136190
894.208	0.0136272
894.286	0.0136485
894.364	0.0135134
894.443	0.0135382
894.521	0.0135545
894.599	0.0134185
894.677	0.0134908
894.755	0.0133851
894.833	0.0134224
894.911	0.0134280
894.989	0.0132825
895.068	0.0132909
895.146	0.0132239
895.224	0.0133051
895.302	0.0133678
895.380	0.0132519
895.458	0.0132607
895.536	0.0132647
895.614	0.0133457
895.693	0.0131591
895.771	0.0133508
895.849	0.0131864
895.927	0.0132137
896.005	0.0132769
896.083	0.0132954
896.161	0.0132719
896.239	0.0131676
896.318	0.0132181
896.396	0.0133311
896.474	0.0132408
896.552	0.0132523
896.630	0.0133853
896.708	0.0131499
896.786	0.0132667
896.864	0.0132242
896.943	0.0132164
897.021	0.0132082
897.099	0.0131827
897.177	0.0132816
897.255	0.0134215
897.333	0.0133052
897.411	0.0133187
897.489	0.0133677
897.568	0.0133747
897.646	0.0134090
897.724	0.0134347
897.802	0.0133990
897.880	0.0133114
897.958	0.0134016
898.036	0.0133646
898.114	0.0133631
898.193	0.0133035
898.271	0.0133994
898.349	0.0133471
898.427	0.0134076
898.505	0.0133341
898.583	0.0133920
898.661	0.0133911
898.739	0.0132542
898.818	0.0133354
898.896	0.0134454
898.974	0.0133118
899.052	0.0132758
899.130	0.0134355
899.208	0.0133634
899.286	0.0132348
899.364	0.0134093
899.443	0.0134538
899.521	0.0133460
899.599	0.0135287
899.677	0.0134444
899.755	0.0133835
899.833	0.0133575
899.911	0.0135232
899.989	0.0136114
900.068	0.0133711
900.146	0.0135157
900.224	0.0134118
900.302	0.0134584
900.380	0.0133888
900.458	0.0134784
900.536	0.0135860
900.614	0.0133791
900.693	0.0135368
900.771	0.0134055
900.849	0.0133981
900.927	0.0134475
901.005	0.0133860
901.083	0.0134095
901.161	0.0133361
901.239	0.0135205
901.318	0.0133829
901.396	0.0134309
901.474	0.0133398
901.552	0.0133837
901.630	0.0133199
901.708	0.0134541
901.786	0.0134620
901.864	0.0135456
901.943	0.0134292
902.021	0.0134356
902.099	0.0134258
902.177	0.0135154
902.255	0.0135569
902.333	0.0133935
902.411	0.0135172
902.489	0.0135481
902.568	0.0133781
902.646	0.0134047
902.724	0.0134568
902.802	0.0133756
902.880	0.0134709
902.958	0.0135351
903.036	0.0133569
903.114	0.0134454
903.193	0.0134315
903.271	0.0135191
903.349	0.0131681
903.427	0.0133070
903.505	0.0134193
903.583	0.0133658
903.661	0.0134819
903.739	0.0132511
903.818	0.0132207
903.896	0.0134460
903.974	0.0134717
904.052	0.0133507
904.130	0.0133895
904.208	0.0134788
904.286	0.0133296
904.364	0.0134840
904.443	0.0133289
904.521	0.0134602
904.599	0.0135543
904.677	0.0133576
904.755	0.0135290
904.833	0.0135651
904.911	0.0135988
904.989	0.0135904
905.068	0.0134534
905.146	0.0134786
905.224	0.0134892
905.302	0.0134493
905.380	0.0135439
905.458	0.0134767
905.536	0.0136098
905.614	0.0134718
905.693	0.0134583
905.771	0.0134387
905.849	0.0135049
905.927	0.0134396
906.005	0.0132577
906.083	0.0134103
906.161	0.0134282
906.239	0.0133299
906.318	0.0133392
906.396	0.0132919
906.474	0.0132729
906.552	0.0132435
906.630	0.0132639
906.708	0.0133487
906.786	0.0132378
906.864	0.0133092
906.943	0.0133677
907.021	0.0133772
907.099	0.0133743
907.177	0.0133161
907.255	0.0132107
907.333	0.0134740
907.411	0.0134961
907.489	0.0134207
907.568	0.0134710
907.646	0.0134154
907.724	0.0134688
907.802	0.0135181
907.880	0.0135986
907.958	0.0135500
908.036	0.0136260
908.114	0.0137543
908.193	0.0137006
908.271	0.0134959
908.349	0.0134922
908.427	0.0136227
908.505	0.0134189
908.583	0.0134383
908.661	0.0136121
908.739	0.0134915
908.818	0.0133728
908.896	0.0134918
908.974	0.0134084
909.052	0.0133230
909.130	0.0133239
909.208	0.0133764
909.286	0.0133404
909.364	0.0133568
909.443	0.0133931
909.521	0.0133461
909.599	0.0132727
909.677	0.0133298
909.755	0.0134519
909.833	0.0133329
909.911	0.0132255
909.989	0.0133040
910.068	0.0131239
910.146	0.0132637
910.224	0.0132343
910.302	0.0132914
910.380	0.0131829
910.458	0.0131543
910.536	0.0131968
910.614	0.0131644
910.693	0.0132713
910.771	0.0133056
910.849	0.0133628
910.927	0.0133869
911.005	0.0133614
911.083	0.0133709
911.161	0.0133260
911.239	0.0134360
911.318	0.0133586
911.396	0.0135021
911.474	0.0134784
911.552	0.0133622
911.630	0.0134029
911.708	0.0133877
911.786	0.0135606
911.864	0.0135201
911.943	0.0133125
912.021	0.0134590
912.099	0.0134524
912.177	0.0134535
912.255	0.0134536
912.333	0.0135342
912.411	0.0135237
912.489	0.0134460
912.568	0.0134245
912.646	0.0134541
912.724	0.0135712
912.802	0.0135355
912.880	0.0135017
912.958	0.0134588
913.036	0.0135024
913.114	0.0135306
913.193	0.0135181
913.271	0.0134632
913.349	0.0133994
913.427	0.0134522
913.505	0.0134341
913.583	0.0134487
913.661	0.0132841
913.739	0.0133398
913.818	0.0134431
913.896	0.0134467
913.974	0.0133278
914.052	0.0132276
914.130	0.0133404
914.208	0.0133622
914.286	0.0131634
914.364	0.0134428
914.443	0.0132368
914.521	0.0132160
914.599	0.0132121
914.677	0.0132906
914.755	0.0132695
914.833	0.0133207
914.911	0.0132361
914.989	0.0132004
915.068	0.0133179
915.146	0.0130564
915.224	0.0130194
915.302	0.0132624
915.380	0.0133411
915.458	0.0134184
915.536	0.0132740
915.614	0.0132153
915.693	0.0132536
915.771	0.0133899
915.849	0.0133278
915.927	0.0134576
916.005	0.0133691
916.083	0.0134795
916.161	0.0133262
916.239	0.0134932
916.318	0.0135397
916.396	0.0133942
916.474	0.0133868
916.552	0.0134380
916.630	0.0135369
916.708	0.0134393
916.786	0.0133412
916.864	0.0133406
916.943	0.0135175
917.021	0.0134830
917.099	0.0133871
917.177	0.0135091
917.255	0.0135235
917.333	0.0134509
917.411	0.0135571
917.489	0.0135525
917.568	0.0134653
917.646	0.0134370
917.724	0.0135021
917.802	0.0134803
917.880	0.0135928
917.958	0.0135745
918.036	0.0135912
918.114	0.0135741
918.193	0.0135880
918.271	0.0135899
918.349	0.0134693
918.427	0.0134700
918.505	0.0134254
918.583	0.0135295
918.661	0.0133423
918.739	0.0133695
918.818	0.0132806
918.896	0.0132055
918.974	0.0133734
919.052	0.0131725
919.130	0.0132967
919.208	0.0132708
919.286	0.0130762
919.364	0.0132436
919.443	0.0131934
919.521	0.0131937
919.599	0.0131110
919.677	0.0132641
919.755	0.0132553
919.833	0.0131435
919.911	0.0132709
919.989	0.0133098
920.068	0.0131399
920.146	0.0132041
920.224	0.0132143
920.302	0.0131306
920.380	0.0132014
920.458	0.0131326
920.536	0.0132043
920.614	0.0131284
920.693	0.0131034
920.771	0.0133183
920.849	0.0132903
920.927	0.0132566
921.005	0.0132771
921.083	0.0133224
921.161	0.0132068
921.239	0.0132629
921.318	0.0134105
921.396	0.0133183
921.474	0.0132743
921.552	0.0132729
921.630	0.0135182
921.708	0.0133557
921.786	0.0134711
921.864	0.0135310
921.943	0.0136274
922.021	0.0135546
922.099	0.0134743
922.177	0.0134319
922.255	0.0135516
922.333	0.0136384
922.411	0.0135299
922.489	0.0134501
922.568	0.0136188
922.646	0.0135816
922.724	0.0133795
922.802	0.0134173
922.880	0.0133763
922.958	0.0134778
923.036	0.0133526
923.114	0.0133559
923.193	0.0134428
923.271	0.0133490
923.349	0.0135748
923.427	0.0134229
923.505	0.0133712
923.583	0.0133022
923.661	0.0133514
923.739	0.0132578
923.818	0.0133305
923.896	0.0133945
923.974	0.0132933
924.052	0.0132672
924.130	0.0135479
924.208	0.0134715
924.286	0.0133362
924.364	0.0135240
924.443	0.0134340
924.521	0.0135287
924.599	0.0134786
924.677	0.0134734
924.755	0.0134801
924.833	0.0134707
924.911	0.0136431
924.989	0.0136137
925.068	0.0133057
925.146	0.0134141
925.224	0.0135720
925.302	0.0134931
925.380	0.0134606
925.458	0.0134820
925.536	0.0133507
925.614	0.0134672
925.693	0.0134607
925.771	0.0134682
925.849	0.0133229
925.927	0.0134376
926.005	0.0134591
926.083	0.0133096
926.161	0.0132966
926.239	0.0133993
926.318	0.0133871
926.396	0.0132770
926.474	0.0134112
926.552	0.0133463
926.630	0.0133566
926.708	0.0133377
926.786	0.0132597
926.864	0.0132890
926.943	0.0133207
927.021	0.0133836
927.099	0.0133186
927.177	0.0133623
927.255	0.0132931
927.333	0.0132832
927.411	0.0134081
927.489	0.0132500
927.568	0.0133729
927.646	0.0132079
927.724	0.0132793
927.802	0.0132771
927.880	0.0134246
927.958	0.0133926
928.036	0.0134165
928.114	0.0134251
928.193	0.0133776
928.271	0.0133998
928.349	0.0133789
928.427	0.0133858
928.505	0.0135271
928.583	0.0134583
928.661	0.0134132
928.739	0.0134884
928.818	0.0133611
928.896	0.0134402
928.974	0.0132867
929.052	0.0133920
929.130	0.0135061
929.208	0.0135775
929.286	0.0133150
929.364	0.0133230
929.443	0.0133319
929.521	0.0133829
929.599	0.0135931
929.677	0.0133926
929.755	0.0132639
929.833	0.0133625
929.911	0.0134300
929.989	0.0133968
930.068	0.0132908
930.146	0.0134826
930.224	0.0135140
930.302	0.0135204
930.380	0.0134897
930.458	0.0134406
930.536	0.0133201
930.614	0.0135851
930.693	0.0135225
930.771	0.0135027
930.849	0.0135748
930.927	0.0135196
931.005	0.0133514
931.083	0.0134828
931.161	0.0134232
931.239	0.0133224
931.318	0.0133208
931.396	0.0134151
931.474	0.0133286
931.552	0.0134529
931.630	0.0132911
931.708	0.0132500
931.786	0.0133598
931.864	0.0133890
931.943	0.0132963
932.021	0.0131926
932.099	0.0132491
932.177	0.0132704
932.255	0.0132625
932.333	0.0133038
932.411	0.0133691
932.489	0.0133081
932.568	0.0132586
932.646	0.0134172
932.724	0.0133106
932.802	0.0132732
932.880	0.0132188
932.958	0.0132745
933.036	0.0133773
933.114	0.0133626
933.193	0.0133755
933.271	0.0133414
933.349	0.0132500
933.427	0.0133738
933.505	0.0133804
933.583	0.0134624
933.661	0.0133036
933.739	0.0132223
933.818	0.0134971
933.896	0.0134121
933.974	0.0134685
934.052	0.0135143
934.130	0.0136024
934.208	0.0135536
934.286	0.0133913
934.364	0.0135242
934.443	0.0136380
934.521	0.0135253
934.599	0.0135038
934.677	0.0134297
934.755	0.0135503
934.833	0.0135905
934.911	0.0136251
934.989	0.0134753
935.068	0.0136754
935.146	0.0135654
935.224	0.0135570
935.302	0.0136941
935.380	0.0137214
935.458	0.0135279
935.536	0.0136722
935.614	0.0135778
935.693	0.0136447
935.771	0.0136748
935.849	0.0135379
935.927	0.0135137
936.005	0.0134604
936.083	0.0136580
936.161	0.0135213
936.239	0.0135507
936.318	0.0134769
936.396	0.0134405
936.474	0.0133440
936.552	0.0132481
936.630	0.0133793
936.708	0.0134081
936.786	0.0133897
936.864	0.0134582
936.943	0.0133004
937.021	0.0132780
937.099	0.0132605
937.177	0.0133978
937.255	0.0133771
937.333	0.0134068
937.411	0.0132113
937.489	0.0132455
937.568	0.0131659
937.646	0.0131201
937.724	0.0131631
937.802	0.0132734
937.880	0.0131773
937.958	0.0132157
938.036	0.0132555
938.114	0.0132848
938.193	0.0132258
938.271	0.0132122
938.349	0.0132519
938.427	0.0131855
938.505	0.0132896
938.583	0.0134080
938.661	0.0132608
938.739	0.0133105
938.818	0.0132529
938.896	0.0132217
938.974	0.0133841
939.052	0.0134177
939.130	0.0132879
939.208	0.0134743
939.286	0.0132740
939.364	0.0133324
939.443	0.0132910
939.521	0.0134098
939.599	0.0133974
939.677	0.0134941
939.755	0.0134219
939.833	0.0133433
939.911	0.0132779
939.989	0.0133425
940.068	0.0135356
940.146	0.0134062
940.224	0.0133949
940.302	0.0134240
940.380	0.0134917
940.458	0.0135393
940.536	0.0134357
940.614	0.0133666
940.693	0.0135276
940.771	0.0135814
940.849	0.0135198
940.927	0.0134854
941.005	0.0133931
941.083	0.0136201
941.161	0.0135915
941.239	0.0134897
941.318	0.0135833
941.396	0.0138428
941.474	0.0135751
941.552	0.0136109
941.630	0.0136046
941.708	0.0135916
941.786	0.0135656
941.864	0.0136770
941.943	0.0138045
942.021	0.0134659
942.099	0.0134412
942.177	0.0136823
942.255	0.0136060
942.333	0.0135410
942.411	0.0136128
942.489	0.0135665
942.568	0.0135641
942.646	0.0135201
942.724	0.0135193
942.802	0.0134705
942.880	0.0133797
942.958	0.0134637
943.036	0.0135542
943.114	0.0134428
943.193	0.0133770
943.271	0.0133889
943.349	0.0133467
943.427	0.0133549
943.505	0.0135307
943.583	0.0133303
943.661	0.0132924
943.739	0.0133156
943.818	0.0133261
943.896	0.0132653
943.974	0.0133728
944.052	0.0133959
944.130	0.0131319
944.208	0.0133430
944.286	0.0134030
944.364	0.0133609
944.443	0.0134118
944.521	0.0132972
944.599	0.0133647
944.677	0.0134351
944.755	0.0133952
944.833	0.0134855
944.911	0.0133910
944.989	0.0134180
945.068	0.0134909
945.146	0.0135455
945.224	0.0134756
945.302	0.0135549
945.380	0.0134971
945.458	0.0134451
945.536	0.0134739
945.614	0.0134493
945.693	0.0133577
945.771	0.0134013
945.849	0.0134546
945.927	0.0134741
946.005	0.0133012
946.083	0.0133084
946.161	0.0134316
946.239	0.0134932
946.318	0.0133739
946.396	0.0133099
946.474	0.0134279
946.552	0.0133075
946.630	0.0133385
946.708	0.0134460
946.786	0.0132430
946.864	0.0134225
946.943	0.0133596
947.021	0.0132361
947.099	0.0133176
947.177	0.0133754
947.255	0.0131644
947.333	0.0132706
947.411	0.0133315
947.489	0.0133420
947.568	0.0135014
947.646	0.0134198
947.724	0.0133266
947.802	0.0133295
947.880	0.0133397
947.958	0.0133003
948.036	0.0133476
948.114	0.0134698
948.193	0.0135528
948.271	0.0133943
948.349	0.0134947
948.427	0.0133363
948.505	0.0134109
948.583	0.0135184
948.661	0.0135709
948.739	0.0135215
948.818	0.0133920
948.896	0.0133960
948.974	0.0134615
949.052	0.0132655
949.130	0.0133646
949.208	0.0133796
949.286	0.0133410
949.364	0.0132815
949.443	0.0134714
949.521	0.0133963
949.599	0.0132597
949.677	0.0132346
949.755	0.0133451
949.833	0.0133053
949.911	0.0133006
949.989	0.0133881
950.068	0.0134011
950.146	0.0133102
950.224	0.0132399
950.302	0.0133965
950.380	0.0133626
950.458	0.0132764
950.536	0.0133629
950.614	0.0133296
950.693	0.0134238
950.771	0.0132615
950.849	0.0133881
950.927	0.0133212
951.005	0.0133406
951.083	0.0132685
951.161	0.0133935
951.239	0.0133021
951.318	0.0132523
951.396	0.0131793
951.474	0.0132976
951.552	0.0132790
951.630	0.0132221
951.708	0.0132113
951.786	0.0132499
951.864	0.0132076
951.943	0.0132862
952.021	0.0133012
952.099	0.0132252
952.177	0.0133274
952.255	0.0134554
952.333	0.0134990
952.411	0.0134561
952.489	0.0133483
952.568	0.0134041
952.646	0.0134415
952.724	0.0134144
952.802	0.0134402
952.880	0.0133630
952.958	0.0135054
953.036	0.0135116
953.114	0.0136071
953.193	0.0134835
953.271	0.0135006
953.349	0.0134880
953.427	0.0135301
953.505	0.0135258
953.583	0.0134119
953.661	0.0134962
953.739	0.0136018
953.818	0.0135328
953.896	0.0135470
953.974	0.0135756
954.052	0.0134478
954.130	0.0134959
954.208	0.0135239
954.286	0.0135778
954.364	0.0134394
954.443	0.0135108
954.521	0.0136042
954.599	0.0134546
954.677	0.0135357
954.755	0.0134878
954.833	0.0134127
954.911	0.0134110
954.989	0.0133830
955.068	0.0134292
955.146	0.0132420
955.224	0.0134216
955.302	0.0134634
955.380	0.0133930
955.458	0.0133640
955.536	0.0132816
955.614	0.0132947
955.693	0.0133893
955.771	0.0135097
955.849	0.0133752
955.927	0.0133780
956.005	0.0134274
956.083	0.0133064
956.161	0.0133829
956.239	0.0134402
956.318	0.0133327
956.396	0.0133696
956.474	0.0133550
956.552	0.0135434
956.630	0.0134869
956.708	0.0133599
956.786	0.0135184
956.864	0.0136567
956.943	0.0135383
957.021	0.0134013
957.099	0.0134193
957.177	0.0134028
957.255	0.0134593
957.333	0.0133505
957.411	0.0134657
957.489	0.0135265
957.568	0.0135094
957.646	0.0133250
957.724	0.0134470
957.802	0.0135390
957.880	0.0135491
957.958	0.0134108
958.036	0.0135328
958.114	0.0135411
958.193	0.0135144
958.271	0.0136521
958.349	0.0136048
958.427	0.0134524
958.505	0.0136074
958.583	0.0137492
958.661	0.0135956
958.739	0.0134435
958.818	0.0134494
958.896	0.0136393
958.974	0.0135618
959.052	0.0135098
959.130	0.0135458
959.208	0.0136065
959.286	0.0135785
959.364	0.0136491
959.443	0.0134375
959.521	0.0134704
959.599	0.0135486
959.677	0.0133954
959.755	0.0133488
959.833	0.0134262
959.911	0.0133801
