05/28/2022	13:42:34	Ver.	4.1	UNKNOWN
Optical Delay	599.995081	Delta X		0.078125	Sweeps	1	Scan Rate	0/0
Coordinates	Axis 1	NaN	Axis 2	NaN	Axis 3	NaN	Axis 4	NaN	Axis 5	NaN	Axis 6	0.000000
TX Power	0.000000	RX Power	0.000000

599.995	0.0150726
600.073	0.0150436
600.151	0.0151849
600.229	0.0150622
600.308	0.0150311
600.386	0.0150430
600.464	0.0150726
600.542	0.0150733
600.620	0.0151615
600.698	0.0150336
600.776	0.0150281
600.854	0.0148961
600.933	0.0151261
601.011	0.0151799
601.089	0.0151446
601.167	0.0151281
601.245	0.0150242
601.323	0.0149746
601.401	0.0149342
601.479	0.0150941
601.558	0.0152224
601.636	0.0151031
601.714	0.0152264
601.792	0.0150189
601.870	0.0149682
601.948	0.0151142
602.026	0.0150344
602.104	0.0151404
602.183	0.0150415
602.261	0.0151252
602.339	0.0149520
602.417	0.0150710
602.495	0.0150234
602.573	0.0150931
602.651	0.0150974
602.729	0.0151564
602.808	0.0150103
602.886	0.0151693
602.964	0.0150891
603.042	0.0151348
603.120	0.0148990
603.198	0.0149989
603.276	0.0151781
603.354	0.0150948
603.433	0.0149242
603.511	0.0150372
603.589	0.0152215
603.667	0.0150500
603.745	0.0151017
603.823	0.0150661
603.901	0.0151279
603.979	0.0150648
604.058	0.0149242
604.136	0.0149825
604.214	0.0149601
604.292	0.0150492
604.370	0.0150547
604.448	0.0151373
604.526	0.0152129
604.604	0.0151429
604.683	0.0149266
604.761	0.0150775
604.839	0.0149520
604.917	0.0150584
604.995	0.0150670
605.073	0.0149863
605.151	0.0150935
605.229	0.0151196
605.308	0.0151073
605.386	0.0150574
605.464	0.0151463
605.542	0.0150002
605.620	0.0150736
605.698	0.0149478
605.776	0.0150098
605.854	0.0150998
605.933	0.0151140
606.011	0.0150111
606.089	0.0151525
606.167	0.0150465
606.245	0.0150257
606.323	0.0150635
606.401	0.0151452
606.479	0.0151325
606.558	0.0151170
606.636	0.0151333
606.714	0.0151486
606.792	0.0151062
606.870	0.0149429
606.948	0.0151490
607.026	0.0148917
607.104	0.0152125
607.183	0.0151058
607.261	0.0150075
607.339	0.0149773
607.417	0.0151403
607.495	0.0150430
607.573	0.0150568
607.651	0.0151146
607.729	0.0151234
607.808	0.0151109
607.886	0.0151295
607.964	0.0150642
608.042	0.0149142
608.120	0.0151657
608.198	0.0151761
608.276	0.0150774
608.354	0.0149227
608.433	0.0151454
608.511	0.0151352
608.589	0.0150712
608.667	0.0150713
608.745	0.0150792
608.823	0.0151483
608.901	0.0150610
608.979	0.0150686
609.058	0.0150733
609.136	0.0152552
609.214	0.0151583
609.292	0.0150456
609.370	0.0150491
609.448	0.0151747
609.526	0.0152528
609.604	0.0149586
609.683	0.0150058
609.761	0.0150062
609.839	0.0151361
609.917	0.0150735
609.995	0.0151116
610.073	0.0151546
610.151	0.0150862
610.229	0.0150054
610.308	0.0150225
610.386	0.0150901
610.464	0.0151695
610.542	0.0151388
610.620	0.0151635
610.698	0.0150373
610.776	0.0151481
610.854	0.0150677
610.933	0.0150257
611.011	0.0150614
611.089	0.0151383
611.167	0.0150453
611.245	0.0151189
611.323	0.0151406
611.401	0.0150500
611.479	0.0149661
611.558	0.0151656
611.636	0.0151207
611.714	0.0149330
611.792	0.0150352
611.870	0.0149616
611.948	0.0149010
612.026	0.0149769
612.104	0.0149275
612.183	0.0150272
612.261	0.0150542
612.339	0.0150478
612.417	0.0150355
612.495	0.0148908
612.573	0.0150101
612.651	0.0151051
612.729	0.0150028
612.808	0.0150457
612.886	0.0150847
612.964	0.0149284
613.042	0.0150574
613.120	0.0150996
613.198	0.0150598
613.276	0.0150871
613.354	0.0150951
613.433	0.0150391
613.511	0.0151476
613.589	0.0150434
613.667	0.0150932
613.745	0.0150215
613.823	0.0150417
613.901	0.0149772
613.979	0.0150251
614.058	0.0150946
614.136	0.0150081
614.214	0.0150349
614.292	0.0151102
614.370	0.0149801
614.448	0.0150997
614.526	0.0150937
614.604	0.0149832
614.683	0.0150165
614.761	0.0150548
614.839	0.0150010
614.917	0.0149442
614.995	0.0150739
615.073	0.0149960
615.151	0.0151739
615.229	0.0150600
615.308	0.0150047
615.386	0.0150751
615.464	0.0151384
615.542	0.0150005
615.620	0.0150039
615.698	0.0151106
615.776	0.0149109
615.854	0.0150307
615.933	0.0151176
616.011	0.0150618
616.089	0.0150189
616.167	0.0152158
616.245	0.0151197
616.323	0.0151138
616.401	0.0149883
616.479	0.0149562
616.558	0.0150719
616.636	0.0149751
616.714	0.0150045
616.792	0.0150835
616.870	0.0151287
616.948	0.0150011
617.026	0.0150714
617.104	0.0151373
617.183	0.0149536
617.261	0.0149988
617.339	0.0150979
617.417	0.0149591
617.495	0.0151777
617.573	0.0150901
617.651	0.0150317
617.729	0.0150709
617.808	0.0151456
617.886	0.0150067
617.964	0.0152598
618.042	0.0150430
618.120	0.0150022
618.198	0.0150667
618.276	0.0150964
618.354	0.0151476
618.433	0.0150433
618.511	0.0150060
618.589	0.0151700
618.667	0.0150550
618.745	0.0150889
618.823	0.0150198
618.901	0.0150636
618.979	0.0150592
619.058	0.0149676
619.136	0.0150804
619.214	0.0150528
619.292	0.0149197
619.370	0.0150932
619.448	0.0150787
619.526	0.0151418
619.604	0.0150599
619.683	0.0150491
619.761	0.0151112
619.839	0.0149841
619.917	0.0150273
619.995	0.0150578
620.073	0.0149884
620.151	0.0148750
620.229	0.0151125
620.308	0.0150981
620.386	0.0150947
620.464	0.0150368
620.542	0.0150989
620.620	0.0151266
620.698	0.0151022
620.776	0.0150010
620.854	0.0150539
620.933	0.0151203
621.011	0.0150124
621.089	0.0149489
621.167	0.0151372
621.245	0.0151417
621.323	0.0151033
621.401	0.0151518
621.479	0.0151273
621.558	0.0151093
621.636	0.0150769
621.714	0.0151376
621.792	0.0150741
621.870	0.0151313
621.948	0.0150772
622.026	0.0151899
622.104	0.0150642
622.183	0.0150444
622.261	0.0150011
622.339	0.0149578
622.417	0.0150686
622.495	0.0151218
622.573	0.0150565
622.651	0.0149503
622.729	0.0151029
622.808	0.0150297
622.886	0.0151475
622.964	0.0150456
623.042	0.0150983
623.120	0.0151021
623.198	0.0149510
623.276	0.0149551
623.354	0.0150632
623.433	0.0150410
623.511	0.0151167
623.589	0.0150756
623.667	0.0150445
623.745	0.0150383
623.823	0.0150345
623.901	0.0150045
623.979	0.0150791
624.058	0.0150680
624.136	0.0150302
624.214	0.0150008
624.292	0.0150979
624.370	0.0151086
624.448	0.0151671
624.526	0.0150062
624.604	0.0148539
624.683	0.0149422
624.761	0.0151014
624.839	0.0150975
624.917	0.0150995
624.995	0.0150608
625.073	0.0149678
625.151	0.0151221
625.229	0.0151481
625.308	0.0151374
625.386	0.0150205
625.464	0.0150742
625.542	0.0149911
625.620	0.0150725
625.698	0.0150666
625.776	0.0150340
625.854	0.0149567
625.933	0.0150192
626.011	0.0150694
626.089	0.0151134
626.167	0.0150717
626.245	0.0150336
626.323	0.0151225
626.401	0.0151201
626.479	0.0151377
626.558	0.0149755
626.636	0.0150970
626.714	0.0151564
626.792	0.0150858
626.870	0.0150472
626.948	0.0151485
627.026	0.0151344
627.104	0.0150935
627.183	0.0149693
627.261	0.0150981
627.339	0.0152332
627.417	0.0151559
627.495	0.0150965
627.573	0.0150591
627.651	0.0150704
627.729	0.0151515
627.808	0.0150994
627.886	0.0150685
627.964	0.0150432
628.042	0.0149694
628.120	0.0151369
628.198	0.0150864
628.276	0.0152157
628.354	0.0152274
628.433	0.0150555
628.511	0.0151315
628.589	0.0151015
628.667	0.0149356
628.745	0.0150399
628.823	0.0149668
628.901	0.0151806
628.979	0.0152488
629.058	0.0150164
629.136	0.0150992
629.214	0.0150213
629.292	0.0149712
629.370	0.0150555
629.448	0.0151584
629.526	0.0150053
629.604	0.0149499
629.683	0.0149555
629.761	0.0151287
629.839	0.0151417
629.917	0.0150291
629.995	0.0150880
630.073	0.0150493
630.151	0.0149512
630.229	0.0150133
630.308	0.0151726
630.386	0.0150503
630.464	0.0150657
630.542	0.0149277
630.620	0.0150365
630.698	0.0149596
630.776	0.0150121
630.854	0.0152331
630.933	0.0151129
631.011	0.0151445
631.089	0.0149477
631.167	0.0151804
631.245	0.0151598
631.323	0.0151148
631.401	0.0150522
631.479	0.0151875
631.558	0.0150474
631.636	0.0150139
631.714	0.0150333
631.792	0.0150819
631.870	0.0152190
631.948	0.0152857
632.026	0.0150670
632.104	0.0150850
632.183	0.0150553
632.261	0.0151344
632.339	0.0151841
632.417	0.0152160
632.495	0.0149939
632.573	0.0149706
632.651	0.0151041
632.729	0.0150143
632.808	0.0149224
632.886	0.0149720
632.964	0.0150973
633.042	0.0151122
633.120	0.0150535
633.198	0.0151944
633.276	0.0152068
633.354	0.0150966
633.433	0.0149547
633.511	0.0151024
633.589	0.0150359
633.667	0.0150677
633.745	0.0151049
633.823	0.0151833
633.901	0.0151120
633.979	0.0150574
634.058	0.0151566
634.136	0.0151362
634.214	0.0150052
634.292	0.0150883
634.370	0.0150870
634.448	0.0150451
634.526	0.0150641
634.604	0.0150607
634.683	0.0151593
634.761	0.0152431
634.839	0.0151160
634.917	0.0150210
634.995	0.0149696
635.073	0.0149777
635.151	0.0151367
635.229	0.0150880
635.308	0.0150776
635.386	0.0150089
635.464	0.0151331
635.542	0.0150639
635.620	0.0149650
635.698	0.0152219
635.776	0.0151146
635.854	0.0149973
635.933	0.0150997
636.011	0.0150488
636.089	0.0150449
636.167	0.0149584
636.245	0.0150334
636.323	0.0150536
636.401	0.0149169
636.479	0.0151846
636.558	0.0150696
636.636	0.0150706
636.714	0.0150240
636.792	0.0149856
636.870	0.0150687
636.948	0.0152368
637.026	0.0150515
637.104	0.0149957
637.183	0.0150987
637.261	0.0149661
637.339	0.0150225
637.417	0.0150718
637.495	0.0151249
637.573	0.0150842
637.651	0.0150583
637.729	0.0151064
637.808	0.0150456
637.886	0.0149187
637.964	0.0151656
638.042	0.0150797
638.120	0.0149990
638.198	0.0150793
638.276	0.0150912
638.354	0.0151083
638.433	0.0151982
638.511	0.0151285
638.589	0.0150397
638.667	0.0151920
638.745	0.0153052
638.823	0.0150883
638.901	0.0148882
638.979	0.0150851
639.058	0.0152095
639.136	0.0150742
639.214	0.0151408
639.292	0.0151237
639.370	0.0149941
639.448	0.0150417
639.526	0.0151424
639.604	0.0150574
639.683	0.0150645
639.761	0.0149155
639.839	0.0150997
639.917	0.0150414
639.995	0.0151185
640.073	0.0150969
640.151	0.0150530
640.229	0.0150990
640.308	0.0150958
640.386	0.0150384
640.464	0.0150412
640.542	0.0150437
640.620	0.0151348
640.698	0.0150797
640.776	0.0149630
640.854	0.0151823
640.933	0.0150188
641.011	0.0151023
641.089	0.0150703
641.167	0.0150165
641.245	0.0150433
641.323	0.0150903
641.401	0.0150211
641.479	0.0151553
641.558	0.0151141
641.636	0.0150417
641.714	0.0151184
641.792	0.0150356
641.870	0.0150650
641.948	0.0151202
642.026	0.0151141
642.104	0.0151693
642.183	0.0149469
642.261	0.0149423
642.339	0.0149958
642.417	0.0150774
642.495	0.0151030
642.573	0.0151978
642.651	0.0150855
642.729	0.0150066
642.808	0.0151504
642.886	0.0150150
642.964	0.0150410
643.042	0.0150080
643.120	0.0151005
643.198	0.0151988
643.276	0.0152694
643.354	0.0149377
643.433	0.0149783
643.511	0.0151837
643.589	0.0151313
643.667	0.0150244
643.745	0.0151365
643.823	0.0151558
643.901	0.0151038
643.979	0.0150880
644.058	0.0149709
644.136	0.0151141
644.214	0.0152989
644.292	0.0151148
644.370	0.0151875
644.448	0.0151335
644.526	0.0148889
644.604	0.0150402
644.683	0.0150641
644.761	0.0149265
644.839	0.0151034
644.917	0.0149611
644.995	0.0150021
645.073	0.0151653
645.151	0.0151266
645.229	0.0151215
645.308	0.0150555
645.386	0.0150217
645.464	0.0150238
645.542	0.0151537
645.620	0.0150827
645.698	0.0150846
645.776	0.0151077
645.854	0.0150308
645.933	0.0150287
646.011	0.0150806
646.089	0.0150461
646.167	0.0150932
646.245	0.0149954
646.323	0.0151373
646.401	0.0149768
646.479	0.0151308
646.558	0.0151530
646.636	0.0150465
646.714	0.0151864
646.792	0.0151465
646.870	0.0151109
646.948	0.0150694
647.026	0.0150800
647.104	0.0150304
647.183	0.0151625
647.261	0.0152023
647.339	0.0150686
647.417	0.0150654
647.495	0.0150373
647.573	0.0151966
647.651	0.0149921
647.729	0.0149483
647.808	0.0151899
647.886	0.0151066
647.964	0.0151334
648.042	0.0151150
648.120	0.0150158
648.198	0.0149331
648.276	0.0150684
648.354	0.0151075
648.433	0.0149796
648.511	0.0150729
648.589	0.0150326
648.667	0.0150140
648.745	0.0151260
648.823	0.0150426
648.901	0.0150542
648.979	0.0149868
649.058	0.0150956
649.136	0.0151688
649.214	0.0151233
649.292	0.0150534
649.370	0.0149858
649.448	0.0150211
649.526	0.0150056
649.604	0.0151536
649.683	0.0150353
649.761	0.0150294
649.839	0.0150710
649.917	0.0151620
649.995	0.0151540
650.073	0.0150488
650.151	0.0150687
650.229	0.0150910
650.308	0.0150761
650.386	0.0150651
650.464	0.0151030
650.542	0.0150214
650.620	0.0150419
650.698	0.0150986
650.776	0.0150182
650.854	0.0150742
650.933	0.0150589
651.011	0.0151398
651.089	0.0151560
651.167	0.0151536
651.245	0.0151452
651.323	0.0149352
651.401	0.0152069
651.479	0.0151611
651.558	0.0151422
651.636	0.0150238
651.714	0.0151975
651.792	0.0152169
651.870	0.0151933
651.948	0.0150950
652.026	0.0150922
652.104	0.0151769
652.183	0.0150630
652.261	0.0151145
652.339	0.0151329
652.417	0.0150514
652.495	0.0150962
652.573	0.0152249
652.651	0.0150757
652.729	0.0150740
652.808	0.0151058
652.886	0.0151267
652.964	0.0151226
653.042	0.0150944
653.120	0.0150298
653.198	0.0150176
653.276	0.0150853
653.354	0.0150523
653.433	0.0151074
653.511	0.0152612
653.589	0.0151344
653.667	0.0151388
653.745	0.0151084
653.823	0.0149727
653.901	0.0152380
653.979	0.0151547
654.058	0.0151334
654.136	0.0151537
654.214	0.0150436
654.292	0.0148954
654.370	0.0150726
654.448	0.0151917
654.526	0.0151209
654.604	0.0149271
654.683	0.0150081
654.761	0.0150542
654.839	0.0152782
654.917	0.0150546
654.995	0.0150079
655.073	0.0151156
655.151	0.0150900
655.229	0.0150518
655.308	0.0150008
655.386	0.0151211
655.464	0.0151735
655.542	0.0150526
655.620	0.0150913
655.698	0.0151414
655.776	0.0151128
655.854	0.0150336
655.933	0.0149520
656.011	0.0151873
656.089	0.0149493
656.167	0.0151939
656.245	0.0150663
656.323	0.0150790
656.401	0.0151166
656.479	0.0150491
656.558	0.0150979
656.636	0.0151404
656.714	0.0150468
656.792	0.0150146
656.870	0.0149717
656.948	0.0150945
657.026	0.0150670
657.104	0.0151538
657.183	0.0150976
657.261	0.0150255
657.339	0.0149045
657.417	0.0150795
657.495	0.0151079
657.573	0.0151345
657.651	0.0152475
657.729	0.0150755
657.808	0.0149529
657.886	0.0149788
657.964	0.0152192
658.042	0.0149203
658.120	0.0150521
658.198	0.0150214
658.276	0.0150495
658.354	0.0151666
658.433	0.0150466
658.511	0.0151329
658.589	0.0151168
658.667	0.0150748
658.745	0.0151268
658.823	0.0149532
658.901	0.0149578
658.979	0.0151432
659.058	0.0150746
659.136	0.0150330
659.214	0.0152052
659.292	0.0149770
659.370	0.0151168
659.448	0.0151413
659.526	0.0151920
659.604	0.0150810
659.683	0.0151412
659.761	0.0149884
659.839	0.0150412
659.917	0.0150802
659.995	0.0150114
660.073	0.0152410
660.151	0.0149143
660.229	0.0149502
660.308	0.0149801
660.386	0.0151031
660.464	0.0150047
660.542	0.0150871
660.620	0.0150435
660.698	0.0150294
660.776	0.0149967
660.854	0.0151804
660.933	0.0150049
661.011	0.0149426
661.089	0.0150791
661.167	0.0151001
661.245	0.0151566
661.323	0.0150473
661.401	0.0150975
661.479	0.0150334
661.558	0.0151487
661.636	0.0150399
661.714	0.0150761
661.792	0.0150489
661.870	0.0149560
661.948	0.0149889
662.026	0.0151603
662.104	0.0150107
662.183	0.0151212
662.261	0.0151031
662.339	0.0151460
662.417	0.0150429
662.495	0.0151798
662.573	0.0150927
662.651	0.0151796
662.729	0.0150397
662.808	0.0151778
662.886	0.0150905
662.964	0.0150510
663.042	0.0152264
663.120	0.0152590
663.198	0.0149754
663.276	0.0149522
663.354	0.0151511
663.433	0.0149813
663.511	0.0150246
663.589	0.0152099
663.667	0.0150378
663.745	0.0149757
663.823	0.0150059
663.901	0.0151147
663.979	0.0150774
664.058	0.0151236
664.136	0.0151499
664.214	0.0150658
664.292	0.0149827
664.370	0.0150098
664.448	0.0151971
664.526	0.0150356
664.604	0.0151166
664.683	0.0151447
664.761	0.0150685
664.839	0.0151157
664.917	0.0152013
664.995	0.0150047
665.073	0.0150477
665.151	0.0151940
665.229	0.0150452
665.308	0.0149753
665.386	0.0150913
665.464	0.0151234
665.542	0.0151437
665.620	0.0150018
665.698	0.0149928
665.776	0.0152096
665.854	0.0151826
665.933	0.0149956
666.011	0.0151668
666.089	0.0150591
666.167	0.0150223
666.245	0.0150536
666.323	0.0152211
666.401	0.0149315
666.479	0.0150082
666.558	0.0149432
666.636	0.0149989
666.714	0.0151400
666.792	0.0149671
666.870	0.0150455
666.948	0.0149338
667.026	0.0151654
667.104	0.0151619
667.183	0.0151102
667.261	0.0149901
667.339	0.0150770
667.417	0.0151044
667.495	0.0151310
667.573	0.0150603
667.651	0.0151833
667.729	0.0149889
667.808	0.0149886
667.886	0.0151604
667.964	0.0150990
668.042	0.0150494
668.120	0.0150646
668.198	0.0150739
668.276	0.0148492
668.354	0.0149606
668.433	0.0150767
668.511	0.0149615
668.589	0.0150442
668.667	0.0150037
668.745	0.0149772
668.823	0.0149409
668.901	0.0149718
668.979	0.0149238
669.058	0.0151176
669.136	0.0151992
669.214	0.0149268
669.292	0.0150647
669.370	0.0151054
669.448	0.0150962
669.526	0.0150879
669.604	0.0150981
669.683	0.0149639
669.761	0.0151320
669.839	0.0151690
669.917	0.0149799
669.995	0.0150596
670.073	0.0150134
670.151	0.0150912
670.229	0.0150228
670.308	0.0150317
670.386	0.0149953
670.464	0.0151366
670.542	0.0150120
670.620	0.0149113
670.698	0.0149711
670.776	0.0149974
670.854	0.0150899
670.933	0.0150395
671.011	0.0149422
671.089	0.0151107
671.167	0.0148638
671.245	0.0151533
671.323	0.0151385
671.401	0.0149508
671.479	0.0150761
671.558	0.0149976
671.636	0.0150822
671.714	0.0150934
671.792	0.0150312
671.870	0.0149646
671.948	0.0150296
672.026	0.0150470
672.104	0.0149429
672.183	0.0151219
672.261	0.0152116
672.339	0.0150545
672.417	0.0149901
672.495	0.0150938
672.573	0.0150582
672.651	0.0149288
672.729	0.0149612
672.808	0.0151099
672.886	0.0151461
672.964	0.0151048
673.042	0.0150114
673.120	0.0149889
673.198	0.0151443
673.276	0.0150455
673.354	0.0149866
673.433	0.0151149
673.511	0.0150588
673.589	0.0151102
673.667	0.0151389
673.745	0.0150509
673.823	0.0150470
673.901	0.0149833
673.979	0.0151024
674.058	0.0149377
674.136	0.0151122
674.214	0.0150406
674.292	0.0150688
674.370	0.0149406
674.448	0.0150090
674.526	0.0151149
674.604	0.0151310
674.683	0.0150789
674.761	0.0151604
674.839	0.0151494
674.917	0.0150083
674.995	0.0149990
675.073	0.0150100
675.151	0.0149841
675.229	0.0151265
675.308	0.0151383
675.386	0.0151949
675.464	0.0148935
675.542	0.0148898
675.620	0.0149717
675.698	0.0150220
675.776	0.0150546
675.854	0.0151818
675.933	0.0150957
676.011	0.0151182
676.089	0.0151261
676.167	0.0152049
676.245	0.0150196
676.323	0.0150484
676.401	0.0150721
676.479	0.0150677
676.558	0.0150620
676.636	0.0151505
676.714	0.0150858
676.792	0.0150375
676.870	0.0150124
676.948	0.0151455
677.026	0.0151096
677.104	0.0150777
677.183	0.0150076
677.261	0.0151697
677.339	0.0151878
677.417	0.0150905
677.495	0.0151278
677.573	0.0151742
677.651	0.0150399
677.729	0.0150282
677.808	0.0151820
677.886	0.0151127
677.964	0.0151500
678.042	0.0152374
678.120	0.0150314
678.198	0.0150977
678.276	0.0152477
678.354	0.0150993
678.433	0.0151497
678.511	0.0151268
678.589	0.0150612
678.667	0.0150026
678.745	0.0150218
678.823	0.0151038
678.901	0.0151434
678.979	0.0150567
679.058	0.0150407
679.136	0.0151898
679.214	0.0150491
679.292	0.0150700
679.370	0.0150844
679.448	0.0151067
679.526	0.0150379
679.604	0.0150723
679.683	0.0150787
679.761	0.0152065
679.839	0.0151347
679.917	0.0150455
679.995	0.0150157
680.073	0.0151104
680.151	0.0151762
680.229	0.0150145
680.308	0.0152162
680.386	0.0152024
680.464	0.0150360
680.542	0.0151135
680.620	0.0151919
680.698	0.0150678
680.776	0.0150953
680.854	0.0149841
680.933	0.0151249
681.011	0.0149734
681.089	0.0150988
681.167	0.0150546
681.245	0.0150288
681.323	0.0149422
681.401	0.0150261
681.479	0.0150974
681.558	0.0150848
681.636	0.0149077
681.714	0.0150684
681.792	0.0150868
681.870	0.0150469
681.948	0.0150800
682.026	0.0150910
682.104	0.0150988
682.183	0.0150050
682.261	0.0149068
682.339	0.0150069
682.417	0.0150114
682.495	0.0149999
682.573	0.0150073
682.651	0.0150336
682.729	0.0151091
682.808	0.0150564
682.886	0.0148840
682.964	0.0151337
683.042	0.0151344
683.120	0.0149506
683.198	0.0150761
683.276	0.0149719
683.354	0.0151015
683.433	0.0149361
683.511	0.0151380
683.589	0.0150765
683.667	0.0150888
683.745	0.0149332
683.823	0.0150034
683.901	0.0151662
683.979	0.0151063
684.058	0.0150852
684.136	0.0152798
684.214	0.0151613
684.292	0.0150131
684.370	0.0149380
684.448	0.0150816
684.526	0.0150408
684.604	0.0150568
684.683	0.0151373
684.761	0.0149229
684.839	0.0150807
684.917	0.0150532
684.995	0.0150136
685.073	0.0150655
685.151	0.0150054
685.229	0.0150684
685.308	0.0151323
685.386	0.0149754
685.464	0.0149583
685.542	0.0150523
685.620	0.0150652
685.698	0.0150373
685.776	0.0151159
685.854	0.0149994
685.933	0.0149171
686.011	0.0150014
686.089	0.0150152
686.167	0.0150343
686.245	0.0150120
686.323	0.0150827
686.401	0.0150543
686.479	0.0150522
686.558	0.0150413
686.636	0.0151350
686.714	0.0151003
686.792	0.0150926
686.870	0.0151182
686.948	0.0150336
687.026	0.0150979
687.104	0.0151838
687.183	0.0151414
687.261	0.0150163
687.339	0.0151398
687.417	0.0150955
687.495	0.0150771
687.573	0.0149919
687.651	0.0151652
687.729	0.0150724
687.808	0.0151778
687.886	0.0150742
687.964	0.0152139
688.042	0.0152105
688.120	0.0151086
688.198	0.0151807
688.276	0.0151921
688.354	0.0151776
688.433	0.0151564
688.511	0.0152023
688.589	0.0151344
688.667	0.0152158
688.745	0.0151588
688.823	0.0150493
688.901	0.0150491
688.979	0.0151701
689.058	0.0150965
689.136	0.0149589
689.214	0.0150905
689.292	0.0150611
689.370	0.0150356
689.448	0.0151109
689.526	0.0150744
689.604	0.0151291
689.683	0.0151757
689.761	0.0151344
689.839	0.0151069
689.917	0.0150334
689.995	0.0150684
690.073	0.0150940
690.151	0.0152321
690.229	0.0151017
690.308	0.0152444
690.386	0.0151227
690.464	0.0151721
690.542	0.0152324
690.620	0.0152208
690.698	0.0151303
690.776	0.0152413
690.854	0.0151723
690.933	0.0151926
691.011	0.0153376
691.089	0.0152314
691.167	0.0151381
691.245	0.0150652
691.323	0.0150771
691.401	0.0151677
691.479	0.0151570
691.558	0.0151535
691.636	0.0151875
691.714	0.0151788
691.792	0.0149359
691.870	0.0149201
691.948	0.0153487
692.026	0.0151909
692.104	0.0151226
692.183	0.0151484
692.261	0.0150554
692.339	0.0151067
692.417	0.0152245
692.495	0.0151580
692.573	0.0150657
692.651	0.0151329
692.729	0.0151717
692.808	0.0149149
692.886	0.0150619
692.964	0.0151555
693.042	0.0150603
693.120	0.0152108
693.198	0.0150957
693.276	0.0151284
693.354	0.0151049
693.433	0.0149976
693.511	0.0150272
693.589	0.0150214
693.667	0.0150208
693.745	0.0149323
693.823	0.0150465
693.901	0.0149998
693.979	0.0149208
694.058	0.0149689
694.136	0.0150203
694.214	0.0150305
694.292	0.0150430
694.370	0.0150197
694.448	0.0149753
694.526	0.0150512
694.604	0.0149522
694.683	0.0150063
694.761	0.0150122
694.839	0.0149512
694.917	0.0149806
694.995	0.0149021
695.073	0.0150114
695.151	0.0152033
695.229	0.0149159
695.308	0.0148648
695.386	0.0149707
695.464	0.0150107
695.542	0.0150980
695.620	0.0149786
695.698	0.0150977
695.776	0.0149995
695.854	0.0149803
695.933	0.0149286
696.011	0.0149567
696.089	0.0149405
696.167	0.0150597
696.245	0.0150609
696.323	0.0150809
696.401	0.0150272
696.479	0.0149876
696.558	0.0150600
696.636	0.0150823
696.714	0.0150906
696.792	0.0150302
696.870	0.0150019
696.948	0.0149922
697.026	0.0150139
697.104	0.0151626
697.183	0.0151061
697.261	0.0150331
697.339	0.0150758
697.417	0.0150345
697.495	0.0151116
697.573	0.0151154
697.651	0.0149682
697.729	0.0150009
697.808	0.0151012
697.886	0.0151965
697.964	0.0150544
698.042	0.0150624
698.120	0.0150442
698.198	0.0151180
698.276	0.0150471
698.354	0.0150808
698.433	0.0150556
698.511	0.0151139
698.589	0.0151649
698.667	0.0151067
698.745	0.0150215
698.823	0.0151309
698.901	0.0151958
698.979	0.0150211
699.058	0.0150979
699.136	0.0151493
699.214	0.0151505
699.292	0.0151305
699.370	0.0150729
699.448	0.0151553
699.526	0.0151709
699.604	0.0150159
699.683	0.0150314
699.761	0.0150190
699.839	0.0150894
699.917	0.0151482
699.995	0.0149865
700.073	0.0149908
700.151	0.0150822
700.229	0.0149834
700.308	0.0150161
700.386	0.0150050
700.464	0.0150636
700.542	0.0150972
700.620	0.0151134
700.698	0.0151136
700.776	0.0151023
700.854	0.0151109
700.933	0.0151706
701.011	0.0151075
701.089	0.0150592
701.167	0.0151115
701.245	0.0151456
701.323	0.0151694
701.401	0.0151992
701.479	0.0150533
701.558	0.0150070
701.636	0.0151588
701.714	0.0152161
701.792	0.0150391
701.870	0.0150324
701.948	0.0150707
702.026	0.0150731
702.104	0.0148714
702.183	0.0149113
702.261	0.0151070
702.339	0.0150778
702.417	0.0150935
702.495	0.0150139
702.573	0.0150015
702.651	0.0149821
702.729	0.0149306
702.808	0.0149658
702.886	0.0149015
702.964	0.0151328
703.042	0.0151656
703.120	0.0150806
703.198	0.0151012
703.276	0.0150867
703.354	0.0150932
703.433	0.0151504
703.511	0.0149708
703.589	0.0151163
703.667	0.0151332
703.745	0.0149914
703.823	0.0151231
703.901	0.0150071
703.979	0.0151117
704.058	0.0152280
704.136	0.0151944
704.214	0.0151955
704.292	0.0152673
704.370	0.0150994
704.448	0.0150385
704.526	0.0151894
704.604	0.0149623
704.683	0.0148550
704.761	0.0150330
704.839	0.0150135
704.917	0.0150462
704.995	0.0149397
705.073	0.0149298
705.151	0.0148635
705.229	0.0149880
705.308	0.0149475
705.386	0.0150373
705.464	0.0149210
705.542	0.0149872
705.620	0.0149600
705.698	0.0150924
705.776	0.0149982
705.854	0.0149506
705.933	0.0152297
706.011	0.0150703
706.089	0.0148930
706.167	0.0150858
706.245	0.0151141
706.323	0.0150034
706.401	0.0149928
706.479	0.0150210
706.558	0.0149389
706.636	0.0151657
706.714	0.0150773
706.792	0.0151077
706.870	0.0150981
706.948	0.0150314
707.026	0.0149971
707.104	0.0147922
707.183	0.0149668
707.261	0.0149329
707.339	0.0149812
707.417	0.0150123
707.495	0.0149412
707.573	0.0149981
707.651	0.0150423
707.729	0.0150834
707.808	0.0150530
707.886	0.0151008
707.964	0.0150266
708.042	0.0150954
708.120	0.0149718
708.198	0.0148418
708.276	0.0151151
708.354	0.0152625
708.433	0.0149770
708.511	0.0150089
708.589	0.0150897
708.667	0.0151155
708.745	0.0151961
708.823	0.0151479
708.901	0.0152650
708.979	0.0151705
709.058	0.0153107
709.136	0.0151479
709.214	0.0152695
709.292	0.0151501
709.370	0.0151759
709.448	0.0151961
709.526	0.0152353
709.604	0.0152087
709.683	0.0151700
709.761	0.0149223
709.839	0.0151301
709.917	0.0150570
709.995	0.0151293
710.073	0.0150578
710.151	0.0149290
710.229	0.0149501
710.308	0.0150735
710.386	0.0148374
710.464	0.0150517
710.542	0.0150018
710.620	0.0149723
710.698	0.0149345
710.776	0.0147842
710.854	0.0149552
710.933	0.0150928
711.011	0.0149802
711.089	0.0150610
711.167	0.0151155
711.245	0.0151380
711.323	0.0149591
711.401	0.0151809
711.479	0.0151720
711.558	0.0150436
711.636	0.0150304
711.714	0.0149870
711.792	0.0150568
711.870	0.0151623
711.948	0.0149930
712.026	0.0150568
712.104	0.0151268
712.183	0.0152623
712.261	0.0150755
712.339	0.0150765
712.417	0.0150092
712.495	0.0149805
712.573	0.0150615
712.651	0.0152140
712.729	0.0150217
712.808	0.0152198
712.886	0.0152093
712.964	0.0150724
713.042	0.0151427
713.120	0.0151798
713.198	0.0150688
713.276	0.0150557
713.354	0.0150994
713.433	0.0151958
713.511	0.0151852
713.589	0.0151662
713.667	0.0149820
713.745	0.0151734
713.823	0.0151279
713.901	0.0151714
713.979	0.0149542
714.058	0.0149862
714.136	0.0151701
714.214	0.0151692
714.292	0.0150940
714.370	0.0150948
714.448	0.0150115
714.526	0.0151228
714.604	0.0152513
714.683	0.0150516
714.761	0.0151066
714.839	0.0151540
714.917	0.0151192
714.995	0.0152461
715.073	0.0151322
715.151	0.0151810
715.229	0.0150631
715.308	0.0149690
715.386	0.0150529
715.464	0.0151176
715.542	0.0151341
715.620	0.0152107
715.698	0.0151512
715.776	0.0150313
715.854	0.0150401
715.933	0.0151163
716.011	0.0151993
716.089	0.0152110
716.167	0.0152071
716.245	0.0152608
716.323	0.0151000
716.401	0.0151308
716.479	0.0150398
716.558	0.0151607
716.636	0.0150404
716.714	0.0151850
716.792	0.0150256
716.870	0.0149642
716.948	0.0152583
717.026	0.0151885
717.104	0.0150677
717.183	0.0151467
717.261	0.0151806
717.339	0.0150587
717.417	0.0150288
717.495	0.0150101
717.573	0.0150734
717.651	0.0150710
717.729	0.0151216
717.808	0.0150554
717.886	0.0150940
717.964	0.0150244
718.042	0.0150274
718.120	0.0151362
718.198	0.0151929
718.276	0.0151099
718.354	0.0149998
718.433	0.0150220
718.511	0.0149261
718.589	0.0149987
718.667	0.0150763
718.745	0.0149705
718.823	0.0150783
718.901	0.0149683
718.979	0.0149691
719.058	0.0150102
719.136	0.0150555
719.214	0.0150328
719.292	0.0149744
719.370	0.0148624
719.448	0.0149744
719.526	0.0148788
719.604	0.0151083
719.683	0.0149290
719.761	0.0148985
719.839	0.0149460
719.917	0.0149700
719.995	0.0151424
720.073	0.0149339
720.151	0.0151170
720.229	0.0149263
720.308	0.0149610
720.386	0.0149646
720.464	0.0149873
720.542	0.0149741
720.620	0.0150246
720.698	0.0150036
720.776	0.0149345
720.854	0.0150349
720.933	0.0150336
721.011	0.0150002
721.089	0.0150391
721.167	0.0151366
721.245	0.0150755
721.323	0.0151219
721.401	0.0150809
721.479	0.0150410
721.558	0.0150220
721.636	0.0152207
721.714	0.0150267
721.792	0.0151823
721.870	0.0151302
721.948	0.0151933
722.026	0.0151343
722.104	0.0151373
722.183	0.0152338
722.261	0.0152795
722.339	0.0150899
722.417	0.0151917
722.495	0.0150505
722.573	0.0151206
722.651	0.0149658
722.729	0.0151706
722.808	0.0151276
722.886	0.0150478
722.964	0.0149622
723.042	0.0149654
723.120	0.0151088
723.198	0.0150621
723.276	0.0151951
723.354	0.0151019
723.433	0.0151881
723.511	0.0151025
723.589	0.0149529
723.667	0.0150522
723.745	0.0150675
723.823	0.0151461
723.901	0.0150421
723.979	0.0150009
724.058	0.0149598
724.136	0.0149798
724.214	0.0149503
724.292	0.0150219
724.370	0.0148764
724.448	0.0150574
724.526	0.0149456
724.604	0.0149682
724.683	0.0149747
724.761	0.0151261
724.839	0.0151242
724.917	0.0148785
724.995	0.0150436
725.073	0.0151579
725.151	0.0149437
725.229	0.0149928
725.308	0.0151573
725.386	0.0151027
725.464	0.0150378
725.542	0.0149401
725.620	0.0151398
725.698	0.0150159
725.776	0.0149697
725.854	0.0150617
725.933	0.0149637
726.011	0.0150134
726.089	0.0150401
726.167	0.0150364
726.245	0.0152304
726.323	0.0150460
726.401	0.0151201
726.479	0.0149998
726.558	0.0150333
726.636	0.0150153
726.714	0.0152209
726.792	0.0150347
726.870	0.0149750
726.948	0.0150903
727.026	0.0151864
727.104	0.0150319
727.183	0.0151159
727.261	0.0151253
727.339	0.0151728
727.417	0.0151424
727.495	0.0152731
727.573	0.0151899
727.651	0.0151572
727.729	0.0152317
727.808	0.0150447
727.886	0.0150837
727.964	0.0151978
728.042	0.0150503
728.120	0.0150637
728.198	0.0150327
728.276	0.0150172
728.354	0.0150385
728.433	0.0151583
728.511	0.0151433
728.589	0.0149514
728.667	0.0149809
728.745	0.0148901
728.823	0.0150262
728.901	0.0150611
728.979	0.0151120
729.058	0.0149923
729.136	0.0150989
729.214	0.0151727
729.292	0.0150809
729.370	0.0150204
729.448	0.0151025
729.526	0.0150930
729.604	0.0149834
729.683	0.0151021
729.761	0.0149940
729.839	0.0151498
729.917	0.0151447
729.995	0.0149780
730.073	0.0150124
730.151	0.0149943
730.229	0.0150613
730.308	0.0149609
730.386	0.0150802
730.464	0.0152098
730.542	0.0152343
730.620	0.0152026
730.698	0.0151091
730.776	0.0150915
730.854	0.0150877
730.933	0.0151250
731.011	0.0151642
731.089	0.0151775
731.167	0.0151690
731.245	0.0152024
731.323	0.0151525
731.401	0.0150462
731.479	0.0151867
731.558	0.0151558
731.636	0.0151722
731.714	0.0151077
731.792	0.0150701
731.870	0.0150887
731.948	0.0151530
732.026	0.0150275
732.104	0.0152036
732.183	0.0152109
732.261	0.0150977
732.339	0.0149654
732.417	0.0151040
732.495	0.0149751
732.573	0.0150539
732.651	0.0148819
732.729	0.0152110
732.808	0.0151428
732.886	0.0149695
732.964	0.0150109
733.042	0.0150594
733.120	0.0150260
733.198	0.0150430
733.276	0.0151244
733.354	0.0151045
733.433	0.0150977
733.511	0.0149519
733.589	0.0150811
733.667	0.0151026
733.745	0.0149626
733.823	0.0149533
733.901	0.0151533
733.979	0.0149889
734.058	0.0148727
734.136	0.0149871
734.214	0.0149802
734.292	0.0148319
734.370	0.0148879
734.448	0.0149177
734.526	0.0148736
734.604	0.0149229
734.683	0.0148955
734.761	0.0150589
734.839	0.0149834
734.917	0.0149541
734.995	0.0149919
735.073	0.0149950
735.151	0.0150320
735.229	0.0151342
735.308	0.0150472
735.386	0.0149992
735.464	0.0150282
735.542	0.0150497
735.620	0.0150351
735.698	0.0149609
735.776	0.0151264
735.854	0.0150695
735.933	0.0150818
736.011	0.0149029
736.089	0.0150599
736.167	0.0151188
736.245	0.0150327
736.323	0.0150197
736.401	0.0149742
736.479	0.0152157
736.558	0.0151978
736.636	0.0149245
736.714	0.0150601
736.792	0.0151041
736.870	0.0151653
736.948	0.0150671
737.026	0.0149753
737.104	0.0149312
737.183	0.0150763
737.261	0.0150352
737.339	0.0152430
737.417	0.0149248
737.495	0.0151772
737.573	0.0151416
737.651	0.0149860
737.729	0.0150093
737.808	0.0151541
737.886	0.0151155
737.964	0.0151387
738.042	0.0152046
738.120	0.0151282
738.198	0.0150449
738.276	0.0151190
738.354	0.0150863
738.433	0.0150803
738.511	0.0152021
738.589	0.0150484
738.667	0.0149750
738.745	0.0150163
738.823	0.0151466
738.901	0.0150865
738.979	0.0150559
739.058	0.0151443
739.136	0.0149972
739.214	0.0150644
739.292	0.0150502
739.370	0.0150491
739.448	0.0150237
739.526	0.0149287
739.604	0.0150246
739.683	0.0151922
739.761	0.0150364
739.839	0.0150439
739.917	0.0150294
739.995	0.0151870
740.073	0.0149783
740.151	0.0150274
740.229	0.0152228
740.308	0.0151273
740.386	0.0149964
740.464	0.0151053
740.542	0.0152425
740.620	0.0151857
740.698	0.0151597
740.776	0.0152435
740.854	0.0152277
740.933	0.0150845
741.011	0.0150962
741.089	0.0151052
741.167	0.0151158
741.245	0.0150018
741.323	0.0150333
741.401	0.0150606
741.479	0.0151022
741.558	0.0149803
741.636	0.0150744
741.714	0.0151610
741.792	0.0149020
741.870	0.0150767
741.948	0.0151068
742.026	0.0150400
742.104	0.0150817
742.183	0.0150666
742.261	0.0150816
742.339	0.0150230
742.417	0.0151747
742.495	0.0150737
742.573	0.0150805
742.651	0.0150938
742.729	0.0152201
742.808	0.0150638
742.886	0.0151230
742.964	0.0151517
743.042	0.0150120
743.120	0.0151882
743.198	0.0151777
743.276	0.0148833
743.354	0.0150240
743.433	0.0151113
743.511	0.0149838
743.589	0.0149829
743.667	0.0149291
743.745	0.0148577
743.823	0.0149821
743.901	0.0149202
743.979	0.0151646
744.058	0.0149756
744.136	0.0150209
744.214	0.0150006
744.292	0.0149039
744.370	0.0148928
744.448	0.0150221
744.526	0.0150288
744.604	0.0149441
744.683	0.0148811
744.761	0.0149966
744.839	0.0151008
744.917	0.0150571
744.995	0.0149960
745.073	0.0151260
745.151	0.0148791
745.229	0.0150382
745.308	0.0150632
745.386	0.0150411
745.464	0.0150916
745.542	0.0150713
745.620	0.0149913
745.698	0.0149138
745.776	0.0150417
745.854	0.0151521
745.933	0.0151332
746.011	0.0150127
746.089	0.0150757
746.167	0.0149591
746.245	0.0151048
746.323	0.0150484
746.401	0.0151120
746.479	0.0148956
746.558	0.0150593
746.636	0.0150893
746.714	0.0151533
746.792	0.0151137
746.870	0.0150961
746.948	0.0150752
747.026	0.0149982
747.104	0.0151001
747.183	0.0150846
747.261	0.0149569
747.339	0.0149731
747.417	0.0149254
747.495	0.0150291
747.573	0.0151026
747.651	0.0150695
747.729	0.0150626
747.808	0.0151095
747.886	0.0151142
747.964	0.0150627
748.042	0.0150311
748.120	0.0151202
748.198	0.0151234
748.276	0.0151027
748.354	0.0151755
748.433	0.0150385
748.511	0.0150551
748.589	0.0150864
748.667	0.0150908
748.745	0.0150162
748.823	0.0150136
748.901	0.0151325
748.979	0.0151031
749.058	0.0150494
749.136	0.0151501
749.214	0.0150372
749.292	0.0149951
749.370	0.0150425
749.448	0.0150397
749.526	0.0149735
749.604	0.0149545
749.683	0.0149987
749.761	0.0151066
749.839	0.0152288
749.917	0.0150449
749.995	0.0149516
750.073	0.0150049
750.151	0.0152262
750.229	0.0151415
750.308	0.0152394
750.386	0.0151706
750.464	0.0150571
750.542	0.0151118
750.620	0.0150697
750.698	0.0150179
750.776	0.0150745
750.854	0.0151441
750.933	0.0149207
751.011	0.0150534
751.089	0.0150894
751.167	0.0151353
751.245	0.0150448
751.323	0.0151218
751.401	0.0150536
751.479	0.0150593
751.558	0.0150666
751.636	0.0149857
751.714	0.0149822
751.792	0.0151211
751.870	0.0150927
751.948	0.0150912
752.026	0.0149667
752.104	0.0149694
752.183	0.0151129
752.261	0.0149545
752.339	0.0149281
752.417	0.0151186
752.495	0.0150446
752.573	0.0149845
752.651	0.0150660
752.729	0.0149706
752.808	0.0150690
752.886	0.0150587
752.964	0.0151068
753.042	0.0150720
753.120	0.0150690
753.198	0.0151426
753.276	0.0151219
753.354	0.0149194
753.433	0.0150982
753.511	0.0149885
753.589	0.0149968
753.667	0.0149461
753.745	0.0150995
753.823	0.0150770
753.901	0.0150208
753.979	0.0152319
754.058	0.0148465
754.136	0.0150608
754.214	0.0150782
754.292	0.0149283
754.370	0.0151450
754.448	0.0149081
754.526	0.0149068
754.604	0.0149356
754.683	0.0150206
754.761	0.0150304
754.839	0.0149927
754.917	0.0150163
754.995	0.0149346
755.073	0.0151267
755.151	0.0150443
755.229	0.0149749
755.308	0.0150098
755.386	0.0151299
755.464	0.0150452
755.542	0.0149068
755.620	0.0150321
755.698	0.0151328
755.776	0.0151206
755.854	0.0151042
755.933	0.0151688
756.011	0.0150109
756.089	0.0151057
756.167	0.0150043
756.245	0.0148752
756.323	0.0149429
756.401	0.0150210
756.479	0.0149522
756.558	0.0150013
756.636	0.0149310
756.714	0.0150053
756.792	0.0149825
756.870	0.0149049
756.948	0.0149635
757.026	0.0149187
757.104	0.0149603
757.183	0.0150347
757.261	0.0150626
757.339	0.0150481
757.417	0.0149359
757.495	0.0149602
757.573	0.0151150
757.651	0.0148857
757.729	0.0149463
757.808	0.0150831
757.886	0.0151182
757.964	0.0150404
758.042	0.0148167
758.120	0.0150686
758.198	0.0149686
758.276	0.0150764
758.354	0.0151516
758.433	0.0149634
758.511	0.0149900
758.589	0.0149974
758.667	0.0149853
758.745	0.0149392
758.823	0.0149390
758.901	0.0150556
758.979	0.0150927
759.058	0.0149921
759.136	0.0149620
759.214	0.0151426
759.292	0.0151302
759.370	0.0149583
759.448	0.0149382
759.526	0.0149853
759.604	0.0149535
759.683	0.0150532
759.761	0.0150549
759.839	0.0150102
759.917	0.0150594
759.995	0.0148715
760.073	0.0150414
760.151	0.0150981
760.229	0.0150505
760.308	0.0150468
760.386	0.0150525
760.464	0.0150483
760.542	0.0151393
760.620	0.0150406
760.698	0.0150842
760.776	0.0150768
760.854	0.0151568
760.933	0.0151017
761.011	0.0148936
761.089	0.0149454
761.167	0.0152110
761.245	0.0150323
761.323	0.0148902
761.401	0.0150330
761.479	0.0149952
761.558	0.0150712
761.636	0.0150630
761.714	0.0149357
761.792	0.0150539
761.870	0.0150328
761.948	0.0149717
762.026	0.0151189
762.104	0.0151242
762.183	0.0150053
762.261	0.0149798
762.339	0.0151478
762.417	0.0150279
762.495	0.0150166
762.573	0.0150751
762.651	0.0150591
762.729	0.0150977
762.808	0.0151159
762.886	0.0150188
762.964	0.0150136
763.042	0.0149534
763.120	0.0149635
763.198	0.0150715
763.276	0.0150796
763.354	0.0151124
763.433	0.0149025
763.511	0.0149693
763.589	0.0150969
763.667	0.0150404
763.745	0.0148662
763.823	0.0150314
763.901	0.0150600
763.979	0.0151266
764.058	0.0150981
764.136	0.0149668
764.214	0.0150666
764.292	0.0151925
764.370	0.0150400
764.448	0.0150267
764.526	0.0149219
764.604	0.0150825
764.683	0.0151308
764.761	0.0150266
764.839	0.0150308
764.917	0.0149799
764.995	0.0150040
765.073	0.0151184
765.151	0.0150261
765.229	0.0151009
765.308	0.0150378
765.386	0.0150593
765.464	0.0150755
765.542	0.0150298
765.620	0.0150224
765.698	0.0151226
765.776	0.0151681
765.854	0.0149812
765.933	0.0150893
766.011	0.0150992
766.089	0.0150565
766.167	0.0151365
766.245	0.0150145
766.323	0.0151187
766.401	0.0151000
766.479	0.0150660
766.558	0.0150751
766.636	0.0151377
766.714	0.0149784
766.792	0.0150147
766.870	0.0150510
766.948	0.0150950
767.026	0.0150529
767.104	0.0150515
767.183	0.0151468
767.261	0.0151058
767.339	0.0151142
767.417	0.0150871
767.495	0.0149764
767.573	0.0149807
767.651	0.0149652
767.729	0.0149763
767.808	0.0151200
767.886	0.0150169
767.964	0.0150510
768.042	0.0150620
768.120	0.0148607
768.198	0.0151203
768.276	0.0151675
768.354	0.0149838
768.433	0.0149796
768.511	0.0150216
768.589	0.0151096
768.667	0.0150945
768.745	0.0151080
768.823	0.0151003
768.901	0.0151145
768.979	0.0149882
769.058	0.0150359
769.136	0.0151372
769.214	0.0149768
769.292	0.0149825
769.370	0.0149238
769.448	0.0150985
769.526	0.0150912
769.604	0.0151019
769.683	0.0150125
769.761	0.0150011
769.839	0.0149992
769.917	0.0149848
769.995	0.0149551
770.073	0.0151134
770.151	0.0152245
770.229	0.0149727
770.308	0.0149644
770.386	0.0150237
770.464	0.0151410
770.542	0.0150844
770.620	0.0151131
770.698	0.0152043
770.776	0.0150304
770.854	0.0152180
770.933	0.0152265
771.011	0.0150506
771.089	0.0150798
771.167	0.0150321
771.245	0.0150707
771.323	0.0150357
771.401	0.0151260
771.479	0.0150368
771.558	0.0149647
771.636	0.0150703
771.714	0.0149808
771.792	0.0150706
771.870	0.0149999
771.948	0.0149863
772.026	0.0150674
772.104	0.0150391
772.183	0.0150284
772.261	0.0150227
772.339	0.0149939
772.417	0.0151241
772.495	0.0150959
772.573	0.0150659
772.651	0.0149812
772.729	0.0150072
772.808	0.0151389
772.886	0.0151736
772.964	0.0150094
773.042	0.0150259
773.120	0.0150381
773.198	0.0149094
773.276	0.0150574
773.354	0.0150981
773.433	0.0150957
773.511	0.0149788
773.589	0.0150821
773.667	0.0150106
773.745	0.0150457
773.823	0.0149303
773.901	0.0150429
773.979	0.0150421
774.058	0.0150188
774.136	0.0150437
774.214	0.0150996
774.292	0.0149114
774.370	0.0150596
774.448	0.0151505
774.526	0.0150705
774.604	0.0150902
774.683	0.0150282
774.761	0.0149706
774.839	0.0151314
774.917	0.0150834
774.995	0.0152151
775.073	0.0149535
775.151	0.0150505
775.229	0.0150684
775.308	0.0150407
775.386	0.0149992
775.464	0.0150663
775.542	0.0150277
775.620	0.0150825
775.698	0.0150443
775.776	0.0151700
775.854	0.0150480
775.933	0.0150543
776.011	0.0149438
776.089	0.0150166
776.167	0.0150814
776.245	0.0150410
776.323	0.0150673
776.401	0.0150294
776.479	0.0150143
776.558	0.0151306
776.636	0.0151732
776.714	0.0150484
776.792	0.0150234
776.870	0.0150762
776.948	0.0150075
777.026	0.0151075
777.104	0.0153101
777.183	0.0150530
777.261	0.0148724
777.339	0.0151062
777.417	0.0151303
777.495	0.0150751
777.573	0.0150401
777.651	0.0151870
777.729	0.0150254
777.808	0.0150121
777.886	0.0150848
777.964	0.0151263
778.042	0.0151786
778.120	0.0151072
778.198	0.0150585
778.276	0.0150665
778.354	0.0150793
778.433	0.0150115
778.511	0.0150578
778.589	0.0150098
778.667	0.0150537
778.745	0.0150456
778.823	0.0150753
778.901	0.0150216
778.979	0.0151035
779.058	0.0150245
779.136	0.0149134
779.214	0.0150739
779.292	0.0151315
779.370	0.0150670
779.448	0.0151349
779.526	0.0150126
779.604	0.0151225
779.683	0.0150145
779.761	0.0150092
779.839	0.0150511
779.917	0.0150657
779.995	0.0150278
780.073	0.0151556
780.151	0.0151181
780.229	0.0150810
780.308	0.0151945
780.386	0.0151241
780.464	0.0150821
780.542	0.0150032
780.620	0.0149261
780.698	0.0150437
780.776	0.0151460
780.854	0.0150498
780.933	0.0150505
781.011	0.0150735
781.089	0.0149841
781.167	0.0150346
781.245	0.0150834
781.323	0.0150900
781.401	0.0149884
781.479	0.0150269
781.558	0.0150886
781.636	0.0151442
781.714	0.0150593
781.792	0.0150394
781.870	0.0150059
781.948	0.0149811
782.026	0.0150577
782.104	0.0151041
782.183	0.0150146
782.261	0.0150053
782.339	0.0149152
782.417	0.0150220
782.495	0.0150217
782.573	0.0149973
782.651	0.0151657
782.729	0.0150022
782.808	0.0150141
782.886	0.0149701
782.964	0.0149856
783.042	0.0149797
783.120	0.0149928
783.198	0.0150401
783.276	0.0151390
783.354	0.0152072
783.433	0.0149258
783.511	0.0150034
783.589	0.0150000
783.667	0.0150827
783.745	0.0149126
783.823	0.0150167
783.901	0.0149821
783.979	0.0151045
784.058	0.0150240
784.136	0.0150426
784.214	0.0151492
784.292	0.0150626
784.370	0.0150514
784.448	0.0150906
784.526	0.0151221
784.604	0.0151352
784.683	0.0149569
784.761	0.0150037
784.839	0.0150605
784.917	0.0150815
784.995	0.0151879
785.073	0.0150705
785.151	0.0150493
785.229	0.0151314
785.308	0.0150970
785.386	0.0149988
785.464	0.0150188
785.542	0.0150531
785.620	0.0151007
785.698	0.0149927
785.776	0.0150414
785.854	0.0150629
785.933	0.0151064
786.011	0.0152293
786.089	0.0150185
786.167	0.0150915
786.245	0.0151929
786.323	0.0150672
786.401	0.0151210
786.479	0.0151150
786.558	0.0150627
786.636	0.0151493
786.714	0.0150479
786.792	0.0150554
786.870	0.0150746
786.948	0.0151253
787.026	0.0150661
787.104	0.0150934
787.183	0.0151070
787.261	0.0151954
787.339	0.0152271
787.417	0.0151940
787.495	0.0151350
787.573	0.0150883
787.651	0.0149845
787.729	0.0150371
787.808	0.0150179
787.886	0.0150928
787.964	0.0151577
788.042	0.0151161
788.120	0.0150105
788.198	0.0151234
788.276	0.0153072
788.354	0.0151092
788.433	0.0151520
788.511	0.0150967
788.589	0.0150658
788.667	0.0150383
788.745	0.0150692
788.823	0.0150444
788.901	0.0151164
788.979	0.0150840
789.058	0.0150465
789.136	0.0150940
789.214	0.0150323
789.292	0.0152360
789.370	0.0150429
789.448	0.0151790
789.526	0.0151656
789.604	0.0150294
789.683	0.0151024
789.761	0.0152077
789.839	0.0152048
789.917	0.0151066
789.995	0.0151134
790.073	0.0150704
790.151	0.0150598
790.229	0.0150821
790.308	0.0151035
790.386	0.0151310
790.464	0.0151484
790.542	0.0151586
790.620	0.0151364
790.698	0.0151273
790.776	0.0150560
790.854	0.0151619
790.933	0.0151217
791.011	0.0149364
791.089	0.0150634
791.167	0.0150882
791.245	0.0150849
791.323	0.0150460
791.401	0.0149677
791.479	0.0150936
791.558	0.0150973
791.636	0.0150180
791.714	0.0150584
791.792	0.0150519
791.870	0.0150064
791.948	0.0150640
792.026	0.0151114
792.104	0.0150003
792.183	0.0149779
792.261	0.0149333
792.339	0.0149424
792.417	0.0149767
792.495	0.0151130
792.573	0.0150746
792.651	0.0150342
792.729	0.0149982
792.808	0.0149728
792.886	0.0150965
792.964	0.0149715
793.042	0.0149387
793.120	0.0150215
793.198	0.0151852
793.276	0.0150889
793.354	0.0151416
793.433	0.0150314
793.511	0.0149295
793.589	0.0150323
793.667	0.0151804
793.745	0.0150097
793.823	0.0151303
793.901	0.0150442
793.979	0.0149581
794.058	0.0150151
794.136	0.0152022
794.214	0.0150315
794.292	0.0149618
794.370	0.0149828
794.448	0.0150053
794.526	0.0151105
794.604	0.0150902
794.683	0.0150627
794.761	0.0150099
794.839	0.0150314
794.917	0.0150060
794.995	0.0150534
795.073	0.0151042
795.151	0.0151035
795.229	0.0151046
795.308	0.0151849
795.386	0.0151138
795.464	0.0150279
795.542	0.0150941
795.620	0.0150671
795.698	0.0150181
795.776	0.0151363
795.854	0.0150949
795.933	0.0150621
796.011	0.0151706
796.089	0.0149630
796.167	0.0150879
796.245	0.0149490
796.323	0.0150799
796.401	0.0150919
796.479	0.0149898
796.558	0.0150314
796.636	0.0151115
796.714	0.0151639
796.792	0.0149969
796.870	0.0148325
796.948	0.0149015
797.026	0.0149724
797.104	0.0150552
797.183	0.0150104
797.261	0.0149923
797.339	0.0148659
797.417	0.0149744
797.495	0.0149662
797.573	0.0149177
797.651	0.0149802
797.729	0.0149608
797.808	0.0150178
797.886	0.0150616
797.964	0.0149696
798.042	0.0149983
798.120	0.0152130
798.198	0.0149196
798.276	0.0150415
798.354	0.0152282
798.433	0.0150183
798.511	0.0151532
798.589	0.0150539
798.667	0.0149875
798.745	0.0150435
798.823	0.0149913
798.901	0.0151712
798.979	0.0151287
799.058	0.0152211
799.136	0.0150947
799.214	0.0149845
799.292	0.0151257
799.370	0.0149354
799.448	0.0151800
799.526	0.0150581
799.604	0.0151508
799.683	0.0151818
799.761	0.0151311
799.839	0.0151598
799.917	0.0151594
799.995	0.0150414
800.073	0.0150987
800.151	0.0151430
800.229	0.0151772
800.308	0.0150523
800.386	0.0150580
800.464	0.0151799
800.542	0.0151185
800.620	0.0150784
800.698	0.0151421
800.776	0.0150690
800.854	0.0150823
800.933	0.0150945
801.011	0.0152486
801.089	0.0151272
801.167	0.0151448
801.245	0.0152459
801.323	0.0149535
801.401	0.0150255
801.479	0.0151690
801.558	0.0151633
801.636	0.0149806
801.714	0.0148630
801.792	0.0150251
801.870	0.0150594
801.948	0.0148795
802.026	0.0149127
802.104	0.0150056
802.183	0.0149442
802.261	0.0150552
802.339	0.0151648
802.417	0.0151101
802.495	0.0150088
802.573	0.0150371
802.651	0.0149670
802.729	0.0149659
802.808	0.0150717
802.886	0.0150195
802.964	0.0150542
803.042	0.0150285
803.120	0.0150212
803.198	0.0149898
803.276	0.0149551
803.354	0.0151246
803.433	0.0150852
803.511	0.0150475
803.589	0.0150170
803.667	0.0151053
803.745	0.0151286
803.823	0.0149155
803.901	0.0151072
803.979	0.0150903
804.058	0.0150152
804.136	0.0150478
804.214	0.0149380
804.292	0.0151503
804.370	0.0150881
804.448	0.0149782
804.526	0.0149972
804.604	0.0151289
804.683	0.0151354
804.761	0.0150777
804.839	0.0150005
804.917	0.0149998
804.995	0.0150168
805.073	0.0151492
805.151	0.0150234
805.229	0.0148998
805.308	0.0151590
805.386	0.0149911
805.464	0.0148896
805.542	0.0151298
805.620	0.0151771
805.698	0.0149667
805.776	0.0150190
805.854	0.0150638
805.933	0.0149975
806.011	0.0151398
806.089	0.0150589
806.167	0.0150448
806.245	0.0150103
806.323	0.0149928
806.401	0.0150847
806.479	0.0150452
806.558	0.0150819
806.636	0.0149915
806.714	0.0150468
806.792	0.0151958
806.870	0.0150179
806.948	0.0150709
807.026	0.0149959
807.104	0.0151315
807.183	0.0149745
807.261	0.0149763
807.339	0.0148985
807.417	0.0152433
807.495	0.0150838
807.573	0.0149854
807.651	0.0151469
807.729	0.0150721
807.808	0.0151788
807.886	0.0151109
807.964	0.0150965
808.042	0.0149947
808.120	0.0151203
808.198	0.0150478
808.276	0.0151385
808.354	0.0151355
808.433	0.0150837
808.511	0.0149519
808.589	0.0151097
808.667	0.0150951
808.745	0.0151692
808.823	0.0151044
808.901	0.0151329
808.979	0.0151392
809.058	0.0151617
809.136	0.0149844
809.214	0.0151276
809.292	0.0151523
809.370	0.0151292
809.448	0.0151273
809.526	0.0150520
809.604	0.0151781
809.683	0.0151864
809.761	0.0152221
809.839	0.0150881
809.917	0.0149756
809.995	0.0150205
810.073	0.0152331
810.151	0.0150559
810.229	0.0150658
810.308	0.0151505
810.386	0.0151084
810.464	0.0150651
810.542	0.0149226
810.620	0.0150893
810.698	0.0151679
810.776	0.0150298
810.854	0.0151732
810.933	0.0151130
811.011	0.0151529
811.089	0.0150464
811.167	0.0149869
811.245	0.0151429
811.323	0.0150250
811.401	0.0150574
811.479	0.0151165
811.558	0.0149435
811.636	0.0151096
811.714	0.0150211
811.792	0.0150494
811.870	0.0149415
811.948	0.0150443
812.026	0.0151414
812.104	0.0150673
812.183	0.0149635
812.261	0.0149334
812.339	0.0149928
812.417	0.0149494
812.495	0.0149651
812.573	0.0150442
812.651	0.0150665
812.729	0.0150925
812.808	0.0150127
812.886	0.0150720
812.964	0.0150074
813.042	0.0150681
813.120	0.0151364
813.198	0.0150372
813.276	0.0150339
813.354	0.0150045
813.433	0.0150880
813.511	0.0152065
813.589	0.0150446
813.667	0.0149500
813.745	0.0152067
813.823	0.0151302
813.901	0.0153253
813.979	0.0150606
814.058	0.0150324
814.136	0.0150459
814.214	0.0151402
814.292	0.0151080
814.370	0.0150689
814.448	0.0151101
814.526	0.0150774
814.604	0.0149846
814.683	0.0150638
814.761	0.0150861
814.839	0.0150323
814.917	0.0151266
814.995	0.0151205
815.073	0.0151124
815.151	0.0150992
815.229	0.0150731
815.308	0.0151528
815.386	0.0151216
815.464	0.0152133
815.542	0.0150587
815.620	0.0149997
815.698	0.0151300
815.776	0.0150366
815.854	0.0151509
815.933	0.0151508
816.011	0.0150409
816.089	0.0150168
816.167	0.0149934
816.245	0.0149119
816.323	0.0149121
816.401	0.0150220
816.479	0.0149046
816.558	0.0150394
816.636	0.0148792
816.714	0.0149186
816.792	0.0149249
816.870	0.0149465
816.948	0.0150023
817.026	0.0150991
817.104	0.0149905
817.183	0.0150361
817.261	0.0150542
817.339	0.0149250
817.417	0.0149921
817.495	0.0150071
817.573	0.0151817
817.651	0.0151155
817.729	0.0150552
817.808	0.0150173
817.886	0.0150394
817.964	0.0151065
818.042	0.0150968
818.120	0.0150054
818.198	0.0149605
818.276	0.0150397
818.354	0.0150364
818.433	0.0151253
818.511	0.0151750
818.589	0.0150730
818.667	0.0151236
818.745	0.0151709
818.823	0.0151989
818.901	0.0150210
818.979	0.0151487
819.058	0.0150253
819.136	0.0152036
819.214	0.0151352
819.292	0.0150099
819.370	0.0152502
819.448	0.0150929
819.526	0.0151212
819.604	0.0150930
819.683	0.0151643
819.761	0.0150600
819.839	0.0150357
819.917	0.0150586
819.995	0.0149687
820.073	0.0149557
820.151	0.0151717
820.229	0.0150248
820.308	0.0150616
820.386	0.0151547
820.464	0.0149954
820.542	0.0150015
820.620	0.0151248
820.698	0.0151771
820.776	0.0150831
820.854	0.0151386
820.933	0.0150333
821.011	0.0151983
821.089	0.0150870
821.167	0.0151659
821.245	0.0152669
821.323	0.0152007
821.401	0.0151242
821.479	0.0150684
821.558	0.0152090
821.636	0.0151511
821.714	0.0150557
821.792	0.0152949
821.870	0.0150872
821.948	0.0149905
822.026	0.0151646
822.104	0.0150710
822.183	0.0150437
822.261	0.0149429
822.339	0.0147973
822.417	0.0149448
822.495	0.0150672
822.573	0.0150800
822.651	0.0149374
822.729	0.0149702
822.808	0.0150002
822.886	0.0149355
822.964	0.0148780
823.042	0.0150244
823.120	0.0150912
823.198	0.0150172
823.276	0.0150859
823.354	0.0152128
823.433	0.0151042
823.511	0.0151244
823.589	0.0152081
823.667	0.0151977
823.745	0.0153109
823.823	0.0152274
823.901	0.0150994
823.979	0.0151698
824.058	0.0152019
824.136	0.0150505
824.214	0.0150697
824.292	0.0150430
824.370	0.0150362
824.448	0.0150507
824.526	0.0149557
824.604	0.0150291
824.683	0.0150585
824.761	0.0152360
824.839	0.0150059
824.917	0.0151038
824.995	0.0152225
825.073	0.0150829
825.151	0.0149730
825.229	0.0151286
825.308	0.0151988
825.386	0.0149894
825.464	0.0151314
825.542	0.0151669
825.620	0.0151452
825.698	0.0150526
825.776	0.0151647
825.854	0.0149502
825.933	0.0150761
826.011	0.0150846
826.089	0.0150890
826.167	0.0150825
826.245	0.0149206
826.323	0.0150941
826.401	0.0149992
826.479	0.0149136
826.558	0.0150440
826.636	0.0150680
826.714	0.0149046
826.792	0.0150784
826.870	0.0148874
826.948	0.0148692
827.026	0.0149465
827.104	0.0148855
827.183	0.0149157
827.261	0.0149547
827.339	0.0148682
827.417	0.0150151
827.495	0.0149342
827.573	0.0150919
827.651	0.0149564
827.729	0.0150516
827.808	0.0149995
827.886	0.0148489
827.964	0.0150585
828.042	0.0151280
828.120	0.0152612
828.198	0.0151389
828.276	0.0150761
828.354	0.0151250
828.433	0.0152044
828.511	0.0151900
828.589	0.0152039
828.667	0.0151199
828.745	0.0151912
828.823	0.0150657
828.901	0.0150414
828.979	0.0151877
829.058	0.0151257
829.136	0.0151247
829.214	0.0150703
829.292	0.0151466
829.370	0.0151307
829.448	0.0150182
829.526	0.0150964
829.604	0.0150036
829.683	0.0150050
829.761	0.0150073
829.839	0.0149263
829.917	0.0149864
829.995	0.0150578
830.073	0.0150008
830.151	0.0147850
830.229	0.0148817
830.308	0.0149222
830.386	0.0149927
830.464	0.0149154
830.542	0.0149426
830.620	0.0150835
830.698	0.0150243
830.776	0.0150551
830.854	0.0150572
830.933	0.0150501
831.011	0.0149816
831.089	0.0151730
831.167	0.0151846
831.245	0.0152131
831.323	0.0150202
831.401	0.0150446
831.479	0.0150775
831.558	0.0150981
831.636	0.0149918
831.714	0.0151597
831.792	0.0149993
831.870	0.0150808
831.948	0.0150702
832.026	0.0151041
832.104	0.0151862
832.183	0.0151482
832.261	0.0150640
832.339	0.0149996
832.417	0.0150108
832.495	0.0151070
832.573	0.0152127
832.651	0.0150806
832.729	0.0151069
832.808	0.0151211
832.886	0.0150562
832.964	0.0152679
833.042	0.0151538
833.120	0.0150574
833.198	0.0150816
833.276	0.0151656
833.354	0.0150334
833.433	0.0151613
833.511	0.0151814
833.589	0.0150043
833.667	0.0150424
833.745	0.0151694
833.823	0.0149606
833.901	0.0150217
833.979	0.0151610
834.058	0.0150417
834.136	0.0151061
834.214	0.0150934
834.292	0.0150819
834.370	0.0150349
834.448	0.0149101
834.526	0.0150651
834.604	0.0149997
834.683	0.0149488
834.761	0.0149984
834.839	0.0150549
834.917	0.0150290
834.995	0.0149242
835.073	0.0149880
835.151	0.0151599
835.229	0.0151131
835.308	0.0149869
835.386	0.0150431
835.464	0.0151472
835.542	0.0152330
835.620	0.0151624
835.698	0.0150065
835.776	0.0150618
835.854	0.0150707
835.933	0.0150439
836.011	0.0150943
836.089	0.0151546
836.167	0.0149822
836.245	0.0151218
836.323	0.0151031
836.401	0.0150591
836.479	0.0151205
836.558	0.0150217
836.636	0.0150883
836.714	0.0151536
836.792	0.0150457
836.870	0.0150835
836.948	0.0149964
837.026	0.0149827
837.104	0.0150358
837.183	0.0152651
837.261	0.0150124
837.339	0.0151045
837.417	0.0152238
837.495	0.0150230
837.573	0.0151028
837.651	0.0151121
837.729	0.0151417
837.808	0.0151486
837.886	0.0151419
837.964	0.0152084
838.042	0.0150761
838.120	0.0151736
838.198	0.0151678
838.276	0.0150416
838.354	0.0151642
838.433	0.0153165
838.511	0.0151752
838.589	0.0152151
838.667	0.0150954
838.745	0.0151924
838.823	0.0149455
838.901	0.0150988
838.979	0.0150717
839.058	0.0151401
839.136	0.0150327
839.214	0.0149567
839.292	0.0149483
839.370	0.0150180
839.448	0.0150901
839.526	0.0151383
839.604	0.0150582
839.683	0.0151129
839.761	0.0150744
839.839	0.0149929
839.917	0.0150419
839.995	0.0149736
840.073	0.0150304
840.151	0.0151137
840.229	0.0151955
840.308	0.0150434
840.386	0.0151541
840.464	0.0150815
840.542	0.0151264
840.620	0.0151186
840.698	0.0150591
840.776	0.0149754
840.854	0.0151780
840.933	0.0150820
841.011	0.0150386
841.089	0.0150200
841.167	0.0149934
841.245	0.0150858
841.323	0.0151585
841.401	0.0150240
841.479	0.0151321
841.558	0.0149717
841.636	0.0149927
841.714	0.0150414
841.792	0.0151575
841.870	0.0149776
841.948	0.0151268
842.026	0.0151270
842.104	0.0149904
842.183	0.0150542
842.261	0.0151496
842.339	0.0150821
842.417	0.0151109
842.495	0.0152731
842.573	0.0151714
842.651	0.0152147
842.729	0.0150437
842.808	0.0151163
842.886	0.0152424
842.964	0.0151684
843.042	0.0151257
843.120	0.0151958
843.198	0.0150407
843.276	0.0150949
843.354	0.0151670
843.433	0.0151234
843.511	0.0150817
843.589	0.0150484
843.667	0.0149660
843.745	0.0150002
843.823	0.0149721
843.901	0.0151213
843.979	0.0149704
844.058	0.0149175
844.136	0.0149757
844.214	0.0151105
844.292	0.0149790
844.370	0.0150859
844.448	0.0149575
844.526	0.0151313
844.604	0.0150391
844.683	0.0149673
844.761	0.0150546
844.839	0.0150781
844.917	0.0150426
844.995	0.0150514
845.073	0.0150069
845.151	0.0150343
845.229	0.0150848
845.308	0.0150855
845.386	0.0149706
845.464	0.0150860
845.542	0.0149214
845.620	0.0150020
845.698	0.0148387
845.776	0.0151674
845.854	0.0150462
845.933	0.0149480
846.011	0.0148688
846.089	0.0151908
846.167	0.0150988
846.245	0.0150945
846.323	0.0150189
846.401	0.0149688
846.479	0.0149964
846.558	0.0151102
846.636	0.0151757
846.714	0.0151750
846.792	0.0150758
846.870	0.0150790
846.948	0.0151748
847.026	0.0151923
847.104	0.0151134
847.183	0.0150012
847.261	0.0151781
847.339	0.0152055
847.417	0.0150004
847.495	0.0151440
847.573	0.0150942
847.651	0.0150374
847.729	0.0150720
847.808	0.0149205
847.886	0.0149225
847.964	0.0150392
848.042	0.0151329
848.120	0.0150307
848.198	0.0150233
848.276	0.0149749
848.354	0.0151140
848.433	0.0150137
848.511	0.0150536
848.589	0.0149805
848.667	0.0150317
848.745	0.0151293
848.823	0.0151385
848.901	0.0150696
848.979	0.0149919
849.058	0.0150251
849.136	0.0150856
849.214	0.0150730
849.292	0.0151327
849.370	0.0151499
849.448	0.0152104
849.526	0.0151899
849.604	0.0152498
849.683	0.0150069
849.761	0.0150768
849.839	0.0151411
849.917	0.0151225
849.995	0.0152055
850.073	0.0152461
850.151	0.0150263
850.229	0.0150323
850.308	0.0151439
850.386	0.0151666
850.464	0.0151575
850.542	0.0151392
850.620	0.0151122
850.698	0.0150595
850.776	0.0151465
850.854	0.0150876
850.933	0.0149182
851.011	0.0150600
851.089	0.0149580
851.167	0.0149734
851.245	0.0150898
851.323	0.0150842
851.401	0.0149918
851.479	0.0150645
851.558	0.0152194
851.636	0.0149884
851.714	0.0149404
851.792	0.0149789
851.870	0.0152234
851.948	0.0151128
852.026	0.0150799
852.104	0.0150625
852.183	0.0151465
852.261	0.0151608
852.339	0.0151122
852.417	0.0152616
852.495	0.0151723
852.573	0.0152531
852.651	0.0150799
852.729	0.0150323
852.808	0.0151234
852.886	0.0150912
852.964	0.0151369
853.042	0.0150983
853.120	0.0151216
853.198	0.0151476
853.276	0.0151276
853.354	0.0150714
853.433	0.0150729
853.511	0.0151092
853.589	0.0150698
853.667	0.0151114
853.745	0.0149681
853.823	0.0149643
853.901	0.0149611
853.979	0.0149159
854.058	0.0149978
854.136	0.0150417
854.214	0.0149982
854.292	0.0150056
854.370	0.0149296
854.448	0.0148361
854.526	0.0149424
854.604	0.0148666
854.683	0.0149479
854.761	0.0149686
854.839	0.0149541
854.917	0.0150059
854.995	0.0151514
855.073	0.0150880
855.151	0.0151068
855.229	0.0149934
855.308	0.0151154
855.386	0.0150026
855.464	0.0151827
855.542	0.0150343
855.620	0.0150203
855.698	0.0149961
855.776	0.0151775
855.854	0.0150439
855.933	0.0150454
856.011	0.0151254
856.089	0.0151691
856.167	0.0149631
856.245	0.0150160
856.323	0.0150613
856.401	0.0150575
856.479	0.0150665
856.558	0.0151292
856.636	0.0149403
856.714	0.0151367
856.792	0.0150562
856.870	0.0151482
856.948	0.0150644
857.026	0.0150361
857.104	0.0150429
857.183	0.0151833
857.261	0.0151405
857.339	0.0150832
857.417	0.0150737
857.495	0.0150481
857.573	0.0151398
857.651	0.0150803
857.729	0.0151078
857.808	0.0151738
857.886	0.0151678
857.964	0.0151216
858.042	0.0150014
858.120	0.0151199
858.198	0.0151183
858.276	0.0150791
858.354	0.0150122
858.433	0.0149621
858.511	0.0149085
858.589	0.0149577
858.667	0.0150561
858.745	0.0150887
858.823	0.0148788
858.901	0.0149494
858.979	0.0149848
859.058	0.0149712
859.136	0.0150251
859.214	0.0149567
859.292	0.0148071
859.370	0.0147562
859.448	0.0150162
859.526	0.0148692
859.604	0.0149500
859.683	0.0149321
859.761	0.0151007
859.839	0.0151161
859.917	0.0151294
859.995	0.0151490
860.073	0.0151460
860.151	0.0151020
860.229	0.0152132
860.308	0.0151920
860.386	0.0152415
860.464	0.0152989
860.542	0.0151799
860.620	0.0151793
860.698	0.0153278
860.776	0.0153859
860.854	0.0153344
860.933	0.0153032
861.011	0.0153493
861.089	0.0152221
861.167	0.0152760
861.245	0.0151817
861.323	0.0151276
861.401	0.0152405
861.479	0.0151226
861.558	0.0150978
861.636	0.0151616
861.714	0.0150871
861.792	0.0150923
861.870	0.0150032
861.948	0.0149811
862.026	0.0149641
862.104	0.0150308
862.183	0.0149681
862.261	0.0149423
862.339	0.0149502
862.417	0.0149910
862.495	0.0149988
862.573	0.0149216
862.651	0.0149458
862.729	0.0149649
862.808	0.0147959
862.886	0.0148717
862.964	0.0148936
863.042	0.0149354
863.120	0.0149948
863.198	0.0148812
863.276	0.0150359
863.354	0.0149773
863.433	0.0149426
863.511	0.0149232
863.589	0.0150087
863.667	0.0149940
863.745	0.0149718
863.823	0.0148634
863.901	0.0149414
863.979	0.0149300
864.058	0.0149221
864.136	0.0149498
864.214	0.0149259
864.292	0.0150661
864.370	0.0151131
864.448	0.0150513
864.526	0.0150700
864.604	0.0150041
864.683	0.0150517
864.761	0.0151900
864.839	0.0152228
864.917	0.0151733
864.995	0.0149776
865.073	0.0151315
865.151	0.0152158
865.229	0.0152163
865.308	0.0152621
865.386	0.0152142
865.464	0.0153335
865.542	0.0151969
865.620	0.0152435
865.698	0.0152989
865.776	0.0152261
865.854	0.0152776
865.933	0.0152885
866.011	0.0151932
866.089	0.0151743
866.167	0.0152292
866.245	0.0151498
866.323	0.0151379
866.401	0.0152194
866.479	0.0151408
866.558	0.0150075
866.636	0.0150853
866.714	0.0151234
866.792	0.0149976
866.870	0.0149448
866.948	0.0151067
867.026	0.0150349
867.104	0.0149568
867.183	0.0150900
867.261	0.0151762
867.339	0.0150652
867.417	0.0149767
867.495	0.0149240
867.573	0.0149426
867.651	0.0149672
867.729	0.0150333
867.808	0.0150445
867.886	0.0149336
867.964	0.0148949
868.042	0.0150608
868.120	0.0149978
868.198	0.0150767
868.276	0.0150053
868.354	0.0149622
868.433	0.0149976
868.511	0.0149673
868.589	0.0150874
868.667	0.0150005
868.745	0.0148895
868.823	0.0151092
868.901	0.0150594
868.979	0.0152096
869.058	0.0151266
869.136	0.0150516
869.214	0.0151912
869.292	0.0151996
869.370	0.0150801
869.448	0.0151190
869.526	0.0151097
869.604	0.0150798
869.683	0.0152517
869.761	0.0152682
869.839	0.0151550
869.917	0.0151551
869.995	0.0152666
870.073	0.0152457
870.151	0.0150642
870.229	0.0151287
870.308	0.0151595
870.386	0.0151545
870.464	0.0151496
870.542	0.0151402
870.620	0.0151611
870.698	0.0150454
870.776	0.0151254
870.854	0.0150238
870.933	0.0152193
871.011	0.0151125
871.089	0.0152187
871.167	0.0151476
871.245	0.0151511
871.323	0.0150391
871.401	0.0149537
871.479	0.0150455
871.558	0.0151344
871.636	0.0150220
871.714	0.0150165
871.792	0.0149534
871.870	0.0150111
871.948	0.0151099
872.026	0.0149314
872.104	0.0149933
872.183	0.0151215
872.261	0.0149972
872.339	0.0150043
872.417	0.0149574
872.495	0.0151041
872.573	0.0149621
872.651	0.0149454
872.729	0.0149377
872.808	0.0150304
872.886	0.0150656
872.964	0.0150408
873.042	0.0151002
873.120	0.0150038
873.198	0.0150498
873.276	0.0149510
873.354	0.0149388
873.433	0.0149441
873.511	0.0149538
873.589	0.0151098
873.667	0.0150804
873.745	0.0150686
873.823	0.0149894
873.901	0.0151558
873.979	0.0151562
874.058	0.0150257
874.136	0.0150044
874.214	0.0151221
874.292	0.0150984
874.370	0.0151193
874.448	0.0151814
874.526	0.0151553
874.604	0.0152149
874.683	0.0151675
874.761	0.0152636
874.839	0.0152424
874.917	0.0151672
874.995	0.0151405
875.073	0.0151606
875.151	0.0152061
875.229	0.0152242
875.308	0.0152319
875.386	0.0152280
875.464	0.0151596
875.542	0.0150218
875.620	0.0150176
875.698	0.0151688
875.776	0.0152370
875.854	0.0151778
875.933	0.0151044
876.011	0.0149903
876.089	0.0150423
876.167	0.0151692
876.245	0.0151022
876.323	0.0152018
876.401	0.0151051
876.479	0.0151340
876.558	0.0149907
876.636	0.0150033
876.714	0.0150102
876.792	0.0150641
876.870	0.0150587
876.948	0.0151127
877.026	0.0150883
877.104	0.0150576
877.183	0.0149698
877.261	0.0150485
877.339	0.0150145
877.417	0.0149931
877.495	0.0151049
877.573	0.0150012
877.651	0.0150821
877.729	0.0149722
877.808	0.0149332
877.886	0.0150507
877.964	0.0150659
878.042	0.0151000
878.120	0.0150665
878.198	0.0149924
878.276	0.0150491
878.354	0.0150314
878.433	0.0152131
878.511	0.0150414
878.589	0.0149965
878.667	0.0151072
878.745	0.0151785
878.823	0.0153084
878.901	0.0150175
878.979	0.0150358
879.058	0.0150291
879.136	0.0151964
879.214	0.0150737
879.292	0.0151825
879.370	0.0151456
879.448	0.0150497
879.526	0.0151865
879.604	0.0150993
879.683	0.0149979
879.761	0.0150745
879.839	0.0151216
879.917	0.0152612
879.995	0.0151228
880.073	0.0150854
880.151	0.0151064
880.229	0.0150883
880.308	0.0152046
880.386	0.0152203
880.464	0.0153119
880.542	0.0151808
880.620	0.0151037
880.698	0.0150980
880.776	0.0151530
880.854	0.0152244
880.933	0.0150648
881.011	0.0150430
881.089	0.0150108
881.167	0.0150484
881.245	0.0151299
881.323	0.0150579
881.401	0.0151884
881.479	0.0150314
881.558	0.0148830
881.636	0.0151101
881.714	0.0149535
881.792	0.0150021
881.870	0.0149878
881.948	0.0150528
882.026	0.0148756
882.104	0.0149990
882.183	0.0149160
882.261	0.0148648
882.339	0.0150397
882.417	0.0150133
882.495	0.0150347
882.573	0.0150784
882.651	0.0149769
882.729	0.0149858
882.808	0.0149816
882.886	0.0150378
882.964	0.0151524
883.042	0.0150709
883.120	0.0150391
883.198	0.0151725
883.276	0.0150077
883.354	0.0150723
883.433	0.0151695
883.511	0.0150631
883.589	0.0151503
883.667	0.0152132
883.745	0.0150307
883.823	0.0151855
883.901	0.0150858
883.979	0.0152393
884.058	0.0152744
884.136	0.0151789
884.214	0.0151186
884.292	0.0151447
884.370	0.0151564
884.448	0.0151316
884.526	0.0150602
884.604	0.0151899
884.683	0.0153083
884.761	0.0150991
884.839	0.0150391
884.917	0.0150706
884.995	0.0151234
885.073	0.0150424
885.151	0.0152152
885.229	0.0150455
885.308	0.0151276
885.386	0.0151218
885.464	0.0151832
885.542	0.0150851
885.620	0.0150054
885.698	0.0151872
885.776	0.0151526
885.854	0.0151604
885.933	0.0151337
886.011	0.0150775
886.089	0.0150040
886.167	0.0149763
886.245	0.0150065
886.323	0.0151209
886.401	0.0152364
886.479	0.0151617
886.558	0.0150662
886.636	0.0151154
886.714	0.0149916
886.792	0.0150692
886.870	0.0150517
886.948	0.0151251
887.026	0.0150826
887.104	0.0148740
887.183	0.0150392
887.261	0.0150488
887.339	0.0151250
887.417	0.0150854
887.495	0.0150294
887.573	0.0149726
887.651	0.0151748
887.729	0.0149892
887.808	0.0149594
887.886	0.0150093
887.964	0.0148894
888.042	0.0149495
888.120	0.0151826
888.198	0.0149023
888.276	0.0150371
888.354	0.0150230
888.433	0.0150443
888.511	0.0150491
888.589	0.0149167
888.667	0.0150719
888.745	0.0150818
888.823	0.0150562
888.901	0.0150860
888.979	0.0149547
889.058	0.0151179
889.136	0.0150707
889.214	0.0151093
889.292	0.0151420
889.370	0.0152057
889.448	0.0151827
889.526	0.0150870
889.604	0.0151539
889.683	0.0151671
889.761	0.0151005
889.839	0.0152657
889.917	0.0151743
889.995	0.0150924
890.073	0.0152507
890.151	0.0152158
890.229	0.0151671
890.308	0.0151852
890.386	0.0151324
890.464	0.0151839
890.542	0.0149938
890.620	0.0151302
890.698	0.0150906
890.776	0.0153018
890.854	0.0152206
890.933	0.0150404
891.011	0.0150452
891.089	0.0151435
891.167	0.0150173
891.245	0.0150610
891.323	0.0151551
891.401	0.0151176
891.479	0.0151842
891.558	0.0150831
891.636	0.0150146
891.714	0.0150019
891.792	0.0149104
891.870	0.0149711
891.948	0.0149615
892.026	0.0150808
892.104	0.0151315
892.183	0.0151376
892.261	0.0150526
892.339	0.0149564
892.417	0.0150743
892.495	0.0149609
892.573	0.0150025
892.651	0.0150832
892.729	0.0150844
892.808	0.0150813
892.886	0.0149364
892.964	0.0150838
893.042	0.0150465
893.120	0.0150668
893.198	0.0149739
893.276	0.0150214
893.354	0.0151386
893.433	0.0150714
893.511	0.0149084
893.589	0.0151052
893.667	0.0150016
893.745	0.0150688
893.823	0.0151855
893.901	0.0150786
893.979	0.0149965
894.058	0.0151351
894.136	0.0151488
894.214	0.0150943
894.292	0.0150831
894.370	0.0151677
894.448	0.0151621
894.526	0.0150990
894.604	0.0152483
894.683	0.0151869
894.761	0.0150978
894.839	0.0152373
894.917	0.0152651
894.995	0.0151225
895.073	0.0149644
895.151	0.0152551
895.229	0.0151836
895.308	0.0152187
895.386	0.0150925
895.464	0.0149186
895.542	0.0149798
895.620	0.0150921
895.698	0.0150027
895.776	0.0150267
895.854	0.0150591
895.933	0.0150803
896.011	0.0150356
896.089	0.0151157
896.167	0.0150505
896.245	0.0149355
896.323	0.0150806
896.401	0.0150402
896.479	0.0149744
896.558	0.0149892
896.636	0.0149917
896.714	0.0150437
896.792	0.0149170
896.870	0.0150080
896.948	0.0150245
897.026	0.0150113
897.104	0.0149244
897.183	0.0150843
897.261	0.0150443
897.339	0.0150840
897.417	0.0150343
897.495	0.0150443
897.573	0.0151637
897.651	0.0150930
897.729	0.0151588
897.808	0.0150877
897.886	0.0152014
897.964	0.0152354
898.042	0.0150877
898.120	0.0151909
898.198	0.0150674
898.276	0.0152790
898.354	0.0152280
898.433	0.0150600
898.511	0.0151731
898.589	0.0151875
898.667	0.0150970
898.745	0.0151299
898.823	0.0150583
898.901	0.0151025
898.979	0.0151288
899.058	0.0150945
899.136	0.0151402
899.214	0.0151884
899.292	0.0151563
899.370	0.0153454
899.448	0.0151711
899.526	0.0150488
899.604	0.0151009
899.683	0.0150867
899.761	0.0151459
899.839	0.0151393
899.917	0.0149921
899.995	0.0150584
900.073	0.0151973
900.151	0.0152216
900.229	0.0150404
900.308	0.0151120
900.386	0.0149109
900.464	0.0150784
900.542	0.0150944
900.620	0.0151055
900.698	0.0150924
900.776	0.0150282
900.854	0.0148647
900.933	0.0149522
901.011	0.0148284
901.089	0.0150182
901.167	0.0150313
901.245	0.0150731
901.323	0.0150115
901.401	0.0148327
901.479	0.0149941
901.558	0.0150262
901.636	0.0150081
901.714	0.0148972
901.792	0.0150099
901.870	0.0151384
901.948	0.0150513
902.026	0.0149651
902.104	0.0149370
902.183	0.0149068
902.261	0.0151260
902.339	0.0150992
902.417	0.0151713
902.495	0.0150559
902.573	0.0153240
902.651	0.0151683
902.729	0.0151344
902.808	0.0151541
902.886	0.0151811
902.964	0.0150487
903.042	0.0152537
903.120	0.0151023
903.198	0.0150916
903.276	0.0151415
903.354	0.0151346
903.433	0.0152441
903.511	0.0152065
903.589	0.0151730
903.667	0.0151445
903.745	0.0150732
903.823	0.0150465
903.901	0.0150871
903.979	0.0151482
904.058	0.0150725
904.136	0.0150150
904.214	0.0151016
904.292	0.0151700
904.370	0.0150559
904.448	0.0150022
904.526	0.0150713
904.604	0.0151009
904.683	0.0149680
904.761	0.0149693
904.839	0.0150555
904.917	0.0149641
904.995	0.0150090
905.073	0.0150391
905.151	0.0150835
905.229	0.0150185
905.308	0.0150639
905.386	0.0151517
905.464	0.0151598
905.542	0.0151077
905.620	0.0150887
905.698	0.0151408
905.776	0.0151113
905.854	0.0150621
905.933	0.0151375
906.011	0.0150802
906.089	0.0150769
906.167	0.0150714
906.245	0.0151179
906.323	0.0151340
906.401	0.0150381
906.479	0.0151480
906.558	0.0151421
906.636	0.0150588
906.714	0.0150201
906.792	0.0151158
906.870	0.0151552
906.948	0.0149691
907.026	0.0151282
907.104	0.0151688
907.183	0.0151532
907.261	0.0151288
907.339	0.0150385
907.417	0.0149356
907.495	0.0150204
907.573	0.0150802
907.651	0.0150986
907.729	0.0151208
907.808	0.0150731
907.886	0.0150583
907.964	0.0151020
908.042	0.0150430
908.120	0.0149250
908.198	0.0151178
908.276	0.0150274
908.354	0.0149334
908.433	0.0151440
908.511	0.0150793
908.589	0.0151690
908.667	0.0150763
908.745	0.0151328
908.823	0.0150906
908.901	0.0151978
908.979	0.0150986
909.058	0.0150900
909.136	0.0150750
909.214	0.0151102
909.292	0.0151793
909.370	0.0150533
909.448	0.0150520
909.526	0.0149975
909.604	0.0151163
909.683	0.0150001
909.761	0.0150638
909.839	0.0149859
909.917	0.0151470
909.995	0.0151765
910.073	0.0151177
910.151	0.0149640
910.229	0.0150726
910.308	0.0150539
910.386	0.0150710
910.464	0.0149836
910.542	0.0148651
910.620	0.0149390
910.698	0.0149813
910.776	0.0148886
910.854	0.0148787
910.933	0.0150141
911.011	0.0149805
911.089	0.0150333
911.167	0.0149434
911.245	0.0150299
911.323	0.0150167
911.401	0.0149765
911.479	0.0150574
911.558	0.0150774
911.636	0.0149920
911.714	0.0149286
911.792	0.0151300
911.870	0.0150525
911.948	0.0148919
912.026	0.0150421
912.104	0.0150047
912.183	0.0149881
912.261	0.0150146
912.339	0.0150395
912.417	0.0152034
912.495	0.0149719
912.573	0.0149694
912.651	0.0149246
912.729	0.0150559
912.808	0.0149029
912.886	0.0149607
912.964	0.0149776
913.042	0.0150185
913.120	0.0150614
913.198	0.0150755
913.276	0.0150444
913.354	0.0151183
913.433	0.0150103
913.511	0.0150459
913.589	0.0149317
913.667	0.0149355
913.745	0.0151064
913.823	0.0152106
913.901	0.0150547
913.979	0.0151093
914.058	0.0150153
914.136	0.0150137
914.214	0.0150172
914.292	0.0150591
914.370	0.0150070
914.448	0.0149951
914.526	0.0150360
914.604	0.0150385
914.683	0.0150068
914.761	0.0150450
914.839	0.0151691
914.917	0.0151707
914.995	0.0149369
915.073	0.0150458
915.151	0.0150114
915.229	0.0149540
915.308	0.0149767
915.386	0.0148984
915.464	0.0149332
915.542	0.0149216
915.620	0.0149557
915.698	0.0149900
915.776	0.0150310
915.854	0.0149935
915.933	0.0151411
916.011	0.0149144
916.089	0.0150723
916.167	0.0150151
916.245	0.0151147
916.323	0.0149888
916.401	0.0151016
916.479	0.0151137
916.558	0.0150408
916.636	0.0152158
916.714	0.0152467
916.792	0.0151495
916.870	0.0150947
916.948	0.0150687
917.026	0.0151231
917.104	0.0150785
917.183	0.0152841
917.261	0.0152134
917.339	0.0150062
917.417	0.0153156
917.495	0.0151820
917.573	0.0150973
917.651	0.0151335
917.729	0.0151709
917.808	0.0151397
917.886	0.0151062
917.964	0.0151148
918.042	0.0151263
918.120	0.0152188
918.198	0.0150574
918.276	0.0151212
918.354	0.0150855
918.433	0.0150861
918.511	0.0150769
918.589	0.0150882
918.667	0.0151441
918.745	0.0150919
918.823	0.0150396
918.901	0.0150247
918.979	0.0151656
919.058	0.0150890
919.136	0.0150997
919.214	0.0148830
919.292	0.0149812
919.370	0.0150159
919.448	0.0150888
919.526	0.0149948
919.604	0.0149821
919.683	0.0151487
919.761	0.0148989
919.839	0.0150648
919.917	0.0149778
