05/28/2022	14:36:27	Ver.	4.1	UNKNOWN
Optical Delay	599.988409	Delta X		0.078125	Sweeps	1	Scan Rate	0/0
Coordinates	Axis 1	NaN	Axis 2	NaN	Axis 3	NaN	Axis 4	NaN	Axis 5	NaN	Axis 6	0.000000
TX Power	0.000000	RX Power	0.000000

599.988	0.0137816
600.067	0.0138082
600.145	0.0137875
600.223	0.0138275
600.301	0.0139742
600.379	0.0139431
600.457	0.0137816
600.535	0.0138246
600.613	0.0137762
600.692	0.0137948
600.770	0.0138686
600.848	0.0137885
600.926	0.0139076
601.004	0.0138341
601.082	0.0137127
601.160	0.0136884
601.238	0.0140685
601.317	0.0137933
601.395	0.0137145
601.473	0.0137711
601.551	0.0136875
601.629	0.0136531
601.707	0.0138219
601.785	0.0137566
601.863	0.0136913
601.942	0.0137238
602.020	0.0137999
602.098	0.0136661
602.176	0.0138154
602.254	0.0136273
602.332	0.0136874
602.410	0.0136383
602.488	0.0138207
602.567	0.0137692
602.645	0.0137189
602.723	0.0137389
602.801	0.0137847
602.879	0.0137588
602.957	0.0136631
603.035	0.0135667
603.113	0.0137862
603.192	0.0138584
603.270	0.0137070
603.348	0.0137241
603.426	0.0138789
603.504	0.0139057
603.582	0.0137822
603.660	0.0138634
603.738	0.0139283
603.817	0.0138320
603.895	0.0138380
603.973	0.0139140
604.051	0.0137859
604.129	0.0139217
604.207	0.0138831
604.285	0.0139462
604.363	0.0138468
604.442	0.0136922
604.520	0.0138226
604.598	0.0139072
604.676	0.0137640
604.754	0.0136821
604.832	0.0138171
604.910	0.0138317
604.988	0.0138017
605.067	0.0137772
605.145	0.0138233
605.223	0.0137856
605.301	0.0137005
605.379	0.0138055
605.457	0.0137035
605.535	0.0138428
605.613	0.0138399
605.692	0.0137984
605.770	0.0136289
605.848	0.0137244
605.926	0.0136537
606.004	0.0137257
606.082	0.0137859
606.160	0.0137580
606.238	0.0137600
606.317	0.0137718
606.395	0.0137911
606.473	0.0136935
606.551	0.0137535
606.629	0.0138482
606.707	0.0139133
606.785	0.0138496
606.863	0.0136905
606.942	0.0137706
607.020	0.0137716
607.098	0.0138390
607.176	0.0138649
607.254	0.0137314
607.332	0.0137598
607.410	0.0136938
607.488	0.0138062
607.567	0.0137405
607.645	0.0137457
607.723	0.0138853
607.801	0.0136905
607.879	0.0137880
607.957	0.0138221
608.035	0.0139803
608.113	0.0137567
608.192	0.0136671
608.270	0.0138698
608.348	0.0138294
608.426	0.0138664
608.504	0.0137447
608.582	0.0138242
608.660	0.0139170
608.738	0.0137153
608.817	0.0138409
608.895	0.0138754
608.973	0.0138686
609.051	0.0136439
609.129	0.0136983
609.207	0.0139129
609.285	0.0139088
609.363	0.0138856
609.442	0.0137713
609.520	0.0138250
609.598	0.0137822
609.676	0.0138893
609.754	0.0138399
609.832	0.0137658
609.910	0.0137785
609.988	0.0138422
610.067	0.0137858
610.145	0.0138089
610.223	0.0137564
610.301	0.0138187
610.379	0.0137303
610.457	0.0138079
610.535	0.0137154
610.613	0.0138307
610.692	0.0136766
610.770	0.0136792
610.848	0.0136277
610.926	0.0139068
611.004	0.0137039
611.082	0.0136007
611.160	0.0136562
611.238	0.0137356
611.317	0.0137281
611.395	0.0136726
611.473	0.0137426
611.551	0.0137067
611.629	0.0136583
611.707	0.0136040
611.785	0.0137514
611.863	0.0137666
611.942	0.0136815
612.020	0.0136135
612.098	0.0137676
612.176	0.0136993
612.254	0.0136269
612.332	0.0137115
612.410	0.0136737
612.488	0.0136978
612.567	0.0138980
612.645	0.0138982
612.723	0.0137113
612.801	0.0138464
612.879	0.0139043
612.957	0.0137201
613.035	0.0137509
613.113	0.0136520
613.192	0.0136842
613.270	0.0136304
613.348	0.0137891
613.426	0.0137058
613.504	0.0136092
613.582	0.0136085
613.660	0.0135876
613.738	0.0137274
613.817	0.0136788
613.895	0.0136873
613.973	0.0135181
614.051	0.0136855
614.129	0.0136906
614.207	0.0135590
614.285	0.0136160
614.363	0.0137408
614.442	0.0137226
614.520	0.0136433
614.598	0.0136577
614.676	0.0135704
614.754	0.0136205
614.832	0.0137336
614.910	0.0137588
614.988	0.0137663
615.067	0.0137622
615.145	0.0136646
615.223	0.0137457
615.301	0.0138023
615.379	0.0136910
615.457	0.0136805
615.535	0.0137959
615.613	0.0139172
615.692	0.0137893
615.770	0.0138206
615.848	0.0137394
615.926	0.0139109
616.004	0.0137784
616.082	0.0136896
616.160	0.0138840
616.238	0.0137515
616.317	0.0137931
616.395	0.0137704
616.473	0.0137801
616.551	0.0137959
616.629	0.0137987
616.707	0.0138618
616.785	0.0136903
616.863	0.0138265
616.942	0.0137776
617.020	0.0137421
617.098	0.0136973
617.176	0.0137817
617.254	0.0137602
617.332	0.0135896
617.410	0.0135752
617.488	0.0136438
617.567	0.0136224
617.645	0.0134311
617.723	0.0136176
617.801	0.0136885
617.879	0.0135353
617.957	0.0136577
618.035	0.0136040
618.113	0.0134882
618.192	0.0136340
618.270	0.0135674
618.348	0.0136346
618.426	0.0135972
618.504	0.0135722
618.582	0.0134760
618.660	0.0136098
618.738	0.0135889
618.817	0.0135645
618.895	0.0135196
618.973	0.0136145
619.051	0.0135721
619.129	0.0135369
619.207	0.0135569
619.285	0.0134463
619.363	0.0135871
619.442	0.0137269
619.520	0.0135342
619.598	0.0136136
619.676	0.0136489
619.754	0.0137714
619.832	0.0137518
619.910	0.0136969
619.988	0.0138651
620.067	0.0138104
620.145	0.0139034
620.223	0.0138145
620.301	0.0137765
620.379	0.0139138
620.457	0.0138347
620.535	0.0138038
620.613	0.0137925
620.692	0.0136913
620.770	0.0136483
620.848	0.0137961
620.926	0.0136811
621.004	0.0136779
621.082	0.0135445
621.160	0.0136472
621.238	0.0137337
621.317	0.0137401
621.395	0.0136517
621.473	0.0136649
621.551	0.0137986
621.629	0.0136316
621.707	0.0138299
621.785	0.0137728
621.863	0.0137475
621.942	0.0138488
622.020	0.0138717
622.098	0.0140423
622.176	0.0139393
622.254	0.0139351
622.332	0.0140257
622.410	0.0139966
622.488	0.0137911
622.567	0.0138280
622.645	0.0137682
622.723	0.0137264
622.801	0.0138753
622.879	0.0136960
622.957	0.0138065
623.035	0.0138108
623.113	0.0136921
623.192	0.0135416
623.270	0.0138285
623.348	0.0137244
623.426	0.0136331
623.504	0.0137389
623.582	0.0137009
623.660	0.0134373
623.738	0.0135579
623.817	0.0135802
623.895	0.0135577
623.973	0.0135229
624.051	0.0135129
624.129	0.0135555
624.207	0.0135616
624.285	0.0135812
624.363	0.0134173
624.442	0.0136028
624.520	0.0136958
624.598	0.0137205
624.676	0.0136771
624.754	0.0138448
624.832	0.0139509
624.910	0.0140285
624.988	0.0139927
625.067	0.0141571
625.145	0.0140582
625.223	0.0140883
625.301	0.0141562
625.379	0.0140491
625.457	0.0140500
625.535	0.0140138
625.613	0.0140519
625.692	0.0139011
625.770	0.0139366
625.848	0.0140490
625.926	0.0139873
626.004	0.0139761
626.082	0.0139445
626.160	0.0138152
626.238	0.0138256
626.317	0.0137186
626.395	0.0137735
626.473	0.0136821
626.551	0.0136151
626.629	0.0136505
626.707	0.0135881
626.785	0.0135559
626.863	0.0136230
626.942	0.0135836
627.020	0.0136051
627.098	0.0136327
627.176	0.0137836
627.254	0.0138179
627.332	0.0137711
627.410	0.0136986
627.488	0.0138033
627.567	0.0137159
627.645	0.0137720
627.723	0.0137318
627.801	0.0139280
627.879	0.0139035
627.957	0.0139967
628.035	0.0138633
628.113	0.0138453
628.192	0.0139874
628.270	0.0138731
628.348	0.0138993
628.426	0.0139546
628.504	0.0138242
628.582	0.0138235
628.660	0.0138825
628.738	0.0137789
628.817	0.0138081
628.895	0.0137398
628.973	0.0137475
629.051	0.0138932
629.129	0.0138135
629.207	0.0137646
629.285	0.0137466
629.363	0.0137868
629.442	0.0138239
629.520	0.0137119
629.598	0.0138702
629.676	0.0137243
629.754	0.0137466
629.832	0.0138110
629.910	0.0139197
629.988	0.0139411
630.067	0.0139212
630.145	0.0139846
630.223	0.0140372
630.301	0.0139009
630.379	0.0141214
630.457	0.0142355
630.535	0.0142690
630.613	0.0142463
630.692	0.0143464
630.770	0.0142814
630.848	0.0141827
630.926	0.0142538
631.004	0.0141743
631.082	0.0142596
631.160	0.0141290
631.238	0.0141573
631.317	0.0140467
631.395	0.0139936
631.473	0.0139767
631.551	0.0138103
631.629	0.0138639
631.707	0.0138545
631.785	0.0138271
631.863	0.0136869
631.942	0.0137437
632.020	0.0134982
632.098	0.0138284
632.176	0.0137128
632.254	0.0137048
632.332	0.0137140
632.410	0.0137204
632.488	0.0136606
632.567	0.0136961
632.645	0.0136697
632.723	0.0137988
632.801	0.0138527
632.879	0.0137636
632.957	0.0137881
633.035	0.0137421
633.113	0.0137572
633.192	0.0138141
633.270	0.0136863
633.348	0.0138002
633.426	0.0137035
633.504	0.0136585
633.582	0.0137624
633.660	0.0137329
633.738	0.0137350
633.817	0.0137756
633.895	0.0137604
633.973	0.0136895
634.051	0.0135283
634.129	0.0136874
634.207	0.0137199
634.285	0.0137003
634.363	0.0137701
634.442	0.0137847
634.520	0.0136506
634.598	0.0136777
634.676	0.0137673
634.754	0.0135693
634.832	0.0136368
634.910	0.0137436
634.988	0.0137367
635.067	0.0136835
635.145	0.0136377
635.223	0.0136700
635.301	0.0136510
635.379	0.0135056
635.457	0.0134325
635.535	0.0136963
635.613	0.0136665
635.692	0.0136038
635.770	0.0136079
635.848	0.0136009
635.926	0.0135680
636.004	0.0135184
636.082	0.0136228
636.160	0.0135986
636.238	0.0135734
636.317	0.0134874
636.395	0.0133452
636.473	0.0135003
636.551	0.0134642
636.629	0.0136061
636.707	0.0135522
636.785	0.0136453
636.863	0.0134830
636.942	0.0135797
637.020	0.0135158
637.098	0.0135480
637.176	0.0135780
637.254	0.0134454
637.332	0.0135213
637.410	0.0135566
637.488	0.0134700
637.567	0.0134640
637.645	0.0134284
637.723	0.0133350
637.801	0.0133641
637.879	0.0135564
637.957	0.0135493
638.035	0.0135066
638.113	0.0135536
638.192	0.0135481
638.270	0.0135326
638.348	0.0136813
638.426	0.0135677
638.504	0.0136170
638.582	0.0137285
638.660	0.0136919
638.738	0.0138463
638.817	0.0138361
638.895	0.0137128
638.973	0.0138363
639.051	0.0135925
639.129	0.0137744
639.207	0.0138073
639.285	0.0136920
639.363	0.0137273
639.442	0.0139537
639.520	0.0136728
639.598	0.0137814
639.676	0.0138239
639.754	0.0137195
639.832	0.0137829
639.910	0.0138217
639.988	0.0138166
640.067	0.0138742
640.145	0.0138155
640.223	0.0137871
640.301	0.0138529
640.379	0.0137741
640.457	0.0139358
640.535	0.0137257
640.613	0.0137492
640.692	0.0137075
640.770	0.0136415
640.848	0.0136687
640.926	0.0137282
641.004	0.0138286
641.082	0.0138093
641.160	0.0135949
641.238	0.0136238
641.317	0.0135975
641.395	0.0135209
641.473	0.0136325
641.551	0.0137644
641.629	0.0136933
641.707	0.0136555
641.785	0.0136315
641.863	0.0137033
641.942	0.0136948
642.020	0.0138087
642.098	0.0138034
642.176	0.0135286
642.254	0.0138284
642.332	0.0138364
642.410	0.0138703
642.488	0.0139854
642.567	0.0140456
642.645	0.0140127
642.723	0.0140164
642.801	0.0141256
642.879	0.0141702
642.957	0.0141772
643.035	0.0141463
643.113	0.0141012
643.192	0.0141937
643.270	0.0141051
643.348	0.0139509
643.426	0.0140253
643.504	0.0140956
643.582	0.0138969
643.660	0.0137531
643.738	0.0138666
643.817	0.0137167
643.895	0.0137222
643.973	0.0136926
644.051	0.0135955
644.129	0.0135455
644.207	0.0136257
644.285	0.0135773
644.363	0.0135849
644.442	0.0135802
644.520	0.0135497
644.598	0.0136476
644.676	0.0138021
644.754	0.0137477
644.832	0.0136253
644.910	0.0138478
644.988	0.0138353
645.067	0.0138624
645.145	0.0138445
645.223	0.0137226
645.301	0.0139136
645.379	0.0138849
645.457	0.0139055
645.535	0.0138387
645.613	0.0137802
645.692	0.0137390
645.770	0.0138140
645.848	0.0138386
645.926	0.0137840
646.004	0.0138460
646.082	0.0136466
646.160	0.0137968
646.238	0.0137846
646.317	0.0137236
646.395	0.0135821
646.473	0.0137188
646.551	0.0136303
646.629	0.0135297
646.707	0.0136417
646.785	0.0135564
646.863	0.0135531
646.942	0.0135339
647.020	0.0134893
647.098	0.0135017
647.176	0.0135379
647.254	0.0135566
647.332	0.0136208
647.410	0.0134721
647.488	0.0136227
647.567	0.0136929
647.645	0.0138933
647.723	0.0137196
647.801	0.0138210
647.879	0.0138493
647.957	0.0138194
648.035	0.0138171
648.113	0.0138374
648.192	0.0139850
648.270	0.0139519
648.348	0.0141078
648.426	0.0139814
648.504	0.0140119
648.582	0.0139085
648.660	0.0140438
648.738	0.0138655
648.817	0.0138213
648.895	0.0137024
648.973	0.0136674
649.051	0.0136945
649.129	0.0137900
649.207	0.0137037
649.285	0.0137681
649.363	0.0137173
649.442	0.0136141
649.520	0.0138062
649.598	0.0138790
649.676	0.0138277
649.754	0.0138408
649.832	0.0135274
649.910	0.0138242
649.988	0.0139799
650.067	0.0138461
650.145	0.0138322
650.223	0.0138992
650.301	0.0138776
650.379	0.0137401
650.457	0.0138598
650.535	0.0138478
650.613	0.0139924
650.692	0.0139281
650.770	0.0138768
650.848	0.0139481
650.926	0.0140131
651.004	0.0139854
651.082	0.0140306
651.160	0.0140361
651.238	0.0139064
651.317	0.0139598
651.395	0.0138191
651.473	0.0139874
651.551	0.0137819
651.629	0.0138087
651.707	0.0137778
651.785	0.0136227
651.863	0.0137892
651.942	0.0136665
652.020	0.0136520
652.098	0.0134458
652.176	0.0133306
652.254	0.0134959
652.332	0.0134081
652.410	0.0134129
652.488	0.0135013
652.567	0.0135622
652.645	0.0136030
652.723	0.0134239
652.801	0.0134436
652.879	0.0136644
652.957	0.0138322
653.035	0.0137925
653.113	0.0136375
653.192	0.0139368
653.270	0.0137540
653.348	0.0139303
653.426	0.0139046
653.504	0.0138988
653.582	0.0139588
653.660	0.0139303
653.738	0.0139570
653.817	0.0138897
653.895	0.0139149
653.973	0.0138144
654.051	0.0139526
654.129	0.0138083
654.207	0.0139468
654.285	0.0139486
654.363	0.0139266
654.442	0.0140018
654.520	0.0139819
654.598	0.0139983
654.676	0.0139756
654.754	0.0139015
654.832	0.0140154
654.910	0.0139921
654.988	0.0139829
655.067	0.0139323
655.145	0.0139146
655.223	0.0140015
655.301	0.0140278
655.379	0.0140053
655.457	0.0139301
655.535	0.0137525
655.613	0.0136979
655.692	0.0138094
655.770	0.0137544
655.848	0.0135197
655.926	0.0135382
656.004	0.0137045
656.082	0.0136279
656.160	0.0135095
656.238	0.0135538
656.317	0.0135032
656.395	0.0135255
656.473	0.0135020
656.551	0.0135439
656.629	0.0135512
656.707	0.0135552
656.785	0.0136768
656.863	0.0136404
656.942	0.0136695
657.020	0.0137183
657.098	0.0138133
657.176	0.0138017
657.254	0.0138086
657.332	0.0137685
657.410	0.0138244
657.488	0.0139265
657.567	0.0137210
657.645	0.0139032
657.723	0.0138652
657.801	0.0139299
657.879	0.0138297
657.957	0.0138718
658.035	0.0138515
658.113	0.0137847
658.192	0.0137598
658.270	0.0138514
658.348	0.0138107
658.426	0.0138554
658.504	0.0136385
658.582	0.0137366
658.660	0.0136111
658.738	0.0136649
658.817	0.0136935
658.895	0.0136342
658.973	0.0137228
659.051	0.0137041
659.129	0.0138535
659.207	0.0136950
659.285	0.0137529
659.363	0.0139047
659.442	0.0137804
659.520	0.0137122
659.598	0.0137613
659.676	0.0136366
659.754	0.0136660
659.832	0.0137527
659.910	0.0138457
659.988	0.0135774
660.067	0.0135548
660.145	0.0136028
660.223	0.0136391
660.301	0.0135736
660.379	0.0135143
660.457	0.0134934
660.535	0.0136495
660.613	0.0137205
660.692	0.0135346
660.770	0.0136625
660.848	0.0137339
660.926	0.0136703
661.004	0.0137576
661.082	0.0137759
661.160	0.0137022
661.238	0.0137306
661.317	0.0138422
661.395	0.0138699
661.473	0.0136342
661.551	0.0137122
661.629	0.0136568
661.707	0.0135915
661.785	0.0135249
661.863	0.0135374
661.942	0.0136209
662.020	0.0136749
662.098	0.0135712
662.176	0.0136506
662.254	0.0136330
662.332	0.0138186
662.410	0.0136038
662.488	0.0135928
662.567	0.0137739
662.645	0.0137126
662.723	0.0137663
662.801	0.0138114
662.879	0.0138861
662.957	0.0138595
663.035	0.0137884
663.113	0.0138560
663.192	0.0137425
663.270	0.0137431
663.348	0.0138050
663.426	0.0136167
663.504	0.0137904
663.582	0.0137591
663.660	0.0136533
663.738	0.0135572
663.817	0.0137494
663.895	0.0136483
663.973	0.0134546
664.051	0.0135055
664.129	0.0136185
664.207	0.0136651
664.285	0.0136547
664.363	0.0137295
664.442	0.0137775
664.520	0.0138589
664.598	0.0138739
664.676	0.0138068
664.754	0.0137064
664.832	0.0138624
664.910	0.0139051
664.988	0.0139137
665.067	0.0138840
665.145	0.0139870
665.223	0.0137706
665.301	0.0137285
665.379	0.0138855
665.457	0.0139526
665.535	0.0138853
665.613	0.0137508
665.692	0.0139145
665.770	0.0137649
665.848	0.0137473
665.926	0.0139458
666.004	0.0138565
666.082	0.0138573
666.160	0.0137477
666.238	0.0138523
666.317	0.0139257
666.395	0.0137531
666.473	0.0139494
666.551	0.0138378
666.629	0.0139388
666.707	0.0140221
666.785	0.0138663
666.863	0.0139780
666.942	0.0139603
667.020	0.0137340
667.098	0.0138780
667.176	0.0139344
667.254	0.0139062
667.332	0.0140041
667.410	0.0139608
667.488	0.0138840
667.567	0.0139283
667.645	0.0139547
667.723	0.0139787
667.801	0.0139972
667.879	0.0139061
667.957	0.0140009
668.035	0.0140894
668.113	0.0140594
668.192	0.0140965
668.270	0.0141538
668.348	0.0141788
668.426	0.0140308
668.504	0.0139882
668.582	0.0139086
668.660	0.0139456
668.738	0.0139361
668.817	0.0139415
668.895	0.0137614
668.973	0.0136575
669.051	0.0137519
669.129	0.0137157
669.207	0.0136353
669.285	0.0134966
669.363	0.0135339
669.442	0.0136765
669.520	0.0134564
669.598	0.0136032
669.676	0.0135378
669.754	0.0135342
669.832	0.0136206
669.910	0.0135855
669.988	0.0136470
670.067	0.0135191
670.145	0.0136098
670.223	0.0137458
670.301	0.0138037
670.379	0.0136369
670.457	0.0136500
670.535	0.0137753
670.613	0.0137607
670.692	0.0137422
670.770	0.0136936
670.848	0.0136394
670.926	0.0136551
671.004	0.0136176
671.082	0.0135842
671.160	0.0136056
671.238	0.0137936
671.317	0.0136850
671.395	0.0135000
671.473	0.0136869
671.551	0.0136527
671.629	0.0135877
671.707	0.0137200
671.785	0.0136378
671.863	0.0137964
671.942	0.0138116
672.020	0.0138660
672.098	0.0139275
672.176	0.0139093
672.254	0.0140638
672.332	0.0140696
672.410	0.0141141
672.488	0.0140799
672.567	0.0141374
672.645	0.0141379
672.723	0.0141450
672.801	0.0142108
672.879	0.0142075
672.957	0.0143021
673.035	0.0141034
673.113	0.0141985
673.192	0.0141212
673.270	0.0139803
673.348	0.0138480
673.426	0.0139438
673.504	0.0137037
673.582	0.0138222
673.660	0.0136810
673.738	0.0137988
673.817	0.0136115
673.895	0.0136563
673.973	0.0136756
674.051	0.0135042
674.129	0.0134796
674.207	0.0134033
674.285	0.0133784
674.363	0.0133157
674.442	0.0134403
674.520	0.0133324
674.598	0.0133526
674.676	0.0134089
674.754	0.0132321
674.832	0.0130347
674.910	0.0133049
674.988	0.0132764
675.067	0.0133331
675.145	0.0132547
675.223	0.0133165
675.301	0.0134270
675.379	0.0133256
675.457	0.0133677
675.535	0.0135227
675.613	0.0134014
675.692	0.0136835
675.770	0.0136507
675.848	0.0135997
675.926	0.0137336
676.004	0.0136973
676.082	0.0138069
676.160	0.0139647
676.238	0.0138043
676.317	0.0140499
676.395	0.0141070
676.473	0.0140636
676.551	0.0141228
676.629	0.0141599
676.707	0.0141055
676.785	0.0140175
676.863	0.0141142
676.942	0.0139407
677.020	0.0140037
677.098	0.0139392
677.176	0.0137868
677.254	0.0138192
677.332	0.0138740
677.410	0.0138142
677.488	0.0137872
677.567	0.0137663
677.645	0.0137243
677.723	0.0137374
677.801	0.0138696
677.879	0.0137701
677.957	0.0136662
678.035	0.0135936
678.113	0.0136835
678.192	0.0135006
678.270	0.0136225
678.348	0.0137104
678.426	0.0136618
678.504	0.0136587
678.582	0.0136071
678.660	0.0137330
678.738	0.0136151
678.817	0.0134914
678.895	0.0137910
678.973	0.0137670
679.051	0.0136151
679.129	0.0136333
679.207	0.0135632
679.285	0.0135585
679.363	0.0135663
679.442	0.0136048
679.520	0.0138188
679.598	0.0137965
679.676	0.0137526
679.754	0.0138640
679.832	0.0139232
679.910	0.0137372
679.988	0.0138376
680.067	0.0137046
680.145	0.0137449
680.223	0.0138217
680.301	0.0138180
680.379	0.0137813
680.457	0.0135888
680.535	0.0136642
680.613	0.0138514
680.692	0.0135213
680.770	0.0134816
680.848	0.0136167
680.926	0.0136486
681.004	0.0135436
681.082	0.0135762
681.160	0.0135876
681.238	0.0136949
681.317	0.0136018
681.395	0.0136750
681.473	0.0137128
681.551	0.0138940
681.629	0.0137415
681.707	0.0137940
681.785	0.0138554
681.863	0.0138431
681.942	0.0139438
682.020	0.0139640
682.098	0.0140179
682.176	0.0140131
682.254	0.0139446
682.332	0.0139601
682.410	0.0138806
682.488	0.0139902
682.567	0.0139611
682.645	0.0137901
682.723	0.0138036
682.801	0.0138124
682.879	0.0136862
682.957	0.0136856
683.035	0.0135915
683.113	0.0137445
683.192	0.0136160
683.270	0.0135876
683.348	0.0136532
683.426	0.0137943
683.504	0.0136758
683.582	0.0137411
683.660	0.0136366
683.738	0.0136142
683.817	0.0136163
683.895	0.0135959
683.973	0.0136897
684.051	0.0137666
684.129	0.0137552
684.207	0.0138162
684.285	0.0136325
684.363	0.0137875
684.442	0.0136535
684.520	0.0137095
684.598	0.0138353
684.676	0.0136494
684.754	0.0137615
684.832	0.0137766
684.910	0.0137800
684.988	0.0137554
685.067	0.0136927
685.145	0.0137528
685.223	0.0137736
685.301	0.0136384
685.379	0.0136779
685.457	0.0135406
685.535	0.0136393
685.613	0.0135593
685.692	0.0135864
685.770	0.0135958
685.848	0.0134019
685.926	0.0135033
686.004	0.0135381
686.082	0.0134705
686.160	0.0133706
686.238	0.0135725
686.317	0.0133563
686.395	0.0136118
686.473	0.0136742
686.551	0.0135828
686.629	0.0134486
686.707	0.0135493
686.785	0.0137735
686.863	0.0137032
686.942	0.0138074
687.020	0.0139728
687.098	0.0137689
687.176	0.0139834
687.254	0.0139122
687.332	0.0139673
687.410	0.0139942
687.488	0.0139333
687.567	0.0141175
687.645	0.0140204
687.723	0.0139961
687.801	0.0141024
687.879	0.0139693
687.957	0.0139595
688.035	0.0140598
688.113	0.0139499
688.192	0.0140346
688.270	0.0141113
688.348	0.0140176
688.426	0.0138958
688.504	0.0140767
688.582	0.0139632
688.660	0.0137791
688.738	0.0138062
688.817	0.0139721
688.895	0.0139133
688.973	0.0137720
689.051	0.0138612
689.129	0.0137514
689.207	0.0137598
689.285	0.0137873
689.363	0.0136983
689.442	0.0136216
689.520	0.0136869
689.598	0.0137760
689.676	0.0137331
689.754	0.0137315
689.832	0.0137637
689.910	0.0138277
689.988	0.0136356
690.067	0.0137865
690.145	0.0137236
690.223	0.0137744
690.301	0.0137521
690.379	0.0138396
690.457	0.0137873
690.535	0.0138857
690.613	0.0137693
690.692	0.0137789
690.770	0.0138078
690.848	0.0137876
690.926	0.0139733
691.004	0.0136562
691.082	0.0137710
691.160	0.0137870
691.238	0.0138891
691.317	0.0137824
691.395	0.0138345
691.473	0.0138303
691.551	0.0139247
691.629	0.0139369
691.707	0.0138164
691.785	0.0137445
691.863	0.0136841
691.942	0.0137611
692.020	0.0136909
692.098	0.0137018
692.176	0.0137704
692.254	0.0137038
692.332	0.0137314
692.410	0.0137850
692.488	0.0136859
692.567	0.0136716
692.645	0.0137227
692.723	0.0138333
692.801	0.0136240
692.879	0.0139288
692.957	0.0138436
693.035	0.0136756
693.113	0.0138714
693.192	0.0138371
693.270	0.0137311
693.348	0.0139080
693.426	0.0139370
693.504	0.0139289
693.582	0.0139452
693.660	0.0139721
693.738	0.0139138
693.817	0.0140382
693.895	0.0140015
693.973	0.0140128
694.051	0.0139751
694.129	0.0140077
694.207	0.0139301
694.285	0.0141031
694.363	0.0140588
694.442	0.0139491
694.520	0.0139383
694.598	0.0140009
694.676	0.0141295
694.754	0.0141241
694.832	0.0138560
694.910	0.0139629
694.988	0.0139352
695.067	0.0139046
695.145	0.0138344
695.223	0.0138393
695.301	0.0138326
695.379	0.0137284
695.457	0.0136989
695.535	0.0136229
695.613	0.0135239
695.692	0.0135777
695.770	0.0135265
695.848	0.0134593
695.926	0.0134301
696.004	0.0136553
696.082	0.0135415
696.160	0.0134509
696.238	0.0133991
696.317	0.0134716
696.395	0.0135247
696.473	0.0133684
696.551	0.0135651
696.629	0.0136097
696.707	0.0135324
696.785	0.0135637
696.863	0.0135667
696.942	0.0135983
697.020	0.0135445
697.098	0.0135842
697.176	0.0136722
697.254	0.0137485
697.332	0.0136735
697.410	0.0137171
697.488	0.0138314
697.567	0.0138441
697.645	0.0139462
697.723	0.0139301
697.801	0.0140739
697.879	0.0140296
697.957	0.0140647
698.035	0.0140756
698.113	0.0141035
698.192	0.0142752
698.270	0.0144371
698.348	0.0143777
698.426	0.0141814
698.504	0.0142204
698.582	0.0142693
698.660	0.0143708
698.738	0.0141242
698.817	0.0139949
698.895	0.0140616
698.973	0.0142941
699.051	0.0141267
699.129	0.0140929
699.207	0.0138885
699.285	0.0139087
699.363	0.0139502
699.442	0.0139084
699.520	0.0137731
699.598	0.0136124
699.676	0.0136388
699.754	0.0136127
699.832	0.0133622
699.910	0.0134079
699.988	0.0133780
700.067	0.0133258
700.145	0.0132095
700.223	0.0130560
700.301	0.0132509
700.379	0.0132780
700.457	0.0132047
700.535	0.0131264
700.613	0.0131297
700.692	0.0130145
700.770	0.0131890
700.848	0.0132300
700.926	0.0133214
701.004	0.0132025
701.082	0.0133035
701.160	0.0133903
701.238	0.0134952
701.317	0.0134222
701.395	0.0134884
701.473	0.0134464
701.551	0.0135912
701.629	0.0136501
701.707	0.0137283
701.785	0.0137301
701.863	0.0136856
701.942	0.0137721
702.020	0.0137757
702.098	0.0137750
702.176	0.0139213
702.254	0.0138295
702.332	0.0138445
702.410	0.0137541
702.488	0.0138321
702.567	0.0138497
702.645	0.0137920
702.723	0.0138299
702.801	0.0137817
702.879	0.0138468
702.957	0.0137711
703.035	0.0137704
703.113	0.0137721
703.192	0.0139213
703.270	0.0138049
703.348	0.0137807
703.426	0.0137589
703.504	0.0137411
703.582	0.0137268
703.660	0.0137223
703.738	0.0137901
703.817	0.0135551
703.895	0.0136196
703.973	0.0137173
704.051	0.0136920
704.129	0.0136745
704.207	0.0137148
704.285	0.0136571
704.363	0.0134970
704.442	0.0135647
704.520	0.0136739
704.598	0.0136784
704.676	0.0135906
704.754	0.0136448
704.832	0.0137066
704.910	0.0136274
704.988	0.0137461
705.067	0.0138593
705.145	0.0136345
705.223	0.0137461
705.301	0.0136630
705.379	0.0137145
705.457	0.0137817
705.535	0.0136911
705.613	0.0136504
705.692	0.0137833
705.770	0.0136125
705.848	0.0136850
705.926	0.0137338
706.004	0.0135547
706.082	0.0135492
706.160	0.0137460
706.238	0.0135962
706.317	0.0136482
706.395	0.0137685
706.473	0.0137994
706.551	0.0137717
706.629	0.0137872
706.707	0.0137705
706.785	0.0137508
706.863	0.0138494
706.942	0.0137436
707.020	0.0138165
707.098	0.0138321
707.176	0.0138984
707.254	0.0139734
707.332	0.0139713
707.410	0.0138806
707.488	0.0139642
707.567	0.0139056
707.645	0.0139197
707.723	0.0140073
707.801	0.0139893
707.879	0.0139608
707.957	0.0140706
708.035	0.0140408
708.113	0.0140332
708.192	0.0140775
708.270	0.0139977
708.348	0.0137866
708.426	0.0139735
708.504	0.0138995
708.582	0.0138316
708.660	0.0137843
708.738	0.0137499
708.817	0.0137756
708.895	0.0137659
708.973	0.0137294
709.051	0.0137608
709.129	0.0138763
709.207	0.0136929
709.285	0.0138052
709.363	0.0138387
709.442	0.0139471
709.520	0.0137339
709.598	0.0137386
709.676	0.0137853
709.754	0.0138921
709.832	0.0136548
709.910	0.0138435
709.988	0.0139895
710.067	0.0140388
710.145	0.0139841
710.223	0.0139920
710.301	0.0139987
710.379	0.0140028
710.457	0.0142109
710.535	0.0140607
710.613	0.0139013
710.692	0.0139284
710.770	0.0139082
710.848	0.0139902
710.926	0.0139516
711.004	0.0138947
711.082	0.0139111
711.160	0.0138265
711.238	0.0136389
711.317	0.0139278
711.395	0.0137997
711.473	0.0136018
711.551	0.0136568
711.629	0.0135921
711.707	0.0136203
711.785	0.0136277
711.863	0.0137386
711.942	0.0137782
712.020	0.0135506
712.098	0.0134028
712.176	0.0137854
712.254	0.0136558
712.332	0.0136509
712.410	0.0136030
712.488	0.0136568
712.567	0.0137652
712.645	0.0136800
712.723	0.0137858
712.801	0.0137887
712.879	0.0138273
712.957	0.0138223
713.035	0.0138738
713.113	0.0139063
713.192	0.0139929
713.270	0.0139651
713.348	0.0138918
713.426	0.0139545
713.504	0.0139077
713.582	0.0138543
713.660	0.0139645
713.738	0.0138678
713.817	0.0139196
713.895	0.0138839
713.973	0.0137584
714.051	0.0138200
714.129	0.0137966
714.207	0.0138074
714.285	0.0136603
714.363	0.0137528
714.442	0.0136832
714.520	0.0136354
714.598	0.0136598
714.676	0.0136607
714.754	0.0136259
714.832	0.0137308
714.910	0.0138048
714.988	0.0137654
715.067	0.0137984
715.145	0.0137905
715.223	0.0137564
715.301	0.0137757
715.379	0.0139861
715.457	0.0139394
715.535	0.0139223
715.613	0.0139392
715.692	0.0140453
715.770	0.0138751
715.848	0.0140051
715.926	0.0140600
716.004	0.0139744
716.082	0.0138940
716.160	0.0138998
716.238	0.0136880
716.317	0.0138199
716.395	0.0139041
716.473	0.0137302
716.551	0.0137102
716.629	0.0138142
716.707	0.0136540
716.785	0.0136552
716.863	0.0137778
716.942	0.0136725
717.020	0.0137392
717.098	0.0137550
717.176	0.0137278
717.254	0.0137634
717.332	0.0137580
717.410	0.0137692
717.488	0.0136556
717.567	0.0138390
717.645	0.0137219
717.723	0.0138116
717.801	0.0136626
717.879	0.0136665
717.957	0.0136864
718.035	0.0136880
718.113	0.0136390
718.192	0.0136240
718.270	0.0137074
718.348	0.0136066
718.426	0.0136597
718.504	0.0137489
718.582	0.0136835
718.660	0.0136736
718.738	0.0137380
718.817	0.0137437
718.895	0.0137862
718.973	0.0136835
719.051	0.0137580
719.129	0.0138299
719.207	0.0137601
719.285	0.0137424
719.363	0.0136787
719.442	0.0136398
719.520	0.0136858
719.598	0.0137708
719.676	0.0136256
719.754	0.0137685
719.832	0.0137383
719.910	0.0137905
719.988	0.0136961
720.067	0.0137772
720.145	0.0137924
720.223	0.0138638
720.301	0.0137907
720.379	0.0136835
720.457	0.0137343
720.535	0.0137318
720.613	0.0138955
720.692	0.0138461
720.770	0.0138931
720.848	0.0139700
720.926	0.0139382
721.004	0.0138801
721.082	0.0138985
721.160	0.0139899
721.238	0.0139562
721.317	0.0138742
721.395	0.0140264
721.473	0.0139574
721.551	0.0139465
721.629	0.0139001
721.707	0.0139727
721.785	0.0139535
721.863	0.0139184
721.942	0.0139691
722.020	0.0140702
722.098	0.0139977
722.176	0.0139875
722.254	0.0140311
722.332	0.0140940
722.410	0.0140358
722.488	0.0140424
722.567	0.0140490
722.645	0.0140393
722.723	0.0140059
722.801	0.0139949
722.879	0.0141016
722.957	0.0139899
723.035	0.0137941
723.113	0.0140597
723.192	0.0139289
723.270	0.0138765
723.348	0.0139612
723.426	0.0139511
723.504	0.0137251
723.582	0.0138697
723.660	0.0138020
723.738	0.0138004
723.817	0.0138774
723.895	0.0139772
723.973	0.0138258
724.051	0.0137132
724.129	0.0137892
724.207	0.0138019
724.285	0.0137155
724.363	0.0136508
724.442	0.0137471
724.520	0.0136202
724.598	0.0137948
724.676	0.0137167
724.754	0.0137622
724.832	0.0137235
724.910	0.0136000
724.988	0.0136967
725.067	0.0137797
725.145	0.0137298
725.223	0.0138815
725.301	0.0138483
725.379	0.0137918
725.457	0.0137463
725.535	0.0138438
725.613	0.0137954
725.692	0.0138432
725.770	0.0139178
725.848	0.0138145
725.926	0.0139291
726.004	0.0137821
726.082	0.0136325
726.160	0.0137488
726.238	0.0138662
726.317	0.0139022
726.395	0.0137736
726.473	0.0137962
726.551	0.0138538
726.629	0.0137901
726.707	0.0137327
726.785	0.0136899
726.863	0.0138969
726.942	0.0138490
727.020	0.0138245
727.098	0.0138417
727.176	0.0137455
727.254	0.0138250
727.332	0.0138219
727.410	0.0139243
727.488	0.0139704
727.567	0.0139598
727.645	0.0139062
727.723	0.0139076
727.801	0.0140025
727.879	0.0139849
727.957	0.0140084
728.035	0.0138493
728.113	0.0140648
728.192	0.0139285
728.270	0.0139226
728.348	0.0139490
728.426	0.0139570
728.504	0.0140261
728.582	0.0139143
728.660	0.0138750
728.738	0.0139307
728.817	0.0138293
728.895	0.0138217
728.973	0.0138440
729.051	0.0138299
729.129	0.0138598
729.207	0.0137524
729.285	0.0137760
729.363	0.0138344
729.442	0.0137673
729.520	0.0137881
729.598	0.0136747
729.676	0.0136093
729.754	0.0136465
729.832	0.0136651
729.910	0.0137260
729.988	0.0137115
730.067	0.0135136
730.145	0.0135909
730.223	0.0136599
730.301	0.0136121
730.379	0.0135675
730.457	0.0135971
730.535	0.0136171
730.613	0.0135256
730.692	0.0137418
730.770	0.0136667
730.848	0.0136431
730.926	0.0136366
731.004	0.0137180
731.082	0.0136739
731.160	0.0136716
731.238	0.0138287
731.317	0.0136852
731.395	0.0137693
731.473	0.0137502
731.551	0.0138425
731.629	0.0139155
731.707	0.0137838
731.785	0.0139301
731.863	0.0137333
731.942	0.0137945
732.020	0.0138006
732.098	0.0138290
732.176	0.0137610
732.254	0.0139856
732.332	0.0138830
732.410	0.0138465
732.488	0.0138566
732.567	0.0139874
732.645	0.0140556
732.723	0.0138806
732.801	0.0139676
732.879	0.0140623
732.957	0.0140182
733.035	0.0139438
733.113	0.0139819
733.192	0.0138064
733.270	0.0139028
733.348	0.0139454
733.426	0.0138699
733.504	0.0138144
733.582	0.0138583
733.660	0.0139347
733.738	0.0139194
733.817	0.0138568
733.895	0.0139391
733.973	0.0138566
734.051	0.0138523
734.129	0.0137480
734.207	0.0138376
734.285	0.0138566
734.363	0.0138299
734.442	0.0137543
734.520	0.0138927
734.598	0.0139812
734.676	0.0138187
734.754	0.0137863
734.832	0.0138837
734.910	0.0138865
734.988	0.0138014
735.067	0.0139510
735.145	0.0140272
735.223	0.0139345
735.301	0.0138170
735.379	0.0139248
735.457	0.0139815
735.535	0.0137862
735.613	0.0138301
735.692	0.0139091
735.770	0.0139260
735.848	0.0139145
735.926	0.0139500
736.004	0.0138657
736.082	0.0138634
736.160	0.0138693
736.238	0.0138084
736.317	0.0137898
736.395	0.0139465
736.473	0.0138934
736.551	0.0138308
736.629	0.0137814
736.707	0.0138358
736.785	0.0136617
736.863	0.0137831
736.942	0.0138683
737.020	0.0138704
737.098	0.0136866
737.176	0.0137735
737.254	0.0138255
737.332	0.0137723
737.410	0.0137622
737.488	0.0137247
737.567	0.0137794
737.645	0.0138421
737.723	0.0137198
737.801	0.0137312
737.879	0.0137752
737.957	0.0137817
738.035	0.0138497
738.113	0.0136539
738.192	0.0136725
738.270	0.0137202
738.348	0.0136742
738.426	0.0135535
738.504	0.0137135
738.582	0.0136739
738.660	0.0136884
738.738	0.0136106
738.817	0.0137329
738.895	0.0136662
738.973	0.0137202
739.051	0.0136979
739.129	0.0136646
739.207	0.0136695
739.285	0.0136040
739.363	0.0136478
739.442	0.0136221
739.520	0.0136372
739.598	0.0138033
739.676	0.0136300
739.754	0.0135748
739.832	0.0137115
739.910	0.0136509
739.988	0.0136515
740.067	0.0136868
740.145	0.0137206
740.223	0.0136650
740.301	0.0136437
740.379	0.0136919
740.457	0.0137506
740.535	0.0136368
740.613	0.0135555
740.692	0.0135836
740.770	0.0136619
740.848	0.0135566
740.926	0.0136911
741.004	0.0135754
741.082	0.0135684
741.160	0.0136987
741.238	0.0137193
741.317	0.0137483
741.395	0.0137979
741.473	0.0136428
741.551	0.0134899
741.629	0.0137239
741.707	0.0136140
741.785	0.0136984
741.863	0.0137890
741.942	0.0135516
742.020	0.0136797
742.098	0.0137189
742.176	0.0137486
742.254	0.0138195
742.332	0.0136928
742.410	0.0137465
742.488	0.0138293
742.567	0.0137614
742.645	0.0136593
742.723	0.0138284
742.801	0.0138479
742.879	0.0137600
742.957	0.0137926
743.035	0.0137006
743.113	0.0137640
743.192	0.0136395
743.270	0.0136906
743.348	0.0137642
743.426	0.0137544
743.504	0.0136857
743.582	0.0136900
743.660	0.0135956
743.738	0.0138575
743.817	0.0136503
743.895	0.0136071
743.973	0.0136519
744.051	0.0137654
744.129	0.0136798
744.207	0.0136708
744.285	0.0136018
744.363	0.0138224
744.442	0.0138046
744.520	0.0138011
744.598	0.0138725
744.676	0.0137131
744.754	0.0138570
744.832	0.0138807
744.910	0.0138586
744.988	0.0136658
745.067	0.0138461
745.145	0.0138450
745.223	0.0139005
745.301	0.0138206
745.379	0.0138173
745.457	0.0139387
745.535	0.0139600
745.613	0.0139895
745.692	0.0138401
745.770	0.0138669
745.848	0.0139077
745.926	0.0139351
746.004	0.0137544
746.082	0.0137405
746.160	0.0139359
746.238	0.0138179
746.317	0.0138615
746.395	0.0138595
746.473	0.0139018
746.551	0.0137428
746.629	0.0138169
746.707	0.0137141
746.785	0.0139230
746.863	0.0139484
746.942	0.0138451
747.020	0.0138163
747.098	0.0137291
747.176	0.0137369
747.254	0.0138079
747.332	0.0136434
747.410	0.0138147
747.488	0.0138577
747.567	0.0137150
747.645	0.0137245
747.723	0.0136983
747.801	0.0136429
747.879	0.0137452
747.957	0.0136943
748.035	0.0137347
748.113	0.0135689
748.192	0.0136283
748.270	0.0136982
748.348	0.0135410
748.426	0.0136353
748.504	0.0136275
748.582	0.0135576
748.660	0.0135483
748.738	0.0135783
748.817	0.0136613
748.895	0.0135456
748.973	0.0137130
749.051	0.0137741
749.129	0.0136691
749.207	0.0137146
749.285	0.0137247
749.363	0.0136861
749.442	0.0137916
749.520	0.0137495
749.598	0.0137622
749.676	0.0138711
749.754	0.0139633
749.832	0.0138166
749.910	0.0137477
749.988	0.0138814
750.067	0.0136861
750.145	0.0139044
750.223	0.0138172
750.301	0.0137440
750.379	0.0137097
750.457	0.0136750
750.535	0.0137910
750.613	0.0138403
750.692	0.0136479
750.770	0.0136076
750.848	0.0138691
750.926	0.0137997
751.004	0.0137254
751.082	0.0136631
751.160	0.0136391
751.238	0.0136454
751.317	0.0137646
751.395	0.0137486
751.473	0.0136797
751.551	0.0138717
751.629	0.0136730
751.707	0.0136241
751.785	0.0136623
751.863	0.0137109
751.942	0.0137162
752.020	0.0137908
752.098	0.0137624
752.176	0.0137363
752.254	0.0136809
752.332	0.0137866
752.410	0.0139554
752.488	0.0138958
752.567	0.0138171
752.645	0.0136221
752.723	0.0138428
752.801	0.0139203
752.879	0.0139215
752.957	0.0137799
753.035	0.0137803
753.113	0.0138723
753.192	0.0139065
753.270	0.0140108
753.348	0.0139042
753.426	0.0139235
753.504	0.0138342
753.582	0.0138517
753.660	0.0138605
753.738	0.0138309
753.817	0.0139522
753.895	0.0138906
753.973	0.0140813
754.051	0.0139791
754.129	0.0140072
754.207	0.0139413
754.285	0.0140070
754.363	0.0139560
754.442	0.0139640
754.520	0.0140588
754.598	0.0142278
754.676	0.0140752
754.754	0.0141207
754.832	0.0140327
754.910	0.0140631
754.988	0.0140605
755.067	0.0140376
755.145	0.0141408
755.223	0.0141656
755.301	0.0141371
755.379	0.0140746
755.457	0.0140854
755.535	0.0141190
755.613	0.0139297
755.692	0.0140121
755.770	0.0140251
755.848	0.0139435
755.926	0.0138856
756.004	0.0138825
756.082	0.0137986
756.160	0.0138301
756.238	0.0136854
756.317	0.0137555
756.395	0.0137346
756.473	0.0136169
756.551	0.0135949
756.629	0.0137234
756.707	0.0136913
756.785	0.0136754
756.863	0.0137173
756.942	0.0136859
757.020	0.0136354
757.098	0.0135763
757.176	0.0135030
757.254	0.0136066
757.332	0.0137782
757.410	0.0136877
757.488	0.0137387
757.567	0.0138514
757.645	0.0136215
757.723	0.0135075
757.801	0.0136650
757.879	0.0136481
757.957	0.0137400
758.035	0.0135796
758.113	0.0137199
758.192	0.0136530
758.270	0.0137534
758.348	0.0136851
758.426	0.0136852
758.504	0.0136248
758.582	0.0136189
758.660	0.0134924
758.738	0.0136925
758.817	0.0136197
758.895	0.0136594
758.973	0.0136504
759.051	0.0136355
759.129	0.0135921
759.207	0.0135690
759.285	0.0135320
759.363	0.0137202
759.442	0.0136051
759.520	0.0136082
759.598	0.0135426
759.676	0.0136459
759.754	0.0135806
759.832	0.0135273
759.910	0.0136254
759.988	0.0135580
760.067	0.0135191
760.145	0.0134886
760.223	0.0135766
760.301	0.0135065
760.379	0.0136449
760.457	0.0136015
760.535	0.0136205
760.613	0.0135391
760.692	0.0136344
760.770	0.0134454
760.848	0.0134666
760.926	0.0133906
761.004	0.0135694
761.082	0.0135262
761.160	0.0136025
761.238	0.0135913
761.317	0.0134834
761.395	0.0135235
761.473	0.0135498
761.551	0.0135623
761.629	0.0136275
761.707	0.0135365
761.785	0.0134733
761.863	0.0136639
761.942	0.0137421
762.020	0.0136406
762.098	0.0136245
762.176	0.0136088
762.254	0.0137301
762.332	0.0136247
762.410	0.0135554
762.488	0.0136811
762.567	0.0138393
762.645	0.0136480
762.723	0.0136446
762.801	0.0137319
762.879	0.0137741
762.957	0.0139333
763.035	0.0139193
763.113	0.0138339
763.192	0.0139432
763.270	0.0140540
763.348	0.0138434
763.426	0.0139143
763.504	0.0139421
763.582	0.0138784
763.660	0.0138872
763.738	0.0139581
763.817	0.0140236
763.895	0.0139729
763.973	0.0138697
764.051	0.0138296
764.129	0.0139628
764.207	0.0140762
764.285	0.0139872
764.363	0.0138969
764.442	0.0140251
764.520	0.0140120
764.598	0.0140467
764.676	0.0139112
764.754	0.0139529
764.832	0.0139163
764.910	0.0138223
764.988	0.0138345
765.067	0.0138580
765.145	0.0139703
765.223	0.0137554
765.301	0.0138348
765.379	0.0137245
765.457	0.0138293
765.535	0.0138634
765.613	0.0138142
765.692	0.0138818
765.770	0.0138121
765.848	0.0136859
765.926	0.0137833
766.004	0.0137405
766.082	0.0137532
766.160	0.0137552
766.238	0.0136604
766.317	0.0138445
766.395	0.0138219
766.473	0.0135776
766.551	0.0137351
766.629	0.0137006
766.707	0.0136436
766.785	0.0136938
766.863	0.0136031
766.942	0.0136372
767.020	0.0137334
767.098	0.0135703
767.176	0.0135784
767.254	0.0136149
767.332	0.0136711
767.410	0.0136781
767.488	0.0136420
767.567	0.0137938
767.645	0.0135789
767.723	0.0135923
767.801	0.0137482
767.879	0.0136967
767.957	0.0136255
768.035	0.0136883
768.113	0.0137274
768.192	0.0136532
768.270	0.0137664
768.348	0.0137686
768.426	0.0136366
768.504	0.0136572
768.582	0.0137291
768.660	0.0137962
768.738	0.0138329
768.817	0.0137469
768.895	0.0137897
768.973	0.0136417
769.051	0.0137194
769.129	0.0137624
769.207	0.0136842
769.285	0.0136901
769.363	0.0138109
769.442	0.0136457
769.520	0.0136153
769.598	0.0135789
769.676	0.0137084
769.754	0.0136409
769.832	0.0136572
769.910	0.0137415
769.988	0.0136075
770.067	0.0136459
770.145	0.0136620
770.223	0.0137687
770.301	0.0137652
770.379	0.0136460
770.457	0.0135532
770.535	0.0135612
770.613	0.0136041
770.692	0.0136086
770.770	0.0137493
770.848	0.0136241
770.926	0.0135265
771.004	0.0136356
771.082	0.0135236
771.160	0.0135191
771.238	0.0136671
771.317	0.0137377
771.395	0.0136781
771.473	0.0136416
771.551	0.0136561
771.629	0.0137701
771.707	0.0137535
771.785	0.0137167
771.863	0.0138640
771.942	0.0137525
772.020	0.0137302
772.098	0.0138337
772.176	0.0137823
772.254	0.0137746
772.332	0.0137759
772.410	0.0137955
772.488	0.0139468
772.567	0.0137713
772.645	0.0139034
772.723	0.0139866
772.801	0.0137728
772.879	0.0138317
772.957	0.0138647
773.035	0.0139523
773.113	0.0138562
773.192	0.0139497
773.270	0.0138135
773.348	0.0138130
773.426	0.0139198
773.504	0.0137690
773.582	0.0139870
773.660	0.0139336
773.738	0.0139676
773.817	0.0138345
773.895	0.0137671
773.973	0.0138325
774.051	0.0139609
774.129	0.0138288
774.207	0.0137467
774.285	0.0140440
774.363	0.0139297
774.442	0.0137956
774.520	0.0138796
774.598	0.0138921
774.676	0.0137352
774.754	0.0139765
774.832	0.0138821
774.910	0.0137707
774.988	0.0140672
775.067	0.0140249
775.145	0.0137431
775.223	0.0138957
775.301	0.0138833
775.379	0.0138161
775.457	0.0137978
775.535	0.0138132
775.613	0.0139713
775.692	0.0138151
775.770	0.0137813
775.848	0.0137700
775.926	0.0138838
776.004	0.0138641
776.082	0.0137848
776.160	0.0138164
776.238	0.0139459
776.317	0.0138693
776.395	0.0138650
776.473	0.0139489
776.551	0.0139040
776.629	0.0137583
776.707	0.0138972
776.785	0.0138577
776.863	0.0138554
776.942	0.0138162
777.020	0.0137390
777.098	0.0139558
777.176	0.0138326
777.254	0.0137442
777.332	0.0139156
777.410	0.0139037
777.488	0.0138228
777.567	0.0138277
777.645	0.0139281
777.723	0.0138155
777.801	0.0136948
777.879	0.0139364
777.957	0.0137241
778.035	0.0137206
778.113	0.0138035
778.192	0.0137528
778.270	0.0138105
778.348	0.0138509
778.426	0.0136702
778.504	0.0137700
778.582	0.0137846
778.660	0.0138212
778.738	0.0137454
778.817	0.0137367
778.895	0.0137115
778.973	0.0137321
779.051	0.0137180
779.129	0.0138026
779.207	0.0136302
779.285	0.0136467
779.363	0.0137836
779.442	0.0136785
779.520	0.0138067
779.598	0.0137198
779.676	0.0136442
779.754	0.0139444
779.832	0.0136375
779.910	0.0136745
779.988	0.0137969
780.067	0.0138343
780.145	0.0136961
780.223	0.0136779
780.301	0.0137635
780.379	0.0137656
780.457	0.0137674
780.535	0.0137462
780.613	0.0137578
780.692	0.0138005
780.770	0.0138428
780.848	0.0136759
780.926	0.0137004
781.004	0.0137482
781.082	0.0136103
781.160	0.0136196
781.238	0.0136688
781.317	0.0137162
781.395	0.0138525
781.473	0.0136219
781.551	0.0136402
781.629	0.0135564
781.707	0.0138013
781.785	0.0136525
781.863	0.0135612
781.942	0.0136938
782.020	0.0136136
782.098	0.0136617
782.176	0.0138051
782.254	0.0137823
782.332	0.0137961
782.410	0.0135405
782.488	0.0135268
782.567	0.0135858
782.645	0.0137271
782.723	0.0136224
782.801	0.0135745
782.879	0.0136325
782.957	0.0135941
783.035	0.0135471
783.113	0.0135017
783.192	0.0135991
783.270	0.0136898
783.348	0.0136324
783.426	0.0135438
783.504	0.0137217
783.582	0.0136205
783.660	0.0136815
783.738	0.0137881
783.817	0.0137046
783.895	0.0137826
783.973	0.0136743
784.051	0.0137708
784.129	0.0138182
784.207	0.0139448
784.285	0.0137730
784.363	0.0138052
784.442	0.0138224
784.520	0.0138962
784.598	0.0138365
784.676	0.0137746
784.754	0.0138985
784.832	0.0138371
784.910	0.0138666
784.988	0.0138020
785.067	0.0137366
785.145	0.0138314
785.223	0.0138318
785.301	0.0137978
785.379	0.0139424
785.457	0.0137782
785.535	0.0138316
785.613	0.0137686
785.692	0.0138034
785.770	0.0138488
785.848	0.0138623
785.926	0.0139011
786.004	0.0138107
786.082	0.0139428
786.160	0.0138335
786.238	0.0138575
786.317	0.0138166
786.395	0.0138223
786.473	0.0137614
786.551	0.0138855
786.629	0.0139289
786.707	0.0137899
786.785	0.0139660
786.863	0.0139264
786.942	0.0139216
787.020	0.0139507
787.098	0.0138773
787.176	0.0139486
787.254	0.0139845
787.332	0.0140003
787.410	0.0140192
787.488	0.0139530
787.567	0.0138838
787.645	0.0139738
787.723	0.0139258
787.801	0.0139224
787.879	0.0140225
787.957	0.0139523
788.035	0.0138611
788.113	0.0139742
788.192	0.0138846
788.270	0.0139974
788.348	0.0137588
788.426	0.0138796
788.504	0.0138383
788.582	0.0137611
788.660	0.0139832
788.738	0.0138985
788.817	0.0139780
788.895	0.0138459
788.973	0.0138865
789.051	0.0137736
789.129	0.0137185
789.207	0.0138184
789.285	0.0138990
789.363	0.0138589
789.442	0.0138296
789.520	0.0138706
789.598	0.0139243
789.676	0.0139735
789.754	0.0139894
789.832	0.0140252
789.910	0.0139230
789.988	0.0140046
790.067	0.0141019
790.145	0.0140069
790.223	0.0140316
790.301	0.0141270
790.379	0.0139484
790.457	0.0139482
790.535	0.0138761
790.613	0.0139198
790.692	0.0138972
790.770	0.0140993
790.848	0.0139497
790.926	0.0139301
791.004	0.0139745
791.082	0.0139703
791.160	0.0138297
791.238	0.0138798
791.317	0.0138962
791.395	0.0138293
791.473	0.0137653
791.551	0.0137515
791.629	0.0138359
791.707	0.0138448
791.785	0.0138496
791.863	0.0137723
791.942	0.0138504
792.020	0.0139400
792.098	0.0138891
792.176	0.0137548
792.254	0.0139175
792.332	0.0138086
792.410	0.0138264
792.488	0.0138979
792.567	0.0137740
792.645	0.0139640
792.723	0.0139956
792.801	0.0137917
792.879	0.0137411
792.957	0.0138051
793.035	0.0138007
793.113	0.0137967
793.192	0.0137637
793.270	0.0138818
793.348	0.0137904
793.426	0.0138384
793.504	0.0138624
793.582	0.0137550
793.660	0.0139339
793.738	0.0138953
793.817	0.0138364
793.895	0.0138320
793.973	0.0139412
794.051	0.0139867
794.129	0.0140200
794.207	0.0139104
794.285	0.0139068
794.363	0.0139832
794.442	0.0140236
794.520	0.0140379
794.598	0.0138907
794.676	0.0140427
794.754	0.0138779
794.832	0.0139499
794.910	0.0141282
794.988	0.0139584
795.067	0.0140282
795.145	0.0139908
795.223	0.0138856
795.301	0.0140722
795.379	0.0140622
795.457	0.0140272
795.535	0.0141360
795.613	0.0139172
795.692	0.0141629
795.770	0.0140135
795.848	0.0139452
795.926	0.0140529
796.004	0.0140679
796.082	0.0140938
796.160	0.0138381
796.238	0.0138716
796.317	0.0138647
796.395	0.0137907
796.473	0.0138287
796.551	0.0138125
796.629	0.0137447
796.707	0.0136576
796.785	0.0136913
796.863	0.0136224
796.942	0.0136831
797.020	0.0138007
797.098	0.0135714
797.176	0.0136594
797.254	0.0137009
797.332	0.0137646
797.410	0.0136598
797.488	0.0136992
797.567	0.0136245
797.645	0.0136604
797.723	0.0137823
797.801	0.0137064
797.879	0.0137204
797.957	0.0137708
798.035	0.0137431
798.113	0.0136761
798.192	0.0135992
798.270	0.0137899
798.348	0.0138390
798.426	0.0137065
798.504	0.0137929
798.582	0.0137592
798.660	0.0138163
798.738	0.0137436
798.817	0.0137109
798.895	0.0135752
798.973	0.0136018
799.051	0.0137370
799.129	0.0136909
799.207	0.0135891
799.285	0.0136111
799.363	0.0135461
799.442	0.0137023
799.520	0.0136845
799.598	0.0136162
799.676	0.0136450
799.754	0.0135807
799.832	0.0136914
799.910	0.0136485
799.988	0.0138174
800.067	0.0137949
800.145	0.0136449
800.223	0.0136061
800.301	0.0136848
800.379	0.0138560
800.457	0.0137053
800.535	0.0138012
800.613	0.0138506
800.692	0.0138377
800.770	0.0138814
800.848	0.0138223
800.926	0.0136984
801.004	0.0137179
801.082	0.0137804
801.160	0.0136948
801.238	0.0138752
801.317	0.0137025
801.395	0.0136674
801.473	0.0137574
801.551	0.0137165
801.629	0.0136532
801.707	0.0135406
801.785	0.0136692
801.863	0.0137564
801.942	0.0137668
802.020	0.0136055
802.098	0.0135014
802.176	0.0135083
802.254	0.0135214
802.332	0.0135828
802.410	0.0136842
802.488	0.0136076
802.567	0.0135508
802.645	0.0136732
802.723	0.0135575
802.801	0.0136682
802.879	0.0135873
802.957	0.0137301
803.035	0.0137570
803.113	0.0137545
803.192	0.0138480
803.270	0.0138830
803.348	0.0137569
803.426	0.0136741
803.504	0.0138937
803.582	0.0138402
803.660	0.0137981
803.738	0.0139017
803.817	0.0137653
803.895	0.0137333
803.973	0.0137831
804.051	0.0139126
804.129	0.0138261
804.207	0.0137173
804.285	0.0138193
804.363	0.0139560
804.442	0.0139212
804.520	0.0138268
804.598	0.0137740
804.676	0.0137642
804.754	0.0138405
804.832	0.0137941
804.910	0.0135701
804.988	0.0138032
805.067	0.0138338
805.145	0.0138700
805.223	0.0138084
805.301	0.0138059
805.379	0.0138712
805.457	0.0137495
805.535	0.0138067
805.613	0.0139637
805.692	0.0138472
805.770	0.0137496
805.848	0.0138776
805.926	0.0138413
806.004	0.0139745
806.082	0.0138634
806.160	0.0138380
806.238	0.0138636
806.317	0.0139265
806.395	0.0138224
806.473	0.0138579
806.551	0.0138316
806.629	0.0137447
806.707	0.0137772
806.785	0.0138367
806.863	0.0138885
806.942	0.0138487
807.020	0.0138921
807.098	0.0138208
807.176	0.0137360
807.254	0.0138000
807.332	0.0138867
807.410	0.0137779
807.488	0.0137396
807.567	0.0137540
807.645	0.0137756
807.723	0.0136436
807.801	0.0137540
807.879	0.0137180
807.957	0.0137334
808.035	0.0135593
808.113	0.0135404
808.192	0.0136871
808.270	0.0136047
808.348	0.0136198
808.426	0.0136079
808.504	0.0135599
808.582	0.0136082
808.660	0.0136649
808.738	0.0136610
808.817	0.0135261
808.895	0.0136529
808.973	0.0135799
809.051	0.0135697
809.129	0.0137359
809.207	0.0136268
809.285	0.0136123
809.363	0.0136197
809.442	0.0137217
809.520	0.0136710
809.598	0.0137877
809.676	0.0137416
809.754	0.0138205
809.832	0.0137229
809.910	0.0139960
809.988	0.0138835
810.067	0.0137865
810.145	0.0137983
810.223	0.0138712
810.301	0.0138848
810.379	0.0137688
810.457	0.0138591
810.535	0.0139587
810.613	0.0139299
810.692	0.0138870
810.770	0.0137316
810.848	0.0139678
810.926	0.0137799
811.004	0.0138638
811.082	0.0140058
811.160	0.0138718
811.238	0.0139124
811.317	0.0139746
811.395	0.0140607
811.473	0.0139600
811.551	0.0139905
811.629	0.0140102
811.707	0.0140381
811.785	0.0139296
811.863	0.0140656
811.942	0.0140742
812.020	0.0139321
812.098	0.0140311
812.176	0.0139883
812.254	0.0139697
812.332	0.0140410
812.410	0.0140218
812.488	0.0139090
812.567	0.0140305
812.645	0.0140921
812.723	0.0138123
812.801	0.0138898
812.879	0.0137956
812.957	0.0137979
813.035	0.0138239
813.113	0.0137659
813.192	0.0138560
813.270	0.0139095
813.348	0.0138152
813.426	0.0138975
813.504	0.0140012
813.582	0.0138022
813.660	0.0137588
813.738	0.0138808
813.817	0.0139223
813.895	0.0138752
813.973	0.0138810
814.051	0.0138258
814.129	0.0137991
814.207	0.0138463
814.285	0.0139040
814.363	0.0139408
814.442	0.0138647
814.520	0.0137039
814.598	0.0138750
814.676	0.0139906
814.754	0.0140209
814.832	0.0140227
814.910	0.0140613
814.988	0.0140012
815.067	0.0139993
815.145	0.0140466
815.223	0.0140377
815.301	0.0139210
815.379	0.0138965
815.457	0.0138424
815.535	0.0137909
815.613	0.0139324
815.692	0.0138866
815.770	0.0139793
815.848	0.0138000
815.926	0.0137668
816.004	0.0136555
816.082	0.0136021
816.160	0.0136922
816.238	0.0137100
816.317	0.0137635
816.395	0.0137583
816.473	0.0137196
816.551	0.0136193
816.629	0.0136463
816.707	0.0136295
816.785	0.0136150
816.863	0.0136948
816.942	0.0135260
817.020	0.0135875
817.098	0.0136027
817.176	0.0137328
817.254	0.0134103
817.332	0.0135709
817.410	0.0136658
817.488	0.0136932
817.567	0.0137256
817.645	0.0135793
817.723	0.0136832
817.801	0.0138483
817.879	0.0137746
817.957	0.0137136
818.035	0.0136186
818.113	0.0137522
818.192	0.0138518
818.270	0.0138327
818.348	0.0137324
818.426	0.0137514
818.504	0.0137349
818.582	0.0138519
818.660	0.0139101
818.738	0.0139130
818.817	0.0138200
818.895	0.0136942
818.973	0.0139331
819.051	0.0137132
819.129	0.0137575
819.207	0.0137978
819.285	0.0138617
819.363	0.0137063
819.442	0.0139196
819.520	0.0137948
819.598	0.0138956
819.676	0.0137833
819.754	0.0138607
819.832	0.0138334
819.910	0.0138131
819.988	0.0136808
820.067	0.0137867
820.145	0.0136829
820.223	0.0139126
820.301	0.0136981
820.379	0.0137992
820.457	0.0138275
820.535	0.0136995
820.613	0.0138457
820.692	0.0138433
820.770	0.0139084
820.848	0.0138017
820.926	0.0138430
821.004	0.0139438
821.082	0.0139399
821.160	0.0137908
821.238	0.0138892
821.317	0.0139615
821.395	0.0138541
821.473	0.0139322
821.551	0.0138095
821.629	0.0137598
821.707	0.0136920
821.785	0.0138099
821.863	0.0138047
821.942	0.0138277
822.020	0.0136047
822.098	0.0137275
822.176	0.0138485
822.254	0.0137020
822.332	0.0137815
822.410	0.0136961
822.488	0.0134460
822.567	0.0137132
822.645	0.0136136
822.723	0.0135614
822.801	0.0135442
822.879	0.0136492
822.957	0.0136870
823.035	0.0136279
823.113	0.0137190
823.192	0.0136002
823.270	0.0136351
823.348	0.0137663
823.426	0.0138469
823.504	0.0137305
823.582	0.0137109
823.660	0.0137410
823.738	0.0135999
823.817	0.0135976
823.895	0.0137017
823.973	0.0137035
824.051	0.0136768
824.129	0.0136551
824.207	0.0135379
824.285	0.0136955
824.363	0.0137556
824.442	0.0136827
824.520	0.0137765
824.598	0.0136694
824.676	0.0136674
824.754	0.0136474
824.832	0.0135502
824.910	0.0135519
824.988	0.0136094
825.067	0.0135862
825.145	0.0134590
825.223	0.0136179
825.301	0.0136578
825.379	0.0136747
825.457	0.0136530
825.535	0.0137300
825.613	0.0136116
825.692	0.0136339
825.770	0.0136243
825.848	0.0136644
825.926	0.0137925
826.004	0.0137373
826.082	0.0137775
826.160	0.0138198
826.238	0.0136961
826.317	0.0137775
826.395	0.0137872
826.473	0.0138654
826.551	0.0139507
826.629	0.0138629
826.707	0.0139051
826.785	0.0138258
826.863	0.0138960
826.942	0.0138897
827.020	0.0139083
827.098	0.0137310
827.176	0.0139724
827.254	0.0139222
827.332	0.0138365
827.410	0.0139169
827.488	0.0137684
827.567	0.0137309
827.645	0.0139368
827.723	0.0138659
827.801	0.0137388
827.879	0.0138438
827.957	0.0138815
828.035	0.0138234
828.113	0.0139072
828.192	0.0139526
828.270	0.0138827
828.348	0.0138914
828.426	0.0137907
828.504	0.0139368
828.582	0.0139758
828.660	0.0138495
828.738	0.0139178
828.817	0.0139137
828.895	0.0138667
828.973	0.0138203
829.051	0.0139089
829.129	0.0139500
829.207	0.0139548
829.285	0.0138896
829.363	0.0138169
829.442	0.0140114
829.520	0.0139195
829.598	0.0139048
829.676	0.0138451
829.754	0.0139106
829.832	0.0139701
829.910	0.0140575
829.988	0.0139323
830.067	0.0138491
830.145	0.0139460
830.223	0.0139388
830.301	0.0140076
830.379	0.0139072
830.457	0.0138428
830.535	0.0138403
830.613	0.0138868
830.692	0.0138706
830.770	0.0137304
830.848	0.0136711
830.926	0.0137786
831.004	0.0137106
831.082	0.0135224
831.160	0.0135742
831.238	0.0135027
831.317	0.0134841
831.395	0.0135594
831.473	0.0136084
831.551	0.0134195
831.629	0.0136491
831.707	0.0135280
831.785	0.0135031
831.863	0.0136225
831.942	0.0136705
832.020	0.0135908
832.098	0.0134328
832.176	0.0135384
832.254	0.0137592
832.332	0.0136744
832.410	0.0136909
832.488	0.0136452
832.567	0.0137145
832.645	0.0137996
832.723	0.0137846
832.801	0.0136320
832.879	0.0136270
832.957	0.0137666
833.035	0.0139505
833.113	0.0138395
833.192	0.0138103
833.270	0.0138249
833.348	0.0138542
833.426	0.0137756
833.504	0.0138173
833.582	0.0138271
833.660	0.0139149
833.738	0.0139005
833.817	0.0136861
833.895	0.0137822
833.973	0.0137527
834.051	0.0137005
834.129	0.0136954
834.207	0.0138351
834.285	0.0137555
834.363	0.0136965
834.442	0.0138715
834.520	0.0139738
834.598	0.0138185
834.676	0.0137280
834.754	0.0139304
834.832	0.0137775
834.910	0.0137994
834.988	0.0137788
835.067	0.0137817
835.145	0.0138332
835.223	0.0137218
835.301	0.0138416
835.379	0.0138361
835.457	0.0137373
835.535	0.0138131
835.613	0.0138314
835.692	0.0138089
835.770	0.0136098
835.848	0.0136101
835.926	0.0137563
836.004	0.0139518
836.082	0.0137260
836.160	0.0137668
836.238	0.0137702
836.317	0.0137923
836.395	0.0136954
836.473	0.0137041
836.551	0.0138212
836.629	0.0137624
836.707	0.0137541
836.785	0.0138657
836.863	0.0138637
836.942	0.0137475
837.020	0.0138176
837.098	0.0137624
837.176	0.0139346
837.254	0.0136677
837.332	0.0138166
837.410	0.0138232
837.488	0.0138309
837.567	0.0138129
837.645	0.0138052
837.723	0.0138848
837.801	0.0138316
837.879	0.0139439
837.957	0.0137855
838.035	0.0138943
838.113	0.0140512
838.192	0.0138876
838.270	0.0138444
838.348	0.0137310
838.426	0.0137693
838.504	0.0139039
838.582	0.0138319
838.660	0.0137011
838.738	0.0137839
838.817	0.0138854
838.895	0.0137859
838.973	0.0137910
839.051	0.0138345
839.129	0.0138805
839.207	0.0137529
839.285	0.0138585
839.363	0.0138944
839.442	0.0138880
839.520	0.0138026
839.598	0.0138943
839.676	0.0138193
839.754	0.0138549
839.832	0.0137589
839.910	0.0137508
839.988	0.0138425
840.067	0.0137699
840.145	0.0138486
840.223	0.0138583
840.301	0.0137233
840.379	0.0136562
840.457	0.0137710
840.535	0.0136664
840.613	0.0136471
840.692	0.0137165
840.770	0.0136960
840.848	0.0136584
840.926	0.0136961
841.004	0.0137930
841.082	0.0137174
841.160	0.0135830
841.238	0.0136245
841.317	0.0137598
841.395	0.0137143
841.473	0.0136124
841.551	0.0136907
841.629	0.0136314
841.707	0.0137110
841.785	0.0135827
841.863	0.0137884
841.942	0.0136512
842.020	0.0137367
842.098	0.0137341
842.176	0.0136879
842.254	0.0136079
842.332	0.0136546
842.410	0.0137562
842.488	0.0136255
842.567	0.0135646
842.645	0.0136324
842.723	0.0137201
842.801	0.0137347
842.879	0.0136382
842.957	0.0135832
843.035	0.0136094
843.113	0.0138544
843.192	0.0137473
843.270	0.0137116
843.348	0.0137793
843.426	0.0136727
843.504	0.0136909
843.582	0.0137308
843.660	0.0138541
843.738	0.0138174
843.817	0.0135954
843.895	0.0136554
843.973	0.0136456
844.051	0.0137589
844.129	0.0138438
844.207	0.0136070
844.285	0.0136563
844.363	0.0137225
844.442	0.0136413
844.520	0.0136108
844.598	0.0135780
844.676	0.0134922
844.754	0.0136559
844.832	0.0137205
844.910	0.0136918
844.988	0.0136038
845.067	0.0137248
845.145	0.0137250
845.223	0.0137247
845.301	0.0136200
845.379	0.0136775
845.457	0.0136928
845.535	0.0136688
845.613	0.0136745
845.692	0.0135950
845.770	0.0136119
845.848	0.0136894
845.926	0.0136407
846.004	0.0136121
846.082	0.0136795
846.160	0.0135855
846.238	0.0136668
846.317	0.0137361
846.395	0.0137431
846.473	0.0136578
846.551	0.0136320
846.629	0.0137167
846.707	0.0135959
846.785	0.0136471
846.863	0.0135964
846.942	0.0136691
847.020	0.0137411
847.098	0.0136797
847.176	0.0137924
847.254	0.0136047
847.332	0.0134808
847.410	0.0136146
847.488	0.0135774
847.567	0.0135973
847.645	0.0136605
847.723	0.0137588
847.801	0.0137819
847.879	0.0137464
847.957	0.0135555
848.035	0.0135767
848.113	0.0137943
848.192	0.0138280
848.270	0.0136396
848.348	0.0137260
848.426	0.0138957
848.504	0.0139114
848.582	0.0139491
848.660	0.0138000
848.738	0.0138726
848.817	0.0137837
848.895	0.0139121
848.973	0.0139246
849.051	0.0138282
849.129	0.0139278
849.207	0.0138118
849.285	0.0138452
849.363	0.0138183
849.442	0.0137633
849.520	0.0138951
849.598	0.0138957
849.676	0.0138448
849.754	0.0138816
849.832	0.0137476
849.910	0.0138949
849.988	0.0138662
850.067	0.0139127
850.145	0.0140258
850.223	0.0140666
850.301	0.0139197
850.379	0.0138905
850.457	0.0138497
850.535	0.0138590
850.613	0.0139375
850.692	0.0139375
850.770	0.0138851
850.848	0.0138396
850.926	0.0138553
851.004	0.0139216
851.082	0.0138886
851.160	0.0139057
851.238	0.0138942
851.317	0.0138988
851.395	0.0138198
851.473	0.0139712
851.551	0.0138191
851.629	0.0139088
851.707	0.0140346
851.785	0.0140167
851.863	0.0138881
851.942	0.0138758
852.020	0.0139046
852.098	0.0139211
852.176	0.0138766
852.254	0.0138441
852.332	0.0138027
852.410	0.0139869
852.488	0.0140997
852.567	0.0138672
852.645	0.0139153
852.723	0.0137871
852.801	0.0138795
852.879	0.0138928
852.957	0.0137737
853.035	0.0137045
853.113	0.0139075
853.192	0.0137295
853.270	0.0137805
853.348	0.0138407
853.426	0.0136889
853.504	0.0137096
853.582	0.0137448
853.660	0.0138037
853.738	0.0136889
853.817	0.0137880
853.895	0.0137414
853.973	0.0136848
854.051	0.0136724
854.129	0.0137362
854.207	0.0137594
854.285	0.0138375
854.363	0.0137271
854.442	0.0139101
854.520	0.0138993
854.598	0.0137780
854.676	0.0137412
854.754	0.0138628
854.832	0.0137994
854.910	0.0138358
854.988	0.0138900
855.067	0.0138436
855.145	0.0137819
855.223	0.0137786
855.301	0.0137822
855.379	0.0137309
855.457	0.0137151
855.535	0.0137310
855.613	0.0137739
855.692	0.0137163
855.770	0.0137018
855.848	0.0137051
855.926	0.0136933
856.004	0.0137532
856.082	0.0137164
856.160	0.0138186
856.238	0.0138880
856.317	0.0137268
856.395	0.0137300
856.473	0.0137727
856.551	0.0137814
856.629	0.0137368
856.707	0.0137337
856.785	0.0138618
856.863	0.0138200
856.942	0.0136781
857.020	0.0138066
857.098	0.0139060
857.176	0.0138777
857.254	0.0138889
857.332	0.0139381
857.410	0.0137527
857.488	0.0139529
857.567	0.0139113
857.645	0.0138121
857.723	0.0138252
857.801	0.0138085
857.879	0.0138769
857.957	0.0138420
858.035	0.0138503
858.113	0.0139460
858.192	0.0138150
858.270	0.0138754
858.348	0.0138485
858.426	0.0138717
858.504	0.0136968
858.582	0.0137135
858.660	0.0138440
858.738	0.0137595
858.817	0.0138373
858.895	0.0138049
858.973	0.0137810
859.051	0.0138613
859.129	0.0138961
859.207	0.0137616
859.285	0.0138506
859.363	0.0137674
859.442	0.0138651
859.520	0.0138710
859.598	0.0138418
859.676	0.0137857
859.754	0.0138557
859.832	0.0138763
859.910	0.0137677
859.988	0.0138663
860.067	0.0139169
860.145	0.0137540
860.223	0.0139437
860.301	0.0139590
860.379	0.0138162
860.457	0.0138914
860.535	0.0139461
860.613	0.0137561
860.692	0.0138663
860.770	0.0140705
860.848	0.0139233
860.926	0.0139294
861.004	0.0137560
861.082	0.0138647
861.160	0.0137408
861.238	0.0138797
861.317	0.0137864
861.395	0.0137692
861.473	0.0137932
861.551	0.0136948
861.629	0.0137547
861.707	0.0137521
861.785	0.0138931
861.863	0.0138310
861.942	0.0136536
862.020	0.0136030
862.098	0.0136310
862.176	0.0136736
862.254	0.0136074
862.332	0.0136723
862.410	0.0135140
862.488	0.0134543
862.567	0.0135297
862.645	0.0136125
862.723	0.0136320
862.801	0.0134504
862.879	0.0136243
862.957	0.0134566
863.035	0.0133984
863.113	0.0135738
863.192	0.0135954
863.270	0.0136848
863.348	0.0136134
863.426	0.0135095
863.504	0.0136092
863.582	0.0135964
863.660	0.0136320
863.738	0.0135492
863.817	0.0136868
863.895	0.0136182
863.973	0.0135091
864.051	0.0136110
864.129	0.0137935
864.207	0.0135479
864.285	0.0136028
864.363	0.0136522
864.442	0.0136832
864.520	0.0136399
864.598	0.0135063
864.676	0.0135997
864.754	0.0137012
864.832	0.0138115
864.910	0.0135796
864.988	0.0135881
865.067	0.0136090
865.145	0.0136522
865.223	0.0136501
865.301	0.0137271
865.379	0.0137852
865.457	0.0135621
865.535	0.0135986
865.613	0.0138189
865.692	0.0137239
865.770	0.0137457
865.848	0.0138374
865.926	0.0136967
866.004	0.0137139
866.082	0.0136823
866.160	0.0135561
866.238	0.0136633
866.317	0.0137718
866.395	0.0136637
866.473	0.0136585
866.551	0.0136389
866.629	0.0137128
866.707	0.0137241
866.785	0.0136761
866.863	0.0138035
866.942	0.0136711
867.020	0.0137281
867.098	0.0136309
867.176	0.0136132
867.254	0.0137565
867.332	0.0136758
867.410	0.0136527
867.488	0.0136158
867.567	0.0137482
867.645	0.0136592
867.723	0.0136835
867.801	0.0136887
867.879	0.0138342
867.957	0.0138255
868.035	0.0137901
868.113	0.0138386
868.192	0.0138515
868.270	0.0137742
868.348	0.0137950
868.426	0.0139658
868.504	0.0139811
868.582	0.0140104
868.660	0.0138397
868.738	0.0138427
868.817	0.0140373
868.895	0.0139733
868.973	0.0139774
869.051	0.0140632
869.129	0.0139431
869.207	0.0139697
869.285	0.0139760
869.363	0.0139587
869.442	0.0139629
869.520	0.0139957
869.598	0.0139099
869.676	0.0140298
869.754	0.0138850
869.832	0.0141057
869.910	0.0141309
869.988	0.0139229
870.067	0.0139427
870.145	0.0139723
870.223	0.0139758
870.301	0.0138843
870.379	0.0138931
870.457	0.0139338
870.535	0.0139371
870.613	0.0138824
870.692	0.0138642
870.770	0.0137384
870.848	0.0139533
870.926	0.0138438
871.004	0.0137740
871.082	0.0139507
871.160	0.0139026
871.238	0.0137978
871.317	0.0137744
871.395	0.0137937
871.473	0.0138361
871.551	0.0138564
871.629	0.0138853
871.707	0.0137827
871.785	0.0138540
871.863	0.0137157
871.942	0.0138196
872.020	0.0138755
872.098	0.0137226
872.176	0.0136970
872.254	0.0136947
872.332	0.0137816
872.410	0.0138047
872.488	0.0137494
872.567	0.0137724
872.645	0.0139442
872.723	0.0137663
872.801	0.0137473
872.879	0.0138273
872.957	0.0137858
873.035	0.0137585
873.113	0.0138651
873.192	0.0138333
873.270	0.0137863
873.348	0.0137901
873.426	0.0136769
873.504	0.0138145
873.582	0.0137048
873.660	0.0137411
873.738	0.0137551
873.817	0.0139473
873.895	0.0137554
873.973	0.0136366
874.051	0.0138101
874.129	0.0138712
874.207	0.0138110
874.285	0.0138130
874.363	0.0137000
874.442	0.0138007
874.520	0.0138124
874.598	0.0138052
874.676	0.0138741
874.754	0.0138129
874.832	0.0138564
874.910	0.0138420
874.988	0.0137965
875.067	0.0137982
875.145	0.0138957
875.223	0.0138042
875.301	0.0139371
875.379	0.0138454
875.457	0.0137967
875.535	0.0138873
875.613	0.0137456
875.692	0.0137630
875.770	0.0138053
875.848	0.0138099
875.926	0.0137354
876.004	0.0138877
876.082	0.0138321
876.160	0.0136983
876.238	0.0137373
876.317	0.0139053
876.395	0.0137904
876.473	0.0137297
876.551	0.0138779
876.629	0.0138432
876.707	0.0139034
876.785	0.0138060
876.863	0.0138642
876.942	0.0139368
877.020	0.0138297
877.098	0.0138264
877.176	0.0139342
877.254	0.0137472
877.332	0.0138487
877.410	0.0137653
877.488	0.0137208
877.567	0.0138659
877.645	0.0137910
877.723	0.0137093
877.801	0.0138724
877.879	0.0138187
877.957	0.0138332
878.035	0.0137926
878.113	0.0139449
878.192	0.0137981
878.270	0.0138698
878.348	0.0136494
878.426	0.0137014
878.504	0.0138433
878.582	0.0139143
878.660	0.0138989
878.738	0.0137805
878.817	0.0138937
878.895	0.0139899
878.973	0.0138023
879.051	0.0138634
879.129	0.0138515
879.207	0.0138277
879.285	0.0138309
879.363	0.0138342
879.442	0.0139067
879.520	0.0138842
879.598	0.0139410
879.676	0.0138412
879.754	0.0137965
879.832	0.0139156
879.910	0.0139449
879.988	0.0140697
880.067	0.0139246
880.145	0.0139478
880.223	0.0141150
880.301	0.0139114
880.379	0.0138905
880.457	0.0137901
880.535	0.0139036
880.613	0.0140173
880.692	0.0139391
880.770	0.0139497
880.848	0.0140273
880.926	0.0138354
881.004	0.0139351
881.082	0.0138847
881.160	0.0139320
881.238	0.0140279
881.317	0.0140223
881.395	0.0139123
881.473	0.0140244
881.551	0.0140144
881.629	0.0138625
881.707	0.0138642
881.785	0.0138602
881.863	0.0140371
881.942	0.0138055
882.020	0.0138126
882.098	0.0139193
882.176	0.0138726
882.254	0.0138619
882.332	0.0139036
882.410	0.0138539
882.488	0.0137315
882.567	0.0137090
882.645	0.0137672
882.723	0.0137928
882.801	0.0138036
882.879	0.0137204
882.957	0.0137070
883.035	0.0136736
883.113	0.0137348
883.192	0.0137408
883.270	0.0137186
883.348	0.0136555
883.426	0.0137220
883.504	0.0137344
883.582	0.0137057
883.660	0.0137878
883.738	0.0137128
883.817	0.0137524
883.895	0.0137184
883.973	0.0136503
884.051	0.0136597
884.129	0.0138161
884.207	0.0136541
884.285	0.0135441
884.363	0.0136263
884.442	0.0136292
884.520	0.0137484
884.598	0.0137976
884.676	0.0136875
884.754	0.0135500
884.832	0.0137403
884.910	0.0137512
884.988	0.0137542
885.067	0.0136831
885.145	0.0136977
885.223	0.0136047
885.301	0.0137531
885.379	0.0137762
885.457	0.0138031
885.535	0.0137778
885.613	0.0137778
885.692	0.0138073
885.770	0.0138615
885.848	0.0138560
885.926	0.0138894
886.004	0.0139553
886.082	0.0138230
886.160	0.0138795
886.238	0.0137795
886.317	0.0138379
886.395	0.0138954
886.473	0.0138507
886.551	0.0137402
886.629	0.0136605
886.707	0.0136541
886.785	0.0138226
886.863	0.0137321
886.942	0.0136308
887.020	0.0136681
887.098	0.0137286
887.176	0.0136629
887.254	0.0136555
887.332	0.0135136
887.410	0.0136884
887.488	0.0136003
887.567	0.0133765
887.645	0.0133929
887.723	0.0133540
887.801	0.0134607
887.879	0.0134431
887.957	0.0134422
888.035	0.0134850
888.113	0.0134700
888.192	0.0135452
888.270	0.0134019
888.348	0.0135013
888.426	0.0136539
888.504	0.0136112
888.582	0.0135717
888.660	0.0135722
888.738	0.0135650
888.817	0.0135899
888.895	0.0136414
888.973	0.0135822
889.051	0.0135339
889.129	0.0138316
889.207	0.0138893
889.285	0.0138454
889.363	0.0138226
889.442	0.0138477
889.520	0.0139275
889.598	0.0138515
889.676	0.0138839
889.754	0.0139127
889.832	0.0139050
889.910	0.0139108
889.988	0.0140163
890.067	0.0139737
890.145	0.0138948
890.223	0.0139783
890.301	0.0140326
890.379	0.0141476
890.457	0.0140269
890.535	0.0138955
890.613	0.0138330
890.692	0.0138846
890.770	0.0140485
890.848	0.0139517
890.926	0.0137379
891.004	0.0138594
891.082	0.0139573
891.160	0.0139809
891.238	0.0137784
891.317	0.0138674
891.395	0.0139438
891.473	0.0138353
891.551	0.0139190
891.629	0.0138454
891.707	0.0138226
891.785	0.0139773
891.863	0.0139235
891.942	0.0138176
892.020	0.0138596
892.098	0.0139111
892.176	0.0137238
892.254	0.0137325
892.332	0.0137560
892.410	0.0138860
892.488	0.0136556
892.567	0.0136887
892.645	0.0139288
892.723	0.0138843
892.801	0.0137363
892.879	0.0137521
892.957	0.0137996
893.035	0.0138010
893.113	0.0138514
893.192	0.0138392
893.270	0.0138577
893.348	0.0139001
893.426	0.0138702
893.504	0.0138284
893.582	0.0137241
893.660	0.0137610
893.738	0.0138021
893.817	0.0137955
893.895	0.0139217
893.973	0.0136726
894.051	0.0138525
894.129	0.0137502
894.207	0.0137684
894.285	0.0137270
894.363	0.0138712
894.442	0.0138821
894.520	0.0139730
894.598	0.0139940
894.676	0.0138627
894.754	0.0137423
894.832	0.0139926
894.910	0.0141824
894.988	0.0140236
895.067	0.0137989
895.145	0.0140437
895.223	0.0141424
895.301	0.0140836
895.379	0.0140886
895.457	0.0141060
895.535	0.0140098
895.613	0.0141121
895.692	0.0139837
895.770	0.0141252
895.848	0.0138823
895.926	0.0139957
896.004	0.0139588
896.082	0.0139851
896.160	0.0140128
896.238	0.0139486
896.317	0.0137814
896.395	0.0139181
896.473	0.0138828
896.551	0.0137738
896.629	0.0139123
896.707	0.0138513
896.785	0.0138950
896.863	0.0138441
896.942	0.0140237
897.020	0.0138564
897.098	0.0137757
897.176	0.0138194
897.254	0.0138448
897.332	0.0138988
897.410	0.0137621
897.488	0.0136942
897.567	0.0138136
897.645	0.0137434
897.723	0.0137821
897.801	0.0138049
897.879	0.0136738
897.957	0.0138501
898.035	0.0137811
898.113	0.0137510
898.192	0.0135939
898.270	0.0137113
898.348	0.0136274
898.426	0.0136634
898.504	0.0136445
898.582	0.0137008
898.660	0.0136098
898.738	0.0136832
898.817	0.0136327
898.895	0.0137273
898.973	0.0135978
899.051	0.0136519
899.129	0.0137025
899.207	0.0135397
899.285	0.0135795
899.363	0.0135826
899.442	0.0135986
899.520	0.0136550
899.598	0.0135317
899.676	0.0136385
899.754	0.0135203
899.832	0.0135990
899.910	0.0135652
899.988	0.0137641
900.067	0.0137431
900.145	0.0138165
900.223	0.0137907
900.301	0.0138374
900.379	0.0138790
900.457	0.0138426
900.535	0.0138704
900.613	0.0138110
900.692	0.0139293
900.770	0.0138448
900.848	0.0139440
900.926	0.0139232
901.004	0.0137731
901.082	0.0139151
901.160	0.0139094
901.238	0.0139136
901.317	0.0140304
901.395	0.0139941
901.473	0.0139339
901.551	0.0138731
901.629	0.0139274
901.707	0.0140119
901.785	0.0139388
901.863	0.0138662
901.942	0.0139151
902.020	0.0139277
902.098	0.0137598
902.176	0.0137144
902.254	0.0138297
902.332	0.0138238
902.410	0.0137994
902.488	0.0137972
902.567	0.0138179
902.645	0.0138207
902.723	0.0137726
902.801	0.0138268
902.879	0.0136932
902.957	0.0137950
903.035	0.0137297
903.113	0.0137836
903.192	0.0137394
903.270	0.0137797
903.348	0.0137016
903.426	0.0138164
903.504	0.0137601
903.582	0.0137338
903.660	0.0138142
903.738	0.0137375
903.817	0.0137261
903.895	0.0136750
903.973	0.0137341
904.051	0.0136779
904.129	0.0137390
904.207	0.0138506
904.285	0.0136391
904.363	0.0137656
904.442	0.0138499
904.520	0.0137961
904.598	0.0138558
904.676	0.0137489
904.754	0.0137748
904.832	0.0137997
904.910	0.0138898
904.988	0.0138179
905.067	0.0138769
905.145	0.0138402
905.223	0.0136115
905.301	0.0136665
905.379	0.0137643
905.457	0.0137973
905.535	0.0136612
905.613	0.0138811
905.692	0.0137791
905.770	0.0137682
905.848	0.0137804
905.926	0.0137875
906.004	0.0136614
906.082	0.0136946
906.160	0.0136622
906.238	0.0136832
906.317	0.0136954
906.395	0.0135615
906.473	0.0135823
906.551	0.0135570
906.629	0.0136464
906.707	0.0137016
906.785	0.0135709
906.863	0.0135624
906.942	0.0136073
907.020	0.0136053
907.098	0.0136817
907.176	0.0137324
907.254	0.0135902
907.332	0.0136934
907.410	0.0136279
907.488	0.0136784
907.567	0.0137283
907.645	0.0136465
907.723	0.0137204
907.801	0.0137804
907.879	0.0137096
907.957	0.0135957
908.035	0.0137737
908.113	0.0136948
908.192	0.0137756
908.270	0.0136124
908.348	0.0137153
908.426	0.0137133
908.504	0.0136816
908.582	0.0136607
908.660	0.0137349
908.738	0.0138297
908.817	0.0138228
908.895	0.0137318
908.973	0.0136565
909.051	0.0138625
909.129	0.0138356
909.207	0.0138681
909.285	0.0138509
909.363	0.0138371
909.442	0.0137291
909.520	0.0138481
909.598	0.0137907
909.676	0.0138301
909.754	0.0137428
909.832	0.0136803
909.910	0.0138034
909.988	0.0139261
910.067	0.0137819
910.145	0.0138686
910.223	0.0136621
910.301	0.0136700
910.379	0.0136821
910.457	0.0136899
910.535	0.0136513
910.613	0.0136553
910.692	0.0137958
910.770	0.0136737
910.848	0.0136284
910.926	0.0136205
911.004	0.0136830
911.082	0.0136485
911.160	0.0137331
911.238	0.0138524
911.317	0.0139451
911.395	0.0136951
911.473	0.0136901
911.551	0.0138390
911.629	0.0136893
911.707	0.0137460
911.785	0.0138737
911.863	0.0137208
911.942	0.0137450
912.020	0.0136514
912.098	0.0137119
912.176	0.0136713
912.254	0.0137425
912.332	0.0136903
912.410	0.0137012
912.488	0.0136642
912.567	0.0135384
912.645	0.0136310
912.723	0.0135548
912.801	0.0136641
912.879	0.0134807
912.957	0.0135527
913.035	0.0135171
913.113	0.0134472
913.192	0.0136208
913.270	0.0135661
913.348	0.0134928
913.426	0.0135599
913.504	0.0136026
913.582	0.0135423
913.660	0.0135653
913.738	0.0135995
913.817	0.0135316
913.895	0.0136604
913.973	0.0137346
914.051	0.0135743
914.129	0.0137303
914.207	0.0135702
914.285	0.0136734
914.363	0.0136308
914.442	0.0136808
914.520	0.0137028
914.598	0.0136349
914.676	0.0136365
914.754	0.0134654
914.832	0.0136541
914.910	0.0136792
914.988	0.0137074
915.067	0.0136250
915.145	0.0136467
915.223	0.0136195
915.301	0.0136650
915.379	0.0136887
915.457	0.0137478
915.535	0.0138065
915.613	0.0136349
915.692	0.0137775
915.770	0.0136628
915.848	0.0136858
915.926	0.0135126
916.004	0.0135855
916.082	0.0137479
916.160	0.0134657
916.238	0.0136703
916.317	0.0138004
916.395	0.0136294
916.473	0.0136646
916.551	0.0137267
916.629	0.0137820
916.707	0.0136609
916.785	0.0137190
916.863	0.0137767
916.942	0.0136374
917.020	0.0137440
917.098	0.0137040
917.176	0.0137116
917.254	0.0138425
917.332	0.0135992
917.410	0.0137522
917.488	0.0137834
917.567	0.0137341
917.645	0.0137364
917.723	0.0139675
917.801	0.0137929
917.879	0.0137483
917.957	0.0138912
918.035	0.0139059
918.113	0.0138503
918.192	0.0138113
918.270	0.0139631
918.348	0.0139008
918.426	0.0140737
918.504	0.0139255
918.582	0.0139172
918.660	0.0138990
918.738	0.0139056
918.817	0.0137908
918.895	0.0137824
918.973	0.0139397
919.051	0.0139394
919.129	0.0139391
919.207	0.0138184
919.285	0.0140345
919.363	0.0139391
919.442	0.0139035
919.520	0.0138818
919.598	0.0139491
919.676	0.0138548
919.754	0.0138512
919.832	0.0140205
919.910	0.0139082
