05/28/2022	14:37:02	Ver.	4.1	UNKNOWN
Optical Delay	599.988409	Delta X		0.078125	Sweeps	1	Scan Rate	0/0
Coordinates	Axis 1	NaN	Axis 2	NaN	Axis 3	NaN	Axis 4	NaN	Axis 5	NaN	Axis 6	0.000000
TX Power	0.000000	RX Power	0.000000

599.988	0.0135461
600.067	0.0136168
600.145	0.0135713
600.223	0.0137535
600.301	0.0135986
600.379	0.0135529
600.457	0.0135091
600.535	0.0135953
600.613	0.0136947
600.692	0.0136137
600.770	0.0136983
600.848	0.0137081
600.926	0.0137573
601.004	0.0136595
601.082	0.0137022
601.160	0.0135960
601.238	0.0136754
601.317	0.0136575
601.395	0.0136571
601.473	0.0135497
601.551	0.0137730
601.629	0.0136966
601.707	0.0136504
601.785	0.0135625
601.863	0.0135620
601.942	0.0135823
602.020	0.0137327
602.098	0.0135970
602.176	0.0135223
602.254	0.0136086
602.332	0.0136085
602.410	0.0136897
602.488	0.0136785
602.567	0.0135017
602.645	0.0134914
602.723	0.0135334
602.801	0.0137312
602.879	0.0135417
602.957	0.0135143
603.035	0.0135362
603.113	0.0136147
603.192	0.0135852
603.270	0.0135986
603.348	0.0136169
603.426	0.0135811
603.504	0.0135827
603.582	0.0135581
603.660	0.0135062
603.738	0.0136390
603.817	0.0135815
603.895	0.0135905
603.973	0.0136601
604.051	0.0137614
604.129	0.0136890
604.207	0.0136018
604.285	0.0136102
604.363	0.0134837
604.442	0.0135995
604.520	0.0135118
604.598	0.0136215
604.676	0.0135146
604.754	0.0135980
604.832	0.0136561
604.910	0.0135275
604.988	0.0135342
605.067	0.0134988
605.145	0.0136802
605.223	0.0135168
605.301	0.0133082
605.379	0.0135396
605.457	0.0135266
605.535	0.0134945
605.613	0.0134182
605.692	0.0133436
605.770	0.0133743
605.848	0.0135197
605.926	0.0134720
606.004	0.0134302
606.082	0.0133521
606.160	0.0133680
606.238	0.0133941
606.317	0.0132906
606.395	0.0133533
606.473	0.0135305
606.551	0.0134480
606.629	0.0133448
606.707	0.0134110
606.785	0.0133734
606.863	0.0132906
606.942	0.0133134
607.020	0.0132913
607.098	0.0132557
607.176	0.0133084
607.254	0.0132874
607.332	0.0133002
607.410	0.0132572
607.488	0.0132557
607.567	0.0133001
607.645	0.0132473
607.723	0.0132745
607.801	0.0132912
607.879	0.0134117
607.957	0.0132826
608.035	0.0133604
608.113	0.0133588
608.192	0.0133535
608.270	0.0133201
608.348	0.0134177
608.426	0.0134190
608.504	0.0133434
608.582	0.0133428
608.660	0.0133144
608.738	0.0134579
608.817	0.0132816
608.895	0.0132960
608.973	0.0133961
609.051	0.0133857
609.129	0.0133792
609.207	0.0134010
609.285	0.0132652
609.363	0.0133579
609.442	0.0134077
609.520	0.0134604
609.598	0.0133906
609.676	0.0134068
609.754	0.0135478
609.832	0.0135693
609.910	0.0133817
609.988	0.0134777
610.067	0.0135701
610.145	0.0135847
610.223	0.0134888
610.301	0.0133497
610.379	0.0134444
610.457	0.0135207
610.535	0.0135810
610.613	0.0135213
610.692	0.0135541
610.770	0.0135121
610.848	0.0135023
610.926	0.0135924
611.004	0.0135574
611.082	0.0135979
611.160	0.0134981
611.238	0.0134447
611.317	0.0135001
611.395	0.0134566
611.473	0.0135390
611.551	0.0134683
611.629	0.0134940
611.707	0.0135160
611.785	0.0134164
611.863	0.0134154
611.942	0.0134931
612.020	0.0135135
612.098	0.0134011
612.176	0.0134664
612.254	0.0134988
612.332	0.0135225
612.410	0.0134399
612.488	0.0134209
612.567	0.0134640
612.645	0.0134340
612.723	0.0134452
612.801	0.0135461
612.879	0.0134885
612.957	0.0134835
613.035	0.0135589
613.113	0.0134438
613.192	0.0135632
613.270	0.0135472
613.348	0.0134643
613.426	0.0134367
613.504	0.0134769
613.582	0.0134725
613.660	0.0135843
613.738	0.0135459
613.817	0.0136721
613.895	0.0134396
613.973	0.0135285
614.051	0.0135730
614.129	0.0136257
614.207	0.0135852
614.285	0.0135429
614.363	0.0135882
614.442	0.0136721
614.520	0.0134805
614.598	0.0136094
614.676	0.0135635
614.754	0.0133767
614.832	0.0135346
614.910	0.0135632
614.988	0.0134083
615.067	0.0135081
615.145	0.0135632
615.223	0.0134453
615.301	0.0135078
615.379	0.0135707
615.457	0.0135248
615.535	0.0134769
615.613	0.0135163
615.692	0.0137892
615.770	0.0136011
615.848	0.0136171
615.926	0.0134921
616.004	0.0136845
616.082	0.0136952
616.160	0.0137190
616.238	0.0135680
616.317	0.0136308
616.395	0.0136856
616.473	0.0135670
616.551	0.0135545
616.629	0.0135244
616.707	0.0135253
616.785	0.0134911
616.863	0.0135324
616.942	0.0135491
617.020	0.0135042
617.098	0.0134874
617.176	0.0135926
617.254	0.0135120
617.332	0.0134682
617.410	0.0135925
617.488	0.0135108
617.567	0.0133213
617.645	0.0134377
617.723	0.0135509
617.801	0.0134110
617.879	0.0134227
617.957	0.0135015
618.035	0.0134841
618.113	0.0134893
618.192	0.0133331
618.270	0.0133680
618.348	0.0133240
618.426	0.0133900
618.504	0.0133972
618.582	0.0135664
618.660	0.0133339
618.738	0.0134853
618.817	0.0134743
618.895	0.0134964
618.973	0.0135148
619.051	0.0135877
619.129	0.0135667
619.207	0.0137845
619.285	0.0137619
619.363	0.0138527
619.442	0.0136605
619.520	0.0137203
619.598	0.0137130
619.676	0.0136565
619.754	0.0137831
619.832	0.0137204
619.910	0.0136887
619.988	0.0137666
620.067	0.0137988
620.145	0.0136762
620.223	0.0137086
620.301	0.0135612
620.379	0.0135656
620.457	0.0135766
620.535	0.0134919
620.613	0.0135638
620.692	0.0136916
620.770	0.0134722
620.848	0.0134673
620.926	0.0135423
621.004	0.0136588
621.082	0.0134875
621.160	0.0135505
621.238	0.0136707
621.317	0.0136230
621.395	0.0136748
621.473	0.0136407
621.551	0.0137160
621.629	0.0137317
621.707	0.0137806
621.785	0.0137888
621.863	0.0138300
621.942	0.0137407
622.020	0.0138685
622.098	0.0137119
622.176	0.0138123
622.254	0.0138248
622.332	0.0137731
622.410	0.0135734
622.488	0.0138091
622.567	0.0136599
622.645	0.0135538
622.723	0.0136546
622.801	0.0135672
622.879	0.0135932
622.957	0.0137542
623.035	0.0136689
623.113	0.0135391
623.192	0.0134106
623.270	0.0136100
623.348	0.0135439
623.426	0.0134855
623.504	0.0134807
623.582	0.0133739
623.660	0.0133532
623.738	0.0134946
623.817	0.0133767
623.895	0.0135800
623.973	0.0134314
624.051	0.0135259
624.129	0.0135594
624.207	0.0135086
624.285	0.0135340
624.363	0.0136393
624.442	0.0138474
624.520	0.0137540
624.598	0.0138594
624.676	0.0138329
624.754	0.0138773
624.832	0.0139476
624.910	0.0139845
624.988	0.0138966
625.067	0.0139211
625.145	0.0138413
625.223	0.0141676
625.301	0.0139718
625.379	0.0139536
625.457	0.0140014
625.535	0.0139088
625.613	0.0139465
625.692	0.0140035
625.770	0.0138285
625.848	0.0139196
625.926	0.0138628
626.004	0.0137920
626.082	0.0138041
626.160	0.0137343
626.238	0.0136034
626.317	0.0135611
626.395	0.0135890
626.473	0.0134678
626.551	0.0134902
626.629	0.0136122
626.707	0.0135413
626.785	0.0134847
626.863	0.0134747
626.942	0.0134692
627.020	0.0134309
627.098	0.0134946
627.176	0.0134885
627.254	0.0135323
627.332	0.0136824
627.410	0.0136558
627.488	0.0136945
627.567	0.0135738
627.645	0.0134226
627.723	0.0134412
627.801	0.0135303
627.879	0.0134701
627.957	0.0133676
628.035	0.0134129
628.113	0.0134421
628.192	0.0133569
628.270	0.0134641
628.348	0.0133057
628.426	0.0132422
628.504	0.0132357
628.582	0.0134122
628.660	0.0133313
628.738	0.0132750
628.817	0.0133949
628.895	0.0130859
628.973	0.0132184
629.051	0.0132193
629.129	0.0132227
629.207	0.0132993
629.285	0.0131098
629.363	0.0132694
629.442	0.0132233
629.520	0.0132246
629.598	0.0134097
629.676	0.0133254
629.754	0.0134358
629.832	0.0133432
629.910	0.0133619
629.988	0.0134700
630.067	0.0134447
630.145	0.0133197
630.223	0.0134226
630.301	0.0135196
630.379	0.0134998
630.457	0.0134482
630.535	0.0134850
630.613	0.0132853
630.692	0.0134277
630.770	0.0135077
630.848	0.0134711
630.926	0.0134193
631.004	0.0133718
631.082	0.0134054
631.160	0.0132967
631.238	0.0131580
631.317	0.0131892
631.395	0.0130804
631.473	0.0130673
631.551	0.0131826
631.629	0.0131655
631.707	0.0130647
631.785	0.0130679
631.863	0.0130560
631.942	0.0132604
632.020	0.0133064
632.098	0.0132525
632.176	0.0132842
632.254	0.0134103
632.332	0.0133826
632.410	0.0133690
632.488	0.0133424
632.567	0.0133289
632.645	0.0134508
632.723	0.0135813
632.801	0.0135104
632.879	0.0134111
632.957	0.0135263
633.035	0.0134062
633.113	0.0134305
633.192	0.0136215
633.270	0.0134333
633.348	0.0134228
633.426	0.0136169
633.504	0.0134953
633.582	0.0134591
633.660	0.0134850
633.738	0.0134222
633.817	0.0135336
633.895	0.0135669
633.973	0.0135001
634.051	0.0134545
634.129	0.0134056
634.207	0.0135426
634.285	0.0136053
634.363	0.0135617
634.442	0.0136208
634.520	0.0136931
634.598	0.0136263
634.676	0.0137737
634.754	0.0136692
634.832	0.0135058
634.910	0.0136443
634.988	0.0135336
635.067	0.0136432
635.145	0.0135127
635.223	0.0137214
635.301	0.0136377
635.379	0.0135988
635.457	0.0137263
635.535	0.0134688
635.613	0.0136273
635.692	0.0135017
635.770	0.0134726
635.848	0.0135372
635.926	0.0135128
636.004	0.0135194
636.082	0.0136919
636.160	0.0134447
636.238	0.0135114
636.317	0.0135503
636.395	0.0135119
636.473	0.0134615
636.551	0.0135414
636.629	0.0135064
636.707	0.0135774
636.785	0.0135852
636.863	0.0135999
636.942	0.0136092
637.020	0.0135886
637.098	0.0135862
637.176	0.0135912
637.254	0.0135454
637.332	0.0136408
637.410	0.0134668
637.488	0.0133870
637.567	0.0134998
637.645	0.0135612
637.723	0.0135754
637.801	0.0133641
637.879	0.0135217
637.957	0.0135545
638.035	0.0135686
638.113	0.0136284
638.192	0.0136626
638.270	0.0136609
638.348	0.0137193
638.426	0.0136815
638.504	0.0138171
638.582	0.0137303
638.660	0.0136327
638.738	0.0137132
638.817	0.0136554
638.895	0.0135550
638.973	0.0135980
639.051	0.0136008
639.129	0.0136639
639.207	0.0136296
639.285	0.0137007
639.363	0.0136891
639.442	0.0138238
639.520	0.0136984
639.598	0.0136952
639.676	0.0137016
639.754	0.0136678
639.832	0.0136874
639.910	0.0136699
639.988	0.0136686
640.067	0.0136047
640.145	0.0136082
640.223	0.0134702
640.301	0.0135973
640.379	0.0134096
640.457	0.0134502
640.535	0.0134397
640.613	0.0134510
640.692	0.0134734
640.770	0.0134692
640.848	0.0133950
640.926	0.0134000
641.004	0.0134362
641.082	0.0134112
641.160	0.0133672
641.238	0.0133453
641.317	0.0133723
641.395	0.0133840
641.473	0.0133186
641.551	0.0134061
641.629	0.0133331
641.707	0.0134049
641.785	0.0134942
641.863	0.0133832
641.942	0.0133167
642.020	0.0134211
642.098	0.0135147
642.176	0.0134389
642.254	0.0135019
642.332	0.0136985
642.410	0.0137030
642.488	0.0136375
642.567	0.0136000
642.645	0.0138833
642.723	0.0138655
642.801	0.0138162
642.879	0.0137437
642.957	0.0137298
643.035	0.0138248
643.113	0.0137418
643.192	0.0136594
643.270	0.0137093
643.348	0.0137741
643.426	0.0137092
643.504	0.0135329
643.582	0.0136928
643.660	0.0135906
643.738	0.0135384
643.817	0.0134628
643.895	0.0133923
643.973	0.0134950
644.051	0.0134727
644.129	0.0134233
644.207	0.0135833
644.285	0.0134033
644.363	0.0134645
644.442	0.0135928
644.520	0.0134816
644.598	0.0136143
644.676	0.0135847
644.754	0.0135416
644.832	0.0135927
644.910	0.0136406
644.988	0.0136398
645.067	0.0136880
645.145	0.0138425
645.223	0.0138306
645.301	0.0137026
645.379	0.0135651
645.457	0.0137114
645.535	0.0136777
645.613	0.0136888
645.692	0.0136982
645.770	0.0136530
645.848	0.0136285
645.926	0.0135783
646.004	0.0135931
646.082	0.0135435
646.160	0.0135926
646.238	0.0136098
646.317	0.0134596
646.395	0.0134566
646.473	0.0135464
646.551	0.0134575
646.629	0.0135048
646.707	0.0134808
646.785	0.0135687
646.863	0.0133426
646.942	0.0133811
647.020	0.0134782
647.098	0.0134737
647.176	0.0135444
647.254	0.0135581
647.332	0.0135623
647.410	0.0136057
647.488	0.0137395
647.567	0.0136955
647.645	0.0136211
647.723	0.0137125
647.801	0.0137139
647.879	0.0137984
647.957	0.0138858
648.035	0.0139024
648.113	0.0137879
648.192	0.0137431
648.270	0.0138720
648.348	0.0137510
648.426	0.0137202
648.504	0.0136152
648.582	0.0137308
648.660	0.0136122
648.738	0.0135896
648.817	0.0136198
648.895	0.0134908
648.973	0.0136544
649.051	0.0135667
649.129	0.0134512
649.207	0.0135155
649.285	0.0135242
649.363	0.0134447
649.442	0.0134075
649.520	0.0134985
649.598	0.0133485
649.676	0.0135670
649.754	0.0134314
649.832	0.0132862
649.910	0.0134754
649.988	0.0133257
650.067	0.0134856
650.145	0.0134976
650.223	0.0135542
650.301	0.0134008
650.379	0.0136223
650.457	0.0136297
650.535	0.0136057
650.613	0.0136249
650.692	0.0137409
650.770	0.0136558
650.848	0.0135233
650.926	0.0136292
651.004	0.0137327
651.082	0.0135441
651.160	0.0136825
651.238	0.0136375
651.317	0.0136595
651.395	0.0136616
651.473	0.0135629
651.551	0.0134084
651.629	0.0134164
651.707	0.0135246
651.785	0.0132549
651.863	0.0133760
651.942	0.0132934
652.020	0.0131476
652.098	0.0132309
652.176	0.0133037
652.254	0.0132027
652.332	0.0132207
652.410	0.0133359
652.488	0.0132987
652.567	0.0133118
652.645	0.0133039
652.723	0.0134605
652.801	0.0134794
652.879	0.0134211
652.957	0.0135593
653.035	0.0133606
653.113	0.0136419
653.192	0.0137262
653.270	0.0135825
653.348	0.0136293
653.426	0.0136263
653.504	0.0135751
653.582	0.0137003
653.660	0.0136440
653.738	0.0136015
653.817	0.0136850
653.895	0.0136407
653.973	0.0136614
654.051	0.0135760
654.129	0.0135650
654.207	0.0134963
654.285	0.0135847
654.363	0.0135299
654.442	0.0135061
654.520	0.0134992
654.598	0.0136234
654.676	0.0135893
654.754	0.0136259
654.832	0.0135765
654.910	0.0135880
654.988	0.0136991
655.067	0.0136733
655.145	0.0136965
655.223	0.0135288
655.301	0.0135738
655.379	0.0135264
655.457	0.0136355
655.535	0.0135464
655.613	0.0136319
655.692	0.0134294
655.770	0.0133524
655.848	0.0134084
655.926	0.0134747
656.004	0.0132298
656.082	0.0134142
656.160	0.0132719
656.238	0.0132261
656.317	0.0133102
656.395	0.0132962
656.473	0.0133620
656.551	0.0132838
656.629	0.0132159
656.707	0.0133540
656.785	0.0132240
656.863	0.0132446
656.942	0.0134261
657.020	0.0132572
657.098	0.0133340
657.176	0.0134653
657.254	0.0136081
657.332	0.0134530
657.410	0.0134881
657.488	0.0134866
657.567	0.0134160
657.645	0.0135324
657.723	0.0135970
657.801	0.0135442
657.879	0.0135310
657.957	0.0135720
658.035	0.0137473
658.113	0.0135439
658.192	0.0135449
658.270	0.0134835
658.348	0.0137473
658.426	0.0136505
658.504	0.0136916
658.582	0.0135615
658.660	0.0136288
658.738	0.0136533
658.817	0.0136256
658.895	0.0136543
658.973	0.0136243
659.051	0.0135374
659.129	0.0135655
659.207	0.0136568
659.285	0.0136502
659.363	0.0137648
659.442	0.0136602
659.520	0.0136659
659.598	0.0136143
659.676	0.0135944
659.754	0.0136452
659.832	0.0135761
659.910	0.0138110
659.988	0.0136757
660.067	0.0136600
660.145	0.0136939
660.223	0.0135236
660.301	0.0136494
660.379	0.0136919
660.457	0.0135486
660.535	0.0137759
660.613	0.0137784
660.692	0.0137527
660.770	0.0136895
660.848	0.0137078
660.926	0.0137688
661.004	0.0137527
661.082	0.0138129
661.160	0.0135065
661.238	0.0135884
661.317	0.0137565
661.395	0.0136610
661.473	0.0136979
661.551	0.0138107
661.629	0.0136227
661.707	0.0134895
661.785	0.0134866
661.863	0.0136799
661.942	0.0134763
662.020	0.0133205
662.098	0.0133730
662.176	0.0134329
662.254	0.0133799
662.332	0.0133891
662.410	0.0133501
662.488	0.0135104
662.567	0.0134186
662.645	0.0135066
662.723	0.0133114
662.801	0.0134768
662.879	0.0135450
662.957	0.0135115
663.035	0.0135681
663.113	0.0134585
663.192	0.0136177
663.270	0.0134971
663.348	0.0136588
663.426	0.0134726
663.504	0.0135140
663.582	0.0134046
663.660	0.0134236
663.738	0.0135386
663.817	0.0133216
663.895	0.0132882
663.973	0.0134011
664.051	0.0131666
664.129	0.0132671
664.207	0.0132589
664.285	0.0132016
664.363	0.0133134
664.442	0.0130971
664.520	0.0131635
664.598	0.0133419
664.676	0.0132677
664.754	0.0133284
664.832	0.0134399
664.910	0.0133176
664.988	0.0132698
665.067	0.0135246
665.145	0.0136095
665.223	0.0135048
665.301	0.0136066
665.379	0.0134678
665.457	0.0134233
665.535	0.0135147
665.613	0.0135945
665.692	0.0134637
665.770	0.0135577
665.848	0.0134934
665.926	0.0135542
666.004	0.0135671
666.082	0.0135689
666.160	0.0134043
666.238	0.0135488
666.317	0.0135972
666.395	0.0132260
666.473	0.0135114
666.551	0.0135891
666.629	0.0135668
666.707	0.0135685
666.785	0.0136766
666.863	0.0137075
666.942	0.0135519
667.020	0.0135470
667.098	0.0136325
667.176	0.0136201
667.254	0.0137226
667.332	0.0136101
667.410	0.0136192
667.488	0.0135203
667.567	0.0134227
667.645	0.0135654
667.723	0.0132378
667.801	0.0134576
667.879	0.0133984
667.957	0.0135308
668.035	0.0134939
668.113	0.0135165
668.192	0.0133998
668.270	0.0135673
668.348	0.0135258
668.426	0.0135474
668.504	0.0135573
668.582	0.0136721
668.660	0.0135848
668.738	0.0136119
668.817	0.0136166
668.895	0.0134577
668.973	0.0135605
669.051	0.0135393
669.129	0.0133551
669.207	0.0132463
669.285	0.0132861
669.363	0.0132571
669.442	0.0133399
669.520	0.0131730
669.598	0.0132497
669.676	0.0133603
669.754	0.0132017
669.832	0.0132059
669.910	0.0132646
669.988	0.0133022
670.067	0.0134153
670.145	0.0134518
670.223	0.0133546
670.301	0.0133976
670.379	0.0132748
670.457	0.0133385
670.535	0.0134315
670.613	0.0133173
670.692	0.0133913
670.770	0.0134527
670.848	0.0134724
670.926	0.0134532
671.004	0.0133346
671.082	0.0134562
671.160	0.0134036
671.238	0.0135886
671.317	0.0135820
671.395	0.0133483
671.473	0.0136040
671.551	0.0134867
671.629	0.0136680
671.707	0.0136027
671.785	0.0135432
671.863	0.0135073
671.942	0.0136014
672.020	0.0137341
672.098	0.0136331
672.176	0.0135246
672.254	0.0134888
672.332	0.0136300
672.410	0.0136870
672.488	0.0136006
672.567	0.0136127
672.645	0.0134475
672.723	0.0134460
672.801	0.0136149
672.879	0.0135066
672.957	0.0136163
673.035	0.0136565
673.113	0.0134922
673.192	0.0134718
673.270	0.0137392
673.348	0.0136710
673.426	0.0135764
673.504	0.0136151
673.582	0.0135498
673.660	0.0136573
673.738	0.0137422
673.817	0.0136422
673.895	0.0135239
673.973	0.0135278
674.051	0.0136152
674.129	0.0135437
674.207	0.0136166
674.285	0.0134290
674.363	0.0134535
674.442	0.0135090
674.520	0.0134545
674.598	0.0134538
674.676	0.0134073
674.754	0.0133372
674.832	0.0133522
674.910	0.0133318
674.988	0.0133057
675.067	0.0132822
675.145	0.0131706
675.223	0.0132702
675.301	0.0133499
675.379	0.0133226
675.457	0.0132289
675.535	0.0132608
675.613	0.0131956
675.692	0.0133810
675.770	0.0133163
675.848	0.0132089
675.926	0.0132344
676.004	0.0133183
676.082	0.0133854
676.160	0.0135310
676.238	0.0134580
676.317	0.0136230
676.395	0.0136001
676.473	0.0135892
676.551	0.0135822
676.629	0.0135845
676.707	0.0136065
676.785	0.0136221
676.863	0.0136588
676.942	0.0137360
677.020	0.0136639
677.098	0.0138508
677.176	0.0139212
677.254	0.0137319
677.332	0.0136780
677.410	0.0138071
677.488	0.0137275
677.567	0.0136878
677.645	0.0136758
677.723	0.0137438
677.801	0.0135359
677.879	0.0135983
677.957	0.0137402
678.035	0.0136853
678.113	0.0135695
678.192	0.0135703
678.270	0.0135800
678.348	0.0136945
678.426	0.0136171
678.504	0.0134524
678.582	0.0134805
678.660	0.0134367
678.738	0.0134992
678.817	0.0133652
678.895	0.0135201
678.973	0.0134911
679.051	0.0134691
679.129	0.0133287
679.207	0.0134042
679.285	0.0133930
679.363	0.0133241
679.442	0.0133739
679.520	0.0133796
679.598	0.0133598
679.676	0.0133633
679.754	0.0133240
679.832	0.0134949
679.910	0.0134441
679.988	0.0133856
680.067	0.0134299
680.145	0.0134957
680.223	0.0133892
680.301	0.0133457
680.379	0.0134833
680.457	0.0135647
680.535	0.0133982
680.613	0.0133769
680.692	0.0133089
680.770	0.0133247
680.848	0.0133363
680.926	0.0133761
681.004	0.0135361
681.082	0.0134558
681.160	0.0134548
681.238	0.0134748
681.317	0.0136536
681.395	0.0134589
681.473	0.0137090
681.551	0.0135426
681.629	0.0136443
681.707	0.0137881
681.785	0.0137327
681.863	0.0137624
681.942	0.0138139
682.020	0.0138358
682.098	0.0139703
682.176	0.0138414
682.254	0.0137068
682.332	0.0137546
682.410	0.0136491
682.488	0.0136405
682.567	0.0136268
682.645	0.0137721
682.723	0.0136749
682.801	0.0135523
682.879	0.0137560
682.957	0.0136287
683.035	0.0135454
683.113	0.0136163
683.192	0.0135336
683.270	0.0136899
683.348	0.0136186
683.426	0.0135876
683.504	0.0134752
683.582	0.0134758
683.660	0.0134467
683.738	0.0135693
683.817	0.0136076
683.895	0.0136002
683.973	0.0134680
684.051	0.0133418
684.129	0.0133522
684.207	0.0134795
684.285	0.0134944
684.363	0.0134458
684.442	0.0134713
684.520	0.0135273
684.598	0.0134962
684.676	0.0134467
684.754	0.0134224
684.832	0.0134293
684.910	0.0135007
684.988	0.0134914
685.067	0.0135455
685.145	0.0134880
685.223	0.0134493
685.301	0.0135653
685.379	0.0135340
685.457	0.0135889
685.535	0.0136772
685.613	0.0136160
685.692	0.0136337
685.770	0.0135249
685.848	0.0135349
685.926	0.0136038
686.004	0.0134909
686.082	0.0135970
686.160	0.0135732
686.238	0.0134917
686.317	0.0134734
686.395	0.0134530
686.473	0.0134503
686.551	0.0133612
686.629	0.0134774
686.707	0.0131306
686.785	0.0132265
686.863	0.0133121
686.942	0.0133571
687.020	0.0132347
687.098	0.0132214
687.176	0.0132960
687.254	0.0131519
687.332	0.0132664
687.410	0.0134998
687.488	0.0134746
687.567	0.0135551
687.645	0.0135860
687.723	0.0136340
687.801	0.0134770
687.879	0.0134770
687.957	0.0135981
688.035	0.0138129
688.113	0.0137862
688.192	0.0135963
688.270	0.0136476
688.348	0.0135635
688.426	0.0135892
688.504	0.0137911
688.582	0.0136359
688.660	0.0134637
688.738	0.0135676
688.817	0.0136031
688.895	0.0135114
688.973	0.0135594
689.051	0.0136451
689.129	0.0136207
689.207	0.0135561
689.285	0.0137083
689.363	0.0134635
689.442	0.0135873
689.520	0.0135517
689.598	0.0134154
689.676	0.0134311
689.754	0.0135375
689.832	0.0135410
689.910	0.0135739
689.988	0.0133286
690.067	0.0135289
690.145	0.0135792
690.223	0.0135002
690.301	0.0135108
690.379	0.0134559
690.457	0.0135614
690.535	0.0135593
690.613	0.0134608
690.692	0.0135674
690.770	0.0136683
690.848	0.0137549
690.926	0.0135409
691.004	0.0136284
691.082	0.0136099
691.160	0.0134592
691.238	0.0136366
691.317	0.0136211
691.395	0.0136298
691.473	0.0136106
691.551	0.0135448
691.629	0.0135935
691.707	0.0135777
691.785	0.0135320
691.863	0.0135445
691.942	0.0135661
692.020	0.0135218
692.098	0.0134870
692.176	0.0135367
692.254	0.0134774
692.332	0.0135025
692.410	0.0135060
692.488	0.0133449
692.567	0.0134201
692.645	0.0133747
692.723	0.0133887
692.801	0.0133076
692.879	0.0134574
692.957	0.0133942
693.035	0.0134300
693.113	0.0136061
693.192	0.0134617
693.270	0.0134923
693.348	0.0135872
693.426	0.0135042
693.504	0.0136347
693.582	0.0135810
693.660	0.0135137
693.738	0.0135975
693.817	0.0137775
693.895	0.0137303
693.973	0.0136587
694.051	0.0136723
694.129	0.0139449
694.207	0.0139312
694.285	0.0137849
694.363	0.0137984
694.442	0.0138617
694.520	0.0137990
694.598	0.0137368
694.676	0.0137424
694.754	0.0137394
694.832	0.0137653
694.910	0.0136041
694.988	0.0136258
695.067	0.0135365
695.145	0.0136192
695.223	0.0136726
695.301	0.0136358
695.379	0.0134644
695.457	0.0135091
695.535	0.0134028
695.613	0.0133907
695.692	0.0133301
695.770	0.0134306
695.848	0.0133076
695.926	0.0132805
696.004	0.0131474
696.082	0.0130976
696.160	0.0129955
696.238	0.0130706
696.317	0.0129366
696.395	0.0130191
696.473	0.0129424
696.551	0.0129543
696.629	0.0129606
696.707	0.0128804
696.785	0.0127723
696.863	0.0127105
696.942	0.0128810
697.020	0.0128881
697.098	0.0128177
697.176	0.0129468
697.254	0.0130814
697.332	0.0129088
697.410	0.0130523
697.488	0.0129809
697.567	0.0131311
697.645	0.0132173
697.723	0.0133615
697.801	0.0133476
697.879	0.0134176
697.957	0.0135473
698.035	0.0135695
698.113	0.0136281
698.192	0.0137073
698.270	0.0138122
698.348	0.0138284
698.426	0.0138139
698.504	0.0138451
698.582	0.0140071
698.660	0.0140240
698.738	0.0139719
698.817	0.0140546
698.895	0.0141364
698.973	0.0141042
699.051	0.0139635
699.129	0.0139346
699.207	0.0139600
699.285	0.0140831
699.363	0.0139399
699.442	0.0138678
699.520	0.0138342
699.598	0.0136995
699.676	0.0138270
699.754	0.0136148
699.832	0.0134936
699.910	0.0135728
699.988	0.0135609
700.067	0.0135847
700.145	0.0135891
700.223	0.0133968
700.301	0.0132493
700.379	0.0133625
700.457	0.0133219
700.535	0.0133349
700.613	0.0134624
700.692	0.0133936
700.770	0.0133195
700.848	0.0133212
700.926	0.0132213
701.004	0.0133345
701.082	0.0132468
701.160	0.0132747
701.238	0.0131629
701.317	0.0131464
701.395	0.0133477
701.473	0.0131271
701.551	0.0133190
701.629	0.0132330
701.707	0.0131226
701.785	0.0132336
701.863	0.0131400
701.942	0.0133589
702.020	0.0133182
702.098	0.0133907
702.176	0.0133932
702.254	0.0134543
702.332	0.0135263
702.410	0.0135775
702.488	0.0134430
702.567	0.0135527
702.645	0.0137384
702.723	0.0137392
702.801	0.0137843
702.879	0.0137856
702.957	0.0139033
703.035	0.0140376
703.113	0.0139325
703.192	0.0139885
703.270	0.0140545
703.348	0.0139037
703.426	0.0139700
703.504	0.0141044
703.582	0.0139520
703.660	0.0138174
703.738	0.0138446
703.817	0.0139818
703.895	0.0137138
703.973	0.0136681
704.051	0.0138333
704.129	0.0136887
704.207	0.0135571
704.285	0.0136913
704.363	0.0137583
704.442	0.0136138
704.520	0.0136458
704.598	0.0136383
704.676	0.0135062
704.754	0.0135952
704.832	0.0135004
704.910	0.0134737
704.988	0.0135838
705.067	0.0136082
705.145	0.0134644
705.223	0.0134680
705.301	0.0135177
705.379	0.0135323
705.457	0.0134672
705.535	0.0135084
705.613	0.0134764
705.692	0.0133778
705.770	0.0134632
705.848	0.0135400
705.926	0.0134933
706.004	0.0133214
706.082	0.0133646
706.160	0.0135496
706.238	0.0135176
706.317	0.0135430
706.395	0.0135754
706.473	0.0134576
706.551	0.0134135
706.629	0.0134576
706.707	0.0133820
706.785	0.0134095
706.863	0.0134689
706.942	0.0134952
707.020	0.0134161
707.098	0.0133331
707.176	0.0133834
707.254	0.0135363
707.332	0.0133286
707.410	0.0133643
707.488	0.0133701
707.567	0.0132861
707.645	0.0134425
707.723	0.0135433
707.801	0.0136927
707.879	0.0135825
707.957	0.0135553
708.035	0.0136319
708.113	0.0137420
708.192	0.0137377
708.270	0.0136823
708.348	0.0137121
708.426	0.0137769
708.504	0.0137315
708.582	0.0136775
708.660	0.0136515
708.738	0.0136093
708.817	0.0134441
708.895	0.0135878
708.973	0.0135950
709.051	0.0135997
709.129	0.0134812
709.207	0.0135320
709.285	0.0135146
709.363	0.0134712
709.442	0.0134603
709.520	0.0135168
709.598	0.0135841
709.676	0.0133530
709.754	0.0133901
709.832	0.0134201
709.910	0.0134814
709.988	0.0134170
710.067	0.0134591
710.145	0.0135717
710.223	0.0135184
710.301	0.0135821
710.379	0.0135391
710.457	0.0135268
710.535	0.0133361
710.613	0.0134091
710.692	0.0134370
710.770	0.0134242
710.848	0.0135925
710.926	0.0137085
711.004	0.0136279
711.082	0.0137293
711.160	0.0135639
711.238	0.0135798
711.317	0.0135954
711.395	0.0136388
711.473	0.0135442
711.551	0.0135710
711.629	0.0135767
711.707	0.0134999
711.785	0.0133943
711.863	0.0134363
711.942	0.0133932
712.020	0.0135072
712.098	0.0135358
712.176	0.0134592
712.254	0.0133927
712.332	0.0134735
712.410	0.0133842
712.488	0.0132947
712.567	0.0133526
712.645	0.0134084
712.723	0.0135016
712.801	0.0135774
712.879	0.0134315
712.957	0.0134464
713.035	0.0135348
713.113	0.0133979
713.192	0.0134186
713.270	0.0134517
713.348	0.0134972
713.426	0.0136022
713.504	0.0134203
713.582	0.0136127
713.660	0.0134866
713.738	0.0133836
713.817	0.0135381
713.895	0.0134650
713.973	0.0134740
714.051	0.0133157
714.129	0.0135136
714.207	0.0135509
714.285	0.0134183
714.363	0.0134984
714.442	0.0134229
714.520	0.0134897
714.598	0.0134341
714.676	0.0135609
714.754	0.0135108
714.832	0.0135258
714.910	0.0135069
714.988	0.0135082
715.067	0.0134446
715.145	0.0134924
715.223	0.0134944
715.301	0.0135994
715.379	0.0135584
715.457	0.0134998
715.535	0.0135193
715.613	0.0137333
715.692	0.0136802
715.770	0.0136166
715.848	0.0136087
715.926	0.0135293
716.004	0.0135905
716.082	0.0137280
716.160	0.0136198
716.238	0.0135711
716.317	0.0137695
716.395	0.0137713
716.473	0.0137256
716.551	0.0137405
716.629	0.0136390
716.707	0.0136460
716.785	0.0136172
716.863	0.0136944
716.942	0.0136898
717.020	0.0136964
717.098	0.0136489
717.176	0.0136906
717.254	0.0136314
717.332	0.0136451
717.410	0.0138425
717.488	0.0137087
717.567	0.0136098
717.645	0.0135807
717.723	0.0138493
717.801	0.0137238
717.879	0.0137811
717.957	0.0137099
718.035	0.0136607
718.113	0.0137981
718.192	0.0136610
718.270	0.0136989
718.348	0.0137038
718.426	0.0137628
718.504	0.0136969
718.582	0.0134946
718.660	0.0135052
718.738	0.0136094
718.817	0.0135214
718.895	0.0134892
718.973	0.0134002
719.051	0.0135958
719.129	0.0133150
719.207	0.0134609
719.285	0.0134447
719.363	0.0134287
719.442	0.0134062
719.520	0.0134646
719.598	0.0134276
719.676	0.0135856
719.754	0.0133929
719.832	0.0134453
719.910	0.0134275
719.988	0.0136558
720.067	0.0135727
720.145	0.0134945
720.223	0.0134538
720.301	0.0135533
720.379	0.0135397
720.457	0.0136345
720.535	0.0135042
720.613	0.0135372
720.692	0.0135931
720.770	0.0137138
720.848	0.0135825
720.926	0.0134472
721.004	0.0134241
721.082	0.0135120
721.160	0.0135274
721.238	0.0134299
721.317	0.0134206
721.395	0.0135072
721.473	0.0135081
721.551	0.0134853
721.629	0.0135654
721.707	0.0136140
721.785	0.0134212
721.863	0.0135861
721.942	0.0135109
722.020	0.0135132
722.098	0.0134934
722.176	0.0134644
722.254	0.0136323
722.332	0.0134612
722.410	0.0135930
722.488	0.0135140
722.567	0.0136374
722.645	0.0135914
722.723	0.0134488
722.801	0.0136414
722.879	0.0136873
722.957	0.0137428
723.035	0.0137292
723.113	0.0137988
723.192	0.0137852
723.270	0.0137350
723.348	0.0139018
723.426	0.0138781
723.504	0.0138108
723.582	0.0138869
723.660	0.0138871
723.738	0.0138650
723.817	0.0138727
723.895	0.0138531
723.973	0.0137191
724.051	0.0137033
724.129	0.0136948
724.207	0.0137183
724.285	0.0135939
724.363	0.0135819
724.442	0.0134608
724.520	0.0135150
724.598	0.0135334
724.676	0.0134764
724.754	0.0135933
724.832	0.0135643
724.910	0.0134448
724.988	0.0133563
725.067	0.0133189
725.145	0.0134819
725.223	0.0135909
725.301	0.0135641
725.379	0.0134668
725.457	0.0134899
725.535	0.0134534
725.613	0.0135958
725.692	0.0135597
725.770	0.0135646
725.848	0.0134838
725.926	0.0135674
726.004	0.0135098
726.082	0.0134479
726.160	0.0135295
726.238	0.0135787
726.317	0.0136491
726.395	0.0136046
726.473	0.0135283
726.551	0.0135639
726.629	0.0135666
726.707	0.0135226
726.785	0.0134357
726.863	0.0135554
726.942	0.0136088
727.020	0.0135113
727.098	0.0134598
727.176	0.0135790
727.254	0.0135781
727.332	0.0134880
727.410	0.0135493
727.488	0.0135504
727.567	0.0136772
727.645	0.0135815
727.723	0.0135481
727.801	0.0134978
727.879	0.0136023
727.957	0.0136902
728.035	0.0134815
728.113	0.0134848
728.192	0.0137255
728.270	0.0137152
728.348	0.0136626
728.426	0.0136989
728.504	0.0137318
728.582	0.0137485
728.660	0.0136661
728.738	0.0137859
728.817	0.0138795
728.895	0.0138892
728.973	0.0139847
729.051	0.0138202
729.129	0.0138770
729.207	0.0137591
729.285	0.0138075
729.363	0.0139117
729.442	0.0139327
729.520	0.0137444
729.598	0.0137868
729.676	0.0137414
729.754	0.0137533
729.832	0.0137524
729.910	0.0138137
729.988	0.0137091
730.067	0.0137159
730.145	0.0135717
730.223	0.0135358
730.301	0.0135879
730.379	0.0135202
730.457	0.0134576
730.535	0.0134241
730.613	0.0133588
730.692	0.0133717
730.770	0.0134747
730.848	0.0134871
730.926	0.0134313
731.004	0.0134116
731.082	0.0134254
731.160	0.0133698
731.238	0.0135610
731.317	0.0134672
731.395	0.0134227
731.473	0.0135155
731.551	0.0135175
731.629	0.0136177
731.707	0.0134774
731.785	0.0132848
731.863	0.0135319
731.942	0.0135457
732.020	0.0134147
732.098	0.0134426
732.176	0.0135484
732.254	0.0135295
732.332	0.0134892
732.410	0.0134275
732.488	0.0135378
732.567	0.0135465
732.645	0.0134882
732.723	0.0134030
732.801	0.0134913
732.879	0.0135883
732.957	0.0135028
733.035	0.0133150
733.113	0.0134766
733.192	0.0134240
733.270	0.0134959
733.348	0.0134219
733.426	0.0134498
733.504	0.0135119
733.582	0.0133487
733.660	0.0133056
733.738	0.0134068
733.817	0.0133598
733.895	0.0134180
733.973	0.0133876
734.051	0.0133368
734.129	0.0133255
734.207	0.0133351
734.285	0.0133272
734.363	0.0133154
734.442	0.0132269
734.520	0.0134052
734.598	0.0133496
734.676	0.0133714
734.754	0.0134356
734.832	0.0133183
734.910	0.0133104
734.988	0.0134104
735.067	0.0134756
735.145	0.0134657
735.223	0.0134330
735.301	0.0133601
735.379	0.0134189
735.457	0.0135679
735.535	0.0134241
735.613	0.0134481
735.692	0.0135473
735.770	0.0134405
735.848	0.0133978
735.926	0.0133987
736.004	0.0134524
736.082	0.0134763
736.160	0.0134743
736.238	0.0132909
736.317	0.0133147
736.395	0.0133881
736.473	0.0132511
736.551	0.0133956
736.629	0.0133733
736.707	0.0133213
736.785	0.0132687
736.863	0.0133389
736.942	0.0134946
737.020	0.0134757
737.098	0.0134206
737.176	0.0135284
737.254	0.0133183
737.332	0.0134727
737.410	0.0134995
737.488	0.0134730
737.567	0.0135216
737.645	0.0138304
737.723	0.0134975
737.801	0.0135402
737.879	0.0135151
737.957	0.0134831
738.035	0.0136469
738.113	0.0135617
738.192	0.0136716
738.270	0.0136938
738.348	0.0138043
738.426	0.0136935
738.504	0.0136391
738.582	0.0138100
738.660	0.0136082
738.738	0.0136952
738.817	0.0136726
738.895	0.0137890
738.973	0.0138593
739.051	0.0137214
739.129	0.0137175
739.207	0.0137076
739.285	0.0137885
739.363	0.0136227
739.442	0.0136669
739.520	0.0137072
739.598	0.0135899
739.676	0.0134312
739.754	0.0136169
739.832	0.0136740
739.910	0.0134748
739.988	0.0135600
740.067	0.0134153
740.145	0.0135167
740.223	0.0135803
740.301	0.0135873
740.379	0.0135865
740.457	0.0134010
740.535	0.0134164
740.613	0.0135625
740.692	0.0135258
740.770	0.0135733
740.848	0.0134514
740.926	0.0135715
741.004	0.0135027
741.082	0.0134951
741.160	0.0135999
741.238	0.0135608
741.317	0.0134452
741.395	0.0136456
741.473	0.0136053
741.551	0.0134814
741.629	0.0135997
741.707	0.0136084
741.785	0.0133759
741.863	0.0134157
741.942	0.0134341
742.020	0.0135767
742.098	0.0135239
742.176	0.0135207
742.254	0.0134663
742.332	0.0133537
742.410	0.0135889
742.488	0.0133955
742.567	0.0135323
742.645	0.0132897
742.723	0.0133910
742.801	0.0133781
742.879	0.0135117
742.957	0.0133886
743.035	0.0133907
743.113	0.0135117
743.192	0.0133386
743.270	0.0133772
743.348	0.0133398
743.426	0.0132986
743.504	0.0133858
743.582	0.0133673
743.660	0.0133833
743.738	0.0135184
743.817	0.0133764
743.895	0.0134109
743.973	0.0134380
744.051	0.0133769
744.129	0.0135101
744.207	0.0134826
744.285	0.0134980
744.363	0.0134485
744.442	0.0134772
744.520	0.0133498
744.598	0.0134129
744.676	0.0135964
744.754	0.0135458
744.832	0.0135312
744.910	0.0135416
744.988	0.0134245
745.067	0.0134943
745.145	0.0134733
745.223	0.0135987
745.301	0.0136015
745.379	0.0135711
745.457	0.0135439
745.535	0.0135329
745.613	0.0134488
745.692	0.0135573
745.770	0.0135841
745.848	0.0134472
745.926	0.0136069
746.004	0.0136519
746.082	0.0134637
746.160	0.0136406
746.238	0.0135697
746.317	0.0134605
746.395	0.0136079
746.473	0.0136761
746.551	0.0136665
746.629	0.0134947
746.707	0.0136024
746.785	0.0136217
746.863	0.0136268
746.942	0.0135678
747.020	0.0136533
747.098	0.0136977
747.176	0.0136078
747.254	0.0135266
747.332	0.0135426
747.410	0.0135526
747.488	0.0135085
747.567	0.0136217
747.645	0.0136611
747.723	0.0137506
747.801	0.0135820
747.879	0.0137043
747.957	0.0137241
748.035	0.0137708
748.113	0.0135213
748.192	0.0136841
748.270	0.0135390
748.348	0.0134902
748.426	0.0136080
748.504	0.0136523
748.582	0.0135170
748.660	0.0136199
748.738	0.0136722
748.817	0.0136491
748.895	0.0136069
748.973	0.0135288
749.051	0.0136208
749.129	0.0136303
749.207	0.0136243
749.285	0.0137045
749.363	0.0137412
749.442	0.0136202
749.520	0.0135937
749.598	0.0136137
749.676	0.0136148
749.754	0.0136601
749.832	0.0135664
749.910	0.0137209
749.988	0.0137862
750.067	0.0136638
750.145	0.0135728
750.223	0.0137492
750.301	0.0137829
750.379	0.0138380
750.457	0.0136459
750.535	0.0136256
750.613	0.0136285
750.692	0.0135950
750.770	0.0134233
750.848	0.0136087
750.926	0.0137106
751.004	0.0136362
751.082	0.0135232
751.160	0.0134903
751.238	0.0133352
751.317	0.0133916
751.395	0.0135271
751.473	0.0135145
751.551	0.0135445
751.629	0.0134718
751.707	0.0134716
751.785	0.0134835
751.863	0.0133300
751.942	0.0133824
752.020	0.0133375
752.098	0.0133361
752.176	0.0134255
752.254	0.0132938
752.332	0.0134186
752.410	0.0132600
752.488	0.0134040
752.567	0.0132382
752.645	0.0132534
752.723	0.0132594
752.801	0.0132706
752.879	0.0131363
752.957	0.0132873
753.035	0.0132858
753.113	0.0133495
753.192	0.0133124
753.270	0.0133558
753.348	0.0133475
753.426	0.0133533
753.504	0.0134009
753.582	0.0132058
753.660	0.0133573
753.738	0.0132925
753.817	0.0131363
753.895	0.0133011
753.973	0.0132751
754.051	0.0134212
754.129	0.0134291
754.207	0.0130959
754.285	0.0132098
754.363	0.0132271
754.442	0.0131608
754.520	0.0132687
754.598	0.0132555
754.676	0.0132095
754.754	0.0134016
754.832	0.0132360
754.910	0.0133808
754.988	0.0132971
755.067	0.0134486
755.145	0.0133794
755.223	0.0132091
755.301	0.0132426
755.379	0.0132594
755.457	0.0132507
755.535	0.0132474
755.613	0.0134190
755.692	0.0133134
755.770	0.0131680
755.848	0.0132655
755.926	0.0132835
756.004	0.0134345
756.082	0.0133986
756.160	0.0133491
756.238	0.0133194
756.317	0.0133412
756.395	0.0133344
756.473	0.0132637
756.551	0.0133102
756.629	0.0133646
756.707	0.0132526
756.785	0.0132820
756.863	0.0134624
756.942	0.0133962
757.020	0.0133389
757.098	0.0134764
757.176	0.0135309
757.254	0.0135887
757.332	0.0136011
757.410	0.0134559
757.488	0.0136459
757.567	0.0135271
757.645	0.0134419
757.723	0.0136800
757.801	0.0134543
757.879	0.0136243
757.957	0.0136261
758.035	0.0136794
758.113	0.0136464
758.192	0.0136991
758.270	0.0136311
758.348	0.0136132
758.426	0.0137304
758.504	0.0137285
758.582	0.0135371
758.660	0.0136121
758.738	0.0135363
758.817	0.0135641
758.895	0.0135223
758.973	0.0134671
759.051	0.0136254
759.129	0.0134515
759.207	0.0135520
759.285	0.0136014
759.363	0.0135485
759.442	0.0135764
759.520	0.0136415
759.598	0.0136369
759.676	0.0135667
759.754	0.0134298
759.832	0.0135583
759.910	0.0135784
759.988	0.0135063
760.067	0.0135402
760.145	0.0136574
760.223	0.0135067
760.301	0.0135503
760.379	0.0135103
760.457	0.0135310
760.535	0.0137160
760.613	0.0135686
760.692	0.0136024
760.770	0.0136381
760.848	0.0134428
760.926	0.0135861
761.004	0.0136604
761.082	0.0135165
761.160	0.0134431
761.238	0.0136324
761.317	0.0134821
761.395	0.0135055
761.473	0.0134087
761.551	0.0133332
761.629	0.0134413
761.707	0.0133761
761.785	0.0133366
761.863	0.0132402
761.942	0.0132829
762.020	0.0132550
762.098	0.0132879
762.176	0.0132821
762.254	0.0131042
762.332	0.0132333
762.410	0.0133714
762.488	0.0132787
762.567	0.0131910
762.645	0.0131461
762.723	0.0131646
762.801	0.0131631
762.879	0.0133944
762.957	0.0134833
763.035	0.0133646
763.113	0.0133625
763.192	0.0133902
763.270	0.0133852
763.348	0.0133952
763.426	0.0135470
763.504	0.0134274
763.582	0.0133791
763.660	0.0134502
763.738	0.0133556
763.817	0.0134689
763.895	0.0133515
763.973	0.0134327
764.051	0.0134614
764.129	0.0133418
764.207	0.0133624
764.285	0.0133946
764.363	0.0135284
764.442	0.0134204
764.520	0.0133911
764.598	0.0133187
764.676	0.0134593
764.754	0.0133260
764.832	0.0133865
764.910	0.0134744
764.988	0.0134456
765.067	0.0133360
765.145	0.0134212
765.223	0.0134053
765.301	0.0133637
765.379	0.0134125
765.457	0.0134726
765.535	0.0135132
765.613	0.0134344
765.692	0.0135126
765.770	0.0133700
765.848	0.0135712
765.926	0.0134972
766.004	0.0134434
766.082	0.0134760
766.160	0.0135394
766.238	0.0134069
766.317	0.0135767
766.395	0.0134940
766.473	0.0136072
766.551	0.0136582
766.629	0.0135954
766.707	0.0135680
766.785	0.0134709
766.863	0.0135123
766.942	0.0135863
767.020	0.0135151
767.098	0.0135331
767.176	0.0135017
767.254	0.0137284
767.332	0.0134753
767.410	0.0135368
767.488	0.0136299
767.567	0.0136982
767.645	0.0135052
767.723	0.0135083
767.801	0.0135005
767.879	0.0136851
767.957	0.0136559
768.035	0.0137156
768.113	0.0137513
768.192	0.0136865
768.270	0.0138158
768.348	0.0138726
768.426	0.0136929
768.504	0.0138044
768.582	0.0137504
768.660	0.0137703
768.738	0.0138084
768.817	0.0137759
768.895	0.0137949
768.973	0.0138347
769.051	0.0138215
769.129	0.0138658
769.207	0.0137337
769.285	0.0137871
769.363	0.0137424
769.442	0.0138612
769.520	0.0137350
769.598	0.0136261
769.676	0.0137574
769.754	0.0137016
769.832	0.0136843
769.910	0.0135096
769.988	0.0136661
770.067	0.0135610
770.145	0.0135060
770.223	0.0135088
770.301	0.0135550
770.379	0.0134199
770.457	0.0135197
770.535	0.0135397
770.613	0.0133829
770.692	0.0134921
770.770	0.0135593
770.848	0.0135146
770.926	0.0134762
771.004	0.0134454
771.082	0.0132502
771.160	0.0133926
771.238	0.0134554
771.317	0.0135007
771.395	0.0134219
771.473	0.0135190
771.551	0.0135415
771.629	0.0133680
771.707	0.0133561
771.785	0.0134725
771.863	0.0135580
771.942	0.0135698
772.020	0.0134549
772.098	0.0134854
772.176	0.0135123
772.254	0.0134035
772.332	0.0135210
772.410	0.0135442
772.488	0.0135065
772.567	0.0134232
772.645	0.0135750
772.723	0.0135846
772.801	0.0136113
772.879	0.0135737
772.957	0.0135643
773.035	0.0134451
773.113	0.0135065
773.192	0.0136178
773.270	0.0136179
773.348	0.0136436
773.426	0.0135307
773.504	0.0135143
773.582	0.0136626
773.660	0.0135345
773.738	0.0136212
773.817	0.0135927
773.895	0.0136199
773.973	0.0134520
774.051	0.0134836
774.129	0.0135561
774.207	0.0136061
774.285	0.0135989
774.363	0.0135263
774.442	0.0135735
774.520	0.0134951
774.598	0.0135316
774.676	0.0135639
774.754	0.0134912
774.832	0.0136465
774.910	0.0134180
774.988	0.0133551
775.067	0.0135526
775.145	0.0135409
775.223	0.0134411
775.301	0.0133187
775.379	0.0133796
775.457	0.0133356
775.535	0.0134418
775.613	0.0133830
775.692	0.0133553
775.770	0.0133901
775.848	0.0133645
775.926	0.0133212
776.004	0.0135076
776.082	0.0133955
776.160	0.0132529
776.238	0.0133883
776.317	0.0134169
776.395	0.0134966
776.473	0.0133631
776.551	0.0134268
776.629	0.0135731
776.707	0.0133329
776.785	0.0135097
776.863	0.0135472
776.942	0.0135847
777.020	0.0134300
777.098	0.0136422
777.176	0.0135561
777.254	0.0134975
777.332	0.0134772
777.410	0.0134776
777.488	0.0134147
777.567	0.0135708
777.645	0.0135358
777.723	0.0133833
777.801	0.0133670
777.879	0.0133311
777.957	0.0133323
778.035	0.0133786
778.113	0.0133360
778.192	0.0134190
778.270	0.0133059
778.348	0.0133138
778.426	0.0132729
778.504	0.0132649
778.582	0.0132033
778.660	0.0133101
778.738	0.0133102
778.817	0.0133111
778.895	0.0133732
778.973	0.0133704
779.051	0.0134889
779.129	0.0133424
779.207	0.0133968
779.285	0.0133674
779.363	0.0133585
779.442	0.0134113
779.520	0.0135434
779.598	0.0133781
779.676	0.0134027
779.754	0.0135254
779.832	0.0134172
779.910	0.0134886
779.988	0.0135110
780.067	0.0136396
780.145	0.0135506
780.223	0.0135253
780.301	0.0137038
780.379	0.0135210
780.457	0.0135598
780.535	0.0134541
780.613	0.0136098
780.692	0.0136672
780.770	0.0135578
780.848	0.0136784
780.926	0.0135843
781.004	0.0135462
781.082	0.0135390
781.160	0.0135930
781.238	0.0135489
781.317	0.0136316
781.395	0.0137012
781.473	0.0135658
781.551	0.0134975
781.629	0.0137351
781.707	0.0136885
781.785	0.0135569
781.863	0.0137110
781.942	0.0136572
782.020	0.0136043
782.098	0.0136752
782.176	0.0137539
782.254	0.0135477
782.332	0.0136349
782.410	0.0136311
782.488	0.0134911
782.567	0.0135484
782.645	0.0137065
782.723	0.0135902
782.801	0.0135670
782.879	0.0136375
782.957	0.0135250
783.035	0.0135677
783.113	0.0136340
783.192	0.0137512
783.270	0.0136648
783.348	0.0135059
783.426	0.0136246
783.504	0.0136210
783.582	0.0136252
783.660	0.0134336
783.738	0.0134932
783.817	0.0136243
783.895	0.0136953
783.973	0.0135903
784.051	0.0136340
784.129	0.0135998
784.207	0.0136554
784.285	0.0136959
784.363	0.0137761
784.442	0.0137302
784.520	0.0137122
784.598	0.0137451
784.676	0.0137236
784.754	0.0139159
784.832	0.0138184
784.910	0.0137060
784.988	0.0136292
785.067	0.0137854
785.145	0.0138300
785.223	0.0137093
785.301	0.0137675
785.379	0.0136984
785.457	0.0136710
785.535	0.0135988
785.613	0.0138272
785.692	0.0137091
785.770	0.0136022
785.848	0.0136528
785.926	0.0134245
786.004	0.0136452
786.082	0.0136226
786.160	0.0135535
786.238	0.0134369
786.317	0.0134061
786.395	0.0135786
786.473	0.0134785
786.551	0.0134865
786.629	0.0134605
786.707	0.0134726
786.785	0.0133809
786.863	0.0134100
786.942	0.0135135
787.020	0.0135173
787.098	0.0134207
787.176	0.0135812
787.254	0.0135426
787.332	0.0135921
787.410	0.0134690
787.488	0.0134760
787.567	0.0135463
787.645	0.0133643
787.723	0.0135340
787.801	0.0136349
787.879	0.0135889
787.957	0.0134737
788.035	0.0135976
788.113	0.0136768
788.192	0.0136279
788.270	0.0137156
788.348	0.0136484
788.426	0.0136356
788.504	0.0135896
788.582	0.0136710
788.660	0.0135609
788.738	0.0135918
788.817	0.0136570
788.895	0.0137946
788.973	0.0136685
789.051	0.0136279
789.129	0.0137247
789.207	0.0137376
789.285	0.0136163
789.363	0.0136962
789.442	0.0137114
789.520	0.0136674
789.598	0.0138503
789.676	0.0136893
789.754	0.0137061
789.832	0.0137169
789.910	0.0136362
789.988	0.0138593
790.067	0.0137391
790.145	0.0137228
790.223	0.0135917
790.301	0.0137752
790.379	0.0138143
790.457	0.0135616
790.535	0.0137051
790.613	0.0137550
790.692	0.0137801
790.770	0.0135342
790.848	0.0137766
790.926	0.0136494
791.004	0.0135979
791.082	0.0135746
791.160	0.0137006
791.238	0.0135843
791.317	0.0138007
791.395	0.0135722
791.473	0.0135732
791.551	0.0135504
791.629	0.0135437
791.707	0.0136260
791.785	0.0136367
791.863	0.0135508
791.942	0.0136428
792.020	0.0136278
792.098	0.0135686
792.176	0.0134456
792.254	0.0135039
792.332	0.0134886
792.410	0.0136518
792.488	0.0135784
792.567	0.0134532
792.645	0.0137273
792.723	0.0136050
792.801	0.0135426
792.879	0.0136401
792.957	0.0137130
793.035	0.0135806
793.113	0.0134712
793.192	0.0135645
793.270	0.0136052
793.348	0.0135711
793.426	0.0134992
793.504	0.0135296
793.582	0.0135776
793.660	0.0135260
793.738	0.0133534
793.817	0.0134512
793.895	0.0134958
793.973	0.0136051
794.051	0.0135461
794.129	0.0135536
794.207	0.0134266
794.285	0.0133796
794.363	0.0135448
794.442	0.0134525
794.520	0.0134702
794.598	0.0135004
794.676	0.0135803
794.754	0.0135731
794.832	0.0135439
794.910	0.0134520
794.988	0.0136683
795.067	0.0135783
795.145	0.0134557
795.223	0.0136352
795.301	0.0135729
795.379	0.0135506
795.457	0.0135433
795.535	0.0135892
795.613	0.0137498
795.692	0.0135088
795.770	0.0133224
795.848	0.0135986
795.926	0.0136207
796.004	0.0135409
796.082	0.0136224
796.160	0.0134765
796.238	0.0135473
796.317	0.0136739
796.395	0.0135868
796.473	0.0134509
796.551	0.0136639
796.629	0.0135897
796.707	0.0135365
796.785	0.0135492
796.863	0.0135232
796.942	0.0134035
797.020	0.0134804
797.098	0.0134416
797.176	0.0134253
797.254	0.0135093
797.332	0.0134386
797.410	0.0133318
797.488	0.0133892
797.567	0.0133904
797.645	0.0133987
797.723	0.0134605
797.801	0.0134822
797.879	0.0134824
797.957	0.0134483
798.035	0.0133772
798.113	0.0134358
798.192	0.0134516
798.270	0.0135114
798.348	0.0134386
798.426	0.0134279
798.504	0.0134488
798.582	0.0134294
798.660	0.0134412
798.738	0.0134514
798.817	0.0134863
798.895	0.0135724
798.973	0.0134248
799.051	0.0134225
799.129	0.0135943
799.207	0.0134026
799.285	0.0134631
799.363	0.0135288
799.442	0.0134506
799.520	0.0134155
799.598	0.0134505
799.676	0.0134870
799.754	0.0136137
799.832	0.0135747
799.910	0.0133749
799.988	0.0134158
800.067	0.0136330
800.145	0.0136278
800.223	0.0136211
800.301	0.0135931
800.379	0.0135751
800.457	0.0134870
800.535	0.0134756
800.613	0.0136372
800.692	0.0135134
800.770	0.0136333
800.848	0.0136075
800.926	0.0135770
801.004	0.0136531
801.082	0.0136800
801.160	0.0136158
801.238	0.0135828
801.317	0.0135965
801.395	0.0134821
801.473	0.0137146
801.551	0.0136755
801.629	0.0136222
801.707	0.0135412
801.785	0.0136340
801.863	0.0135759
801.942	0.0135497
802.020	0.0134989
802.098	0.0134917
802.176	0.0136377
802.254	0.0136349
802.332	0.0135847
802.410	0.0135448
802.488	0.0135615
802.567	0.0136186
802.645	0.0135374
802.723	0.0134760
802.801	0.0136177
802.879	0.0135614
802.957	0.0134415
803.035	0.0134777
803.113	0.0134638
803.192	0.0134280
803.270	0.0135830
803.348	0.0134515
803.426	0.0134929
803.504	0.0135504
803.582	0.0134305
803.660	0.0133878
803.738	0.0133463
803.817	0.0133691
803.895	0.0134159
803.973	0.0136191
804.051	0.0135953
804.129	0.0136069
804.207	0.0134947
804.285	0.0135302
804.363	0.0136498
804.442	0.0136681
804.520	0.0136483
804.598	0.0135802
804.676	0.0135549
804.754	0.0136024
804.832	0.0136657
804.910	0.0135535
804.988	0.0136709
805.067	0.0135371
805.145	0.0136271
805.223	0.0137054
805.301	0.0137621
805.379	0.0135895
805.457	0.0135730
805.535	0.0135778
805.613	0.0134341
805.692	0.0136223
805.770	0.0136059
805.848	0.0135342
805.926	0.0134106
806.004	0.0135242
806.082	0.0136745
806.160	0.0134639
806.238	0.0136107
806.317	0.0137370
806.395	0.0135849
806.473	0.0135009
806.551	0.0135574
806.629	0.0135008
806.707	0.0135098
806.785	0.0135529
806.863	0.0134785
806.942	0.0134630
807.020	0.0135281
807.098	0.0135248
807.176	0.0134175
807.254	0.0134072
807.332	0.0136246
807.410	0.0135017
807.488	0.0136525
807.567	0.0136480
807.645	0.0136099
807.723	0.0134466
807.801	0.0135574
807.879	0.0135173
807.957	0.0133874
808.035	0.0133245
808.113	0.0134576
808.192	0.0134012
808.270	0.0134369
808.348	0.0134671
808.426	0.0135388
808.504	0.0133762
808.582	0.0134003
808.660	0.0134853
808.738	0.0134762
808.817	0.0135130
808.895	0.0134055
808.973	0.0136188
809.051	0.0135368
809.129	0.0136395
809.207	0.0135422
809.285	0.0135249
809.363	0.0136629
809.442	0.0136136
809.520	0.0135639
809.598	0.0137828
809.676	0.0136442
809.754	0.0137083
809.832	0.0137241
809.910	0.0137119
809.988	0.0138022
810.067	0.0137713
810.145	0.0137971
810.223	0.0136652
810.301	0.0138090
810.379	0.0138195
810.457	0.0136719
810.535	0.0137648
810.613	0.0138802
810.692	0.0137171
810.770	0.0136835
810.848	0.0137523
810.926	0.0136694
811.004	0.0136053
811.082	0.0136228
811.160	0.0136091
811.238	0.0135101
811.317	0.0136140
811.395	0.0134917
811.473	0.0134862
811.551	0.0134510
811.629	0.0134238
811.707	0.0134828
811.785	0.0135673
811.863	0.0134629
811.942	0.0134464
812.020	0.0135693
812.098	0.0133598
812.176	0.0135271
812.254	0.0134410
812.332	0.0134368
812.410	0.0135661
812.488	0.0134746
812.567	0.0135325
812.645	0.0135131
812.723	0.0135077
812.801	0.0134937
812.879	0.0135122
812.957	0.0134029
813.035	0.0135910
813.113	0.0135296
813.192	0.0135252
813.270	0.0136324
813.348	0.0135213
813.426	0.0134869
813.504	0.0134071
813.582	0.0135801
813.660	0.0135161
813.738	0.0135630
813.817	0.0134055
813.895	0.0134815
813.973	0.0133706
814.051	0.0134190
814.129	0.0134471
814.207	0.0135228
814.285	0.0133331
814.363	0.0134937
814.442	0.0135670
814.520	0.0135046
814.598	0.0132542
814.676	0.0135249
814.754	0.0134298
814.832	0.0134930
814.910	0.0133837
814.988	0.0134904
815.067	0.0135751
815.145	0.0134776
815.223	0.0135440
815.301	0.0134656
815.379	0.0134482
815.457	0.0134731
815.535	0.0135368
815.613	0.0135245
815.692	0.0135191
815.770	0.0134763
815.848	0.0135545
815.926	0.0136501
816.004	0.0136184
816.082	0.0135078
816.160	0.0135667
816.238	0.0134462
816.317	0.0135526
816.395	0.0135605
816.473	0.0134133
816.551	0.0135255
816.629	0.0135147
816.707	0.0134998
816.785	0.0134782
816.863	0.0135606
816.942	0.0133903
817.020	0.0133759
817.098	0.0134212
817.176	0.0134747
817.254	0.0134035
817.332	0.0132682
817.410	0.0133718
817.488	0.0133536
817.567	0.0132081
817.645	0.0133508
817.723	0.0132675
817.801	0.0133549
817.879	0.0134260
817.957	0.0133713
818.035	0.0133019
818.113	0.0134087
818.192	0.0132719
818.270	0.0133582
818.348	0.0133871
818.426	0.0133282
818.504	0.0132793
818.582	0.0135007
818.660	0.0133965
818.738	0.0132413
818.817	0.0134433
818.895	0.0135051
818.973	0.0133472
819.051	0.0133014
819.129	0.0134128
819.207	0.0135266
819.285	0.0132926
819.363	0.0132840
819.442	0.0134915
819.520	0.0132682
819.598	0.0133983
819.676	0.0132866
819.754	0.0132396
819.832	0.0132182
819.910	0.0133478
819.988	0.0132291
820.067	0.0133618
820.145	0.0133358
820.223	0.0131322
820.301	0.0133516
820.379	0.0132761
820.457	0.0133368
820.535	0.0133751
820.613	0.0134018
820.692	0.0133298
820.770	0.0133703
820.848	0.0133766
820.926	0.0133995
821.004	0.0134251
821.082	0.0135054
821.160	0.0133855
821.238	0.0135039
821.317	0.0135108
821.395	0.0135500
821.473	0.0135205
821.551	0.0135523
821.629	0.0136050
821.707	0.0136636
821.785	0.0136240
821.863	0.0136337
821.942	0.0135925
822.020	0.0137634
822.098	0.0136441
822.176	0.0136073
822.254	0.0137502
822.332	0.0136118
822.410	0.0137353
822.488	0.0138448
822.567	0.0137003
822.645	0.0136600
822.723	0.0137117
822.801	0.0135920
822.879	0.0136213
822.957	0.0137933
823.035	0.0136626
823.113	0.0135337
823.192	0.0136328
823.270	0.0137731
823.348	0.0137768
823.426	0.0137768
823.504	0.0137246
823.582	0.0137307
823.660	0.0137326
823.738	0.0136874
823.817	0.0137392
823.895	0.0138431
823.973	0.0137294
824.051	0.0137978
824.129	0.0137345
824.207	0.0138437
824.285	0.0137448
824.363	0.0135574
824.442	0.0137017
824.520	0.0137744
824.598	0.0136403
824.676	0.0136777
824.754	0.0136436
824.832	0.0135806
824.910	0.0135378
824.988	0.0135241
825.067	0.0134840
825.145	0.0134783
825.223	0.0133903
825.301	0.0134866
825.379	0.0133730
825.457	0.0133587
825.535	0.0134536
825.613	0.0132676
825.692	0.0132033
825.770	0.0132774
825.848	0.0132509
825.926	0.0132883
826.004	0.0133666
826.082	0.0133095
826.160	0.0132826
826.238	0.0131915
826.317	0.0131409
826.395	0.0131767
826.473	0.0132422
826.551	0.0131333
826.629	0.0132487
826.707	0.0133688
826.785	0.0133530
826.863	0.0132367
826.942	0.0132214
827.020	0.0133710
827.098	0.0132753
827.176	0.0133118
827.254	0.0134239
827.332	0.0133787
827.410	0.0132887
827.488	0.0135223
827.567	0.0133599
827.645	0.0134319
827.723	0.0134441
827.801	0.0135365
827.879	0.0134929
827.957	0.0133976
828.035	0.0134511
828.113	0.0133769
828.192	0.0133950
828.270	0.0134536
828.348	0.0134275
828.426	0.0133918
828.504	0.0135509
828.582	0.0134315
828.660	0.0135744
828.738	0.0134470
828.817	0.0133469
828.895	0.0133967
828.973	0.0135270
829.051	0.0134688
829.129	0.0133028
829.207	0.0134032
829.285	0.0135048
829.363	0.0134153
829.442	0.0134763
829.520	0.0135107
829.598	0.0134418
829.676	0.0135799
829.754	0.0134329
829.832	0.0134080
829.910	0.0135353
829.988	0.0134282
830.067	0.0134383
830.145	0.0134350
830.223	0.0134995
830.301	0.0135003
830.379	0.0134688
830.457	0.0134475
830.535	0.0134366
830.613	0.0135495
830.692	0.0134801
830.770	0.0135408
830.848	0.0133659
830.926	0.0133962
831.004	0.0135289
831.082	0.0135439
831.160	0.0134892
831.238	0.0135654
831.317	0.0135558
831.395	0.0135670
831.473	0.0136332
831.551	0.0137901
831.629	0.0136079
831.707	0.0134637
831.785	0.0136146
831.863	0.0135682
831.942	0.0134814
832.020	0.0137206
832.098	0.0136909
832.176	0.0137281
832.254	0.0136160
832.332	0.0136068
832.410	0.0136011
832.488	0.0136594
832.567	0.0135442
832.645	0.0136626
832.723	0.0136456
832.801	0.0137313
832.879	0.0135699
832.957	0.0135855
833.035	0.0135629
833.113	0.0134927
833.192	0.0137257
833.270	0.0135287
833.348	0.0136076
833.426	0.0135844
833.504	0.0134184
833.582	0.0135321
833.660	0.0134225
833.738	0.0135280
833.817	0.0135618
833.895	0.0135266
833.973	0.0137064
834.051	0.0135646
834.129	0.0136256
834.207	0.0136465
834.285	0.0136235
834.363	0.0135664
834.442	0.0134294
834.520	0.0135754
834.598	0.0136015
834.676	0.0137108
834.754	0.0134960
834.832	0.0135729
834.910	0.0136237
834.988	0.0135098
835.067	0.0136222
835.145	0.0135784
835.223	0.0135300
835.301	0.0135024
835.379	0.0134448
835.457	0.0135643
835.535	0.0134618
835.613	0.0133661
835.692	0.0133021
835.770	0.0134200
835.848	0.0134229
835.926	0.0133305
836.004	0.0132645
836.082	0.0133768
836.160	0.0133311
836.238	0.0133113
836.317	0.0130505
836.395	0.0132478
836.473	0.0132076
836.551	0.0133302
836.629	0.0132975
836.707	0.0132085
836.785	0.0132799
836.863	0.0132926
836.942	0.0133115
837.020	0.0132656
837.098	0.0132247
837.176	0.0132490
837.254	0.0133305
837.332	0.0133424
837.410	0.0132989
837.488	0.0133398
837.567	0.0134117
837.645	0.0132719
837.723	0.0133380
837.801	0.0134517
837.879	0.0133292
837.957	0.0133224
838.035	0.0134695
838.113	0.0133982
838.192	0.0133539
838.270	0.0135046
838.348	0.0134347
838.426	0.0133904
838.504	0.0133965
838.582	0.0134799
838.660	0.0134463
838.738	0.0133506
838.817	0.0132629
838.895	0.0134954
838.973	0.0133794
839.051	0.0135126
839.129	0.0134374
839.207	0.0133763
839.285	0.0134126
839.363	0.0134515
839.442	0.0134839
839.520	0.0134576
839.598	0.0133968
839.676	0.0134514
839.754	0.0133830
839.832	0.0133552
839.910	0.0134330
839.988	0.0134039
840.067	0.0134386
840.145	0.0133727
840.223	0.0135774
840.301	0.0135555
840.379	0.0134489
840.457	0.0132869
840.535	0.0134600
840.613	0.0134098
840.692	0.0133945
840.770	0.0134909
840.848	0.0134964
840.926	0.0133441
841.004	0.0133996
841.082	0.0134147
841.160	0.0134314
841.238	0.0133845
841.317	0.0133395
841.395	0.0132385
841.473	0.0132487
841.551	0.0133957
841.629	0.0133468
841.707	0.0132700
841.785	0.0132389
841.863	0.0132070
841.942	0.0134038
842.020	0.0133559
842.098	0.0133987
842.176	0.0134819
842.254	0.0133730
842.332	0.0134603
842.410	0.0134216
842.488	0.0132732
842.567	0.0135303
842.645	0.0133479
842.723	0.0134353
842.801	0.0133925
842.879	0.0134829
842.957	0.0135391
843.035	0.0136087
843.113	0.0135396
843.192	0.0134777
843.270	0.0134234
843.348	0.0135375
843.426	0.0134790
843.504	0.0135572
843.582	0.0136962
843.660	0.0134995
843.738	0.0135394
843.817	0.0137252
843.895	0.0135706
843.973	0.0136320
844.051	0.0136895
844.129	0.0136349
844.207	0.0137755
844.285	0.0136098
844.363	0.0135462
844.442	0.0135664
844.520	0.0136025
844.598	0.0137061
844.676	0.0136631
844.754	0.0135558
844.832	0.0135429
844.910	0.0137075
844.988	0.0135992
845.067	0.0136652
845.145	0.0136003
845.223	0.0135197
845.301	0.0135519
845.379	0.0136112
845.457	0.0136481
845.535	0.0137209
845.613	0.0136427
845.692	0.0135725
845.770	0.0136551
845.848	0.0136257
845.926	0.0135337
846.004	0.0135790
846.082	0.0135256
846.160	0.0137378
846.238	0.0136288
846.317	0.0136249
846.395	0.0135999
846.473	0.0136636
846.551	0.0135126
846.629	0.0135667
846.707	0.0135770
846.785	0.0134798
846.863	0.0135592
846.942	0.0136967
847.020	0.0135762
847.098	0.0134982
847.176	0.0135613
847.254	0.0135529
847.332	0.0137791
847.410	0.0136156
847.488	0.0137423
847.567	0.0136617
847.645	0.0137888
847.723	0.0136737
847.801	0.0135252
847.879	0.0136423
847.957	0.0137514
848.035	0.0135979
848.113	0.0135577
848.192	0.0135838
848.270	0.0137032
848.348	0.0135796
848.426	0.0134893
848.504	0.0137308
848.582	0.0136273
848.660	0.0134998
848.738	0.0136665
848.817	0.0136335
848.895	0.0134677
848.973	0.0136065
849.051	0.0135972
849.129	0.0136807
849.207	0.0135128
849.285	0.0135142
849.363	0.0135461
849.442	0.0134384
849.520	0.0135953
849.598	0.0136375
849.676	0.0134754
849.754	0.0135150
849.832	0.0135784
849.910	0.0134473
849.988	0.0135691
850.067	0.0134364
850.145	0.0135609
850.223	0.0136384
850.301	0.0135241
850.379	0.0134184
850.457	0.0134557
850.535	0.0134033
850.613	0.0134689
850.692	0.0133528
850.770	0.0134468
850.848	0.0134428
850.926	0.0135065
851.004	0.0134516
851.082	0.0135734
851.160	0.0135387
851.238	0.0135403
851.317	0.0135144
851.395	0.0135957
851.473	0.0136076
851.551	0.0135280
851.629	0.0135720
851.707	0.0135905
851.785	0.0136943
851.863	0.0135656
851.942	0.0136252
852.020	0.0136935
852.098	0.0136689
852.176	0.0136088
852.254	0.0135329
852.332	0.0135857
852.410	0.0133849
852.488	0.0135404
852.567	0.0136544
852.645	0.0134651
852.723	0.0134518
852.801	0.0134055
852.879	0.0135147
852.957	0.0133240
853.035	0.0135585
853.113	0.0134711
853.192	0.0134490
853.270	0.0134000
853.348	0.0132941
853.426	0.0133887
853.504	0.0133910
853.582	0.0132941
853.660	0.0134025
853.738	0.0134044
853.817	0.0134469
853.895	0.0134538
853.973	0.0132930
854.051	0.0133530
854.129	0.0134650
854.207	0.0133854
854.285	0.0133607
854.363	0.0134682
854.442	0.0135819
854.520	0.0133791
854.598	0.0134055
854.676	0.0134511
854.754	0.0135472
854.832	0.0135852
854.910	0.0135743
854.988	0.0135004
855.067	0.0135717
855.145	0.0133916
855.223	0.0135503
855.301	0.0134791
855.379	0.0135790
855.457	0.0135310
855.535	0.0135387
855.613	0.0135113
855.692	0.0135486
855.770	0.0135242
855.848	0.0134730
855.926	0.0135934
856.004	0.0134784
856.082	0.0134775
856.160	0.0134814
856.238	0.0134377
856.317	0.0134605
856.395	0.0134963
856.473	0.0135204
856.551	0.0136234
856.629	0.0133260
856.707	0.0135781
856.785	0.0135307
856.863	0.0135533
856.942	0.0135444
857.020	0.0135079
857.098	0.0132859
857.176	0.0132884
857.254	0.0133650
857.332	0.0134283
857.410	0.0134053
857.488	0.0133414
857.567	0.0134262
857.645	0.0133580
857.723	0.0134523
857.801	0.0135049
857.879	0.0133891
857.957	0.0133516
858.035	0.0133766
858.113	0.0134470
858.192	0.0133762
858.270	0.0134649
858.348	0.0133747
858.426	0.0133465
858.504	0.0134735
858.582	0.0132481
858.660	0.0134415
858.738	0.0134366
858.817	0.0134185
858.895	0.0133052
858.973	0.0131770
859.051	0.0132297
859.129	0.0132879
859.207	0.0131563
859.285	0.0132580
859.363	0.0133064
859.442	0.0132111
859.520	0.0133453
859.598	0.0132480
859.676	0.0133554
859.754	0.0132910
859.832	0.0133691
859.910	0.0135019
859.988	0.0135150
860.067	0.0133786
860.145	0.0133553
860.223	0.0133516
860.301	0.0134790
860.379	0.0134794
860.457	0.0134508
860.535	0.0134180
860.613	0.0135162
860.692	0.0133967
860.770	0.0135204
860.848	0.0134019
860.926	0.0135774
861.004	0.0134310
861.082	0.0134699
861.160	0.0135238
861.238	0.0134782
861.317	0.0134531
861.395	0.0134181
861.473	0.0133426
861.551	0.0133567
861.629	0.0134365
861.707	0.0134783
861.785	0.0135536
861.863	0.0135104
861.942	0.0134706
862.020	0.0135210
862.098	0.0135873
862.176	0.0135720
862.254	0.0135709
862.332	0.0136236
862.410	0.0135168
862.488	0.0137054
862.567	0.0135387
862.645	0.0135857
862.723	0.0137364
862.801	0.0136658
862.879	0.0137732
862.957	0.0137119
863.035	0.0137532
863.113	0.0137193
863.192	0.0136839
863.270	0.0137727
863.348	0.0137528
863.426	0.0137673
863.504	0.0138712
863.582	0.0137682
863.660	0.0139571
863.738	0.0137708
863.817	0.0137306
863.895	0.0138130
863.973	0.0138138
864.051	0.0136588
864.129	0.0138444
864.207	0.0138235
864.285	0.0138357
864.363	0.0137080
864.442	0.0138574
864.520	0.0137436
864.598	0.0137769
864.676	0.0137435
864.754	0.0138260
864.832	0.0137520
864.910	0.0136541
864.988	0.0136742
865.067	0.0137473
865.145	0.0136571
865.223	0.0136890
865.301	0.0136964
865.379	0.0137950
865.457	0.0138036
865.535	0.0137082
865.613	0.0136371
865.692	0.0136474
865.770	0.0136131
865.848	0.0136038
865.926	0.0136798
866.004	0.0137126
866.082	0.0136266
866.160	0.0137669
866.238	0.0136028
866.317	0.0135918
866.395	0.0134679
866.473	0.0135419
866.551	0.0136232
866.629	0.0135242
866.707	0.0135201
866.785	0.0135805
866.863	0.0134399
866.942	0.0136033
867.020	0.0136076
867.098	0.0136620
867.176	0.0135236
867.254	0.0136216
867.332	0.0135159
867.410	0.0134377
867.488	0.0135784
867.567	0.0135350
867.645	0.0133429
867.723	0.0135353
867.801	0.0133868
867.879	0.0133809
867.957	0.0135336
868.035	0.0135275
868.113	0.0134926
868.192	0.0134653
868.270	0.0134105
868.348	0.0134096
868.426	0.0134408
868.504	0.0134945
868.582	0.0136497
868.660	0.0135486
868.738	0.0134972
868.817	0.0135528
868.895	0.0135801
868.973	0.0135652
869.051	0.0135336
869.129	0.0134837
869.207	0.0136368
869.285	0.0136384
869.363	0.0135303
869.442	0.0135549
869.520	0.0137261
869.598	0.0137257
869.676	0.0138219
869.754	0.0136342
869.832	0.0137315
869.910	0.0136471
869.988	0.0137062
870.067	0.0136143
870.145	0.0136575
870.223	0.0137495
870.301	0.0137297
870.379	0.0137001
870.457	0.0135215
870.535	0.0135915
870.613	0.0134795
870.692	0.0137110
870.770	0.0135813
870.848	0.0136201
870.926	0.0135616
871.004	0.0136337
871.082	0.0135456
871.160	0.0135323
871.238	0.0135561
871.317	0.0136909
871.395	0.0136275
871.473	0.0135805
871.551	0.0135150
871.629	0.0135468
871.707	0.0135815
871.785	0.0134243
871.863	0.0135191
871.942	0.0134103
872.020	0.0135086
872.098	0.0136028
872.176	0.0135796
872.254	0.0135300
872.332	0.0136027
872.410	0.0134373
872.488	0.0136013
872.567	0.0135177
872.645	0.0134394
872.723	0.0134365
872.801	0.0133058
872.879	0.0133833
872.957	0.0134377
873.035	0.0133121
873.113	0.0134499
873.192	0.0134093
873.270	0.0136595
873.348	0.0134807
873.426	0.0134678
873.504	0.0133186
873.582	0.0133945
873.660	0.0135299
873.738	0.0134383
873.817	0.0132475
873.895	0.0133286
873.973	0.0136225
874.051	0.0134788
874.129	0.0135304
874.207	0.0135072
874.285	0.0134872
874.363	0.0134162
874.442	0.0134662
874.520	0.0136823
874.598	0.0134580
874.676	0.0135884
874.754	0.0135612
874.832	0.0134080
874.910	0.0135529
874.988	0.0136590
875.067	0.0134338
875.145	0.0135878
875.223	0.0136375
875.301	0.0134589
875.379	0.0136347
875.457	0.0137817
875.535	0.0134984
875.613	0.0135480
875.692	0.0137046
875.770	0.0135935
875.848	0.0136213
875.926	0.0135582
876.004	0.0135619
876.082	0.0136089
876.160	0.0135737
876.238	0.0135587
876.317	0.0136023
876.395	0.0135120
876.473	0.0136012
876.551	0.0136505
876.629	0.0134987
876.707	0.0136111
876.785	0.0135715
876.863	0.0135291
876.942	0.0135572
877.020	0.0136014
877.098	0.0135036
877.176	0.0134734
877.254	0.0135703
877.332	0.0136440
877.410	0.0135120
877.488	0.0135681
877.567	0.0135459
877.645	0.0135979
877.723	0.0135377
877.801	0.0135368
877.879	0.0135809
877.957	0.0135842
878.035	0.0134344
878.113	0.0134373
878.192	0.0134156
878.270	0.0135146
878.348	0.0136057
878.426	0.0135728
878.504	0.0134698
878.582	0.0135301
878.660	0.0135804
878.738	0.0134698
878.817	0.0135236
878.895	0.0134186
878.973	0.0134480
879.051	0.0134422
879.129	0.0135070
879.207	0.0135815
879.285	0.0134558
879.363	0.0133720
879.442	0.0135324
879.520	0.0136270
879.598	0.0135691
879.676	0.0135091
879.754	0.0135552
879.832	0.0136778
879.910	0.0136131
879.988	0.0136963
880.067	0.0135617
880.145	0.0135684
880.223	0.0136346
880.301	0.0136120
880.379	0.0137449
880.457	0.0137178
880.535	0.0135857
880.613	0.0137333
880.692	0.0137085
880.770	0.0136580
880.848	0.0137041
880.926	0.0136908
881.004	0.0137057
881.082	0.0136502
881.160	0.0134833
881.238	0.0136286
881.317	0.0136115
881.395	0.0136761
881.473	0.0134564
881.551	0.0134975
881.629	0.0135128
881.707	0.0134093
881.785	0.0134533
881.863	0.0134463
881.942	0.0133772
882.020	0.0134806
882.098	0.0132461
882.176	0.0131904
882.254	0.0132928
882.332	0.0133626
882.410	0.0131573
882.488	0.0131136
882.567	0.0131232
882.645	0.0130842
882.723	0.0131017
882.801	0.0132173
882.879	0.0133464
882.957	0.0131256
883.035	0.0131751
883.113	0.0131589
883.192	0.0131843
883.270	0.0130965
883.348	0.0133432
883.426	0.0133224
883.504	0.0133707
883.582	0.0133443
883.660	0.0133875
883.738	0.0133864
883.817	0.0134106
883.895	0.0134010
883.973	0.0133483
884.051	0.0134150
884.129	0.0133810
884.207	0.0134074
884.285	0.0135699
884.363	0.0134872
884.442	0.0134754
884.520	0.0134967
884.598	0.0134898
884.676	0.0134479
884.754	0.0135814
884.832	0.0135359
884.910	0.0135196
884.988	0.0135265
885.067	0.0135485
885.145	0.0135495
885.223	0.0135382
885.301	0.0135379
885.379	0.0135274
885.457	0.0136112
885.535	0.0135743
885.613	0.0136124
885.692	0.0135268
885.770	0.0135705
885.848	0.0137355
885.926	0.0134087
886.004	0.0135925
886.082	0.0135616
886.160	0.0134911
886.238	0.0136198
886.317	0.0136241
886.395	0.0137901
886.473	0.0134738
886.551	0.0135144
886.629	0.0135519
886.707	0.0135903
886.785	0.0134822
886.863	0.0134740
886.942	0.0137090
887.020	0.0136243
887.098	0.0136087
887.176	0.0135744
887.254	0.0135889
887.332	0.0135470
887.410	0.0136205
887.488	0.0135474
887.567	0.0135527
887.645	0.0136118
887.723	0.0135745
887.801	0.0136128
887.879	0.0135583
887.957	0.0136115
888.035	0.0135387
888.113	0.0136292
888.192	0.0137484
888.270	0.0135691
888.348	0.0136255
888.426	0.0136362
888.504	0.0136014
888.582	0.0136734
888.660	0.0137989
888.738	0.0137511
888.817	0.0137761
888.895	0.0137397
888.973	0.0136350
889.051	0.0136617
889.129	0.0137560
889.207	0.0135876
889.285	0.0136319
889.363	0.0137408
889.442	0.0137968
889.520	0.0137598
889.598	0.0137799
889.676	0.0137900
889.754	0.0138479
889.832	0.0138957
889.910	0.0138799
889.988	0.0138370
890.067	0.0137845
890.145	0.0139804
890.223	0.0139498
890.301	0.0139250
890.379	0.0139386
890.457	0.0139342
890.535	0.0138838
890.613	0.0138154
890.692	0.0138264
890.770	0.0138161
890.848	0.0137852
890.926	0.0137697
891.004	0.0137740
891.082	0.0139324
891.160	0.0137113
891.238	0.0137139
891.317	0.0137642
891.395	0.0137289
891.473	0.0138056
891.551	0.0137596
891.629	0.0135668
891.707	0.0137222
891.785	0.0136633
891.863	0.0136306
891.942	0.0137724
892.020	0.0137142
892.098	0.0136956
892.176	0.0137488
892.254	0.0137308
892.332	0.0136239
892.410	0.0135991
892.488	0.0137032
892.567	0.0134008
892.645	0.0135097
892.723	0.0133764
892.801	0.0135325
892.879	0.0134837
892.957	0.0135092
893.035	0.0135559
893.113	0.0134510
893.192	0.0134947
893.270	0.0134932
893.348	0.0135520
893.426	0.0133743
893.504	0.0133290
893.582	0.0133795
893.660	0.0132802
893.738	0.0133579
893.817	0.0134198
893.895	0.0133264
893.973	0.0134296
894.051	0.0132700
894.129	0.0132901
894.207	0.0133551
894.285	0.0132994
894.363	0.0133839
894.442	0.0132959
894.520	0.0133595
894.598	0.0134145
894.676	0.0135243
894.754	0.0133044
894.832	0.0133086
894.910	0.0134171
894.988	0.0135798
895.067	0.0135963
895.145	0.0135746
895.223	0.0136726
895.301	0.0137212
895.379	0.0135268
895.457	0.0137215
895.535	0.0135879
895.613	0.0136054
895.692	0.0136527
895.770	0.0134627
895.848	0.0136461
895.926	0.0136364
896.004	0.0137309
896.082	0.0136543
896.160	0.0136975
896.238	0.0136958
896.317	0.0137720
896.395	0.0136623
896.473	0.0136488
896.551	0.0136742
896.629	0.0136998
896.707	0.0136710
896.785	0.0136163
896.863	0.0136474
896.942	0.0135008
897.020	0.0134839
897.098	0.0136172
897.176	0.0135820
897.254	0.0136626
897.332	0.0135479
897.410	0.0136564
897.488	0.0136138
897.567	0.0134475
897.645	0.0136695
897.723	0.0135419
897.801	0.0133624
897.879	0.0133863
897.957	0.0134393
898.035	0.0134924
898.113	0.0134676
898.192	0.0134807
898.270	0.0134164
898.348	0.0135733
898.426	0.0134782
898.504	0.0134974
898.582	0.0134706
898.660	0.0133817
898.738	0.0134566
898.817	0.0133148
898.895	0.0134425
898.973	0.0133616
899.051	0.0134590
899.129	0.0135007
899.207	0.0134908
899.285	0.0135117
899.363	0.0133046
899.442	0.0135161
899.520	0.0135752
899.598	0.0134337
899.676	0.0135190
899.754	0.0134821
899.832	0.0135332
899.910	0.0136144
899.988	0.0136005
900.067	0.0134720
900.145	0.0136533
900.223	0.0136994
900.301	0.0135078
900.379	0.0135933
900.457	0.0134927
900.535	0.0135662
900.613	0.0136166
900.692	0.0135143
900.770	0.0134846
900.848	0.0134191
900.926	0.0134329
901.004	0.0134736
901.082	0.0134775
901.160	0.0134639
901.238	0.0133651
901.317	0.0134111
901.395	0.0133123
901.473	0.0132675
901.551	0.0133524
901.629	0.0132080
901.707	0.0133311
901.785	0.0133857
901.863	0.0133307
901.942	0.0134188
902.020	0.0132706
902.098	0.0132978
902.176	0.0134707
902.254	0.0133475
902.332	0.0135329
902.410	0.0133788
902.488	0.0134326
902.567	0.0134429
902.645	0.0136256
902.723	0.0133966
902.801	0.0134824
902.879	0.0134869
902.957	0.0134738
903.035	0.0134399
903.113	0.0136608
903.192	0.0136803
903.270	0.0136819
903.348	0.0135977
903.426	0.0134896
903.504	0.0136991
903.582	0.0136079
903.660	0.0136575
903.738	0.0136951
903.817	0.0137238
903.895	0.0136103
903.973	0.0136407
904.051	0.0137489
904.129	0.0135947
904.207	0.0136641
904.285	0.0136468
904.363	0.0135330
904.442	0.0135999
904.520	0.0135191
904.598	0.0133921
904.676	0.0134715
904.754	0.0133830
904.832	0.0133811
904.910	0.0134513
904.988	0.0134503
905.067	0.0133228
905.145	0.0134437
905.223	0.0132705
905.301	0.0132655
905.379	0.0133866
905.457	0.0133474
905.535	0.0134454
905.613	0.0135223
905.692	0.0134118
905.770	0.0133039
905.848	0.0135110
905.926	0.0134769
906.004	0.0135035
906.082	0.0134164
906.160	0.0135639
906.238	0.0134602
906.317	0.0134560
906.395	0.0134618
906.473	0.0134995
906.551	0.0135214
906.629	0.0135093
906.707	0.0134400
906.785	0.0135211
906.863	0.0135435
906.942	0.0133855
907.020	0.0134399
907.098	0.0135105
907.176	0.0135493
907.254	0.0135383
907.332	0.0135004
907.410	0.0135078
907.488	0.0134063
907.567	0.0134002
907.645	0.0134318
907.723	0.0133798
907.801	0.0133752
907.879	0.0134238
907.957	0.0134082
908.035	0.0131959
908.113	0.0131553
908.192	0.0133889
908.270	0.0133672
908.348	0.0130997
908.426	0.0132318
908.504	0.0132941
908.582	0.0132973
908.660	0.0132670
908.738	0.0132844
908.817	0.0132587
908.895	0.0131715
908.973	0.0132822
909.051	0.0131180
909.129	0.0131228
909.207	0.0133303
909.285	0.0132428
909.363	0.0131978
909.442	0.0133107
909.520	0.0133271
909.598	0.0131506
909.676	0.0132344
909.754	0.0132674
909.832	0.0132912
909.910	0.0131164
909.988	0.0132088
910.067	0.0133044
910.145	0.0133495
910.223	0.0133437
910.301	0.0134056
910.379	0.0133427
910.457	0.0133030
910.535	0.0133350
910.613	0.0134331
910.692	0.0132340
910.770	0.0133397
910.848	0.0132718
910.926	0.0134418
911.004	0.0133867
911.082	0.0133257
911.160	0.0133585
911.238	0.0133855
911.317	0.0133517
911.395	0.0133871
911.473	0.0134727
911.551	0.0134186
911.629	0.0134585
911.707	0.0133519
911.785	0.0134839
911.863	0.0134047
911.942	0.0134715
912.020	0.0133579
912.098	0.0134504
912.176	0.0134536
912.254	0.0134324
912.332	0.0135679
912.410	0.0134939
912.488	0.0134967
912.567	0.0135303
912.645	0.0136367
912.723	0.0134614
912.801	0.0136138
912.879	0.0136319
912.957	0.0135093
913.035	0.0135810
913.113	0.0135671
913.192	0.0136877
913.270	0.0136740
913.348	0.0137326
913.426	0.0136569
913.504	0.0136110
913.582	0.0136458
913.660	0.0136635
913.738	0.0136516
913.817	0.0135854
913.895	0.0136146
913.973	0.0136707
914.051	0.0136476
914.129	0.0135474
914.207	0.0135984
914.285	0.0136608
914.363	0.0135139
914.442	0.0136246
914.520	0.0136018
914.598	0.0136228
914.676	0.0137311
914.754	0.0135060
914.832	0.0136461
914.910	0.0136558
914.988	0.0137493
915.067	0.0136008
915.145	0.0136868
915.223	0.0137224
915.301	0.0135970
915.379	0.0136609
915.457	0.0135995
915.535	0.0136917
915.613	0.0135954
915.692	0.0137047
915.770	0.0138004
915.848	0.0136443
915.926	0.0136288
916.004	0.0136686
916.082	0.0138279
916.160	0.0137646
916.238	0.0136867
916.317	0.0137487
916.395	0.0138306
916.473	0.0137305
916.551	0.0139132
916.629	0.0138162
916.707	0.0136423
916.785	0.0138509
916.863	0.0137132
916.942	0.0136121
917.020	0.0137080
917.098	0.0136919
917.176	0.0136670
917.254	0.0136411
917.332	0.0137098
917.410	0.0137199
917.488	0.0136580
917.567	0.0135473
917.645	0.0135439
917.723	0.0136664
917.801	0.0135722
917.879	0.0134074
917.957	0.0135425
918.035	0.0134946
918.113	0.0135146
918.192	0.0135808
918.270	0.0135181
918.348	0.0135899
918.426	0.0134246
918.504	0.0133585
918.582	0.0135291
918.660	0.0135853
918.738	0.0136659
918.817	0.0133946
918.895	0.0134139
918.973	0.0136898
919.051	0.0133925
919.129	0.0134832
919.207	0.0135565
919.285	0.0135686
919.363	0.0134489
919.442	0.0135233
919.520	0.0134247
919.598	0.0136919
919.676	0.0135423
919.754	0.0135244
919.832	0.0136299
919.910	0.0135143
