05/28/2022	13:54:10	Ver.	4.1	UNKNOWN
Optical Delay	599.988409	Delta X		0.078125	Sweeps	1	Scan Rate	0/0
Coordinates	Axis 1	NaN	Axis 2	NaN	Axis 3	NaN	Axis 4	NaN	Axis 5	NaN	Axis 6	0.000000
TX Power	0.000000	RX Power	0.000000

599.988	0.0152104
600.067	0.0151280
600.145	0.0151652
600.223	0.0152416
600.301	0.0151958
600.379	0.0151810
600.457	0.0151295
600.535	0.0151385
600.613	0.0151190
600.692	0.0152226
600.770	0.0151224
600.848	0.0152374
600.926	0.0151846
601.004	0.0151275
601.082	0.0153191
601.160	0.0151614
601.238	0.0151754
601.317	0.0153176
601.395	0.0152122
601.473	0.0151490
601.551	0.0152380
601.629	0.0151415
601.707	0.0151812
601.785	0.0151764
601.863	0.0152890
601.942	0.0151199
602.020	0.0152349
602.098	0.0152889
602.176	0.0151295
602.254	0.0153059
602.332	0.0153546
602.410	0.0151538
602.488	0.0152285
602.567	0.0151608
602.645	0.0151464
602.723	0.0152759
602.801	0.0150911
602.879	0.0152603
602.957	0.0151793
603.035	0.0151329
603.113	0.0151763
603.192	0.0151554
603.270	0.0151540
603.348	0.0151270
603.426	0.0152898
603.504	0.0152685
603.582	0.0151579
603.660	0.0151646
603.738	0.0151746
603.817	0.0151679
603.895	0.0150916
603.973	0.0152560
604.051	0.0151889
604.129	0.0152078
604.207	0.0153022
604.285	0.0152208
604.363	0.0150977
604.442	0.0151505
604.520	0.0152967
604.598	0.0151981
604.676	0.0152358
604.754	0.0152052
604.832	0.0152155
604.910	0.0152264
604.988	0.0151031
605.067	0.0153022
605.145	0.0151819
605.223	0.0151997
605.301	0.0152723
605.379	0.0152417
605.457	0.0152385
605.535	0.0152489
605.613	0.0152518
605.692	0.0152164
605.770	0.0152234
605.848	0.0151223
605.926	0.0152171
606.004	0.0152222
606.082	0.0151241
606.160	0.0151805
606.238	0.0152421
606.317	0.0153468
606.395	0.0151808
606.473	0.0152308
606.551	0.0152058
606.629	0.0150989
606.707	0.0152093
606.785	0.0152563
606.863	0.0151799
606.942	0.0151258
607.020	0.0150925
607.098	0.0152306
607.176	0.0153333
607.254	0.0152365
607.332	0.0151895
607.410	0.0153282
607.488	0.0151741
607.567	0.0152664
607.645	0.0152129
607.723	0.0152113
607.801	0.0152489
607.879	0.0151516
607.957	0.0151452
608.035	0.0150870
608.113	0.0153428
608.192	0.0151694
608.270	0.0151434
608.348	0.0152637
608.426	0.0151646
608.504	0.0151883
608.582	0.0151183
608.660	0.0152886
608.738	0.0152307
608.817	0.0153372
608.895	0.0151871
608.973	0.0150531
609.051	0.0152731
609.129	0.0152003
609.207	0.0151943
609.285	0.0152317
609.363	0.0151391
609.442	0.0152071
609.520	0.0152637
609.598	0.0151640
609.676	0.0151330
609.754	0.0151926
609.832	0.0152942
609.910	0.0151533
609.988	0.0150725
610.067	0.0151983
610.145	0.0152007
610.223	0.0151945
610.301	0.0151696
610.379	0.0153334
610.457	0.0152368
610.535	0.0152608
610.613	0.0152184
610.692	0.0153214
610.770	0.0151538
610.848	0.0150926
610.926	0.0152508
611.004	0.0151689
611.082	0.0153294
611.160	0.0153736
611.238	0.0152406
611.317	0.0151719
611.395	0.0150659
611.473	0.0152968
611.551	0.0151952
611.629	0.0153529
611.707	0.0153128
611.785	0.0152371
611.863	0.0151895
611.942	0.0151540
612.020	0.0153565
612.098	0.0152039
612.176	0.0150895
612.254	0.0152131
612.332	0.0152219
612.410	0.0152955
612.488	0.0152824
612.567	0.0152261
612.645	0.0153657
612.723	0.0152482
612.801	0.0151102
612.879	0.0151975
612.957	0.0152425
613.035	0.0151099
613.113	0.0151756
613.192	0.0152525
613.270	0.0152489
613.348	0.0152588
613.426	0.0151901
613.504	0.0151712
613.582	0.0152831
613.660	0.0152209
613.738	0.0152275
613.817	0.0152404
613.895	0.0152096
613.973	0.0151701
614.051	0.0153465
614.129	0.0152105
614.207	0.0151768
614.285	0.0152375
614.363	0.0152232
614.442	0.0153185
614.520	0.0151572
614.598	0.0152413
614.676	0.0151735
614.754	0.0152895
614.832	0.0151795
614.910	0.0152378
614.988	0.0151031
615.067	0.0151648
615.145	0.0151300
615.223	0.0153221
615.301	0.0153810
615.379	0.0151327
615.457	0.0150967
615.535	0.0152794
615.613	0.0152013
615.692	0.0152306
615.770	0.0151289
615.848	0.0151477
615.926	0.0152386
616.004	0.0151903
616.082	0.0152304
616.160	0.0152566
616.238	0.0153058
616.317	0.0152087
616.395	0.0151192
616.473	0.0152230
616.551	0.0151639
616.629	0.0152074
616.707	0.0152895
616.785	0.0151424
616.863	0.0150894
616.942	0.0152457
617.020	0.0152969
617.098	0.0153552
617.176	0.0152027
617.254	0.0151537
617.332	0.0152425
617.410	0.0153513
617.488	0.0152527
617.567	0.0152422
617.645	0.0152527
617.723	0.0152412
617.801	0.0152650
617.879	0.0151274
617.957	0.0153937
618.035	0.0152151
618.113	0.0151770
618.192	0.0151811
618.270	0.0152364
618.348	0.0152756
618.426	0.0151652
618.504	0.0149828
618.582	0.0150452
618.660	0.0151961
618.738	0.0152044
618.817	0.0151746
618.895	0.0152304
618.973	0.0151993
619.051	0.0152277
619.129	0.0153452
619.207	0.0152258
619.285	0.0152171
619.363	0.0154052
619.442	0.0152110
619.520	0.0152113
619.598	0.0154151
619.676	0.0151672
619.754	0.0152123
619.832	0.0152520
619.910	0.0153237
619.988	0.0153542
620.067	0.0152746
620.145	0.0151351
620.223	0.0151423
620.301	0.0150935
620.379	0.0152199
620.457	0.0152357
620.535	0.0152264
620.613	0.0152061
620.692	0.0151889
620.770	0.0152000
620.848	0.0153454
620.926	0.0152831
621.004	0.0151456
621.082	0.0152106
621.160	0.0151716
621.238	0.0151474
621.317	0.0151535
621.395	0.0151443
621.473	0.0151888
621.551	0.0151817
621.629	0.0151462
621.707	0.0151582
621.785	0.0151736
621.863	0.0153146
621.942	0.0150697
622.020	0.0152123
622.098	0.0151853
622.176	0.0152641
622.254	0.0152482
622.332	0.0152515
622.410	0.0152052
622.488	0.0151942
622.567	0.0151186
622.645	0.0151496
622.723	0.0152441
622.801	0.0151256
622.879	0.0152271
622.957	0.0152073
623.035	0.0151402
623.113	0.0151182
623.192	0.0152092
623.270	0.0152331
623.348	0.0151218
623.426	0.0152072
623.504	0.0152704
623.582	0.0152186
623.660	0.0152616
623.738	0.0152920
623.817	0.0151649
623.895	0.0151171
623.973	0.0151315
624.051	0.0152864
624.129	0.0153205
624.207	0.0152389
624.285	0.0150568
624.363	0.0151810
624.442	0.0152191
624.520	0.0150360
624.598	0.0150596
624.676	0.0152739
624.754	0.0153255
624.832	0.0152407
624.910	0.0150297
624.988	0.0151888
625.067	0.0153413
625.145	0.0151043
625.223	0.0151801
625.301	0.0152201
625.379	0.0151949
625.457	0.0154138
625.535	0.0152329
625.613	0.0151474
625.692	0.0151067
625.770	0.0152805
625.848	0.0152419
625.926	0.0152016
626.004	0.0152779
626.082	0.0150660
626.160	0.0152287
626.238	0.0151956
626.317	0.0151806
626.395	0.0153337
626.473	0.0152811
626.551	0.0150886
626.629	0.0153382
626.707	0.0152885
626.785	0.0150188
626.863	0.0151511
626.942	0.0152830
627.020	0.0152676
627.098	0.0151548
627.176	0.0151760
627.254	0.0152883
627.332	0.0152618
627.410	0.0151953
627.488	0.0152517
627.567	0.0152890
627.645	0.0152066
627.723	0.0151970
627.801	0.0152367
627.879	0.0152153
627.957	0.0152154
628.035	0.0150471
628.113	0.0151481
628.192	0.0151067
628.270	0.0151383
628.348	0.0152552
628.426	0.0152274
628.504	0.0150594
628.582	0.0150350
628.660	0.0151624
628.738	0.0151862
628.817	0.0152190
628.895	0.0152058
628.973	0.0152068
629.051	0.0152292
629.129	0.0152599
629.207	0.0151662
629.285	0.0153954
629.363	0.0152892
629.442	0.0152798
629.520	0.0152482
629.598	0.0151821
629.676	0.0151635
629.754	0.0151553
629.832	0.0152301
629.910	0.0152020
629.988	0.0152176
630.067	0.0153334
630.145	0.0152932
630.223	0.0152439
630.301	0.0151236
630.379	0.0153126
630.457	0.0152433
630.535	0.0152168
630.613	0.0151739
630.692	0.0151121
630.770	0.0151780
630.848	0.0153343
630.926	0.0152341
631.004	0.0151902
631.082	0.0152757
631.160	0.0152286
631.238	0.0152916
631.317	0.0152533
631.395	0.0152716
631.473	0.0153160
631.551	0.0151751
631.629	0.0152225
631.707	0.0152483
631.785	0.0152820
631.863	0.0151349
631.942	0.0151345
632.020	0.0151264
632.098	0.0151759
632.176	0.0152996
632.254	0.0151542
632.332	0.0151807
632.410	0.0151506
632.488	0.0152825
632.567	0.0152129
632.645	0.0151645
632.723	0.0151721
632.801	0.0152248
632.879	0.0151293
632.957	0.0152164
633.035	0.0151583
633.113	0.0149479
633.192	0.0151545
633.270	0.0151860
633.348	0.0151411
633.426	0.0152166
633.504	0.0152449
633.582	0.0152901
633.660	0.0152169
633.738	0.0152028
633.817	0.0152385
633.895	0.0153394
633.973	0.0152267
634.051	0.0152607
634.129	0.0152283
634.207	0.0151758
634.285	0.0151456
634.363	0.0151867
634.442	0.0151680
634.520	0.0151716
634.598	0.0153302
634.676	0.0153027
634.754	0.0152744
634.832	0.0150949
634.910	0.0150476
634.988	0.0152034
635.067	0.0151641
635.145	0.0152206
635.223	0.0152040
635.301	0.0153146
635.379	0.0152158
635.457	0.0151292
635.535	0.0152077
635.613	0.0151630
635.692	0.0151729
635.770	0.0150758
635.848	0.0152065
635.926	0.0152110
636.004	0.0152650
636.082	0.0151995
636.160	0.0152715
636.238	0.0152216
636.317	0.0152225
636.395	0.0153178
636.473	0.0151395
636.551	0.0151405
636.629	0.0152071
636.707	0.0151952
636.785	0.0152911
636.863	0.0152470
636.942	0.0151669
637.020	0.0152464
637.098	0.0152645
637.176	0.0151469
637.254	0.0151045
637.332	0.0151618
637.410	0.0153020
637.488	0.0151732
637.567	0.0153083
637.645	0.0153439
637.723	0.0153198
637.801	0.0151788
637.879	0.0152625
637.957	0.0151986
638.035	0.0153719
638.113	0.0152653
638.192	0.0150284
638.270	0.0152206
638.348	0.0152205
638.426	0.0151268
638.504	0.0152599
638.582	0.0152377
638.660	0.0150667
638.738	0.0151590
638.817	0.0152023
638.895	0.0151753
638.973	0.0151389
639.051	0.0150419
639.129	0.0151642
639.207	0.0151699
639.285	0.0151651
639.363	0.0152882
639.442	0.0152563
639.520	0.0151782
639.598	0.0152417
639.676	0.0152155
639.754	0.0152336
639.832	0.0152476
639.910	0.0151612
639.988	0.0152512
640.067	0.0152627
640.145	0.0151653
640.223	0.0152030
640.301	0.0151823
640.379	0.0151628
640.457	0.0153214
640.535	0.0152664
640.613	0.0151284
640.692	0.0151491
640.770	0.0150121
640.848	0.0151856
640.926	0.0151849
641.004	0.0151221
641.082	0.0153035
641.160	0.0151866
641.238	0.0150626
641.317	0.0151305
641.395	0.0152039
641.473	0.0153486
641.551	0.0151369
641.629	0.0151726
641.707	0.0151924
641.785	0.0151996
641.863	0.0153210
641.942	0.0152193
642.020	0.0151738
642.098	0.0151656
642.176	0.0151867
642.254	0.0152036
642.332	0.0152267
642.410	0.0152830
642.488	0.0152709
642.567	0.0153415
642.645	0.0152238
642.723	0.0151888
642.801	0.0152608
642.879	0.0150768
642.957	0.0151567
643.035	0.0152681
643.113	0.0152421
643.192	0.0150909
643.270	0.0152114
643.348	0.0152684
643.426	0.0150832
643.504	0.0152725
643.582	0.0151149
643.660	0.0151003
643.738	0.0152190
643.817	0.0152393
643.895	0.0151837
643.973	0.0151568
644.051	0.0153166
644.129	0.0151421
644.207	0.0151989
644.285	0.0151714
644.363	0.0151846
644.442	0.0153082
644.520	0.0151225
644.598	0.0151448
644.676	0.0152242
644.754	0.0152029
644.832	0.0151232
644.910	0.0150598
644.988	0.0152947
645.067	0.0151107
645.145	0.0150570
645.223	0.0152451
645.301	0.0151218
645.379	0.0152279
645.457	0.0153164
645.535	0.0152512
645.613	0.0152422
645.692	0.0153269
645.770	0.0152620
645.848	0.0151320
645.926	0.0150922
646.004	0.0153264
646.082	0.0152658
646.160	0.0152971
646.238	0.0151598
646.317	0.0154563
646.395	0.0151672
646.473	0.0153303
646.551	0.0153260
646.629	0.0151748
646.707	0.0152699
646.785	0.0152832
646.863	0.0151586
646.942	0.0153124
647.020	0.0151714
647.098	0.0151670
647.176	0.0151305
647.254	0.0152451
647.332	0.0152007
647.410	0.0153127
647.488	0.0152304
647.567	0.0152012
647.645	0.0152867
647.723	0.0152080
647.801	0.0152085
647.879	0.0151618
647.957	0.0152682
648.035	0.0153493
648.113	0.0152101
648.192	0.0152138
648.270	0.0150824
648.348	0.0152204
648.426	0.0152342
648.504	0.0151670
648.582	0.0152233
648.660	0.0153165
648.738	0.0152431
648.817	0.0152501
648.895	0.0150814
648.973	0.0151042
649.051	0.0152383
649.129	0.0153211
649.207	0.0153326
649.285	0.0151333
649.363	0.0151788
649.442	0.0152077
649.520	0.0151775
649.598	0.0152812
649.676	0.0152377
649.754	0.0152150
649.832	0.0151492
649.910	0.0151688
649.988	0.0152661
650.067	0.0151616
650.145	0.0152421
650.223	0.0152583
650.301	0.0152208
650.379	0.0151189
650.457	0.0152507
650.535	0.0152964
650.613	0.0152637
650.692	0.0151797
650.770	0.0151369
650.848	0.0151184
650.926	0.0150890
651.004	0.0152450
651.082	0.0151882
651.160	0.0152202
651.238	0.0152467
651.317	0.0150977
651.395	0.0151196
651.473	0.0152001
651.551	0.0152639
651.629	0.0152039
651.707	0.0152367
651.785	0.0152186
651.863	0.0152621
651.942	0.0151976
652.020	0.0152669
652.098	0.0151630
652.176	0.0151893
652.254	0.0152799
652.332	0.0151770
652.410	0.0152300
652.488	0.0151658
652.567	0.0152692
652.645	0.0152467
652.723	0.0152023
652.801	0.0151520
652.879	0.0151554
652.957	0.0151547
653.035	0.0151262
653.113	0.0152681
653.192	0.0151832
653.270	0.0151560
653.348	0.0151864
653.426	0.0151741
653.504	0.0151721
653.582	0.0151421
653.660	0.0153379
653.738	0.0152705
653.817	0.0150055
653.895	0.0151682
653.973	0.0151463
654.051	0.0151343
654.129	0.0151855
654.207	0.0151512
654.285	0.0151292
654.363	0.0151980
654.442	0.0152414
654.520	0.0151541
654.598	0.0152783
654.676	0.0151700
654.754	0.0151197
654.832	0.0152913
654.910	0.0150969
654.988	0.0152303
655.067	0.0152296
655.145	0.0151257
655.223	0.0152879
655.301	0.0152160
655.379	0.0151460
655.457	0.0152055
655.535	0.0152107
655.613	0.0152053
655.692	0.0152334
655.770	0.0150350
655.848	0.0152080
655.926	0.0152178
656.004	0.0151891
656.082	0.0152269
656.160	0.0151769
656.238	0.0150641
656.317	0.0152065
656.395	0.0153048
656.473	0.0151568
656.551	0.0152570
656.629	0.0151910
656.707	0.0152330
656.785	0.0152119
656.863	0.0151273
656.942	0.0151536
657.020	0.0152614
657.098	0.0152714
657.176	0.0152420
657.254	0.0151600
657.332	0.0152104
657.410	0.0152810
657.488	0.0151142
657.567	0.0151003
657.645	0.0151890
657.723	0.0152785
657.801	0.0151127
657.879	0.0152264
657.957	0.0152148
658.035	0.0152413
658.113	0.0151943
658.192	0.0152831
658.270	0.0152762
658.348	0.0152222
658.426	0.0152067
658.504	0.0151405
658.582	0.0152532
658.660	0.0152496
658.738	0.0150768
658.817	0.0151488
658.895	0.0153236
658.973	0.0151841
659.051	0.0152380
659.129	0.0152927
659.207	0.0151700
659.285	0.0151688
659.363	0.0151902
659.442	0.0151235
659.520	0.0152089
659.598	0.0152587
659.676	0.0153331
659.754	0.0153312
659.832	0.0152128
659.910	0.0151397
659.988	0.0152019
660.067	0.0151752
660.145	0.0152607
660.223	0.0152905
660.301	0.0152166
660.379	0.0150669
660.457	0.0151465
660.535	0.0152169
660.613	0.0152415
660.692	0.0151890
660.770	0.0152427
660.848	0.0151416
660.926	0.0152292
661.004	0.0151382
661.082	0.0150294
661.160	0.0151053
661.238	0.0152134
661.317	0.0152585
661.395	0.0152897
661.473	0.0152383
661.551	0.0151218
661.629	0.0152121
661.707	0.0151968
661.785	0.0152354
661.863	0.0152512
661.942	0.0150095
662.020	0.0151452
662.098	0.0151987
662.176	0.0151942
662.254	0.0151680
662.332	0.0151492
662.410	0.0151548
662.488	0.0152380
662.567	0.0151474
662.645	0.0152386
662.723	0.0151097
662.801	0.0152213
662.879	0.0151723
662.957	0.0152155
663.035	0.0152331
663.113	0.0151254
663.192	0.0151984
663.270	0.0151089
663.348	0.0152521
663.426	0.0152087
663.504	0.0150648
663.582	0.0152244
663.660	0.0152209
663.738	0.0152867
663.817	0.0152102
663.895	0.0151928
663.973	0.0151441
664.051	0.0152297
664.129	0.0152979
664.207	0.0151939
664.285	0.0151482
664.363	0.0153229
664.442	0.0150668
664.520	0.0151308
664.598	0.0153126
664.676	0.0150919
664.754	0.0152078
664.832	0.0150729
664.910	0.0152044
664.988	0.0152748
665.067	0.0152156
665.145	0.0152187
665.223	0.0152013
665.301	0.0150991
665.379	0.0150767
665.457	0.0152568
665.535	0.0151694
665.613	0.0152197
665.692	0.0151185
665.770	0.0152717
665.848	0.0151701
665.926	0.0150966
666.004	0.0151821
666.082	0.0151786
666.160	0.0150813
666.238	0.0151276
666.317	0.0152093
666.395	0.0153247
666.473	0.0153642
666.551	0.0151734
666.629	0.0150517
666.707	0.0151858
666.785	0.0151444
666.863	0.0152216
666.942	0.0152585
667.020	0.0152206
667.098	0.0152441
667.176	0.0151966
667.254	0.0151335
667.332	0.0151472
667.410	0.0152424
667.488	0.0152043
667.567	0.0151949
667.645	0.0150491
667.723	0.0151921
667.801	0.0152699
667.879	0.0151953
667.957	0.0151730
668.035	0.0152031
668.113	0.0151093
668.192	0.0152966
668.270	0.0152515
668.348	0.0151820
668.426	0.0152143
668.504	0.0151266
668.582	0.0152289
668.660	0.0152813
668.738	0.0151338
668.817	0.0151373
668.895	0.0151283
668.973	0.0152100
669.051	0.0151840
669.129	0.0151229
669.207	0.0150635
669.285	0.0152391
669.363	0.0150423
669.442	0.0151585
669.520	0.0151215
669.598	0.0152054
669.676	0.0152101
669.754	0.0150454
669.832	0.0151133
669.910	0.0152558
669.988	0.0151939
670.067	0.0152599
670.145	0.0151298
670.223	0.0151881
670.301	0.0151891
670.379	0.0152567
670.457	0.0152417
670.535	0.0151206
670.613	0.0152369
670.692	0.0151422
670.770	0.0152123
670.848	0.0150839
670.926	0.0152034
671.004	0.0151461
671.082	0.0152172
671.160	0.0150345
671.238	0.0150765
671.317	0.0152805
671.395	0.0152149
671.473	0.0150555
671.551	0.0151125
671.629	0.0152282
671.707	0.0151926
671.785	0.0151424
671.863	0.0151787
671.942	0.0149596
672.020	0.0150866
672.098	0.0151010
672.176	0.0152150
672.254	0.0150652
672.332	0.0152700
672.410	0.0150996
672.488	0.0151254
672.567	0.0152301
672.645	0.0151974
672.723	0.0151752
672.801	0.0151890
672.879	0.0150880
672.957	0.0151818
673.035	0.0151818
673.113	0.0151467
673.192	0.0150520
673.270	0.0151601
673.348	0.0151085
673.426	0.0151382
673.504	0.0152276
673.582	0.0152046
673.660	0.0152354
673.738	0.0151562
673.817	0.0150619
673.895	0.0152923
673.973	0.0152318
674.051	0.0152763
674.129	0.0150678
674.207	0.0151665
674.285	0.0150330
674.363	0.0151681
674.442	0.0152713
674.520	0.0151897
674.598	0.0153082
674.676	0.0152638
674.754	0.0152512
674.832	0.0152542
674.910	0.0151467
674.988	0.0151809
675.067	0.0152204
675.145	0.0151717
675.223	0.0152401
675.301	0.0153144
675.379	0.0151435
675.457	0.0152442
675.535	0.0151838
675.613	0.0151357
675.692	0.0151280
675.770	0.0152280
675.848	0.0153147
675.926	0.0152573
676.004	0.0151510
676.082	0.0151978
676.160	0.0152830
676.238	0.0151933
676.317	0.0152423
676.395	0.0152485
676.473	0.0152077
676.551	0.0152139
676.629	0.0151785
676.707	0.0152935
676.785	0.0153501
676.863	0.0154007
676.942	0.0151743
677.020	0.0152699
677.098	0.0152846
677.176	0.0153358
677.254	0.0152351
677.332	0.0151653
677.410	0.0152452
677.488	0.0152800
677.567	0.0152892
677.645	0.0153214
677.723	0.0151520
677.801	0.0151511
677.879	0.0152200
677.957	0.0152090
678.035	0.0153307
678.113	0.0153845
678.192	0.0153199
678.270	0.0153540
678.348	0.0152053
678.426	0.0152875
678.504	0.0152763
678.582	0.0153543
678.660	0.0152551
678.738	0.0152368
678.817	0.0153238
678.895	0.0153811
678.973	0.0152817
679.051	0.0153702
679.129	0.0154866
679.207	0.0153032
679.285	0.0152946
679.363	0.0153323
679.442	0.0152394
679.520	0.0151018
679.598	0.0152460
679.676	0.0152212
679.754	0.0152645
679.832	0.0153892
679.910	0.0151514
679.988	0.0152219
680.067	0.0152214
680.145	0.0151720
680.223	0.0152464
680.301	0.0151530
680.379	0.0150961
680.457	0.0152827
680.535	0.0151268
680.613	0.0151783
680.692	0.0152589
680.770	0.0152235
680.848	0.0151466
680.926	0.0152176
681.004	0.0152444
681.082	0.0151466
681.160	0.0152342
681.238	0.0151810
681.317	0.0151087
681.395	0.0152901
681.473	0.0151375
681.551	0.0152593
681.629	0.0151901
681.707	0.0151514
681.785	0.0150778
681.863	0.0152696
681.942	0.0152116
682.020	0.0149342
682.098	0.0151993
682.176	0.0151369
682.254	0.0151911
682.332	0.0150800
682.410	0.0151712
682.488	0.0150040
682.567	0.0150606
682.645	0.0152008
682.723	0.0151474
682.801	0.0151556
682.879	0.0150396
682.957	0.0151064
683.035	0.0150116
683.113	0.0151410
683.192	0.0152299
683.270	0.0150598
683.348	0.0151496
683.426	0.0152354
683.504	0.0151351
683.582	0.0151452
683.660	0.0151416
683.738	0.0150497
683.817	0.0149612
683.895	0.0150433
683.973	0.0151846
684.051	0.0149632
684.129	0.0149337
684.207	0.0151669
684.285	0.0150575
684.363	0.0151842
684.442	0.0150372
684.520	0.0151247
684.598	0.0152555
684.676	0.0150649
684.754	0.0151718
684.832	0.0151045
684.910	0.0152868
684.988	0.0150952
685.067	0.0151543
685.145	0.0151473
685.223	0.0151836
685.301	0.0151966
685.379	0.0151304
685.457	0.0150235
685.535	0.0151612
685.613	0.0151825
685.692	0.0150407
685.770	0.0152216
685.848	0.0150372
685.926	0.0151204
686.004	0.0150475
686.082	0.0150376
686.160	0.0152069
686.238	0.0151528
686.317	0.0150571
686.395	0.0152219
686.473	0.0152042
686.551	0.0151970
686.629	0.0151718
686.707	0.0152004
686.785	0.0152650
686.863	0.0151226
686.942	0.0151036
687.020	0.0151289
687.098	0.0152305
687.176	0.0151756
687.254	0.0151501
687.332	0.0151291
687.410	0.0152135
687.488	0.0152103
687.567	0.0151196
687.645	0.0152048
687.723	0.0150850
687.801	0.0151598
687.879	0.0151733
687.957	0.0151643
688.035	0.0152375
688.113	0.0151924
688.192	0.0152529
688.270	0.0152085
688.348	0.0150293
688.426	0.0149621
688.504	0.0151382
688.582	0.0151344
688.660	0.0152728
688.738	0.0150751
688.817	0.0149915
688.895	0.0150132
688.973	0.0151021
689.051	0.0150989
689.129	0.0150706
689.207	0.0150988
689.285	0.0150555
689.363	0.0151147
689.442	0.0151806
689.520	0.0150976
689.598	0.0152425
689.676	0.0152417
689.754	0.0150563
689.832	0.0152087
689.910	0.0152459
689.988	0.0151074
690.067	0.0152419
690.145	0.0152266
690.223	0.0152934
690.301	0.0151535
690.379	0.0150595
690.457	0.0151557
690.535	0.0151424
690.613	0.0152013
690.692	0.0151649
690.770	0.0150057
690.848	0.0152324
690.926	0.0150078
691.004	0.0149009
691.082	0.0150764
691.160	0.0151290
691.238	0.0150849
691.317	0.0150810
691.395	0.0151550
691.473	0.0153333
691.551	0.0154158
691.629	0.0153273
691.707	0.0153777
691.785	0.0155893
691.863	0.0155914
691.942	0.0155596
692.020	0.0155096
692.098	0.0152994
692.176	0.0153141
692.254	0.0153029
692.332	0.0149914
692.410	0.0148131
692.488	0.0147496
692.567	0.0147792
692.645	0.0147152
692.723	0.0147246
692.801	0.0149991
692.879	0.0150297
692.957	0.0151724
693.035	0.0154227
693.113	0.0155782
693.192	0.0156202
693.270	0.0157124
693.348	0.0155879
693.426	0.0155732
693.504	0.0153740
693.582	0.0151826
693.660	0.0151234
693.738	0.0150610
693.817	0.0147511
693.895	0.0146915
693.973	0.0148353
694.051	0.0147881
694.129	0.0149353
694.207	0.0152806
694.285	0.0154335
694.363	0.0156540
694.442	0.0158554
694.520	0.0160681
694.598	0.0162142
694.676	0.0164220
694.754	0.0162010
694.832	0.0159415
694.910	0.0158994
694.988	0.0156042
695.067	0.0154506
695.145	0.0150778
695.223	0.0148163
695.301	0.0145701
695.379	0.0141420
695.457	0.0140288
695.535	0.0137680
695.613	0.0137875
695.692	0.0136597
695.770	0.0136580
695.848	0.0136632
695.926	0.0137255
696.004	0.0141192
696.082	0.0143485
696.160	0.0147170
696.238	0.0149196
696.317	0.0152262
696.395	0.0156490
696.473	0.0159905
696.551	0.0161612
696.629	0.0165326
696.707	0.0168597
696.785	0.0171101
696.863	0.0172214
696.942	0.0170170
697.020	0.0169501
697.098	0.0168203
697.176	0.0167323
697.254	0.0164836
697.332	0.0161436
697.410	0.0157539
697.488	0.0154842
697.567	0.0152052
697.645	0.0148672
697.723	0.0143501
697.801	0.0141410
697.879	0.0138822
697.957	0.0136398
698.035	0.0135207
698.113	0.0132309
698.192	0.0132931
698.270	0.0131275
698.348	0.0132391
698.426	0.0134956
698.504	0.0136252
698.582	0.0139879
698.660	0.0141377
698.738	0.0145911
698.817	0.0149204
698.895	0.0153726
698.973	0.0156746
699.051	0.0161086
699.129	0.0165736
699.207	0.0164727
699.285	0.0167554
699.363	0.0169254
699.442	0.0168863
699.520	0.0169839
699.598	0.0167179
699.676	0.0165524
699.754	0.0162830
699.832	0.0159613
699.910	0.0156409
699.988	0.0154657
700.067	0.0149115
700.145	0.0146885
700.223	0.0144965
700.301	0.0141972
700.379	0.0139849
700.457	0.0139553
700.535	0.0138745
700.613	0.0138250
700.692	0.0138544
700.770	0.0140073
700.848	0.0141830
700.926	0.0144559
701.004	0.0146786
701.082	0.0148559
701.160	0.0151937
701.238	0.0155309
701.317	0.0159695
701.395	0.0161715
701.473	0.0163618
701.551	0.0167553
701.629	0.0167086
701.707	0.0168732
701.785	0.0167471
701.863	0.0165947
701.942	0.0165846
702.020	0.0161130
702.098	0.0158910
702.176	0.0156584
702.254	0.0153725
702.332	0.0149815
702.410	0.0148697
702.488	0.0146952
702.567	0.0143617
702.645	0.0142279
702.723	0.0141377
702.801	0.0141521
702.879	0.0140559
702.957	0.0140945
703.035	0.0142033
703.113	0.0143733
703.192	0.0145680
703.270	0.0146177
703.348	0.0148307
703.426	0.0147074
703.504	0.0150163
703.582	0.0151318
703.660	0.0152546
703.738	0.0154466
703.817	0.0155599
703.895	0.0154615
703.973	0.0155567
704.051	0.0155801
704.129	0.0155346
704.207	0.0154864
704.285	0.0154749
704.363	0.0154942
704.442	0.0153815
704.520	0.0154572
704.598	0.0156129
704.676	0.0155865
704.754	0.0154781
704.832	0.0154967
704.910	0.0154455
704.988	0.0155561
705.067	0.0155591
705.145	0.0155713
705.223	0.0154279
705.301	0.0155013
705.379	0.0153938
705.457	0.0154201
705.535	0.0154875
705.613	0.0152087
705.692	0.0152891
705.770	0.0153903
705.848	0.0153792
705.926	0.0153098
706.004	0.0151843
706.082	0.0153681
706.160	0.0155707
706.238	0.0153773
706.317	0.0155878
706.395	0.0154748
706.473	0.0154972
706.551	0.0154575
706.629	0.0152882
706.707	0.0154189
706.785	0.0150817
706.863	0.0151588
706.942	0.0150307
707.020	0.0151005
707.098	0.0149309
707.176	0.0149025
707.254	0.0148126
707.332	0.0147913
707.410	0.0146716
707.488	0.0147489
707.567	0.0148109
707.645	0.0149227
707.723	0.0149366
707.801	0.0147770
707.879	0.0149304
707.957	0.0150237
708.035	0.0152444
708.113	0.0152149
708.192	0.0152201
708.270	0.0152952
708.348	0.0150837
708.426	0.0151691
708.504	0.0152010
708.582	0.0150008
708.660	0.0148578
708.738	0.0148855
708.817	0.0148373
708.895	0.0146600
708.973	0.0144642
709.051	0.0145319
709.129	0.0144267
709.207	0.0145246
709.285	0.0145509
709.363	0.0145594
709.442	0.0147453
709.520	0.0149004
709.598	0.0149637
709.676	0.0150395
709.754	0.0151750
709.832	0.0154874
709.910	0.0155873
709.988	0.0156156
710.067	0.0156539
710.145	0.0157711
710.223	0.0158483
710.301	0.0158649
710.379	0.0158708
710.457	0.0157575
710.535	0.0155244
710.613	0.0156294
710.692	0.0153432
710.770	0.0153313
710.848	0.0152426
710.926	0.0151461
711.004	0.0151881
711.082	0.0152462
711.160	0.0152265
711.238	0.0152477
711.317	0.0153676
711.395	0.0154076
711.473	0.0154921
711.551	0.0155608
711.629	0.0156711
711.707	0.0157720
711.785	0.0159158
711.863	0.0158321
711.942	0.0158671
712.020	0.0156465
712.098	0.0156393
712.176	0.0154826
712.254	0.0156129
712.332	0.0152730
712.410	0.0151721
712.488	0.0150095
712.567	0.0148336
712.645	0.0147153
712.723	0.0144522
712.801	0.0143791
712.879	0.0142999
712.957	0.0142299
713.035	0.0142505
713.113	0.0142932
713.192	0.0144104
713.270	0.0143008
713.348	0.0145092
713.426	0.0146786
713.504	0.0146870
713.582	0.0149349
713.660	0.0151068
713.738	0.0151878
713.817	0.0154343
713.895	0.0153122
713.973	0.0155352
714.051	0.0155276
714.129	0.0154476
714.207	0.0153986
714.285	0.0155286
714.363	0.0154983
714.442	0.0153937
714.520	0.0153876
714.598	0.0153927
714.676	0.0152792
714.754	0.0154006
714.832	0.0153992
714.910	0.0153094
714.988	0.0153004
715.067	0.0153493
715.145	0.0153074
715.223	0.0153325
715.301	0.0155368
715.379	0.0155869
715.457	0.0155134
715.535	0.0155148
715.613	0.0155041
715.692	0.0155248
715.770	0.0155209
715.848	0.0156413
715.926	0.0155434
716.004	0.0155378
716.082	0.0154749
716.160	0.0153777
716.238	0.0152813
716.317	0.0151379
716.395	0.0151860
716.473	0.0149648
716.551	0.0149926
716.629	0.0148155
716.707	0.0147910
716.785	0.0149715
716.863	0.0149145
716.942	0.0147380
717.020	0.0146780
717.098	0.0147501
717.176	0.0147560
717.254	0.0149089
717.332	0.0148862
717.410	0.0151843
717.488	0.0151138
717.567	0.0153993
717.645	0.0153795
717.723	0.0153487
717.801	0.0154240
717.879	0.0155459
717.957	0.0155756
718.035	0.0155544
718.113	0.0155339
718.192	0.0156290
718.270	0.0152936
718.348	0.0152497
718.426	0.0151603
718.504	0.0151852
718.582	0.0149897
718.660	0.0147712
718.738	0.0146143
718.817	0.0144754
718.895	0.0144784
718.973	0.0145520
719.051	0.0144083
719.129	0.0144635
719.207	0.0145615
719.285	0.0145699
719.363	0.0148578
719.442	0.0148679
719.520	0.0150828
719.598	0.0152228
719.676	0.0153387
719.754	0.0155218
719.832	0.0156175
719.910	0.0158839
719.988	0.0157971
720.067	0.0160777
720.145	0.0161131
720.223	0.0159479
720.301	0.0159939
720.379	0.0159495
720.457	0.0158745
720.535	0.0157091
720.613	0.0155604
720.692	0.0154870
720.770	0.0152994
720.848	0.0152711
720.926	0.0151936
721.004	0.0149385
721.082	0.0149699
721.160	0.0148842
721.238	0.0147571
721.317	0.0148149
721.395	0.0147906
721.473	0.0149577
721.551	0.0148061
721.629	0.0149751
721.707	0.0150697
721.785	0.0149807
721.863	0.0151943
721.942	0.0151967
722.020	0.0152984
722.098	0.0154246
722.176	0.0154391
722.254	0.0155236
722.332	0.0155174
722.410	0.0154843
722.488	0.0154531
722.567	0.0153827
722.645	0.0154951
722.723	0.0152460
722.801	0.0152508
722.879	0.0152103
722.957	0.0150256
723.035	0.0150272
723.113	0.0150355
723.192	0.0148871
723.270	0.0148025
723.348	0.0148062
723.426	0.0145985
723.504	0.0146246
723.582	0.0147063
723.660	0.0146152
723.738	0.0146667
723.817	0.0146925
723.895	0.0148688
723.973	0.0148815
724.051	0.0149586
724.129	0.0150697
724.207	0.0153020
724.285	0.0153665
724.363	0.0155682
724.442	0.0154595
724.520	0.0155116
724.598	0.0156882
724.676	0.0157519
724.754	0.0156297
724.832	0.0156513
724.910	0.0155556
724.988	0.0156402
725.067	0.0156042
725.145	0.0154987
725.223	0.0154882
725.301	0.0153525
725.379	0.0153392
725.457	0.0152012
725.535	0.0152496
725.613	0.0152383
725.692	0.0152321
725.770	0.0152440
725.848	0.0152490
725.926	0.0150904
726.004	0.0151099
726.082	0.0152586
726.160	0.0151766
726.238	0.0151556
726.317	0.0151811
726.395	0.0150934
726.473	0.0151067
726.551	0.0151826
726.629	0.0151500
726.707	0.0153226
726.785	0.0154192
726.863	0.0153154
726.942	0.0152763
727.020	0.0152228
727.098	0.0151167
727.176	0.0153123
727.254	0.0153288
727.332	0.0152779
727.410	0.0153744
727.488	0.0151487
727.567	0.0151280
727.645	0.0151694
727.723	0.0151607
727.801	0.0150713
727.879	0.0150206
727.957	0.0149751
728.035	0.0148714
728.113	0.0149507
728.192	0.0149149
728.270	0.0147179
728.348	0.0148531
728.426	0.0148972
728.504	0.0149078
728.582	0.0149271
728.660	0.0150323
728.738	0.0151097
728.817	0.0153074
728.895	0.0152116
728.973	0.0152670
729.051	0.0154126
729.129	0.0154498
729.207	0.0154518
729.285	0.0155592
729.363	0.0156380
729.442	0.0155232
729.520	0.0156257
729.598	0.0157424
729.676	0.0156284
729.754	0.0155579
729.832	0.0156131
729.910	0.0154777
729.988	0.0153562
730.067	0.0153932
730.145	0.0154323
730.223	0.0153120
730.301	0.0151718
730.379	0.0152025
730.457	0.0152255
730.535	0.0151532
730.613	0.0151756
730.692	0.0150512
730.770	0.0150793
730.848	0.0150278
730.926	0.0149185
731.004	0.0148924
731.082	0.0150143
731.160	0.0149782
731.238	0.0149517
731.317	0.0151778
731.395	0.0151350
731.473	0.0150475
731.551	0.0150462
731.629	0.0151316
731.707	0.0151316
731.785	0.0150237
731.863	0.0150761
731.942	0.0151090
732.020	0.0151987
732.098	0.0150126
732.176	0.0151726
732.254	0.0151311
732.332	0.0151821
732.410	0.0150003
732.488	0.0150102
732.567	0.0152647
732.645	0.0151794
732.723	0.0152148
732.801	0.0153289
732.879	0.0151447
732.957	0.0152340
733.035	0.0153109
733.113	0.0151852
733.192	0.0151558
733.270	0.0153220
733.348	0.0152992
733.426	0.0151483
733.504	0.0152990
733.582	0.0152081
733.660	0.0153944
733.738	0.0153519
733.817	0.0154057
733.895	0.0153867
733.973	0.0154318
734.051	0.0154234
734.129	0.0155509
734.207	0.0154674
734.285	0.0153975
734.363	0.0154505
734.442	0.0154083
734.520	0.0152700
734.598	0.0153096
734.676	0.0151827
734.754	0.0153004
734.832	0.0151150
734.910	0.0151405
734.988	0.0150638
735.067	0.0150898
735.145	0.0149707
735.223	0.0151160
735.301	0.0150763
735.379	0.0149533
735.457	0.0151239
735.535	0.0151975
735.613	0.0151296
735.692	0.0151531
735.770	0.0152590
735.848	0.0152018
735.926	0.0152298
736.004	0.0152501
736.082	0.0151667
736.160	0.0151244
736.238	0.0151731
736.317	0.0152060
736.395	0.0152516
736.473	0.0152834
736.551	0.0152517
736.629	0.0153195
736.707	0.0152678
736.785	0.0152327
736.863	0.0152358
736.942	0.0151115
737.020	0.0150425
737.098	0.0149967
737.176	0.0149438
737.254	0.0148218
737.332	0.0148283
737.410	0.0146100
737.488	0.0146062
737.567	0.0146929
737.645	0.0148863
737.723	0.0148232
737.801	0.0146435
737.879	0.0149217
737.957	0.0149173
738.035	0.0150758
738.113	0.0152004
738.192	0.0152663
738.270	0.0153590
738.348	0.0154109
738.426	0.0157153
738.504	0.0156497
738.582	0.0157336
738.660	0.0157394
738.738	0.0158115
738.817	0.0157711
738.895	0.0158120
738.973	0.0157587
739.051	0.0157464
739.129	0.0156059
739.207	0.0155209
739.285	0.0155003
739.363	0.0156641
739.442	0.0153719
739.520	0.0151458
739.598	0.0151838
739.676	0.0150401
739.754	0.0149831
739.832	0.0148426
739.910	0.0148200
739.988	0.0149679
740.067	0.0148524
740.145	0.0146899
740.223	0.0147701
740.301	0.0147953
740.379	0.0149578
740.457	0.0148839
740.535	0.0149563
740.613	0.0151383
740.692	0.0151914
740.770	0.0152456
740.848	0.0153468
740.926	0.0154880
741.004	0.0155926
741.082	0.0153568
741.160	0.0155117
741.238	0.0155051
741.317	0.0153556
741.395	0.0152922
741.473	0.0152917
741.551	0.0153968
741.629	0.0153763
741.707	0.0153589
741.785	0.0153284
741.863	0.0150660
741.942	0.0151131
742.020	0.0151569
742.098	0.0150728
742.176	0.0150925
742.254	0.0149385
742.332	0.0149213
742.410	0.0149464
742.488	0.0149081
742.567	0.0150990
742.645	0.0149031
742.723	0.0150327
742.801	0.0149583
742.879	0.0150827
742.957	0.0153229
743.035	0.0151195
743.113	0.0151472
743.192	0.0152300
743.270	0.0153889
743.348	0.0154091
743.426	0.0154191
743.504	0.0155553
743.582	0.0154666
743.660	0.0155647
743.738	0.0155293
743.817	0.0156606
743.895	0.0156522
743.973	0.0155299
744.051	0.0154930
744.129	0.0154803
744.207	0.0153669
744.285	0.0152421
744.363	0.0152671
744.442	0.0152431
744.520	0.0151659
744.598	0.0149111
744.676	0.0150455
744.754	0.0151213
744.832	0.0149199
744.910	0.0149146
744.988	0.0146904
745.067	0.0147997
745.145	0.0149563
745.223	0.0149248
745.301	0.0149380
745.379	0.0150351
745.457	0.0151145
745.535	0.0150216
745.613	0.0153079
745.692	0.0152092
745.770	0.0152512
745.848	0.0153262
745.926	0.0152704
746.004	0.0152928
746.082	0.0153645
746.160	0.0151953
746.238	0.0152812
746.317	0.0153017
746.395	0.0153296
746.473	0.0151842
746.551	0.0151653
746.629	0.0151754
746.707	0.0152003
746.785	0.0153092
746.863	0.0150725
746.942	0.0151508
747.020	0.0150730
747.098	0.0151213
747.176	0.0149848
747.254	0.0150314
747.332	0.0149099
747.410	0.0148611
747.488	0.0148753
747.567	0.0147914
747.645	0.0148070
747.723	0.0146638
747.801	0.0149274
747.879	0.0149146
747.957	0.0147894
748.035	0.0148408
748.113	0.0149306
748.192	0.0149925
748.270	0.0149988
748.348	0.0151390
748.426	0.0152036
748.504	0.0151102
748.582	0.0152530
748.660	0.0152402
748.738	0.0153415
748.817	0.0153318
748.895	0.0154575
748.973	0.0154925
749.051	0.0153217
749.129	0.0154302
749.207	0.0153903
749.285	0.0154449
749.363	0.0152251
749.442	0.0151427
749.520	0.0151885
749.598	0.0150835
749.676	0.0150945
749.754	0.0150735
749.832	0.0149268
749.910	0.0149672
749.988	0.0150094
750.067	0.0150526
750.145	0.0150746
750.223	0.0149947
750.301	0.0151455
750.379	0.0150625
750.457	0.0152031
750.535	0.0151385
750.613	0.0150692
750.692	0.0152011
750.770	0.0152186
750.848	0.0151064
750.926	0.0151945
751.004	0.0152963
751.082	0.0154161
751.160	0.0154172
751.238	0.0154138
751.317	0.0155363
751.395	0.0154205
751.473	0.0154509
751.551	0.0154649
751.629	0.0154571
751.707	0.0153626
751.785	0.0154311
751.863	0.0153371
751.942	0.0153233
752.020	0.0152428
752.098	0.0151480
752.176	0.0151505
752.254	0.0150049
752.332	0.0150996
752.410	0.0149502
752.488	0.0149244
752.567	0.0148639
752.645	0.0149294
752.723	0.0148689
752.801	0.0149628
752.879	0.0149704
752.957	0.0149343
753.035	0.0148993
753.113	0.0150231
753.192	0.0151246
753.270	0.0152005
753.348	0.0152611
753.426	0.0151503
753.504	0.0153545
753.582	0.0154440
753.660	0.0152908
753.738	0.0153497
753.817	0.0154527
753.895	0.0153793
753.973	0.0154525
754.051	0.0154872
754.129	0.0154822
754.207	0.0156664
754.285	0.0155022
754.363	0.0155796
754.442	0.0154190
754.520	0.0156689
754.598	0.0155766
754.676	0.0153362
754.754	0.0156134
754.832	0.0154737
754.910	0.0153875
754.988	0.0152489
755.067	0.0152195
755.145	0.0152692
755.223	0.0151034
755.301	0.0152004
755.379	0.0149693
755.457	0.0149178
755.535	0.0149680
755.613	0.0148633
755.692	0.0148556
755.770	0.0149246
755.848	0.0149082
755.926	0.0149416
756.004	0.0150623
756.082	0.0152211
756.160	0.0149781
756.238	0.0150505
756.317	0.0151839
756.395	0.0152034
756.473	0.0153315
756.551	0.0153354
756.629	0.0152725
756.707	0.0152659
756.785	0.0154239
756.863	0.0154743
756.942	0.0153310
757.020	0.0153828
757.098	0.0153893
757.176	0.0154675
757.254	0.0153925
757.332	0.0152245
757.410	0.0152621
757.488	0.0151263
757.567	0.0152087
757.645	0.0151993
757.723	0.0151049
757.801	0.0150169
757.879	0.0148225
757.957	0.0149161
758.035	0.0150305
758.113	0.0150098
758.192	0.0149050
758.270	0.0149711
758.348	0.0149932
758.426	0.0151696
758.504	0.0150979
758.582	0.0151205
758.660	0.0152075
758.738	0.0151450
758.817	0.0153854
758.895	0.0153596
758.973	0.0153410
759.051	0.0154337
759.129	0.0154288
759.207	0.0153795
759.285	0.0153580
759.363	0.0152663
759.442	0.0151904
759.520	0.0153890
759.598	0.0153646
759.676	0.0152685
759.754	0.0152370
759.832	0.0153027
759.910	0.0151230
759.988	0.0151940
760.067	0.0151028
760.145	0.0150119
760.223	0.0152683
760.301	0.0149451
760.379	0.0148853
760.457	0.0150782
760.535	0.0148898
760.613	0.0150226
760.692	0.0150014
760.770	0.0150262
760.848	0.0150945
760.926	0.0151632
761.004	0.0151674
761.082	0.0152972
761.160	0.0152448
761.238	0.0152897
761.317	0.0154065
761.395	0.0152393
761.473	0.0153752
761.551	0.0154536
761.629	0.0153841
761.707	0.0155022
761.785	0.0153537
761.863	0.0153282
761.942	0.0152570
762.020	0.0152594
762.098	0.0153376
762.176	0.0153610
762.254	0.0152869
762.332	0.0152108
762.410	0.0153506
762.488	0.0150832
762.567	0.0151891
762.645	0.0152398
762.723	0.0152204
762.801	0.0151569
762.879	0.0150919
762.957	0.0152834
763.035	0.0151984
763.113	0.0151237
763.192	0.0151801
763.270	0.0150669
763.348	0.0151536
763.426	0.0151241
763.504	0.0150917
763.582	0.0151476
763.660	0.0152130
763.738	0.0152412
763.817	0.0151877
763.895	0.0151977
763.973	0.0151976
764.051	0.0151173
764.129	0.0151958
764.207	0.0153114
764.285	0.0152948
764.363	0.0152934
764.442	0.0154221
764.520	0.0152717
764.598	0.0153380
764.676	0.0153956
764.754	0.0152553
764.832	0.0152408
764.910	0.0153623
764.988	0.0153389
765.067	0.0152230
765.145	0.0152325
765.223	0.0150790
765.301	0.0151965
765.379	0.0152967
765.457	0.0150830
765.535	0.0151144
765.613	0.0150005
765.692	0.0151110
765.770	0.0150249
765.848	0.0149281
765.926	0.0150764
766.004	0.0150964
766.082	0.0150887
766.160	0.0151020
766.238	0.0150530
766.317	0.0151477
766.395	0.0151314
766.473	0.0151223
766.551	0.0153910
766.629	0.0152943
766.707	0.0153249
766.785	0.0153570
766.863	0.0154569
766.942	0.0154589
767.020	0.0155181
767.098	0.0152611
767.176	0.0153306
767.254	0.0153622
767.332	0.0154089
767.410	0.0152300
767.488	0.0153847
767.567	0.0152728
767.645	0.0152820
767.723	0.0153077
767.801	0.0152168
767.879	0.0152268
767.957	0.0151999
768.035	0.0151109
768.113	0.0151273
768.192	0.0151699
768.270	0.0150369
768.348	0.0151192
768.426	0.0150196
768.504	0.0149164
768.582	0.0149735
768.660	0.0149844
768.738	0.0150121
768.817	0.0150311
768.895	0.0151464
768.973	0.0151810
769.051	0.0152083
769.129	0.0153989
769.207	0.0153326
769.285	0.0152968
769.363	0.0152715
769.442	0.0152801
769.520	0.0153298
769.598	0.0152766
769.676	0.0154771
769.754	0.0152877
769.832	0.0152624
769.910	0.0153754
769.988	0.0152168
770.067	0.0151962
770.145	0.0151483
770.223	0.0151099
770.301	0.0152236
770.379	0.0151935
770.457	0.0151015
770.535	0.0149137
770.613	0.0151240
770.692	0.0150278
770.770	0.0150619
770.848	0.0151422
770.926	0.0149810
771.004	0.0149274
771.082	0.0149363
771.160	0.0150150
771.238	0.0150729
771.317	0.0149731
771.395	0.0150131
771.473	0.0150188
771.551	0.0151852
771.629	0.0151746
771.707	0.0152333
771.785	0.0152956
771.863	0.0150641
771.942	0.0151641
772.020	0.0153403
772.098	0.0152294
772.176	0.0151636
772.254	0.0151664
772.332	0.0151775
772.410	0.0151833
772.488	0.0151315
772.567	0.0151891
772.645	0.0150580
772.723	0.0151227
772.801	0.0151038
772.879	0.0150753
772.957	0.0150982
773.035	0.0151051
773.113	0.0152184
773.192	0.0152588
773.270	0.0151043
773.348	0.0151043
773.426	0.0152990
773.504	0.0152895
773.582	0.0152448
773.660	0.0153261
773.738	0.0153444
773.817	0.0151860
773.895	0.0152172
773.973	0.0151961
774.051	0.0152043
774.129	0.0151228
774.207	0.0153811
774.285	0.0152480
774.363	0.0151431
774.442	0.0151971
774.520	0.0152826
774.598	0.0152856
774.676	0.0151217
774.754	0.0152183
774.832	0.0153289
774.910	0.0154015
774.988	0.0151816
775.067	0.0153397
775.145	0.0150735
775.223	0.0152329
775.301	0.0153658
775.379	0.0151859
775.457	0.0151501
775.535	0.0151493
775.613	0.0151027
775.692	0.0151303
775.770	0.0151447
775.848	0.0150887
775.926	0.0150958
776.004	0.0150941
776.082	0.0152215
776.160	0.0150877
776.238	0.0152322
776.317	0.0150806
776.395	0.0150651
776.473	0.0151588
776.551	0.0152581
776.629	0.0153094
776.707	0.0152884
776.785	0.0152913
776.863	0.0152262
776.942	0.0153486
777.020	0.0153191
777.098	0.0152252
777.176	0.0152190
777.254	0.0154473
777.332	0.0153396
777.410	0.0152448
777.488	0.0153506
777.567	0.0153140
777.645	0.0152608
777.723	0.0152781
777.801	0.0151817
777.879	0.0151667
777.957	0.0151447
778.035	0.0152573
778.113	0.0151408
778.192	0.0151591
778.270	0.0151402
778.348	0.0151534
778.426	0.0150777
778.504	0.0150188
778.582	0.0151927
778.660	0.0151308
778.738	0.0151021
778.817	0.0151134
778.895	0.0151358
778.973	0.0151537
779.051	0.0151143
779.129	0.0152273
779.207	0.0152924
779.285	0.0153127
779.363	0.0151823
779.442	0.0153241
779.520	0.0151840
779.598	0.0152896
779.676	0.0152029
779.754	0.0153377
779.832	0.0153262
779.910	0.0153172
779.988	0.0152399
780.067	0.0151429
780.145	0.0151961
780.223	0.0153518
780.301	0.0152023
780.379	0.0151451
780.457	0.0152637
780.535	0.0153117
780.613	0.0150267
780.692	0.0150890
780.770	0.0150295
780.848	0.0151138
780.926	0.0150920
781.004	0.0149609
781.082	0.0149635
781.160	0.0150124
781.238	0.0151134
781.317	0.0150513
781.395	0.0150468
781.473	0.0151647
781.551	0.0149885
781.629	0.0150860
781.707	0.0150439
781.785	0.0151019
781.863	0.0150813
781.942	0.0150827
782.020	0.0151780
782.098	0.0151736
782.176	0.0151160
782.254	0.0152738
782.332	0.0151180
782.410	0.0151901
782.488	0.0153261
782.567	0.0152856
782.645	0.0153358
782.723	0.0152500
782.801	0.0152291
782.879	0.0152261
782.957	0.0152619
783.035	0.0152799
783.113	0.0152582
783.192	0.0152441
783.270	0.0151585
783.348	0.0152206
783.426	0.0152649
783.504	0.0152348
783.582	0.0151312
783.660	0.0151962
783.738	0.0151640
783.817	0.0151284
783.895	0.0151008
783.973	0.0150361
784.051	0.0152086
784.129	0.0151758
784.207	0.0153315
784.285	0.0152105
784.363	0.0152363
784.442	0.0151820
784.520	0.0151298
784.598	0.0151710
784.676	0.0153152
784.754	0.0152227
784.832	0.0153552
784.910	0.0153149
784.988	0.0152919
785.067	0.0153262
785.145	0.0153123
785.223	0.0152605
785.301	0.0153421
785.379	0.0152042
785.457	0.0151228
785.535	0.0152894
785.613	0.0153581
785.692	0.0152655
785.770	0.0152213
785.848	0.0151250
785.926	0.0151054
786.004	0.0151725
786.082	0.0152072
786.160	0.0152039
786.238	0.0151816
786.317	0.0150874
786.395	0.0150212
786.473	0.0151697
786.551	0.0150819
786.629	0.0150593
786.707	0.0151310
786.785	0.0150384
786.863	0.0150178
786.942	0.0150322
787.020	0.0150191
787.098	0.0151634
787.176	0.0152298
787.254	0.0150577
787.332	0.0150648
787.410	0.0150641
787.488	0.0151974
787.567	0.0152090
787.645	0.0152821
787.723	0.0152377
787.801	0.0152520
787.879	0.0151743
787.957	0.0153522
788.035	0.0155242
788.113	0.0154383
788.192	0.0153341
788.270	0.0153658
788.348	0.0152899
788.426	0.0153834
788.504	0.0153545
788.582	0.0153927
788.660	0.0152831
788.738	0.0152094
788.817	0.0153437
788.895	0.0153119
788.973	0.0150974
789.051	0.0151879
789.129	0.0152233
789.207	0.0151025
789.285	0.0150409
789.363	0.0150581
789.442	0.0151001
789.520	0.0151272
789.598	0.0150877
789.676	0.0150497
789.754	0.0149871
789.832	0.0149606
789.910	0.0150446
789.988	0.0152061
790.067	0.0150914
790.145	0.0150727
790.223	0.0151801
790.301	0.0151624
790.379	0.0152748
790.457	0.0152395
790.535	0.0152705
790.613	0.0153805
790.692	0.0154003
790.770	0.0155027
790.848	0.0153547
790.926	0.0154566
791.004	0.0153966
791.082	0.0152415
791.160	0.0153306
791.238	0.0153404
791.317	0.0152792
791.395	0.0151533
791.473	0.0151566
791.551	0.0150756
791.629	0.0150334
791.707	0.0150473
791.785	0.0150074
791.863	0.0150727
791.942	0.0149187
792.020	0.0150269
792.098	0.0149969
792.176	0.0150139
792.254	0.0151303
792.332	0.0151271
792.410	0.0150876
792.488	0.0151926
792.567	0.0150430
792.645	0.0149993
792.723	0.0152345
792.801	0.0152546
792.879	0.0152275
792.957	0.0153935
793.035	0.0154623
793.113	0.0154681
793.192	0.0155643
793.270	0.0156646
793.348	0.0154109
793.426	0.0153800
793.504	0.0154529
793.582	0.0154591
793.660	0.0154106
793.738	0.0152785
793.817	0.0154329
793.895	0.0153670
793.973	0.0153149
794.051	0.0152527
794.129	0.0152254
794.207	0.0151098
794.285	0.0150130
794.363	0.0151991
794.442	0.0150515
794.520	0.0151579
794.598	0.0150285
794.676	0.0149864
794.754	0.0150819
794.832	0.0149982
794.910	0.0149992
794.988	0.0150098
795.067	0.0150285
795.145	0.0150274
795.223	0.0150424
795.301	0.0151786
795.379	0.0152344
795.457	0.0151204
795.535	0.0152442
795.613	0.0152435
795.692	0.0152719
795.770	0.0152927
795.848	0.0153091
795.926	0.0152840
796.004	0.0153258
796.082	0.0152953
796.160	0.0153439
796.238	0.0152216
796.317	0.0152133
796.395	0.0151443
796.473	0.0151004
796.551	0.0152362
796.629	0.0151163
796.707	0.0150742
796.785	0.0152108
796.863	0.0152309
796.942	0.0151822
797.020	0.0151803
797.098	0.0150889
797.176	0.0151057
797.254	0.0150211
797.332	0.0152662
797.410	0.0152247
797.488	0.0151102
797.567	0.0151907
797.645	0.0151543
797.723	0.0153152
797.801	0.0152213
797.879	0.0152560
797.957	0.0153356
798.035	0.0152396
798.113	0.0152946
798.192	0.0154295
798.270	0.0153551
798.348	0.0154012
798.426	0.0155242
798.504	0.0154891
798.582	0.0155002
798.660	0.0154974
798.738	0.0154722
798.817	0.0155044
798.895	0.0154095
798.973	0.0154297
799.051	0.0153870
799.129	0.0154286
799.207	0.0153449
799.285	0.0153841
799.363	0.0152230
799.442	0.0152698
799.520	0.0150602
799.598	0.0152893
799.676	0.0151190
799.754	0.0149789
799.832	0.0151163
799.910	0.0151318
799.988	0.0150140
800.067	0.0151774
800.145	0.0151052
800.223	0.0149840
800.301	0.0151332
800.379	0.0151656
800.457	0.0149667
800.535	0.0149203
800.613	0.0150316
800.692	0.0149977
800.770	0.0150545
800.848	0.0149959
800.926	0.0151316
801.004	0.0151412
801.082	0.0151142
801.160	0.0151740
801.238	0.0150368
801.317	0.0150690
801.395	0.0151022
801.473	0.0152722
801.551	0.0152757
801.629	0.0151942
801.707	0.0153088
801.785	0.0153823
801.863	0.0153696
801.942	0.0153844
802.020	0.0152004
802.098	0.0153575
802.176	0.0153208
802.254	0.0154331
802.332	0.0152836
802.410	0.0153143
802.488	0.0152823
802.567	0.0153065
802.645	0.0152814
802.723	0.0154400
802.801	0.0152853
802.879	0.0152873
802.957	0.0153239
803.035	0.0152290
803.113	0.0151850
803.192	0.0151437
803.270	0.0152319
803.348	0.0150871
803.426	0.0151075
803.504	0.0151111
803.582	0.0151323
803.660	0.0151519
803.738	0.0150182
803.817	0.0150729
803.895	0.0150563
803.973	0.0149984
804.051	0.0151236
804.129	0.0150214
804.207	0.0151701
804.285	0.0150857
804.363	0.0151243
804.442	0.0149665
804.520	0.0151656
804.598	0.0152316
804.676	0.0152215
804.754	0.0152608
804.832	0.0153401
804.910	0.0153169
804.988	0.0153725
805.067	0.0152701
805.145	0.0153520
805.223	0.0152959
805.301	0.0152505
805.379	0.0153519
805.457	0.0154278
805.535	0.0151462
805.613	0.0151214
805.692	0.0151131
805.770	0.0150098
805.848	0.0152095
805.926	0.0150110
806.004	0.0150597
806.082	0.0150472
806.160	0.0150134
806.238	0.0150582
806.317	0.0152650
806.395	0.0150648
806.473	0.0149558
806.551	0.0151708
806.629	0.0151427
806.707	0.0151696
806.785	0.0151808
806.863	0.0153462
806.942	0.0153418
807.020	0.0153424
807.098	0.0154671
807.176	0.0153584
807.254	0.0154251
807.332	0.0154510
807.410	0.0153798
807.488	0.0154244
807.567	0.0154338
807.645	0.0153320
807.723	0.0153185
807.801	0.0151730
807.879	0.0152460
807.957	0.0151712
808.035	0.0151862
808.113	0.0151301
808.192	0.0151607
808.270	0.0152766
808.348	0.0151321
808.426	0.0151827
808.504	0.0151619
808.582	0.0150591
808.660	0.0151134
808.738	0.0152200
808.817	0.0152039
808.895	0.0150971
808.973	0.0150813
809.051	0.0151718
809.129	0.0151077
809.207	0.0151940
809.285	0.0152803
809.363	0.0149567
809.442	0.0152360
809.520	0.0151875
809.598	0.0152192
809.676	0.0152143
809.754	0.0150535
809.832	0.0150614
809.910	0.0151262
809.988	0.0152256
810.067	0.0151097
810.145	0.0150379
810.223	0.0150585
810.301	0.0152293
810.379	0.0151450
810.457	0.0150574
810.535	0.0149844
810.613	0.0151476
810.692	0.0152171
810.770	0.0150700
810.848	0.0150935
810.926	0.0150661
811.004	0.0151020
811.082	0.0151300
811.160	0.0151557
811.238	0.0153405
811.317	0.0152618
811.395	0.0152477
811.473	0.0151724
811.551	0.0152216
811.629	0.0152661
811.707	0.0151699
811.785	0.0152090
811.863	0.0151486
811.942	0.0152589
812.020	0.0153741
812.098	0.0152678
812.176	0.0152250
812.254	0.0152091
812.332	0.0151830
812.410	0.0152374
812.488	0.0155120
812.567	0.0152666
812.645	0.0151930
812.723	0.0154080
812.801	0.0152862
812.879	0.0152473
812.957	0.0152405
813.035	0.0151743
813.113	0.0152670
813.192	0.0152173
813.270	0.0152139
813.348	0.0152376
813.426	0.0151868
813.504	0.0152081
813.582	0.0152818
813.660	0.0152087
813.738	0.0153040
813.817	0.0154301
813.895	0.0152497
813.973	0.0151785
814.051	0.0152125
814.129	0.0151315
814.207	0.0151727
814.285	0.0152403
814.363	0.0151772
814.442	0.0151544
814.520	0.0152292
814.598	0.0149964
814.676	0.0151669
814.754	0.0151979
814.832	0.0151333
814.910	0.0150616
814.988	0.0151501
815.067	0.0151398
815.145	0.0150924
815.223	0.0151173
815.301	0.0150872
815.379	0.0150941
815.457	0.0150546
815.535	0.0151054
815.613	0.0150838
815.692	0.0150939
815.770	0.0152254
815.848	0.0151235
815.926	0.0152193
816.004	0.0152153
816.082	0.0152157
816.160	0.0152239
816.238	0.0153950
816.317	0.0153304
816.395	0.0153002
816.473	0.0152414
816.551	0.0152685
816.629	0.0154069
816.707	0.0154332
816.785	0.0152583
816.863	0.0153271
816.942	0.0153748
817.020	0.0153393
817.098	0.0153560
817.176	0.0152753
817.254	0.0154501
817.332	0.0152575
817.410	0.0152864
817.488	0.0153114
817.567	0.0153133
817.645	0.0153957
817.723	0.0151170
817.801	0.0152381
817.879	0.0152197
817.957	0.0151680
818.035	0.0150562
818.113	0.0151115
818.192	0.0151698
818.270	0.0150999
818.348	0.0152149
818.426	0.0151740
818.504	0.0152254
818.582	0.0151769
818.660	0.0153065
818.738	0.0152083
818.817	0.0152543
818.895	0.0153429
818.973	0.0154354
819.051	0.0152506
819.129	0.0153072
819.207	0.0152676
819.285	0.0153065
819.363	0.0151500
819.442	0.0152813
819.520	0.0152272
819.598	0.0151434
819.676	0.0151688
819.754	0.0151323
819.832	0.0151176
819.910	0.0148722
819.988	0.0150661
820.067	0.0151295
820.145	0.0150056
820.223	0.0150904
820.301	0.0150534
820.379	0.0152392
820.457	0.0150698
820.535	0.0150350
820.613	0.0151353
820.692	0.0151561
820.770	0.0151131
820.848	0.0153598
820.926	0.0151823
821.004	0.0152557
821.082	0.0152969
821.160	0.0152114
821.238	0.0153059
821.317	0.0152342
821.395	0.0152657
821.473	0.0153098
821.551	0.0152308
821.629	0.0152927
821.707	0.0153148
821.785	0.0153255
821.863	0.0151110
821.942	0.0150764
822.020	0.0151646
822.098	0.0151270
822.176	0.0150937
822.254	0.0151233
822.332	0.0149652
822.410	0.0150682
822.488	0.0150932
822.567	0.0150805
822.645	0.0151680
822.723	0.0151097
822.801	0.0150990
822.879	0.0152104
822.957	0.0151309
823.035	0.0150731
823.113	0.0150650
823.192	0.0152382
823.270	0.0150230
823.348	0.0150751
823.426	0.0151443
823.504	0.0151734
823.582	0.0151913
823.660	0.0153145
823.738	0.0152898
823.817	0.0152416
823.895	0.0152907
823.973	0.0152595
824.051	0.0153736
824.129	0.0151647
824.207	0.0152691
824.285	0.0152361
824.363	0.0152171
824.442	0.0152716
824.520	0.0153210
824.598	0.0151168
824.676	0.0150877
824.754	0.0150712
824.832	0.0150523
824.910	0.0150407
824.988	0.0149385
825.067	0.0150750
825.145	0.0151702
825.223	0.0150596
825.301	0.0152277
825.379	0.0150674
825.457	0.0149858
825.535	0.0151336
825.613	0.0150513
825.692	0.0151076
825.770	0.0151043
825.848	0.0152540
825.926	0.0151212
826.004	0.0150785
826.082	0.0151192
826.160	0.0152604
826.238	0.0152131
826.317	0.0152485
826.395	0.0152113
826.473	0.0153999
826.551	0.0154640
826.629	0.0153456
826.707	0.0151871
826.785	0.0153560
826.863	0.0154105
826.942	0.0155098
827.020	0.0153986
827.098	0.0153256
827.176	0.0153838
827.254	0.0154189
827.332	0.0152320
827.410	0.0153788
827.488	0.0153845
827.567	0.0153361
827.645	0.0153220
827.723	0.0152647
827.801	0.0152264
827.879	0.0151343
827.957	0.0150494
828.035	0.0152180
828.113	0.0151718
828.192	0.0150809
828.270	0.0150797
828.348	0.0151814
828.426	0.0151360
828.504	0.0150735
828.582	0.0149709
828.660	0.0150493
828.738	0.0152824
828.817	0.0149675
828.895	0.0150057
828.973	0.0152731
829.051	0.0150941
829.129	0.0150565
829.207	0.0150819
829.285	0.0152557
829.363	0.0151743
829.442	0.0151485
829.520	0.0151601
829.598	0.0151572
829.676	0.0152447
829.754	0.0151707
829.832	0.0151184
829.910	0.0151733
829.988	0.0152088
830.067	0.0151486
830.145	0.0152310
830.223	0.0152727
830.301	0.0152525
830.379	0.0151335
830.457	0.0151414
830.535	0.0152555
830.613	0.0152619
830.692	0.0153574
830.770	0.0151699
830.848	0.0150864
830.926	0.0151266
831.004	0.0152653
831.082	0.0152466
831.160	0.0152434
831.238	0.0152950
831.317	0.0152539
831.395	0.0151839
831.473	0.0152207
831.551	0.0152017
831.629	0.0151776
831.707	0.0151572
831.785	0.0151291
831.863	0.0151813
831.942	0.0151534
832.020	0.0151847
832.098	0.0151814
832.176	0.0152946
832.254	0.0152393
832.332	0.0153139
832.410	0.0152714
832.488	0.0152652
832.567	0.0153156
832.645	0.0152335
832.723	0.0152853
832.801	0.0152277
832.879	0.0153443
832.957	0.0152665
833.035	0.0151160
833.113	0.0152950
833.192	0.0152114
833.270	0.0153327
833.348	0.0153235
833.426	0.0152770
833.504	0.0150070
833.582	0.0149780
833.660	0.0151554
833.738	0.0151501
833.817	0.0151012
833.895	0.0151224
833.973	0.0150850
834.051	0.0149892
834.129	0.0150750
834.207	0.0150835
834.285	0.0150191
834.363	0.0151122
834.442	0.0151949
834.520	0.0151740
834.598	0.0151472
834.676	0.0152501
834.754	0.0152295
834.832	0.0152294
834.910	0.0152015
834.988	0.0152461
835.067	0.0152550
835.145	0.0153949
835.223	0.0152505
835.301	0.0152798
835.379	0.0153366
835.457	0.0152251
835.535	0.0152213
835.613	0.0151787
835.692	0.0154098
835.770	0.0153184
835.848	0.0152833
835.926	0.0152457
836.004	0.0152483
836.082	0.0151041
836.160	0.0152068
836.238	0.0152168
836.317	0.0152023
836.395	0.0151475
836.473	0.0151608
836.551	0.0151328
836.629	0.0153057
836.707	0.0150683
836.785	0.0151624
836.863	0.0149963
836.942	0.0151215
837.020	0.0151314
837.098	0.0151844
837.176	0.0152393
837.254	0.0151241
837.332	0.0151050
837.410	0.0152455
837.488	0.0153249
837.567	0.0152538
837.645	0.0151517
837.723	0.0152293
837.801	0.0152898
837.879	0.0152128
837.957	0.0152541
838.035	0.0151822
838.113	0.0151751
838.192	0.0151589
838.270	0.0151776
838.348	0.0151848
838.426	0.0152146
838.504	0.0151896
838.582	0.0151224
838.660	0.0151508
838.738	0.0151450
838.817	0.0152110
838.895	0.0152364
838.973	0.0151388
839.051	0.0152119
839.129	0.0151578
839.207	0.0151168
839.285	0.0151093
839.363	0.0152096
839.442	0.0150791
839.520	0.0152435
839.598	0.0151965
839.676	0.0153216
839.754	0.0150816
839.832	0.0150105
839.910	0.0151790
839.988	0.0151870
840.067	0.0152323
840.145	0.0153010
840.223	0.0151849
840.301	0.0151550
840.379	0.0152200
840.457	0.0150024
840.535	0.0152419
840.613	0.0153033
840.692	0.0152970
840.770	0.0152999
840.848	0.0152365
840.926	0.0150356
841.004	0.0152670
841.082	0.0153204
841.160	0.0150856
841.238	0.0152160
841.317	0.0151295
841.395	0.0151471
841.473	0.0152892
841.551	0.0152983
841.629	0.0151540
841.707	0.0151344
841.785	0.0152498
841.863	0.0151160
841.942	0.0152508
842.020	0.0152914
842.098	0.0152225
842.176	0.0150938
842.254	0.0151354
842.332	0.0150958
842.410	0.0152220
842.488	0.0151469
842.567	0.0152769
842.645	0.0149786
842.723	0.0150922
842.801	0.0152120
842.879	0.0150780
842.957	0.0150276
843.035	0.0150092
843.113	0.0151362
843.192	0.0152358
843.270	0.0151421
843.348	0.0152036
843.426	0.0152407
843.504	0.0153446
843.582	0.0151493
843.660	0.0151861
843.738	0.0151462
843.817	0.0151755
843.895	0.0153452
843.973	0.0151723
844.051	0.0153164
844.129	0.0152873
844.207	0.0151744
844.285	0.0153114
844.363	0.0154869
844.442	0.0153037
844.520	0.0150929
844.598	0.0152289
844.676	0.0152357
844.754	0.0152134
844.832	0.0152332
844.910	0.0152809
844.988	0.0152454
845.067	0.0151341
845.145	0.0150754
845.223	0.0150745
845.301	0.0151077
845.379	0.0150887
845.457	0.0150598
845.535	0.0151764
845.613	0.0150923
845.692	0.0150776
845.770	0.0150985
845.848	0.0152433
845.926	0.0150922
846.004	0.0151031
846.082	0.0151215
846.160	0.0151264
846.238	0.0150788
846.317	0.0150758
846.395	0.0150913
846.473	0.0152362
846.551	0.0149734
846.629	0.0152131
846.707	0.0152179
846.785	0.0151884
846.863	0.0150588
846.942	0.0151197
847.020	0.0152992
847.098	0.0150997
847.176	0.0150504
847.254	0.0150457
847.332	0.0150336
847.410	0.0152921
847.488	0.0152200
847.567	0.0151008
847.645	0.0150351
847.723	0.0152486
847.801	0.0151307
847.879	0.0151977
847.957	0.0152084
848.035	0.0153074
848.113	0.0151555
848.192	0.0152251
848.270	0.0152043
848.348	0.0153391
848.426	0.0152448
848.504	0.0151625
848.582	0.0152679
848.660	0.0152808
848.738	0.0152390
848.817	0.0152129
848.895	0.0152950
848.973	0.0153350
849.051	0.0151806
849.129	0.0152805
849.207	0.0152014
849.285	0.0152204
849.363	0.0151799
849.442	0.0153614
849.520	0.0153698
849.598	0.0152586
849.676	0.0151901
849.754	0.0152158
849.832	0.0151922
849.910	0.0152650
849.988	0.0152679
850.067	0.0151271
850.145	0.0150940
850.223	0.0152615
850.301	0.0152008
850.379	0.0150944
850.457	0.0151581
850.535	0.0151705
850.613	0.0153089
850.692	0.0153699
850.770	0.0152484
850.848	0.0152842
850.926	0.0152359
851.004	0.0153516
851.082	0.0153145
851.160	0.0152623
851.238	0.0153266
851.317	0.0154344
851.395	0.0152958
851.473	0.0154179
851.551	0.0152361
851.629	0.0152639
851.707	0.0151640
851.785	0.0153353
851.863	0.0152399
851.942	0.0151897
852.020	0.0151859
852.098	0.0152648
852.176	0.0151088
852.254	0.0151104
852.332	0.0152134
852.410	0.0150718
852.488	0.0150780
852.567	0.0151557
852.645	0.0152631
852.723	0.0150584
852.801	0.0150341
852.879	0.0150792
852.957	0.0151340
853.035	0.0151503
853.113	0.0153101
853.192	0.0152411
853.270	0.0151714
853.348	0.0150256
853.426	0.0151672
853.504	0.0151692
853.582	0.0152356
853.660	0.0151455
853.738	0.0151716
853.817	0.0152288
853.895	0.0150775
853.973	0.0153156
854.051	0.0152821
854.129	0.0152741
854.207	0.0152287
854.285	0.0152747
854.363	0.0151985
854.442	0.0152977
854.520	0.0150839
854.598	0.0152234
854.676	0.0152472
854.754	0.0151163
854.832	0.0151329
854.910	0.0152679
854.988	0.0152885
855.067	0.0153114
855.145	0.0152414
855.223	0.0152115
855.301	0.0152184
855.379	0.0152991
855.457	0.0154154
855.535	0.0153436
855.613	0.0153287
855.692	0.0152090
855.770	0.0153413
855.848	0.0152665
855.926	0.0152966
856.004	0.0153165
856.082	0.0153178
856.160	0.0153087
856.238	0.0152444
856.317	0.0152765
856.395	0.0151138
856.473	0.0152982
856.551	0.0151038
856.629	0.0152075
856.707	0.0152888
856.785	0.0151629
856.863	0.0150460
856.942	0.0151056
857.020	0.0151042
857.098	0.0152447
857.176	0.0151466
857.254	0.0150187
857.332	0.0150104
857.410	0.0150847
857.488	0.0151457
857.567	0.0150566
857.645	0.0149799
857.723	0.0150372
857.801	0.0150554
857.879	0.0151310
857.957	0.0151701
858.035	0.0150115
858.113	0.0151618
858.192	0.0151730
858.270	0.0151060
858.348	0.0153480
858.426	0.0151770
858.504	0.0151583
858.582	0.0153134
858.660	0.0152269
858.738	0.0152034
858.817	0.0153171
858.895	0.0151559
858.973	0.0153016
859.051	0.0152425
859.129	0.0151649
859.207	0.0153026
859.285	0.0152629
859.363	0.0151824
859.442	0.0154777
859.520	0.0152723
859.598	0.0152758
859.676	0.0154462
859.754	0.0154047
859.832	0.0153117
859.910	0.0151597
859.988	0.0153333
860.067	0.0153776
860.145	0.0153699
860.223	0.0153068
860.301	0.0153589
860.379	0.0154373
860.457	0.0153348
860.535	0.0151965
860.613	0.0154166
860.692	0.0153390
860.770	0.0154083
860.848	0.0153886
860.926	0.0153073
861.004	0.0152688
861.082	0.0152690
861.160	0.0152477
861.238	0.0151996
861.317	0.0152288
861.395	0.0149426
861.473	0.0150762
861.551	0.0151143
861.629	0.0149818
861.707	0.0150060
861.785	0.0152268
861.863	0.0151471
861.942	0.0151353
862.020	0.0150513
862.098	0.0150372
862.176	0.0152486
862.254	0.0151620
862.332	0.0150784
862.410	0.0151089
862.488	0.0151663
862.567	0.0151279
862.645	0.0152845
862.723	0.0152253
862.801	0.0150912
862.879	0.0152150
862.957	0.0152380
863.035	0.0152813
863.113	0.0153015
863.192	0.0151669
863.270	0.0150388
863.348	0.0151377
863.426	0.0153154
863.504	0.0152111
863.582	0.0151866
863.660	0.0152783
863.738	0.0154180
863.817	0.0152664
863.895	0.0151852
863.973	0.0151762
864.051	0.0151421
864.129	0.0153185
864.207	0.0152821
864.285	0.0152479
864.363	0.0153849
864.442	0.0151579
864.520	0.0151775
864.598	0.0155032
864.676	0.0154528
864.754	0.0153026
864.832	0.0153468
864.910	0.0151970
864.988	0.0152926
865.067	0.0151604
865.145	0.0151910
865.223	0.0154080
865.301	0.0153929
865.379	0.0152569
865.457	0.0152521
865.535	0.0153391
865.613	0.0152850
865.692	0.0151808
865.770	0.0152328
865.848	0.0150656
865.926	0.0152444
866.004	0.0152160
866.082	0.0152141
866.160	0.0152382
866.238	0.0151723
866.317	0.0150996
866.395	0.0150786
866.473	0.0151466
866.551	0.0150909
866.629	0.0151141
866.707	0.0150732
866.785	0.0151588
866.863	0.0150891
866.942	0.0149757
867.020	0.0151261
867.098	0.0149520
867.176	0.0151106
867.254	0.0150170
867.332	0.0150935
867.410	0.0150347
867.488	0.0149833
867.567	0.0151128
867.645	0.0151862
867.723	0.0151643
867.801	0.0150812
867.879	0.0150698
867.957	0.0151159
868.035	0.0150349
868.113	0.0151624
868.192	0.0151025
868.270	0.0150611
868.348	0.0151912
868.426	0.0151395
868.504	0.0151427
868.582	0.0151158
868.660	0.0151037
868.738	0.0150690
868.817	0.0151158
868.895	0.0150999
868.973	0.0150940
869.051	0.0152106
869.129	0.0152447
869.207	0.0150537
869.285	0.0151320
869.363	0.0152682
869.442	0.0151693
869.520	0.0153632
869.598	0.0153806
869.676	0.0151294
869.754	0.0152947
869.832	0.0153562
869.910	0.0153000
869.988	0.0152484
870.067	0.0151777
870.145	0.0151604
870.223	0.0152989
870.301	0.0152632
870.379	0.0152024
870.457	0.0152890
870.535	0.0151653
870.613	0.0152219
870.692	0.0151496
870.770	0.0151423
870.848	0.0152596
870.926	0.0152385
871.004	0.0150866
871.082	0.0151392
871.160	0.0151067
871.238	0.0150675
871.317	0.0150699
871.395	0.0151845
871.473	0.0151640
871.551	0.0151024
871.629	0.0150771
871.707	0.0151208
871.785	0.0150423
871.863	0.0152033
871.942	0.0151881
872.020	0.0150780
872.098	0.0151856
872.176	0.0152283
872.254	0.0150687
872.332	0.0151274
872.410	0.0151894
872.488	0.0151357
872.567	0.0152999
872.645	0.0153394
872.723	0.0152265
872.801	0.0152496
872.879	0.0153098
872.957	0.0153419
873.035	0.0152880
873.113	0.0154206
873.192	0.0154568
873.270	0.0154306
873.348	0.0153651
873.426	0.0152746
873.504	0.0153222
873.582	0.0152692
873.660	0.0153279
873.738	0.0151963
873.817	0.0152019
873.895	0.0152537
873.973	0.0150792
874.051	0.0152000
874.129	0.0153117
874.207	0.0150874
874.285	0.0152150
874.363	0.0154050
874.442	0.0153324
874.520	0.0151131
874.598	0.0152999
874.676	0.0152891
874.754	0.0150995
874.832	0.0152648
874.910	0.0151414
874.988	0.0151437
875.067	0.0152083
875.145	0.0152386
875.223	0.0153040
875.301	0.0151861
875.379	0.0151523
875.457	0.0151116
875.535	0.0152825
875.613	0.0153963
875.692	0.0151627
875.770	0.0152036
875.848	0.0151735
875.926	0.0151735
876.004	0.0150995
876.082	0.0152496
876.160	0.0152634
876.238	0.0152459
876.317	0.0151147
876.395	0.0151456
876.473	0.0150214
876.551	0.0151115
876.629	0.0151583
876.707	0.0150693
876.785	0.0150471
876.863	0.0151492
876.942	0.0150826
877.020	0.0151349
877.098	0.0150736
877.176	0.0151170
877.254	0.0151823
877.332	0.0153637
877.410	0.0152138
877.488	0.0152318
877.567	0.0151228
877.645	0.0152796
877.723	0.0151735
877.801	0.0151694
877.879	0.0152203
877.957	0.0151434
878.035	0.0152035
878.113	0.0151366
878.192	0.0150785
878.270	0.0152396
878.348	0.0152003
878.426	0.0149534
878.504	0.0151714
878.582	0.0151649
878.660	0.0151337
878.738	0.0150406
878.817	0.0150344
878.895	0.0150610
878.973	0.0151118
879.051	0.0152287
879.129	0.0152252
879.207	0.0152551
879.285	0.0150698
879.363	0.0151476
879.442	0.0152753
879.520	0.0151929
879.598	0.0152350
879.676	0.0150623
879.754	0.0149727
879.832	0.0151192
879.910	0.0151774
879.988	0.0150775
880.067	0.0151023
880.145	0.0151469
880.223	0.0149399
880.301	0.0150972
880.379	0.0151642
880.457	0.0150043
880.535	0.0150716
880.613	0.0152037
880.692	0.0151753
880.770	0.0151858
880.848	0.0153537
880.926	0.0152359
881.004	0.0152422
881.082	0.0153594
881.160	0.0151875
881.238	0.0152682
881.317	0.0153680
881.395	0.0152486
881.473	0.0152554
881.551	0.0151456
881.629	0.0152241
881.707	0.0152616
881.785	0.0151579
881.863	0.0151985
881.942	0.0151883
882.020	0.0151492
882.098	0.0152117
882.176	0.0151947
882.254	0.0151131
882.332	0.0152267
882.410	0.0151477
882.488	0.0151329
882.567	0.0152351
882.645	0.0151810
882.723	0.0150865
882.801	0.0152215
882.879	0.0151797
882.957	0.0151413
883.035	0.0151379
883.113	0.0151991
883.192	0.0151990
883.270	0.0152007
883.348	0.0152527
883.426	0.0152354
883.504	0.0152329
883.582	0.0151654
883.660	0.0151875
883.738	0.0153455
883.817	0.0149563
883.895	0.0151527
883.973	0.0150851
884.051	0.0151881
884.129	0.0150996
884.207	0.0151286
884.285	0.0150050
884.363	0.0150802
884.442	0.0152570
884.520	0.0152598
884.598	0.0152556
884.676	0.0152687
884.754	0.0152861
884.832	0.0152758
884.910	0.0153220
884.988	0.0153453
885.067	0.0153861
885.145	0.0153362
885.223	0.0151720
885.301	0.0151456
885.379	0.0151880
885.457	0.0150562
885.535	0.0151704
885.613	0.0151472
885.692	0.0152277
885.770	0.0150883
885.848	0.0150659
885.926	0.0151067
886.004	0.0152407
886.082	0.0151584
886.160	0.0153082
886.238	0.0153209
886.317	0.0152480
886.395	0.0152399
886.473	0.0153196
886.551	0.0152593
886.629	0.0151756
886.707	0.0152012
886.785	0.0150196
886.863	0.0150727
886.942	0.0150919
887.020	0.0151223
887.098	0.0150254
887.176	0.0151520
887.254	0.0150768
887.332	0.0149567
887.410	0.0150401
887.488	0.0150250
887.567	0.0151675
887.645	0.0152119
887.723	0.0152494
887.801	0.0152152
887.879	0.0151624
887.957	0.0152941
888.035	0.0153829
888.113	0.0155128
888.192	0.0153533
888.270	0.0153886
888.348	0.0155154
888.426	0.0152772
888.504	0.0154298
888.582	0.0153473
888.660	0.0152612
888.738	0.0152585
888.817	0.0153692
888.895	0.0151385
888.973	0.0153411
889.051	0.0151575
889.129	0.0151886
889.207	0.0150986
889.285	0.0151316
889.363	0.0150670
889.442	0.0150755
889.520	0.0151016
889.598	0.0150668
889.676	0.0151548
889.754	0.0150452
889.832	0.0151416
889.910	0.0152306
889.988	0.0150739
890.067	0.0151237
890.145	0.0151263
890.223	0.0151476
890.301	0.0152386
890.379	0.0153691
890.457	0.0152737
890.535	0.0152538
890.613	0.0150912
890.692	0.0151740
890.770	0.0152901
890.848	0.0152996
890.926	0.0152443
891.004	0.0150849
891.082	0.0151968
891.160	0.0151973
891.238	0.0152135
891.317	0.0153047
891.395	0.0151181
891.473	0.0151508
891.551	0.0151129
891.629	0.0150603
891.707	0.0150886
891.785	0.0150141
891.863	0.0150030
891.942	0.0150247
892.020	0.0149702
892.098	0.0150419
892.176	0.0150436
892.254	0.0150902
892.332	0.0149398
892.410	0.0150362
892.488	0.0150352
892.567	0.0150680
892.645	0.0151938
892.723	0.0150284
892.801	0.0150274
892.879	0.0151395
892.957	0.0153575
893.035	0.0151623
893.113	0.0154126
893.192	0.0154984
893.270	0.0154056
893.348	0.0154003
893.426	0.0152994
893.504	0.0153347
893.582	0.0154218
893.660	0.0152371
893.738	0.0154784
893.817	0.0152509
893.895	0.0151308
893.973	0.0152113
894.051	0.0152382
894.129	0.0151984
894.207	0.0151576
894.285	0.0151891
894.363	0.0149434
894.442	0.0149252
894.520	0.0150045
894.598	0.0148734
894.676	0.0149331
894.754	0.0150951
894.832	0.0149483
894.910	0.0150038
894.988	0.0151251
895.067	0.0151635
895.145	0.0150282
895.223	0.0151164
895.301	0.0152032
895.379	0.0152162
895.457	0.0152763
895.535	0.0153533
895.613	0.0154399
895.692	0.0153617
895.770	0.0153354
895.848	0.0153452
895.926	0.0153623
896.004	0.0152339
896.082	0.0152349
896.160	0.0153358
896.238	0.0152728
896.317	0.0152536
896.395	0.0150848
896.473	0.0150300
896.551	0.0150091
896.629	0.0151101
896.707	0.0149270
896.785	0.0150459
896.863	0.0150713
896.942	0.0150770
897.020	0.0151002
897.098	0.0150247
897.176	0.0149652
897.254	0.0150815
897.332	0.0150708
897.410	0.0150659
897.488	0.0151152
897.567	0.0151125
897.645	0.0151619
897.723	0.0152627
897.801	0.0152318
897.879	0.0151723
897.957	0.0153802
898.035	0.0153849
898.113	0.0153603
898.192	0.0153207
898.270	0.0152901
898.348	0.0151973
898.426	0.0153061
898.504	0.0151130
898.582	0.0152026
898.660	0.0152303
898.738	0.0151701
898.817	0.0151163
898.895	0.0151721
898.973	0.0151955
899.051	0.0151395
899.129	0.0151474
899.207	0.0151068
899.285	0.0149280
899.363	0.0149850
899.442	0.0150502
899.520	0.0149364
899.598	0.0150530
899.676	0.0151321
899.754	0.0150102
899.832	0.0149949
899.910	0.0148595
899.988	0.0151461
900.067	0.0151006
900.145	0.0150317
900.223	0.0149113
900.301	0.0150127
900.379	0.0151263
900.457	0.0151879
900.535	0.0150866
900.613	0.0151630
900.692	0.0150812
900.770	0.0151373
900.848	0.0152322
900.926	0.0151460
901.004	0.0151800
901.082	0.0150123
901.160	0.0150861
901.238	0.0152789
901.317	0.0153159
901.395	0.0153376
901.473	0.0152627
901.551	0.0152314
901.629	0.0152830
901.707	0.0151765
901.785	0.0152027
901.863	0.0152275
901.942	0.0153323
902.020	0.0151423
902.098	0.0151874
902.176	0.0152127
902.254	0.0151154
902.332	0.0150098
902.410	0.0149762
902.488	0.0149708
902.567	0.0150088
902.645	0.0148655
902.723	0.0151738
902.801	0.0150488
902.879	0.0150881
902.957	0.0151897
903.035	0.0151779
903.113	0.0152212
903.192	0.0151757
903.270	0.0151735
903.348	0.0152972
903.426	0.0153302
903.504	0.0151971
903.582	0.0154470
903.660	0.0153014
903.738	0.0153494
903.817	0.0153750
903.895	0.0153890
903.973	0.0152929
904.051	0.0153520
904.129	0.0151785
904.207	0.0152769
904.285	0.0153097
904.363	0.0152820
904.442	0.0151100
904.520	0.0150719
904.598	0.0150848
904.676	0.0150474
904.754	0.0149969
904.832	0.0150163
904.910	0.0150301
904.988	0.0150497
905.067	0.0150153
905.145	0.0150584
905.223	0.0151260
905.301	0.0151089
905.379	0.0150336
905.457	0.0150574
905.535	0.0151661
905.613	0.0150948
905.692	0.0151498
905.770	0.0151173
905.848	0.0152271
905.926	0.0152816
906.004	0.0151386
906.082	0.0153258
906.160	0.0151955
906.238	0.0152243
906.317	0.0152663
906.395	0.0151237
906.473	0.0151549
906.551	0.0151307
906.629	0.0153487
906.707	0.0152055
906.785	0.0152113
906.863	0.0151508
906.942	0.0152929
907.020	0.0153307
907.098	0.0152026
907.176	0.0152619
907.254	0.0153091
907.332	0.0152317
907.410	0.0153371
907.488	0.0153238
907.567	0.0153155
907.645	0.0151420
907.723	0.0151367
907.801	0.0153462
907.879	0.0152686
907.957	0.0152540
908.035	0.0152414
908.113	0.0153270
908.192	0.0152158
908.270	0.0152059
908.348	0.0151680
908.426	0.0152452
908.504	0.0152345
908.582	0.0153156
908.660	0.0153162
908.738	0.0152686
908.817	0.0151752
908.895	0.0152904
908.973	0.0152399
909.051	0.0151874
909.129	0.0154269
909.207	0.0153691
909.285	0.0152394
909.363	0.0152362
909.442	0.0152312
909.520	0.0152328
909.598	0.0152718
909.676	0.0151045
909.754	0.0151577
909.832	0.0151149
909.910	0.0152003
909.988	0.0151593
910.067	0.0151205
910.145	0.0153017
910.223	0.0150689
910.301	0.0152172
910.379	0.0151607
910.457	0.0151602
910.535	0.0150468
910.613	0.0151178
910.692	0.0151015
910.770	0.0152599
910.848	0.0151382
910.926	0.0151859
911.004	0.0150358
911.082	0.0151682
911.160	0.0151812
911.238	0.0151823
911.317	0.0153110
911.395	0.0152296
911.473	0.0151401
911.551	0.0152196
911.629	0.0153367
911.707	0.0151509
911.785	0.0152591
911.863	0.0152203
911.942	0.0152290
912.020	0.0153597
912.098	0.0152720
912.176	0.0152452
912.254	0.0153095
912.332	0.0153291
912.410	0.0151721
912.488	0.0152890
912.567	0.0152852
912.645	0.0150272
912.723	0.0152180
912.801	0.0151213
912.879	0.0150056
912.957	0.0152122
913.035	0.0150794
913.113	0.0150289
913.192	0.0151328
913.270	0.0152565
913.348	0.0150906
913.426	0.0152048
913.504	0.0152393
913.582	0.0151701
913.660	0.0152676
913.738	0.0151352
913.817	0.0151946
913.895	0.0152953
913.973	0.0151555
914.051	0.0151273
914.129	0.0152023
914.207	0.0152892
914.285	0.0150917
914.363	0.0151305
914.442	0.0152639
914.520	0.0152855
914.598	0.0152126
914.676	0.0151641
914.754	0.0150761
914.832	0.0152323
914.910	0.0152435
914.988	0.0150327
915.067	0.0151280
915.145	0.0150488
915.223	0.0151048
915.301	0.0151345
915.379	0.0152641
915.457	0.0151344
915.535	0.0151113
915.613	0.0151868
915.692	0.0150059
915.770	0.0150283
915.848	0.0150402
915.926	0.0152540
916.004	0.0152349
916.082	0.0153316
916.160	0.0152654
916.238	0.0154120
916.317	0.0152744
916.395	0.0152080
916.473	0.0153310
916.551	0.0152426
916.629	0.0151380
916.707	0.0152303
916.785	0.0152435
916.863	0.0151579
916.942	0.0151577
917.020	0.0152119
917.098	0.0151354
917.176	0.0151989
917.254	0.0150658
917.332	0.0150371
917.410	0.0152747
917.488	0.0151122
917.567	0.0148944
917.645	0.0150256
917.723	0.0152428
917.801	0.0151591
917.879	0.0152322
917.957	0.0150097
918.035	0.0150240
918.113	0.0150184
918.192	0.0150976
918.270	0.0151971
918.348	0.0152222
918.426	0.0150150
918.504	0.0151373
918.582	0.0150671
918.660	0.0149837
918.738	0.0151293
918.817	0.0150927
918.895	0.0150679
918.973	0.0151730
919.051	0.0151930
919.129	0.0150872
919.207	0.0151146
919.285	0.0150287
919.363	0.0150301
919.442	0.0151044
919.520	0.0150793
919.598	0.0151157
919.676	0.0150349
919.754	0.0149802
919.832	0.0150013
919.910	0.0150818
