05/28/2022	14:44:33	Ver.	4.1	UNKNOWN
Optical Delay	559.980732	Delta X		0.078125	Sweeps	1	Scan Rate	0/0
Coordinates	Axis 1	NaN	Axis 2	NaN	Axis 3	NaN	Axis 4	NaN	Axis 5	NaN	Axis 6	0.000000
TX Power	0.000000	RX Power	0.000000

559.981	0.0154353
560.059	0.0154034
560.137	0.0154270
560.215	0.0153468
560.293	0.0153613
560.371	0.0153714
560.449	0.0153130
560.528	0.0154784
560.606	0.0154987
560.684	0.0151878
560.762	0.0151463
560.840	0.0153149
560.918	0.0153802
560.996	0.0154219
561.074	0.0151807
561.153	0.0152278
561.231	0.0152778
561.309	0.0151050
561.387	0.0150586
561.465	0.0151035
561.543	0.0153219
561.621	0.0152310
561.699	0.0152565
561.778	0.0151456
561.856	0.0152279
561.934	0.0152699
562.012	0.0152930
562.090	0.0152534
562.168	0.0152771
562.246	0.0152946
562.324	0.0153780
562.403	0.0153233
562.481	0.0152703
562.559	0.0152484
562.637	0.0151318
562.715	0.0153239
562.793	0.0152327
562.871	0.0152236
562.949	0.0152336
563.028	0.0152290
563.106	0.0152785
563.184	0.0151776
563.262	0.0154268
563.340	0.0152262
563.418	0.0153279
563.496	0.0153975
563.574	0.0154624
563.653	0.0152970
563.731	0.0155640
563.809	0.0155431
563.887	0.0155774
563.965	0.0155426
564.043	0.0154111
564.121	0.0156073
564.199	0.0156160
564.278	0.0155405
564.356	0.0155511
564.434	0.0155375
564.512	0.0157028
564.590	0.0156483
564.668	0.0156436
564.746	0.0158153
564.824	0.0156963
564.903	0.0156936
564.981	0.0157932
565.059	0.0157567
565.137	0.0156602
565.215	0.0156084
565.293	0.0156154
565.371	0.0155829
565.449	0.0157129
565.528	0.0154375
565.606	0.0154263
565.684	0.0154370
565.762	0.0156084
565.840	0.0154150
565.918	0.0153802
565.996	0.0154352
566.074	0.0153093
566.153	0.0153809
566.231	0.0153146
566.309	0.0153085
566.387	0.0153870
566.465	0.0154964
566.543	0.0154440
566.621	0.0153648
566.699	0.0154505
566.778	0.0154562
566.856	0.0153117
566.934	0.0152518
567.012	0.0152374
567.090	0.0153289
567.168	0.0151428
567.246	0.0151157
567.324	0.0151172
567.403	0.0151105
567.481	0.0149908
567.559	0.0147951
567.637	0.0149388
567.715	0.0148383
567.793	0.0148441
567.871	0.0148100
567.949	0.0147906
568.028	0.0148001
568.106	0.0148865
568.184	0.0149529
568.262	0.0148827
568.340	0.0149579
568.418	0.0149194
568.496	0.0150452
568.574	0.0149847
568.653	0.0150413
568.731	0.0150821
568.809	0.0151365
568.887	0.0150998
568.965	0.0152022
569.043	0.0150763
569.121	0.0150913
569.199	0.0149369
569.278	0.0150581
569.356	0.0150946
569.434	0.0151492
569.512	0.0152074
569.590	0.0151126
569.668	0.0150509
569.746	0.0151110
569.824	0.0151453
569.903	0.0150290
569.981	0.0150795
570.059	0.0151385
570.137	0.0150922
570.215	0.0150381
570.293	0.0149593
570.371	0.0149745
570.449	0.0149686
570.528	0.0148662
570.606	0.0148809
570.684	0.0150165
570.762	0.0148741
570.840	0.0150168
570.918	0.0148472
570.996	0.0149679
571.074	0.0148725
571.153	0.0149571
571.231	0.0148266
571.309	0.0150011
571.387	0.0150146
571.465	0.0150227
571.543	0.0150659
571.621	0.0151965
571.699	0.0151732
571.778	0.0153410
571.856	0.0152668
571.934	0.0153099
572.012	0.0152730
572.090	0.0154482
572.168	0.0153722
572.246	0.0154121
572.324	0.0154871
572.403	0.0154347
572.481	0.0154350
572.559	0.0153506
572.637	0.0153236
572.715	0.0152727
572.793	0.0153587
572.871	0.0152778
572.949	0.0153586
573.028	0.0152647
573.106	0.0154955
573.184	0.0155640
573.262	0.0154521
573.340	0.0155426
573.418	0.0155038
573.496	0.0153878
573.574	0.0156263
573.653	0.0156271
573.731	0.0157348
573.809	0.0157441
573.887	0.0157516
573.965	0.0157740
574.043	0.0158348
574.121	0.0157583
574.199	0.0158168
574.278	0.0158972
574.356	0.0159246
574.434	0.0158327
574.512	0.0157312
574.590	0.0157197
574.668	0.0159289
574.746	0.0158266
574.824	0.0158521
574.903	0.0159778
574.981	0.0158575
575.059	0.0157484
575.137	0.0158898
575.215	0.0158469
575.293	0.0158729
575.371	0.0157877
575.449	0.0157100
575.528	0.0158437
575.606	0.0158317
575.684	0.0157675
575.762	0.0156902
575.840	0.0157327
575.918	0.0157050
575.996	0.0158540
576.074	0.0157684
576.153	0.0155945
576.231	0.0157362
576.309	0.0156855
576.387	0.0155202
576.465	0.0154903
576.543	0.0154103
576.621	0.0153116
576.699	0.0153999
576.778	0.0154408
576.856	0.0153631
576.934	0.0151830
577.012	0.0150915
577.090	0.0152172
577.168	0.0151994
577.246	0.0149885
577.324	0.0149901
577.403	0.0149974
577.481	0.0149590
577.559	0.0150103
577.637	0.0150252
577.715	0.0150042
577.793	0.0149386
577.871	0.0148175
577.949	0.0149486
578.028	0.0149573
578.106	0.0148811
578.184	0.0150137
578.262	0.0148599
578.340	0.0147318
578.418	0.0147881
578.496	0.0148130
578.574	0.0149425
578.653	0.0148785
578.731	0.0148355
578.809	0.0147691
578.887	0.0148627
578.965	0.0148380
579.043	0.0149186
579.121	0.0149247
579.199	0.0149552
579.278	0.0149900
579.356	0.0151476
579.434	0.0152180
579.512	0.0151152
579.590	0.0151347
579.668	0.0151488
579.746	0.0151794
579.824	0.0152370
579.903	0.0154893
579.981	0.0153312
580.059	0.0153238
580.137	0.0153381
580.215	0.0153632
580.293	0.0153738
580.371	0.0152454
580.449	0.0152558
580.528	0.0153986
580.606	0.0154032
580.684	0.0152311
580.762	0.0153212
580.840	0.0153304
580.918	0.0153162
580.996	0.0152789
581.074	0.0153001
581.153	0.0152884
581.231	0.0151215
581.309	0.0151598
581.387	0.0153078
581.465	0.0150603
581.543	0.0150978
581.621	0.0152415
581.699	0.0151172
581.778	0.0151465
581.856	0.0151647
581.934	0.0152325
582.012	0.0150728
582.090	0.0150622
582.168	0.0150130
582.246	0.0150832
582.324	0.0150699
582.403	0.0150462
582.481	0.0149696
582.559	0.0149918
582.637	0.0148679
582.715	0.0148218
582.793	0.0148098
582.871	0.0148554
582.949	0.0148635
583.028	0.0147783
583.106	0.0146571
583.184	0.0147194
583.262	0.0147930
583.340	0.0146739
583.418	0.0147186
583.496	0.0147511
583.574	0.0146851
583.653	0.0148162
583.731	0.0148190
583.809	0.0148006
583.887	0.0149483
583.965	0.0150055
584.043	0.0150774
584.121	0.0150632
584.199	0.0151102
584.278	0.0151962
584.356	0.0151606
584.434	0.0150835
584.512	0.0151482
584.590	0.0151208
584.668	0.0153041
584.746	0.0153246
584.824	0.0151931
584.903	0.0150975
584.981	0.0150887
585.059	0.0152087
585.137	0.0152927
585.215	0.0152158
585.293	0.0152617
585.371	0.0152835
585.449	0.0152715
585.528	0.0154762
585.606	0.0153235
585.684	0.0153355
585.762	0.0153986
585.840	0.0155373
585.918	0.0154919
585.996	0.0154200
586.074	0.0154884
586.153	0.0154887
586.231	0.0155519
586.309	0.0156448
586.387	0.0156029
586.465	0.0158308
586.543	0.0158066
586.621	0.0157285
586.699	0.0157441
586.778	0.0156353
586.856	0.0157727
586.934	0.0157429
587.012	0.0156165
587.090	0.0156577
587.168	0.0156989
587.246	0.0156597
587.324	0.0156242
587.403	0.0155397
587.481	0.0155247
587.559	0.0156153
587.637	0.0157217
587.715	0.0154504
587.793	0.0154848
587.871	0.0155041
587.949	0.0154247
588.028	0.0154951
588.106	0.0154360
588.184	0.0155155
588.262	0.0154284
588.340	0.0155222
588.418	0.0154540
588.496	0.0155140
588.574	0.0152886
588.653	0.0153531
588.731	0.0151673
588.809	0.0153149
588.887	0.0152996
588.965	0.0151756
589.043	0.0152018
589.121	0.0151727
589.199	0.0150062
589.278	0.0149587
589.356	0.0150390
589.434	0.0149264
589.512	0.0149998
589.590	0.0150093
589.668	0.0149497
589.746	0.0149551
589.824	0.0150410
589.903	0.0149809
589.981	0.0149487
590.059	0.0149242
590.137	0.0149088
590.215	0.0149437
590.293	0.0150569
590.371	0.0151397
590.449	0.0151056
590.528	0.0150928
590.606	0.0152244
590.684	0.0150899
590.762	0.0151096
590.840	0.0150906
590.918	0.0150310
590.996	0.0152351
591.074	0.0151894
591.153	0.0153281
591.231	0.0151276
591.309	0.0150770
591.387	0.0149927
591.465	0.0151044
591.543	0.0151768
591.621	0.0152267
591.699	0.0151753
591.778	0.0150639
591.856	0.0148775
591.934	0.0151438
592.012	0.0151912
592.090	0.0152120
592.168	0.0151693
592.246	0.0153116
592.324	0.0151850
592.403	0.0153417
592.481	0.0151814
592.559	0.0153465
592.637	0.0153529
592.715	0.0154742
592.793	0.0154533
592.871	0.0154623
592.949	0.0154885
593.028	0.0155549
593.106	0.0154284
593.184	0.0155392
593.262	0.0156936
593.340	0.0155509
593.418	0.0153970
593.496	0.0156106
593.574	0.0155988
593.653	0.0156461
593.731	0.0155061
593.809	0.0155951
593.887	0.0156190
593.965	0.0156076
594.043	0.0156944
594.121	0.0154793
594.199	0.0155919
594.278	0.0154245
594.356	0.0152785
594.434	0.0154934
594.512	0.0152778
594.590	0.0152853
594.668	0.0151656
594.746	0.0151057
594.824	0.0150839
594.903	0.0148759
594.981	0.0149511
595.059	0.0148974
595.137	0.0149323
595.215	0.0149565
595.293	0.0150316
595.371	0.0150454
595.449	0.0150645
595.528	0.0150397
595.606	0.0151222
595.684	0.0153624
595.762	0.0153296
595.840	0.0153654
595.918	0.0152483
595.996	0.0152670
596.074	0.0153606
596.153	0.0154359
596.231	0.0154889
596.309	0.0153047
596.387	0.0153569
596.465	0.0153702
596.543	0.0154202
596.621	0.0153470
596.699	0.0154778
596.778	0.0153300
596.856	0.0153158
596.934	0.0152554
597.012	0.0152861
597.090	0.0153692
597.168	0.0154471
597.246	0.0153990
597.324	0.0155041
597.403	0.0154990
597.481	0.0154825
597.559	0.0154384
597.637	0.0154448
597.715	0.0154434
597.793	0.0154321
597.871	0.0155404
597.949	0.0156784
598.028	0.0155761
598.106	0.0155033
598.184	0.0153127
598.262	0.0155405
598.340	0.0153373
598.418	0.0154387
598.496	0.0152565
598.574	0.0154076
598.653	0.0154286
598.731	0.0155096
598.809	0.0153072
598.887	0.0152617
598.965	0.0152836
599.043	0.0153014
599.121	0.0153484
599.199	0.0153344
599.278	0.0154063
599.356	0.0153032
599.434	0.0154381
599.512	0.0152344
599.590	0.0154933
599.668	0.0153683
599.746	0.0154463
599.824	0.0154941
599.903	0.0155624
599.981	0.0154584
600.059	0.0154469
600.137	0.0153532
600.215	0.0155012
600.293	0.0155631
600.371	0.0155389
600.449	0.0156012
600.528	0.0155222
600.606	0.0155180
600.684	0.0155066
600.762	0.0155094
600.840	0.0155424
600.918	0.0155379
600.996	0.0155098
601.074	0.0155827
601.153	0.0155865
601.231	0.0155801
601.309	0.0155500
601.387	0.0156695
601.465	0.0157463
601.543	0.0156233
601.621	0.0155694
601.699	0.0156341
601.778	0.0155894
601.856	0.0155760
601.934	0.0156300
602.012	0.0156234
602.090	0.0156014
602.168	0.0156826
602.246	0.0156613
602.324	0.0157785
602.403	0.0157687
602.481	0.0156187
602.559	0.0156769
602.637	0.0158212
602.715	0.0156831
602.793	0.0157861
602.871	0.0157259
602.949	0.0155578
603.028	0.0157384
603.106	0.0156135
603.184	0.0156624
603.262	0.0155146
603.340	0.0155980
603.418	0.0155812
603.496	0.0155716
603.574	0.0154063
603.653	0.0154325
603.731	0.0154466
603.809	0.0154746
603.887	0.0154718
603.965	0.0153976
604.043	0.0153794
604.121	0.0154144
604.199	0.0152994
604.278	0.0152953
604.356	0.0153816
604.434	0.0153152
604.512	0.0150437
604.590	0.0151334
604.668	0.0151804
604.746	0.0151440
604.824	0.0151385
604.903	0.0151996
604.981	0.0151869
605.059	0.0149867
605.137	0.0150475
605.215	0.0151243
605.293	0.0149791
605.371	0.0149733
605.449	0.0149345
605.528	0.0149108
605.606	0.0149426
605.684	0.0148854
605.762	0.0148107
605.840	0.0148383
605.918	0.0148880
605.996	0.0148042
606.074	0.0145931
606.153	0.0147724
606.231	0.0148273
606.309	0.0149223
606.387	0.0147627
606.465	0.0149554
606.543	0.0150581
606.621	0.0150659
606.699	0.0149771
606.778	0.0151685
606.856	0.0152525
606.934	0.0153568
607.012	0.0153352
607.090	0.0152669
607.168	0.0153959
607.246	0.0154843
607.324	0.0156131
607.403	0.0155189
607.481	0.0155475
607.559	0.0156274
607.637	0.0155663
607.715	0.0154675
607.793	0.0156812
607.871	0.0155316
607.949	0.0155569
608.028	0.0154622
608.106	0.0155019
608.184	0.0155197
608.262	0.0156194
608.340	0.0155230
608.418	0.0155877
608.496	0.0155644
608.574	0.0156194
608.653	0.0156913
608.731	0.0158369
608.809	0.0157003
608.887	0.0158558
608.965	0.0158708
609.043	0.0158532
609.121	0.0158471
609.199	0.0159032
609.278	0.0158553
609.356	0.0157771
609.434	0.0159631
609.512	0.0158190
609.590	0.0158188
609.668	0.0157018
609.746	0.0154578
609.824	0.0155354
609.903	0.0155436
609.981	0.0154554
610.059	0.0154017
610.137	0.0153901
610.215	0.0154201
610.293	0.0153300
610.371	0.0154365
610.449	0.0152273
610.528	0.0153228
610.606	0.0152604
610.684	0.0152914
610.762	0.0153907
610.840	0.0154183
610.918	0.0153515
610.996	0.0153748
611.074	0.0153275
611.153	0.0152124
611.231	0.0151937
611.309	0.0152711
611.387	0.0150217
611.465	0.0149497
611.543	0.0151910
611.621	0.0149774
611.699	0.0150173
611.778	0.0150142
611.856	0.0148821
611.934	0.0149573
612.012	0.0149765
612.090	0.0150241
612.168	0.0149822
612.246	0.0149770
612.324	0.0149773
612.403	0.0151566
612.481	0.0150215
612.559	0.0149221
612.637	0.0149670
612.715	0.0150937
612.793	0.0150652
612.871	0.0151140
612.949	0.0151163
613.028	0.0151529
613.106	0.0153214
613.184	0.0152032
613.262	0.0153356
613.340	0.0153138
613.418	0.0153622
613.496	0.0154130
613.574	0.0155039
613.653	0.0155996
613.731	0.0156268
613.809	0.0155599
613.887	0.0155577
613.965	0.0155087
614.043	0.0153679
614.121	0.0154917
614.199	0.0154431
614.278	0.0153883
614.356	0.0153470
614.434	0.0153025
614.512	0.0152600
614.590	0.0151992
614.668	0.0152734
614.746	0.0151212
614.824	0.0150507
614.903	0.0151415
614.981	0.0150223
615.059	0.0151156
615.137	0.0150732
615.215	0.0151069
615.293	0.0152010
615.371	0.0150882
615.449	0.0153391
615.528	0.0152675
615.606	0.0153757
615.684	0.0154303
615.762	0.0155650
615.840	0.0153757
615.918	0.0153321
615.996	0.0155293
616.074	0.0155206
616.153	0.0156342
616.231	0.0155405
616.309	0.0154952
616.387	0.0154819
616.465	0.0154008
616.543	0.0155359
616.621	0.0154325
616.699	0.0152809
616.778	0.0153464
616.856	0.0152312
616.934	0.0152928
617.012	0.0152094
617.090	0.0153420
617.168	0.0153671
617.246	0.0153462
617.324	0.0153645
617.403	0.0153206
617.481	0.0152989
617.559	0.0153451
617.637	0.0155242
617.715	0.0156256
617.793	0.0154996
617.871	0.0155000
617.949	0.0155668
618.028	0.0155858
618.106	0.0155908
618.184	0.0155621
618.262	0.0156423
618.340	0.0156454
618.418	0.0155499
618.496	0.0157892
618.574	0.0159206
618.653	0.0157172
618.731	0.0157252
618.809	0.0159434
618.887	0.0157687
618.965	0.0157844
619.043	0.0156544
619.121	0.0156619
619.199	0.0156719
619.278	0.0156443
619.356	0.0154801
619.434	0.0154804
619.512	0.0155853
619.590	0.0155916
619.668	0.0154568
619.746	0.0155836
619.824	0.0156024
619.903	0.0155597
619.981	0.0156113
620.059	0.0156482
620.137	0.0156871
620.215	0.0156607
620.293	0.0156667
620.371	0.0157595
620.449	0.0157983
620.528	0.0158097
620.606	0.0158551
620.684	0.0158268
620.762	0.0159988
620.840	0.0160935
620.918	0.0158207
620.996	0.0157905
621.074	0.0159185
621.153	0.0159876
621.231	0.0159079
621.309	0.0158779
621.387	0.0159084
621.465	0.0158963
621.543	0.0158376
621.621	0.0157884
621.699	0.0158221
621.778	0.0156911
621.856	0.0157372
621.934	0.0157795
622.012	0.0158115
622.090	0.0157178
622.168	0.0157249
622.246	0.0156991
622.324	0.0156701
622.403	0.0156986
622.481	0.0156889
622.559	0.0155199
622.637	0.0156423
622.715	0.0155369
622.793	0.0155277
622.871	0.0156579
622.949	0.0155146
623.028	0.0154527
623.106	0.0155900
623.184	0.0154751
623.262	0.0154086
623.340	0.0153273
623.418	0.0154561
623.496	0.0153275
623.574	0.0152902
623.653	0.0153957
623.731	0.0154586
623.809	0.0151604
623.887	0.0152164
623.965	0.0154242
624.043	0.0153979
624.121	0.0153297
624.199	0.0152554
624.278	0.0153265
624.356	0.0154382
624.434	0.0153103
624.512	0.0152728
624.590	0.0154646
624.668	0.0153889
624.746	0.0153019
624.824	0.0154038
624.903	0.0153770
624.981	0.0154337
625.059	0.0153500
625.137	0.0153699
625.215	0.0153766
625.293	0.0154250
625.371	0.0154438
625.449	0.0155347
625.528	0.0154035
625.606	0.0155143
625.684	0.0157047
625.762	0.0155882
625.840	0.0155517
625.918	0.0156954
625.996	0.0156229
626.074	0.0157014
626.153	0.0157090
626.231	0.0157131
626.309	0.0156897
626.387	0.0156743
626.465	0.0155594
626.543	0.0155677
626.621	0.0156802
626.699	0.0157640
626.778	0.0157681
626.856	0.0157351
626.934	0.0157723
627.012	0.0155615
627.090	0.0156876
627.168	0.0157602
627.246	0.0155484
627.324	0.0156903
627.403	0.0157259
627.481	0.0155833
627.559	0.0156461
627.637	0.0155225
627.715	0.0154976
627.793	0.0155082
627.871	0.0155461
627.949	0.0154888
628.028	0.0155338
628.106	0.0155379
628.184	0.0155557
628.262	0.0155856
628.340	0.0155183
628.418	0.0155801
628.496	0.0154752
628.574	0.0155103
628.653	0.0154585
628.731	0.0154835
628.809	0.0156656
628.887	0.0154241
628.965	0.0155569
629.043	0.0156496
629.121	0.0157266
629.199	0.0155589
629.278	0.0155853
629.356	0.0156023
629.434	0.0155662
629.512	0.0155020
629.590	0.0155566
629.668	0.0154860
629.746	0.0155527
629.824	0.0153890
629.903	0.0154037
629.981	0.0153959
630.059	0.0152734
630.137	0.0153458
630.215	0.0152887
630.293	0.0151109
630.371	0.0151456
630.449	0.0153666
630.528	0.0151244
630.606	0.0152004
630.684	0.0153458
630.762	0.0151888
630.840	0.0152765
630.918	0.0152197
630.996	0.0152131
631.074	0.0151338
631.153	0.0153329
631.231	0.0153470
631.309	0.0153735
631.387	0.0152660
631.465	0.0153857
631.543	0.0152388
631.621	0.0151296
631.699	0.0153559
631.778	0.0153263
631.856	0.0151690
631.934	0.0151779
632.012	0.0153110
632.090	0.0152393
632.168	0.0153220
632.246	0.0152393
632.324	0.0153761
632.403	0.0151010
632.481	0.0153792
632.559	0.0153773
632.637	0.0153537
632.715	0.0152198
632.793	0.0153252
632.871	0.0153260
632.949	0.0153615
633.028	0.0154080
633.106	0.0152944
633.184	0.0153710
633.262	0.0154921
633.340	0.0153380
633.418	0.0153709
633.496	0.0153407
633.574	0.0153808
633.653	0.0152956
633.731	0.0152725
633.809	0.0152953
633.887	0.0152837
633.965	0.0152468
634.043	0.0150883
634.121	0.0152682
634.199	0.0151938
634.278	0.0150038
634.356	0.0149895
634.434	0.0149644
634.512	0.0148903
634.590	0.0148838
634.668	0.0150813
634.746	0.0150565
634.824	0.0149271
634.903	0.0149574
634.981	0.0149681
635.059	0.0150997
635.137	0.0150889
635.215	0.0152527
635.293	0.0151727
635.371	0.0151337
635.449	0.0151851
635.528	0.0154147
635.606	0.0154097
635.684	0.0154284
635.762	0.0153644
635.840	0.0153574
635.918	0.0154699
635.996	0.0154208
636.074	0.0154861
636.153	0.0155400
636.231	0.0154607
636.309	0.0155487
636.387	0.0155336
636.465	0.0155591
636.543	0.0155336
636.621	0.0155628
636.699	0.0156129
636.778	0.0157128
636.856	0.0156073
636.934	0.0156731
637.012	0.0156584
637.090	0.0157109
637.168	0.0156442
637.246	0.0156964
637.324	0.0157006
637.403	0.0156654
637.481	0.0156893
637.559	0.0155265
637.637	0.0156927
637.715	0.0157189
637.793	0.0155733
637.871	0.0156359
637.949	0.0156070
638.028	0.0156441
638.106	0.0154959
638.184	0.0155595
638.262	0.0157053
638.340	0.0155789
638.418	0.0156133
638.496	0.0156183
638.574	0.0155802
638.653	0.0156681
638.731	0.0156326
638.809	0.0155495
638.887	0.0156281
638.965	0.0156542
639.043	0.0155970
639.121	0.0154361
639.199	0.0154546
639.278	0.0154461
639.356	0.0154958
639.434	0.0154756
639.512	0.0153352
639.590	0.0153127
639.668	0.0152982
639.746	0.0151635
639.824	0.0151783
639.903	0.0153225
639.981	0.0149769
640.059	0.0149589
640.137	0.0149837
640.215	0.0150007
640.293	0.0148566
640.371	0.0149037
640.449	0.0151542
640.528	0.0149111
640.606	0.0148923
640.684	0.0148995
640.762	0.0148515
640.840	0.0150735
640.918	0.0151061
640.996	0.0151029
641.074	0.0150214
641.153	0.0150297
641.231	0.0152177
641.309	0.0152251
641.387	0.0152474
641.465	0.0152509
641.543	0.0152274
641.621	0.0153799
641.699	0.0154345
641.778	0.0153091
641.856	0.0153328
641.934	0.0153654
642.012	0.0153519
642.090	0.0154469
642.168	0.0153729
642.246	0.0155626
642.324	0.0155520
642.403	0.0155949
642.481	0.0155144
642.559	0.0156116
642.637	0.0157153
642.715	0.0156401
642.793	0.0155051
642.871	0.0156342
642.949	0.0156929
643.028	0.0156924
643.106	0.0154744
643.184	0.0155225
643.262	0.0154984
643.340	0.0156646
643.418	0.0156610
643.496	0.0154956
643.574	0.0154858
643.653	0.0155951
643.731	0.0154333
643.809	0.0156224
643.887	0.0155977
643.965	0.0154652
644.043	0.0154865
644.121	0.0155910
644.199	0.0156902
644.278	0.0157792
644.356	0.0157548
644.434	0.0155793
644.512	0.0157070
644.590	0.0156605
644.668	0.0158179
644.746	0.0157905
644.824	0.0157456
644.903	0.0156785
644.981	0.0156467
645.059	0.0156611
645.137	0.0156864
645.215	0.0157010
645.293	0.0158410
645.371	0.0156880
645.449	0.0157487
645.528	0.0156824
645.606	0.0156429
645.684	0.0157299
645.762	0.0157771
645.840	0.0157564
645.918	0.0156209
645.996	0.0156935
646.074	0.0156857
646.153	0.0157320
646.231	0.0156303
646.309	0.0157040
646.387	0.0157735
646.465	0.0155441
646.543	0.0155462
646.621	0.0156404
646.699	0.0155291
646.778	0.0153996
646.856	0.0154146
646.934	0.0152017
647.012	0.0152631
647.090	0.0153005
647.168	0.0150381
647.246	0.0151298
647.324	0.0150479
647.403	0.0151546
647.481	0.0151143
647.559	0.0151073
647.637	0.0149969
647.715	0.0150481
647.793	0.0148943
647.871	0.0150457
647.949	0.0150513
648.028	0.0151693
648.106	0.0152257
648.184	0.0149681
648.262	0.0150681
648.340	0.0152061
648.418	0.0150368
648.496	0.0149911
648.574	0.0151048
648.653	0.0150085
648.731	0.0149882
648.809	0.0148860
648.887	0.0150038
648.965	0.0148112
649.043	0.0148519
649.121	0.0147256
649.199	0.0147123
649.278	0.0147445
649.356	0.0146848
649.434	0.0146291
649.512	0.0146244
649.590	0.0146568
649.668	0.0147817
649.746	0.0147861
649.824	0.0146496
649.903	0.0147829
649.981	0.0147276
650.059	0.0147036
650.137	0.0147775
650.215	0.0148708
650.293	0.0148266
650.371	0.0148128
650.449	0.0149214
650.528	0.0148697
650.606	0.0150320
650.684	0.0150101
650.762	0.0150186
650.840	0.0151704
650.918	0.0150724
650.996	0.0150079
651.074	0.0151288
651.153	0.0150135
651.231	0.0153300
651.309	0.0151514
651.387	0.0150977
651.465	0.0152126
651.543	0.0151744
651.621	0.0151254
651.699	0.0151717
651.778	0.0152206
651.856	0.0152816
651.934	0.0151985
652.012	0.0152666
652.090	0.0151836
652.168	0.0151923
652.246	0.0152813
652.324	0.0151900
652.403	0.0152443
652.481	0.0153919
652.559	0.0152766
652.637	0.0152588
652.715	0.0151659
652.793	0.0152938
652.871	0.0153545
652.949	0.0152457
653.028	0.0152836
653.106	0.0152625
653.184	0.0152636
653.262	0.0153078
653.340	0.0153251
653.418	0.0154118
653.496	0.0155365
653.574	0.0155531
653.653	0.0155743
653.731	0.0156750
653.809	0.0157163
653.887	0.0156424
653.965	0.0157425
654.043	0.0157584
654.121	0.0158589
654.199	0.0157523
654.278	0.0158286
654.356	0.0159341
654.434	0.0157805
654.512	0.0157587
654.590	0.0157413
654.668	0.0157580
654.746	0.0157089
654.824	0.0156098
654.903	0.0156794
654.981	0.0156943
655.059	0.0156699
655.137	0.0156143
655.215	0.0156690
655.293	0.0158104
655.371	0.0157224
655.449	0.0157537
655.528	0.0156907
655.606	0.0157443
655.684	0.0158550
655.762	0.0159110
655.840	0.0158351
655.918	0.0158859
655.996	0.0158938
656.074	0.0158939
656.153	0.0157961
656.231	0.0158191
656.309	0.0158130
656.387	0.0157552
656.465	0.0156690
656.543	0.0156007
656.621	0.0156073
656.699	0.0155075
656.778	0.0155119
656.856	0.0154375
656.934	0.0155257
657.012	0.0153268
657.090	0.0154488
657.168	0.0153020
657.246	0.0152457
657.324	0.0153944
657.403	0.0152937
657.481	0.0153217
657.559	0.0151424
657.637	0.0153285
657.715	0.0153024
657.793	0.0153841
657.871	0.0153411
657.949	0.0152846
658.028	0.0153564
658.106	0.0152637
658.184	0.0153053
658.262	0.0152496
658.340	0.0151936
658.418	0.0152991
658.496	0.0152234
658.574	0.0152119
658.653	0.0151326
658.731	0.0153349
658.809	0.0152330
658.887	0.0150247
658.965	0.0150986
659.043	0.0151884
659.121	0.0150883
659.199	0.0151089
659.278	0.0150664
659.356	0.0151189
659.434	0.0151154
659.512	0.0150829
659.590	0.0151688
659.668	0.0152679
659.746	0.0151458
659.824	0.0150468
659.903	0.0151006
659.981	0.0151292
660.059	0.0151142
660.137	0.0151818
660.215	0.0152045
660.293	0.0152792
660.371	0.0153136
660.449	0.0152286
660.528	0.0151549
660.606	0.0150690
660.684	0.0150304
660.762	0.0151667
660.840	0.0151278
660.918	0.0150793
660.996	0.0150620
661.074	0.0151294
661.153	0.0152747
661.231	0.0151277
661.309	0.0151159
661.387	0.0152762
661.465	0.0152341
661.543	0.0152648
661.621	0.0154048
661.699	0.0153333
661.778	0.0153228
661.856	0.0154302
661.934	0.0153999
662.012	0.0154133
662.090	0.0153036
662.168	0.0152734
662.246	0.0153829
662.324	0.0153895
662.403	0.0152534
662.481	0.0152390
662.559	0.0154256
662.637	0.0153245
662.715	0.0153215
662.793	0.0152777
662.871	0.0152484
662.949	0.0153638
663.028	0.0153944
663.106	0.0154250
663.184	0.0154264
663.262	0.0154938
663.340	0.0157110
663.418	0.0154478
663.496	0.0157721
663.574	0.0155711
663.653	0.0155856
663.731	0.0157182
663.809	0.0157551
663.887	0.0155901
663.965	0.0155747
664.043	0.0156290
664.121	0.0156413
664.199	0.0155568
664.278	0.0155330
664.356	0.0154832
664.434	0.0154559
664.512	0.0153019
664.590	0.0152185
664.668	0.0152783
664.746	0.0153764
664.824	0.0152563
664.903	0.0152633
664.981	0.0153004
665.059	0.0153360
665.137	0.0152891
665.215	0.0154741
665.293	0.0153824
665.371	0.0153101
665.449	0.0152355
665.528	0.0151885
665.606	0.0152515
665.684	0.0152070
665.762	0.0151736
665.840	0.0151617
665.918	0.0150769
665.996	0.0149660
666.074	0.0152177
666.153	0.0149942
666.231	0.0148924
666.309	0.0150202
666.387	0.0149317
666.465	0.0150195
666.543	0.0150977
666.621	0.0150047
666.699	0.0150854
666.778	0.0151054
666.856	0.0149763
666.934	0.0150562
667.012	0.0154021
667.090	0.0153877
667.168	0.0153310
667.246	0.0153703
667.324	0.0153570
667.403	0.0153445
667.481	0.0152843
667.559	0.0152763
667.637	0.0151032
667.715	0.0151883
667.793	0.0151557
667.871	0.0150736
667.949	0.0151689
668.028	0.0151085
668.106	0.0150731
668.184	0.0151266
668.262	0.0151271
668.340	0.0149302
668.418	0.0150346
668.496	0.0150525
668.574	0.0151935
668.653	0.0151695
668.731	0.0150927
668.809	0.0152789
668.887	0.0151510
668.965	0.0151728
669.043	0.0151522
669.121	0.0152966
669.199	0.0151250
669.278	0.0150618
669.356	0.0150581
669.434	0.0150037
669.512	0.0149445
669.590	0.0148739
669.668	0.0148811
669.746	0.0148321
669.824	0.0147962
669.903	0.0148589
669.981	0.0149251
670.059	0.0149724
670.137	0.0149309
670.215	0.0151532
670.293	0.0151054
670.371	0.0152094
670.449	0.0151991
670.528	0.0152713
670.606	0.0152209
670.684	0.0153124
670.762	0.0154395
670.840	0.0154058
670.918	0.0154256
670.996	0.0154561
671.074	0.0154841
671.153	0.0155042
671.231	0.0155590
671.309	0.0154852
671.387	0.0154478
671.465	0.0155297
671.543	0.0155808
671.621	0.0156511
671.699	0.0157014
671.778	0.0156432
671.856	0.0155730
671.934	0.0155304
672.012	0.0154813
672.090	0.0154568
672.168	0.0154375
672.246	0.0155141
672.324	0.0155283
672.403	0.0154897
672.481	0.0155183
672.559	0.0153947
672.637	0.0154533
672.715	0.0154163
672.793	0.0154489
672.871	0.0155293
672.949	0.0154380
673.028	0.0154830
673.106	0.0155739
673.184	0.0155838
673.262	0.0156900
673.340	0.0157557
673.418	0.0157397
673.496	0.0156780
673.574	0.0157816
673.653	0.0157362
673.731	0.0157823
673.809	0.0157829
673.887	0.0156289
673.965	0.0156634
674.043	0.0157212
674.121	0.0156298
674.199	0.0154706
674.278	0.0156569
674.356	0.0156042
674.434	0.0153573
674.512	0.0154607
674.590	0.0154345
674.668	0.0155224
674.746	0.0154691
674.824	0.0154977
674.903	0.0152969
674.981	0.0153293
675.059	0.0155000
675.137	0.0154528
675.215	0.0155412
675.293	0.0153355
675.371	0.0153043
675.449	0.0154333
675.528	0.0153043
675.606	0.0153596
675.684	0.0153047
675.762	0.0152248
675.840	0.0152628
675.918	0.0152251
675.996	0.0151646
676.074	0.0151116
676.153	0.0151183
676.231	0.0151804
676.309	0.0151899
676.387	0.0152142
676.465	0.0153681
676.543	0.0152329
676.621	0.0153062
676.699	0.0152647
676.778	0.0153932
676.856	0.0153088
676.934	0.0152195
677.012	0.0153295
677.090	0.0153952
677.168	0.0153755
677.246	0.0154057
677.324	0.0154601
677.403	0.0153031
677.481	0.0153625
677.559	0.0152528
677.637	0.0154182
677.715	0.0153823
677.793	0.0154864
677.871	0.0153264
677.949	0.0155585
678.028	0.0153490
678.106	0.0155297
678.184	0.0153458
678.262	0.0153059
678.340	0.0154687
678.418	0.0152729
678.496	0.0155078
678.574	0.0155187
678.653	0.0155089
678.731	0.0156460
678.809	0.0155415
678.887	0.0156414
678.965	0.0156975
679.043	0.0156454
679.121	0.0154897
679.199	0.0155560
679.278	0.0155765
679.356	0.0156294
679.434	0.0156247
679.512	0.0155189
679.590	0.0155533
679.668	0.0156889
679.746	0.0156216
679.824	0.0155325
679.903	0.0155257
679.981	0.0154694
680.059	0.0155459
680.137	0.0155344
680.215	0.0157275
680.293	0.0154895
680.371	0.0156006
680.449	0.0154543
680.528	0.0156099
680.606	0.0155463
680.684	0.0157300
680.762	0.0156496
680.840	0.0155766
680.918	0.0155974
680.996	0.0156047
681.074	0.0155988
681.153	0.0156971
681.231	0.0155170
681.309	0.0155158
681.387	0.0156104
681.465	0.0154794
681.543	0.0154778
681.621	0.0154919
681.699	0.0154358
681.778	0.0154073
681.856	0.0153852
681.934	0.0151425
682.012	0.0152457
682.090	0.0152080
682.168	0.0152036
682.246	0.0152058
682.324	0.0152095
682.403	0.0153396
682.481	0.0151060
682.559	0.0151752
682.637	0.0152283
682.715	0.0152001
682.793	0.0151553
682.871	0.0150879
682.949	0.0151479
683.028	0.0149898
683.106	0.0150270
683.184	0.0151031
683.262	0.0151028
683.340	0.0149892
683.418	0.0150137
683.496	0.0148273
683.574	0.0149557
683.653	0.0150381
683.731	0.0149752
683.809	0.0150103
683.887	0.0151259
683.965	0.0151404
684.043	0.0153698
684.121	0.0153234
684.199	0.0151505
684.278	0.0153472
684.356	0.0154316
684.434	0.0153381
684.512	0.0153571
684.590	0.0154163
684.668	0.0155173
684.746	0.0154819
684.824	0.0153487
684.903	0.0152809
684.981	0.0152168
685.059	0.0152237
685.137	0.0152182
685.215	0.0151704
685.293	0.0152641
685.371	0.0151484
685.449	0.0151386
685.528	0.0151360
685.606	0.0153393
685.684	0.0150487
685.762	0.0151181
685.840	0.0151748
685.918	0.0150901
685.996	0.0149848
686.074	0.0151278
686.153	0.0150694
686.231	0.0152193
686.309	0.0151458
686.387	0.0151702
686.465	0.0153387
686.543	0.0150996
686.621	0.0153131
686.699	0.0152147
686.778	0.0153021
686.856	0.0153013
686.934	0.0152208
687.012	0.0154627
687.090	0.0154752
687.168	0.0154600
687.246	0.0154588
687.324	0.0156075
687.403	0.0155367
687.481	0.0156542
687.559	0.0156476
687.637	0.0155797
687.715	0.0155663
687.793	0.0156913
687.871	0.0157422
687.949	0.0154721
688.028	0.0155813
688.106	0.0155997
688.184	0.0155566
688.262	0.0154453
688.340	0.0154765
688.418	0.0154443
688.496	0.0155696
688.574	0.0155992
688.653	0.0154616
688.731	0.0153940
688.809	0.0154411
688.887	0.0154939
688.965	0.0156004
689.043	0.0155528
689.121	0.0154646
689.199	0.0155857
689.278	0.0156622
689.356	0.0156816
689.434	0.0155959
689.512	0.0156851
689.590	0.0156676
689.668	0.0157391
689.746	0.0156706
689.824	0.0156377
689.903	0.0155799
689.981	0.0156165
690.059	0.0155876
690.137	0.0156480
690.215	0.0156839
690.293	0.0155171
690.371	0.0154585
690.449	0.0155515
690.528	0.0155605
690.606	0.0156956
690.684	0.0157790
690.762	0.0156147
690.840	0.0154609
690.918	0.0156374
690.996	0.0155954
691.074	0.0155987
691.153	0.0156470
691.231	0.0155395
691.309	0.0155943
691.387	0.0155769
691.465	0.0153426
691.543	0.0152724
691.621	0.0153357
691.699	0.0153513
691.778	0.0152071
691.856	0.0152574
691.934	0.0151591
692.012	0.0151527
692.090	0.0152322
692.168	0.0151617
692.246	0.0151421
692.324	0.0151167
692.403	0.0151404
692.481	0.0151403
692.559	0.0151583
692.637	0.0151983
692.715	0.0151678
692.793	0.0151213
692.871	0.0153912
692.949	0.0153949
693.028	0.0153814
693.106	0.0154378
693.184	0.0153901
693.262	0.0154708
693.340	0.0155126
693.418	0.0154432
693.496	0.0154252
693.574	0.0154002
693.653	0.0154255
693.731	0.0153395
693.809	0.0153912
693.887	0.0151555
693.965	0.0152261
694.043	0.0151800
694.121	0.0150197
694.199	0.0151400
694.278	0.0152876
694.356	0.0151124
694.434	0.0151248
694.512	0.0152118
694.590	0.0154073
694.668	0.0154688
694.746	0.0154415
694.824	0.0154142
694.903	0.0156078
694.981	0.0156556
695.059	0.0156223
695.137	0.0157571
695.215	0.0156908
695.293	0.0158197
695.371	0.0157276
695.449	0.0156815
695.528	0.0157144
695.606	0.0156484
695.684	0.0155295
695.762	0.0154984
695.840	0.0154411
695.918	0.0153107
695.996	0.0152712
696.074	0.0153609
696.153	0.0153220
696.231	0.0152935
696.309	0.0150903
696.387	0.0151629
696.465	0.0151953
696.543	0.0151920
696.621	0.0152080
696.699	0.0151872
696.778	0.0150997
696.856	0.0152859
696.934	0.0153456
697.012	0.0153413
697.090	0.0153207
697.168	0.0154560
697.246	0.0154256
697.324	0.0153831
697.403	0.0154176
697.481	0.0154110
697.559	0.0155007
697.637	0.0154911
697.715	0.0154361
697.793	0.0154794
697.871	0.0154164
697.949	0.0154376
698.028	0.0155083
698.106	0.0155601
698.184	0.0153858
698.262	0.0154557
698.340	0.0155025
698.418	0.0156179
698.496	0.0156530
698.574	0.0155535
698.653	0.0158104
698.731	0.0158013
698.809	0.0158002
698.887	0.0158583
698.965	0.0158180
699.043	0.0159851
699.121	0.0159686
699.199	0.0161132
699.278	0.0160625
699.356	0.0161008
699.434	0.0161752
699.512	0.0160925
699.590	0.0162064
699.668	0.0159744
699.746	0.0159316
699.824	0.0159489
699.903	0.0159382
699.981	0.0159716
700.059	0.0156942
700.137	0.0156229
700.215	0.0157368
700.293	0.0157848
700.371	0.0156947
700.449	0.0157662
700.528	0.0157766
700.606	0.0158469
700.684	0.0158067
700.762	0.0156819
700.840	0.0157487
700.918	0.0159023
700.996	0.0157741
701.074	0.0157306
701.153	0.0158287
701.231	0.0158408
701.309	0.0157936
701.387	0.0157729
701.465	0.0157575
701.543	0.0157182
701.621	0.0158080
701.699	0.0157391
701.778	0.0155207
701.856	0.0155417
701.934	0.0155787
702.012	0.0155488
702.090	0.0157281
702.168	0.0157272
702.246	0.0156757
702.324	0.0157802
702.403	0.0156966
702.481	0.0158533
702.559	0.0157323
702.637	0.0157830
702.715	0.0159189
702.793	0.0158154
702.871	0.0158523
702.949	0.0158610
703.028	0.0157232
703.106	0.0158524
703.184	0.0158544
703.262	0.0156726
703.340	0.0157465
703.418	0.0157026
703.496	0.0154775
703.574	0.0155985
703.653	0.0156155
703.731	0.0155548
703.809	0.0155082
703.887	0.0153978
703.965	0.0154016
704.043	0.0155245
704.121	0.0152497
704.199	0.0153786
704.278	0.0153846
704.356	0.0153875
704.434	0.0153991
704.512	0.0154042
704.590	0.0152873
704.668	0.0152489
704.746	0.0153300
704.824	0.0152548
704.903	0.0152523
704.981	0.0152088
705.059	0.0150687
705.137	0.0151523
705.215	0.0150577
705.293	0.0150442
705.371	0.0149120
705.449	0.0147379
705.528	0.0148172
705.606	0.0146360
705.684	0.0147015
705.762	0.0147482
705.840	0.0147252
705.918	0.0147619
705.996	0.0146318
706.074	0.0145493
706.153	0.0147212
706.231	0.0147331
706.309	0.0147884
706.387	0.0147170
706.465	0.0147578
706.543	0.0148023
706.621	0.0149728
706.699	0.0149017
706.778	0.0151511
706.856	0.0151408
706.934	0.0152252
707.012	0.0152615
707.090	0.0153067
707.168	0.0153324
707.246	0.0152141
707.324	0.0153666
707.403	0.0152530
707.481	0.0152660
707.559	0.0153297
707.637	0.0152865
707.715	0.0150962
707.793	0.0151603
707.871	0.0151411
707.949	0.0151206
708.028	0.0151788
708.106	0.0149796
708.184	0.0150896
708.262	0.0151820
708.340	0.0151677
708.418	0.0152388
708.496	0.0152184
708.574	0.0153372
708.653	0.0152255
708.731	0.0154489
708.809	0.0154786
708.887	0.0154289
708.965	0.0154438
709.043	0.0153180
709.121	0.0152966
709.199	0.0153310
709.278	0.0154083
709.356	0.0153743
709.434	0.0153483
709.512	0.0152458
709.590	0.0151529
709.668	0.0151228
709.746	0.0150700
709.824	0.0151333
709.903	0.0152840
709.981	0.0151774
710.059	0.0151148
710.137	0.0150851
710.215	0.0152592
710.293	0.0153025
710.371	0.0152184
710.449	0.0154307
710.528	0.0155230
710.606	0.0153419
710.684	0.0155799
710.762	0.0155142
710.840	0.0154305
710.918	0.0154429
710.996	0.0156394
711.074	0.0157594
711.153	0.0157737
711.231	0.0156577
711.309	0.0157732
711.387	0.0157085
711.465	0.0156749
711.543	0.0157066
711.621	0.0157542
711.699	0.0157644
711.778	0.0157365
711.856	0.0156931
711.934	0.0158922
712.012	0.0158043
712.090	0.0159160
712.168	0.0156951
712.246	0.0156532
712.324	0.0157187
712.403	0.0156420
712.481	0.0155907
712.559	0.0153940
712.637	0.0154553
712.715	0.0153158
712.793	0.0153508
712.871	0.0150828
712.949	0.0148900
713.028	0.0148582
713.106	0.0149303
713.184	0.0151441
713.262	0.0150445
713.340	0.0151949
713.418	0.0153275
713.496	0.0155579
713.574	0.0157027
713.653	0.0157617
713.731	0.0159230
713.809	0.0160831
713.887	0.0161821
713.965	0.0162682
714.043	0.0163587
714.121	0.0163041
714.199	0.0162479
714.278	0.0160995
714.356	0.0159125
714.434	0.0158264
714.512	0.0154918
714.590	0.0152222
714.668	0.0148605
714.746	0.0148789
714.824	0.0146331
714.903	0.0144251
714.981	0.0142460
715.059	0.0143426
715.137	0.0143530
715.215	0.0144504
715.293	0.0145600
715.371	0.0146305
715.449	0.0145983
715.528	0.0148173
715.606	0.0150599
715.684	0.0151620
715.762	0.0152538
715.840	0.0153531
715.918	0.0154018
715.996	0.0153995
716.074	0.0153540
716.153	0.0154263
716.231	0.0153909
716.309	0.0153813
716.387	0.0155141
716.465	0.0155037
716.543	0.0154264
716.621	0.0155181
716.699	0.0154678
716.778	0.0155029
716.856	0.0152861
716.934	0.0151575
717.012	0.0152325
717.090	0.0151675
717.168	0.0150173
717.246	0.0151001
717.324	0.0149699
717.403	0.0149800
717.481	0.0149441
717.559	0.0148814
717.637	0.0149032
717.715	0.0148974
717.793	0.0147065
717.871	0.0149219
717.949	0.0150325
718.028	0.0151551
718.106	0.0151721
718.184	0.0151727
718.262	0.0152678
718.340	0.0153449
718.418	0.0152329
718.496	0.0154017
718.574	0.0154416
718.653	0.0154973
718.731	0.0155919
718.809	0.0154714
718.887	0.0155795
718.965	0.0155265
719.043	0.0154452
719.121	0.0156570
719.199	0.0157251
719.278	0.0155005
719.356	0.0156403
719.434	0.0156090
719.512	0.0154708
719.590	0.0156799
719.668	0.0155524
719.746	0.0156309
719.824	0.0157018
719.903	0.0157632
719.981	0.0155619
720.059	0.0157801
720.137	0.0156943
720.215	0.0159145
720.293	0.0156311
720.371	0.0157916
720.449	0.0158808
720.528	0.0156660
720.606	0.0156846
720.684	0.0158360
720.762	0.0158572
720.840	0.0157738
720.918	0.0157831
720.996	0.0157361
721.074	0.0157338
721.153	0.0157246
721.231	0.0158887
721.309	0.0158562
721.387	0.0159278
721.465	0.0159021
721.543	0.0158263
721.621	0.0159480
721.699	0.0158659
721.778	0.0158308
721.856	0.0157681
721.934	0.0157889
722.012	0.0158144
722.090	0.0157283
722.168	0.0157501
722.246	0.0156429
722.324	0.0155865
722.403	0.0153972
722.481	0.0153283
722.559	0.0153643
722.637	0.0154745
722.715	0.0153228
722.793	0.0152142
722.871	0.0152382
722.949	0.0153183
723.028	0.0153610
723.106	0.0152721
723.184	0.0153083
723.262	0.0153014
723.340	0.0151433
723.418	0.0150745
723.496	0.0150719
723.574	0.0152063
723.653	0.0152062
723.731	0.0149866
723.809	0.0150576
723.887	0.0152195
723.965	0.0150764
724.043	0.0151044
724.121	0.0150826
724.199	0.0152512
724.278	0.0151892
724.356	0.0152131
724.434	0.0152232
724.512	0.0150958
724.590	0.0152666
724.668	0.0151476
724.746	0.0151100
724.824	0.0153142
724.903	0.0152126
724.981	0.0152676
725.059	0.0152967
725.137	0.0152643
725.215	0.0153712
725.293	0.0152331
725.371	0.0153262
725.449	0.0154047
725.528	0.0153175
725.606	0.0152713
725.684	0.0153920
725.762	0.0154140
725.840	0.0154301
725.918	0.0154553
725.996	0.0154762
726.074	0.0155232
726.153	0.0154470
726.231	0.0155027
726.309	0.0155681
726.387	0.0155394
726.465	0.0154964
726.543	0.0155247
726.621	0.0155000
726.699	0.0154077
726.778	0.0154324
726.856	0.0154391
726.934	0.0155336
727.012	0.0154015
727.090	0.0155429
727.168	0.0154393
727.246	0.0153902
727.324	0.0153664
727.403	0.0153590
727.481	0.0152573
727.559	0.0152007
727.637	0.0151589
727.715	0.0152946
727.793	0.0151433
727.871	0.0151654
727.949	0.0152714
728.028	0.0151701
728.106	0.0150009
728.184	0.0150266
728.262	0.0150372
728.340	0.0150933
728.418	0.0149783
728.496	0.0152708
728.574	0.0151266
728.653	0.0150716
728.731	0.0151562
728.809	0.0152862
728.887	0.0152593
728.965	0.0152806
729.043	0.0151724
729.121	0.0151579
729.199	0.0152197
729.278	0.0152124
729.356	0.0153597
729.434	0.0152005
729.512	0.0151958
729.590	0.0153166
729.668	0.0153257
729.746	0.0152126
729.824	0.0152766
729.903	0.0151768
729.981	0.0151395
730.059	0.0152299
730.137	0.0152768
730.215	0.0153692
730.293	0.0154056
730.371	0.0154711
730.449	0.0153999
730.528	0.0152720
730.606	0.0153908
730.684	0.0154808
730.762	0.0154912
730.840	0.0153590
730.918	0.0155177
730.996	0.0153988
731.074	0.0154813
731.153	0.0155296
731.231	0.0153413
731.309	0.0154095
731.387	0.0155015
731.465	0.0152322
731.543	0.0153895
731.621	0.0153829
731.699	0.0153871
731.778	0.0152808
731.856	0.0153525
731.934	0.0152689
732.012	0.0152899
732.090	0.0154523
732.168	0.0154511
732.246	0.0154121
732.324	0.0155386
732.403	0.0154807
732.481	0.0153664
732.559	0.0154905
732.637	0.0156294
732.715	0.0154562
732.793	0.0156600
732.871	0.0157153
732.949	0.0155283
733.028	0.0155866
733.106	0.0156529
733.184	0.0155800
733.262	0.0155454
733.340	0.0155335
733.418	0.0153789
733.496	0.0155238
733.574	0.0153907
733.653	0.0152662
733.731	0.0153536
733.809	0.0153430
733.887	0.0153785
733.965	0.0153767
734.043	0.0152630
734.121	0.0153615
734.199	0.0153725
734.278	0.0153522
734.356	0.0153178
734.434	0.0154589
734.512	0.0154073
734.590	0.0155634
734.668	0.0157271
734.746	0.0154068
734.824	0.0153384
734.903	0.0154921
734.981	0.0157021
735.059	0.0154491
735.137	0.0154420
735.215	0.0153752
735.293	0.0154130
735.371	0.0153831
735.449	0.0154379
735.528	0.0154456
735.606	0.0154388
735.684	0.0153278
735.762	0.0153254
735.840	0.0153970
735.918	0.0154146
735.996	0.0153130
736.074	0.0153695
736.153	0.0153748
736.231	0.0155054
736.309	0.0153669
736.387	0.0154019
736.465	0.0155086
736.543	0.0153613
736.621	0.0152666
736.699	0.0152340
736.778	0.0153709
736.856	0.0151970
736.934	0.0151546
737.012	0.0154702
737.090	0.0153870
737.168	0.0150882
737.246	0.0152191
737.324	0.0154413
737.403	0.0153474
737.481	0.0152219
737.559	0.0154017
737.637	0.0152718
737.715	0.0153349
737.793	0.0152397
737.871	0.0151900
737.949	0.0150552
738.028	0.0150787
738.106	0.0150349
738.184	0.0150080
738.262	0.0150092
738.340	0.0149081
738.418	0.0147983
738.496	0.0147347
738.574	0.0148022
738.653	0.0145944
738.731	0.0147562
738.809	0.0146386
738.887	0.0146447
738.965	0.0146702
739.043	0.0146290
739.121	0.0145878
739.199	0.0146261
739.278	0.0145303
739.356	0.0146716
739.434	0.0145533
739.512	0.0145538
739.590	0.0146518
739.668	0.0147532
739.746	0.0149111
739.824	0.0147972
739.903	0.0148980
739.981	0.0149239
740.059	0.0148965
740.137	0.0149311
740.215	0.0148709
740.293	0.0149162
740.371	0.0150175
740.449	0.0148426
740.528	0.0149887
740.606	0.0148986
740.684	0.0148021
740.762	0.0148515
740.840	0.0147830
740.918	0.0148620
740.996	0.0148746
741.074	0.0149268
741.153	0.0149640
741.231	0.0149146
741.309	0.0148987
741.387	0.0149464
741.465	0.0149724
741.543	0.0150312
741.621	0.0149538
741.699	0.0151491
741.778	0.0150780
741.856	0.0151269
741.934	0.0152466
742.012	0.0151646
742.090	0.0151527
742.168	0.0152250
742.246	0.0153754
742.324	0.0152276
742.403	0.0154006
742.481	0.0154154
742.559	0.0153486
742.637	0.0153790
742.715	0.0153951
742.793	0.0154014
742.871	0.0154813
742.949	0.0155090
743.028	0.0154924
743.106	0.0157082
743.184	0.0157647
743.262	0.0157162
743.340	0.0158384
743.418	0.0156689
743.496	0.0157959
743.574	0.0158912
743.653	0.0157915
743.731	0.0157561
743.809	0.0158624
743.887	0.0157520
743.965	0.0159076
744.043	0.0158304
744.121	0.0159182
744.199	0.0157955
744.278	0.0157879
744.356	0.0157684
744.434	0.0158881
744.512	0.0157040
744.590	0.0157260
744.668	0.0158637
744.746	0.0158043
744.824	0.0157777
744.903	0.0157857
744.981	0.0158411
745.059	0.0159338
745.137	0.0156739
745.215	0.0157994
745.293	0.0158081
745.371	0.0157489
745.449	0.0157869
745.528	0.0158537
745.606	0.0157973
745.684	0.0157433
745.762	0.0156879
745.840	0.0157305
745.918	0.0156908
745.996	0.0155128
746.074	0.0154613
746.153	0.0157116
746.231	0.0154489
746.309	0.0153539
746.387	0.0152532
746.465	0.0151931
746.543	0.0152287
746.621	0.0151958
746.699	0.0151820
746.778	0.0151321
746.856	0.0151157
746.934	0.0151276
747.012	0.0150957
747.090	0.0150062
747.168	0.0150621
747.246	0.0152516
747.324	0.0151666
747.403	0.0152301
747.481	0.0152863
747.559	0.0153998
747.637	0.0154118
747.715	0.0153790
747.793	0.0153767
747.871	0.0153467
747.949	0.0152604
748.028	0.0153722
748.106	0.0154630
748.184	0.0153011
748.262	0.0152757
748.340	0.0151443
748.418	0.0152911
748.496	0.0152756
748.574	0.0153666
748.653	0.0152361
748.731	0.0150568
748.809	0.0151412
748.887	0.0150957
748.965	0.0150969
749.043	0.0150806
749.121	0.0150079
749.199	0.0150891
749.278	0.0150744
749.356	0.0150341
749.434	0.0149595
749.512	0.0150285
749.590	0.0150237
749.668	0.0149928
749.746	0.0150191
749.824	0.0151533
749.903	0.0151131
749.981	0.0151722
750.059	0.0151814
750.137	0.0151700
750.215	0.0151476
750.293	0.0151361
750.371	0.0151711
750.449	0.0153225
750.528	0.0153460
750.606	0.0153090
750.684	0.0153107
750.762	0.0152769
750.840	0.0154832
750.918	0.0152536
750.996	0.0152713
751.074	0.0152386
751.153	0.0151717
751.231	0.0152114
751.309	0.0152647
751.387	0.0153249
751.465	0.0151098
751.543	0.0150586
751.621	0.0151105
751.699	0.0152468
751.778	0.0152658
751.856	0.0152444
751.934	0.0152493
752.012	0.0151734
752.090	0.0152944
752.168	0.0151311
752.246	0.0151665
752.324	0.0152682
752.403	0.0152907
752.481	0.0153026
752.559	0.0153382
752.637	0.0153296
752.715	0.0152792
752.793	0.0152804
752.871	0.0152911
752.949	0.0153111
753.028	0.0152739
753.106	0.0153001
753.184	0.0154701
753.262	0.0153180
753.340	0.0154277
753.418	0.0154134
753.496	0.0153580
753.574	0.0154964
753.653	0.0154262
753.731	0.0155129
753.809	0.0155934
753.887	0.0157121
753.965	0.0155876
754.043	0.0157442
754.121	0.0157625
754.199	0.0155747
754.278	0.0157830
754.356	0.0157261
754.434	0.0155392
754.512	0.0155347
754.590	0.0156429
754.668	0.0155482
754.746	0.0154220
754.824	0.0153191
754.903	0.0155972
754.981	0.0155451
755.059	0.0154751
755.137	0.0155114
755.215	0.0154344
755.293	0.0155202
755.371	0.0155405
755.449	0.0155223
755.528	0.0155641
755.606	0.0157078
755.684	0.0156368
755.762	0.0156301
755.840	0.0155020
755.918	0.0156142
755.996	0.0156977
756.074	0.0154813
756.153	0.0155700
756.231	0.0156535
756.309	0.0154935
756.387	0.0156635
756.465	0.0154070
756.543	0.0153642
756.621	0.0153342
756.699	0.0154294
756.778	0.0154236
756.856	0.0154940
756.934	0.0154370
757.012	0.0155093
757.090	0.0154632
757.168	0.0154773
757.246	0.0154391
757.324	0.0154874
757.403	0.0153864
757.481	0.0154759
757.559	0.0152964
757.637	0.0154472
757.715	0.0154225
757.793	0.0152355
757.871	0.0152093
757.949	0.0151951
758.028	0.0152872
758.106	0.0151231
758.184	0.0151808
758.262	0.0151599
758.340	0.0152724
758.418	0.0152527
758.496	0.0151452
758.574	0.0152647
758.653	0.0152354
758.731	0.0152265
758.809	0.0153301
758.887	0.0153753
758.965	0.0151517
759.043	0.0153380
759.121	0.0153047
759.199	0.0152345
759.278	0.0151820
759.356	0.0152786
759.434	0.0154072
759.512	0.0153383
759.590	0.0152269
759.668	0.0152932
759.746	0.0152879
759.824	0.0151874
759.903	0.0152076
759.981	0.0152221
760.059	0.0151707
760.137	0.0152380
760.215	0.0152787
760.293	0.0152830
760.371	0.0151120
760.449	0.0151700
760.528	0.0152385
760.606	0.0152211
760.684	0.0153192
760.762	0.0151835
760.840	0.0151335
760.918	0.0152768
760.996	0.0153376
761.074	0.0152572
761.153	0.0151670
761.231	0.0153278
761.309	0.0154047
761.387	0.0153590
761.465	0.0153490
761.543	0.0152959
761.621	0.0153490
761.699	0.0154993
761.778	0.0153062
761.856	0.0153834
761.934	0.0154544
762.012	0.0155588
762.090	0.0154752
762.168	0.0153937
762.246	0.0154541
762.324	0.0154035
762.403	0.0154805
762.481	0.0152951
762.559	0.0153783
762.637	0.0154293
762.715	0.0152781
762.793	0.0152644
762.871	0.0152928
762.949	0.0152450
763.028	0.0151693
763.106	0.0151685
763.184	0.0152448
763.262	0.0152168
763.340	0.0152074
763.418	0.0153961
763.496	0.0153070
763.574	0.0153878
763.653	0.0153136
763.731	0.0153960
763.809	0.0155922
763.887	0.0154969
763.965	0.0155617
764.043	0.0155758
764.121	0.0155440
764.199	0.0156987
764.278	0.0157541
764.356	0.0158597
764.434	0.0157813
764.512	0.0156622
764.590	0.0156950
764.668	0.0158656
764.746	0.0158228
764.824	0.0157719
764.903	0.0157896
764.981	0.0157838
765.059	0.0158415
765.137	0.0157465
765.215	0.0157422
765.293	0.0157580
765.371	0.0157240
765.449	0.0157673
765.528	0.0157381
765.606	0.0156712
765.684	0.0156245
765.762	0.0155989
765.840	0.0156826
765.918	0.0154777
765.996	0.0156490
766.074	0.0155779
766.153	0.0154663
766.231	0.0156525
766.309	0.0155655
766.387	0.0155497
766.465	0.0156501
766.543	0.0157327
766.621	0.0155267
766.699	0.0155653
766.778	0.0155717
766.856	0.0155854
766.934	0.0155630
767.012	0.0153874
767.090	0.0154496
767.168	0.0153535
767.246	0.0152803
767.324	0.0152652
767.403	0.0152609
767.481	0.0151344
767.559	0.0151874
767.637	0.0151213
767.715	0.0150160
767.793	0.0152201
767.871	0.0151617
767.949	0.0152220
768.028	0.0152106
768.106	0.0152406
768.184	0.0152350
768.262	0.0152674
768.340	0.0153035
768.418	0.0153933
768.496	0.0153405
768.574	0.0152605
768.653	0.0153433
768.731	0.0154049
768.809	0.0156232
768.887	0.0156631
768.965	0.0154591
769.043	0.0155212
769.121	0.0155880
769.199	0.0156441
769.278	0.0155914
769.356	0.0154990
769.434	0.0154023
769.512	0.0153995
769.590	0.0154448
769.668	0.0154252
769.746	0.0154483
769.824	0.0153961
769.903	0.0154759
769.981	0.0153388
770.059	0.0153675
770.137	0.0153942
770.215	0.0153393
770.293	0.0153449
770.371	0.0153991
770.449	0.0154044
770.528	0.0154073
770.606	0.0154531
770.684	0.0153773
770.762	0.0151440
770.840	0.0152570
770.918	0.0152766
770.996	0.0151908
771.074	0.0153014
771.153	0.0151921
771.231	0.0152395
771.309	0.0151785
771.387	0.0152072
771.465	0.0151519
771.543	0.0151458
771.621	0.0152148
771.699	0.0152843
771.778	0.0150921
771.856	0.0151778
771.934	0.0151060
772.012	0.0152247
772.090	0.0151476
772.168	0.0149968
772.246	0.0151466
772.324	0.0151731
772.403	0.0150212
772.481	0.0150028
772.559	0.0148434
772.637	0.0149149
772.715	0.0149347
772.793	0.0150102
772.871	0.0148772
772.949	0.0149257
773.028	0.0150574
773.106	0.0148669
773.184	0.0150290
773.262	0.0151740
773.340	0.0149232
773.418	0.0150730
773.496	0.0151979
773.574	0.0152381
773.653	0.0152208
773.731	0.0151467
773.809	0.0153210
773.887	0.0153127
773.965	0.0152337
774.043	0.0151915
774.121	0.0152808
774.199	0.0153510
774.278	0.0153368
774.356	0.0155077
774.434	0.0154950
774.512	0.0154695
774.590	0.0153510
774.668	0.0155914
774.746	0.0155746
774.824	0.0155236
774.903	0.0156133
774.981	0.0157059
775.059	0.0157533
775.137	0.0155997
775.215	0.0156560
775.293	0.0155054
775.371	0.0158193
775.449	0.0157824
775.528	0.0157173
775.606	0.0157452
775.684	0.0158563
775.762	0.0156535
775.840	0.0156075
775.918	0.0156248
775.996	0.0157651
776.074	0.0157986
776.153	0.0158159
776.231	0.0157754
776.309	0.0157694
776.387	0.0155750
776.465	0.0156802
776.543	0.0158006
776.621	0.0159209
776.699	0.0157455
776.778	0.0158952
776.856	0.0158327
776.934	0.0158272
777.012	0.0157202
777.090	0.0158598
777.168	0.0158241
777.246	0.0158815
777.324	0.0158286
777.403	0.0159332
777.481	0.0160723
777.559	0.0159752
777.637	0.0160842
777.715	0.0159885
777.793	0.0158118
777.871	0.0159745
777.949	0.0158321
778.028	0.0157468
778.106	0.0158570
778.184	0.0157022
778.262	0.0157290
778.340	0.0156467
778.418	0.0155864
778.496	0.0156290
778.574	0.0155123
778.653	0.0155396
778.731	0.0154724
778.809	0.0154350
778.887	0.0153018
778.965	0.0152181
779.043	0.0151738
779.121	0.0152077
779.199	0.0152296
779.278	0.0151839
779.356	0.0151894
779.434	0.0151405
779.512	0.0151862
779.590	0.0152271
779.668	0.0151517
779.746	0.0151723
779.824	0.0151947
779.903	0.0152396
779.981	0.0151801
780.059	0.0151150
780.137	0.0152414
780.215	0.0151898
780.293	0.0152142
780.371	0.0152212
780.449	0.0152594
780.528	0.0152869
780.606	0.0152240
780.684	0.0153258
780.762	0.0152885
780.840	0.0151856
780.918	0.0153279
780.996	0.0151875
781.074	0.0151771
781.153	0.0153090
781.231	0.0152502
781.309	0.0150626
781.387	0.0151444
781.465	0.0151953
781.543	0.0150109
781.621	0.0151183
781.699	0.0150341
781.778	0.0152547
781.856	0.0152653
781.934	0.0152026
782.012	0.0151758
782.090	0.0151513
782.168	0.0151435
782.246	0.0150836
782.324	0.0152125
782.403	0.0152288
782.481	0.0151726
782.559	0.0153662
782.637	0.0152905
782.715	0.0152026
782.793	0.0152175
782.871	0.0152393
782.949	0.0154324
783.028	0.0153024
783.106	0.0152213
783.184	0.0153796
783.262	0.0153847
783.340	0.0153796
783.418	0.0154360
783.496	0.0154593
783.574	0.0154306
783.653	0.0153884
783.731	0.0155689
783.809	0.0155311
783.887	0.0155534
783.965	0.0155834
784.043	0.0155925
784.121	0.0155347
784.199	0.0155513
784.278	0.0154537
784.356	0.0155681
784.434	0.0156464
784.512	0.0156252
784.590	0.0157272
784.668	0.0156200
784.746	0.0154836
784.824	0.0156949
784.903	0.0155618
784.981	0.0155472
785.059	0.0155566
785.137	0.0154638
785.215	0.0153971
785.293	0.0157129
785.371	0.0156384
785.449	0.0156348
785.528	0.0155858
785.606	0.0155828
785.684	0.0156894
785.762	0.0158037
785.840	0.0157676
785.918	0.0157048
785.996	0.0157777
786.074	0.0158910
786.153	0.0159325
786.231	0.0159839
786.309	0.0160590
786.387	0.0160787
786.465	0.0158990
786.543	0.0158591
786.621	0.0161402
786.699	0.0160445
786.778	0.0159118
786.856	0.0159650
786.934	0.0158904
787.012	0.0159022
787.090	0.0159051
787.168	0.0158636
787.246	0.0159724
787.324	0.0158636
787.403	0.0158784
787.481	0.0157854
787.559	0.0160206
787.637	0.0158984
787.715	0.0158138
787.793	0.0159204
787.871	0.0158648
787.949	0.0159283
788.028	0.0158524
788.106	0.0157839
788.184	0.0157395
788.262	0.0157194
788.340	0.0157030
788.418	0.0157855
788.496	0.0156838
788.574	0.0155527
788.653	0.0155609
788.731	0.0155236
788.809	0.0155809
788.887	0.0155933
788.965	0.0155563
789.043	0.0155621
789.121	0.0154708
789.199	0.0156010
789.278	0.0153407
789.356	0.0154230
789.434	0.0154566
789.512	0.0154363
789.590	0.0153558
789.668	0.0154569
789.746	0.0154058
789.824	0.0153761
789.903	0.0154879
789.981	0.0155309
790.059	0.0155376
790.137	0.0153127
790.215	0.0154910
790.293	0.0153716
790.371	0.0154528
790.449	0.0153428
790.528	0.0153445
790.606	0.0154507
790.684	0.0153764
790.762	0.0151765
790.840	0.0153472
790.918	0.0152100
790.996	0.0152641
791.074	0.0151859
791.153	0.0152805
791.231	0.0152630
791.309	0.0151348
791.387	0.0151358
791.465	0.0152300
791.543	0.0153181
791.621	0.0152480
791.699	0.0151144
791.778	0.0151919
791.856	0.0152467
791.934	0.0153000
792.012	0.0152441
792.090	0.0153487
792.168	0.0152025
792.246	0.0151972
792.324	0.0152057
792.403	0.0152710
792.481	0.0151563
792.559	0.0150807
792.637	0.0151398
792.715	0.0152492
792.793	0.0151901
792.871	0.0152355
792.949	0.0151744
793.028	0.0151292
793.106	0.0152032
793.184	0.0150927
793.262	0.0150623
793.340	0.0151003
793.418	0.0151467
793.496	0.0150691
793.574	0.0150040
793.653	0.0151656
793.731	0.0150962
793.809	0.0150120
793.887	0.0149901
793.965	0.0151296
794.043	0.0149897
794.121	0.0149037
794.199	0.0149047
794.278	0.0149732
794.356	0.0148616
794.434	0.0150316
794.512	0.0149940
794.590	0.0149408
794.668	0.0148629
794.746	0.0149157
794.824	0.0148431
794.903	0.0148263
794.981	0.0149459
795.059	0.0149503
795.137	0.0148817
795.215	0.0147799
795.293	0.0149287
795.371	0.0149453
795.449	0.0149760
795.528	0.0150874
795.606	0.0150690
795.684	0.0151157
795.762	0.0152156
795.840	0.0150666
795.918	0.0151979
795.996	0.0153411
796.074	0.0152898
796.153	0.0154124
796.231	0.0154040
796.309	0.0154581
796.387	0.0155074
796.465	0.0156749
796.543	0.0156423
796.621	0.0157027
796.699	0.0156651
796.778	0.0155305
796.856	0.0155897
796.934	0.0158198
797.012	0.0157569
797.090	0.0157842
797.168	0.0156926
797.246	0.0156510
797.324	0.0158608
797.403	0.0157101
797.481	0.0158185
797.559	0.0158347
797.637	0.0158008
797.715	0.0158452
797.793	0.0159075
797.871	0.0158069
797.949	0.0158159
798.028	0.0157939
798.106	0.0157424
798.184	0.0157652
798.262	0.0158156
798.340	0.0157219
798.418	0.0156222
798.496	0.0157157
798.574	0.0157643
798.653	0.0157687
798.731	0.0155090
798.809	0.0155946
798.887	0.0156342
798.965	0.0156651
799.043	0.0155376
799.121	0.0155923
799.199	0.0155510
799.278	0.0156882
799.356	0.0155219
799.434	0.0156200
799.512	0.0156396
799.590	0.0155360
799.668	0.0156008
799.746	0.0155811
799.824	0.0156090
799.903	0.0156087
799.981	0.0157160
800.059	0.0158435
800.137	0.0157914
800.215	0.0156760
800.293	0.0155918
800.371	0.0156393
800.449	0.0156120
800.528	0.0158070
800.606	0.0155723
800.684	0.0156812
800.762	0.0157167
800.840	0.0155905
800.918	0.0155301
800.996	0.0155376
801.074	0.0154948
801.153	0.0154182
801.231	0.0155000
801.309	0.0156685
801.387	0.0153659
801.465	0.0152935
801.543	0.0154005
801.621	0.0153768
801.699	0.0153425
801.778	0.0153638
801.856	0.0153577
801.934	0.0153113
802.012	0.0153185
802.090	0.0153048
802.168	0.0153022
802.246	0.0151821
802.324	0.0154021
802.403	0.0152726
802.481	0.0152470
802.559	0.0152942
802.637	0.0154716
802.715	0.0153441
802.793	0.0152673
802.871	0.0154653
802.949	0.0153428
803.028	0.0154121
803.106	0.0155321
803.184	0.0153372
803.262	0.0153846
803.340	0.0154657
803.418	0.0154356
803.496	0.0154600
803.574	0.0152850
803.653	0.0154276
803.731	0.0154031
803.809	0.0153832
803.887	0.0154024
803.965	0.0154678
804.043	0.0154174
804.121	0.0154976
804.199	0.0153435
804.278	0.0154707
804.356	0.0154465
804.434	0.0155684
804.512	0.0155322
804.590	0.0154812
804.668	0.0155738
804.746	0.0156152
804.824	0.0155077
804.903	0.0155845
804.981	0.0156597
805.059	0.0156783
805.137	0.0157138
805.215	0.0157019
805.293	0.0158487
805.371	0.0159887
805.449	0.0158598
805.528	0.0158723
805.606	0.0160174
805.684	0.0158474
805.762	0.0160371
805.840	0.0159457
805.918	0.0158673
805.996	0.0160537
806.074	0.0158413
806.153	0.0158228
806.231	0.0158959
806.309	0.0159431
806.387	0.0157711
806.465	0.0157326
806.543	0.0156227
806.621	0.0155639
806.699	0.0155849
806.778	0.0156049
806.856	0.0154899
806.934	0.0155318
807.012	0.0155457
807.090	0.0155659
807.168	0.0154970
807.246	0.0153996
807.324	0.0154434
807.403	0.0155663
807.481	0.0154558
807.559	0.0153912
807.637	0.0154318
807.715	0.0154227
807.793	0.0155405
807.871	0.0154408
807.949	0.0151910
808.028	0.0154861
808.106	0.0155366
808.184	0.0154501
808.262	0.0154490
808.340	0.0155785
808.418	0.0154517
808.496	0.0156683
808.574	0.0156070
808.653	0.0156071
808.731	0.0156738
808.809	0.0158689
808.887	0.0156672
808.965	0.0155422
809.043	0.0156512
809.121	0.0156712
809.199	0.0157327
809.278	0.0159304
809.356	0.0156612
809.434	0.0156830
809.512	0.0156187
809.590	0.0157195
809.668	0.0156109
809.746	0.0157446
809.824	0.0154729
809.903	0.0153860
809.981	0.0154322
810.059	0.0152501
810.137	0.0154137
810.215	0.0153236
810.293	0.0152573
810.371	0.0153563
810.449	0.0152065
810.528	0.0152708
810.606	0.0152671
810.684	0.0153810
810.762	0.0152366
810.840	0.0150893
810.918	0.0151989
810.996	0.0149937
811.074	0.0149558
811.153	0.0151577
811.231	0.0149959
811.309	0.0150082
811.387	0.0149848
811.465	0.0151173
811.543	0.0150681
811.621	0.0149787
811.699	0.0149343
811.778	0.0149232
811.856	0.0148700
811.934	0.0146636
812.012	0.0147718
812.090	0.0148653
812.168	0.0148433
812.246	0.0147462
812.324	0.0149311
812.403	0.0148415
812.481	0.0149300
812.559	0.0150245
812.637	0.0148109
812.715	0.0149312
812.793	0.0150969
812.871	0.0149622
812.949	0.0149358
813.028	0.0150460
813.106	0.0153105
813.184	0.0150269
813.262	0.0151299
813.340	0.0150444
813.418	0.0151431
813.496	0.0152321
813.574	0.0152540
813.653	0.0152530
813.731	0.0152905
813.809	0.0152975
813.887	0.0152301
813.965	0.0151205
814.043	0.0151884
814.121	0.0152459
814.199	0.0153505
814.278	0.0152088
814.356	0.0153561
814.434	0.0153394
814.512	0.0152892
814.590	0.0152737
814.668	0.0152586
814.746	0.0152643
814.824	0.0152922
814.903	0.0153172
814.981	0.0153896
815.059	0.0152338
815.137	0.0152658
815.215	0.0152754
815.293	0.0153980
815.371	0.0154088
815.449	0.0153371
815.528	0.0154294
815.606	0.0154738
815.684	0.0155739
815.762	0.0154602
815.840	0.0152570
815.918	0.0154616
815.996	0.0153992
816.074	0.0153363
816.153	0.0152652
816.231	0.0152658
816.309	0.0152075
816.387	0.0151459
816.465	0.0150173
816.543	0.0151549
816.621	0.0151255
816.699	0.0149536
816.778	0.0149432
816.856	0.0149165
816.934	0.0151080
817.012	0.0150720
817.090	0.0151200
817.168	0.0149903
817.246	0.0150056
817.324	0.0153714
817.403	0.0153141
817.481	0.0151546
817.559	0.0153042
817.637	0.0155202
817.715	0.0154211
817.793	0.0152897
817.871	0.0155099
817.949	0.0154885
818.028	0.0153563
818.106	0.0153219
818.184	0.0153254
818.262	0.0152022
818.340	0.0152760
818.418	0.0150708
818.496	0.0149507
818.574	0.0149419
818.653	0.0149610
818.731	0.0149986
818.809	0.0150208
818.887	0.0147897
818.965	0.0148652
819.043	0.0148456
819.121	0.0149172
819.199	0.0149865
819.278	0.0150818
819.356	0.0151099
819.434	0.0151389
819.512	0.0152387
819.590	0.0152576
819.668	0.0153881
819.746	0.0152974
819.824	0.0154015
819.903	0.0155221
819.981	0.0155687
820.059	0.0156259
820.137	0.0157153
820.215	0.0155632
820.293	0.0155683
820.371	0.0158583
820.449	0.0156956
820.528	0.0158070
820.606	0.0158032
820.684	0.0156886
820.762	0.0156954
820.840	0.0157841
820.918	0.0155178
820.996	0.0154757
821.074	0.0154468
821.153	0.0154386
821.231	0.0153802
821.309	0.0152145
821.387	0.0151469
821.465	0.0153458
821.543	0.0153189
821.621	0.0152876
821.699	0.0152173
821.778	0.0152223
821.856	0.0152898
821.934	0.0153534
822.012	0.0153879
822.090	0.0153904
822.168	0.0153716
822.246	0.0153348
822.324	0.0153352
822.403	0.0153737
822.481	0.0154250
822.559	0.0153213
822.637	0.0151616
822.715	0.0153728
822.793	0.0152827
822.871	0.0153014
822.949	0.0152434
823.028	0.0152260
823.106	0.0153563
823.184	0.0151953
823.262	0.0151673
823.340	0.0150162
823.418	0.0150660
823.496	0.0150414
823.574	0.0150623
823.653	0.0151992
823.731	0.0151756
823.809	0.0151408
823.887	0.0149918
823.965	0.0150967
824.043	0.0151501
824.121	0.0151466
824.199	0.0151966
824.278	0.0152006
824.356	0.0151218
824.434	0.0153387
824.512	0.0152964
824.590	0.0153070
824.668	0.0153137
824.746	0.0155174
824.824	0.0155431
824.903	0.0154320
824.981	0.0154182
825.059	0.0154201
825.137	0.0154653
825.215	0.0154093
825.293	0.0153555
825.371	0.0154938
825.449	0.0154893
825.528	0.0155464
825.606	0.0154231
825.684	0.0152959
825.762	0.0153481
825.840	0.0154848
825.918	0.0154509
825.996	0.0153199
826.074	0.0151595
826.153	0.0154951
826.231	0.0153897
826.309	0.0153236
826.387	0.0152423
826.465	0.0152973
826.543	0.0152480
826.621	0.0152416
826.699	0.0153201
826.778	0.0151987
826.856	0.0152265
826.934	0.0153531
827.012	0.0151378
827.090	0.0152036
827.168	0.0153535
827.246	0.0153145
827.324	0.0152155
827.403	0.0154301
827.481	0.0153212
827.559	0.0152817
827.637	0.0153451
827.715	0.0154572
827.793	0.0154057
827.871	0.0154743
827.949	0.0153918
828.028	0.0154668
828.106	0.0153174
828.184	0.0154105
828.262	0.0153371
828.340	0.0152722
828.418	0.0153706
828.496	0.0153528
828.574	0.0154220
828.653	0.0154977
828.731	0.0153725
828.809	0.0152269
828.887	0.0153098
828.965	0.0152973
829.043	0.0152128
829.121	0.0152055
829.199	0.0152594
829.278	0.0152198
829.356	0.0150161
829.434	0.0151325
829.512	0.0150185
829.590	0.0151661
829.668	0.0152353
829.746	0.0152312
829.824	0.0151249
829.903	0.0151402
829.981	0.0149244
830.059	0.0150205
830.137	0.0150066
830.215	0.0149586
830.293	0.0150352
830.371	0.0148795
830.449	0.0149152
830.528	0.0149780
830.606	0.0148720
830.684	0.0149100
830.762	0.0149697
830.840	0.0148428
830.918	0.0149324
830.996	0.0150079
831.074	0.0150149
831.153	0.0151817
831.231	0.0150808
831.309	0.0152699
831.387	0.0152417
831.465	0.0151768
831.543	0.0150674
831.621	0.0152378
831.699	0.0153323
831.778	0.0152950
831.856	0.0151732
831.934	0.0151482
832.012	0.0152560
832.090	0.0153702
832.168	0.0151959
832.246	0.0152865
832.324	0.0153551
832.403	0.0153497
832.481	0.0154246
832.559	0.0153718
832.637	0.0154387
832.715	0.0154742
832.793	0.0155698
832.871	0.0155257
832.949	0.0154232
833.028	0.0155406
833.106	0.0155901
833.184	0.0154684
833.262	0.0153100
833.340	0.0153207
833.418	0.0154437
833.496	0.0153516
833.574	0.0153106
833.653	0.0152071
833.731	0.0151080
833.809	0.0152229
833.887	0.0151574
833.965	0.0150923
834.043	0.0150535
834.121	0.0152760
834.199	0.0150758
834.278	0.0150460
834.356	0.0150849
834.434	0.0152192
834.512	0.0151363
834.590	0.0150748
834.668	0.0151964
834.746	0.0151403
834.824	0.0152416
834.903	0.0154500
834.981	0.0154370
835.059	0.0153850
835.137	0.0152888
835.215	0.0153017
835.293	0.0153998
835.371	0.0153220
835.449	0.0153207
835.528	0.0152207
835.606	0.0152248
835.684	0.0153842
835.762	0.0152661
835.840	0.0153234
835.918	0.0152889
835.996	0.0152908
836.074	0.0151009
836.153	0.0151314
836.231	0.0150991
836.309	0.0150736
836.387	0.0151874
836.465	0.0151078
836.543	0.0150723
836.621	0.0149599
836.699	0.0148548
836.778	0.0149697
836.856	0.0148119
836.934	0.0149270
837.012	0.0148714
837.090	0.0148708
837.168	0.0149325
837.246	0.0148022
837.324	0.0148464
837.403	0.0147675
837.481	0.0147126
837.559	0.0147664
837.637	0.0148672
837.715	0.0148481
837.793	0.0148193
837.871	0.0149509
837.949	0.0149823
838.028	0.0149794
838.106	0.0150076
838.184	0.0150182
838.262	0.0150836
838.340	0.0152202
838.418	0.0152764
838.496	0.0152177
838.574	0.0152478
838.653	0.0153183
838.731	0.0152297
838.809	0.0152784
838.887	0.0151927
838.965	0.0153323
839.043	0.0153784
839.121	0.0152055
839.199	0.0151003
839.278	0.0152397
839.356	0.0151978
839.434	0.0150583
839.512	0.0150690
839.590	0.0152262
839.668	0.0151879
839.746	0.0150804
839.824	0.0151417
839.903	0.0150831
839.981	0.0150037
840.059	0.0149545
840.137	0.0150638
840.215	0.0151486
840.293	0.0149391
840.371	0.0149362
840.449	0.0152535
840.528	0.0150778
840.606	0.0152214
840.684	0.0151491
840.762	0.0150726
840.840	0.0151875
840.918	0.0152020
840.996	0.0152773
841.074	0.0152884
841.153	0.0152578
841.231	0.0152428
841.309	0.0153239
841.387	0.0153635
841.465	0.0152464
841.543	0.0152969
841.621	0.0153247
841.699	0.0153516
841.778	0.0153515
841.856	0.0152008
841.934	0.0154298
842.012	0.0154349
842.090	0.0153423
842.168	0.0153571
842.246	0.0153337
842.324	0.0153374
842.403	0.0152691
842.481	0.0153176
842.559	0.0153249
842.637	0.0151987
842.715	0.0153352
842.793	0.0152549
842.871	0.0153018
842.949	0.0153791
843.028	0.0153345
843.106	0.0153923
843.184	0.0154048
843.262	0.0155421
843.340	0.0154720
843.418	0.0154594
843.496	0.0153916
843.574	0.0155364
843.653	0.0155475
843.731	0.0155193
843.809	0.0155706
843.887	0.0156088
843.965	0.0155029
844.043	0.0153974
844.121	0.0154902
844.199	0.0153825
844.278	0.0152935
844.356	0.0154567
844.434	0.0153166
844.512	0.0153149
844.590	0.0153218
844.668	0.0153917
844.746	0.0151848
844.824	0.0152702
844.903	0.0151007
844.981	0.0152345
845.059	0.0150936
845.137	0.0150645
845.215	0.0150677
845.293	0.0152959
845.371	0.0152134
845.449	0.0150868
845.528	0.0151527
845.606	0.0150150
845.684	0.0152754
845.762	0.0152188
845.840	0.0152750
845.918	0.0152973
845.996	0.0154185
846.074	0.0153159
846.153	0.0152769
846.231	0.0153719
846.309	0.0153225
846.387	0.0153929
846.465	0.0154433
846.543	0.0153913
846.621	0.0154244
846.699	0.0153262
846.778	0.0153058
846.856	0.0151357
846.934	0.0150906
847.012	0.0153006
847.090	0.0151698
847.168	0.0151578
847.246	0.0149989
847.324	0.0152180
847.403	0.0150771
847.481	0.0150991
847.559	0.0151850
847.637	0.0151849
847.715	0.0153694
847.793	0.0152016
847.871	0.0151489
847.949	0.0151421
848.028	0.0152700
848.106	0.0151588
848.184	0.0151229
848.262	0.0153542
848.340	0.0151085
848.418	0.0152108
848.496	0.0152245
848.574	0.0152042
848.653	0.0152408
848.731	0.0151704
848.809	0.0151490
848.887	0.0152894
848.965	0.0152536
849.043	0.0153259
849.121	0.0153091
849.199	0.0153483
849.278	0.0151630
849.356	0.0152834
849.434	0.0153681
849.512	0.0152530
849.590	0.0152982
849.668	0.0153206
849.746	0.0153136
849.824	0.0152695
849.903	0.0153601
849.981	0.0152885
850.059	0.0152137
850.137	0.0152714
850.215	0.0153342
850.293	0.0153465
850.371	0.0154844
850.449	0.0155988
850.528	0.0155064
850.606	0.0154510
850.684	0.0155956
850.762	0.0156170
850.840	0.0155272
850.918	0.0156071
850.996	0.0155941
851.074	0.0156585
851.153	0.0158214
851.231	0.0158194
851.309	0.0157838
851.387	0.0157681
851.465	0.0156021
851.543	0.0157079
851.621	0.0155663
851.699	0.0155903
851.778	0.0154988
851.856	0.0154309
851.934	0.0154177
852.012	0.0154527
852.090	0.0154914
852.168	0.0154001
852.246	0.0153282
852.324	0.0152679
852.403	0.0154745
852.481	0.0154468
852.559	0.0153028
852.637	0.0153689
852.715	0.0153689
852.793	0.0155379
852.871	0.0154263
852.949	0.0153766
853.028	0.0155109
853.106	0.0155336
853.184	0.0154120
853.262	0.0154720
853.340	0.0155082
853.418	0.0154899
853.496	0.0154990
853.574	0.0153696
853.653	0.0156596
853.731	0.0154366
853.809	0.0152943
853.887	0.0152700
853.965	0.0154335
854.043	0.0152924
854.121	0.0153319
854.199	0.0153153
854.278	0.0153305
854.356	0.0152636
854.434	0.0152608
854.512	0.0151810
854.590	0.0153584
854.668	0.0153357
854.746	0.0151598
854.824	0.0153280
854.903	0.0151656
854.981	0.0152061
855.059	0.0153284
855.137	0.0150803
855.215	0.0152124
855.293	0.0152937
855.371	0.0152370
855.449	0.0151094
855.528	0.0153171
855.606	0.0151290
855.684	0.0151921
855.762	0.0151438
855.840	0.0151659
855.918	0.0151649
855.996	0.0151442
856.074	0.0151066
856.153	0.0149656
856.231	0.0149986
856.309	0.0150450
856.387	0.0151189
856.465	0.0150801
856.543	0.0150647
856.621	0.0150122
856.699	0.0150031
856.778	0.0150479
856.856	0.0150499
856.934	0.0150397
857.012	0.0151882
857.090	0.0151096
857.168	0.0151458
857.246	0.0150952
857.324	0.0152212
857.403	0.0152823
857.481	0.0152599
857.559	0.0152449
857.637	0.0152731
857.715	0.0152855
857.793	0.0152599
857.871	0.0151176
857.949	0.0153525
858.028	0.0151908
858.106	0.0152447
858.184	0.0152450
858.262	0.0152568
858.340	0.0152663
858.418	0.0152287
858.496	0.0151460
858.574	0.0152614
858.653	0.0152862
858.731	0.0153422
858.809	0.0153384
858.887	0.0153766
858.965	0.0154406
859.043	0.0154458
859.121	0.0154700
859.199	0.0154346
859.278	0.0155044
859.356	0.0154900
859.434	0.0155495
859.512	0.0155824
859.590	0.0156573
859.668	0.0155676
859.746	0.0156995
859.824	0.0156222
859.903	0.0155502
859.981	0.0154500
860.059	0.0155476
860.137	0.0156386
860.215	0.0156003
860.293	0.0157027
860.371	0.0156462
860.449	0.0155880
860.528	0.0155579
860.606	0.0156583
860.684	0.0157453
860.762	0.0156381
860.840	0.0157766
860.918	0.0156600
860.996	0.0156997
861.074	0.0157285
861.153	0.0156363
861.231	0.0156426
861.309	0.0156564
861.387	0.0155633
861.465	0.0155782
861.543	0.0155688
861.621	0.0156680
861.699	0.0154667
861.778	0.0154748
861.856	0.0156181
861.934	0.0156655
862.012	0.0155987
862.090	0.0155727
862.168	0.0156654
862.246	0.0156191
862.324	0.0155719
862.403	0.0155593
862.481	0.0156982
862.559	0.0155926
862.637	0.0156493
862.715	0.0156866
862.793	0.0155674
862.871	0.0155573
862.949	0.0155913
863.028	0.0155348
863.106	0.0155028
863.184	0.0154584
863.262	0.0156777
863.340	0.0155471
863.418	0.0154847
863.496	0.0156503
863.574	0.0154922
863.653	0.0156146
863.731	0.0155014
863.809	0.0153291
863.887	0.0155952
863.965	0.0155392
864.043	0.0155793
864.121	0.0155122
864.199	0.0157073
864.278	0.0155682
864.356	0.0154066
864.434	0.0156328
864.512	0.0155900
864.590	0.0154382
864.668	0.0155507
864.746	0.0154924
864.824	0.0155484
864.903	0.0155207
864.981	0.0154382
865.059	0.0153729
865.137	0.0155737
865.215	0.0154769
865.293	0.0154257
865.371	0.0154488
865.449	0.0155946
865.528	0.0155106
865.606	0.0155396
865.684	0.0156139
865.762	0.0155502
865.840	0.0155193
865.918	0.0157076
865.996	0.0154609
866.074	0.0154828
866.153	0.0155067
866.231	0.0153448
866.309	0.0154752
866.387	0.0154793
866.465	0.0154224
866.543	0.0153584
866.621	0.0154987
866.699	0.0154862
866.778	0.0155054
866.856	0.0152653
866.934	0.0153577
867.012	0.0155215
867.090	0.0155358
867.168	0.0156241
867.246	0.0156637
867.324	0.0156721
867.403	0.0157655
867.481	0.0156289
867.559	0.0157751
867.637	0.0158909
867.715	0.0157247
867.793	0.0157591
867.871	0.0158477
867.949	0.0159173
868.028	0.0158919
868.106	0.0156863
868.184	0.0156232
868.262	0.0158041
868.340	0.0158851
868.418	0.0157515
868.496	0.0158015
868.574	0.0158204
868.653	0.0156979
868.731	0.0156667
868.809	0.0157095
868.887	0.0156283
868.965	0.0156036
869.043	0.0155736
869.121	0.0155083
869.199	0.0156226
869.278	0.0154441
869.356	0.0155267
869.434	0.0156422
869.512	0.0154968
869.590	0.0154939
869.668	0.0155130
869.746	0.0155008
869.824	0.0154742
869.903	0.0154571
869.981	0.0154980
870.059	0.0156128
870.137	0.0154152
870.215	0.0154461
870.293	0.0155318
870.371	0.0155871
870.449	0.0154940
870.528	0.0155654
870.606	0.0155540
870.684	0.0155155
870.762	0.0155624
870.840	0.0156116
870.918	0.0155800
870.996	0.0156441
871.074	0.0156303
871.153	0.0154854
871.231	0.0156483
871.309	0.0156743
871.387	0.0156696
871.465	0.0156035
871.543	0.0155931
871.621	0.0154978
871.699	0.0155676
871.778	0.0156219
871.856	0.0157008
871.934	0.0155038
872.012	0.0155225
872.090	0.0154482
872.168	0.0155054
872.246	0.0154172
872.324	0.0154209
872.403	0.0154573
872.481	0.0154628
872.559	0.0154726
872.637	0.0153661
872.715	0.0154054
872.793	0.0153587
872.871	0.0154388
872.949	0.0152615
873.028	0.0153703
873.106	0.0154758
873.184	0.0154015
873.262	0.0154904
873.340	0.0154557
873.418	0.0154435
873.496	0.0155251
873.574	0.0154750
873.653	0.0152831
873.731	0.0154106
873.809	0.0154959
873.887	0.0154518
873.965	0.0153407
874.043	0.0154486
874.121	0.0154826
874.199	0.0155331
874.278	0.0153297
874.356	0.0154826
874.434	0.0154879
874.512	0.0154344
874.590	0.0153367
874.668	0.0153519
874.746	0.0154628
874.824	0.0153966
874.903	0.0153693
874.981	0.0152390
875.059	0.0152370
875.137	0.0152747
875.215	0.0154688
875.293	0.0153316
875.371	0.0151846
875.449	0.0149950
875.528	0.0149844
875.606	0.0150330
875.684	0.0151865
875.762	0.0149931
875.840	0.0149274
875.918	0.0150142
875.996	0.0150210
876.074	0.0150723
876.153	0.0149742
876.231	0.0150448
876.309	0.0152084
876.387	0.0152144
876.465	0.0152869
876.543	0.0154091
876.621	0.0155141
876.699	0.0155032
876.778	0.0155041
876.856	0.0157199
876.934	0.0156455
877.012	0.0157097
877.090	0.0157314
877.168	0.0155901
877.246	0.0156194
877.324	0.0157644
877.403	0.0156736
877.481	0.0156868
877.559	0.0155791
877.637	0.0155618
877.715	0.0155879
877.793	0.0154779
877.871	0.0153765
877.949	0.0154140
878.028	0.0155273
878.106	0.0154158
878.184	0.0156273
878.262	0.0156983
878.340	0.0155867
878.418	0.0155290
878.496	0.0159106
878.574	0.0157605
878.653	0.0157846
878.731	0.0157445
878.809	0.0158224
878.887	0.0157358
878.965	0.0157437
879.043	0.0156768
879.121	0.0157668
879.199	0.0157138
879.278	0.0155379
879.356	0.0155171
879.434	0.0155341
879.512	0.0155245
879.590	0.0154805
879.668	0.0154399
879.746	0.0154850
879.824	0.0154218
879.903	0.0153732
