05/28/2022	14:03:35	Ver.	4.1	UNKNOWN
Optical Delay	599.988409	Delta X		0.078125	Sweeps	1	Scan Rate	0/0
Coordinates	Axis 1	NaN	Axis 2	NaN	Axis 3	NaN	Axis 4	NaN	Axis 5	NaN	Axis 6	0.000000
TX Power	0.000000	RX Power	0.000000

599.988	0.0154916
600.067	0.0156143
600.145	0.0154083
600.223	0.0154391
600.301	0.0156085
600.379	0.0156114
600.457	0.0155170
600.535	0.0154982
600.613	0.0155449
600.692	0.0155053
600.770	0.0155342
600.848	0.0155201
600.926	0.0155808
601.004	0.0155279
601.082	0.0155405
601.160	0.0155077
601.238	0.0155652
601.317	0.0155827
601.395	0.0156020
601.473	0.0154483
601.551	0.0154652
601.629	0.0154980
601.707	0.0154942
601.785	0.0152341
601.863	0.0155006
601.942	0.0154897
602.020	0.0155297
602.098	0.0154294
602.176	0.0155059
602.254	0.0155408
602.332	0.0154311
602.410	0.0153915
602.488	0.0155141
602.567	0.0156264
602.645	0.0154675
602.723	0.0153482
602.801	0.0154691
602.879	0.0155138
602.957	0.0154340
603.035	0.0154826
603.113	0.0155960
603.192	0.0154893
603.270	0.0153759
603.348	0.0155131
603.426	0.0155272
603.504	0.0155035
603.582	0.0155481
603.660	0.0154623
603.738	0.0154990
603.817	0.0154398
603.895	0.0155159
603.973	0.0156100
604.051	0.0154861
604.129	0.0154990
604.207	0.0153931
604.285	0.0154659
604.363	0.0154999
604.442	0.0154763
604.520	0.0154752
604.598	0.0154236
604.676	0.0154940
604.754	0.0154939
604.832	0.0154609
604.910	0.0154607
604.988	0.0155433
605.067	0.0154463
605.145	0.0155486
605.223	0.0155257
605.301	0.0154814
605.379	0.0154787
605.457	0.0155437
605.535	0.0155879
605.613	0.0154962
605.692	0.0154751
605.770	0.0153333
605.848	0.0155367
605.926	0.0155725
606.004	0.0155784
606.082	0.0154628
606.160	0.0153346
606.238	0.0155035
606.317	0.0155428
606.395	0.0154453
606.473	0.0155324
606.551	0.0155506
606.629	0.0153848
606.707	0.0156041
606.785	0.0154240
606.863	0.0153760
606.942	0.0155246
607.020	0.0155489
607.098	0.0154698
607.176	0.0154807
607.254	0.0155914
607.332	0.0155653
607.410	0.0155958
607.488	0.0155852
607.567	0.0154062
607.645	0.0154963
607.723	0.0155563
607.801	0.0154876
607.879	0.0154536
607.957	0.0155627
608.035	0.0155776
608.113	0.0154211
608.192	0.0154791
608.270	0.0154372
608.348	0.0154169
608.426	0.0156046
608.504	0.0155235
608.582	0.0155746
608.660	0.0154841
608.738	0.0156681
608.817	0.0155226
608.895	0.0155108
608.973	0.0156158
609.051	0.0155844
609.129	0.0154809
609.207	0.0155875
609.285	0.0154700
609.363	0.0154833
609.442	0.0155092
609.520	0.0156017
609.598	0.0154276
609.676	0.0155045
609.754	0.0154721
609.832	0.0155637
609.910	0.0155453
609.988	0.0154158
610.067	0.0153967
610.145	0.0155785
610.223	0.0155196
610.301	0.0153811
610.379	0.0154438
610.457	0.0154323
610.535	0.0154429
610.613	0.0154359
610.692	0.0155628
610.770	0.0154997
610.848	0.0154597
610.926	0.0155266
611.004	0.0154623
611.082	0.0154186
611.160	0.0154523
611.238	0.0154642
611.317	0.0154256
611.395	0.0156318
611.473	0.0154742
611.551	0.0154732
611.629	0.0154701
611.707	0.0156219
611.785	0.0154984
611.863	0.0154842
611.942	0.0153434
612.020	0.0153890
612.098	0.0156796
612.176	0.0153241
612.254	0.0153719
612.332	0.0154682
612.410	0.0153748
612.488	0.0155608
612.567	0.0155455
612.645	0.0155277
612.723	0.0154053
612.801	0.0154947
612.879	0.0155269
612.957	0.0154963
613.035	0.0154412
613.113	0.0154433
613.192	0.0155260
613.270	0.0152770
613.348	0.0154983
613.426	0.0154858
613.504	0.0154211
613.582	0.0153584
613.660	0.0154291
613.738	0.0154713
613.817	0.0154604
613.895	0.0155051
613.973	0.0154864
614.051	0.0156087
614.129	0.0156114
614.207	0.0154902
614.285	0.0154873
614.363	0.0154091
614.442	0.0155405
614.520	0.0155585
614.598	0.0155280
614.676	0.0155560
614.754	0.0154564
614.832	0.0155414
614.910	0.0154166
614.988	0.0155161
615.067	0.0154684
615.145	0.0154813
615.223	0.0154101
615.301	0.0154259
615.379	0.0155148
615.457	0.0155701
615.535	0.0155749
615.613	0.0154429
615.692	0.0154742
615.770	0.0154291
615.848	0.0154946
615.926	0.0156290
616.004	0.0153483
616.082	0.0154325
616.160	0.0155987
616.238	0.0154845
616.317	0.0154435
616.395	0.0155033
616.473	0.0155196
616.551	0.0154328
616.629	0.0153987
616.707	0.0154961
616.785	0.0154042
616.863	0.0153799
616.942	0.0153794
617.020	0.0156052
617.098	0.0155609
617.176	0.0155178
617.254	0.0154908
617.332	0.0154799
617.410	0.0154317
617.488	0.0153111
617.567	0.0154999
617.645	0.0154646
617.723	0.0155509
617.801	0.0154759
617.879	0.0154520
617.957	0.0155340
618.035	0.0155248
618.113	0.0155584
618.192	0.0155367
618.270	0.0155915
618.348	0.0154855
618.426	0.0154327
618.504	0.0154375
618.582	0.0155328
618.660	0.0153090
618.738	0.0155138
618.817	0.0155364
618.895	0.0154811
618.973	0.0155516
619.051	0.0154185
619.129	0.0153825
619.207	0.0154527
619.285	0.0154762
619.363	0.0154720
619.442	0.0153764
619.520	0.0154936
619.598	0.0155141
619.676	0.0153562
619.754	0.0153670
619.832	0.0155479
619.910	0.0155491
619.988	0.0155117
620.067	0.0155091
620.145	0.0154723
620.223	0.0156028
620.301	0.0155011
620.379	0.0154636
620.457	0.0154914
620.535	0.0155182
620.613	0.0153600
620.692	0.0156587
620.770	0.0155463
620.848	0.0153913
620.926	0.0154890
621.004	0.0153870
621.082	0.0155228
621.160	0.0155093
621.238	0.0154284
621.317	0.0154578
621.395	0.0155320
621.473	0.0154117
621.551	0.0156699
621.629	0.0155226
621.707	0.0154870
621.785	0.0154014
621.863	0.0155177
621.942	0.0154972
622.020	0.0154664
622.098	0.0154411
622.176	0.0153658
622.254	0.0155019
622.332	0.0153337
622.410	0.0154689
622.488	0.0154772
622.567	0.0154405
622.645	0.0155876
622.723	0.0154739
622.801	0.0154802
622.879	0.0155560
622.957	0.0155157
623.035	0.0154997
623.113	0.0154660
623.192	0.0154697
623.270	0.0155874
623.348	0.0155786
623.426	0.0155035
623.504	0.0153191
623.582	0.0154394
623.660	0.0155429
623.738	0.0155663
623.817	0.0154787
623.895	0.0154669
623.973	0.0154220
624.051	0.0155232
624.129	0.0154926
624.207	0.0156052
624.285	0.0154917
624.363	0.0155113
624.442	0.0155235
624.520	0.0155077
624.598	0.0154244
624.676	0.0156120
624.754	0.0153609
624.832	0.0154486
624.910	0.0155331
624.988	0.0154024
625.067	0.0155064
625.145	0.0154147
625.223	0.0153304
625.301	0.0154459
625.379	0.0155389
625.457	0.0154423
625.535	0.0155087
625.613	0.0155388
625.692	0.0155413
625.770	0.0154978
625.848	0.0155139
625.926	0.0154992
626.004	0.0154742
626.082	0.0156342
626.160	0.0155199
626.238	0.0154816
626.317	0.0153928
626.395	0.0154599
626.473	0.0154957
626.551	0.0156318
626.629	0.0155386
626.707	0.0154755
626.785	0.0156480
626.863	0.0154674
626.942	0.0154984
627.020	0.0155657
627.098	0.0156213
627.176	0.0154604
627.254	0.0155127
627.332	0.0155031
627.410	0.0155268
627.488	0.0154078
627.567	0.0154865
627.645	0.0155250
627.723	0.0154271
627.801	0.0155062
627.879	0.0154836
627.957	0.0154789
628.035	0.0154883
628.113	0.0155094
628.192	0.0154394
628.270	0.0155206
628.348	0.0155544
628.426	0.0154107
628.504	0.0154806
628.582	0.0153532
628.660	0.0154449
628.738	0.0153629
628.817	0.0154418
628.895	0.0154779
628.973	0.0155148
629.051	0.0154461
629.129	0.0154326
629.207	0.0153925
629.285	0.0153996
629.363	0.0154768
629.442	0.0153461
629.520	0.0154716
629.598	0.0155222
629.676	0.0156056
629.754	0.0154509
629.832	0.0153099
629.910	0.0154434
629.988	0.0155806
630.067	0.0155941
630.145	0.0154240
630.223	0.0155694
630.301	0.0156156
630.379	0.0154330
630.457	0.0154364
630.535	0.0153237
630.613	0.0154385
630.692	0.0154792
630.770	0.0153947
630.848	0.0155535
630.926	0.0154958
631.004	0.0154790
631.082	0.0155244
631.160	0.0155022
631.238	0.0154588
631.317	0.0155267
631.395	0.0155057
631.473	0.0155056
631.551	0.0155299
631.629	0.0155990
631.707	0.0155109
631.785	0.0156403
631.863	0.0154909
631.942	0.0154463
632.020	0.0154710
632.098	0.0154533
632.176	0.0154862
632.254	0.0155014
632.332	0.0155779
632.410	0.0155591
632.488	0.0154587
632.567	0.0155770
632.645	0.0154934
632.723	0.0154957
632.801	0.0154597
632.879	0.0154326
632.957	0.0155928
633.035	0.0154775
633.113	0.0153775
633.192	0.0155400
633.270	0.0154310
633.348	0.0153523
633.426	0.0154599
633.504	0.0155627
633.582	0.0155915
633.660	0.0155344
633.738	0.0154386
633.817	0.0156960
633.895	0.0154639
633.973	0.0154972
634.051	0.0154284
634.129	0.0155707
634.207	0.0155672
634.285	0.0154784
634.363	0.0155320
634.442	0.0155203
634.520	0.0155029
634.598	0.0155991
634.676	0.0155300
634.754	0.0155204
634.832	0.0154851
634.910	0.0153726
634.988	0.0154050
635.067	0.0154488
635.145	0.0155463
635.223	0.0154369
635.301	0.0155689
635.379	0.0155462
635.457	0.0155389
635.535	0.0154574
635.613	0.0155190
635.692	0.0155132
635.770	0.0154839
635.848	0.0154800
635.926	0.0155791
636.004	0.0154298
636.082	0.0154478
636.160	0.0154578
636.238	0.0154237
636.317	0.0155633
636.395	0.0154566
636.473	0.0155030
636.551	0.0154845
636.629	0.0156065
636.707	0.0154974
636.785	0.0155202
636.863	0.0155418
636.942	0.0153427
637.020	0.0155694
637.098	0.0155190
637.176	0.0155478
637.254	0.0155124
637.332	0.0155210
637.410	0.0154766
637.488	0.0155538
637.567	0.0153952
637.645	0.0154647
637.723	0.0153552
637.801	0.0154135
637.879	0.0156372
637.957	0.0155178
638.035	0.0153871
638.113	0.0154477
638.192	0.0155759
638.270	0.0155331
638.348	0.0153953
638.426	0.0154473
638.504	0.0154394
638.582	0.0153996
638.660	0.0154091
638.738	0.0154313
638.817	0.0154941
638.895	0.0154424
638.973	0.0157150
639.051	0.0156112
639.129	0.0153472
639.207	0.0154636
639.285	0.0155069
639.363	0.0155178
639.442	0.0155054
639.520	0.0156028
639.598	0.0155615
639.676	0.0154530
639.754	0.0155650
639.832	0.0155317
639.910	0.0154010
639.988	0.0155480
640.067	0.0154338
640.145	0.0155869
640.223	0.0155875
640.301	0.0154649
640.379	0.0154269
640.457	0.0156007
640.535	0.0155692
640.613	0.0155358
640.692	0.0154800
640.770	0.0155334
640.848	0.0155264
640.926	0.0156140
641.004	0.0156398
641.082	0.0156200
641.160	0.0155447
641.238	0.0155267
641.317	0.0154895
641.395	0.0154665
641.473	0.0154754
641.551	0.0154287
641.629	0.0153720
641.707	0.0153570
641.785	0.0154417
641.863	0.0154565
641.942	0.0155060
642.020	0.0155998
642.098	0.0154054
642.176	0.0153791
642.254	0.0155364
642.332	0.0155457
642.410	0.0155431
642.488	0.0155437
642.567	0.0154987
642.645	0.0155254
642.723	0.0155692
642.801	0.0153593
642.879	0.0154936
642.957	0.0155649
643.035	0.0155402
643.113	0.0154868
643.192	0.0155094
643.270	0.0153963
643.348	0.0155582
643.426	0.0156477
643.504	0.0156171
643.582	0.0154290
643.660	0.0155263
643.738	0.0155200
643.817	0.0155343
643.895	0.0154995
643.973	0.0155645
644.051	0.0155296
644.129	0.0153612
644.207	0.0154653
644.285	0.0155274
644.363	0.0154919
644.442	0.0155220
644.520	0.0155523
644.598	0.0155885
644.676	0.0154517
644.754	0.0155512
644.832	0.0156631
644.910	0.0155576
644.988	0.0155582
645.067	0.0154235
645.145	0.0155328
645.223	0.0154690
645.301	0.0155833
645.379	0.0155697
645.457	0.0155410
645.535	0.0155104
645.613	0.0155364
645.692	0.0157077
645.770	0.0155007
645.848	0.0153624
645.926	0.0155324
646.004	0.0155582
646.082	0.0154791
646.160	0.0154579
646.238	0.0155244
646.317	0.0155054
646.395	0.0155499
646.473	0.0153972
646.551	0.0155223
646.629	0.0155373
646.707	0.0155283
646.785	0.0155260
646.863	0.0154755
646.942	0.0154234
647.020	0.0155088
647.098	0.0155612
647.176	0.0154826
647.254	0.0154109
647.332	0.0154931
647.410	0.0155571
647.488	0.0155674
647.567	0.0155946
647.645	0.0155171
647.723	0.0154900
647.801	0.0154917
647.879	0.0155583
647.957	0.0156316
648.035	0.0155266
648.113	0.0154913
648.192	0.0154446
648.270	0.0154275
648.348	0.0155648
648.426	0.0155773
648.504	0.0154589
648.582	0.0154263
648.660	0.0154123
648.738	0.0156970
648.817	0.0155230
648.895	0.0155112
648.973	0.0155487
649.051	0.0154490
649.129	0.0156326
649.207	0.0154325
649.285	0.0154282
649.363	0.0153529
649.442	0.0154649
649.520	0.0155576
649.598	0.0155050
649.676	0.0154618
649.754	0.0154918
649.832	0.0155087
649.910	0.0154861
649.988	0.0155521
650.067	0.0155201
650.145	0.0154050
650.223	0.0154778
650.301	0.0154479
650.379	0.0154409
650.457	0.0154988
650.535	0.0155720
650.613	0.0155555
650.692	0.0155399
650.770	0.0155170
650.848	0.0154818
650.926	0.0155369
651.004	0.0155453
651.082	0.0155177
651.160	0.0156148
651.238	0.0154535
651.317	0.0154897
651.395	0.0155132
651.473	0.0155441
651.551	0.0154270
651.629	0.0154819
651.707	0.0154564
651.785	0.0154004
651.863	0.0154485
651.942	0.0155140
652.020	0.0154362
652.098	0.0155109
652.176	0.0155613
652.254	0.0154819
652.332	0.0155817
652.410	0.0155574
652.488	0.0155017
652.567	0.0154389
652.645	0.0153835
652.723	0.0155437
652.801	0.0155273
652.879	0.0154630
652.957	0.0155479
653.035	0.0154706
653.113	0.0155284
653.192	0.0155683
653.270	0.0156225
653.348	0.0154800
653.426	0.0154208
653.504	0.0155827
653.582	0.0155971
653.660	0.0155133
653.738	0.0154720
653.817	0.0155647
653.895	0.0154946
653.973	0.0153576
654.051	0.0154510
654.129	0.0156049
654.207	0.0154283
654.285	0.0154851
654.363	0.0155324
654.442	0.0154401
654.520	0.0154539
654.598	0.0154990
654.676	0.0155828
654.754	0.0153265
654.832	0.0153935
654.910	0.0154060
654.988	0.0154910
655.067	0.0156223
655.145	0.0153509
655.223	0.0153442
655.301	0.0156252
655.379	0.0156234
655.457	0.0153658
655.535	0.0154733
655.613	0.0155936
655.692	0.0154554
655.770	0.0154355
655.848	0.0154619
655.926	0.0155781
656.004	0.0155253
656.082	0.0154321
656.160	0.0154465
656.238	0.0153352
656.317	0.0156097
656.395	0.0154524
656.473	0.0154536
656.551	0.0154460
656.629	0.0155048
656.707	0.0155083
656.785	0.0154708
656.863	0.0155884
656.942	0.0155930
657.020	0.0155001
657.098	0.0154446
657.176	0.0154740
657.254	0.0154096
657.332	0.0153165
657.410	0.0155733
657.488	0.0155416
657.567	0.0154099
657.645	0.0154373
657.723	0.0156333
657.801	0.0155373
657.879	0.0154603
657.957	0.0154575
658.035	0.0154475
658.113	0.0155220
658.192	0.0154693
658.270	0.0154973
658.348	0.0153400
658.426	0.0154424
658.504	0.0154620
658.582	0.0154820
658.660	0.0155135
658.738	0.0154910
658.817	0.0155534
658.895	0.0154790
658.973	0.0153777
659.051	0.0155262
659.129	0.0155235
659.207	0.0154714
659.285	0.0154020
659.363	0.0154018
659.442	0.0154200
659.520	0.0154945
659.598	0.0155486
659.676	0.0153379
659.754	0.0155235
659.832	0.0154690
659.910	0.0154594
659.988	0.0154788
660.067	0.0156646
660.145	0.0154073
660.223	0.0155190
660.301	0.0155360
660.379	0.0155399
660.457	0.0154281
660.535	0.0154035
660.613	0.0155133
660.692	0.0154725
660.770	0.0155529
660.848	0.0155067
660.926	0.0154156
661.004	0.0154733
661.082	0.0155148
661.160	0.0154214
661.238	0.0154821
661.317	0.0155386
661.395	0.0155847
661.473	0.0154198
661.551	0.0154437
661.629	0.0154980
661.707	0.0155236
661.785	0.0154139
661.863	0.0153753
661.942	0.0153706
662.020	0.0153858
662.098	0.0154424
662.176	0.0154458
662.254	0.0153860
662.332	0.0153999
662.410	0.0154265
662.488	0.0154343
662.567	0.0154556
662.645	0.0154002
662.723	0.0155762
662.801	0.0154031
662.879	0.0153918
662.957	0.0154335
663.035	0.0154354
663.113	0.0154864
663.192	0.0153707
663.270	0.0154112
663.348	0.0153467
663.426	0.0153852
663.504	0.0153982
663.582	0.0154689
663.660	0.0155479
663.738	0.0154146
663.817	0.0155653
663.895	0.0154251
663.973	0.0154671
664.051	0.0154347
664.129	0.0154173
664.207	0.0154382
664.285	0.0154827
664.363	0.0153667
664.442	0.0154822
664.520	0.0154354
664.598	0.0154621
664.676	0.0154559
664.754	0.0154912
664.832	0.0154865
664.910	0.0154893
664.988	0.0154290
665.067	0.0155775
665.145	0.0154792
665.223	0.0154703
665.301	0.0153634
665.379	0.0155730
665.457	0.0156467
665.535	0.0154485
665.613	0.0154743
665.692	0.0154795
665.770	0.0156030
665.848	0.0154761
665.926	0.0153103
666.004	0.0155794
666.082	0.0154462
666.160	0.0155195
666.238	0.0154125
666.317	0.0155024
666.395	0.0155901
666.473	0.0154498
666.551	0.0155003
666.629	0.0155791
666.707	0.0154631
666.785	0.0155630
666.863	0.0155968
666.942	0.0154439
667.020	0.0155070
667.098	0.0155365
667.176	0.0154382
667.254	0.0154540
667.332	0.0154275
667.410	0.0154709
667.488	0.0155547
667.567	0.0155660
667.645	0.0155531
667.723	0.0155976
667.801	0.0155468
667.879	0.0155986
667.957	0.0154856
668.035	0.0156087
668.113	0.0154771
668.192	0.0155577
668.270	0.0155465
668.348	0.0154640
668.426	0.0154891
668.504	0.0154650
668.582	0.0154681
668.660	0.0156149
668.738	0.0154825
668.817	0.0155761
668.895	0.0155212
668.973	0.0155146
669.051	0.0155315
669.129	0.0155177
669.207	0.0155244
669.285	0.0153164
669.363	0.0156402
669.442	0.0154807
669.520	0.0153471
669.598	0.0153600
669.676	0.0156009
669.754	0.0156708
669.832	0.0154916
669.910	0.0155716
669.988	0.0156539
670.067	0.0155534
670.145	0.0155368
670.223	0.0155041
670.301	0.0154363
670.379	0.0153907
670.457	0.0154269
670.535	0.0155047
670.613	0.0154837
670.692	0.0153919
670.770	0.0154861
670.848	0.0154860
670.926	0.0155809
671.004	0.0154720
671.082	0.0153357
671.160	0.0152633
671.238	0.0153079
671.317	0.0154448
671.395	0.0154079
671.473	0.0154537
671.551	0.0154020
671.629	0.0153819
671.707	0.0155341
671.785	0.0154058
671.863	0.0154166
671.942	0.0153474
672.020	0.0153858
672.098	0.0153555
672.176	0.0154285
672.254	0.0154627
672.332	0.0153293
672.410	0.0155310
672.488	0.0155258
672.567	0.0154876
672.645	0.0155665
672.723	0.0154327
672.801	0.0155621
672.879	0.0156035
672.957	0.0157694
673.035	0.0156273
673.113	0.0155751
673.192	0.0154552
673.270	0.0154749
673.348	0.0155771
673.426	0.0156982
673.504	0.0156535
673.582	0.0155688
673.660	0.0156012
673.738	0.0155510
673.817	0.0155876
673.895	0.0155067
673.973	0.0154691
674.051	0.0153757
674.129	0.0153831
674.207	0.0152719
674.285	0.0153348
674.363	0.0153112
674.442	0.0152689
674.520	0.0154318
674.598	0.0152715
674.676	0.0151922
674.754	0.0151877
674.832	0.0152467
674.910	0.0152185
674.988	0.0152171
675.067	0.0152959
675.145	0.0153886
675.223	0.0155004
675.301	0.0157807
675.379	0.0161048
675.457	0.0159769
675.535	0.0161076
675.613	0.0162903
675.692	0.0163277
675.770	0.0162700
675.848	0.0164478
675.926	0.0163071
676.004	0.0163473
676.082	0.0162460
676.160	0.0161381
676.238	0.0160068
676.317	0.0158010
676.395	0.0155307
676.473	0.0151572
676.551	0.0150409
676.629	0.0146897
676.707	0.0143925
676.785	0.0142281
676.863	0.0140325
676.942	0.0140280
677.020	0.0139816
677.098	0.0139756
677.176	0.0140945
677.254	0.0142720
677.332	0.0144028
677.410	0.0147214
677.488	0.0150312
677.567	0.0151997
677.645	0.0152722
677.723	0.0154177
677.801	0.0157500
677.879	0.0158939
677.957	0.0159570
678.035	0.0160909
678.113	0.0162234
678.192	0.0163618
678.270	0.0165164
678.348	0.0165281
678.426	0.0163972
678.504	0.0164443
678.582	0.0164626
678.660	0.0163842
678.738	0.0162503
678.817	0.0161830
678.895	0.0159994
678.973	0.0160966
679.051	0.0161463
679.129	0.0160193
679.207	0.0160048
679.285	0.0160715
679.363	0.0159483
679.442	0.0160911
679.520	0.0161658
679.598	0.0160357
679.676	0.0159992
679.754	0.0158060
679.832	0.0156488
679.910	0.0153924
679.988	0.0152792
680.067	0.0151810
680.145	0.0147871
680.223	0.0146059
680.301	0.0143442
680.379	0.0141860
680.457	0.0138657
680.535	0.0137458
680.613	0.0136472
680.692	0.0134598
680.770	0.0135621
680.848	0.0135515
680.926	0.0136590
681.004	0.0138617
681.082	0.0141051
681.160	0.0145174
681.238	0.0147161
681.317	0.0149153
681.395	0.0153613
681.473	0.0156515
681.551	0.0157884
681.629	0.0158622
681.707	0.0162687
681.785	0.0161345
681.863	0.0162224
681.942	0.0165297
682.020	0.0166226
682.098	0.0167902
682.176	0.0166436
682.254	0.0168179
682.332	0.0169080
682.410	0.0169249
682.488	0.0168225
682.567	0.0168458
682.645	0.0168562
682.723	0.0166828
682.801	0.0165398
682.879	0.0164094
682.957	0.0164787
683.035	0.0162981
683.113	0.0163870
683.192	0.0163662
683.270	0.0163105
683.348	0.0165171
683.426	0.0166235
683.504	0.0167125
683.582	0.0165872
683.660	0.0165730
683.738	0.0163654
683.817	0.0160957
683.895	0.0160818
683.973	0.0157715
684.051	0.0154955
684.129	0.0153783
684.207	0.0150285
684.285	0.0147129
684.363	0.0145156
684.442	0.0141435
684.520	0.0140502
684.598	0.0137132
684.676	0.0134412
684.754	0.0132338
684.832	0.0130913
684.910	0.0130415
684.988	0.0129174
685.067	0.0128178
685.145	0.0126904
685.223	0.0127764
685.301	0.0128217
685.379	0.0129720
685.457	0.0132090
685.535	0.0134264
685.613	0.0136997
685.692	0.0139825
685.770	0.0142432
685.848	0.0147783
685.926	0.0150928
686.004	0.0155102
686.082	0.0160135
686.160	0.0164858
686.238	0.0168307
686.317	0.0173222
686.395	0.0178466
686.473	0.0182449
686.551	0.0186780
686.629	0.0189049
686.707	0.0191360
686.785	0.0192056
686.863	0.0191759
686.942	0.0190467
687.020	0.0189096
687.098	0.0185191
687.176	0.0182610
687.254	0.0179432
687.332	0.0174680
687.410	0.0171973
687.488	0.0166751
687.567	0.0164014
687.645	0.0161896
687.723	0.0159579
687.801	0.0159271
687.879	0.0156685
687.957	0.0154338
688.035	0.0151456
688.113	0.0149615
688.192	0.0147318
688.270	0.0145045
688.348	0.0144987
688.426	0.0144028
688.504	0.0143234
688.582	0.0141299
688.660	0.0141755
688.738	0.0142322
688.817	0.0141711
688.895	0.0140950
688.973	0.0141447
689.051	0.0139884
689.129	0.0137216
689.207	0.0135780
689.285	0.0136151
689.363	0.0132197
689.442	0.0131688
689.520	0.0129495
689.598	0.0128593
689.676	0.0127576
689.754	0.0128463
689.832	0.0131656
689.910	0.0132986
689.988	0.0135943
690.067	0.0139001
690.145	0.0142546
690.223	0.0145659
690.301	0.0149635
690.379	0.0153413
690.457	0.0157115
690.535	0.0160887
690.613	0.0165591
690.692	0.0169041
690.770	0.0170742
690.848	0.0172526
690.926	0.0174100
691.004	0.0175937
691.082	0.0175565
691.160	0.0175906
691.238	0.0173866
691.317	0.0171390
691.395	0.0170237
691.473	0.0169777
691.551	0.0167245
691.629	0.0165140
691.707	0.0164783
691.785	0.0162320
691.863	0.0162637
691.942	0.0163251
692.020	0.0164241
692.098	0.0164919
692.176	0.0165589
692.254	0.0166692
692.332	0.0166041
692.410	0.0168351
692.488	0.0170362
692.567	0.0168805
692.645	0.0169285
692.723	0.0168795
692.801	0.0167400
692.879	0.0166766
692.957	0.0166366
693.035	0.0163406
693.113	0.0161227
693.192	0.0158065
693.270	0.0153922
693.348	0.0149118
693.426	0.0146794
693.504	0.0142416
693.582	0.0139169
693.660	0.0134137
693.738	0.0131210
693.817	0.0128525
693.895	0.0126236
693.973	0.0123476
694.051	0.0124135
694.129	0.0122118
694.207	0.0123359
694.285	0.0122946
694.363	0.0123080
694.442	0.0124701
694.520	0.0126225
694.598	0.0127206
694.676	0.0130909
694.754	0.0131951
694.832	0.0135006
694.910	0.0139188
694.988	0.0139211
695.067	0.0143270
695.145	0.0148849
695.223	0.0151199
695.301	0.0154685
695.379	0.0158079
695.457	0.0162338
695.535	0.0165862
695.613	0.0168445
695.692	0.0171005
695.770	0.0173543
695.848	0.0175606
695.926	0.0178996
696.004	0.0177943
696.082	0.0179421
696.160	0.0179852
696.238	0.0181119
696.317	0.0181052
696.395	0.0178798
696.473	0.0180105
696.551	0.0177270
696.629	0.0177519
696.707	0.0176761
696.785	0.0175508
696.863	0.0174282
696.942	0.0173180
697.020	0.0171510
697.098	0.0170228
697.176	0.0168003
697.254	0.0166519
697.332	0.0166638
697.410	0.0163374
697.488	0.0161874
697.567	0.0160721
697.645	0.0159283
697.723	0.0157858
697.801	0.0154285
697.879	0.0151144
697.957	0.0149738
698.035	0.0146554
698.113	0.0145816
698.192	0.0144324
698.270	0.0142241
698.348	0.0142631
698.426	0.0141551
698.504	0.0138418
698.582	0.0137684
698.660	0.0137421
698.738	0.0134488
698.817	0.0133049
698.895	0.0129997
698.973	0.0128655
699.051	0.0126205
699.129	0.0124198
699.207	0.0122229
699.285	0.0120882
699.363	0.0119662
699.442	0.0120261
699.520	0.0121570
699.598	0.0123342
699.676	0.0125130
699.754	0.0129121
699.832	0.0134171
699.910	0.0139306
699.988	0.0147047
700.067	0.0152909
700.145	0.0159621
700.223	0.0167253
700.301	0.0173864
700.379	0.0178649
700.457	0.0184607
700.535	0.0190619
700.613	0.0193182
700.692	0.0196700
700.770	0.0197011
700.848	0.0198208
700.926	0.0197061
701.004	0.0195523
701.082	0.0193842
701.160	0.0189188
701.238	0.0183894
701.317	0.0181432
701.395	0.0177465
701.473	0.0172462
701.551	0.0168799
701.629	0.0163701
701.707	0.0160622
701.785	0.0158690
701.863	0.0154984
701.942	0.0154162
702.020	0.0152214
702.098	0.0149174
702.176	0.0149840
702.254	0.0146472
702.332	0.0146085
702.410	0.0146392
702.488	0.0145177
702.567	0.0144718
702.645	0.0144609
702.723	0.0144691
702.801	0.0145297
702.879	0.0144964
702.957	0.0141953
703.035	0.0143833
703.113	0.0141306
703.192	0.0142189
703.270	0.0141571
703.348	0.0140377
703.426	0.0140213
703.504	0.0139817
703.582	0.0140140
703.660	0.0136136
703.738	0.0135944
703.817	0.0135226
703.895	0.0135439
703.973	0.0132624
704.051	0.0134996
704.129	0.0134950
704.207	0.0134618
704.285	0.0135842
704.363	0.0139804
704.442	0.0142673
704.520	0.0146526
704.598	0.0150966
704.676	0.0156244
704.754	0.0160294
704.832	0.0168251
704.910	0.0173089
704.988	0.0178255
705.067	0.0183617
705.145	0.0185706
705.223	0.0189579
705.301	0.0189986
705.379	0.0191846
705.457	0.0192018
705.535	0.0189894
705.613	0.0188735
705.692	0.0184699
705.770	0.0179880
705.848	0.0176760
705.926	0.0171812
706.004	0.0167673
706.082	0.0162939
706.160	0.0159155
706.238	0.0156226
706.317	0.0152416
706.395	0.0148788
706.473	0.0145404
706.551	0.0142714
706.629	0.0141462
706.707	0.0140198
706.785	0.0138722
706.863	0.0139613
706.942	0.0138873
707.020	0.0139201
707.098	0.0140041
707.176	0.0142184
707.254	0.0142546
707.332	0.0146484
707.410	0.0148587
707.488	0.0148376
707.567	0.0149200
707.645	0.0151048
707.723	0.0150340
707.801	0.0151607
707.879	0.0151580
707.957	0.0151398
708.035	0.0149587
708.113	0.0148715
708.192	0.0149567
708.270	0.0147124
708.348	0.0145531
708.426	0.0144865
708.504	0.0144553
708.582	0.0145197
708.660	0.0144259
708.738	0.0143729
708.817	0.0143923
708.895	0.0144605
708.973	0.0143872
709.051	0.0145373
709.129	0.0146549
709.207	0.0149430
709.285	0.0151559
709.363	0.0155164
709.442	0.0156391
709.520	0.0161562
709.598	0.0165520
709.676	0.0169023
709.754	0.0172469
709.832	0.0174867
709.910	0.0177518
709.988	0.0180785
710.067	0.0182065
710.145	0.0183434
710.223	0.0182023
710.301	0.0180477
710.379	0.0179361
710.457	0.0177038
710.535	0.0173579
710.613	0.0172177
710.692	0.0170278
710.770	0.0166566
710.848	0.0163613
710.926	0.0161580
711.004	0.0157745
711.082	0.0156862
711.160	0.0153732
711.238	0.0150049
711.317	0.0148643
711.395	0.0145995
711.473	0.0144837
711.551	0.0142209
711.629	0.0141122
711.707	0.0138560
711.785	0.0138897
711.863	0.0138129
711.942	0.0137297
712.020	0.0137407
712.098	0.0137666
712.176	0.0138383
712.254	0.0139928
712.332	0.0140757
712.410	0.0142208
712.488	0.0144164
712.567	0.0145317
712.645	0.0146018
712.723	0.0147010
712.801	0.0147576
712.879	0.0148717
712.957	0.0148431
713.035	0.0149639
713.113	0.0149137
713.192	0.0148814
713.270	0.0149191
713.348	0.0148888
713.426	0.0149277
713.504	0.0151154
713.582	0.0151241
713.660	0.0151891
713.738	0.0154366
713.817	0.0155825
713.895	0.0155734
713.973	0.0157330
714.051	0.0160233
714.129	0.0162291
714.207	0.0163851
714.285	0.0165353
714.363	0.0167686
714.442	0.0168935
714.520	0.0170668
714.598	0.0171442
714.676	0.0172315
714.754	0.0172954
714.832	0.0172015
714.910	0.0172549
714.988	0.0171907
715.067	0.0170004
715.145	0.0168739
715.223	0.0166567
715.301	0.0162453
715.379	0.0161832
715.457	0.0159957
715.535	0.0157939
715.613	0.0156219
715.692	0.0155222
715.770	0.0155447
715.848	0.0154405
715.926	0.0154726
716.004	0.0154371
716.082	0.0155278
716.160	0.0155054
716.238	0.0154996
716.317	0.0156410
716.395	0.0154385
716.473	0.0154353
716.551	0.0154111
716.629	0.0152279
716.707	0.0151356
716.785	0.0149815
716.863	0.0147350
716.942	0.0146807
717.020	0.0143298
717.098	0.0142124
717.176	0.0141279
717.254	0.0142075
717.332	0.0139631
717.410	0.0138981
717.488	0.0138863
717.567	0.0139079
717.645	0.0138667
717.723	0.0139552
717.801	0.0140113
717.879	0.0139225
717.957	0.0139319
718.035	0.0139944
718.113	0.0139536
718.192	0.0141521
718.270	0.0142950
718.348	0.0143404
718.426	0.0145032
718.504	0.0147298
718.582	0.0148736
718.660	0.0150782
718.738	0.0151849
718.817	0.0153365
718.895	0.0157842
718.973	0.0158378
719.051	0.0161487
719.129	0.0162424
719.207	0.0166933
719.285	0.0169592
719.363	0.0172322
719.442	0.0174940
719.520	0.0176112
719.598	0.0177957
719.676	0.0176929
719.754	0.0176663
719.832	0.0176146
719.910	0.0174570
719.988	0.0172599
720.067	0.0169620
720.145	0.0167049
720.223	0.0165844
720.301	0.0162782
720.379	0.0159325
720.457	0.0158128
720.535	0.0155380
720.613	0.0154526
720.692	0.0154829
720.770	0.0152824
720.848	0.0153275
720.926	0.0153791
721.004	0.0152866
721.082	0.0152304
721.160	0.0153719
721.238	0.0153700
721.317	0.0152404
721.395	0.0153694
721.473	0.0151881
721.551	0.0150159
721.629	0.0148284
721.707	0.0146561
721.785	0.0145274
721.863	0.0141940
721.942	0.0141598
722.020	0.0140222
722.098	0.0138105
722.176	0.0137569
722.254	0.0137208
722.332	0.0137202
722.410	0.0137109
722.488	0.0138712
722.567	0.0141046
722.645	0.0140456
722.723	0.0143678
722.801	0.0145333
722.879	0.0146935
722.957	0.0150153
723.035	0.0150940
723.113	0.0152448
723.192	0.0153540
723.270	0.0155686
723.348	0.0153970
723.426	0.0156190
723.504	0.0157553
723.582	0.0158489
723.660	0.0158513
723.738	0.0159967
723.817	0.0159638
723.895	0.0162651
723.973	0.0162185
724.051	0.0162406
724.129	0.0163520
724.207	0.0164105
724.285	0.0165095
724.363	0.0165834
724.442	0.0167210
724.520	0.0166082
724.598	0.0166666
724.676	0.0165497
724.754	0.0165310
724.832	0.0164509
724.910	0.0162041
724.988	0.0162324
725.067	0.0162219
725.145	0.0160311
725.223	0.0160613
725.301	0.0159082
725.379	0.0158823
725.457	0.0156308
725.535	0.0155573
725.613	0.0154723
725.692	0.0155481
725.770	0.0153576
725.848	0.0153838
725.926	0.0156261
726.004	0.0155367
726.082	0.0155567
726.160	0.0156873
726.238	0.0156164
726.317	0.0156393
726.395	0.0155842
726.473	0.0156454
726.551	0.0155228
726.629	0.0154707
726.707	0.0152211
726.785	0.0151276
726.863	0.0150571
726.942	0.0148685
727.020	0.0148714
727.098	0.0147400
727.176	0.0147952
727.254	0.0146478
727.332	0.0147460
727.410	0.0147200
727.488	0.0148198
727.567	0.0148927
727.645	0.0150095
727.723	0.0150163
727.801	0.0152924
727.879	0.0153450
727.957	0.0153712
728.035	0.0154935
728.113	0.0156689
728.192	0.0156278
728.270	0.0155238
728.348	0.0154354
728.426	0.0154772
728.504	0.0153298
728.582	0.0154011
728.660	0.0153948
728.738	0.0154506
728.817	0.0153651
728.895	0.0153981
728.973	0.0154172
729.051	0.0155835
729.129	0.0154801
729.207	0.0154452
729.285	0.0155553
729.363	0.0156559
729.442	0.0156384
729.520	0.0156328
729.598	0.0155933
729.676	0.0155470
729.754	0.0154716
729.832	0.0156399
729.910	0.0154546
729.988	0.0154472
730.067	0.0154928
730.145	0.0156168
730.223	0.0156350
730.301	0.0157077
730.379	0.0157259
730.457	0.0159319
730.535	0.0160300
730.613	0.0157455
730.692	0.0160658
730.770	0.0161508
730.848	0.0160088
730.926	0.0159908
731.004	0.0160931
731.082	0.0162464
731.160	0.0161462
731.238	0.0161716
731.317	0.0160899
731.395	0.0160513
731.473	0.0159186
731.551	0.0158255
731.629	0.0156474
731.707	0.0155623
731.785	0.0155033
731.863	0.0154076
731.942	0.0154823
732.020	0.0153014
732.098	0.0154391
732.176	0.0154668
732.254	0.0155022
732.332	0.0152881
732.410	0.0155381
732.488	0.0154832
732.567	0.0154729
732.645	0.0154238
732.723	0.0153168
732.801	0.0153552
732.879	0.0152729
732.957	0.0153394
733.035	0.0151637
733.113	0.0150308
733.192	0.0149619
733.270	0.0149611
733.348	0.0148706
733.426	0.0148392
733.504	0.0147922
733.582	0.0148514
733.660	0.0147102
733.738	0.0148021
733.817	0.0147169
733.895	0.0149636
733.973	0.0148773
734.051	0.0151147
734.129	0.0149615
734.207	0.0149385
734.285	0.0151633
734.363	0.0153139
734.442	0.0154118
734.520	0.0153423
734.598	0.0153617
734.676	0.0154295
734.754	0.0154343
734.832	0.0157529
734.910	0.0157480
734.988	0.0157322
735.067	0.0158134
735.145	0.0158597
735.223	0.0160732
735.301	0.0160209
735.379	0.0161335
735.457	0.0161028
735.535	0.0161596
735.613	0.0162003
735.692	0.0162247
735.770	0.0159962
735.848	0.0161144
735.926	0.0162440
736.004	0.0159879
736.082	0.0160045
736.160	0.0158629
736.238	0.0157579
736.317	0.0156821
736.395	0.0156596
736.473	0.0154420
736.551	0.0154165
736.629	0.0151510
736.707	0.0151839
736.785	0.0151477
736.863	0.0151537
736.942	0.0152051
737.020	0.0151929
737.098	0.0152280
737.176	0.0153281
737.254	0.0154353
737.332	0.0154591
737.410	0.0156394
737.488	0.0158081
737.567	0.0157583
737.645	0.0158701
737.723	0.0158896
737.801	0.0159670
737.879	0.0158170
737.957	0.0158012
738.035	0.0156636
738.113	0.0154564
738.192	0.0154111
738.270	0.0152146
738.348	0.0151342
738.426	0.0150065
738.504	0.0149945
738.582	0.0148763
738.660	0.0147899
738.738	0.0146404
738.817	0.0144724
738.895	0.0146086
738.973	0.0146154
739.051	0.0147092
739.129	0.0146947
739.207	0.0147470
739.285	0.0147507
739.363	0.0150946
739.442	0.0151146
739.520	0.0152052
739.598	0.0154906
739.676	0.0156693
739.754	0.0157358
739.832	0.0158435
739.910	0.0158286
739.988	0.0159277
740.067	0.0160751
740.145	0.0161987
740.223	0.0163345
740.301	0.0162775
740.379	0.0162328
740.457	0.0163091
740.535	0.0160764
740.613	0.0161996
740.692	0.0163531
740.770	0.0160487
740.848	0.0157177
740.926	0.0155903
741.004	0.0157358
741.082	0.0155268
741.160	0.0153535
741.238	0.0154538
741.317	0.0152943
741.395	0.0152711
741.473	0.0152306
741.551	0.0153554
741.629	0.0152979
741.707	0.0152946
741.785	0.0153927
741.863	0.0153925
741.942	0.0155046
742.020	0.0156134
742.098	0.0156606
742.176	0.0156366
742.254	0.0156590
742.332	0.0157751
742.410	0.0156623
742.488	0.0156393
742.567	0.0156679
742.645	0.0156933
742.723	0.0156291
742.801	0.0155142
742.879	0.0153768
742.957	0.0153172
743.035	0.0152657
743.113	0.0151357
743.192	0.0151222
743.270	0.0150414
743.348	0.0150622
743.426	0.0149274
743.504	0.0149965
743.582	0.0150214
743.660	0.0149344
743.738	0.0149281
743.817	0.0150463
743.895	0.0149670
743.973	0.0150596
744.051	0.0149654
744.129	0.0151666
744.207	0.0151911
744.285	0.0151515
744.363	0.0152687
744.442	0.0152419
744.520	0.0153269
744.598	0.0153884
744.676	0.0156601
744.754	0.0157442
744.832	0.0158682
744.910	0.0159845
744.988	0.0161615
745.067	0.0160384
745.145	0.0160596
745.223	0.0161323
745.301	0.0160567
745.379	0.0161174
745.457	0.0161267
745.535	0.0161883
745.613	0.0159488
745.692	0.0157280
745.770	0.0156815
745.848	0.0156554
745.926	0.0155642
746.004	0.0155045
746.082	0.0153864
746.160	0.0151825
746.238	0.0151863
746.317	0.0152504
746.395	0.0150475
746.473	0.0151520
746.551	0.0148514
746.629	0.0150729
746.707	0.0150795
746.785	0.0150796
746.863	0.0152093
746.942	0.0151634
747.020	0.0153081
747.098	0.0154850
747.176	0.0156313
747.254	0.0157082
747.332	0.0158061
747.410	0.0156810
747.488	0.0159530
747.567	0.0161996
747.645	0.0160935
747.723	0.0161903
747.801	0.0159507
747.879	0.0158149
747.957	0.0158396
748.035	0.0158364
748.113	0.0157996
748.192	0.0156960
748.270	0.0155804
748.348	0.0155594
748.426	0.0155264
748.504	0.0151889
748.582	0.0150803
748.660	0.0150505
748.738	0.0149967
748.817	0.0149319
748.895	0.0148238
748.973	0.0146849
749.051	0.0147746
749.129	0.0146484
749.207	0.0147582
749.285	0.0149080
749.363	0.0148905
749.442	0.0150106
749.520	0.0153652
749.598	0.0154630
749.676	0.0156023
749.754	0.0158613
749.832	0.0160608
749.910	0.0161868
749.988	0.0161913
750.067	0.0162888
750.145	0.0164098
750.223	0.0162991
750.301	0.0162181
750.379	0.0161134
750.457	0.0160838
750.535	0.0159301
750.613	0.0157496
750.692	0.0155518
750.770	0.0154436
750.848	0.0153472
750.926	0.0152451
751.004	0.0150848
751.082	0.0150681
751.160	0.0149094
751.238	0.0148524
751.317	0.0148652
751.395	0.0148855
751.473	0.0148367
751.551	0.0150103
751.629	0.0149626
751.707	0.0150974
751.785	0.0152840
751.863	0.0153685
751.942	0.0154124
752.020	0.0156590
752.098	0.0156882
752.176	0.0157064
752.254	0.0157892
752.332	0.0159931
752.410	0.0159579
752.488	0.0159715
752.567	0.0159180
752.645	0.0160104
752.723	0.0161810
752.801	0.0160784
752.879	0.0160483
752.957	0.0160603
753.035	0.0159796
753.113	0.0157334
753.192	0.0158836
753.270	0.0159368
753.348	0.0157114
753.426	0.0155517
753.504	0.0156516
753.582	0.0155454
753.660	0.0154935
753.738	0.0153895
753.817	0.0153065
753.895	0.0152622
753.973	0.0152290
754.051	0.0151785
754.129	0.0150029
754.207	0.0150562
754.285	0.0150409
754.363	0.0151210
754.442	0.0149796
754.520	0.0152148
754.598	0.0151642
754.676	0.0154012
754.754	0.0154279
754.832	0.0154926
754.910	0.0156270
754.988	0.0156330
755.067	0.0157497
755.145	0.0158368
755.223	0.0160847
755.301	0.0158405
755.379	0.0159029
755.457	0.0158723
755.535	0.0158603
755.613	0.0158820
755.692	0.0158320
755.770	0.0157191
755.848	0.0156539
755.926	0.0154485
756.004	0.0153556
756.082	0.0153972
756.160	0.0152614
756.238	0.0152422
756.317	0.0151290
756.395	0.0150569
756.473	0.0150587
756.551	0.0147883
756.629	0.0150092
756.707	0.0149654
756.785	0.0148842
756.863	0.0148695
756.942	0.0149193
757.020	0.0149997
757.098	0.0150369
757.176	0.0152698
757.254	0.0153997
757.332	0.0155174
757.410	0.0155463
757.488	0.0157893
757.567	0.0157893
757.645	0.0160085
757.723	0.0160136
757.801	0.0159267
757.879	0.0160951
757.957	0.0160872
758.035	0.0159942
758.113	0.0159900
758.192	0.0159974
758.270	0.0157785
758.348	0.0156320
758.426	0.0156737
758.504	0.0155176
758.582	0.0152501
758.660	0.0153670
758.738	0.0152325
758.817	0.0151336
758.895	0.0152509
758.973	0.0152974
759.051	0.0151393
759.129	0.0150900
759.207	0.0151701
759.285	0.0151499
759.363	0.0153239
759.442	0.0153995
759.520	0.0152357
759.598	0.0152648
759.676	0.0154530
759.754	0.0153490
759.832	0.0154130
759.910	0.0155112
759.988	0.0154917
760.067	0.0155475
760.145	0.0155554
760.223	0.0155672
760.301	0.0155621
760.379	0.0156128
760.457	0.0157378
760.535	0.0155814
760.613	0.0155882
760.692	0.0157307
760.770	0.0156734
760.848	0.0157993
760.926	0.0157804
761.004	0.0159198
761.082	0.0156960
761.160	0.0156153
761.238	0.0157492
761.317	0.0156620
761.395	0.0156247
761.473	0.0154874
761.551	0.0153376
761.629	0.0154316
761.707	0.0152458
761.785	0.0152313
761.863	0.0150787
761.942	0.0149790
762.020	0.0150645
762.098	0.0149539
762.176	0.0148935
762.254	0.0150446
762.332	0.0150363
762.410	0.0151811
762.488	0.0152153
762.567	0.0152325
762.645	0.0154935
762.723	0.0154823
762.801	0.0155866
762.879	0.0157315
762.957	0.0158355
763.035	0.0158147
763.113	0.0158590
763.192	0.0158075
763.270	0.0155727
763.348	0.0157896
763.426	0.0157407
763.504	0.0158028
763.582	0.0155573
763.660	0.0153259
763.738	0.0153923
763.817	0.0152510
763.895	0.0152209
763.973	0.0150775
764.051	0.0149905
764.129	0.0149197
764.207	0.0149977
764.285	0.0148249
764.363	0.0150250
764.442	0.0149821
764.520	0.0151236
764.598	0.0150430
764.676	0.0153004
764.754	0.0154101
764.832	0.0154723
764.910	0.0157024
764.988	0.0157124
765.067	0.0157027
765.145	0.0158604
765.223	0.0160026
765.301	0.0160543
765.379	0.0159776
765.457	0.0160683
765.535	0.0160013
765.613	0.0159566
765.692	0.0160517
765.770	0.0158974
765.848	0.0157795
765.926	0.0155760
766.004	0.0157000
766.082	0.0156199
766.160	0.0155515
766.238	0.0152541
766.317	0.0153970
766.395	0.0154649
766.473	0.0155263
766.551	0.0154589
766.629	0.0154209
766.707	0.0152654
766.785	0.0151335
766.863	0.0151813
766.942	0.0152310
767.020	0.0152121
767.098	0.0151383
767.176	0.0150194
767.254	0.0150809
767.332	0.0150045
767.410	0.0150515
767.488	0.0149561
767.567	0.0151557
767.645	0.0150825
767.723	0.0151619
767.801	0.0151264
767.879	0.0153176
767.957	0.0152205
768.035	0.0154202
768.113	0.0155808
768.192	0.0156740
768.270	0.0156264
768.348	0.0157162
768.426	0.0158331
768.504	0.0157381
768.582	0.0158354
768.660	0.0158981
768.738	0.0157167
768.817	0.0157681
768.895	0.0156287
768.973	0.0156339
769.051	0.0155681
769.129	0.0155186
769.207	0.0154606
769.285	0.0154678
769.363	0.0153921
769.442	0.0151593
769.520	0.0152365
769.598	0.0153181
769.676	0.0152073
769.754	0.0151884
769.832	0.0152379
769.910	0.0151905
769.988	0.0152277
770.067	0.0153461
770.145	0.0154921
770.223	0.0155227
770.301	0.0155044
770.379	0.0155881
770.457	0.0156269
770.535	0.0157163
770.613	0.0157818
770.692	0.0157641
770.770	0.0158266
770.848	0.0158350
770.926	0.0158614
771.004	0.0159043
771.082	0.0158115
771.160	0.0158416
771.238	0.0156867
771.317	0.0157097
771.395	0.0156387
771.473	0.0156521
771.551	0.0156015
771.629	0.0155824
771.707	0.0154247
771.785	0.0153668
771.863	0.0153693
771.942	0.0153709
772.020	0.0152006
772.098	0.0151383
772.176	0.0151129
772.254	0.0150490
772.332	0.0152151
772.410	0.0151149
772.488	0.0150946
772.567	0.0150299
772.645	0.0152706
772.723	0.0151399
772.801	0.0151900
772.879	0.0154108
772.957	0.0154834
773.035	0.0154144
773.113	0.0155571
773.192	0.0154650
773.270	0.0154572
773.348	0.0156661
773.426	0.0155460
773.504	0.0154492
773.582	0.0154841
773.660	0.0155698
773.738	0.0154113
773.817	0.0154145
773.895	0.0155664
773.973	0.0155110
774.051	0.0155482
774.129	0.0155550
774.207	0.0154782
774.285	0.0156062
774.363	0.0154543
774.442	0.0154652
774.520	0.0155814
774.598	0.0156997
774.676	0.0155628
774.754	0.0155762
774.832	0.0155496
774.910	0.0155435
774.988	0.0155118
775.067	0.0154471
775.145	0.0155441
775.223	0.0154200
775.301	0.0154255
775.379	0.0154916
775.457	0.0156348
775.535	0.0156342
775.613	0.0156738
775.692	0.0155152
775.770	0.0156129
775.848	0.0158262
775.926	0.0156868
776.004	0.0156819
776.082	0.0157043
776.160	0.0158463
776.238	0.0157970
776.317	0.0156148
776.395	0.0156731
776.473	0.0156911
776.551	0.0156721
776.629	0.0154964
776.707	0.0151884
776.785	0.0152943
776.863	0.0152810
776.942	0.0151998
777.020	0.0151837
777.098	0.0151198
777.176	0.0151680
777.254	0.0151743
777.332	0.0150381
777.410	0.0150923
777.488	0.0151195
777.567	0.0155164
777.645	0.0155059
777.723	0.0155794
777.801	0.0155772
777.879	0.0156514
777.957	0.0157335
778.035	0.0158237
778.113	0.0156593
778.192	0.0157889
778.270	0.0157528
778.348	0.0157175
778.426	0.0157269
778.504	0.0157986
778.582	0.0157848
778.660	0.0157115
778.738	0.0155544
778.817	0.0155802
778.895	0.0156899
778.973	0.0155884
779.051	0.0155370
779.129	0.0155664
779.207	0.0155856
779.285	0.0155659
779.363	0.0155857
779.442	0.0157728
779.520	0.0156974
779.598	0.0156839
779.676	0.0156673
779.754	0.0156947
779.832	0.0155058
779.910	0.0156205
779.988	0.0155263
780.067	0.0154766
780.145	0.0154980
780.223	0.0153954
780.301	0.0154259
780.379	0.0154242
780.457	0.0152859
780.535	0.0152332
780.613	0.0153111
780.692	0.0151694
780.770	0.0151886
780.848	0.0152982
780.926	0.0153606
781.004	0.0154362
781.082	0.0153211
781.160	0.0154780
781.238	0.0154562
781.317	0.0153868
781.395	0.0154189
781.473	0.0154332
781.551	0.0154185
781.629	0.0152277
781.707	0.0152807
781.785	0.0154795
781.863	0.0152512
781.942	0.0152567
782.020	0.0152912
782.098	0.0151984
782.176	0.0152116
782.254	0.0153198
782.332	0.0152522
782.410	0.0151434
782.488	0.0153168
782.567	0.0152689
782.645	0.0153764
782.723	0.0154751
782.801	0.0156112
782.879	0.0156094
782.957	0.0157805
783.035	0.0156862
783.113	0.0157907
783.192	0.0159428
783.270	0.0157971
783.348	0.0159084
783.426	0.0160126
783.504	0.0159760
783.582	0.0160042
783.660	0.0158179
783.738	0.0158825
783.817	0.0158434
783.895	0.0159717
783.973	0.0158299
784.051	0.0158328
784.129	0.0157042
784.207	0.0155611
784.285	0.0156661
784.363	0.0155066
784.442	0.0154037
784.520	0.0154023
784.598	0.0155252
784.676	0.0153361
784.754	0.0154479
784.832	0.0154700
784.910	0.0156133
784.988	0.0154056
785.067	0.0152564
785.145	0.0152491
785.223	0.0153520
785.301	0.0153001
785.379	0.0152431
785.457	0.0150510
785.535	0.0151973
785.613	0.0152040
785.692	0.0151320
785.770	0.0150977
785.848	0.0149973
785.926	0.0149236
786.004	0.0150414
786.082	0.0151590
786.160	0.0152024
786.238	0.0150397
786.317	0.0151342
786.395	0.0152424
786.473	0.0153692
786.551	0.0154206
786.629	0.0153854
786.707	0.0154196
786.785	0.0154848
786.863	0.0156151
786.942	0.0156749
787.020	0.0155054
787.098	0.0155469
787.176	0.0156425
787.254	0.0155395
787.332	0.0155691
787.410	0.0154694
787.488	0.0155354
787.567	0.0154292
787.645	0.0156158
787.723	0.0155152
787.801	0.0155726
787.879	0.0156005
787.957	0.0156054
788.035	0.0155863
788.113	0.0156653
788.192	0.0156450
788.270	0.0156875
788.348	0.0156992
788.426	0.0157173
788.504	0.0158343
788.582	0.0159560
788.660	0.0157485
788.738	0.0158787
788.817	0.0159687
788.895	0.0158398
788.973	0.0158154
789.051	0.0157745
789.129	0.0157807
789.207	0.0158457
789.285	0.0157375
789.363	0.0156774
789.442	0.0157554
789.520	0.0155403
789.598	0.0155179
789.676	0.0153699
789.754	0.0154243
789.832	0.0153194
789.910	0.0152554
789.988	0.0151496
790.067	0.0149911
790.145	0.0151096
790.223	0.0151083
790.301	0.0149959
790.379	0.0148715
790.457	0.0148927
790.535	0.0149988
790.613	0.0149372
790.692	0.0151050
790.770	0.0151197
790.848	0.0149965
790.926	0.0150468
791.004	0.0151089
791.082	0.0152081
791.160	0.0152010
791.238	0.0153024
791.317	0.0151732
791.395	0.0151310
791.473	0.0154140
791.551	0.0154221
791.629	0.0155419
791.707	0.0155591
791.785	0.0156957
791.863	0.0157053
791.942	0.0157677
792.020	0.0157703
792.098	0.0154786
792.176	0.0156131
792.254	0.0157435
792.332	0.0156311
792.410	0.0154937
792.488	0.0154264
792.567	0.0153455
792.645	0.0153889
792.723	0.0154609
792.801	0.0154639
792.879	0.0153243
792.957	0.0153633
793.035	0.0152901
793.113	0.0153622
793.192	0.0154887
793.270	0.0155476
793.348	0.0154963
793.426	0.0155623
793.504	0.0156237
793.582	0.0156266
793.660	0.0156811
793.738	0.0157350
793.817	0.0158235
793.895	0.0158800
793.973	0.0158841
794.051	0.0158900
794.129	0.0159519
794.207	0.0159620
794.285	0.0161010
794.363	0.0159133
794.442	0.0158993
794.520	0.0158793
794.598	0.0158138
794.676	0.0159238
794.754	0.0157457
794.832	0.0156016
794.910	0.0155807
794.988	0.0153973
795.067	0.0154601
795.145	0.0152751
795.223	0.0153492
795.301	0.0151336
795.379	0.0150615
795.457	0.0149635
795.535	0.0148181
795.613	0.0147811
795.692	0.0146629
795.770	0.0148026
795.848	0.0146732
795.926	0.0146648
796.004	0.0149179
796.082	0.0149602
796.160	0.0149468
796.238	0.0149792
796.317	0.0149857
796.395	0.0154283
796.473	0.0153905
796.551	0.0154802
796.629	0.0154086
796.707	0.0157292
796.785	0.0158203
796.863	0.0156926
796.942	0.0156091
797.020	0.0158331
797.098	0.0158366
797.176	0.0157256
797.254	0.0157855
797.332	0.0158099
797.410	0.0156944
797.488	0.0157880
797.567	0.0157422
797.645	0.0156816
797.723	0.0156176
797.801	0.0156747
797.879	0.0155596
797.957	0.0156406
798.035	0.0156866
798.113	0.0154752
798.192	0.0155856
798.270	0.0156402
798.348	0.0156075
798.426	0.0157145
798.504	0.0157005
798.582	0.0155978
798.660	0.0156640
798.738	0.0156824
798.817	0.0157603
798.895	0.0156848
798.973	0.0157928
799.051	0.0157001
799.129	0.0155827
799.207	0.0157182
799.285	0.0154635
799.363	0.0155634
799.442	0.0155322
799.520	0.0155555
799.598	0.0153296
799.676	0.0154839
799.754	0.0154531
799.832	0.0154540
799.910	0.0154208
799.988	0.0153193
800.067	0.0152757
800.145	0.0151418
800.223	0.0151530
800.301	0.0151083
800.379	0.0152081
800.457	0.0151920
800.535	0.0151445
800.613	0.0149879
800.692	0.0148813
800.770	0.0149487
800.848	0.0150945
800.926	0.0150925
801.004	0.0151141
801.082	0.0150288
801.160	0.0152423
801.238	0.0153242
801.317	0.0154037
801.395	0.0155093
801.473	0.0156189
801.551	0.0156263
801.629	0.0157672
801.707	0.0157460
801.785	0.0158839
801.863	0.0159443
801.942	0.0158075
802.020	0.0158926
802.098	0.0160098
802.176	0.0160497
802.254	0.0159473
802.332	0.0160506
802.410	0.0159620
802.488	0.0157420
802.567	0.0158230
802.645	0.0157365
802.723	0.0158106
802.801	0.0157198
802.879	0.0155898
802.957	0.0155798
803.035	0.0155907
803.113	0.0154444
803.192	0.0155534
803.270	0.0155222
803.348	0.0154153
803.426	0.0154346
803.504	0.0153074
803.582	0.0154424
803.660	0.0153353
803.738	0.0152282
803.817	0.0153023
803.895	0.0153306
803.973	0.0153251
804.051	0.0152187
804.129	0.0150807
804.207	0.0151800
804.285	0.0152393
804.363	0.0153197
804.442	0.0152730
804.520	0.0152689
804.598	0.0151949
804.676	0.0154025
804.754	0.0153023
804.832	0.0152702
804.910	0.0154215
804.988	0.0155245
805.067	0.0154855
805.145	0.0154813
805.223	0.0156568
805.301	0.0156321
805.379	0.0156986
805.457	0.0155839
805.535	0.0156876
805.613	0.0156757
805.692	0.0156012
805.770	0.0157647
805.848	0.0156937
805.926	0.0157098
806.004	0.0157408
806.082	0.0155592
806.160	0.0156832
806.238	0.0156254
806.317	0.0155947
806.395	0.0155972
806.473	0.0156456
806.551	0.0156640
806.629	0.0158089
806.707	0.0157890
806.785	0.0156577
806.863	0.0157570
806.942	0.0157523
807.020	0.0156985
807.098	0.0157953
807.176	0.0157616
807.254	0.0156503
807.332	0.0156585
807.410	0.0155994
807.488	0.0155740
807.567	0.0156193
807.645	0.0156976
807.723	0.0155008
807.801	0.0155424
807.879	0.0155235
807.957	0.0154228
808.035	0.0154324
808.113	0.0155878
808.192	0.0154507
808.270	0.0154422
808.348	0.0154563
808.426	0.0155848
808.504	0.0154650
808.582	0.0155301
808.660	0.0154018
808.738	0.0153082
808.817	0.0153365
808.895	0.0153839
808.973	0.0152937
809.051	0.0152399
809.129	0.0153604
809.207	0.0152271
809.285	0.0151602
809.363	0.0153369
809.442	0.0153186
809.520	0.0152692
809.598	0.0151259
809.676	0.0152438
809.754	0.0153673
809.832	0.0153314
809.910	0.0154399
809.988	0.0153617
810.067	0.0154202
810.145	0.0155970
810.223	0.0156763
810.301	0.0156147
810.379	0.0156882
810.457	0.0158453
810.535	0.0158664
810.613	0.0157976
810.692	0.0157162
810.770	0.0157627
810.848	0.0158500
810.926	0.0157966
811.004	0.0157292
811.082	0.0155160
811.160	0.0154247
811.238	0.0155316
811.317	0.0154005
811.395	0.0153213
811.473	0.0153315
811.551	0.0152203
811.629	0.0152499
811.707	0.0152674
811.785	0.0153072
811.863	0.0152551
811.942	0.0152503
812.020	0.0153725
812.098	0.0152715
812.176	0.0153449
812.254	0.0154008
812.332	0.0153129
812.410	0.0153741
812.488	0.0154715
812.567	0.0155533
812.645	0.0154805
812.723	0.0155085
812.801	0.0156155
812.879	0.0155633
812.957	0.0155696
813.035	0.0155296
813.113	0.0156709
813.192	0.0155354
813.270	0.0155100
813.348	0.0155754
813.426	0.0156810
813.504	0.0156895
813.582	0.0155713
813.660	0.0156518
813.738	0.0154163
813.817	0.0155446
813.895	0.0155486
813.973	0.0155461
814.051	0.0154436
814.129	0.0154611
814.207	0.0153580
814.285	0.0154221
814.363	0.0153789
814.442	0.0150902
814.520	0.0150927
814.598	0.0152117
814.676	0.0150877
814.754	0.0150503
814.832	0.0152388
814.910	0.0151852
814.988	0.0151549
815.067	0.0152133
815.145	0.0153828
815.223	0.0153072
815.301	0.0153722
815.379	0.0154899
815.457	0.0154244
815.535	0.0155255
815.613	0.0155888
815.692	0.0156445
815.770	0.0155424
815.848	0.0157804
815.926	0.0157626
816.004	0.0154636
816.082	0.0157894
816.160	0.0157672
816.238	0.0156915
816.317	0.0157300
816.395	0.0155253
816.473	0.0155291
816.551	0.0154459
816.629	0.0156946
816.707	0.0156074
816.785	0.0154836
816.863	0.0155210
816.942	0.0155402
817.020	0.0154451
817.098	0.0155286
817.176	0.0156507
817.254	0.0156919
817.332	0.0155891
817.410	0.0155359
817.488	0.0155676
817.567	0.0155723
817.645	0.0154097
817.723	0.0155226
817.801	0.0154628
817.879	0.0154011
817.957	0.0153993
818.035	0.0154489
818.113	0.0155665
818.192	0.0154455
818.270	0.0154034
818.348	0.0153988
818.426	0.0154002
818.504	0.0155880
818.582	0.0154916
818.660	0.0155357
818.738	0.0155185
818.817	0.0155254
818.895	0.0155013
818.973	0.0155902
819.051	0.0156543
819.129	0.0154729
819.207	0.0155299
819.285	0.0155183
819.363	0.0153334
819.442	0.0155261
819.520	0.0154053
819.598	0.0152523
819.676	0.0153864
819.754	0.0152938
819.832	0.0152417
819.910	0.0153146
819.988	0.0153107
820.067	0.0153701
820.145	0.0152647
820.223	0.0153128
820.301	0.0152509
820.379	0.0152787
820.457	0.0154617
820.535	0.0153680
820.613	0.0153003
820.692	0.0155749
820.770	0.0154601
820.848	0.0154208
820.926	0.0155058
821.004	0.0155733
821.082	0.0155726
821.160	0.0154887
821.238	0.0156062
821.317	0.0156265
821.395	0.0156356
821.473	0.0155789
821.551	0.0156103
821.629	0.0156236
821.707	0.0156744
821.785	0.0155537
821.863	0.0157622
821.942	0.0157454
822.020	0.0156714
822.098	0.0157742
822.176	0.0156824
822.254	0.0157041
822.332	0.0154259
822.410	0.0156974
822.488	0.0156573
822.567	0.0156003
822.645	0.0156153
822.723	0.0153996
822.801	0.0153889
822.879	0.0152464
822.957	0.0152153
823.035	0.0153331
823.113	0.0153518
823.192	0.0154477
823.270	0.0153031
823.348	0.0151299
823.426	0.0152644
823.504	0.0152457
823.582	0.0152181
823.660	0.0153963
823.738	0.0153900
823.817	0.0153561
823.895	0.0154680
823.973	0.0155851
824.051	0.0155882
824.129	0.0156168
824.207	0.0157403
824.285	0.0157483
824.363	0.0157683
824.442	0.0156903
824.520	0.0157337
824.598	0.0157808
824.676	0.0155565
824.754	0.0154904
824.832	0.0156203
824.910	0.0155383
824.988	0.0155850
825.067	0.0154501
825.145	0.0155232
825.223	0.0155296
825.301	0.0155103
825.379	0.0153579
825.457	0.0154762
825.535	0.0153853
825.613	0.0153819
825.692	0.0152510
825.770	0.0153076
825.848	0.0152673
825.926	0.0152550
826.004	0.0151958
826.082	0.0152799
826.160	0.0152606
826.238	0.0151209
826.317	0.0152071
826.395	0.0153924
826.473	0.0153075
826.551	0.0153107
826.629	0.0154841
826.707	0.0153002
826.785	0.0155502
826.863	0.0155758
826.942	0.0156944
827.020	0.0154826
827.098	0.0156670
827.176	0.0157922
827.254	0.0156754
827.332	0.0156046
827.410	0.0157220
827.488	0.0155917
827.567	0.0157062
827.645	0.0155820
827.723	0.0155376
827.801	0.0155032
827.879	0.0155152
827.957	0.0153217
828.035	0.0154457
828.113	0.0153549
828.192	0.0153981
828.270	0.0153676
828.348	0.0152557
828.426	0.0151665
828.504	0.0154565
828.582	0.0154699
828.660	0.0154337
828.738	0.0154535
828.817	0.0154687
828.895	0.0156989
828.973	0.0155680
829.051	0.0156290
829.129	0.0157506
829.207	0.0158488
829.285	0.0157171
829.363	0.0158320
829.442	0.0158351
829.520	0.0157611
829.598	0.0156693
829.676	0.0156684
829.754	0.0157780
829.832	0.0156161
829.910	0.0156277
829.988	0.0155848
830.067	0.0156224
830.145	0.0155280
830.223	0.0154477
830.301	0.0154667
830.379	0.0154557
830.457	0.0154463
830.535	0.0153698
830.613	0.0154659
830.692	0.0152932
830.770	0.0154477
830.848	0.0153384
830.926	0.0152656
831.004	0.0151008
831.082	0.0152207
831.160	0.0151864
831.238	0.0151023
831.317	0.0151456
831.395	0.0150943
831.473	0.0151525
831.551	0.0152039
831.629	0.0153030
831.707	0.0153294
831.785	0.0154033
831.863	0.0151564
831.942	0.0154365
832.020	0.0154720
832.098	0.0154736
832.176	0.0155109
832.254	0.0155724
832.332	0.0157569
832.410	0.0157109
832.488	0.0157643
832.567	0.0157551
832.645	0.0156213
832.723	0.0156558
832.801	0.0156941
832.879	0.0157079
832.957	0.0158032
833.035	0.0157288
833.113	0.0156406
833.192	0.0156336
833.270	0.0155531
833.348	0.0154815
833.426	0.0156183
833.504	0.0155872
833.582	0.0155206
833.660	0.0155038
833.738	0.0155246
833.817	0.0154460
833.895	0.0155463
833.973	0.0154921
834.051	0.0155083
834.129	0.0156510
834.207	0.0155083
834.285	0.0156831
834.363	0.0156992
834.442	0.0156877
834.520	0.0154343
834.598	0.0156281
834.676	0.0155323
834.754	0.0157057
834.832	0.0156297
834.910	0.0155511
834.988	0.0155554
835.067	0.0154639
835.145	0.0154028
835.223	0.0155173
835.301	0.0154221
835.379	0.0154044
835.457	0.0154420
835.535	0.0154032
835.613	0.0153458
835.692	0.0154558
835.770	0.0154374
835.848	0.0153638
835.926	0.0152411
836.004	0.0154514
836.082	0.0152090
836.160	0.0152449
836.238	0.0151597
836.317	0.0151603
836.395	0.0152706
836.473	0.0152934
836.551	0.0150979
836.629	0.0151305
836.707	0.0151308
836.785	0.0152194
836.863	0.0153390
836.942	0.0152834
837.020	0.0153828
837.098	0.0153880
837.176	0.0154699
837.254	0.0155416
837.332	0.0154083
837.410	0.0154869
837.488	0.0155894
837.567	0.0156633
837.645	0.0156289
837.723	0.0157671
837.801	0.0158324
837.879	0.0157150
837.957	0.0156714
838.035	0.0156800
838.113	0.0156496
838.192	0.0156973
838.270	0.0157481
838.348	0.0156780
838.426	0.0156827
838.504	0.0156416
838.582	0.0156541
838.660	0.0156095
838.738	0.0154459
838.817	0.0156046
838.895	0.0155270
838.973	0.0153986
839.051	0.0153990
839.129	0.0153722
839.207	0.0153574
839.285	0.0154745
839.363	0.0153815
839.442	0.0152448
839.520	0.0152878
839.598	0.0153162
839.676	0.0154308
839.754	0.0152284
839.832	0.0153770
839.910	0.0154136
839.988	0.0152932
840.067	0.0152785
840.145	0.0152658
840.223	0.0153043
840.301	0.0153407
840.379	0.0153475
840.457	0.0153770
840.535	0.0154433
840.613	0.0155762
840.692	0.0154024
840.770	0.0154702
840.848	0.0154284
840.926	0.0152320
841.004	0.0153915
841.082	0.0155382
841.160	0.0154547
841.238	0.0154759
841.317	0.0153720
841.395	0.0154576
841.473	0.0153294
841.551	0.0154520
841.629	0.0155357
841.707	0.0153506
841.785	0.0153340
841.863	0.0154771
841.942	0.0154880
842.020	0.0153629
842.098	0.0153323
842.176	0.0153941
842.254	0.0153146
842.332	0.0153230
842.410	0.0153864
842.488	0.0153621
842.567	0.0153179
842.645	0.0153761
842.723	0.0155723
842.801	0.0154909
842.879	0.0153497
842.957	0.0155600
843.035	0.0155479
843.113	0.0154713
843.192	0.0155654
843.270	0.0155601
843.348	0.0155734
843.426	0.0156754
843.504	0.0156148
843.582	0.0154709
843.660	0.0155982
843.738	0.0155914
843.817	0.0156416
843.895	0.0155916
843.973	0.0156107
844.051	0.0155386
844.129	0.0154940
844.207	0.0156007
844.285	0.0154966
844.363	0.0156038
844.442	0.0155407
844.520	0.0154159
844.598	0.0154260
844.676	0.0153416
844.754	0.0152625
844.832	0.0154168
844.910	0.0153043
844.988	0.0153081
845.067	0.0154072
845.145	0.0152550
845.223	0.0154227
845.301	0.0152823
845.379	0.0151661
845.457	0.0152219
845.535	0.0155561
845.613	0.0154181
845.692	0.0155173
845.770	0.0154368
845.848	0.0154568
845.926	0.0155050
846.004	0.0153632
846.082	0.0156108
846.160	0.0155334
846.238	0.0156122
846.317	0.0155827
846.395	0.0155320
846.473	0.0155611
846.551	0.0155557
846.629	0.0155151
846.707	0.0156543
846.785	0.0154854
846.863	0.0154857
846.942	0.0154311
847.020	0.0154398
847.098	0.0155336
847.176	0.0154397
847.254	0.0153720
847.332	0.0153835
847.410	0.0154204
847.488	0.0155238
847.567	0.0153480
847.645	0.0152474
847.723	0.0154201
847.801	0.0154057
847.879	0.0152617
847.957	0.0154539
848.035	0.0153078
848.113	0.0154697
848.192	0.0153751
848.270	0.0154479
848.348	0.0154669
848.426	0.0155096
848.504	0.0154192
848.582	0.0155611
848.660	0.0155458
848.738	0.0154743
848.817	0.0154496
848.895	0.0154749
848.973	0.0156254
849.051	0.0154451
849.129	0.0155385
849.207	0.0154202
849.285	0.0155382
849.363	0.0154626
849.442	0.0153754
849.520	0.0154757
849.598	0.0153596
849.676	0.0153539
849.754	0.0155880
849.832	0.0153882
849.910	0.0154564
849.988	0.0153901
850.067	0.0154494
850.145	0.0153725
850.223	0.0154881
850.301	0.0153755
850.379	0.0153128
850.457	0.0152616
850.535	0.0152139
850.613	0.0153943
850.692	0.0152699
850.770	0.0153854
850.848	0.0153420
850.926	0.0153469
851.004	0.0154602
851.082	0.0154659
851.160	0.0155049
851.238	0.0152750
851.317	0.0154614
851.395	0.0155006
851.473	0.0154868
851.551	0.0154974
851.629	0.0155784
851.707	0.0155788
851.785	0.0155950
851.863	0.0154694
851.942	0.0155891
852.020	0.0154762
852.098	0.0155150
852.176	0.0155875
852.254	0.0155969
852.332	0.0155353
852.410	0.0154105
852.488	0.0153840
852.567	0.0154953
852.645	0.0154986
852.723	0.0153192
852.801	0.0153471
852.879	0.0154349
852.957	0.0154668
853.035	0.0153671
853.113	0.0153788
853.192	0.0153220
853.270	0.0152736
853.348	0.0153909
853.426	0.0154293
853.504	0.0153471
853.582	0.0152258
853.660	0.0153893
853.738	0.0154050
853.817	0.0153056
853.895	0.0154942
853.973	0.0154233
854.051	0.0155053
854.129	0.0154382
854.207	0.0155834
854.285	0.0154602
854.363	0.0154483
854.442	0.0154917
854.520	0.0155348
854.598	0.0156848
854.676	0.0157176
854.754	0.0156902
854.832	0.0155405
854.910	0.0155899
854.988	0.0156177
855.067	0.0155480
855.145	0.0153844
855.223	0.0155785
855.301	0.0154489
855.379	0.0152917
855.457	0.0154831
855.535	0.0154517
855.613	0.0153798
855.692	0.0152616
855.770	0.0153400
855.848	0.0154742
855.926	0.0153886
856.004	0.0151915
856.082	0.0153509
856.160	0.0153472
856.238	0.0152781
856.317	0.0154237
856.395	0.0153693
856.473	0.0154779
856.551	0.0155051
856.629	0.0153217
856.707	0.0155795
856.785	0.0155494
856.863	0.0155447
856.942	0.0155239
857.020	0.0155927
857.098	0.0154501
857.176	0.0155777
857.254	0.0157006
857.332	0.0155120
857.410	0.0155489
857.488	0.0155901
857.567	0.0156076
857.645	0.0153835
857.723	0.0154938
857.801	0.0155218
857.879	0.0154201
857.957	0.0155648
858.035	0.0154025
858.113	0.0154671
858.192	0.0153591
858.270	0.0154277
858.348	0.0153814
858.426	0.0155071
858.504	0.0155318
858.582	0.0153976
858.660	0.0152696
858.738	0.0153690
858.817	0.0154166
858.895	0.0153693
858.973	0.0154530
859.051	0.0153158
859.129	0.0155173
859.207	0.0153275
859.285	0.0154993
859.363	0.0156393
859.442	0.0155561
859.520	0.0154528
859.598	0.0155000
859.676	0.0154485
859.754	0.0155116
859.832	0.0156180
859.910	0.0155689
859.988	0.0154136
860.067	0.0155302
860.145	0.0155547
860.223	0.0155540
860.301	0.0154499
860.379	0.0155508
860.457	0.0153804
860.535	0.0154097
860.613	0.0154349
860.692	0.0154298
860.770	0.0153967
860.848	0.0153982
860.926	0.0153831
861.004	0.0153895
861.082	0.0153432
861.160	0.0154888
861.238	0.0154449
861.317	0.0153015
861.395	0.0154568
861.473	0.0154890
861.551	0.0154775
861.629	0.0155309
861.707	0.0154629
861.785	0.0155514
861.863	0.0155746
861.942	0.0156487
862.020	0.0155240
862.098	0.0154746
862.176	0.0156479
862.254	0.0155672
862.332	0.0154910
862.410	0.0154561
862.488	0.0156030
862.567	0.0155649
862.645	0.0155563
862.723	0.0155157
862.801	0.0155637
862.879	0.0155555
862.957	0.0156988
863.035	0.0154921
863.113	0.0156473
863.192	0.0154904
863.270	0.0156042
863.348	0.0155938
863.426	0.0155946
863.504	0.0155918
863.582	0.0154613
863.660	0.0155251
863.738	0.0154200
863.817	0.0153785
863.895	0.0153111
863.973	0.0154827
864.051	0.0154537
864.129	0.0154507
864.207	0.0153514
864.285	0.0152888
864.363	0.0153928
864.442	0.0153619
864.520	0.0153973
864.598	0.0153039
864.676	0.0154038
864.754	0.0153844
864.832	0.0152238
864.910	0.0153624
864.988	0.0154774
865.067	0.0153268
865.145	0.0154391
865.223	0.0154409
865.301	0.0154152
865.379	0.0154595
865.457	0.0155874
865.535	0.0155106
865.613	0.0155740
865.692	0.0155219
865.770	0.0154799
865.848	0.0156517
865.926	0.0155511
866.004	0.0155900
866.082	0.0155453
866.160	0.0155439
866.238	0.0155821
866.317	0.0154676
866.395	0.0156332
866.473	0.0155644
866.551	0.0154826
866.629	0.0156599
866.707	0.0155185
866.785	0.0155270
866.863	0.0155701
866.942	0.0155892
867.020	0.0155818
867.098	0.0155688
867.176	0.0154280
867.254	0.0153964
867.332	0.0153892
867.410	0.0154427
867.488	0.0154806
867.567	0.0154872
867.645	0.0155676
867.723	0.0156241
867.801	0.0154884
867.879	0.0154720
867.957	0.0154629
868.035	0.0154448
868.113	0.0154165
868.192	0.0155858
868.270	0.0155299
868.348	0.0153243
868.426	0.0155778
868.504	0.0154359
868.582	0.0155809
868.660	0.0156332
868.738	0.0155898
868.817	0.0155605
868.895	0.0156413
868.973	0.0156145
869.051	0.0155447
869.129	0.0156612
869.207	0.0155546
869.285	0.0154894
869.363	0.0155361
869.442	0.0153537
869.520	0.0155064
869.598	0.0154803
869.676	0.0153407
869.754	0.0152699
869.832	0.0152855
869.910	0.0154286
869.988	0.0152560
870.067	0.0152969
870.145	0.0152956
870.223	0.0153670
870.301	0.0152759
870.379	0.0152531
870.457	0.0153029
870.535	0.0153837
870.613	0.0154146
870.692	0.0154630
870.770	0.0155014
870.848	0.0155706
870.926	0.0154666
871.004	0.0156169
871.082	0.0157549
871.160	0.0156208
871.238	0.0157091
871.317	0.0155638
871.395	0.0156101
871.473	0.0156350
871.551	0.0156953
871.629	0.0157314
871.707	0.0154881
871.785	0.0155412
871.863	0.0155373
871.942	0.0154577
872.020	0.0155602
872.098	0.0154608
872.176	0.0154825
872.254	0.0152495
872.332	0.0153204
872.410	0.0153806
872.488	0.0153324
872.567	0.0154446
872.645	0.0154646
872.723	0.0154382
872.801	0.0154205
872.879	0.0155088
872.957	0.0156127
873.035	0.0156257
873.113	0.0156478
873.192	0.0156451
873.270	0.0155878
873.348	0.0154488
873.426	0.0156213
873.504	0.0156906
873.582	0.0156651
873.660	0.0156273
873.738	0.0155306
873.817	0.0154740
873.895	0.0156750
873.973	0.0154665
874.051	0.0155666
874.129	0.0157134
874.207	0.0156749
874.285	0.0156166
874.363	0.0157083
874.442	0.0156260
874.520	0.0157011
874.598	0.0156611
874.676	0.0156597
874.754	0.0156692
874.832	0.0155273
874.910	0.0156295
874.988	0.0156171
875.067	0.0156023
875.145	0.0154762
875.223	0.0156547
875.301	0.0155416
875.379	0.0155174
875.457	0.0154507
875.535	0.0152222
875.613	0.0153546
875.692	0.0154559
875.770	0.0155003
875.848	0.0152411
875.926	0.0153736
876.004	0.0153362
876.082	0.0153451
876.160	0.0154520
876.238	0.0153793
876.317	0.0154353
876.395	0.0154990
876.473	0.0155504
876.551	0.0155157
876.629	0.0155195
876.707	0.0155228
876.785	0.0155381
876.863	0.0155132
876.942	0.0155402
877.020	0.0155106
877.098	0.0155329
877.176	0.0155667
877.254	0.0155604
877.332	0.0156245
877.410	0.0155092
877.488	0.0155332
877.567	0.0155331
877.645	0.0155821
877.723	0.0155554
877.801	0.0155405
877.879	0.0156533
877.957	0.0155552
878.035	0.0154916
878.113	0.0155360
878.192	0.0157957
878.270	0.0156415
878.348	0.0155208
878.426	0.0156756
878.504	0.0155644
878.582	0.0155630
878.660	0.0155665
878.738	0.0154264
878.817	0.0155121
878.895	0.0154887
878.973	0.0154678
879.051	0.0153805
879.129	0.0154883
879.207	0.0155600
879.285	0.0155345
879.363	0.0154673
879.442	0.0154870
879.520	0.0155257
879.598	0.0156482
879.676	0.0156664
879.754	0.0156738
879.832	0.0155719
879.910	0.0156424
879.988	0.0156032
880.067	0.0157026
880.145	0.0155856
880.223	0.0154817
880.301	0.0155150
880.379	0.0155305
880.457	0.0155576
880.535	0.0153985
880.613	0.0153290
880.692	0.0154010
880.770	0.0153332
880.848	0.0153437
880.926	0.0152020
881.004	0.0150987
881.082	0.0151682
881.160	0.0152718
881.238	0.0151415
881.317	0.0151393
881.395	0.0153470
881.473	0.0153636
881.551	0.0152674
881.629	0.0152143
881.707	0.0153217
881.785	0.0153351
881.863	0.0154736
881.942	0.0154255
882.020	0.0156047
882.098	0.0157028
882.176	0.0155870
882.254	0.0155483
882.332	0.0156839
882.410	0.0156403
882.488	0.0157243
882.567	0.0156486
882.645	0.0157167
882.723	0.0157471
882.801	0.0155997
882.879	0.0156316
882.957	0.0156521
883.035	0.0156570
883.113	0.0155952
883.192	0.0154588
883.270	0.0155860
883.348	0.0155677
883.426	0.0155757
883.504	0.0154856
883.582	0.0155304
883.660	0.0155920
883.738	0.0156244
883.817	0.0154696
883.895	0.0156364
883.973	0.0155714
884.051	0.0154823
884.129	0.0155672
884.207	0.0155725
884.285	0.0155531
884.363	0.0155922
884.442	0.0155259
884.520	0.0155262
884.598	0.0154753
884.676	0.0153590
884.754	0.0154372
884.832	0.0153387
884.910	0.0153533
884.988	0.0152721
885.067	0.0152352
885.145	0.0153675
885.223	0.0152759
885.301	0.0153146
885.379	0.0152245
885.457	0.0153370
885.535	0.0152789
885.613	0.0153102
885.692	0.0151854
885.770	0.0153939
885.848	0.0155035
885.926	0.0154512
886.004	0.0153098
886.082	0.0153036
886.160	0.0152943
886.238	0.0154240
886.317	0.0153992
886.395	0.0153590
886.473	0.0154421
886.551	0.0153269
886.629	0.0153187
886.707	0.0153539
886.785	0.0153528
886.863	0.0153741
886.942	0.0154922
887.020	0.0155179
887.098	0.0154588
887.176	0.0155897
887.254	0.0156393
887.332	0.0155975
887.410	0.0154885
887.488	0.0155783
887.567	0.0156051
887.645	0.0157222
887.723	0.0158459
887.801	0.0157715
887.879	0.0157150
887.957	0.0156393
888.035	0.0156121
888.113	0.0156483
888.192	0.0155425
888.270	0.0156229
888.348	0.0155238
888.426	0.0156779
888.504	0.0156358
888.582	0.0155102
888.660	0.0156335
888.738	0.0155013
888.817	0.0154020
888.895	0.0155652
888.973	0.0154784
889.051	0.0153925
889.129	0.0153709
889.207	0.0154056
889.285	0.0155306
889.363	0.0154480
889.442	0.0154666
889.520	0.0154825
889.598	0.0154819
889.676	0.0155215
889.754	0.0155694
889.832	0.0155113
889.910	0.0155524
889.988	0.0154820
890.067	0.0155969
890.145	0.0154411
890.223	0.0155177
890.301	0.0154626
890.379	0.0154935
890.457	0.0153842
890.535	0.0154616
890.613	0.0153938
890.692	0.0153112
890.770	0.0153063
890.848	0.0151696
890.926	0.0153141
891.004	0.0153647
891.082	0.0154271
891.160	0.0153496
891.238	0.0153615
891.317	0.0155303
891.395	0.0154691
891.473	0.0154267
891.551	0.0155553
891.629	0.0155627
891.707	0.0156018
891.785	0.0156422
891.863	0.0155542
891.942	0.0157658
892.020	0.0159022
892.098	0.0158700
892.176	0.0157685
892.254	0.0157896
892.332	0.0158487
892.410	0.0157143
892.488	0.0155725
892.567	0.0158211
892.645	0.0156783
892.723	0.0157094
892.801	0.0156019
892.879	0.0154243
892.957	0.0154328
893.035	0.0153992
893.113	0.0153506
893.192	0.0153852
893.270	0.0153195
893.348	0.0152603
893.426	0.0152822
893.504	0.0152502
893.582	0.0153093
893.660	0.0153662
893.738	0.0154362
893.817	0.0153837
893.895	0.0152939
893.973	0.0154198
894.051	0.0154348
894.129	0.0155108
894.207	0.0156212
894.285	0.0155853
894.363	0.0156801
894.442	0.0155961
894.520	0.0156516
894.598	0.0156221
894.676	0.0156856
894.754	0.0156679
894.832	0.0156367
894.910	0.0155083
894.988	0.0156393
895.067	0.0155841
895.145	0.0156544
895.223	0.0155236
895.301	0.0155798
895.379	0.0154812
895.457	0.0156149
895.535	0.0154668
895.613	0.0155322
895.692	0.0154803
895.770	0.0156025
895.848	0.0153803
895.926	0.0153993
896.004	0.0153943
896.082	0.0155376
896.160	0.0155344
896.238	0.0155672
896.317	0.0156523
896.395	0.0158371
896.473	0.0156421
896.551	0.0158972
896.629	0.0158820
896.707	0.0158009
896.785	0.0158732
896.863	0.0158380
896.942	0.0157579
897.020	0.0158522
897.098	0.0158434
897.176	0.0157199
897.254	0.0156225
897.332	0.0155293
897.410	0.0154516
897.488	0.0154371
897.567	0.0153439
897.645	0.0152663
897.723	0.0152757
897.801	0.0152812
897.879	0.0152399
897.957	0.0152764
898.035	0.0152824
898.113	0.0151711
898.192	0.0152084
898.270	0.0151556
898.348	0.0151069
898.426	0.0152847
898.504	0.0154488
898.582	0.0153047
898.660	0.0153019
898.738	0.0152979
898.817	0.0153664
898.895	0.0155148
898.973	0.0154204
899.051	0.0154221
899.129	0.0155451
899.207	0.0156190
899.285	0.0155463
899.363	0.0155870
899.442	0.0155721
899.520	0.0155545
899.598	0.0156979
899.676	0.0157004
899.754	0.0157699
899.832	0.0155942
899.910	0.0155913
899.988	0.0155664
900.067	0.0155546
900.145	0.0155515
900.223	0.0155869
900.301	0.0155782
900.379	0.0155770
900.457	0.0155770
900.535	0.0154771
900.613	0.0154897
900.692	0.0154997
900.770	0.0153450
900.848	0.0155297
900.926	0.0154589
901.004	0.0155505
901.082	0.0155738
901.160	0.0155395
901.238	0.0156284
901.317	0.0155684
901.395	0.0155759
901.473	0.0156178
901.551	0.0155435
901.629	0.0154781
901.707	0.0155040
901.785	0.0155350
901.863	0.0155186
901.942	0.0154858
902.020	0.0155423
902.098	0.0153349
902.176	0.0153867
902.254	0.0154166
902.332	0.0155050
902.410	0.0153529
902.488	0.0152980
902.567	0.0152207
902.645	0.0154253
902.723	0.0153022
902.801	0.0153516
902.879	0.0152090
902.957	0.0153274
903.035	0.0152704
903.113	0.0152589
903.192	0.0154221
903.270	0.0153887
903.348	0.0154563
903.426	0.0153964
903.504	0.0153471
903.582	0.0153708
903.660	0.0154087
903.738	0.0153989
903.817	0.0154885
903.895	0.0153959
903.973	0.0154635
904.051	0.0154917
904.129	0.0154837
904.207	0.0156230
904.285	0.0153898
904.363	0.0154807
904.442	0.0155963
904.520	0.0155146
904.598	0.0155589
904.676	0.0156491
904.754	0.0154434
904.832	0.0156008
904.910	0.0155417
904.988	0.0155433
905.067	0.0156856
905.145	0.0155826
905.223	0.0154972
905.301	0.0155391
905.379	0.0154255
905.457	0.0153699
905.535	0.0155231
905.613	0.0155650
905.692	0.0156058
905.770	0.0155472
905.848	0.0155288
905.926	0.0155867
906.004	0.0154418
906.082	0.0154263
906.160	0.0156736
906.238	0.0153638
906.317	0.0156216
906.395	0.0156906
906.473	0.0155811
906.551	0.0154061
906.629	0.0155521
906.707	0.0155066
906.785	0.0155035
906.863	0.0153484
906.942	0.0153471
907.020	0.0153629
907.098	0.0152399
907.176	0.0152913
907.254	0.0152462
907.332	0.0151857
907.410	0.0153550
907.488	0.0151971
907.567	0.0153333
907.645	0.0152764
907.723	0.0152379
907.801	0.0154549
907.879	0.0154015
907.957	0.0154751
908.035	0.0154889
908.113	0.0153229
908.192	0.0154782
908.270	0.0155157
908.348	0.0154693
908.426	0.0154988
908.504	0.0154433
908.582	0.0155225
908.660	0.0154409
908.738	0.0154649
908.817	0.0154818
908.895	0.0155874
908.973	0.0153486
909.051	0.0155464
909.129	0.0154597
909.207	0.0154925
909.285	0.0154787
909.363	0.0154234
909.442	0.0154436
909.520	0.0155051
909.598	0.0154975
909.676	0.0155931
909.754	0.0156115
909.832	0.0155016
909.910	0.0156242
909.988	0.0155619
910.067	0.0155246
910.145	0.0156059
910.223	0.0155554
910.301	0.0154073
910.379	0.0156092
910.457	0.0155338
910.535	0.0154931
910.613	0.0154552
910.692	0.0157091
910.770	0.0155215
910.848	0.0155724
910.926	0.0154195
911.004	0.0155350
911.082	0.0155371
911.160	0.0155238
911.238	0.0155705
911.317	0.0154935
911.395	0.0155399
911.473	0.0154376
911.551	0.0154446
911.629	0.0154697
911.707	0.0155075
911.785	0.0155010
911.863	0.0154171
911.942	0.0152785
912.020	0.0153877
912.098	0.0154317
912.176	0.0153795
912.254	0.0153899
912.332	0.0156093
912.410	0.0155308
912.488	0.0152666
912.567	0.0153329
912.645	0.0155831
912.723	0.0155621
912.801	0.0155059
912.879	0.0157105
912.957	0.0154826
913.035	0.0155344
913.113	0.0157439
913.192	0.0156419
913.270	0.0157091
913.348	0.0156521
913.426	0.0156943
913.504	0.0157350
913.582	0.0156177
913.660	0.0156903
913.738	0.0156344
913.817	0.0155745
913.895	0.0155742
913.973	0.0155660
914.051	0.0156136
914.129	0.0154582
914.207	0.0154045
914.285	0.0156308
914.363	0.0154432
914.442	0.0154166
914.520	0.0153436
914.598	0.0154480
914.676	0.0153298
914.754	0.0153272
914.832	0.0154453
914.910	0.0155456
914.988	0.0156580
915.067	0.0154644
915.145	0.0153756
915.223	0.0154415
915.301	0.0154462
915.379	0.0154420
915.457	0.0154096
915.535	0.0155083
915.613	0.0154662
915.692	0.0153886
915.770	0.0153602
915.848	0.0154475
915.926	0.0153867
916.004	0.0154440
916.082	0.0155339
916.160	0.0153427
916.238	0.0154447
916.317	0.0153894
916.395	0.0153905
916.473	0.0154778
916.551	0.0154284
916.629	0.0153869
916.707	0.0154325
916.785	0.0154980
916.863	0.0154684
916.942	0.0153780
917.020	0.0154595
917.098	0.0155682
917.176	0.0155370
917.254	0.0154782
917.332	0.0155745
917.410	0.0155653
917.488	0.0155157
917.567	0.0156319
917.645	0.0155561
917.723	0.0156943
917.801	0.0157562
917.879	0.0156822
917.957	0.0155699
918.035	0.0157297
918.113	0.0155732
918.192	0.0157003
918.270	0.0154023
918.348	0.0155453
918.426	0.0155374
918.504	0.0154660
918.582	0.0154271
918.660	0.0154720
918.738	0.0152799
918.817	0.0153130
918.895	0.0151852
918.973	0.0153453
919.051	0.0153525
919.129	0.0152625
919.207	0.0152467
919.285	0.0152307
919.363	0.0152511
919.442	0.0151749
919.520	0.0152200
919.598	0.0152477
919.676	0.0153608
919.754	0.0154213
919.832	0.0153963
919.910	0.0154633
