05/28/2022	14:07:01	Ver.	4.1	UNKNOWN
Optical Delay	599.988409	Delta X		0.078125	Sweeps	1	Scan Rate	0/0
Coordinates	Axis 1	NaN	Axis 2	NaN	Axis 3	NaN	Axis 4	NaN	Axis 5	NaN	Axis 6	0.000000
TX Power	0.000000	RX Power	0.000000

599.988	0.0136221
600.067	0.0136694
600.145	0.0135802
600.223	0.0136565
600.301	0.0135825
600.379	0.0135104
600.457	0.0135962
600.535	0.0135598
600.613	0.0136394
600.692	0.0136672
600.770	0.0135568
600.848	0.0135841
600.926	0.0136612
601.004	0.0134899
601.082	0.0136502
601.160	0.0135208
601.238	0.0136056
601.317	0.0136078
601.395	0.0136196
601.473	0.0135313
601.551	0.0136604
601.629	0.0135861
601.707	0.0135651
601.785	0.0136497
601.863	0.0136202
601.942	0.0134651
602.020	0.0135960
602.098	0.0135619
602.176	0.0135548
602.254	0.0136472
602.332	0.0135756
602.410	0.0135132
602.488	0.0135828
602.567	0.0136082
602.645	0.0136831
602.723	0.0134995
602.801	0.0135052
602.879	0.0136440
602.957	0.0136168
603.035	0.0136383
603.113	0.0137759
603.192	0.0135841
603.270	0.0135075
603.348	0.0136649
603.426	0.0136131
603.504	0.0136475
603.582	0.0136326
603.660	0.0135512
603.738	0.0136089
603.817	0.0135559
603.895	0.0134940
603.973	0.0136257
604.051	0.0136833
604.129	0.0135873
604.207	0.0135416
604.285	0.0135076
604.363	0.0134586
604.442	0.0137103
604.520	0.0136272
604.598	0.0136402
604.676	0.0136992
604.754	0.0136954
604.832	0.0135867
604.910	0.0135746
604.988	0.0135657
605.067	0.0136390
605.145	0.0135078
605.223	0.0135510
605.301	0.0136090
605.379	0.0134851
605.457	0.0136356
605.535	0.0135880
605.613	0.0133857
605.692	0.0135599
605.770	0.0135429
605.848	0.0135699
605.926	0.0135789
606.004	0.0135258
606.082	0.0135895
606.160	0.0136495
606.238	0.0135609
606.317	0.0135750
606.395	0.0135735
606.473	0.0135712
606.551	0.0135325
606.629	0.0136958
606.707	0.0136989
606.785	0.0135264
606.863	0.0135803
606.942	0.0135806
607.020	0.0135605
607.098	0.0136327
607.176	0.0136496
607.254	0.0134644
607.332	0.0134987
607.410	0.0137475
607.488	0.0135663
607.567	0.0135780
607.645	0.0135788
607.723	0.0135610
607.801	0.0135023
607.879	0.0136264
607.957	0.0134721
608.035	0.0136372
608.113	0.0135686
608.192	0.0134893
608.270	0.0135137
608.348	0.0135210
608.426	0.0136406
608.504	0.0135731
608.582	0.0135517
608.660	0.0136436
608.738	0.0137421
608.817	0.0135940
608.895	0.0136079
608.973	0.0135739
609.051	0.0136665
609.129	0.0135152
609.207	0.0136292
609.285	0.0138181
609.363	0.0134871
609.442	0.0135933
609.520	0.0136411
609.598	0.0136180
609.676	0.0135104
609.754	0.0134999
609.832	0.0135929
609.910	0.0136127
609.988	0.0134947
610.067	0.0135143
610.145	0.0135808
610.223	0.0135989
610.301	0.0136437
610.379	0.0136121
610.457	0.0135780
610.535	0.0135187
610.613	0.0136433
610.692	0.0134960
610.770	0.0135863
610.848	0.0134821
610.926	0.0135594
611.004	0.0135467
611.082	0.0136572
611.160	0.0135088
611.238	0.0135340
611.317	0.0135172
611.395	0.0135815
611.473	0.0134904
611.551	0.0136376
611.629	0.0135806
611.707	0.0134600
611.785	0.0135184
611.863	0.0135189
611.942	0.0135983
612.020	0.0136248
612.098	0.0136233
612.176	0.0136180
612.254	0.0136121
612.332	0.0135072
612.410	0.0135210
612.488	0.0136323
612.567	0.0136865
612.645	0.0135548
612.723	0.0135348
612.801	0.0136147
612.879	0.0135361
612.957	0.0136339
613.035	0.0136164
613.113	0.0135616
613.192	0.0134489
613.270	0.0135163
613.348	0.0135330
613.426	0.0135133
613.504	0.0136393
613.582	0.0135943
613.660	0.0136752
613.738	0.0136799
613.817	0.0135954
613.895	0.0135181
613.973	0.0135217
614.051	0.0136514
614.129	0.0136253
614.207	0.0135343
614.285	0.0136097
614.363	0.0135241
614.442	0.0136004
614.520	0.0135562
614.598	0.0136328
614.676	0.0135769
614.754	0.0136892
614.832	0.0134690
614.910	0.0136395
614.988	0.0135899
615.067	0.0136584
615.145	0.0135147
615.223	0.0136384
615.301	0.0133966
615.379	0.0135142
615.457	0.0136763
615.535	0.0135429
615.613	0.0135753
615.692	0.0136340
615.770	0.0135594
615.848	0.0134700
615.926	0.0136230
616.004	0.0136097
616.082	0.0135690
616.160	0.0135480
616.238	0.0134058
616.317	0.0136111
616.395	0.0135577
616.473	0.0136209
616.551	0.0136465
616.629	0.0136716
616.707	0.0136955
616.785	0.0135680
616.863	0.0134650
616.942	0.0135079
617.020	0.0135918
617.098	0.0136770
617.176	0.0135410
617.254	0.0134863
617.332	0.0135279
617.410	0.0136208
617.488	0.0136388
617.567	0.0134476
617.645	0.0136487
617.723	0.0135204
617.801	0.0136574
617.879	0.0136129
617.957	0.0135691
618.035	0.0135163
618.113	0.0135198
618.192	0.0134583
618.270	0.0135546
618.348	0.0135251
618.426	0.0135924
618.504	0.0137466
618.582	0.0135706
618.660	0.0134612
618.738	0.0135876
618.817	0.0135298
618.895	0.0135940
618.973	0.0135080
619.051	0.0134945
619.129	0.0136641
619.207	0.0135010
619.285	0.0135993
619.363	0.0136242
619.442	0.0136309
619.520	0.0134742
619.598	0.0135831
619.676	0.0136206
619.754	0.0136848
619.832	0.0135863
619.910	0.0134219
619.988	0.0136721
620.067	0.0135790
620.145	0.0136388
620.223	0.0136201
620.301	0.0137034
620.379	0.0136232
620.457	0.0135829
620.535	0.0135633
620.613	0.0136057
620.692	0.0134002
620.770	0.0136234
620.848	0.0137354
620.926	0.0135315
621.004	0.0135162
621.082	0.0134866
621.160	0.0136337
621.238	0.0134367
621.317	0.0137019
621.395	0.0135655
621.473	0.0135593
621.551	0.0135057
621.629	0.0135359
621.707	0.0136108
621.785	0.0135576
621.863	0.0134418
621.942	0.0135116
622.020	0.0135186
622.098	0.0135349
622.176	0.0135642
622.254	0.0134240
622.332	0.0135833
622.410	0.0136624
622.488	0.0136781
622.567	0.0134441
622.645	0.0135603
622.723	0.0135092
622.801	0.0134254
622.879	0.0135275
622.957	0.0135212
623.035	0.0134913
623.113	0.0136439
623.192	0.0135953
623.270	0.0134796
623.348	0.0134998
623.426	0.0134919
623.504	0.0135753
623.582	0.0135892
623.660	0.0136169
623.738	0.0136765
623.817	0.0135606
623.895	0.0135328
623.973	0.0136076
624.051	0.0136279
624.129	0.0136246
624.207	0.0135163
624.285	0.0135693
624.363	0.0135255
624.442	0.0135364
624.520	0.0136123
624.598	0.0136057
624.676	0.0135328
624.754	0.0135630
624.832	0.0135069
624.910	0.0135934
624.988	0.0136377
625.067	0.0134987
625.145	0.0134704
625.223	0.0134040
625.301	0.0135468
625.379	0.0136244
625.457	0.0136875
625.535	0.0137253
625.613	0.0136475
625.692	0.0135488
625.770	0.0136003
625.848	0.0135164
625.926	0.0135256
626.004	0.0135356
626.082	0.0134713
626.160	0.0136368
626.238	0.0136546
626.317	0.0136350
626.395	0.0136345
626.473	0.0135827
626.551	0.0136077
626.629	0.0133770
626.707	0.0135989
626.785	0.0135693
626.863	0.0135922
626.942	0.0135521
627.020	0.0135969
627.098	0.0136294
627.176	0.0135119
627.254	0.0136563
627.332	0.0136012
627.410	0.0135603
627.488	0.0135845
627.567	0.0135870
627.645	0.0135078
627.723	0.0135214
627.801	0.0135065
627.879	0.0135444
627.957	0.0134944
628.035	0.0136236
628.113	0.0135661
628.192	0.0134819
628.270	0.0135849
628.348	0.0136284
628.426	0.0136655
628.504	0.0135397
628.582	0.0134171
628.660	0.0135209
628.738	0.0136124
628.817	0.0135154
628.895	0.0135246
628.973	0.0135212
629.051	0.0135440
629.129	0.0135592
629.207	0.0134288
629.285	0.0136415
629.363	0.0135805
629.442	0.0135014
629.520	0.0136126
629.598	0.0136993
629.676	0.0136716
629.754	0.0136650
629.832	0.0135387
629.910	0.0135553
629.988	0.0137105
630.067	0.0135933
630.145	0.0134476
630.223	0.0135742
630.301	0.0135236
630.379	0.0136051
630.457	0.0135847
630.535	0.0135787
630.613	0.0137062
630.692	0.0136382
630.770	0.0136648
630.848	0.0134720
630.926	0.0134524
631.004	0.0135661
631.082	0.0136924
631.160	0.0135397
631.238	0.0136781
631.317	0.0136606
631.395	0.0135399
631.473	0.0135310
631.551	0.0136484
631.629	0.0134760
631.707	0.0135429
631.785	0.0134284
631.863	0.0137387
631.942	0.0136848
632.020	0.0136862
632.098	0.0136597
632.176	0.0136239
632.254	0.0135619
632.332	0.0135088
632.410	0.0137323
632.488	0.0136732
632.567	0.0136516
632.645	0.0135437
632.723	0.0135158
632.801	0.0136739
632.879	0.0135342
632.957	0.0134927
633.035	0.0137124
633.113	0.0135670
633.192	0.0136343
633.270	0.0135818
633.348	0.0136135
633.426	0.0135595
633.504	0.0135999
633.582	0.0135976
633.660	0.0135751
633.738	0.0137458
633.817	0.0136591
633.895	0.0136789
633.973	0.0135943
634.051	0.0136964
634.129	0.0135358
634.207	0.0135746
634.285	0.0136366
634.363	0.0135716
634.442	0.0136208
634.520	0.0135372
634.598	0.0135925
634.676	0.0136220
634.754	0.0135615
634.832	0.0135493
634.910	0.0136266
634.988	0.0136857
635.067	0.0136061
635.145	0.0135238
635.223	0.0135657
635.301	0.0136510
635.379	0.0135312
635.457	0.0136086
635.535	0.0135940
635.613	0.0136030
635.692	0.0135621
635.770	0.0134874
635.848	0.0136185
635.926	0.0136919
636.004	0.0135052
636.082	0.0136647
636.160	0.0136967
636.238	0.0135854
636.317	0.0136391
636.395	0.0136359
636.473	0.0136981
636.551	0.0135458
636.629	0.0135260
636.707	0.0135990
636.785	0.0136719
636.863	0.0135829
636.942	0.0135613
637.020	0.0134967
637.098	0.0134752
637.176	0.0135622
637.254	0.0135638
637.332	0.0135618
637.410	0.0137000
637.488	0.0135056
637.567	0.0135772
637.645	0.0136956
637.723	0.0134989
637.801	0.0135467
637.879	0.0137073
637.957	0.0134879
638.035	0.0134875
638.113	0.0136745
638.192	0.0135406
638.270	0.0135764
638.348	0.0135551
638.426	0.0135503
638.504	0.0135544
638.582	0.0134646
638.660	0.0134146
638.738	0.0135450
638.817	0.0136519
638.895	0.0136102
638.973	0.0135142
639.051	0.0135941
639.129	0.0135732
639.207	0.0134875
639.285	0.0135266
639.363	0.0136258
639.442	0.0135997
639.520	0.0136243
639.598	0.0136813
639.676	0.0136828
639.754	0.0136620
639.832	0.0135164
639.910	0.0135278
639.988	0.0134954
640.067	0.0135698
640.145	0.0136303
640.223	0.0136771
640.301	0.0135715
640.379	0.0135080
640.457	0.0135677
640.535	0.0137196
640.613	0.0135333
640.692	0.0136564
640.770	0.0136062
640.848	0.0135524
640.926	0.0135268
641.004	0.0135973
641.082	0.0135349
641.160	0.0135754
641.238	0.0139055
641.317	0.0135649
641.395	0.0134724
641.473	0.0135862
641.551	0.0135329
641.629	0.0134805
641.707	0.0134924
641.785	0.0136280
641.863	0.0137289
641.942	0.0136153
642.020	0.0136038
642.098	0.0135838
642.176	0.0135419
642.254	0.0137753
642.332	0.0135773
642.410	0.0135214
642.488	0.0136215
642.567	0.0136744
642.645	0.0134850
642.723	0.0136773
642.801	0.0136927
642.879	0.0136858
642.957	0.0136049
643.035	0.0135974
643.113	0.0135781
643.192	0.0135603
643.270	0.0135927
643.348	0.0137720
643.426	0.0137511
643.504	0.0136166
643.582	0.0134796
643.660	0.0136582
643.738	0.0136171
643.817	0.0135883
643.895	0.0136127
643.973	0.0136134
644.051	0.0136694
644.129	0.0135731
644.207	0.0136150
644.285	0.0134718
644.363	0.0135781
644.442	0.0135213
644.520	0.0135593
644.598	0.0136089
644.676	0.0135474
644.754	0.0136460
644.832	0.0134946
644.910	0.0135188
644.988	0.0136629
645.067	0.0134287
645.145	0.0136932
645.223	0.0134758
645.301	0.0134559
645.379	0.0135775
645.457	0.0135983
645.535	0.0135020
645.613	0.0136665
645.692	0.0134763
645.770	0.0136418
645.848	0.0136578
645.926	0.0136837
646.004	0.0135781
646.082	0.0134995
646.160	0.0135675
646.238	0.0135557
646.317	0.0135709
646.395	0.0135834
646.473	0.0135606
646.551	0.0135069
646.629	0.0136335
646.707	0.0134574
646.785	0.0135795
646.863	0.0136027
646.942	0.0135413
647.020	0.0136015
647.098	0.0137252
647.176	0.0134505
647.254	0.0135078
647.332	0.0136179
647.410	0.0135392
647.488	0.0135107
647.567	0.0135490
647.645	0.0136128
647.723	0.0134452
647.801	0.0134708
647.879	0.0135267
647.957	0.0135589
648.035	0.0136002
648.113	0.0135168
648.192	0.0135939
648.270	0.0136054
648.348	0.0134991
648.426	0.0135677
648.504	0.0134906
648.582	0.0134531
648.660	0.0134164
648.738	0.0136441
648.817	0.0137202
648.895	0.0135205
648.973	0.0135072
649.051	0.0135595
649.129	0.0136568
649.207	0.0134750
649.285	0.0135763
649.363	0.0135620
649.442	0.0134974
649.520	0.0134586
649.598	0.0136346
649.676	0.0134155
649.754	0.0134335
649.832	0.0135397
649.910	0.0135744
649.988	0.0135157
650.067	0.0134930
650.145	0.0134626
650.223	0.0134654
650.301	0.0136565
650.379	0.0134704
650.457	0.0135335
650.535	0.0134841
650.613	0.0135897
650.692	0.0136852
650.770	0.0136344
650.848	0.0136073
650.926	0.0135555
651.004	0.0133650
651.082	0.0134419
651.160	0.0136128
651.238	0.0136491
651.317	0.0135459
651.395	0.0135679
651.473	0.0136805
651.551	0.0136802
651.629	0.0134804
651.707	0.0135294
651.785	0.0135855
651.863	0.0134928
651.942	0.0134409
652.020	0.0135752
652.098	0.0135339
652.176	0.0134896
652.254	0.0135487
652.332	0.0135838
652.410	0.0135174
652.488	0.0135124
652.567	0.0136501
652.645	0.0134527
652.723	0.0135564
652.801	0.0135813
652.879	0.0135912
652.957	0.0136359
653.035	0.0136234
653.113	0.0134695
653.192	0.0136411
653.270	0.0136389
653.348	0.0135483
653.426	0.0135917
653.504	0.0136037
653.582	0.0136413
653.660	0.0135907
653.738	0.0135062
653.817	0.0135175
653.895	0.0136373
653.973	0.0135933
654.051	0.0136113
654.129	0.0135991
654.207	0.0135915
654.285	0.0135491
654.363	0.0135760
654.442	0.0136316
654.520	0.0136918
654.598	0.0136651
654.676	0.0135873
654.754	0.0136138
654.832	0.0135218
654.910	0.0136797
654.988	0.0136943
655.067	0.0137629
655.145	0.0136674
655.223	0.0136614
655.301	0.0136304
655.379	0.0135516
655.457	0.0135818
655.535	0.0134856
655.613	0.0135775
655.692	0.0136652
655.770	0.0136568
655.848	0.0136161
655.926	0.0136462
656.004	0.0136243
656.082	0.0136152
656.160	0.0134913
656.238	0.0136774
656.317	0.0135386
656.395	0.0136725
656.473	0.0136443
656.551	0.0136066
656.629	0.0135467
656.707	0.0135818
656.785	0.0135062
656.863	0.0135612
656.942	0.0136304
657.020	0.0135019
657.098	0.0136646
657.176	0.0135296
657.254	0.0136420
657.332	0.0136665
657.410	0.0136103
657.488	0.0135616
657.567	0.0135069
657.645	0.0136030
657.723	0.0136158
657.801	0.0135435
657.879	0.0135830
657.957	0.0134748
658.035	0.0136033
658.113	0.0134911
658.192	0.0135559
658.270	0.0136449
658.348	0.0135122
658.426	0.0135927
658.504	0.0135239
658.582	0.0136181
658.660	0.0134765
658.738	0.0136002
658.817	0.0136383
658.895	0.0136739
658.973	0.0136012
659.051	0.0135186
659.129	0.0136073
659.207	0.0136208
659.285	0.0136475
659.363	0.0135007
659.442	0.0136475
659.520	0.0134737
659.598	0.0135290
659.676	0.0135361
659.754	0.0136133
659.832	0.0136872
659.910	0.0135707
659.988	0.0136729
660.067	0.0135596
660.145	0.0135789
660.223	0.0136004
660.301	0.0136272
660.379	0.0137165
660.457	0.0137036
660.535	0.0135822
660.613	0.0135337
660.692	0.0136524
660.770	0.0136491
660.848	0.0136710
660.926	0.0136162
661.004	0.0136211
661.082	0.0136347
661.160	0.0136152
661.238	0.0134578
661.317	0.0136935
661.395	0.0135929
661.473	0.0134757
661.551	0.0136324
661.629	0.0135783
661.707	0.0136407
661.785	0.0135124
661.863	0.0136681
661.942	0.0137572
662.020	0.0136703
662.098	0.0136859
662.176	0.0136092
662.254	0.0134409
662.332	0.0135313
662.410	0.0135635
662.488	0.0136290
662.567	0.0136479
662.645	0.0134394
662.723	0.0135851
662.801	0.0135984
662.879	0.0135423
662.957	0.0136785
663.035	0.0135601
663.113	0.0135904
663.192	0.0135159
663.270	0.0136724
663.348	0.0137309
663.426	0.0136561
663.504	0.0135385
663.582	0.0135594
663.660	0.0134917
663.738	0.0135951
663.817	0.0135796
663.895	0.0135317
663.973	0.0134703
664.051	0.0136434
664.129	0.0136306
664.207	0.0136383
664.285	0.0137879
664.363	0.0137355
664.442	0.0135728
664.520	0.0136216
664.598	0.0136802
664.676	0.0137213
664.754	0.0137219
664.832	0.0136861
664.910	0.0137874
664.988	0.0137289
665.067	0.0137402
665.145	0.0134828
665.223	0.0136329
665.301	0.0137396
665.379	0.0135741
665.457	0.0136416
665.535	0.0137349
665.613	0.0136172
665.692	0.0134843
665.770	0.0135044
665.848	0.0134949
665.926	0.0135505
666.004	0.0135497
666.082	0.0134274
666.160	0.0134760
666.238	0.0134489
666.317	0.0134012
666.395	0.0134403
666.473	0.0134562
666.551	0.0135564
666.629	0.0136926
666.707	0.0137730
666.785	0.0137791
666.863	0.0138455
666.942	0.0140210
667.020	0.0140060
667.098	0.0140154
667.176	0.0140352
667.254	0.0140349
667.332	0.0138966
667.410	0.0139826
667.488	0.0140198
667.567	0.0138921
667.645	0.0138254
667.723	0.0137595
667.801	0.0135499
667.879	0.0134579
667.957	0.0131708
668.035	0.0131527
668.113	0.0130007
668.192	0.0128058
668.270	0.0126569
668.348	0.0126952
668.426	0.0127499
668.504	0.0127302
668.582	0.0129053
668.660	0.0130043
668.738	0.0129109
668.817	0.0132426
668.895	0.0131519
668.973	0.0132887
669.051	0.0135288
669.129	0.0137046
669.207	0.0136638
669.285	0.0137201
669.363	0.0138257
669.442	0.0137905
669.520	0.0138370
669.598	0.0138452
669.676	0.0140280
669.754	0.0140446
669.832	0.0139482
669.910	0.0138527
669.988	0.0140415
670.067	0.0138303
670.145	0.0139933
670.223	0.0137286
670.301	0.0137909
670.379	0.0137370
670.457	0.0137693
670.535	0.0137047
670.613	0.0138818
670.692	0.0138819
670.770	0.0138439
670.848	0.0141233
670.926	0.0142009
671.004	0.0141882
671.082	0.0140839
671.160	0.0142777
671.238	0.0141738
671.317	0.0140743
671.395	0.0139629
671.473	0.0140659
671.551	0.0139216
671.629	0.0136442
671.707	0.0134665
671.785	0.0134237
671.863	0.0132645
671.942	0.0129482
672.020	0.0128287
672.098	0.0127434
672.176	0.0125678
672.254	0.0124830
672.332	0.0124097
672.410	0.0123435
672.488	0.0123016
672.567	0.0124220
672.645	0.0125472
672.723	0.0124921
672.801	0.0124705
672.879	0.0125566
672.957	0.0127316
673.035	0.0128464
673.113	0.0129757
673.192	0.0131758
673.270	0.0133778
673.348	0.0135423
673.426	0.0137268
673.504	0.0139528
673.582	0.0140855
673.660	0.0144910
673.738	0.0145603
673.817	0.0146224
673.895	0.0147748
673.973	0.0147966
674.051	0.0146638
674.129	0.0147021
674.207	0.0145518
674.285	0.0144062
674.363	0.0142897
674.442	0.0141362
674.520	0.0139957
674.598	0.0140549
674.676	0.0141160
674.754	0.0140043
674.832	0.0140482
674.910	0.0140918
674.988	0.0139037
675.067	0.0140230
675.145	0.0140152
675.223	0.0138245
675.301	0.0138591
675.379	0.0140475
675.457	0.0137141
675.535	0.0138697
675.613	0.0138084
675.692	0.0137755
675.770	0.0138171
675.848	0.0136337
675.926	0.0136726
676.004	0.0134624
676.082	0.0133890
676.160	0.0132782
676.238	0.0131828
676.317	0.0127911
676.395	0.0124995
676.473	0.0123924
676.551	0.0120455
676.629	0.0120582
676.707	0.0119689
676.785	0.0119159
676.863	0.0118196
676.942	0.0117522
677.020	0.0116060
677.098	0.0115848
677.176	0.0117126
677.254	0.0118374
677.332	0.0119390
677.410	0.0121844
677.488	0.0124421
677.567	0.0124013
677.645	0.0126858
677.723	0.0128954
677.801	0.0133584
677.879	0.0135468
677.957	0.0139459
678.035	0.0141980
678.113	0.0145292
678.192	0.0148693
678.270	0.0150573
678.348	0.0152551
678.426	0.0152495
678.504	0.0153593
678.582	0.0155389
678.660	0.0156228
678.738	0.0156613
678.817	0.0156677
678.895	0.0155942
678.973	0.0155327
679.051	0.0154702
679.129	0.0153860
679.207	0.0150925
679.285	0.0151215
679.363	0.0151550
679.442	0.0148737
679.520	0.0146613
679.598	0.0144701
679.676	0.0143304
679.754	0.0141049
679.832	0.0137628
679.910	0.0134933
679.988	0.0133046
680.067	0.0131818
680.145	0.0129453
680.223	0.0129624
680.301	0.0128221
680.379	0.0127421
680.457	0.0126202
680.535	0.0124737
680.613	0.0124189
680.692	0.0124449
680.770	0.0122057
680.848	0.0121901
680.926	0.0121412
681.004	0.0121266
681.082	0.0119837
681.160	0.0119506
681.238	0.0120100
681.317	0.0119878
681.395	0.0120992
681.473	0.0122722
681.551	0.0123938
681.629	0.0124512
681.707	0.0125710
681.785	0.0126534
681.863	0.0127512
681.942	0.0129639
682.020	0.0131641
682.098	0.0131584
682.176	0.0133455
682.254	0.0133916
682.332	0.0135280
682.410	0.0135281
682.488	0.0133860
682.567	0.0135155
682.645	0.0135674
682.723	0.0133985
682.801	0.0132558
682.879	0.0133210
682.957	0.0133464
683.035	0.0133331
683.113	0.0133347
683.192	0.0133876
683.270	0.0138412
683.348	0.0138947
683.426	0.0140779
683.504	0.0144471
683.582	0.0147622
683.660	0.0149673
683.738	0.0153261
683.817	0.0155750
683.895	0.0158412
683.973	0.0160261
684.051	0.0161147
684.129	0.0162312
684.207	0.0164738
684.285	0.0163670
684.363	0.0163761
684.442	0.0162083
684.520	0.0159988
684.598	0.0157365
684.676	0.0154598
684.754	0.0151466
684.832	0.0146755
684.910	0.0143332
684.988	0.0139645
685.067	0.0134809
685.145	0.0131560
685.223	0.0127483
685.301	0.0124628
685.379	0.0123005
685.457	0.0120383
685.535	0.0118179
685.613	0.0116401
685.692	0.0116946
685.770	0.0114864
685.848	0.0113601
685.926	0.0113063
686.004	0.0112705
686.082	0.0112862
686.160	0.0113978
686.238	0.0113664
686.317	0.0114252
686.395	0.0117625
686.473	0.0117402
686.551	0.0118571
686.629	0.0119116
686.707	0.0122171
686.785	0.0123253
686.863	0.0125363
686.942	0.0124852
687.020	0.0124573
687.098	0.0125607
687.176	0.0125237
687.254	0.0125978
687.332	0.0125903
687.410	0.0127669
687.488	0.0129391
687.567	0.0132176
687.645	0.0133997
687.723	0.0135529
687.801	0.0139402
687.879	0.0142500
687.957	0.0145284
688.035	0.0148432
688.113	0.0151561
688.192	0.0152458
688.270	0.0153520
688.348	0.0156867
688.426	0.0157858
688.504	0.0157880
688.582	0.0159244
688.660	0.0160197
688.738	0.0158652
688.817	0.0158857
688.895	0.0158411
688.973	0.0156229
689.051	0.0155209
689.129	0.0154473
689.207	0.0154591
689.285	0.0153826
689.363	0.0152579
689.442	0.0151386
689.520	0.0152245
689.598	0.0149708
689.676	0.0149466
689.754	0.0148524
689.832	0.0147292
689.910	0.0146845
689.988	0.0144399
690.067	0.0141936
690.145	0.0139959
690.223	0.0138203
690.301	0.0133426
690.379	0.0130446
690.457	0.0127660
690.535	0.0125059
690.613	0.0121004
690.692	0.0120249
690.770	0.0114621
690.848	0.0113429
690.926	0.0109193
691.004	0.0109629
691.082	0.0107214
691.160	0.0105706
691.238	0.0104794
691.317	0.0104482
691.395	0.0105782
691.473	0.0106971
691.551	0.0108042
691.629	0.0111770
691.707	0.0114063
691.785	0.0115836
691.863	0.0119518
691.942	0.0122503
692.020	0.0128184
692.098	0.0129240
692.176	0.0132518
692.254	0.0133735
692.332	0.0136311
692.410	0.0140102
692.488	0.0139210
692.567	0.0140701
692.645	0.0143590
692.723	0.0142071
692.801	0.0143687
692.879	0.0144071
692.957	0.0143645
693.035	0.0145583
693.113	0.0144736
693.192	0.0146534
693.270	0.0146396
693.348	0.0147059
693.426	0.0149049
693.504	0.0148931
693.582	0.0149518
693.660	0.0149602
693.738	0.0150400
693.817	0.0151705
693.895	0.0151516
693.973	0.0151966
694.051	0.0152870
694.129	0.0153233
694.207	0.0153646
694.285	0.0155585
694.363	0.0153719
694.442	0.0153551
694.520	0.0153596
694.598	0.0151686
694.676	0.0150562
694.754	0.0148481
694.832	0.0144706
694.910	0.0143204
694.988	0.0139569
695.067	0.0137905
695.145	0.0134574
695.223	0.0130398
695.301	0.0127207
695.379	0.0124534
695.457	0.0122016
695.535	0.0120206
695.613	0.0119185
695.692	0.0118187
695.770	0.0116192
695.848	0.0115625
695.926	0.0116509
696.004	0.0117786
696.082	0.0119404
696.160	0.0121389
696.238	0.0123723
696.317	0.0126446
696.395	0.0129309
696.473	0.0133623
696.551	0.0133138
696.629	0.0135857
696.707	0.0137428
696.785	0.0138734
696.863	0.0138603
696.942	0.0138960
697.020	0.0138681
697.098	0.0137606
697.176	0.0136659
697.254	0.0136288
697.332	0.0132768
697.410	0.0131715
697.488	0.0130378
697.567	0.0128728
697.645	0.0128519
697.723	0.0127939
697.801	0.0126920
697.879	0.0127243
697.957	0.0127271
698.035	0.0127621
698.113	0.0126878
698.192	0.0127819
698.270	0.0129053
698.348	0.0129924
698.426	0.0129550
698.504	0.0132597
698.582	0.0135212
698.660	0.0134689
698.738	0.0137043
698.817	0.0139400
698.895	0.0142322
698.973	0.0142610
699.051	0.0144283
699.129	0.0144777
699.207	0.0145672
699.285	0.0146154
699.363	0.0146719
699.442	0.0148125
699.520	0.0148660
699.598	0.0146709
699.676	0.0146352
699.754	0.0145792
699.832	0.0145224
699.910	0.0142255
699.988	0.0143038
700.067	0.0142219
700.145	0.0139909
700.223	0.0138229
700.301	0.0137535
700.379	0.0136762
700.457	0.0136053
700.535	0.0135442
700.613	0.0136075
700.692	0.0137483
700.770	0.0135069
700.848	0.0136983
700.926	0.0139267
701.004	0.0139516
701.082	0.0139455
701.160	0.0140630
701.238	0.0141801
701.317	0.0139858
701.395	0.0141242
701.473	0.0140274
701.551	0.0138457
701.629	0.0137797
701.707	0.0137275
701.785	0.0136080
701.863	0.0133707
701.942	0.0132561
702.020	0.0132299
702.098	0.0129651
702.176	0.0128668
702.254	0.0128011
702.332	0.0127702
702.410	0.0127153
702.488	0.0124934
702.567	0.0124605
702.645	0.0122754
702.723	0.0123834
702.801	0.0124088
702.879	0.0122039
702.957	0.0123026
703.035	0.0122494
703.113	0.0122264
703.192	0.0122856
703.270	0.0123866
703.348	0.0124568
703.426	0.0123716
703.504	0.0124297
703.582	0.0126186
703.660	0.0127023
703.738	0.0128310
703.817	0.0127962
703.895	0.0129498
703.973	0.0129783
704.051	0.0132235
704.129	0.0133437
704.207	0.0136175
704.285	0.0137208
704.363	0.0138803
704.442	0.0140765
704.520	0.0141966
704.598	0.0142187
704.676	0.0143981
704.754	0.0146573
704.832	0.0146491
704.910	0.0147261
704.988	0.0149565
705.067	0.0150312
705.145	0.0150246
705.223	0.0149100
705.301	0.0149804
705.379	0.0149700
705.457	0.0150943
705.535	0.0150838
705.613	0.0150826
705.692	0.0150481
705.770	0.0149673
705.848	0.0148788
705.926	0.0146181
706.004	0.0145386
706.082	0.0144667
706.160	0.0143046
706.238	0.0141413
706.317	0.0140145
706.395	0.0137362
706.473	0.0136185
706.551	0.0133015
706.629	0.0131458
706.707	0.0130413
706.785	0.0129995
706.863	0.0129070
706.942	0.0128838
707.020	0.0127507
707.098	0.0125850
707.176	0.0126511
707.254	0.0126688
707.332	0.0125167
707.410	0.0126261
707.488	0.0127290
707.567	0.0126891
707.645	0.0127529
707.723	0.0127346
707.801	0.0127376
707.879	0.0128693
707.957	0.0127342
708.035	0.0128056
708.113	0.0127509
708.192	0.0127892
708.270	0.0129691
708.348	0.0129642
708.426	0.0129455
708.504	0.0129566
708.582	0.0131233
708.660	0.0131409
708.738	0.0133667
708.817	0.0133978
708.895	0.0133636
708.973	0.0135142
709.051	0.0133337
709.129	0.0132800
709.207	0.0133462
709.285	0.0133028
709.363	0.0131716
709.442	0.0131986
709.520	0.0132040
709.598	0.0133121
709.676	0.0133512
709.754	0.0134407
709.832	0.0135513
709.910	0.0136228
709.988	0.0137665
710.067	0.0140005
710.145	0.0141481
710.223	0.0142355
710.301	0.0142980
710.379	0.0144007
710.457	0.0145827
710.535	0.0146759
710.613	0.0147633
710.692	0.0148147
710.770	0.0148633
710.848	0.0148344
710.926	0.0148824
711.004	0.0149492
711.082	0.0148629
711.160	0.0149297
711.238	0.0147240
711.317	0.0147858
711.395	0.0146771
711.473	0.0143081
711.551	0.0142638
711.629	0.0139899
711.707	0.0138389
711.785	0.0137207
711.863	0.0135417
711.942	0.0132911
712.020	0.0131472
712.098	0.0130866
712.176	0.0128689
712.254	0.0127340
712.332	0.0126577
712.410	0.0125874
712.488	0.0125510
712.567	0.0126717
712.645	0.0127265
712.723	0.0126791
712.801	0.0126789
712.879	0.0128365
712.957	0.0129129
713.035	0.0127963
713.113	0.0129640
713.192	0.0130104
713.270	0.0130753
713.348	0.0131397
713.426	0.0132029
713.504	0.0132381
713.582	0.0132438
713.660	0.0133051
713.738	0.0132717
713.817	0.0132909
713.895	0.0133688
713.973	0.0133717
714.051	0.0133417
714.129	0.0132875
714.207	0.0133224
714.285	0.0133431
714.363	0.0134685
714.442	0.0132383
714.520	0.0132977
714.598	0.0134541
714.676	0.0133964
714.754	0.0133415
714.832	0.0135239
714.910	0.0136137
714.988	0.0136391
715.067	0.0138264
715.145	0.0138876
715.223	0.0141474
715.301	0.0141423
715.379	0.0142375
715.457	0.0142605
715.535	0.0144902
715.613	0.0145225
715.692	0.0141803
715.770	0.0142946
715.848	0.0142395
715.926	0.0141012
716.004	0.0140266
716.082	0.0141172
716.160	0.0139412
716.238	0.0138401
716.317	0.0138481
716.395	0.0137468
716.473	0.0136348
716.551	0.0136375
716.629	0.0135970
716.707	0.0136350
716.785	0.0135993
716.863	0.0135771
716.942	0.0137099
717.020	0.0135406
717.098	0.0133255
717.176	0.0132150
717.254	0.0133158
717.332	0.0132806
717.410	0.0131357
717.488	0.0130077
717.567	0.0128813
717.645	0.0129485
717.723	0.0128416
717.801	0.0129933
717.879	0.0128461
717.957	0.0128775
718.035	0.0130616
718.113	0.0131670
718.192	0.0133071
718.270	0.0133817
718.348	0.0135822
718.426	0.0138154
718.504	0.0139343
718.582	0.0140527
718.660	0.0140527
718.738	0.0142548
718.817	0.0143007
718.895	0.0143111
718.973	0.0142755
719.051	0.0141330
719.129	0.0142107
719.207	0.0142355
719.285	0.0142152
719.363	0.0140927
719.442	0.0140706
719.520	0.0139168
719.598	0.0137221
719.676	0.0135413
719.754	0.0135301
719.832	0.0135374
719.910	0.0133272
719.988	0.0133967
720.067	0.0132182
720.145	0.0133270
720.223	0.0133000
720.301	0.0131437
720.379	0.0130865
720.457	0.0132382
720.535	0.0131458
720.613	0.0132252
720.692	0.0130407
720.770	0.0131297
720.848	0.0130878
720.926	0.0131017
721.004	0.0131712
721.082	0.0131920
721.160	0.0130797
721.238	0.0132196
721.317	0.0133514
721.395	0.0131338
721.473	0.0131755
721.551	0.0131978
721.629	0.0132651
721.707	0.0131973
721.785	0.0134299
721.863	0.0135060
721.942	0.0134650
722.020	0.0137319
722.098	0.0137930
722.176	0.0138924
722.254	0.0139478
722.332	0.0139107
722.410	0.0139380
722.488	0.0140591
722.567	0.0139922
722.645	0.0140031
722.723	0.0139320
722.801	0.0141521
722.879	0.0138570
722.957	0.0137664
723.035	0.0138155
723.113	0.0138475
723.192	0.0137146
723.270	0.0137090
723.348	0.0137863
723.426	0.0138039
723.504	0.0139057
723.582	0.0139856
723.660	0.0139577
723.738	0.0140686
723.817	0.0141929
723.895	0.0141450
723.973	0.0141816
724.051	0.0141700
724.129	0.0141331
724.207	0.0141019
724.285	0.0141015
724.363	0.0139218
724.442	0.0138293
724.520	0.0135937
724.598	0.0134363
724.676	0.0133189
724.754	0.0132182
724.832	0.0131727
724.910	0.0130432
724.988	0.0129005
725.067	0.0127513
725.145	0.0128481
725.223	0.0126611
725.301	0.0124637
725.379	0.0124604
725.457	0.0126267
725.535	0.0125159
725.613	0.0125687
725.692	0.0127238
725.770	0.0127432
725.848	0.0130567
725.926	0.0130560
726.004	0.0131377
726.082	0.0134580
726.160	0.0136392
726.238	0.0136711
726.317	0.0137798
726.395	0.0141015
726.473	0.0141603
726.551	0.0142464
726.629	0.0142204
726.707	0.0142166
726.785	0.0141243
726.863	0.0140845
726.942	0.0140343
727.020	0.0137897
727.098	0.0136285
727.176	0.0134132
727.254	0.0132192
727.332	0.0131526
727.410	0.0130555
727.488	0.0130997
727.567	0.0130870
727.645	0.0130485
727.723	0.0130793
727.801	0.0133364
727.879	0.0133872
727.957	0.0133283
728.035	0.0135345
728.113	0.0137842
728.192	0.0139629
728.270	0.0140498
728.348	0.0141160
728.426	0.0141227
728.504	0.0142107
728.582	0.0141723
728.660	0.0143194
728.738	0.0141023
728.817	0.0141419
728.895	0.0141448
728.973	0.0141469
729.051	0.0138802
729.129	0.0139444
729.207	0.0139127
729.285	0.0138891
729.363	0.0137337
729.442	0.0136569
729.520	0.0136951
729.598	0.0135081
729.676	0.0135721
729.754	0.0134604
729.832	0.0133458
729.910	0.0132890
729.988	0.0131339
730.067	0.0131583
730.145	0.0130176
730.223	0.0129427
730.301	0.0129075
730.379	0.0127231
730.457	0.0129842
730.535	0.0127669
730.613	0.0127828
730.692	0.0127106
730.770	0.0126862
730.848	0.0127916
730.926	0.0130205
731.004	0.0128822
731.082	0.0130265
731.160	0.0131165
731.238	0.0131528
731.317	0.0134238
731.395	0.0135046
731.473	0.0136021
731.551	0.0137185
731.629	0.0137929
731.707	0.0141251
731.785	0.0143097
731.863	0.0141656
731.942	0.0142665
732.020	0.0143711
732.098	0.0142283
732.176	0.0142156
732.254	0.0143037
732.332	0.0140136
732.410	0.0138136
732.488	0.0136589
732.567	0.0134540
732.645	0.0135139
732.723	0.0133347
732.801	0.0133163
732.879	0.0131960
732.957	0.0131897
733.035	0.0132816
733.113	0.0133564
733.192	0.0133555
733.270	0.0133831
733.348	0.0135478
733.426	0.0136181
733.504	0.0135126
733.582	0.0138572
733.660	0.0139651
733.738	0.0140385
733.817	0.0140697
733.895	0.0140513
733.973	0.0141163
734.051	0.0141540
734.129	0.0142374
734.207	0.0142435
734.285	0.0141991
734.363	0.0142835
734.442	0.0141018
734.520	0.0140954
734.598	0.0140089
734.676	0.0138733
734.754	0.0135724
734.832	0.0135710
734.910	0.0135592
734.988	0.0133194
735.067	0.0131767
735.145	0.0130679
735.223	0.0129714
735.301	0.0129262
735.379	0.0129084
735.457	0.0126260
735.535	0.0129264
735.613	0.0129639
735.692	0.0128342
735.770	0.0129913
735.848	0.0128472
735.926	0.0128348
736.004	0.0129922
736.082	0.0131329
736.160	0.0131071
736.238	0.0131371
736.317	0.0133033
736.395	0.0132189
736.473	0.0132713
736.551	0.0134332
736.629	0.0135037
736.707	0.0135056
736.785	0.0136568
736.863	0.0135755
736.942	0.0136346
737.020	0.0137525
737.098	0.0138667
737.176	0.0139375
737.254	0.0139462
737.332	0.0139471
737.410	0.0139983
737.488	0.0140289
737.567	0.0140457
737.645	0.0140742
737.723	0.0140123
737.801	0.0140582
737.879	0.0140073
737.957	0.0139517
738.035	0.0139477
738.113	0.0137038
738.192	0.0137080
738.270	0.0136556
738.348	0.0135506
738.426	0.0133296
738.504	0.0135184
738.582	0.0135536
738.660	0.0133774
738.738	0.0134188
738.817	0.0135857
738.895	0.0136081
738.973	0.0135084
739.051	0.0135509
739.129	0.0137485
739.207	0.0138601
739.285	0.0138113
739.363	0.0139191
739.442	0.0139001
739.520	0.0139656
739.598	0.0140113
739.676	0.0140646
739.754	0.0139094
739.832	0.0138930
739.910	0.0139421
739.988	0.0138324
740.067	0.0139418
740.145	0.0138995
740.223	0.0135787
740.301	0.0134966
740.379	0.0134469
740.457	0.0131964
740.535	0.0132273
740.613	0.0132220
740.692	0.0132096
740.770	0.0130825
740.848	0.0131413
740.926	0.0129399
741.004	0.0131923
741.082	0.0132237
741.160	0.0133040
741.238	0.0132298
741.317	0.0132395
741.395	0.0133118
741.473	0.0134601
741.551	0.0134247
741.629	0.0133918
741.707	0.0134295
741.785	0.0135105
741.863	0.0133958
741.942	0.0135627
742.020	0.0135365
742.098	0.0134583
742.176	0.0134257
742.254	0.0135065
742.332	0.0134312
742.410	0.0135734
742.488	0.0135493
742.567	0.0136695
742.645	0.0135934
742.723	0.0137246
742.801	0.0137006
742.879	0.0136058
742.957	0.0135513
743.035	0.0136276
743.113	0.0136475
743.192	0.0137070
743.270	0.0136830
743.348	0.0137245
743.426	0.0138023
743.504	0.0136526
743.582	0.0136388
743.660	0.0137489
743.738	0.0137567
743.817	0.0137276
743.895	0.0136450
743.973	0.0135929
744.051	0.0137259
744.129	0.0135921
744.207	0.0135304
744.285	0.0135435
744.363	0.0135434
744.442	0.0135674
744.520	0.0137086
744.598	0.0138171
744.676	0.0137598
744.754	0.0137496
744.832	0.0138779
744.910	0.0138039
744.988	0.0139687
745.067	0.0139687
745.145	0.0138567
745.223	0.0139262
745.301	0.0139026
745.379	0.0139251
745.457	0.0137570
745.535	0.0137012
745.613	0.0135737
745.692	0.0135004
745.770	0.0135008
745.848	0.0134610
745.926	0.0133179
746.004	0.0132598
746.082	0.0132079
746.160	0.0132096
746.238	0.0133070
746.317	0.0131773
746.395	0.0131409
746.473	0.0134173
746.551	0.0133221
746.629	0.0132769
746.707	0.0135827
746.785	0.0136434
746.863	0.0136044
746.942	0.0136355
747.020	0.0138484
747.098	0.0137441
747.176	0.0136603
747.254	0.0136990
747.332	0.0137350
747.410	0.0136415
747.488	0.0135806
747.567	0.0137388
747.645	0.0134998
747.723	0.0132850
747.801	0.0135040
747.879	0.0133520
747.957	0.0132076
748.035	0.0133926
748.113	0.0131977
748.192	0.0133217
748.270	0.0131330
748.348	0.0132150
748.426	0.0132027
748.504	0.0131835
748.582	0.0133104
748.660	0.0132713
748.738	0.0133526
748.817	0.0135296
748.895	0.0134498
748.973	0.0133338
749.051	0.0134482
749.129	0.0136660
749.207	0.0136328
749.285	0.0137823
749.363	0.0137370
749.442	0.0137860
749.520	0.0138445
749.598	0.0138890
749.676	0.0139748
749.754	0.0140157
749.832	0.0139960
749.910	0.0140789
749.988	0.0139735
750.067	0.0140224
750.145	0.0140399
750.223	0.0141154
750.301	0.0140318
750.379	0.0138749
750.457	0.0139693
750.535	0.0139871
750.613	0.0137058
750.692	0.0137016
750.770	0.0137688
750.848	0.0135612
750.926	0.0134275
751.004	0.0133675
751.082	0.0133223
751.160	0.0132646
751.238	0.0131441
751.317	0.0130691
751.395	0.0131162
751.473	0.0130051
751.551	0.0130501
751.629	0.0130982
751.707	0.0132511
751.785	0.0130672
751.863	0.0132212
751.942	0.0134644
752.020	0.0134209
752.098	0.0133974
752.176	0.0135680
752.254	0.0136861
752.332	0.0137473
752.410	0.0136787
752.488	0.0139192
752.567	0.0138474
752.645	0.0139729
752.723	0.0140517
752.801	0.0139671
752.879	0.0138999
752.957	0.0137222
753.035	0.0138435
753.113	0.0138240
753.192	0.0138251
753.270	0.0139426
753.348	0.0135645
753.426	0.0135571
753.504	0.0135279
753.582	0.0135932
753.660	0.0134603
753.738	0.0133160
753.817	0.0133371
753.895	0.0134093
753.973	0.0134405
754.051	0.0133017
754.129	0.0133709
754.207	0.0132584
754.285	0.0132486
754.363	0.0132410
754.442	0.0133804
754.520	0.0133875
754.598	0.0133346
754.676	0.0133421
754.754	0.0135346
754.832	0.0136679
754.910	0.0133884
754.988	0.0136390
755.067	0.0138053
755.145	0.0138381
755.223	0.0137845
755.301	0.0137879
755.379	0.0138430
755.457	0.0138627
755.535	0.0139102
755.613	0.0138902
755.692	0.0137464
755.770	0.0138328
755.848	0.0136057
755.926	0.0135616
756.004	0.0135652
756.082	0.0134490
756.160	0.0134305
756.238	0.0132149
756.317	0.0132675
756.395	0.0132622
756.473	0.0133844
756.551	0.0133543
756.629	0.0131595
756.707	0.0133047
756.785	0.0132744
756.863	0.0133224
756.942	0.0133150
757.020	0.0134708
757.098	0.0134917
757.176	0.0134196
757.254	0.0136628
757.332	0.0137041
757.410	0.0136213
757.488	0.0137904
757.567	0.0139381
757.645	0.0138902
757.723	0.0140518
757.801	0.0141051
757.879	0.0139879
757.957	0.0140612
758.035	0.0139984
758.113	0.0139896
758.192	0.0139799
758.270	0.0140508
758.348	0.0138284
758.426	0.0139184
758.504	0.0139113
758.582	0.0138327
758.660	0.0136884
758.738	0.0137505
758.817	0.0136187
758.895	0.0135414
758.973	0.0135565
759.051	0.0134821
759.129	0.0135267
759.207	0.0133704
759.285	0.0132911
759.363	0.0133101
759.442	0.0133704
759.520	0.0131638
759.598	0.0131850
759.676	0.0132959
759.754	0.0132072
759.832	0.0132469
759.910	0.0132451
759.988	0.0131410
760.067	0.0132427
760.145	0.0131976
760.223	0.0132836
760.301	0.0133636
760.379	0.0135197
760.457	0.0134964
760.535	0.0134830
760.613	0.0135582
760.692	0.0136916
760.770	0.0136279
760.848	0.0136001
760.926	0.0137122
761.004	0.0136036
761.082	0.0135650
761.160	0.0137156
761.238	0.0137833
761.317	0.0137394
761.395	0.0135290
761.473	0.0136069
761.551	0.0134739
761.629	0.0136455
761.707	0.0135026
761.785	0.0133973
761.863	0.0135941
761.942	0.0135941
762.020	0.0134045
762.098	0.0134555
762.176	0.0135964
762.254	0.0135425
762.332	0.0136017
762.410	0.0136206
762.488	0.0138555
762.567	0.0137936
762.645	0.0138800
762.723	0.0138890
762.801	0.0139976
762.879	0.0139488
762.957	0.0139777
763.035	0.0139510
763.113	0.0139626
763.192	0.0138739
763.270	0.0140036
763.348	0.0138438
763.426	0.0138658
763.504	0.0139789
763.582	0.0137573
763.660	0.0137666
763.738	0.0136559
763.817	0.0136493
763.895	0.0135810
763.973	0.0136812
764.051	0.0136255
764.129	0.0134190
764.207	0.0134763
764.285	0.0133719
764.363	0.0132854
764.442	0.0133438
764.520	0.0132101
764.598	0.0132481
764.676	0.0132891
764.754	0.0132206
764.832	0.0132124
764.910	0.0132676
764.988	0.0132626
765.067	0.0133244
765.145	0.0133978
765.223	0.0135379
765.301	0.0133860
765.379	0.0134644
765.457	0.0136416
765.535	0.0137170
765.613	0.0137328
765.692	0.0137067
765.770	0.0136531
765.848	0.0137102
765.926	0.0136848
766.004	0.0136678
766.082	0.0135441
766.160	0.0136572
766.238	0.0135487
766.317	0.0134704
766.395	0.0135893
766.473	0.0135638
766.551	0.0136127
766.629	0.0134701
766.707	0.0135906
766.785	0.0135489
766.863	0.0136097
766.942	0.0135047
767.020	0.0136812
767.098	0.0136511
767.176	0.0136782
767.254	0.0137360
767.332	0.0138061
767.410	0.0136526
767.488	0.0136674
767.567	0.0135678
767.645	0.0136428
767.723	0.0135502
767.801	0.0134531
767.879	0.0136273
767.957	0.0135535
768.035	0.0134901
768.113	0.0134640
768.192	0.0136638
768.270	0.0134969
768.348	0.0135586
768.426	0.0136335
768.504	0.0135421
768.582	0.0136211
768.660	0.0134599
768.738	0.0135749
768.817	0.0135035
768.895	0.0136420
768.973	0.0135621
769.051	0.0135110
769.129	0.0136343
769.207	0.0135702
769.285	0.0136375
769.363	0.0135902
769.442	0.0134069
769.520	0.0133784
769.598	0.0135574
769.676	0.0132623
769.754	0.0133539
769.832	0.0134581
769.910	0.0133909
769.988	0.0133826
770.067	0.0134769
770.145	0.0135701
770.223	0.0135186
770.301	0.0135878
770.379	0.0136947
770.457	0.0135586
770.535	0.0138018
770.613	0.0137385
770.692	0.0137272
770.770	0.0137820
770.848	0.0138931
770.926	0.0139948
771.004	0.0140044
771.082	0.0140259
771.160	0.0139898
771.238	0.0138539
771.317	0.0138486
771.395	0.0138329
771.473	0.0139329
771.551	0.0138845
771.629	0.0136103
771.707	0.0136426
771.785	0.0137246
771.863	0.0134275
771.942	0.0134693
772.020	0.0134119
772.098	0.0133086
772.176	0.0133577
772.254	0.0132609
772.332	0.0132800
772.410	0.0132101
772.488	0.0132085
772.567	0.0132207
772.645	0.0131631
772.723	0.0131699
772.801	0.0132316
772.879	0.0133856
772.957	0.0133016
773.035	0.0133180
773.113	0.0133753
773.192	0.0134491
773.270	0.0134804
773.348	0.0133498
773.426	0.0134159
773.504	0.0135677
773.582	0.0136192
773.660	0.0136303
773.738	0.0136391
773.817	0.0136759
773.895	0.0135491
773.973	0.0137336
774.051	0.0137122
774.129	0.0136010
774.207	0.0137729
774.285	0.0137922
774.363	0.0136937
774.442	0.0136472
774.520	0.0136958
774.598	0.0136022
774.676	0.0135060
774.754	0.0135944
774.832	0.0136444
774.910	0.0135640
774.988	0.0137984
775.067	0.0136015
775.145	0.0136517
775.223	0.0135771
775.301	0.0135500
775.379	0.0136346
775.457	0.0136027
775.535	0.0136332
775.613	0.0135358
775.692	0.0135956
775.770	0.0135693
775.848	0.0135775
775.926	0.0136130
776.004	0.0136521
776.082	0.0137745
776.160	0.0136199
776.238	0.0137691
776.317	0.0136399
776.395	0.0135529
776.473	0.0136266
776.551	0.0136684
776.629	0.0137159
776.707	0.0136200
776.785	0.0135936
776.863	0.0135625
776.942	0.0135830
777.020	0.0135974
777.098	0.0135699
777.176	0.0134828
777.254	0.0134582
777.332	0.0133801
777.410	0.0133055
777.488	0.0133492
777.567	0.0133257
777.645	0.0132891
777.723	0.0132820
777.801	0.0131774
777.879	0.0133091
777.957	0.0133009
778.035	0.0131586
778.113	0.0131325
778.192	0.0130804
778.270	0.0129948
778.348	0.0132025
778.426	0.0132706
778.504	0.0132973
778.582	0.0132440
778.660	0.0133660
778.738	0.0135136
778.817	0.0135177
778.895	0.0135732
778.973	0.0138273
779.051	0.0138386
779.129	0.0137785
779.207	0.0138255
779.285	0.0138761
779.363	0.0138927
779.442	0.0141420
779.520	0.0139536
779.598	0.0140404
779.676	0.0139757
779.754	0.0139089
779.832	0.0139287
779.910	0.0138020
779.988	0.0138689
780.067	0.0138186
780.145	0.0136691
780.223	0.0137852
780.301	0.0138081
780.379	0.0138326
780.457	0.0138404
780.535	0.0136571
780.613	0.0135822
780.692	0.0137051
780.770	0.0137828
780.848	0.0136530
780.926	0.0136381
781.004	0.0137009
781.082	0.0136973
781.160	0.0137479
781.238	0.0137561
781.317	0.0136205
781.395	0.0135845
781.473	0.0135889
781.551	0.0135650
781.629	0.0135335
781.707	0.0135765
781.785	0.0135307
781.863	0.0134010
781.942	0.0134076
782.020	0.0135776
782.098	0.0134766
782.176	0.0134918
782.254	0.0133951
782.332	0.0134635
782.410	0.0134746
782.488	0.0133714
782.567	0.0134428
782.645	0.0133359
782.723	0.0134441
782.801	0.0134473
782.879	0.0133112
782.957	0.0132527
783.035	0.0134029
783.113	0.0133205
783.192	0.0132156
783.270	0.0134255
783.348	0.0134134
783.426	0.0133953
783.504	0.0132278
783.582	0.0134037
783.660	0.0133173
783.738	0.0132676
783.817	0.0134055
783.895	0.0134277
783.973	0.0133175
784.051	0.0134750
784.129	0.0135206
784.207	0.0134988
784.285	0.0137749
784.363	0.0137171
784.442	0.0136317
784.520	0.0139288
784.598	0.0138859
784.676	0.0138809
784.754	0.0140240
784.832	0.0140104
784.910	0.0139841
784.988	0.0140687
785.067	0.0140077
785.145	0.0138750
785.223	0.0140040
785.301	0.0139348
785.379	0.0138137
785.457	0.0137461
785.535	0.0137384
785.613	0.0137920
785.692	0.0137547
785.770	0.0136954
785.848	0.0137245
785.926	0.0136511
786.004	0.0137231
786.082	0.0136425
786.160	0.0136697
786.238	0.0135050
786.317	0.0136452
786.395	0.0135460
786.473	0.0136560
786.551	0.0136605
786.629	0.0136691
786.707	0.0136163
786.785	0.0136636
786.863	0.0136417
786.942	0.0137106
787.020	0.0135655
787.098	0.0135554
787.176	0.0135686
787.254	0.0135755
787.332	0.0136108
787.410	0.0135806
787.488	0.0134018
787.567	0.0133266
787.645	0.0133810
787.723	0.0134676
787.801	0.0134634
787.879	0.0134312
787.957	0.0133450
788.035	0.0132936
788.113	0.0133681
788.192	0.0133101
788.270	0.0130838
788.348	0.0131940
788.426	0.0130669
788.504	0.0132337
788.582	0.0132265
788.660	0.0130502
788.738	0.0130302
788.817	0.0129979
788.895	0.0131544
788.973	0.0132581
789.051	0.0132954
789.129	0.0134566
789.207	0.0133528
789.285	0.0134694
789.363	0.0134746
789.442	0.0138573
789.520	0.0137478
789.598	0.0138466
789.676	0.0138934
789.754	0.0138966
789.832	0.0138274
789.910	0.0140848
789.988	0.0140111
790.067	0.0140756
790.145	0.0139638
790.223	0.0139633
790.301	0.0141743
790.379	0.0141380
790.457	0.0139420
790.535	0.0138870
790.613	0.0138398
790.692	0.0138531
790.770	0.0138753
790.848	0.0137003
790.926	0.0137142
791.004	0.0135754
791.082	0.0137093
791.160	0.0135908
791.238	0.0136201
791.317	0.0135940
791.395	0.0134801
791.473	0.0134888
791.551	0.0134238
791.629	0.0134562
791.707	0.0134809
791.785	0.0134978
791.863	0.0133431
791.942	0.0133482
792.020	0.0132576
792.098	0.0134300
792.176	0.0133945
792.254	0.0134258
792.332	0.0134262
792.410	0.0135420
792.488	0.0133982
792.567	0.0135473
792.645	0.0134464
792.723	0.0136455
792.801	0.0136116
792.879	0.0136601
792.957	0.0136878
793.035	0.0137057
793.113	0.0136216
793.192	0.0135754
793.270	0.0136089
793.348	0.0135954
793.426	0.0134927
793.504	0.0135223
793.582	0.0134772
793.660	0.0134756
793.738	0.0133475
793.817	0.0134030
793.895	0.0132567
793.973	0.0132983
794.051	0.0133108
794.129	0.0132755
794.207	0.0132817
794.285	0.0131691
794.363	0.0133475
794.442	0.0133392
794.520	0.0133199
794.598	0.0134302
794.676	0.0135793
794.754	0.0135478
794.832	0.0136436
794.910	0.0137531
794.988	0.0137187
795.067	0.0139458
795.145	0.0139697
795.223	0.0138573
795.301	0.0139910
795.379	0.0138197
795.457	0.0138933
795.535	0.0140128
795.613	0.0138831
795.692	0.0139529
795.770	0.0139751
795.848	0.0138750
795.926	0.0136820
796.004	0.0138250
796.082	0.0137537
796.160	0.0136530
796.238	0.0134778
796.317	0.0135821
796.395	0.0136748
796.473	0.0134046
796.551	0.0135042
796.629	0.0133598
796.707	0.0134387
796.785	0.0133913
796.863	0.0133765
796.942	0.0133685
797.020	0.0134865
797.098	0.0134504
797.176	0.0134694
797.254	0.0133221
797.332	0.0134565
797.410	0.0134845
797.488	0.0134166
797.567	0.0135786
797.645	0.0137106
797.723	0.0135699
797.801	0.0136178
797.879	0.0137502
797.957	0.0136636
798.035	0.0136623
798.113	0.0136750
798.192	0.0138773
798.270	0.0137178
798.348	0.0137900
798.426	0.0138076
798.504	0.0136509
798.582	0.0136623
798.660	0.0134900
798.738	0.0136095
798.817	0.0136716
798.895	0.0136110
798.973	0.0135155
799.051	0.0135595
799.129	0.0134038
799.207	0.0132856
799.285	0.0134786
799.363	0.0134646
799.442	0.0134697
799.520	0.0133807
799.598	0.0133660
799.676	0.0133445
799.754	0.0133392
799.832	0.0132854
799.910	0.0133740
799.988	0.0134135
800.067	0.0132473
800.145	0.0133354
800.223	0.0131960
800.301	0.0133790
800.379	0.0133904
800.457	0.0133941
800.535	0.0134941
800.613	0.0134413
800.692	0.0135387
800.770	0.0137251
800.848	0.0137209
800.926	0.0139198
801.004	0.0137880
801.082	0.0140437
801.160	0.0141148
801.238	0.0139803
801.317	0.0138654
801.395	0.0139735
801.473	0.0140157
801.551	0.0139886
801.629	0.0139780
801.707	0.0141070
801.785	0.0137038
801.863	0.0138618
801.942	0.0137062
802.020	0.0137623
802.098	0.0135527
802.176	0.0135324
802.254	0.0135009
802.332	0.0133667
802.410	0.0133292
802.488	0.0134046
802.567	0.0133746
802.645	0.0134035
802.723	0.0134124
802.801	0.0133597
802.879	0.0133128
802.957	0.0133479
803.035	0.0134759
803.113	0.0135548
803.192	0.0135484
803.270	0.0135635
803.348	0.0135584
803.426	0.0137565
803.504	0.0138023
803.582	0.0138184
803.660	0.0137533
803.738	0.0137201
803.817	0.0137130
803.895	0.0136758
803.973	0.0134174
804.051	0.0134827
804.129	0.0135328
804.207	0.0135392
804.285	0.0135232
804.363	0.0134200
804.442	0.0133951
804.520	0.0134694
804.598	0.0133742
804.676	0.0134788
804.754	0.0132977
804.832	0.0134758
804.910	0.0133568
804.988	0.0134060
805.067	0.0133888
805.145	0.0134463
805.223	0.0134090
805.301	0.0134530
805.379	0.0133752
805.457	0.0134224
805.535	0.0134246
805.613	0.0134293
805.692	0.0134614
805.770	0.0135256
805.848	0.0136596
805.926	0.0135424
806.004	0.0135722
806.082	0.0137682
806.160	0.0137577
806.238	0.0136886
806.317	0.0137659
806.395	0.0138464
806.473	0.0138579
806.551	0.0137888
806.629	0.0139195
806.707	0.0137894
806.785	0.0138670
806.863	0.0138786
806.942	0.0139256
807.020	0.0138047
807.098	0.0138344
807.176	0.0137154
807.254	0.0138010
807.332	0.0137476
807.410	0.0136096
807.488	0.0138068
807.567	0.0135896
807.645	0.0135515
807.723	0.0135094
807.801	0.0134615
807.879	0.0135220
807.957	0.0133830
808.035	0.0135393
808.113	0.0134207
808.192	0.0134230
808.270	0.0133655
808.348	0.0136044
808.426	0.0134827
808.504	0.0134116
808.582	0.0132225
808.660	0.0135311
808.738	0.0135949
808.817	0.0137137
808.895	0.0134567
808.973	0.0136354
809.051	0.0137014
809.129	0.0137980
809.207	0.0137334
809.285	0.0138207
809.363	0.0137357
809.442	0.0137107
809.520	0.0136863
809.598	0.0136689
809.676	0.0136663
809.754	0.0135817
809.832	0.0135395
809.910	0.0137378
809.988	0.0135752
810.067	0.0134983
810.145	0.0134691
810.223	0.0133683
810.301	0.0133342
810.379	0.0134827
810.457	0.0132839
810.535	0.0134156
810.613	0.0135248
810.692	0.0133302
810.770	0.0132020
810.848	0.0134467
810.926	0.0133712
811.004	0.0133732
811.082	0.0134406
811.160	0.0134270
811.238	0.0135265
811.317	0.0134818
811.395	0.0136343
811.473	0.0135092
811.551	0.0134534
811.629	0.0135639
811.707	0.0136707
811.785	0.0136580
811.863	0.0136709
811.942	0.0136149
812.020	0.0136166
812.098	0.0136415
812.176	0.0138102
812.254	0.0137714
812.332	0.0136014
812.410	0.0137144
812.488	0.0137907
812.567	0.0136707
812.645	0.0137525
812.723	0.0135915
812.801	0.0136275
812.879	0.0136862
812.957	0.0136692
813.035	0.0136805
813.113	0.0136813
813.192	0.0135542
813.270	0.0136000
813.348	0.0136333
813.426	0.0136181
813.504	0.0135783
813.582	0.0135643
813.660	0.0135638
813.738	0.0134112
813.817	0.0133109
813.895	0.0133897
813.973	0.0134222
814.051	0.0133631
814.129	0.0134911
814.207	0.0135403
814.285	0.0135714
814.363	0.0134435
814.442	0.0134740
814.520	0.0134603
814.598	0.0134645
814.676	0.0136535
814.754	0.0135538
814.832	0.0136076
814.910	0.0135935
814.988	0.0137832
815.067	0.0137773
815.145	0.0137196
815.223	0.0137391
815.301	0.0137820
815.379	0.0137673
815.457	0.0136456
815.535	0.0137553
815.613	0.0136218
815.692	0.0137260
815.770	0.0137473
815.848	0.0137223
815.926	0.0134635
816.004	0.0135336
816.082	0.0135921
816.160	0.0135030
816.238	0.0134839
816.317	0.0134348
816.395	0.0133770
816.473	0.0134953
816.551	0.0133755
816.629	0.0135695
816.707	0.0134543
816.785	0.0132878
816.863	0.0134389
816.942	0.0135701
817.020	0.0135567
817.098	0.0135524
817.176	0.0136803
817.254	0.0136265
817.332	0.0136183
817.410	0.0137030
817.488	0.0136932
817.567	0.0136660
817.645	0.0136115
817.723	0.0136391
817.801	0.0136123
817.879	0.0136553
817.957	0.0135826
818.035	0.0136313
818.113	0.0136093
818.192	0.0135883
818.270	0.0134550
818.348	0.0134399
818.426	0.0135234
818.504	0.0132905
818.582	0.0134959
818.660	0.0133675
818.738	0.0134644
818.817	0.0133879
818.895	0.0135933
818.973	0.0133041
819.051	0.0134123
819.129	0.0132682
819.207	0.0134417
819.285	0.0135042
819.363	0.0135306
819.442	0.0136439
819.520	0.0136100
819.598	0.0135074
819.676	0.0137113
819.754	0.0138134
819.832	0.0136310
819.910	0.0136330
819.988	0.0137882
820.067	0.0138890
820.145	0.0138365
820.223	0.0139072
820.301	0.0139106
820.379	0.0138129
820.457	0.0137457
820.535	0.0137481
820.613	0.0138696
820.692	0.0137843
820.770	0.0137175
820.848	0.0136658
820.926	0.0136063
821.004	0.0136607
821.082	0.0137467
821.160	0.0135284
821.238	0.0135409
821.317	0.0135129
821.395	0.0135076
821.473	0.0135584
821.551	0.0134740
821.629	0.0134560
821.707	0.0135930
821.785	0.0135336
821.863	0.0134142
821.942	0.0134132
822.020	0.0133656
822.098	0.0133807
822.176	0.0135222
822.254	0.0135557
822.332	0.0134896
822.410	0.0134277
822.488	0.0135053
822.567	0.0136155
822.645	0.0135526
822.723	0.0135024
822.801	0.0136336
822.879	0.0134729
822.957	0.0135124
823.035	0.0135426
823.113	0.0134689
823.192	0.0136859
823.270	0.0137130
823.348	0.0136089
823.426	0.0136377
823.504	0.0136365
823.582	0.0135072
823.660	0.0137379
823.738	0.0135600
823.817	0.0136900
823.895	0.0135304
823.973	0.0136152
824.051	0.0136165
824.129	0.0135133
824.207	0.0135934
824.285	0.0135480
824.363	0.0136600
824.442	0.0134888
824.520	0.0135625
824.598	0.0135938
824.676	0.0135753
824.754	0.0136187
824.832	0.0134843
824.910	0.0135104
824.988	0.0136241
825.067	0.0135829
825.145	0.0136012
825.223	0.0137421
825.301	0.0136845
825.379	0.0136246
825.457	0.0137394
825.535	0.0137511
825.613	0.0137621
825.692	0.0136435
825.770	0.0137911
825.848	0.0137095
825.926	0.0137362
826.004	0.0136309
826.082	0.0136588
826.160	0.0137068
826.238	0.0136975
826.317	0.0136258
826.395	0.0135771
826.473	0.0136171
826.551	0.0137685
826.629	0.0135216
826.707	0.0135954
826.785	0.0135457
826.863	0.0135291
826.942	0.0134851
827.020	0.0136469
827.098	0.0135081
827.176	0.0135960
827.254	0.0135851
827.332	0.0133803
827.410	0.0135161
827.488	0.0134566
827.567	0.0134493
827.645	0.0135162
827.723	0.0135023
827.801	0.0136754
827.879	0.0136172
827.957	0.0135117
828.035	0.0135049
828.113	0.0135107
828.192	0.0133984
828.270	0.0132529
828.348	0.0134840
828.426	0.0134588
828.504	0.0136005
828.582	0.0135291
828.660	0.0134975
828.738	0.0136732
828.817	0.0136984
828.895	0.0135044
828.973	0.0136797
829.051	0.0136179
829.129	0.0136629
829.207	0.0136559
829.285	0.0137699
829.363	0.0137648
829.442	0.0136556
829.520	0.0136552
829.598	0.0136905
829.676	0.0134940
829.754	0.0136989
829.832	0.0136283
829.910	0.0136288
829.988	0.0135644
830.067	0.0135577
830.145	0.0136536
830.223	0.0136909
830.301	0.0134227
830.379	0.0135259
830.457	0.0135912
830.535	0.0137484
830.613	0.0135680
830.692	0.0135365
830.770	0.0135775
830.848	0.0134818
830.926	0.0134817
831.004	0.0134811
831.082	0.0136927
831.160	0.0136448
831.238	0.0135817
831.317	0.0135330
831.395	0.0134233
831.473	0.0134785
831.551	0.0135678
831.629	0.0134818
831.707	0.0136076
831.785	0.0136596
831.863	0.0134574
831.942	0.0135015
832.020	0.0136173
832.098	0.0135252
832.176	0.0135777
832.254	0.0136617
832.332	0.0134841
832.410	0.0135885
832.488	0.0135033
832.567	0.0136173
832.645	0.0135499
832.723	0.0136868
832.801	0.0135967
832.879	0.0135011
832.957	0.0135761
833.035	0.0135982
833.113	0.0134595
833.192	0.0134715
833.270	0.0136030
833.348	0.0133944
833.426	0.0136076
833.504	0.0135088
833.582	0.0134917
833.660	0.0135299
833.738	0.0135139
833.817	0.0135677
833.895	0.0133569
833.973	0.0134782
834.051	0.0135981
834.129	0.0135643
834.207	0.0135231
834.285	0.0136045
834.363	0.0134838
834.442	0.0136005
834.520	0.0136326
834.598	0.0135814
834.676	0.0135706
834.754	0.0136517
834.832	0.0136264
834.910	0.0137827
834.988	0.0137229
835.067	0.0135394
835.145	0.0136568
835.223	0.0136601
835.301	0.0135755
835.379	0.0136221
835.457	0.0134252
835.535	0.0135229
835.613	0.0136980
835.692	0.0135070
835.770	0.0135755
835.848	0.0136052
835.926	0.0135513
836.004	0.0135055
836.082	0.0136087
836.160	0.0134485
836.238	0.0134317
836.317	0.0135239
836.395	0.0136111
836.473	0.0135208
836.551	0.0135043
836.629	0.0135381
836.707	0.0134978
836.785	0.0135251
836.863	0.0136674
836.942	0.0137260
837.020	0.0136629
837.098	0.0135588
837.176	0.0135002
837.254	0.0134959
837.332	0.0137482
837.410	0.0136534
837.488	0.0136024
837.567	0.0136627
837.645	0.0134776
837.723	0.0136932
837.801	0.0136555
837.879	0.0136703
837.957	0.0136063
838.035	0.0135262
838.113	0.0136478
838.192	0.0135522
838.270	0.0137821
838.348	0.0137228
838.426	0.0136208
838.504	0.0135923
838.582	0.0138026
838.660	0.0136180
838.738	0.0134888
838.817	0.0136484
838.895	0.0137251
838.973	0.0136442
839.051	0.0135987
839.129	0.0136125
839.207	0.0135136
839.285	0.0136120
839.363	0.0135117
839.442	0.0135468
839.520	0.0134698
839.598	0.0135932
839.676	0.0135915
839.754	0.0134397
839.832	0.0135435
839.910	0.0136865
839.988	0.0135777
840.067	0.0135114
840.145	0.0135263
840.223	0.0134904
840.301	0.0136559
840.379	0.0136535
840.457	0.0136932
840.535	0.0135201
840.613	0.0135799
840.692	0.0135713
840.770	0.0136316
840.848	0.0136932
840.926	0.0134286
841.004	0.0135881
841.082	0.0135794
841.160	0.0135913
841.238	0.0136054
841.317	0.0134756
841.395	0.0134145
841.473	0.0136711
841.551	0.0135962
841.629	0.0135819
841.707	0.0135329
841.785	0.0134249
841.863	0.0136143
841.942	0.0135064
842.020	0.0135189
842.098	0.0135808
842.176	0.0135786
842.254	0.0135256
842.332	0.0135789
842.410	0.0136168
842.488	0.0136668
842.567	0.0136897
842.645	0.0136156
842.723	0.0137637
842.801	0.0137392
842.879	0.0136943
842.957	0.0135923
843.035	0.0135770
843.113	0.0138898
843.192	0.0138121
843.270	0.0137543
843.348	0.0135912
843.426	0.0137335
843.504	0.0138395
843.582	0.0137167
843.660	0.0136812
843.738	0.0136166
843.817	0.0134960
843.895	0.0136510
843.973	0.0135020
844.051	0.0135361
844.129	0.0136173
844.207	0.0135046
844.285	0.0134429
844.363	0.0134287
844.442	0.0134667
844.520	0.0135755
844.598	0.0135847
844.676	0.0135602
844.754	0.0134176
844.832	0.0134537
844.910	0.0134145
844.988	0.0135784
845.067	0.0134859
845.145	0.0134427
845.223	0.0134906
845.301	0.0133273
845.379	0.0135562
845.457	0.0135619
845.535	0.0134538
845.613	0.0134827
845.692	0.0135132
845.770	0.0136700
845.848	0.0135772
845.926	0.0136216
846.004	0.0136885
846.082	0.0135236
846.160	0.0135612
846.238	0.0136404
846.317	0.0136667
846.395	0.0136403
846.473	0.0135459
846.551	0.0136157
846.629	0.0136074
846.707	0.0136562
846.785	0.0135134
846.863	0.0137070
846.942	0.0136115
847.020	0.0136941
847.098	0.0136079
847.176	0.0137577
847.254	0.0136488
847.332	0.0136464
847.410	0.0135430
847.488	0.0136943
847.567	0.0136843
847.645	0.0136526
847.723	0.0135911
847.801	0.0136099
847.879	0.0136818
847.957	0.0134950
848.035	0.0135408
848.113	0.0136390
848.192	0.0135120
848.270	0.0136080
848.348	0.0135146
848.426	0.0135987
848.504	0.0136253
848.582	0.0135552
848.660	0.0134509
848.738	0.0136108
848.817	0.0136668
848.895	0.0135300
848.973	0.0134241
849.051	0.0135058
849.129	0.0135258
849.207	0.0135353
849.285	0.0135532
849.363	0.0135769
849.442	0.0135474
849.520	0.0135280
849.598	0.0135333
849.676	0.0135429
849.754	0.0136613
849.832	0.0136749
849.910	0.0135201
849.988	0.0135788
850.067	0.0136243
850.145	0.0134829
850.223	0.0135793
850.301	0.0137302
850.379	0.0135780
850.457	0.0134752
850.535	0.0135238
850.613	0.0135691
850.692	0.0135819
850.770	0.0136470
850.848	0.0136820
850.926	0.0136339
851.004	0.0135005
851.082	0.0134969
851.160	0.0135930
851.238	0.0136110
851.317	0.0136178
851.395	0.0136289
851.473	0.0135593
851.551	0.0137451
851.629	0.0135853
851.707	0.0137110
851.785	0.0136202
851.863	0.0136990
851.942	0.0136933
852.020	0.0136837
852.098	0.0137753
852.176	0.0137884
852.254	0.0136582
852.332	0.0136964
852.410	0.0138425
852.488	0.0137468
852.567	0.0136246
852.645	0.0136213
852.723	0.0137018
852.801	0.0137162
852.879	0.0135493
852.957	0.0135656
853.035	0.0135342
853.113	0.0135664
853.192	0.0134421
853.270	0.0136207
853.348	0.0135358
853.426	0.0134128
853.504	0.0135661
853.582	0.0134085
853.660	0.0134328
853.738	0.0135072
853.817	0.0134928
853.895	0.0132877
853.973	0.0134679
854.051	0.0135706
854.129	0.0134724
854.207	0.0135005
854.285	0.0134475
854.363	0.0135188
854.442	0.0134324
854.520	0.0135728
854.598	0.0136011
854.676	0.0135835
854.754	0.0136799
854.832	0.0136530
854.910	0.0136514
854.988	0.0136921
855.067	0.0136449
855.145	0.0138452
855.223	0.0137653
855.301	0.0137963
855.379	0.0137201
855.457	0.0135390
855.535	0.0136372
855.613	0.0135865
855.692	0.0137112
855.770	0.0136303
855.848	0.0135006
855.926	0.0135503
856.004	0.0136571
856.082	0.0135950
856.160	0.0135504
856.238	0.0135667
856.317	0.0134575
856.395	0.0134620
856.473	0.0135110
856.551	0.0135043
856.629	0.0136377
856.707	0.0134563
856.785	0.0134574
856.863	0.0136360
856.942	0.0135818
857.020	0.0136221
857.098	0.0136900
857.176	0.0136095
857.254	0.0135465
857.332	0.0135971
857.410	0.0136703
857.488	0.0134901
857.567	0.0135485
857.645	0.0135858
857.723	0.0135703
857.801	0.0136673
857.879	0.0136778
857.957	0.0136387
858.035	0.0135260
858.113	0.0134972
858.192	0.0136676
858.270	0.0135271
858.348	0.0135121
858.426	0.0134385
858.504	0.0133938
858.582	0.0135221
858.660	0.0134709
858.738	0.0136703
858.817	0.0135713
858.895	0.0134248
858.973	0.0135681
859.051	0.0134905
859.129	0.0134821
859.207	0.0135571
859.285	0.0136530
859.363	0.0135841
859.442	0.0136108
859.520	0.0135699
859.598	0.0136227
859.676	0.0135809
859.754	0.0134846
859.832	0.0135527
859.910	0.0136253
859.988	0.0135374
860.067	0.0135735
860.145	0.0137476
860.223	0.0137219
860.301	0.0137581
860.379	0.0137558
860.457	0.0138125
860.535	0.0137907
860.613	0.0138486
860.692	0.0136906
860.770	0.0136693
860.848	0.0136977
860.926	0.0136795
861.004	0.0136215
861.082	0.0136982
861.160	0.0134528
861.238	0.0134256
861.317	0.0135277
861.395	0.0134606
861.473	0.0133501
861.551	0.0134607
861.629	0.0134552
861.707	0.0133980
861.785	0.0134313
861.863	0.0135185
861.942	0.0134579
862.020	0.0134528
862.098	0.0134384
862.176	0.0135334
862.254	0.0134709
862.332	0.0135261
862.410	0.0134510
862.488	0.0136138
862.567	0.0135948
862.645	0.0135542
862.723	0.0136456
862.801	0.0136700
862.879	0.0137234
862.957	0.0135368
863.035	0.0136829
863.113	0.0135979
863.192	0.0136859
863.270	0.0136671
863.348	0.0136854
863.426	0.0136281
863.504	0.0135753
863.582	0.0137210
863.660	0.0137119
863.738	0.0137170
863.817	0.0135435
863.895	0.0133643
863.973	0.0136559
864.051	0.0136355
864.129	0.0135484
864.207	0.0135500
864.285	0.0135354
864.363	0.0134616
864.442	0.0135032
864.520	0.0135300
864.598	0.0135688
864.676	0.0136895
864.754	0.0136742
864.832	0.0135252
864.910	0.0135302
864.988	0.0135839
865.067	0.0136195
865.145	0.0136112
865.223	0.0135137
865.301	0.0135352
865.379	0.0136010
865.457	0.0136575
865.535	0.0135670
865.613	0.0134660
865.692	0.0136468
865.770	0.0137433
865.848	0.0135541
865.926	0.0134998
866.004	0.0136340
866.082	0.0135053
866.160	0.0135085
866.238	0.0135088
866.317	0.0136198
866.395	0.0136644
866.473	0.0136600
866.551	0.0136074
866.629	0.0136808
866.707	0.0137227
866.785	0.0137370
866.863	0.0137805
866.942	0.0136134
867.020	0.0137558
867.098	0.0136366
867.176	0.0136291
867.254	0.0135443
867.332	0.0136742
867.410	0.0134763
867.488	0.0134941
867.567	0.0135399
867.645	0.0134366
867.723	0.0133885
867.801	0.0133733
867.879	0.0133656
867.957	0.0134638
868.035	0.0133853
868.113	0.0133155
868.192	0.0133665
868.270	0.0133675
868.348	0.0134201
868.426	0.0134177
868.504	0.0134068
868.582	0.0134209
868.660	0.0135639
868.738	0.0136183
868.817	0.0135983
868.895	0.0135317
868.973	0.0135985
869.051	0.0135933
869.129	0.0135685
869.207	0.0136821
869.285	0.0136636
869.363	0.0136562
869.442	0.0136877
869.520	0.0135640
869.598	0.0136316
869.676	0.0136740
869.754	0.0135426
869.832	0.0135877
869.910	0.0135827
869.988	0.0134943
870.067	0.0136143
870.145	0.0135519
870.223	0.0135892
870.301	0.0134843
870.379	0.0134400
870.457	0.0135143
870.535	0.0135517
870.613	0.0136142
870.692	0.0136827
870.770	0.0136349
870.848	0.0135490
870.926	0.0136207
871.004	0.0136493
871.082	0.0134480
871.160	0.0137345
871.238	0.0136625
871.317	0.0136683
871.395	0.0137161
871.473	0.0137348
871.551	0.0138122
871.629	0.0137207
871.707	0.0136428
871.785	0.0135349
871.863	0.0135907
871.942	0.0135725
872.020	0.0135881
872.098	0.0136407
872.176	0.0134818
872.254	0.0136444
872.332	0.0135950
872.410	0.0135250
872.488	0.0132962
872.567	0.0133714
872.645	0.0135194
872.723	0.0133755
872.801	0.0134052
872.879	0.0134045
872.957	0.0132934
873.035	0.0133143
873.113	0.0133862
873.192	0.0136050
873.270	0.0135291
873.348	0.0134190
873.426	0.0135768
873.504	0.0134376
873.582	0.0136357
873.660	0.0135444
873.738	0.0135089
873.817	0.0137049
873.895	0.0135619
873.973	0.0135986
874.051	0.0136830
874.129	0.0136195
874.207	0.0135488
874.285	0.0134129
874.363	0.0135297
874.442	0.0134664
874.520	0.0136152
874.598	0.0135336
874.676	0.0134943
874.754	0.0136829
874.832	0.0135688
874.910	0.0134957
874.988	0.0135376
875.067	0.0136379
875.145	0.0135416
875.223	0.0137472
875.301	0.0136668
875.379	0.0138284
875.457	0.0139000
875.535	0.0138759
875.613	0.0138054
875.692	0.0137811
875.770	0.0139709
875.848	0.0138893
875.926	0.0138396
876.004	0.0137511
876.082	0.0137502
876.160	0.0138263
876.238	0.0137097
876.317	0.0137392
876.395	0.0136719
876.473	0.0135580
876.551	0.0135292
876.629	0.0136919
876.707	0.0135450
876.785	0.0135089
876.863	0.0133533
876.942	0.0134727
877.020	0.0134439
877.098	0.0134850
877.176	0.0133929
877.254	0.0134527
877.332	0.0134505
877.410	0.0135667
877.488	0.0134862
877.567	0.0135447
877.645	0.0135894
877.723	0.0135328
877.801	0.0136312
877.879	0.0135851
877.957	0.0135358
878.035	0.0135191
878.113	0.0134959
878.192	0.0136922
878.270	0.0135516
878.348	0.0134290
878.426	0.0134348
878.504	0.0134361
878.582	0.0134843
878.660	0.0133817
878.738	0.0134528
878.817	0.0133252
878.895	0.0132996
878.973	0.0134440
879.051	0.0133538
879.129	0.0133653
879.207	0.0133149
879.285	0.0132478
879.363	0.0133755
879.442	0.0135104
879.520	0.0135544
879.598	0.0135983
879.676	0.0136378
879.754	0.0136588
879.832	0.0137440
879.910	0.0138349
879.988	0.0137103
880.067	0.0136465
880.145	0.0137301
880.223	0.0136723
880.301	0.0138107
880.379	0.0137687
880.457	0.0136932
880.535	0.0136116
880.613	0.0137610
880.692	0.0135965
880.770	0.0136322
880.848	0.0137656
880.926	0.0136314
881.004	0.0137136
881.082	0.0137377
881.160	0.0138326
881.238	0.0136752
881.317	0.0136281
881.395	0.0136491
881.473	0.0136360
881.551	0.0136034
881.629	0.0135101
881.707	0.0136931
881.785	0.0136475
881.863	0.0133837
881.942	0.0133993
882.020	0.0135355
882.098	0.0135380
882.176	0.0134814
882.254	0.0134637
882.332	0.0134126
882.410	0.0132914
882.488	0.0135110
882.567	0.0133273
882.645	0.0133182
882.723	0.0134062
882.801	0.0133895
882.879	0.0134924
882.957	0.0136265
883.035	0.0135598
883.113	0.0134612
883.192	0.0134343
883.270	0.0134847
883.348	0.0135328
883.426	0.0135722
883.504	0.0137485
883.582	0.0136481
883.660	0.0136658
883.738	0.0137583
883.817	0.0136907
883.895	0.0137025
883.973	0.0136276
884.051	0.0135034
884.129	0.0135623
884.207	0.0136901
884.285	0.0135531
884.363	0.0136360
884.442	0.0136882
884.520	0.0134770
884.598	0.0134830
884.676	0.0135193
884.754	0.0135197
884.832	0.0135147
884.910	0.0134924
884.988	0.0135216
885.067	0.0137766
885.145	0.0135587
885.223	0.0136359
885.301	0.0136234
885.379	0.0136515
885.457	0.0136174
885.535	0.0135875
885.613	0.0135761
885.692	0.0136912
885.770	0.0136976
885.848	0.0135101
885.926	0.0136202
886.004	0.0136893
886.082	0.0137334
886.160	0.0135671
886.238	0.0136631
886.317	0.0136079
886.395	0.0136763
886.473	0.0136752
886.551	0.0136230
886.629	0.0135807
886.707	0.0135247
886.785	0.0135401
886.863	0.0135046
886.942	0.0134914
887.020	0.0134264
887.098	0.0134421
887.176	0.0134325
887.254	0.0134284
887.332	0.0133024
887.410	0.0134537
887.488	0.0134633
887.567	0.0134814
887.645	0.0134922
887.723	0.0135262
887.801	0.0136040
887.879	0.0135243
887.957	0.0135722
888.035	0.0135681
888.113	0.0137624
888.192	0.0139013
888.270	0.0136478
888.348	0.0138457
888.426	0.0137637
888.504	0.0137549
888.582	0.0137514
888.660	0.0137973
888.738	0.0137428
888.817	0.0135899
888.895	0.0135348
888.973	0.0137289
889.051	0.0135837
889.129	0.0135933
889.207	0.0135239
889.285	0.0135654
889.363	0.0135405
889.442	0.0134777
889.520	0.0134549
889.598	0.0134935
889.676	0.0135420
889.754	0.0136205
889.832	0.0134209
889.910	0.0135463
889.988	0.0134606
890.067	0.0132347
890.145	0.0134177
890.223	0.0136658
890.301	0.0134695
890.379	0.0134155
890.457	0.0135686
890.535	0.0135313
890.613	0.0135037
890.692	0.0134246
890.770	0.0134951
890.848	0.0135194
890.926	0.0135612
891.004	0.0134695
891.082	0.0134629
891.160	0.0136685
891.238	0.0136311
891.317	0.0136635
891.395	0.0136672
891.473	0.0135870
891.551	0.0135603
891.629	0.0135896
891.707	0.0136749
891.785	0.0136848
891.863	0.0135423
891.942	0.0136760
892.020	0.0136732
892.098	0.0136999
892.176	0.0138082
892.254	0.0137099
892.332	0.0136913
892.410	0.0137793
892.488	0.0136476
892.567	0.0136396
892.645	0.0136840
892.723	0.0136818
892.801	0.0138046
892.879	0.0137336
892.957	0.0134601
893.035	0.0135701
893.113	0.0135538
893.192	0.0133928
893.270	0.0135490
893.348	0.0135912
893.426	0.0134046
893.504	0.0134772
893.582	0.0133977
893.660	0.0133006
893.738	0.0132796
893.817	0.0135023
893.895	0.0133822
893.973	0.0131993
894.051	0.0133607
894.129	0.0134286
894.207	0.0134277
894.285	0.0135376
894.363	0.0134815
894.442	0.0135722
894.520	0.0134416
894.598	0.0132974
894.676	0.0135461
894.754	0.0134969
894.832	0.0133085
894.910	0.0135496
894.988	0.0136816
895.067	0.0135244
895.145	0.0136092
895.223	0.0135107
895.301	0.0135278
895.379	0.0135043
895.457	0.0135304
895.535	0.0134664
895.613	0.0134268
895.692	0.0134824
895.770	0.0135954
895.848	0.0136028
895.926	0.0135177
896.004	0.0136460
896.082	0.0136668
896.160	0.0135498
896.238	0.0135815
896.317	0.0136626
896.395	0.0136645
896.473	0.0137580
896.551	0.0136882
896.629	0.0136871
896.707	0.0136373
896.785	0.0136616
896.863	0.0136884
896.942	0.0135898
897.020	0.0136723
897.098	0.0137864
897.176	0.0137035
897.254	0.0138089
897.332	0.0137463
897.410	0.0137843
897.488	0.0136068
897.567	0.0136559
897.645	0.0137508
897.723	0.0136608
897.801	0.0136839
897.879	0.0138452
897.957	0.0136642
898.035	0.0137025
898.113	0.0136040
898.192	0.0136360
898.270	0.0137160
898.348	0.0135183
898.426	0.0135014
898.504	0.0135777
898.582	0.0133929
898.660	0.0137097
898.738	0.0135840
898.817	0.0134856
898.895	0.0135815
898.973	0.0134962
899.051	0.0134787
899.129	0.0135347
899.207	0.0136167
899.285	0.0135791
899.363	0.0134960
899.442	0.0134856
899.520	0.0134692
899.598	0.0134311
899.676	0.0136071
899.754	0.0134879
899.832	0.0135962
899.910	0.0135879
899.988	0.0135390
900.067	0.0135596
900.145	0.0136960
900.223	0.0135616
900.301	0.0135482
900.379	0.0134872
900.457	0.0137010
900.535	0.0136044
900.613	0.0134641
900.692	0.0135986
900.770	0.0137560
900.848	0.0137972
900.926	0.0136243
901.004	0.0136939
901.082	0.0136201
901.160	0.0135946
901.238	0.0135925
901.317	0.0135307
901.395	0.0136707
901.473	0.0135857
901.551	0.0135087
901.629	0.0136019
901.707	0.0136639
901.785	0.0137518
901.863	0.0136555
901.942	0.0135779
902.020	0.0135834
902.098	0.0137412
902.176	0.0135838
902.254	0.0135037
902.332	0.0136523
902.410	0.0136602
902.488	0.0137221
902.567	0.0137553
902.645	0.0137127
902.723	0.0136472
902.801	0.0136403
902.879	0.0135505
902.957	0.0136569
903.035	0.0137095
903.113	0.0138574
903.192	0.0136748
903.270	0.0136082
903.348	0.0134940
903.426	0.0136633
903.504	0.0136856
903.582	0.0135482
903.660	0.0136941
903.738	0.0135429
903.817	0.0135648
903.895	0.0134509
903.973	0.0135385
904.051	0.0134781
904.129	0.0135919
904.207	0.0135289
904.285	0.0133678
904.363	0.0135920
904.442	0.0135697
904.520	0.0135146
904.598	0.0134766
904.676	0.0135006
904.754	0.0135233
904.832	0.0134193
904.910	0.0134929
904.988	0.0135067
905.067	0.0134900
905.145	0.0135390
905.223	0.0136547
905.301	0.0134969
905.379	0.0135082
905.457	0.0135242
905.535	0.0135406
905.613	0.0135446
905.692	0.0136343
905.770	0.0136456
905.848	0.0136694
905.926	0.0135291
906.004	0.0135935
906.082	0.0135812
906.160	0.0135995
906.238	0.0135717
906.317	0.0134689
906.395	0.0136265
906.473	0.0135570
906.551	0.0135738
906.629	0.0136239
906.707	0.0136626
906.785	0.0136408
906.863	0.0136049
906.942	0.0134959
907.020	0.0135809
907.098	0.0136458
907.176	0.0136951
907.254	0.0135119
907.332	0.0136486
907.410	0.0137257
907.488	0.0136679
907.567	0.0137047
907.645	0.0136674
907.723	0.0135381
907.801	0.0136028
907.879	0.0136821
907.957	0.0136253
908.035	0.0135425
908.113	0.0135822
908.192	0.0135446
908.270	0.0135910
908.348	0.0137762
908.426	0.0136494
908.504	0.0136152
908.582	0.0135290
908.660	0.0135700
908.738	0.0135191
908.817	0.0136184
908.895	0.0136208
908.973	0.0136335
909.051	0.0136194
909.129	0.0135725
909.207	0.0135394
909.285	0.0135468
909.363	0.0134716
909.442	0.0135459
909.520	0.0135226
909.598	0.0134010
909.676	0.0136058
909.754	0.0135239
909.832	0.0135721
909.910	0.0134654
909.988	0.0134329
910.067	0.0135165
910.145	0.0135736
910.223	0.0135754
910.301	0.0135595
910.379	0.0135365
910.457	0.0135497
910.535	0.0135315
910.613	0.0134441
910.692	0.0136201
910.770	0.0134116
910.848	0.0134875
910.926	0.0134525
911.004	0.0134978
911.082	0.0134785
911.160	0.0135136
911.238	0.0134795
911.317	0.0135291
911.395	0.0135378
911.473	0.0134795
911.551	0.0134339
911.629	0.0134444
911.707	0.0135787
911.785	0.0134776
911.863	0.0134247
911.942	0.0135779
912.020	0.0136263
912.098	0.0136346
912.176	0.0135918
912.254	0.0136565
912.332	0.0136737
912.410	0.0134920
912.488	0.0135582
912.567	0.0136791
912.645	0.0137189
912.723	0.0135256
912.801	0.0135277
912.879	0.0136217
912.957	0.0137663
913.035	0.0137093
913.113	0.0138540
913.192	0.0136205
913.270	0.0136446
913.348	0.0136276
913.426	0.0136844
913.504	0.0136617
913.582	0.0136762
913.660	0.0136504
913.738	0.0137707
913.817	0.0137682
913.895	0.0136706
913.973	0.0137439
914.051	0.0136691
914.129	0.0136108
914.207	0.0136999
914.285	0.0137052
914.363	0.0135800
914.442	0.0135445
914.520	0.0135850
914.598	0.0135076
914.676	0.0135463
914.754	0.0134425
914.832	0.0134666
914.910	0.0134110
914.988	0.0135027
915.067	0.0134280
915.145	0.0134116
915.223	0.0134556
915.301	0.0133074
915.379	0.0133932
915.457	0.0134962
915.535	0.0135139
915.613	0.0134303
915.692	0.0134275
915.770	0.0133936
915.848	0.0134365
915.926	0.0133973
916.004	0.0135474
916.082	0.0136246
916.160	0.0135934
916.238	0.0135392
916.317	0.0135883
916.395	0.0136184
916.473	0.0136712
916.551	0.0135023
916.629	0.0135993
916.707	0.0136221
916.785	0.0136582
916.863	0.0136666
916.942	0.0135940
917.020	0.0135122
917.098	0.0137251
917.176	0.0134856
917.254	0.0135143
917.332	0.0136903
917.410	0.0135181
917.488	0.0137565
917.567	0.0135166
917.645	0.0135672
917.723	0.0135207
917.801	0.0137466
917.879	0.0139093
917.957	0.0136683
918.035	0.0136569
918.113	0.0137707
918.192	0.0137875
918.270	0.0137143
918.348	0.0138321
918.426	0.0137152
918.504	0.0136634
918.582	0.0136710
918.660	0.0135149
918.738	0.0136976
918.817	0.0135648
918.895	0.0136158
918.973	0.0135210
919.051	0.0136808
919.129	0.0134988
919.207	0.0134904
919.285	0.0136113
919.363	0.0134689
919.442	0.0134700
919.520	0.0134275
919.598	0.0134835
919.676	0.0136063
919.754	0.0135822
919.832	0.0135130
919.910	0.0135757
