05/28/2022	14:09:01	Ver.	4.1	UNKNOWN
Optical Delay	599.988409	Delta X		0.078125	Sweeps	1	Scan Rate	0/0
Coordinates	Axis 1	NaN	Axis 2	NaN	Axis 3	NaN	Axis 4	NaN	Axis 5	NaN	Axis 6	0.000000
TX Power	0.000000	RX Power	0.000000

599.988	0.0136054
600.067	0.0136191
600.145	0.0137051
600.223	0.0135886
600.301	0.0135893
600.379	0.0136608
600.457	0.0137193
600.535	0.0137301
600.613	0.0135844
600.692	0.0135929
600.770	0.0136710
600.848	0.0136565
600.926	0.0136761
601.004	0.0136308
601.082	0.0136194
601.160	0.0134855
601.238	0.0135413
601.317	0.0135113
601.395	0.0136264
601.473	0.0135386
601.551	0.0135909
601.629	0.0135344
601.707	0.0137737
601.785	0.0137415
601.863	0.0136542
601.942	0.0136028
602.020	0.0135130
602.098	0.0135780
602.176	0.0135556
602.254	0.0135592
602.332	0.0136337
602.410	0.0133944
602.488	0.0135783
602.567	0.0136475
602.645	0.0137050
602.723	0.0135575
602.801	0.0136526
602.879	0.0135588
602.957	0.0135815
603.035	0.0136695
603.113	0.0136647
603.192	0.0135957
603.270	0.0134719
603.348	0.0136742
603.426	0.0137178
603.504	0.0136269
603.582	0.0135583
603.660	0.0135448
603.738	0.0136559
603.817	0.0135805
603.895	0.0136689
603.973	0.0135283
604.051	0.0135835
604.129	0.0135603
604.207	0.0136254
604.285	0.0137093
604.363	0.0138049
604.442	0.0135797
604.520	0.0135598
604.598	0.0135721
604.676	0.0137040
604.754	0.0137788
604.832	0.0138248
604.910	0.0136691
604.988	0.0135136
605.067	0.0135780
605.145	0.0136645
605.223	0.0137332
605.301	0.0136726
605.379	0.0135516
605.457	0.0136584
605.535	0.0135159
605.613	0.0137081
605.692	0.0136335
605.770	0.0137259
605.848	0.0136420
605.926	0.0136343
606.004	0.0135640
606.082	0.0136516
606.160	0.0137556
606.238	0.0135951
606.317	0.0135262
606.395	0.0136807
606.473	0.0134744
606.551	0.0136502
606.629	0.0135749
606.707	0.0135451
606.785	0.0134985
606.863	0.0136183
606.942	0.0136147
607.020	0.0135102
607.098	0.0136611
607.176	0.0135131
607.254	0.0135694
607.332	0.0136473
607.410	0.0135545
607.488	0.0134569
607.567	0.0135672
607.645	0.0136387
607.723	0.0134465
607.801	0.0135703
607.879	0.0134742
607.957	0.0136481
608.035	0.0136219
608.113	0.0135753
608.192	0.0137418
608.270	0.0136578
608.348	0.0135166
608.426	0.0136350
608.504	0.0136592
608.582	0.0135065
608.660	0.0136138
608.738	0.0136269
608.817	0.0136627
608.895	0.0135482
608.973	0.0136645
609.051	0.0135871
609.129	0.0135582
609.207	0.0136707
609.285	0.0136332
609.363	0.0135175
609.442	0.0136865
609.520	0.0136263
609.598	0.0136721
609.676	0.0135536
609.754	0.0135931
609.832	0.0135242
609.910	0.0136357
609.988	0.0135709
610.067	0.0135406
610.145	0.0136603
610.223	0.0136145
610.301	0.0137265
610.379	0.0135583
610.457	0.0137953
610.535	0.0135471
610.613	0.0134132
610.692	0.0135880
610.770	0.0136324
610.848	0.0136171
610.926	0.0135361
611.004	0.0135734
611.082	0.0135774
611.160	0.0136517
611.238	0.0136787
611.317	0.0135727
611.395	0.0135910
611.473	0.0136412
611.551	0.0136495
611.629	0.0136543
611.707	0.0135731
611.785	0.0136631
611.863	0.0136381
611.942	0.0135825
612.020	0.0135957
612.098	0.0136649
612.176	0.0137187
612.254	0.0136543
612.332	0.0136077
612.410	0.0135663
612.488	0.0136678
612.567	0.0136906
612.645	0.0136654
612.723	0.0136693
612.801	0.0135098
612.879	0.0135542
612.957	0.0136406
613.035	0.0136913
613.113	0.0136880
613.192	0.0135744
613.270	0.0135735
613.348	0.0137594
613.426	0.0135898
613.504	0.0136232
613.582	0.0136201
613.660	0.0135937
613.738	0.0134828
613.817	0.0136133
613.895	0.0136002
613.973	0.0137007
614.051	0.0136437
614.129	0.0135518
614.207	0.0136102
614.285	0.0135162
614.363	0.0135599
614.442	0.0136131
614.520	0.0137926
614.598	0.0137244
614.676	0.0136513
614.754	0.0136785
614.832	0.0136923
614.910	0.0136173
614.988	0.0137861
615.067	0.0136166
615.145	0.0136185
615.223	0.0137714
615.301	0.0136150
615.379	0.0135670
615.457	0.0136137
615.535	0.0136447
615.613	0.0136454
615.692	0.0135639
615.770	0.0135454
615.848	0.0136783
615.926	0.0135234
616.004	0.0136351
616.082	0.0136343
616.160	0.0137714
616.238	0.0137273
616.317	0.0136015
616.395	0.0138464
616.473	0.0137557
616.551	0.0136218
616.629	0.0135525
616.707	0.0135722
616.785	0.0135863
616.863	0.0135313
616.942	0.0135834
617.020	0.0135479
617.098	0.0137074
617.176	0.0136133
617.254	0.0135906
617.332	0.0135846
617.410	0.0135322
617.488	0.0135346
617.567	0.0134657
617.645	0.0135698
617.723	0.0136185
617.801	0.0135471
617.879	0.0136355
617.957	0.0135799
618.035	0.0134743
618.113	0.0135866
618.192	0.0135428
618.270	0.0136138
618.348	0.0136555
618.426	0.0137106
618.504	0.0135154
618.582	0.0135539
618.660	0.0135693
618.738	0.0135645
618.817	0.0135651
618.895	0.0136016
618.973	0.0136051
619.051	0.0135492
619.129	0.0135619
619.207	0.0135296
619.285	0.0135620
619.363	0.0136161
619.442	0.0136774
619.520	0.0136804
619.598	0.0136342
619.676	0.0135614
619.754	0.0136066
619.832	0.0136582
619.910	0.0136916
619.988	0.0136315
620.067	0.0134252
620.145	0.0137117
620.223	0.0136864
620.301	0.0135500
620.379	0.0134840
620.457	0.0135767
620.535	0.0135406
620.613	0.0135604
620.692	0.0135811
620.770	0.0135359
620.848	0.0136304
620.926	0.0136189
621.004	0.0136603
621.082	0.0135683
621.160	0.0136239
621.238	0.0137123
621.317	0.0136336
621.395	0.0135960
621.473	0.0135350
621.551	0.0136430
621.629	0.0136360
621.707	0.0134464
621.785	0.0135799
621.863	0.0135384
621.942	0.0136801
622.020	0.0135735
622.098	0.0135241
622.176	0.0136760
622.254	0.0134870
622.332	0.0134928
622.410	0.0137856
622.488	0.0135744
622.567	0.0134270
622.645	0.0134345
622.723	0.0135358
622.801	0.0135694
622.879	0.0134882
622.957	0.0136421
623.035	0.0136025
623.113	0.0135586
623.192	0.0134760
623.270	0.0134726
623.348	0.0134698
623.426	0.0135298
623.504	0.0134898
623.582	0.0135030
623.660	0.0136121
623.738	0.0136117
623.817	0.0134933
623.895	0.0134013
623.973	0.0135141
624.051	0.0135696
624.129	0.0136466
624.207	0.0136454
624.285	0.0135706
624.363	0.0135298
624.442	0.0136523
624.520	0.0136360
624.598	0.0135305
624.676	0.0135362
624.754	0.0135806
624.832	0.0135461
624.910	0.0136135
624.988	0.0135297
625.067	0.0135259
625.145	0.0137339
625.223	0.0135401
625.301	0.0134558
625.379	0.0136652
625.457	0.0136240
625.535	0.0136640
625.613	0.0135796
625.692	0.0136867
625.770	0.0136597
625.848	0.0136776
625.926	0.0137100
626.004	0.0136231
626.082	0.0135427
626.160	0.0136221
626.238	0.0137100
626.317	0.0136662
626.395	0.0135040
626.473	0.0137393
626.551	0.0137963
626.629	0.0135873
626.707	0.0136981
626.785	0.0136785
626.863	0.0136296
626.942	0.0135789
627.020	0.0136502
627.098	0.0134184
627.176	0.0135745
627.254	0.0137497
627.332	0.0135731
627.410	0.0136870
627.488	0.0138283
627.567	0.0136428
627.645	0.0135674
627.723	0.0137193
627.801	0.0136088
627.879	0.0136794
627.957	0.0137589
628.035	0.0135836
628.113	0.0137269
628.192	0.0135247
628.270	0.0136651
628.348	0.0137505
628.426	0.0136056
628.504	0.0136903
628.582	0.0135938
628.660	0.0135614
628.738	0.0135829
628.817	0.0136791
628.895	0.0137585
628.973	0.0136411
629.051	0.0136832
629.129	0.0137392
629.207	0.0136921
629.285	0.0136957
629.363	0.0136478
629.442	0.0135363
629.520	0.0136076
629.598	0.0135885
629.676	0.0137849
629.754	0.0136490
629.832	0.0135531
629.910	0.0137654
629.988	0.0137879
630.067	0.0136388
630.145	0.0137460
630.223	0.0135729
630.301	0.0136318
630.379	0.0136758
630.457	0.0137466
630.535	0.0136943
630.613	0.0134504
630.692	0.0136988
630.770	0.0137109
630.848	0.0137196
630.926	0.0136514
631.004	0.0136228
631.082	0.0137727
631.160	0.0136995
631.238	0.0137499
631.317	0.0136371
631.395	0.0136207
631.473	0.0137102
631.551	0.0136140
631.629	0.0137023
631.707	0.0135295
631.785	0.0136755
631.863	0.0135474
631.942	0.0137379
632.020	0.0137212
632.098	0.0134690
632.176	0.0135898
632.254	0.0136214
632.332	0.0137097
632.410	0.0136053
632.488	0.0136040
632.567	0.0136560
632.645	0.0136613
632.723	0.0135788
632.801	0.0136658
632.879	0.0135244
632.957	0.0136150
633.035	0.0136737
633.113	0.0136768
633.192	0.0135790
633.270	0.0136723
633.348	0.0137212
633.426	0.0135815
633.504	0.0136420
633.582	0.0135583
633.660	0.0136815
633.738	0.0136472
633.817	0.0136320
633.895	0.0136127
633.973	0.0137021
634.051	0.0137457
634.129	0.0136085
634.207	0.0136310
634.285	0.0136326
634.363	0.0135273
634.442	0.0135231
634.520	0.0135763
634.598	0.0137524
634.676	0.0137373
634.754	0.0135867
634.832	0.0135342
634.910	0.0135736
634.988	0.0137141
635.067	0.0137602
635.145	0.0135416
635.223	0.0137673
635.301	0.0135062
635.379	0.0136935
635.457	0.0136539
635.535	0.0136235
635.613	0.0136492
635.692	0.0136607
635.770	0.0136743
635.848	0.0136364
635.926	0.0135918
636.004	0.0135217
636.082	0.0136982
636.160	0.0136164
636.238	0.0135361
636.317	0.0137581
636.395	0.0136586
636.473	0.0136192
636.551	0.0136762
636.629	0.0135873
636.707	0.0137530
636.785	0.0136606
636.863	0.0136938
636.942	0.0137502
637.020	0.0135696
637.098	0.0135306
637.176	0.0135587
637.254	0.0135782
637.332	0.0136780
637.410	0.0136049
637.488	0.0135635
637.567	0.0137319
637.645	0.0135319
637.723	0.0136686
637.801	0.0134978
637.879	0.0135800
637.957	0.0134809
638.035	0.0135778
638.113	0.0136536
638.192	0.0135992
638.270	0.0135583
638.348	0.0136745
638.426	0.0136037
638.504	0.0135538
638.582	0.0136623
638.660	0.0136340
638.738	0.0136010
638.817	0.0135996
638.895	0.0136785
638.973	0.0135582
639.051	0.0135674
639.129	0.0136126
639.207	0.0136663
639.285	0.0136633
639.363	0.0135847
639.442	0.0136719
639.520	0.0136842
639.598	0.0135923
639.676	0.0136054
639.754	0.0135715
639.832	0.0136267
639.910	0.0135941
639.988	0.0136000
640.067	0.0135848
640.145	0.0135563
640.223	0.0135098
640.301	0.0136026
640.379	0.0136976
640.457	0.0136324
640.535	0.0136645
640.613	0.0135979
640.692	0.0135050
640.770	0.0136194
640.848	0.0135918
640.926	0.0136272
641.004	0.0135007
641.082	0.0135391
641.160	0.0136147
641.238	0.0136462
641.317	0.0137006
641.395	0.0134437
641.473	0.0135301
641.551	0.0137029
641.629	0.0135846
641.707	0.0133679
641.785	0.0136378
641.863	0.0136192
641.942	0.0136049
642.020	0.0135747
642.098	0.0135497
642.176	0.0135928
642.254	0.0135681
642.332	0.0135440
642.410	0.0135403
642.488	0.0135798
642.567	0.0135574
642.645	0.0136098
642.723	0.0136501
642.801	0.0135645
642.879	0.0135519
642.957	0.0137103
643.035	0.0136059
643.113	0.0134543
643.192	0.0135107
643.270	0.0135310
643.348	0.0135935
643.426	0.0135235
643.504	0.0135688
643.582	0.0135609
643.660	0.0135179
643.738	0.0136393
643.817	0.0137377
643.895	0.0135960
643.973	0.0134508
644.051	0.0136494
644.129	0.0137042
644.207	0.0134794
644.285	0.0134621
644.363	0.0136741
644.442	0.0136813
644.520	0.0136569
644.598	0.0135059
644.676	0.0135744
644.754	0.0136652
644.832	0.0135974
644.910	0.0136650
644.988	0.0135494
645.067	0.0136839
645.145	0.0136485
645.223	0.0136282
645.301	0.0134866
645.379	0.0135672
645.457	0.0136055
645.535	0.0135036
645.613	0.0136215
645.692	0.0136377
645.770	0.0135001
645.848	0.0136239
645.926	0.0136216
646.004	0.0137025
646.082	0.0135405
646.160	0.0135487
646.238	0.0135437
646.317	0.0137080
646.395	0.0136612
646.473	0.0135948
646.551	0.0137045
646.629	0.0135996
646.707	0.0136430
646.785	0.0134955
646.863	0.0136421
646.942	0.0136404
647.020	0.0136463
647.098	0.0136591
647.176	0.0134645
647.254	0.0135880
647.332	0.0135429
647.410	0.0136629
647.488	0.0135973
647.567	0.0135782
647.645	0.0135715
647.723	0.0134492
647.801	0.0136515
647.879	0.0135370
647.957	0.0136138
648.035	0.0136826
648.113	0.0135979
648.192	0.0135052
648.270	0.0136154
648.348	0.0135992
648.426	0.0134840
648.504	0.0135596
648.582	0.0135989
648.660	0.0136284
648.738	0.0134850
648.817	0.0136101
648.895	0.0135835
648.973	0.0136950
649.051	0.0136208
649.129	0.0135921
649.207	0.0135675
649.285	0.0134735
649.363	0.0135387
649.442	0.0136322
649.520	0.0136608
649.598	0.0135975
649.676	0.0134893
649.754	0.0135524
649.832	0.0137051
649.910	0.0135326
649.988	0.0135305
650.067	0.0135470
650.145	0.0135966
650.223	0.0135519
650.301	0.0135906
650.379	0.0136356
650.457	0.0135871
650.535	0.0136922
650.613	0.0136247
650.692	0.0136111
650.770	0.0136343
650.848	0.0136457
650.926	0.0136240
651.004	0.0136663
651.082	0.0137154
651.160	0.0135467
651.238	0.0136597
651.317	0.0136982
651.395	0.0135383
651.473	0.0136639
651.551	0.0136868
651.629	0.0136387
651.707	0.0135467
651.785	0.0135088
651.863	0.0137441
651.942	0.0136546
652.020	0.0136523
652.098	0.0136558
652.176	0.0136739
652.254	0.0136324
652.332	0.0137563
652.410	0.0136720
652.488	0.0136205
652.567	0.0137873
652.645	0.0136440
652.723	0.0135273
652.801	0.0136159
652.879	0.0137059
652.957	0.0136340
653.035	0.0136806
653.113	0.0137394
653.192	0.0136021
653.270	0.0136408
653.348	0.0136799
653.426	0.0137292
653.504	0.0136370
653.582	0.0136964
653.660	0.0136887
653.738	0.0137382
653.817	0.0136971
653.895	0.0136967
653.973	0.0136253
654.051	0.0136246
654.129	0.0135938
654.207	0.0137122
654.285	0.0136945
654.363	0.0136784
654.442	0.0137492
654.520	0.0136829
654.598	0.0136575
654.676	0.0134846
654.754	0.0136880
654.832	0.0135615
654.910	0.0136337
654.988	0.0135063
655.067	0.0135883
655.145	0.0137992
655.223	0.0136806
655.301	0.0136910
655.379	0.0136060
655.457	0.0135500
655.535	0.0137611
655.613	0.0136607
655.692	0.0134977
655.770	0.0135354
655.848	0.0136080
655.926	0.0137136
656.004	0.0136349
656.082	0.0135529
656.160	0.0137038
656.238	0.0136048
656.317	0.0136391
656.395	0.0136468
656.473	0.0136063
656.551	0.0136480
656.629	0.0136690
656.707	0.0137538
656.785	0.0135225
656.863	0.0134718
656.942	0.0136478
657.020	0.0136827
657.098	0.0135841
657.176	0.0136050
657.254	0.0137091
657.332	0.0135350
657.410	0.0135967
657.488	0.0136072
657.567	0.0135679
657.645	0.0135767
657.723	0.0137007
657.801	0.0135454
657.879	0.0134480
657.957	0.0135085
658.035	0.0135394
658.113	0.0136517
658.192	0.0135695
658.270	0.0135353
658.348	0.0136579
658.426	0.0136011
658.504	0.0135179
658.582	0.0135329
658.660	0.0136151
658.738	0.0135491
658.817	0.0135850
658.895	0.0136600
658.973	0.0134813
659.051	0.0135742
659.129	0.0137771
659.207	0.0136067
659.285	0.0136464
659.363	0.0136514
659.442	0.0136618
659.520	0.0137727
659.598	0.0136337
659.676	0.0136187
659.754	0.0136913
659.832	0.0136697
659.910	0.0135867
659.988	0.0136941
660.067	0.0136256
660.145	0.0134989
660.223	0.0136319
660.301	0.0137063
660.379	0.0135224
660.457	0.0135780
660.535	0.0136189
660.613	0.0135777
660.692	0.0135669
660.770	0.0134862
660.848	0.0136494
660.926	0.0137119
661.004	0.0135062
661.082	0.0136057
661.160	0.0135837
661.238	0.0136141
661.317	0.0136003
661.395	0.0136578
661.473	0.0136072
661.551	0.0138115
661.629	0.0138603
661.707	0.0137852
661.785	0.0139276
661.863	0.0138365
661.942	0.0139389
662.020	0.0139611
662.098	0.0139997
662.176	0.0140856
662.254	0.0138435
662.332	0.0140730
662.410	0.0140512
662.488	0.0138358
662.567	0.0138125
662.645	0.0136307
662.723	0.0136671
662.801	0.0134924
662.879	0.0132937
662.957	0.0132752
663.035	0.0132005
663.113	0.0131785
663.192	0.0129598
663.270	0.0129978
663.348	0.0130059
663.426	0.0130605
663.504	0.0131155
663.582	0.0132432
663.660	0.0133241
663.738	0.0134290
663.817	0.0134853
663.895	0.0135061
663.973	0.0136435
664.051	0.0137684
664.129	0.0136649
664.207	0.0136024
664.285	0.0136288
664.363	0.0137585
664.442	0.0137179
664.520	0.0135925
664.598	0.0137621
664.676	0.0139559
664.754	0.0139992
664.832	0.0139188
664.910	0.0137807
664.988	0.0137423
665.067	0.0137158
665.145	0.0139612
665.223	0.0136694
665.301	0.0135522
665.379	0.0137512
665.457	0.0135679
665.535	0.0137637
665.613	0.0136831
665.692	0.0138158
665.770	0.0139959
665.848	0.0140137
665.926	0.0141843
666.004	0.0140076
666.082	0.0139215
666.160	0.0139642
666.238	0.0140659
666.317	0.0139350
666.395	0.0139333
666.473	0.0138042
666.551	0.0137055
666.629	0.0136684
666.707	0.0135946
666.785	0.0134396
666.863	0.0134127
666.942	0.0132568
667.020	0.0130991
667.098	0.0130629
667.176	0.0129111
667.254	0.0127539
667.332	0.0127829
667.410	0.0127947
667.488	0.0128060
667.567	0.0127272
667.645	0.0126781
667.723	0.0127644
667.801	0.0127595
667.879	0.0128091
667.957	0.0128292
668.035	0.0129464
668.113	0.0130056
668.192	0.0130953
668.270	0.0134660
668.348	0.0135905
668.426	0.0136837
668.504	0.0140534
668.582	0.0143436
668.660	0.0144761
668.738	0.0145998
668.817	0.0145949
668.895	0.0146217
668.973	0.0146312
669.051	0.0145230
669.129	0.0144262
669.207	0.0144823
669.285	0.0142259
669.363	0.0143089
669.442	0.0140722
669.520	0.0139999
669.598	0.0141128
669.676	0.0139905
669.754	0.0142215
669.832	0.0140013
669.910	0.0139349
669.988	0.0139522
670.067	0.0140929
670.145	0.0138818
670.223	0.0137754
670.301	0.0136995
670.379	0.0138388
670.457	0.0137970
670.535	0.0137390
670.613	0.0136618
670.692	0.0136472
670.770	0.0137180
670.848	0.0137332
670.926	0.0137475
671.004	0.0133565
671.082	0.0132542
671.160	0.0131744
671.238	0.0131496
671.317	0.0131560
671.395	0.0128177
671.473	0.0126714
671.551	0.0125256
671.629	0.0124333
671.707	0.0122534
671.785	0.0122427
671.863	0.0121417
671.942	0.0121304
672.020	0.0120483
672.098	0.0121337
672.176	0.0122836
672.254	0.0123798
672.332	0.0124935
672.410	0.0127576
672.488	0.0129325
672.567	0.0130894
672.645	0.0135981
672.723	0.0137764
672.801	0.0140899
672.879	0.0142818
672.957	0.0144717
673.035	0.0144672
673.113	0.0144961
673.192	0.0146403
673.270	0.0146395
673.348	0.0145744
673.426	0.0144682
673.504	0.0143982
673.582	0.0143176
673.660	0.0141911
673.738	0.0141930
673.817	0.0141236
673.895	0.0141840
673.973	0.0142597
674.051	0.0142231
674.129	0.0142603
674.207	0.0143381
674.285	0.0143461
674.363	0.0142788
674.442	0.0144093
674.520	0.0143460
674.598	0.0143269
674.676	0.0141882
674.754	0.0141206
674.832	0.0143720
674.910	0.0142545
674.988	0.0141718
675.067	0.0142942
675.145	0.0143015
675.223	0.0142836
675.301	0.0141016
675.379	0.0143779
675.457	0.0140350
675.535	0.0137730
675.613	0.0135853
675.692	0.0134623
675.770	0.0132124
675.848	0.0128752
675.926	0.0126361
676.004	0.0125128
676.082	0.0124667
676.160	0.0124110
676.238	0.0124585
676.317	0.0122766
676.395	0.0121165
676.473	0.0122687
676.551	0.0122207
676.629	0.0123145
676.707	0.0123460
676.785	0.0123125
676.863	0.0122855
676.942	0.0124194
677.020	0.0124606
677.098	0.0124382
677.176	0.0125986
677.254	0.0128104
677.332	0.0129467
677.410	0.0130402
677.488	0.0130678
677.567	0.0133189
677.645	0.0133064
677.723	0.0134252
677.801	0.0134943
677.879	0.0135668
677.957	0.0136132
678.035	0.0136864
678.113	0.0140092
678.192	0.0139286
678.270	0.0141002
678.348	0.0141652
678.426	0.0144369
678.504	0.0146347
678.582	0.0147973
678.660	0.0148335
678.738	0.0149438
678.817	0.0150938
678.895	0.0150694
678.973	0.0151656
679.051	0.0154224
679.129	0.0154674
679.207	0.0154106
679.285	0.0155440
679.363	0.0157326
679.442	0.0156441
679.520	0.0155319
679.598	0.0155752
679.676	0.0155317
679.754	0.0153143
679.832	0.0152003
679.910	0.0149545
679.988	0.0147267
680.067	0.0144864
680.145	0.0142229
680.223	0.0139463
680.301	0.0135100
680.379	0.0131614
680.457	0.0129260
680.535	0.0125978
680.613	0.0121817
680.692	0.0118399
680.770	0.0115382
680.848	0.0114165
680.926	0.0111586
681.004	0.0111414
681.082	0.0111214
681.160	0.0111845
681.238	0.0112874
681.317	0.0113712
681.395	0.0115318
681.473	0.0119316
681.551	0.0120677
681.629	0.0122966
681.707	0.0125960
681.785	0.0128021
681.863	0.0130577
681.942	0.0131143
682.020	0.0132114
682.098	0.0134054
682.176	0.0134879
682.254	0.0135303
682.332	0.0136601
682.410	0.0135533
682.488	0.0135472
682.567	0.0136456
682.645	0.0136608
682.723	0.0137613
682.801	0.0136844
682.879	0.0136881
682.957	0.0137439
683.035	0.0139258
683.113	0.0140096
683.192	0.0139787
683.270	0.0139093
683.348	0.0141746
683.426	0.0142847
683.504	0.0144130
683.582	0.0143919
683.660	0.0145197
683.738	0.0144422
683.817	0.0146877
683.895	0.0146886
683.973	0.0146404
684.051	0.0150277
684.129	0.0151404
684.207	0.0152515
684.285	0.0153567
684.363	0.0153794
684.442	0.0154112
684.520	0.0155294
684.598	0.0155573
684.676	0.0154198
684.754	0.0154032
684.832	0.0151507
684.910	0.0152135
684.988	0.0151039
685.067	0.0146104
685.145	0.0145059
685.223	0.0142037
685.301	0.0138966
685.379	0.0135733
685.457	0.0132701
685.535	0.0129057
685.613	0.0126865
685.692	0.0123887
685.770	0.0121450
685.848	0.0120589
685.926	0.0118493
686.004	0.0117238
686.082	0.0115133
686.160	0.0116065
686.238	0.0116253
686.317	0.0115467
686.395	0.0117715
686.473	0.0118396
686.551	0.0119389
686.629	0.0122182
686.707	0.0123233
686.785	0.0125967
686.863	0.0128262
686.942	0.0128393
687.020	0.0131431
687.098	0.0133557
687.176	0.0135463
687.254	0.0136310
687.332	0.0136918
687.410	0.0137088
687.488	0.0136633
687.567	0.0137231
687.645	0.0137626
687.723	0.0134698
687.801	0.0134344
687.879	0.0133874
687.957	0.0132951
688.035	0.0132202
688.113	0.0131697
688.192	0.0130717
688.270	0.0130938
688.348	0.0130323
688.426	0.0129816
688.504	0.0130593
688.582	0.0132922
688.660	0.0134987
688.738	0.0135261
688.817	0.0137108
688.895	0.0139668
688.973	0.0141345
689.051	0.0144703
689.129	0.0146487
689.207	0.0149167
689.285	0.0149152
689.363	0.0152694
689.442	0.0153577
689.520	0.0154738
689.598	0.0157667
689.676	0.0157346
689.754	0.0157860
689.832	0.0159305
689.910	0.0158521
689.988	0.0158232
690.067	0.0157059
690.145	0.0154935
690.223	0.0153314
690.301	0.0151934
690.379	0.0148453
690.457	0.0143751
690.535	0.0140291
690.613	0.0137549
690.692	0.0133879
690.770	0.0131351
690.848	0.0128288
690.926	0.0126878
691.004	0.0127691
691.082	0.0126498
691.160	0.0125497
691.238	0.0124887
691.317	0.0126401
691.395	0.0125874
691.473	0.0126038
691.551	0.0127809
691.629	0.0126757
691.707	0.0127470
691.785	0.0126874
691.863	0.0126623
691.942	0.0127446
692.020	0.0127910
692.098	0.0126420
692.176	0.0126215
692.254	0.0125230
692.332	0.0123794
692.410	0.0123260
692.488	0.0122353
692.567	0.0122637
692.645	0.0122430
692.723	0.0122278
692.801	0.0121505
692.879	0.0121066
692.957	0.0122742
693.035	0.0122717
693.113	0.0125381
693.192	0.0128082
693.270	0.0128722
693.348	0.0132924
693.426	0.0133087
693.504	0.0134608
693.582	0.0139758
693.660	0.0142858
693.738	0.0144035
693.817	0.0146214
693.895	0.0147273
693.973	0.0149419
694.051	0.0150140
694.129	0.0150931
694.207	0.0150714
694.285	0.0152393
694.363	0.0153191
694.442	0.0151514
694.520	0.0150741
694.598	0.0150690
694.676	0.0149153
694.754	0.0146965
694.832	0.0144106
694.910	0.0143581
694.988	0.0139983
695.067	0.0137987
695.145	0.0136329
695.223	0.0135589
695.301	0.0132661
695.379	0.0132908
695.457	0.0133848
695.535	0.0132961
695.613	0.0134078
695.692	0.0134932
695.770	0.0136556
695.848	0.0138467
695.926	0.0138519
696.004	0.0140702
696.082	0.0142818
696.160	0.0144450
696.238	0.0144854
696.317	0.0144225
696.395	0.0143207
696.473	0.0143829
696.551	0.0142726
696.629	0.0141197
696.707	0.0140878
696.785	0.0140231
696.863	0.0138142
696.942	0.0136588
697.020	0.0135995
697.098	0.0132854
697.176	0.0130974
697.254	0.0129620
697.332	0.0128006
697.410	0.0127367
697.488	0.0126248
697.567	0.0124648
697.645	0.0123891
697.723	0.0123209
697.801	0.0122954
697.879	0.0122192
697.957	0.0123526
698.035	0.0123425
698.113	0.0123656
698.192	0.0124966
698.270	0.0126234
698.348	0.0127367
698.426	0.0127857
698.504	0.0128357
698.582	0.0128888
698.660	0.0131102
698.738	0.0132617
698.817	0.0130762
698.895	0.0130893
698.973	0.0133064
699.051	0.0133884
699.129	0.0134034
699.207	0.0133913
699.285	0.0135662
699.363	0.0137285
699.442	0.0138548
699.520	0.0140182
699.598	0.0140088
699.676	0.0141570
699.754	0.0144363
699.832	0.0143820
699.910	0.0144505
699.988	0.0143880
700.067	0.0145248
700.145	0.0145388
700.223	0.0145264
700.301	0.0145222
700.379	0.0143790
700.457	0.0143508
700.535	0.0143427
700.613	0.0143941
700.692	0.0142448
700.770	0.0143903
700.848	0.0144387
700.926	0.0144970
701.004	0.0145447
701.082	0.0144154
701.160	0.0143459
701.238	0.0143229
701.317	0.0142741
701.395	0.0141486
701.473	0.0140112
701.551	0.0137863
701.629	0.0136236
701.707	0.0134883
701.785	0.0132565
701.863	0.0132064
701.942	0.0132217
702.020	0.0129301
702.098	0.0129994
702.176	0.0129435
702.254	0.0130283
702.332	0.0129353
702.410	0.0128136
702.488	0.0127546
702.567	0.0129183
702.645	0.0127636
702.723	0.0129065
702.801	0.0129450
702.879	0.0128927
702.957	0.0130427
703.035	0.0131271
703.113	0.0133198
703.192	0.0133353
703.270	0.0134273
703.348	0.0136952
703.426	0.0138644
703.504	0.0139758
703.582	0.0139973
703.660	0.0141939
703.738	0.0141161
703.817	0.0140425
703.895	0.0139001
703.973	0.0137706
704.051	0.0137280
704.129	0.0134828
704.207	0.0133564
704.285	0.0132542
704.363	0.0132562
704.442	0.0131335
704.520	0.0129379
704.598	0.0130556
704.676	0.0131929
704.754	0.0132264
704.832	0.0132859
704.910	0.0133175
704.988	0.0135087
705.067	0.0135069
705.145	0.0135502
705.223	0.0136885
705.301	0.0136934
705.379	0.0139172
705.457	0.0138523
705.535	0.0138507
705.613	0.0138877
705.692	0.0139248
705.770	0.0140569
705.848	0.0141631
705.926	0.0140193
706.004	0.0141489
706.082	0.0140402
706.160	0.0139616
706.238	0.0139852
706.317	0.0137822
706.395	0.0136175
706.473	0.0136749
706.551	0.0135056
706.629	0.0133896
706.707	0.0133833
706.785	0.0133537
706.863	0.0133758
706.942	0.0134866
707.020	0.0133403
707.098	0.0134816
707.176	0.0135471
707.254	0.0135291
707.332	0.0137234
707.410	0.0137321
707.488	0.0138676
707.567	0.0141111
707.645	0.0139702
707.723	0.0142031
707.801	0.0143124
707.879	0.0142901
707.957	0.0141811
708.035	0.0142526
708.113	0.0142197
708.192	0.0143163
708.270	0.0141737
708.348	0.0140344
708.426	0.0138521
708.504	0.0137960
708.582	0.0136586
708.660	0.0135110
708.738	0.0134601
708.817	0.0133368
708.895	0.0132864
708.973	0.0133130
709.051	0.0133721
709.129	0.0132735
709.207	0.0132169
709.285	0.0131543
709.363	0.0131440
709.442	0.0131371
709.520	0.0131844
709.598	0.0130667
709.676	0.0131491
709.754	0.0130791
709.832	0.0131139
709.910	0.0130173
709.988	0.0131729
710.067	0.0131532
710.145	0.0131931
710.223	0.0131485
710.301	0.0132726
710.379	0.0134601
710.457	0.0133337
710.535	0.0134437
710.613	0.0135260
710.692	0.0138933
710.770	0.0138760
710.848	0.0137310
710.926	0.0136887
711.004	0.0138966
711.082	0.0138720
711.160	0.0139378
711.238	0.0140221
711.317	0.0141658
711.395	0.0139915
711.473	0.0139886
711.551	0.0138420
711.629	0.0138067
711.707	0.0139941
711.785	0.0135962
711.863	0.0134704
711.942	0.0136432
712.020	0.0135683
712.098	0.0133611
712.176	0.0132458
712.254	0.0133347
712.332	0.0133109
712.410	0.0132704
712.488	0.0132984
712.567	0.0133168
712.645	0.0134122
712.723	0.0134857
712.801	0.0135680
712.879	0.0136008
712.957	0.0136542
713.035	0.0137814
713.113	0.0138660
713.192	0.0138849
713.270	0.0140588
713.348	0.0139564
713.426	0.0139992
713.504	0.0141677
713.582	0.0140418
713.660	0.0139597
713.738	0.0137872
713.817	0.0135867
713.895	0.0138419
713.973	0.0136157
714.051	0.0135029
714.129	0.0135252
714.207	0.0136137
714.285	0.0133244
714.363	0.0134464
714.442	0.0136036
714.520	0.0133951
714.598	0.0134920
714.676	0.0136560
714.754	0.0136366
714.832	0.0135770
714.910	0.0137591
714.988	0.0138257
715.067	0.0138832
715.145	0.0140312
715.223	0.0139188
715.301	0.0139082
715.379	0.0139604
715.457	0.0139548
715.535	0.0137639
715.613	0.0136373
715.692	0.0136034
715.770	0.0134489
715.848	0.0134782
715.926	0.0132605
716.004	0.0132708
716.082	0.0132421
716.160	0.0129963
716.238	0.0130499
716.317	0.0128580
716.395	0.0129611
716.473	0.0128073
716.551	0.0131229
716.629	0.0132215
716.707	0.0130719
716.785	0.0130325
716.863	0.0132458
716.942	0.0133733
717.020	0.0132970
717.098	0.0134567
717.176	0.0134827
717.254	0.0134886
717.332	0.0135452
717.410	0.0135882
717.488	0.0135070
717.567	0.0134600
717.645	0.0136378
717.723	0.0134834
717.801	0.0134532
717.879	0.0135738
717.957	0.0136574
718.035	0.0136838
718.113	0.0137489
718.192	0.0137136
718.270	0.0138756
718.348	0.0139830
718.426	0.0140218
718.504	0.0142574
718.582	0.0142728
718.660	0.0141901
718.738	0.0141995
718.817	0.0142811
718.895	0.0142352
718.973	0.0141802
719.051	0.0141812
719.129	0.0140770
719.207	0.0139889
719.285	0.0139536
719.363	0.0139659
719.442	0.0139402
719.520	0.0137309
719.598	0.0138105
719.676	0.0138451
719.754	0.0139462
719.832	0.0137328
719.910	0.0137727
719.988	0.0136784
720.067	0.0136628
720.145	0.0136195
720.223	0.0135097
720.301	0.0133071
720.379	0.0132793
720.457	0.0132379
720.535	0.0132568
720.613	0.0130842
720.692	0.0129662
720.770	0.0129553
720.848	0.0128748
720.926	0.0129837
721.004	0.0130222
721.082	0.0131230
721.160	0.0131023
721.238	0.0132377
721.317	0.0131821
721.395	0.0132273
721.473	0.0133572
721.551	0.0133041
721.629	0.0133758
721.707	0.0133099
721.785	0.0133788
721.863	0.0133493
721.942	0.0135227
722.020	0.0135439
722.098	0.0134729
722.176	0.0135704
722.254	0.0136309
722.332	0.0137834
722.410	0.0136960
722.488	0.0136021
722.567	0.0139092
722.645	0.0137959
722.723	0.0138818
722.801	0.0138970
722.879	0.0138224
722.957	0.0137409
723.035	0.0137703
723.113	0.0136626
723.192	0.0136803
723.270	0.0137093
723.348	0.0135747
723.426	0.0138538
723.504	0.0136578
723.582	0.0137254
723.660	0.0138998
723.738	0.0139185
723.817	0.0139558
723.895	0.0139318
723.973	0.0139907
724.051	0.0141248
724.129	0.0139823
724.207	0.0139587
724.285	0.0138998
724.363	0.0138322
724.442	0.0138421
724.520	0.0136710
724.598	0.0136201
724.676	0.0136172
724.754	0.0135597
724.832	0.0133990
724.910	0.0133255
724.988	0.0133016
725.067	0.0133480
725.145	0.0133745
725.223	0.0132458
725.301	0.0131810
725.379	0.0132589
725.457	0.0132591
725.535	0.0132983
725.613	0.0133517
725.692	0.0133508
725.770	0.0134241
725.848	0.0134605
725.926	0.0133554
726.004	0.0135982
726.082	0.0135455
726.160	0.0136657
726.238	0.0137508
726.317	0.0136311
726.395	0.0136289
726.473	0.0137458
726.551	0.0137328
726.629	0.0138686
726.707	0.0138248
726.785	0.0137156
726.863	0.0136406
726.942	0.0136888
727.020	0.0136060
727.098	0.0135542
727.176	0.0135740
727.254	0.0136427
727.332	0.0135244
727.410	0.0134743
727.488	0.0134513
727.567	0.0133826
727.645	0.0135169
727.723	0.0134986
727.801	0.0135322
727.879	0.0135196
727.957	0.0134768
728.035	0.0135915
728.113	0.0136320
728.192	0.0136063
728.270	0.0136741
728.348	0.0135326
728.426	0.0136055
728.504	0.0135340
728.582	0.0134161
728.660	0.0134927
728.738	0.0136557
728.817	0.0136334
728.895	0.0138142
728.973	0.0136954
729.051	0.0136198
729.129	0.0136697
729.207	0.0137469
729.285	0.0136806
729.363	0.0139048
729.442	0.0136829
729.520	0.0137103
729.598	0.0136749
729.676	0.0137067
729.754	0.0138570
729.832	0.0136726
729.910	0.0136234
729.988	0.0135260
730.067	0.0135400
730.145	0.0136102
730.223	0.0136435
730.301	0.0134547
730.379	0.0134991
730.457	0.0134985
730.535	0.0134667
730.613	0.0133743
730.692	0.0134330
730.770	0.0134930
730.848	0.0134648
730.926	0.0136275
731.004	0.0134872
731.082	0.0136531
731.160	0.0136559
731.238	0.0136940
731.317	0.0138943
731.395	0.0139205
731.473	0.0139201
731.551	0.0138366
731.629	0.0139130
731.707	0.0140049
731.785	0.0139786
731.863	0.0139422
731.942	0.0139883
732.020	0.0138552
732.098	0.0140401
732.176	0.0138628
732.254	0.0138278
732.332	0.0136964
732.410	0.0137199
732.488	0.0135339
732.567	0.0134501
732.645	0.0134538
732.723	0.0133405
732.801	0.0131625
732.879	0.0133186
732.957	0.0131577
733.035	0.0130925
733.113	0.0132404
733.192	0.0132829
733.270	0.0132088
733.348	0.0132901
733.426	0.0133858
733.504	0.0133282
733.582	0.0135106
733.660	0.0136092
733.738	0.0134396
733.817	0.0134355
733.895	0.0134763
733.973	0.0135245
734.051	0.0134709
734.129	0.0134600
734.207	0.0134201
734.285	0.0135217
734.363	0.0136287
734.442	0.0136713
734.520	0.0136111
734.598	0.0136625
734.676	0.0136536
734.754	0.0136899
734.832	0.0137086
734.910	0.0138754
734.988	0.0137933
735.067	0.0138167
735.145	0.0138392
735.223	0.0138212
735.301	0.0137710
735.379	0.0138205
735.457	0.0138460
735.535	0.0138223
735.613	0.0137875
735.692	0.0139008
735.770	0.0138493
735.848	0.0138222
735.926	0.0137494
736.004	0.0137106
736.082	0.0136956
736.160	0.0136739
736.238	0.0136684
736.317	0.0137685
736.395	0.0135085
736.473	0.0136069
736.551	0.0136350
736.629	0.0133522
736.707	0.0134303
736.785	0.0135436
736.863	0.0136076
736.942	0.0135308
737.020	0.0134738
737.098	0.0137357
737.176	0.0137421
737.254	0.0137204
737.332	0.0138583
737.410	0.0137893
737.488	0.0136887
737.567	0.0137551
737.645	0.0138786
737.723	0.0138834
737.801	0.0137169
737.879	0.0135905
737.957	0.0136681
738.035	0.0136285
738.113	0.0135981
738.192	0.0137810
738.270	0.0137455
738.348	0.0136972
738.426	0.0136588
738.504	0.0136171
738.582	0.0136755
738.660	0.0136726
738.738	0.0134937
738.817	0.0135312
738.895	0.0135550
738.973	0.0134440
739.051	0.0132652
739.129	0.0133276
739.207	0.0132181
739.285	0.0131872
739.363	0.0133033
739.442	0.0132728
739.520	0.0131973
739.598	0.0131692
739.676	0.0132999
739.754	0.0134473
739.832	0.0134996
739.910	0.0133772
739.988	0.0134223
740.067	0.0135362
740.145	0.0136543
740.223	0.0137460
740.301	0.0136172
740.379	0.0137595
740.457	0.0138040
740.535	0.0138749
740.613	0.0138693
740.692	0.0137646
740.770	0.0136562
740.848	0.0136070
740.926	0.0136317
741.004	0.0135605
741.082	0.0135174
741.160	0.0135104
741.238	0.0136147
741.317	0.0134261
741.395	0.0134396
741.473	0.0135433
741.551	0.0135098
741.629	0.0134399
741.707	0.0135969
741.785	0.0136160
741.863	0.0134976
741.942	0.0133752
742.020	0.0135276
742.098	0.0135613
742.176	0.0136200
742.254	0.0134254
742.332	0.0134868
742.410	0.0135873
742.488	0.0136360
742.567	0.0135748
742.645	0.0136456
742.723	0.0136432
742.801	0.0136597
742.879	0.0136259
742.957	0.0136669
743.035	0.0135194
743.113	0.0136890
743.192	0.0137728
743.270	0.0136895
743.348	0.0137146
743.426	0.0137576
743.504	0.0137651
743.582	0.0137698
743.660	0.0137090
743.738	0.0138280
743.817	0.0139133
743.895	0.0138129
743.973	0.0138495
744.051	0.0137166
744.129	0.0136732
744.207	0.0137149
744.285	0.0138508
744.363	0.0137457
744.442	0.0138131
744.520	0.0136871
744.598	0.0137045
744.676	0.0136694
744.754	0.0138305
744.832	0.0138062
744.910	0.0136138
744.988	0.0137137
745.067	0.0136858
745.145	0.0137374
745.223	0.0135578
745.301	0.0134688
745.379	0.0133686
745.457	0.0133870
745.535	0.0133038
745.613	0.0132303
745.692	0.0132918
745.770	0.0132572
745.848	0.0131980
745.926	0.0131456
746.004	0.0132093
746.082	0.0132243
746.160	0.0133054
746.238	0.0132514
746.317	0.0132853
746.395	0.0133383
746.473	0.0133611
746.551	0.0135369
746.629	0.0135234
746.707	0.0135028
746.785	0.0136692
746.863	0.0136447
746.942	0.0135200
747.020	0.0135493
747.098	0.0136123
747.176	0.0134258
747.254	0.0135847
747.332	0.0136028
747.410	0.0135414
747.488	0.0135191
747.567	0.0136098
747.645	0.0135971
747.723	0.0135602
747.801	0.0136273
747.879	0.0136097
747.957	0.0137885
748.035	0.0138596
748.113	0.0138279
748.192	0.0138032
748.270	0.0138654
748.348	0.0140080
748.426	0.0140853
748.504	0.0140894
748.582	0.0139607
748.660	0.0138600
748.738	0.0137744
748.817	0.0139855
748.895	0.0139503
748.973	0.0138483
749.051	0.0137388
749.129	0.0137631
749.207	0.0135563
749.285	0.0136079
749.363	0.0138014
749.442	0.0137614
749.520	0.0137410
749.598	0.0137137
749.676	0.0135963
749.754	0.0135612
749.832	0.0136421
749.910	0.0136240
749.988	0.0135921
750.067	0.0135365
750.145	0.0137085
750.223	0.0136423
750.301	0.0135706
750.379	0.0135655
750.457	0.0135497
750.535	0.0137270
750.613	0.0134937
750.692	0.0134406
750.770	0.0135593
750.848	0.0135879
750.926	0.0134048
751.004	0.0134019
751.082	0.0135225
751.160	0.0136044
751.238	0.0133918
751.317	0.0133758
751.395	0.0133147
751.473	0.0132687
751.551	0.0134608
751.629	0.0133771
751.707	0.0134188
751.785	0.0133721
751.863	0.0134680
751.942	0.0134914
752.020	0.0136749
752.098	0.0136263
752.176	0.0135538
752.254	0.0136637
752.332	0.0138224
752.410	0.0137811
752.488	0.0138688
752.567	0.0138921
752.645	0.0138943
752.723	0.0137701
752.801	0.0138505
752.879	0.0138992
752.957	0.0137649
753.035	0.0138105
753.113	0.0138522
753.192	0.0137401
753.270	0.0136759
753.348	0.0135463
753.426	0.0135125
753.504	0.0134360
753.582	0.0134165
753.660	0.0133481
753.738	0.0133395
753.817	0.0133871
753.895	0.0135030
753.973	0.0134900
754.051	0.0134456
754.129	0.0135300
754.207	0.0135674
754.285	0.0135255
754.363	0.0136311
754.442	0.0135640
754.520	0.0136734
754.598	0.0135815
754.676	0.0135450
754.754	0.0135226
754.832	0.0137148
754.910	0.0137258
754.988	0.0137766
755.067	0.0137196
755.145	0.0135583
755.223	0.0136406
755.301	0.0136570
755.379	0.0137142
755.457	0.0136227
755.535	0.0136268
755.613	0.0135325
755.692	0.0137698
755.770	0.0138010
755.848	0.0137960
755.926	0.0139539
756.004	0.0138866
756.082	0.0137201
756.160	0.0138889
756.238	0.0139951
756.317	0.0138210
756.395	0.0137463
756.473	0.0137742
756.551	0.0137093
756.629	0.0137116
756.707	0.0137257
756.785	0.0137396
756.863	0.0136217
756.942	0.0135219
757.020	0.0134778
757.098	0.0134304
757.176	0.0135043
757.254	0.0134879
757.332	0.0135105
757.410	0.0134892
757.488	0.0133598
757.567	0.0133911
757.645	0.0135231
757.723	0.0134196
757.801	0.0135122
757.879	0.0134998
757.957	0.0136333
758.035	0.0135667
758.113	0.0134547
758.192	0.0136193
758.270	0.0136821
758.348	0.0135571
758.426	0.0136856
758.504	0.0137104
758.582	0.0136840
758.660	0.0137499
758.738	0.0136880
758.817	0.0136275
758.895	0.0138070
758.973	0.0137045
759.051	0.0137897
759.129	0.0137428
759.207	0.0137438
759.285	0.0137665
759.363	0.0136989
759.442	0.0135727
759.520	0.0135316
759.598	0.0135596
759.676	0.0134472
759.754	0.0135589
759.832	0.0134161
759.910	0.0132758
759.988	0.0133273
760.067	0.0134940
760.145	0.0134411
760.223	0.0136121
760.301	0.0135273
760.379	0.0135284
760.457	0.0136504
760.535	0.0137256
760.613	0.0136562
760.692	0.0137778
760.770	0.0137561
760.848	0.0137660
760.926	0.0137112
761.004	0.0138451
761.082	0.0138578
761.160	0.0136704
761.238	0.0136887
761.317	0.0138020
761.395	0.0138026
761.473	0.0137377
761.551	0.0136413
761.629	0.0136588
761.707	0.0136756
761.785	0.0137267
761.863	0.0136271
761.942	0.0135284
762.020	0.0135003
762.098	0.0136391
762.176	0.0135091
762.254	0.0134087
762.332	0.0134846
762.410	0.0136040
762.488	0.0135003
762.567	0.0133591
762.645	0.0134060
762.723	0.0134414
762.801	0.0134863
762.879	0.0134766
762.957	0.0134437
763.035	0.0135168
763.113	0.0135677
763.192	0.0134513
763.270	0.0134949
763.348	0.0133763
763.426	0.0136215
763.504	0.0135926
763.582	0.0135410
763.660	0.0135473
763.738	0.0136665
763.817	0.0136127
763.895	0.0136723
763.973	0.0137103
764.051	0.0136739
764.129	0.0137273
764.207	0.0136664
764.285	0.0137675
764.363	0.0138640
764.442	0.0137411
764.520	0.0138283
764.598	0.0137140
764.676	0.0136546
764.754	0.0137396
764.832	0.0137031
764.910	0.0137252
764.988	0.0135712
765.067	0.0134800
765.145	0.0136138
765.223	0.0135187
765.301	0.0136046
765.379	0.0135500
765.457	0.0135078
765.535	0.0135641
765.613	0.0135396
765.692	0.0134602
765.770	0.0135580
765.848	0.0136266
765.926	0.0134230
766.004	0.0134579
766.082	0.0135732
766.160	0.0135868
766.238	0.0136430
766.317	0.0138618
766.395	0.0136950
766.473	0.0137688
766.551	0.0136820
766.629	0.0138413
766.707	0.0138700
766.785	0.0138618
766.863	0.0138100
766.942	0.0137569
767.020	0.0139510
767.098	0.0137421
767.176	0.0135833
767.254	0.0135857
767.332	0.0135287
767.410	0.0135075
767.488	0.0134148
767.567	0.0133111
767.645	0.0134208
767.723	0.0133246
767.801	0.0133304
767.879	0.0132717
767.957	0.0133575
768.035	0.0135113
768.113	0.0135055
768.192	0.0132558
768.270	0.0133171
768.348	0.0134700
768.426	0.0135456
768.504	0.0135568
768.582	0.0135896
768.660	0.0137992
768.738	0.0136327
768.817	0.0135918
768.895	0.0137151
768.973	0.0138090
769.051	0.0137483
769.129	0.0135988
769.207	0.0137794
769.285	0.0138199
769.363	0.0137483
769.442	0.0136536
769.520	0.0137278
769.598	0.0138509
769.676	0.0137356
769.754	0.0136826
769.832	0.0136854
769.910	0.0136611
769.988	0.0137618
770.067	0.0136589
770.145	0.0135721
770.223	0.0136045
770.301	0.0135206
770.379	0.0135329
770.457	0.0134898
770.535	0.0135115
770.613	0.0134810
770.692	0.0135138
770.770	0.0134698
770.848	0.0136412
770.926	0.0135366
771.004	0.0135262
771.082	0.0136578
771.160	0.0138025
771.238	0.0137173
771.317	0.0136886
771.395	0.0137878
771.473	0.0137038
771.551	0.0136996
771.629	0.0137665
771.707	0.0138773
771.785	0.0138103
771.863	0.0137933
771.942	0.0136523
772.020	0.0137542
772.098	0.0138133
772.176	0.0138154
772.254	0.0137558
772.332	0.0136508
772.410	0.0136855
772.488	0.0136572
772.567	0.0138458
772.645	0.0137042
772.723	0.0135616
772.801	0.0135951
772.879	0.0135191
772.957	0.0134320
773.035	0.0135260
773.113	0.0134149
773.192	0.0133906
773.270	0.0134243
773.348	0.0132918
773.426	0.0132697
773.504	0.0131818
773.582	0.0132847
773.660	0.0132668
773.738	0.0133031
773.817	0.0134035
773.895	0.0132617
773.973	0.0133673
774.051	0.0134661
774.129	0.0134653
774.207	0.0133639
774.285	0.0135838
774.363	0.0136471
774.442	0.0135802
774.520	0.0137837
774.598	0.0138535
774.676	0.0137800
774.754	0.0138287
774.832	0.0139365
774.910	0.0140117
774.988	0.0139457
775.067	0.0140101
775.145	0.0139387
775.223	0.0139005
775.301	0.0139733
775.379	0.0138981
775.457	0.0138806
775.535	0.0139529
775.613	0.0137555
775.692	0.0139516
775.770	0.0137917
775.848	0.0137090
775.926	0.0136242
776.004	0.0136547
776.082	0.0136340
776.160	0.0136332
776.238	0.0135796
776.317	0.0135852
776.395	0.0134991
776.473	0.0134398
776.551	0.0136542
776.629	0.0136552
776.707	0.0136293
776.785	0.0135695
776.863	0.0136972
776.942	0.0136422
777.020	0.0135848
777.098	0.0135465
777.176	0.0135823
777.254	0.0135396
777.332	0.0135104
777.410	0.0134827
777.488	0.0135550
777.567	0.0136063
777.645	0.0136885
777.723	0.0134892
777.801	0.0136173
777.879	0.0136930
777.957	0.0136636
778.035	0.0134149
778.113	0.0136389
778.192	0.0136278
778.270	0.0135194
778.348	0.0135669
778.426	0.0136058
778.504	0.0134207
778.582	0.0134996
778.660	0.0133858
778.738	0.0132527
778.817	0.0134489
778.895	0.0133669
778.973	0.0133881
779.051	0.0133450
779.129	0.0134958
779.207	0.0133981
779.285	0.0132871
779.363	0.0134167
779.442	0.0134348
779.520	0.0134858
779.598	0.0134013
779.676	0.0136219
779.754	0.0135727
779.832	0.0135807
779.910	0.0135618
779.988	0.0137278
780.067	0.0137786
780.145	0.0136891
780.223	0.0137656
780.301	0.0138609
780.379	0.0138203
780.457	0.0141065
780.535	0.0140250
780.613	0.0141206
780.692	0.0140150
780.770	0.0140306
780.848	0.0139681
780.926	0.0141470
781.004	0.0139875
781.082	0.0138497
781.160	0.0140015
781.238	0.0138539
781.317	0.0138957
781.395	0.0136829
781.473	0.0136840
781.551	0.0135435
781.629	0.0136801
781.707	0.0136457
781.785	0.0134479
781.863	0.0133823
781.942	0.0134027
782.020	0.0134210
782.098	0.0134660
782.176	0.0133614
782.254	0.0134529
782.332	0.0134015
782.410	0.0134013
782.488	0.0135972
782.567	0.0136099
782.645	0.0135981
782.723	0.0135367
782.801	0.0136031
782.879	0.0135438
782.957	0.0135513
783.035	0.0135821
783.113	0.0135975
783.192	0.0135978
783.270	0.0135606
783.348	0.0136144
783.426	0.0134013
783.504	0.0134279
783.582	0.0134982
783.660	0.0135592
783.738	0.0134516
783.817	0.0133069
783.895	0.0133727
783.973	0.0133710
784.051	0.0133689
784.129	0.0133552
784.207	0.0132976
784.285	0.0133995
784.363	0.0134492
784.442	0.0134682
784.520	0.0133379
784.598	0.0134008
784.676	0.0134977
784.754	0.0135924
784.832	0.0136007
784.910	0.0136298
784.988	0.0136153
785.067	0.0136276
785.145	0.0137599
785.223	0.0137621
785.301	0.0138227
785.379	0.0138457
785.457	0.0138526
785.535	0.0139726
785.613	0.0138898
785.692	0.0140565
785.770	0.0139752
785.848	0.0140390
785.926	0.0140229
786.004	0.0137878
786.082	0.0138931
786.160	0.0139384
786.238	0.0138506
786.317	0.0139109
786.395	0.0138721
786.473	0.0137232
786.551	0.0137081
786.629	0.0136417
786.707	0.0137559
786.785	0.0136123
786.863	0.0134459
786.942	0.0135910
787.020	0.0134309
787.098	0.0135334
787.176	0.0135399
787.254	0.0133321
787.332	0.0132383
787.410	0.0133494
787.488	0.0132920
787.567	0.0133302
787.645	0.0133569
787.723	0.0132718
787.801	0.0133443
787.879	0.0134747
787.957	0.0133780
788.035	0.0134579
788.113	0.0135596
788.192	0.0134707
788.270	0.0135091
788.348	0.0135300
788.426	0.0135066
788.504	0.0135524
788.582	0.0136004
788.660	0.0135278
788.738	0.0136040
788.817	0.0136869
788.895	0.0135256
788.973	0.0135069
789.051	0.0136169
789.129	0.0135723
789.207	0.0136428
789.285	0.0136242
789.363	0.0135503
789.442	0.0135811
789.520	0.0135257
789.598	0.0136584
789.676	0.0136074
789.754	0.0136478
789.832	0.0135651
789.910	0.0136160
789.988	0.0135382
790.067	0.0136182
790.145	0.0137544
790.223	0.0138005
790.301	0.0137020
790.379	0.0137064
790.457	0.0136956
790.535	0.0135862
790.613	0.0137672
790.692	0.0138024
790.770	0.0137440
790.848	0.0138374
790.926	0.0138187
791.004	0.0138004
791.082	0.0138570
791.160	0.0138099
791.238	0.0137236
791.317	0.0137215
791.395	0.0138726
791.473	0.0138325
791.551	0.0138406
791.629	0.0137766
791.707	0.0136602
791.785	0.0136122
791.863	0.0136445
791.942	0.0135556
792.020	0.0135800
792.098	0.0135458
792.176	0.0133832
792.254	0.0133408
792.332	0.0134995
792.410	0.0135137
792.488	0.0134039
792.567	0.0132780
792.645	0.0133890
792.723	0.0135289
792.801	0.0134814
792.879	0.0133202
792.957	0.0134187
793.035	0.0134684
793.113	0.0134033
793.192	0.0134726
793.270	0.0135362
793.348	0.0135926
793.426	0.0134599
793.504	0.0136621
793.582	0.0137556
793.660	0.0136448
793.738	0.0136678
793.817	0.0136789
793.895	0.0136488
793.973	0.0137267
794.051	0.0138387
794.129	0.0137449
794.207	0.0138187
794.285	0.0137506
794.363	0.0137310
794.442	0.0137103
794.520	0.0137213
794.598	0.0135732
794.676	0.0136768
794.754	0.0137022
794.832	0.0135437
794.910	0.0135913
794.988	0.0135229
795.067	0.0135600
795.145	0.0134059
795.223	0.0134541
795.301	0.0134864
795.379	0.0134249
795.457	0.0134191
795.535	0.0134335
795.613	0.0136184
795.692	0.0134101
795.770	0.0133248
795.848	0.0134777
795.926	0.0136307
796.004	0.0135336
796.082	0.0135143
796.160	0.0136184
796.238	0.0137350
796.317	0.0136359
796.395	0.0137692
796.473	0.0137707
796.551	0.0138449
796.629	0.0139823
796.707	0.0139470
796.785	0.0138718
796.863	0.0138633
796.942	0.0140266
797.020	0.0137975
797.098	0.0140430
797.176	0.0140316
797.254	0.0139045
797.332	0.0139423
797.410	0.0137860
797.488	0.0137382
797.567	0.0137341
797.645	0.0137460
797.723	0.0134863
797.801	0.0136917
797.879	0.0136401
797.957	0.0135693
798.035	0.0133919
798.113	0.0135117
798.192	0.0135174
798.270	0.0133881
798.348	0.0131980
798.426	0.0133630
798.504	0.0134261
798.582	0.0133437
798.660	0.0133521
798.738	0.0132642
798.817	0.0132123
798.895	0.0133425
798.973	0.0134261
799.051	0.0133565
799.129	0.0134724
799.207	0.0133749
799.285	0.0134919
799.363	0.0134942
799.442	0.0136665
799.520	0.0135473
799.598	0.0136716
799.676	0.0135748
799.754	0.0136255
799.832	0.0137659
799.910	0.0136822
799.988	0.0136141
800.067	0.0137746
800.145	0.0137278
800.223	0.0136079
800.301	0.0137847
800.379	0.0137724
800.457	0.0134943
800.535	0.0136327
800.613	0.0136099
800.692	0.0137008
800.770	0.0136314
800.848	0.0137051
800.926	0.0136837
801.004	0.0137105
801.082	0.0135380
801.160	0.0135187
801.238	0.0135643
801.317	0.0136166
801.395	0.0134400
801.473	0.0137228
801.551	0.0135806
801.629	0.0135265
801.707	0.0135559
801.785	0.0134595
801.863	0.0135136
801.942	0.0136559
802.020	0.0135324
802.098	0.0135844
802.176	0.0136162
802.254	0.0136340
802.332	0.0136468
802.410	0.0136781
802.488	0.0136784
802.567	0.0135621
802.645	0.0136044
802.723	0.0136173
802.801	0.0137206
802.879	0.0135715
802.957	0.0135948
803.035	0.0134923
803.113	0.0135390
803.192	0.0134995
803.270	0.0134436
803.348	0.0135278
803.426	0.0135950
803.504	0.0135189
803.582	0.0135225
803.660	0.0135090
803.738	0.0134879
803.817	0.0133494
803.895	0.0133759
803.973	0.0134151
804.051	0.0134328
804.129	0.0135564
804.207	0.0134739
804.285	0.0134398
804.363	0.0132777
804.442	0.0134998
804.520	0.0136845
804.598	0.0135336
804.676	0.0135455
804.754	0.0136722
804.832	0.0136205
804.910	0.0135232
804.988	0.0137122
805.067	0.0137266
805.145	0.0137707
805.223	0.0136825
805.301	0.0136353
805.379	0.0137623
805.457	0.0137115
805.535	0.0137418
805.613	0.0137992
805.692	0.0136669
805.770	0.0136609
805.848	0.0137614
805.926	0.0137171
806.004	0.0136204
806.082	0.0136697
806.160	0.0136213
806.238	0.0136696
806.317	0.0135053
806.395	0.0135422
806.473	0.0134354
806.551	0.0135344
806.629	0.0135770
806.707	0.0134670
806.785	0.0134689
806.863	0.0133495
806.942	0.0133605
807.020	0.0134912
807.098	0.0135278
807.176	0.0133331
807.254	0.0135271
807.332	0.0133047
807.410	0.0135060
807.488	0.0134130
807.567	0.0134309
807.645	0.0133474
807.723	0.0134335
807.801	0.0134985
807.879	0.0135555
807.957	0.0134172
808.035	0.0135257
808.113	0.0136353
808.192	0.0135986
808.270	0.0135508
808.348	0.0135539
808.426	0.0135615
808.504	0.0136163
808.582	0.0136487
808.660	0.0137471
808.738	0.0136552
808.817	0.0137222
808.895	0.0135880
808.973	0.0137989
809.051	0.0137804
809.129	0.0137668
809.207	0.0136882
809.285	0.0135915
809.363	0.0136358
809.442	0.0136567
809.520	0.0135144
809.598	0.0136066
809.676	0.0135107
809.754	0.0135513
809.832	0.0135266
809.910	0.0134906
809.988	0.0134997
810.067	0.0136653
810.145	0.0135735
810.223	0.0135732
810.301	0.0136050
810.379	0.0136485
810.457	0.0136315
810.535	0.0134689
810.613	0.0136303
810.692	0.0137403
810.770	0.0135510
810.848	0.0136203
810.926	0.0137607
811.004	0.0137107
811.082	0.0137234
811.160	0.0137539
811.238	0.0138364
811.317	0.0137835
811.395	0.0138058
811.473	0.0137942
811.551	0.0137896
811.629	0.0137321
811.707	0.0137444
811.785	0.0137832
811.863	0.0136960
811.942	0.0138360
812.020	0.0138014
812.098	0.0137623
812.176	0.0135509
812.254	0.0136525
812.332	0.0136385
812.410	0.0136553
812.488	0.0136897
812.567	0.0134937
812.645	0.0135181
812.723	0.0135762
812.801	0.0135798
812.879	0.0135519
812.957	0.0134499
813.035	0.0134256
813.113	0.0133204
813.192	0.0133788
813.270	0.0134525
813.348	0.0133551
813.426	0.0134362
813.504	0.0134319
813.582	0.0134517
813.660	0.0132458
813.738	0.0132719
813.817	0.0133224
813.895	0.0134163
813.973	0.0134892
814.051	0.0134760
814.129	0.0135347
814.207	0.0135148
814.285	0.0134869
814.363	0.0136480
814.442	0.0136479
814.520	0.0135303
814.598	0.0137471
814.676	0.0136414
814.754	0.0136511
814.832	0.0136253
814.910	0.0136306
814.988	0.0135801
815.067	0.0135833
815.145	0.0136815
815.223	0.0135854
815.301	0.0136990
815.379	0.0137279
815.457	0.0137182
815.535	0.0135649
815.613	0.0136926
815.692	0.0137125
815.770	0.0135947
815.848	0.0137687
815.926	0.0137906
816.004	0.0136916
816.082	0.0139030
816.160	0.0137775
816.238	0.0137323
816.317	0.0137901
816.395	0.0137142
816.473	0.0138010
816.551	0.0138859
816.629	0.0138348
816.707	0.0136904
816.785	0.0137988
816.863	0.0139406
816.942	0.0138532
817.020	0.0137969
817.098	0.0137299
817.176	0.0136454
817.254	0.0135481
817.332	0.0137263
817.410	0.0138021
817.488	0.0137917
817.567	0.0136400
817.645	0.0134357
817.723	0.0134534
817.801	0.0134804
817.879	0.0135474
817.957	0.0134948
818.035	0.0133662
818.113	0.0134131
818.192	0.0133412
818.270	0.0133868
818.348	0.0133297
818.426	0.0131377
818.504	0.0132516
818.582	0.0133482
818.660	0.0132537
818.738	0.0133916
818.817	0.0133663
818.895	0.0135035
818.973	0.0134858
819.051	0.0135472
819.129	0.0135528
819.207	0.0135134
819.285	0.0134801
819.363	0.0135352
819.442	0.0136745
819.520	0.0137514
819.598	0.0136796
819.676	0.0136095
819.754	0.0136887
819.832	0.0137309
819.910	0.0137995
819.988	0.0136605
820.067	0.0138197
820.145	0.0137887
820.223	0.0137077
820.301	0.0136842
820.379	0.0136482
820.457	0.0136959
820.535	0.0137509
820.613	0.0137373
820.692	0.0136675
820.770	0.0138052
820.848	0.0137233
820.926	0.0136697
821.004	0.0136850
821.082	0.0136049
821.160	0.0136062
821.238	0.0137001
821.317	0.0137595
821.395	0.0136775
821.473	0.0137160
821.551	0.0137047
821.629	0.0136568
821.707	0.0137046
821.785	0.0136590
821.863	0.0136888
821.942	0.0136762
822.020	0.0137318
822.098	0.0135545
822.176	0.0137291
822.254	0.0136416
822.332	0.0135960
822.410	0.0136376
822.488	0.0136037
822.567	0.0136162
822.645	0.0136243
822.723	0.0135979
822.801	0.0135610
822.879	0.0135284
822.957	0.0136380
823.035	0.0134074
823.113	0.0133780
823.192	0.0135617
823.270	0.0134196
823.348	0.0133495
823.426	0.0133363
823.504	0.0134058
823.582	0.0132285
823.660	0.0134588
823.738	0.0132713
823.817	0.0133712
823.895	0.0136503
823.973	0.0133984
824.051	0.0132879
824.129	0.0136544
824.207	0.0135939
824.285	0.0136208
824.363	0.0136575
824.442	0.0136520
824.520	0.0136445
824.598	0.0137820
824.676	0.0137749
824.754	0.0136940
824.832	0.0136772
824.910	0.0137151
824.988	0.0137464
825.067	0.0136435
825.145	0.0136187
825.223	0.0138029
825.301	0.0137875
825.379	0.0136472
825.457	0.0137671
825.535	0.0137391
825.613	0.0137895
825.692	0.0136198
825.770	0.0136760
825.848	0.0136037
825.926	0.0135219
826.004	0.0135824
826.082	0.0136366
826.160	0.0136201
826.238	0.0136259
826.317	0.0135532
826.395	0.0134927
826.473	0.0134582
826.551	0.0135178
826.629	0.0134844
826.707	0.0135558
826.785	0.0135541
826.863	0.0135763
826.942	0.0136603
827.020	0.0134663
827.098	0.0135483
827.176	0.0135441
827.254	0.0134890
827.332	0.0135060
827.410	0.0135201
827.488	0.0135841
827.567	0.0137245
827.645	0.0136402
827.723	0.0134695
827.801	0.0136561
827.879	0.0135402
827.957	0.0136352
828.035	0.0137341
828.113	0.0138287
828.192	0.0137135
828.270	0.0135638
828.348	0.0135828
828.426	0.0137334
828.504	0.0136473
828.582	0.0135774
828.660	0.0135941
828.738	0.0135209
828.817	0.0135163
828.895	0.0135155
828.973	0.0134768
829.051	0.0134199
829.129	0.0135240
829.207	0.0134877
829.285	0.0135850
829.363	0.0134312
829.442	0.0134344
829.520	0.0134152
829.598	0.0134570
829.676	0.0134498
829.754	0.0133607
829.832	0.0134264
829.910	0.0133558
829.988	0.0134628
830.067	0.0134668
830.145	0.0134462
830.223	0.0136107
830.301	0.0134934
830.379	0.0134843
830.457	0.0136365
830.535	0.0134696
830.613	0.0135319
830.692	0.0135332
830.770	0.0135828
830.848	0.0136040
830.926	0.0135693
831.004	0.0135555
831.082	0.0135678
831.160	0.0136119
831.238	0.0135437
831.317	0.0137018
831.395	0.0137199
831.473	0.0136417
831.551	0.0134986
831.629	0.0135625
831.707	0.0135665
831.785	0.0135379
831.863	0.0136340
831.942	0.0136429
832.020	0.0136588
832.098	0.0136576
832.176	0.0135535
832.254	0.0136063
832.332	0.0134658
832.410	0.0135774
832.488	0.0135376
832.567	0.0135959
832.645	0.0136257
832.723	0.0135477
832.801	0.0137050
832.879	0.0136018
832.957	0.0136432
833.035	0.0136166
833.113	0.0137313
833.192	0.0137100
833.270	0.0137444
833.348	0.0136566
833.426	0.0137105
833.504	0.0136842
833.582	0.0137062
833.660	0.0136076
833.738	0.0136442
833.817	0.0136739
833.895	0.0136264
833.973	0.0135961
834.051	0.0136375
834.129	0.0136002
834.207	0.0135663
834.285	0.0135518
834.363	0.0136276
834.442	0.0135319
834.520	0.0135748
834.598	0.0134806
834.676	0.0134947
834.754	0.0134496
834.832	0.0134657
834.910	0.0134264
834.988	0.0135077
835.067	0.0134690
835.145	0.0133847
835.223	0.0135184
835.301	0.0135921
835.379	0.0133631
835.457	0.0134732
835.535	0.0134502
835.613	0.0134138
835.692	0.0134782
835.770	0.0135672
835.848	0.0135044
835.926	0.0136462
836.004	0.0136644
836.082	0.0136581
836.160	0.0135398
836.238	0.0135490
836.317	0.0135237
836.395	0.0135249
836.473	0.0135636
836.551	0.0136774
836.629	0.0135821
836.707	0.0134464
836.785	0.0136412
836.863	0.0135989
836.942	0.0136888
837.020	0.0135194
837.098	0.0134882
837.176	0.0136541
837.254	0.0135316
837.332	0.0137086
837.410	0.0135593
837.488	0.0135793
837.567	0.0136048
837.645	0.0135198
837.723	0.0134917
837.801	0.0136452
837.879	0.0135696
837.957	0.0135789
838.035	0.0135680
838.113	0.0136790
838.192	0.0135793
838.270	0.0135390
838.348	0.0136277
838.426	0.0135876
838.504	0.0136215
838.582	0.0135322
838.660	0.0136473
838.738	0.0136166
838.817	0.0135751
838.895	0.0135963
838.973	0.0135852
839.051	0.0138035
839.129	0.0135308
839.207	0.0134455
839.285	0.0136075
839.363	0.0135269
839.442	0.0135138
839.520	0.0134734
839.598	0.0135965
839.676	0.0134931
839.754	0.0136181
839.832	0.0135773
839.910	0.0135712
839.988	0.0134653
840.067	0.0133449
840.145	0.0134681
840.223	0.0135178
840.301	0.0134270
840.379	0.0134232
840.457	0.0136348
840.535	0.0135819
840.613	0.0134796
840.692	0.0135136
840.770	0.0134555
840.848	0.0134978
840.926	0.0134782
841.004	0.0134677
841.082	0.0135535
841.160	0.0135586
841.238	0.0135884
841.317	0.0135616
841.395	0.0136089
841.473	0.0135529
841.551	0.0136223
841.629	0.0137900
841.707	0.0136554
841.785	0.0135553
841.863	0.0136053
841.942	0.0134300
842.020	0.0135669
842.098	0.0137016
842.176	0.0136066
842.254	0.0135703
842.332	0.0135512
842.410	0.0136935
842.488	0.0136047
842.567	0.0135741
842.645	0.0136802
842.723	0.0135562
842.801	0.0136366
842.879	0.0137328
842.957	0.0136982
843.035	0.0136180
843.113	0.0136583
843.192	0.0135664
843.270	0.0136357
843.348	0.0137006
843.426	0.0136469
843.504	0.0136803
843.582	0.0136137
843.660	0.0134641
843.738	0.0135423
843.817	0.0135867
843.895	0.0136588
843.973	0.0134148
844.051	0.0135921
844.129	0.0135952
844.207	0.0134627
844.285	0.0136367
844.363	0.0135093
844.442	0.0135667
844.520	0.0134675
844.598	0.0135857
844.676	0.0136720
844.754	0.0136526
844.832	0.0136755
844.910	0.0136065
844.988	0.0136236
845.067	0.0135206
845.145	0.0136446
845.223	0.0136523
845.301	0.0136767
845.379	0.0136400
845.457	0.0135979
845.535	0.0136958
845.613	0.0137509
845.692	0.0137157
845.770	0.0135521
845.848	0.0135604
845.926	0.0137280
846.004	0.0136285
846.082	0.0137307
846.160	0.0135742
846.238	0.0135753
846.317	0.0134972
846.395	0.0134491
846.473	0.0134434
846.551	0.0135648
846.629	0.0136537
846.707	0.0136174
846.785	0.0136571
846.863	0.0135722
846.942	0.0135122
847.020	0.0135604
847.098	0.0135389
847.176	0.0135413
847.254	0.0136465
847.332	0.0136016
847.410	0.0136024
847.488	0.0137222
847.567	0.0136308
847.645	0.0136227
847.723	0.0136472
847.801	0.0134663
847.879	0.0135138
847.957	0.0136757
848.035	0.0136547
848.113	0.0137022
848.192	0.0136108
848.270	0.0135139
848.348	0.0136810
848.426	0.0136787
848.504	0.0135320
848.582	0.0136581
848.660	0.0136751
848.738	0.0136909
848.817	0.0135892
848.895	0.0135780
848.973	0.0135451
849.051	0.0135494
849.129	0.0136193
849.207	0.0136458
849.285	0.0137305
849.363	0.0137102
849.442	0.0135681
849.520	0.0135769
849.598	0.0136190
849.676	0.0136397
849.754	0.0136437
849.832	0.0135204
849.910	0.0137336
849.988	0.0136437
850.067	0.0135201
850.145	0.0136721
850.223	0.0137226
850.301	0.0134956
850.379	0.0137011
850.457	0.0136140
850.535	0.0135301
850.613	0.0136986
850.692	0.0136876
850.770	0.0136082
850.848	0.0134923
850.926	0.0136124
851.004	0.0135690
851.082	0.0137073
851.160	0.0135454
851.238	0.0135817
851.317	0.0135056
851.395	0.0135839
851.473	0.0135786
851.551	0.0137391
851.629	0.0135350
851.707	0.0134950
851.785	0.0136801
851.863	0.0134695
851.942	0.0135785
852.020	0.0135470
852.098	0.0135482
852.176	0.0135722
852.254	0.0135245
852.332	0.0136094
852.410	0.0134862
852.488	0.0136176
852.567	0.0136263
852.645	0.0136836
852.723	0.0136566
852.801	0.0135191
852.879	0.0134166
852.957	0.0135089
853.035	0.0135181
853.113	0.0136200
853.192	0.0136114
853.270	0.0135728
853.348	0.0135914
853.426	0.0135030
853.504	0.0135949
853.582	0.0134724
853.660	0.0136758
853.738	0.0135838
853.817	0.0135574
853.895	0.0136287
853.973	0.0136626
854.051	0.0136206
854.129	0.0136433
854.207	0.0136543
854.285	0.0135417
854.363	0.0134728
854.442	0.0136250
854.520	0.0136185
854.598	0.0135033
854.676	0.0135217
854.754	0.0134958
854.832	0.0136768
854.910	0.0135952
854.988	0.0136236
855.067	0.0136239
855.145	0.0135955
855.223	0.0136681
855.301	0.0137435
855.379	0.0136218
855.457	0.0136565
855.535	0.0136446
855.613	0.0136327
855.692	0.0136954
855.770	0.0136269
855.848	0.0136077
855.926	0.0136431
856.004	0.0136460
856.082	0.0135889
856.160	0.0136107
856.238	0.0134858
856.317	0.0135650
856.395	0.0136079
856.473	0.0135592
856.551	0.0135484
856.629	0.0136217
856.707	0.0136162
856.785	0.0136378
856.863	0.0136452
856.942	0.0135746
857.020	0.0135729
857.098	0.0136020
857.176	0.0136108
857.254	0.0135948
857.332	0.0137064
857.410	0.0136916
857.488	0.0137952
857.567	0.0137086
857.645	0.0137017
857.723	0.0135847
857.801	0.0137418
857.879	0.0136681
857.957	0.0136264
858.035	0.0135364
858.113	0.0137059
858.192	0.0135952
858.270	0.0136017
858.348	0.0134078
858.426	0.0135543
858.504	0.0134889
858.582	0.0134597
858.660	0.0134549
858.738	0.0134793
858.817	0.0136259
858.895	0.0134119
858.973	0.0134282
859.051	0.0134767
859.129	0.0135203
859.207	0.0134850
859.285	0.0135352
859.363	0.0136005
859.442	0.0135551
859.520	0.0135638
859.598	0.0136227
859.676	0.0137790
859.754	0.0136209
859.832	0.0135344
859.910	0.0136817
859.988	0.0135664
860.067	0.0136113
860.145	0.0135365
860.223	0.0134600
860.301	0.0136806
860.379	0.0136628
860.457	0.0135585
860.535	0.0136405
860.613	0.0134205
860.692	0.0134272
860.770	0.0134787
860.848	0.0135808
860.926	0.0134958
861.004	0.0133781
861.082	0.0135678
861.160	0.0135054
861.238	0.0135616
861.317	0.0136282
861.395	0.0136415
861.473	0.0137788
861.551	0.0136427
861.629	0.0136835
861.707	0.0138199
861.785	0.0136320
861.863	0.0137944
861.942	0.0136679
862.020	0.0138160
862.098	0.0137208
862.176	0.0136015
862.254	0.0136094
862.332	0.0136348
862.410	0.0136977
862.488	0.0135067
862.567	0.0135952
862.645	0.0135353
862.723	0.0133952
862.801	0.0134635
862.879	0.0134723
862.957	0.0134332
863.035	0.0134741
863.113	0.0135548
863.192	0.0134599
863.270	0.0134428
863.348	0.0133445
863.426	0.0134853
863.504	0.0134135
863.582	0.0134055
863.660	0.0136191
863.738	0.0136255
863.817	0.0135622
863.895	0.0135062
863.973	0.0135482
864.051	0.0137176
864.129	0.0134882
864.207	0.0136012
864.285	0.0135661
864.363	0.0136804
864.442	0.0135878
864.520	0.0135570
864.598	0.0136398
864.676	0.0134492
864.754	0.0135106
864.832	0.0136295
864.910	0.0136951
864.988	0.0136541
865.067	0.0134761
865.145	0.0135125
865.223	0.0135482
865.301	0.0134631
865.379	0.0135290
865.457	0.0135893
865.535	0.0135961
865.613	0.0137203
865.692	0.0135362
865.770	0.0137378
865.848	0.0136342
865.926	0.0136111
866.004	0.0137094
866.082	0.0137179
866.160	0.0137755
866.238	0.0138027
866.317	0.0138757
866.395	0.0137830
866.473	0.0137739
866.551	0.0138055
866.629	0.0136353
866.707	0.0137132
866.785	0.0138069
866.863	0.0135766
866.942	0.0136724
867.020	0.0136793
867.098	0.0135947
867.176	0.0135394
867.254	0.0137551
867.332	0.0135571
867.410	0.0134980
867.488	0.0135155
867.567	0.0136572
867.645	0.0136205
867.723	0.0135180
867.801	0.0135284
867.879	0.0134593
867.957	0.0134837
868.035	0.0134737
868.113	0.0134390
868.192	0.0134948
868.270	0.0134438
868.348	0.0135926
868.426	0.0135596
868.504	0.0135743
868.582	0.0136164
868.660	0.0135793
868.738	0.0136880
868.817	0.0134109
868.895	0.0135650
868.973	0.0134692
869.051	0.0134586
869.129	0.0135262
869.207	0.0135420
869.285	0.0135786
869.363	0.0135231
869.442	0.0135017
869.520	0.0133920
869.598	0.0132857
869.676	0.0134785
869.754	0.0136116
869.832	0.0135712
869.910	0.0134466
869.988	0.0134641
870.067	0.0136055
870.145	0.0136273
870.223	0.0136365
870.301	0.0136966
870.379	0.0137290
870.457	0.0137849
870.535	0.0137697
870.613	0.0137753
870.692	0.0138754
870.770	0.0139058
870.848	0.0138615
870.926	0.0138966
871.004	0.0138088
871.082	0.0138056
871.160	0.0138760
871.238	0.0137181
871.317	0.0137923
871.395	0.0138589
871.473	0.0137769
871.551	0.0137788
871.629	0.0136503
871.707	0.0136457
871.785	0.0135906
871.863	0.0136762
871.942	0.0136475
872.020	0.0134683
872.098	0.0134985
872.176	0.0133864
872.254	0.0135333
872.332	0.0135464
872.410	0.0134035
872.488	0.0133483
872.567	0.0134135
872.645	0.0134657
872.723	0.0135325
872.801	0.0134760
872.879	0.0135087
872.957	0.0136337
873.035	0.0136035
873.113	0.0135434
873.192	0.0135470
873.270	0.0137936
873.348	0.0137269
873.426	0.0136012
873.504	0.0135588
873.582	0.0138775
873.660	0.0136858
873.738	0.0137148
873.817	0.0136847
873.895	0.0135397
873.973	0.0136518
874.051	0.0134460
874.129	0.0134516
874.207	0.0134528
874.285	0.0134787
874.363	0.0135767
874.442	0.0134167
874.520	0.0135120
874.598	0.0134573
874.676	0.0136546
874.754	0.0135325
874.832	0.0135256
874.910	0.0136147
874.988	0.0134089
875.067	0.0134155
875.145	0.0137120
875.223	0.0136160
875.301	0.0135567
875.379	0.0137321
875.457	0.0137065
875.535	0.0137109
875.613	0.0136599
875.692	0.0135283
875.770	0.0135964
875.848	0.0136784
875.926	0.0136636
876.004	0.0137437
876.082	0.0138463
876.160	0.0139184
876.238	0.0135605
876.317	0.0136523
876.395	0.0137025
876.473	0.0136523
876.551	0.0136848
876.629	0.0136296
876.707	0.0136707
876.785	0.0136756
876.863	0.0135884
876.942	0.0136332
877.020	0.0136330
877.098	0.0135082
877.176	0.0133427
877.254	0.0136100
877.332	0.0133255
877.410	0.0135503
877.488	0.0134688
877.567	0.0134636
877.645	0.0136031
877.723	0.0134945
877.801	0.0133544
877.879	0.0132938
877.957	0.0134454
878.035	0.0135797
878.113	0.0134986
878.192	0.0135315
878.270	0.0135236
878.348	0.0135282
878.426	0.0135670
878.504	0.0136292
878.582	0.0137074
878.660	0.0135455
878.738	0.0135441
878.817	0.0136556
878.895	0.0136818
878.973	0.0135220
879.051	0.0136523
879.129	0.0137238
879.207	0.0135648
879.285	0.0136211
879.363	0.0136331
879.442	0.0136230
879.520	0.0135651
879.598	0.0135222
879.676	0.0135617
879.754	0.0135207
879.832	0.0135677
879.910	0.0134831
879.988	0.0134873
880.067	0.0137440
880.145	0.0135614
880.223	0.0135415
880.301	0.0135088
880.379	0.0136428
880.457	0.0136901
880.535	0.0137648
880.613	0.0137259
880.692	0.0137401
880.770	0.0137635
880.848	0.0136977
880.926	0.0136360
881.004	0.0136284
881.082	0.0137052
881.160	0.0136883
881.238	0.0136543
881.317	0.0136039
881.395	0.0136643
881.473	0.0136171
881.551	0.0136242
881.629	0.0135786
881.707	0.0135385
881.785	0.0136993
881.863	0.0135854
881.942	0.0135943
882.020	0.0134882
882.098	0.0135273
882.176	0.0134613
882.254	0.0134345
882.332	0.0135135
882.410	0.0136230
882.488	0.0134553
882.567	0.0135365
882.645	0.0135621
882.723	0.0135746
882.801	0.0136658
882.879	0.0136121
882.957	0.0135250
883.035	0.0136199
883.113	0.0136971
883.192	0.0136704
883.270	0.0134515
883.348	0.0134953
883.426	0.0134975
883.504	0.0136674
883.582	0.0135993
883.660	0.0135210
883.738	0.0134766
883.817	0.0134135
883.895	0.0135137
883.973	0.0135380
884.051	0.0135784
884.129	0.0134805
884.207	0.0135899
884.285	0.0135893
884.363	0.0135463
884.442	0.0136736
884.520	0.0136112
884.598	0.0135775
884.676	0.0135755
884.754	0.0135406
884.832	0.0136979
884.910	0.0136802
884.988	0.0135878
885.067	0.0136601
885.145	0.0136839
885.223	0.0134946
885.301	0.0136023
885.379	0.0136367
885.457	0.0137585
885.535	0.0135740
885.613	0.0135629
885.692	0.0135843
885.770	0.0135436
885.848	0.0136203
885.926	0.0134701
886.004	0.0135802
886.082	0.0136231
886.160	0.0136005
886.238	0.0135342
886.317	0.0135383
886.395	0.0136929
886.473	0.0135540
886.551	0.0136073
886.629	0.0135803
886.707	0.0135277
886.785	0.0136118
886.863	0.0135316
886.942	0.0136141
887.020	0.0135583
887.098	0.0135822
887.176	0.0135172
887.254	0.0134731
887.332	0.0135104
887.410	0.0137487
887.488	0.0136844
887.567	0.0137692
887.645	0.0135863
887.723	0.0136981
887.801	0.0137149
887.879	0.0136273
887.957	0.0137156
888.035	0.0137724
888.113	0.0136896
888.192	0.0137304
888.270	0.0136801
888.348	0.0137843
888.426	0.0136712
888.504	0.0135418
888.582	0.0136115
888.660	0.0135635
888.738	0.0137327
888.817	0.0136590
888.895	0.0135835
888.973	0.0137305
889.051	0.0135944
889.129	0.0136212
889.207	0.0135844
889.285	0.0135902
889.363	0.0134326
889.442	0.0134232
889.520	0.0135905
889.598	0.0136284
889.676	0.0136552
889.754	0.0136825
889.832	0.0136835
889.910	0.0136208
889.988	0.0136085
890.067	0.0136127
890.145	0.0136684
890.223	0.0136626
890.301	0.0136326
890.379	0.0137659
890.457	0.0135147
890.535	0.0135838
890.613	0.0136858
890.692	0.0136570
890.770	0.0136352
890.848	0.0136625
890.926	0.0135062
891.004	0.0136480
891.082	0.0136221
891.160	0.0136519
891.238	0.0136975
891.317	0.0136658
891.395	0.0136726
891.473	0.0137540
891.551	0.0136569
891.629	0.0136691
891.707	0.0137059
891.785	0.0137395
891.863	0.0138393
891.942	0.0136211
892.020	0.0137509
892.098	0.0138345
892.176	0.0137067
892.254	0.0135813
892.332	0.0136356
892.410	0.0137183
892.488	0.0137690
892.567	0.0138296
892.645	0.0136201
892.723	0.0136797
892.801	0.0137214
892.879	0.0137836
892.957	0.0135978
893.035	0.0136659
893.113	0.0136983
893.192	0.0136279
893.270	0.0136015
893.348	0.0136756
893.426	0.0136655
893.504	0.0135904
893.582	0.0136509
893.660	0.0137146
893.738	0.0136713
893.817	0.0135786
893.895	0.0135719
893.973	0.0136629
894.051	0.0137008
894.129	0.0137673
894.207	0.0137281
894.285	0.0137132
894.363	0.0135931
894.442	0.0136642
894.520	0.0137025
894.598	0.0135450
894.676	0.0136169
894.754	0.0136049
894.832	0.0135734
894.910	0.0136983
894.988	0.0137898
895.067	0.0136210
895.145	0.0137312
895.223	0.0135116
895.301	0.0134853
895.379	0.0135802
895.457	0.0135650
895.535	0.0135705
895.613	0.0136745
895.692	0.0136218
895.770	0.0135885
895.848	0.0135766
895.926	0.0134128
896.004	0.0136271
896.082	0.0135823
896.160	0.0134645
896.238	0.0136214
896.317	0.0135162
896.395	0.0135506
896.473	0.0136289
896.551	0.0136613
896.629	0.0135473
896.707	0.0137294
896.785	0.0136323
896.863	0.0134937
896.942	0.0134207
897.020	0.0136138
897.098	0.0136557
897.176	0.0134788
897.254	0.0135403
897.332	0.0136546
897.410	0.0135445
897.488	0.0135338
897.567	0.0134177
897.645	0.0136066
897.723	0.0135521
897.801	0.0134081
897.879	0.0135669
897.957	0.0136630
898.035	0.0136433
898.113	0.0136819
898.192	0.0135471
898.270	0.0137153
898.348	0.0136984
898.426	0.0136172
898.504	0.0137202
898.582	0.0136806
898.660	0.0137524
898.738	0.0136272
898.817	0.0136337
898.895	0.0137971
898.973	0.0135732
899.051	0.0137112
899.129	0.0137909
899.207	0.0138381
899.285	0.0137628
899.363	0.0136501
899.442	0.0135751
899.520	0.0136367
899.598	0.0136050
899.676	0.0136016
899.754	0.0136265
899.832	0.0136990
899.910	0.0135011
899.988	0.0135629
900.067	0.0136152
900.145	0.0134734
900.223	0.0134904
900.301	0.0136364
900.379	0.0134309
900.457	0.0134989
900.535	0.0135219
900.613	0.0134202
900.692	0.0135582
900.770	0.0134466
900.848	0.0133994
900.926	0.0134753
901.004	0.0134978
901.082	0.0134326
901.160	0.0135413
901.238	0.0135102
901.317	0.0135725
901.395	0.0134700
901.473	0.0134536
901.551	0.0134958
901.629	0.0134908
901.707	0.0135735
901.785	0.0136948
901.863	0.0135427
901.942	0.0135049
902.020	0.0134945
902.098	0.0137199
902.176	0.0136334
902.254	0.0135246
902.332	0.0136539
902.410	0.0136166
902.488	0.0136529
902.567	0.0136672
902.645	0.0135415
902.723	0.0136763
902.801	0.0135697
902.879	0.0136111
902.957	0.0137521
903.035	0.0136127
903.113	0.0136739
903.192	0.0135580
903.270	0.0137164
903.348	0.0137065
903.426	0.0136991
903.504	0.0135785
903.582	0.0136643
903.660	0.0137240
903.738	0.0136505
903.817	0.0136444
903.895	0.0136903
903.973	0.0134982
904.051	0.0137104
904.129	0.0136268
904.207	0.0136692
904.285	0.0137284
904.363	0.0136629
904.442	0.0136253
904.520	0.0134912
904.598	0.0136381
904.676	0.0136690
904.754	0.0136959
904.832	0.0136250
904.910	0.0136616
904.988	0.0135527
905.067	0.0134626
905.145	0.0135053
905.223	0.0134853
905.301	0.0135086
905.379	0.0134544
905.457	0.0134603
905.535	0.0135596
905.613	0.0133582
905.692	0.0132264
905.770	0.0133401
905.848	0.0133166
905.926	0.0134318
906.004	0.0132829
906.082	0.0132937
906.160	0.0133043
906.238	0.0132249
906.317	0.0133600
906.395	0.0133844
906.473	0.0134518
906.551	0.0134727
906.629	0.0135249
906.707	0.0134165
906.785	0.0135161
906.863	0.0134880
906.942	0.0136794
907.020	0.0136760
907.098	0.0136052
907.176	0.0135410
907.254	0.0135709
907.332	0.0135289
907.410	0.0136884
907.488	0.0136897
907.567	0.0136973
907.645	0.0136152
907.723	0.0135906
907.801	0.0135757
907.879	0.0135220
907.957	0.0136832
908.035	0.0136157
908.113	0.0135214
908.192	0.0136816
908.270	0.0136951
908.348	0.0136353
908.426	0.0137151
908.504	0.0136195
908.582	0.0136837
908.660	0.0136073
908.738	0.0136413
908.817	0.0136860
908.895	0.0135392
908.973	0.0136323
909.051	0.0136033
909.129	0.0136107
909.207	0.0136879
909.285	0.0134627
909.363	0.0136272
909.442	0.0135531
909.520	0.0137695
909.598	0.0136229
909.676	0.0136657
909.754	0.0136005
909.832	0.0136440
909.910	0.0136254
909.988	0.0136755
910.067	0.0136130
910.145	0.0135969
910.223	0.0135902
910.301	0.0135719
910.379	0.0135400
910.457	0.0135307
910.535	0.0135994
910.613	0.0134951
910.692	0.0135374
910.770	0.0133575
910.848	0.0135235
910.926	0.0135094
911.004	0.0134531
911.082	0.0135378
911.160	0.0134960
911.238	0.0135223
911.317	0.0135217
911.395	0.0136002
911.473	0.0135786
911.551	0.0135355
911.629	0.0135655
911.707	0.0136105
911.785	0.0136116
911.863	0.0135113
911.942	0.0135367
912.020	0.0137128
912.098	0.0135227
912.176	0.0136051
912.254	0.0136102
912.332	0.0136853
912.410	0.0136956
912.488	0.0135110
912.567	0.0134975
912.645	0.0136024
912.723	0.0136919
912.801	0.0137188
912.879	0.0135126
912.957	0.0135574
913.035	0.0136678
913.113	0.0137541
913.192	0.0137290
913.270	0.0135950
913.348	0.0137469
913.426	0.0135860
913.504	0.0137075
913.582	0.0137112
913.660	0.0137807
913.738	0.0137711
913.817	0.0136810
913.895	0.0137755
913.973	0.0137672
914.051	0.0137687
914.129	0.0137463
914.207	0.0135906
914.285	0.0138955
914.363	0.0137229
914.442	0.0137207
914.520	0.0136824
914.598	0.0137785
914.676	0.0137830
914.754	0.0136222
914.832	0.0137292
914.910	0.0135559
914.988	0.0135803
915.067	0.0137090
915.145	0.0134916
915.223	0.0134708
915.301	0.0135701
915.379	0.0136422
915.457	0.0135322
915.535	0.0133454
915.613	0.0135858
915.692	0.0136337
915.770	0.0135584
915.848	0.0134740
915.926	0.0135481
916.004	0.0134839
916.082	0.0134395
916.160	0.0135286
916.238	0.0135048
916.317	0.0134115
916.395	0.0134731
916.473	0.0135617
916.551	0.0133866
916.629	0.0135220
916.707	0.0135239
916.785	0.0135725
916.863	0.0135442
916.942	0.0135878
917.020	0.0135163
917.098	0.0135461
917.176	0.0136700
917.254	0.0136716
917.332	0.0137112
917.410	0.0135804
917.488	0.0136705
917.567	0.0137561
917.645	0.0136652
917.723	0.0136717
917.801	0.0137498
917.879	0.0136502
917.957	0.0137368
918.035	0.0138686
918.113	0.0136942
918.192	0.0136798
918.270	0.0137133
918.348	0.0137383
918.426	0.0137553
918.504	0.0138197
918.582	0.0137611
918.660	0.0137685
918.738	0.0136551
918.817	0.0136308
918.895	0.0138065
918.973	0.0137096
919.051	0.0135867
919.129	0.0135242
919.207	0.0137058
919.285	0.0136064
919.363	0.0135638
919.442	0.0136058
919.520	0.0135663
919.598	0.0136877
919.676	0.0135970
919.754	0.0136416
919.832	0.0135636
919.910	0.0135674
