05/28/2022	14:09:41	Ver.	4.1	UNKNOWN
Optical Delay	599.988409	Delta X		0.078125	Sweeps	1	Scan Rate	0/0
Coordinates	Axis 1	NaN	Axis 2	NaN	Axis 3	NaN	Axis 4	NaN	Axis 5	NaN	Axis 6	0.000000
TX Power	0.000000	RX Power	0.000000

599.988	0.0139437
600.067	0.0139075
600.145	0.0138957
600.223	0.0139655
600.301	0.0138961
600.379	0.0139613
600.457	0.0138596
600.535	0.0139736
600.613	0.0139138
600.692	0.0139384
600.770	0.0138442
600.848	0.0139433
600.926	0.0138560
601.004	0.0139041
601.082	0.0138938
601.160	0.0140014
601.238	0.0139391
601.317	0.0138793
601.395	0.0139236
601.473	0.0139159
601.551	0.0139610
601.629	0.0139658
601.707	0.0139807
601.785	0.0139468
601.863	0.0138903
601.942	0.0138816
602.020	0.0139172
602.098	0.0138049
602.176	0.0140170
602.254	0.0140203
602.332	0.0140092
602.410	0.0139864
602.488	0.0139108
602.567	0.0138953
602.645	0.0139755
602.723	0.0139635
602.801	0.0140822
602.879	0.0139044
602.957	0.0139652
603.035	0.0138880
603.113	0.0138853
603.192	0.0139475
603.270	0.0138221
603.348	0.0139283
603.426	0.0139322
603.504	0.0138705
603.582	0.0138937
603.660	0.0140286
603.738	0.0139796
603.817	0.0138538
603.895	0.0139084
603.973	0.0139010
604.051	0.0138917
604.129	0.0138789
604.207	0.0138503
604.285	0.0139281
604.363	0.0140986
604.442	0.0139464
604.520	0.0138539
604.598	0.0139050
604.676	0.0139566
604.754	0.0139151
604.832	0.0139155
604.910	0.0138604
604.988	0.0138345
605.067	0.0138825
605.145	0.0139553
605.223	0.0139634
605.301	0.0139346
605.379	0.0138690
605.457	0.0137474
605.535	0.0139195
605.613	0.0138745
605.692	0.0139846
605.770	0.0139698
605.848	0.0139999
605.926	0.0138239
606.004	0.0138828
606.082	0.0139581
606.160	0.0138696
606.238	0.0139930
606.317	0.0138996
606.395	0.0138208
606.473	0.0140177
606.551	0.0139838
606.629	0.0138426
606.707	0.0137836
606.785	0.0139318
606.863	0.0140185
606.942	0.0138634
607.020	0.0138509
607.098	0.0138455
607.176	0.0137860
607.254	0.0139555
607.332	0.0138493
607.410	0.0139346
607.488	0.0139827
607.567	0.0139431
607.645	0.0139301
607.723	0.0139314
607.801	0.0138540
607.879	0.0140215
607.957	0.0138280
608.035	0.0138016
608.113	0.0138866
608.192	0.0139354
608.270	0.0139433
608.348	0.0139358
608.426	0.0138210
608.504	0.0139342
608.582	0.0139417
608.660	0.0139425
608.738	0.0138229
608.817	0.0138609
608.895	0.0138953
608.973	0.0137010
609.051	0.0138790
609.129	0.0138707
609.207	0.0138094
609.285	0.0140193
609.363	0.0138223
609.442	0.0138960
609.520	0.0139306
609.598	0.0139455
609.676	0.0138344
609.754	0.0137888
609.832	0.0137698
609.910	0.0137547
609.988	0.0139337
610.067	0.0138885
610.145	0.0138541
610.223	0.0139706
610.301	0.0139492
610.379	0.0138829
610.457	0.0139774
610.535	0.0138488
610.613	0.0138334
610.692	0.0137925
610.770	0.0138972
610.848	0.0138146
610.926	0.0138478
611.004	0.0137595
611.082	0.0138464
611.160	0.0138226
611.238	0.0138151
611.317	0.0138255
611.395	0.0137753
611.473	0.0138111
611.551	0.0137663
611.629	0.0137812
611.707	0.0139100
611.785	0.0138627
611.863	0.0138326
611.942	0.0139503
612.020	0.0138644
612.098	0.0138051
612.176	0.0137966
612.254	0.0138677
612.332	0.0138383
612.410	0.0137399
612.488	0.0139585
612.567	0.0138498
612.645	0.0137501
612.723	0.0138712
612.801	0.0139531
612.879	0.0139532
612.957	0.0138582
613.035	0.0138857
613.113	0.0138598
613.192	0.0139566
613.270	0.0139301
613.348	0.0138630
613.426	0.0139877
613.504	0.0139600
613.582	0.0138450
613.660	0.0139651
613.738	0.0138308
613.817	0.0139296
613.895	0.0138595
613.973	0.0138744
614.051	0.0139574
614.129	0.0138986
614.207	0.0137737
614.285	0.0139540
614.363	0.0139050
614.442	0.0138921
614.520	0.0138108
614.598	0.0138737
614.676	0.0138206
614.754	0.0138888
614.832	0.0140494
614.910	0.0140058
614.988	0.0139262
615.067	0.0138813
615.145	0.0140266
615.223	0.0139309
615.301	0.0139542
615.379	0.0139964
615.457	0.0138151
615.535	0.0139915
615.613	0.0140001
615.692	0.0139842
615.770	0.0139534
615.848	0.0139223
615.926	0.0139795
616.004	0.0139128
616.082	0.0139310
616.160	0.0139102
616.238	0.0138582
616.317	0.0138519
616.395	0.0139243
616.473	0.0139941
616.551	0.0139215
616.629	0.0137398
616.707	0.0139554
616.785	0.0138952
616.863	0.0138927
616.942	0.0139209
617.020	0.0139195
617.098	0.0140069
617.176	0.0139926
617.254	0.0138982
617.332	0.0139970
617.410	0.0139742
617.488	0.0139489
617.567	0.0138570
617.645	0.0140569
617.723	0.0138541
617.801	0.0139547
617.879	0.0139816
617.957	0.0139642
618.035	0.0139884
618.113	0.0138960
618.192	0.0139685
618.270	0.0138776
618.348	0.0139897
618.426	0.0139027
618.504	0.0140212
618.582	0.0139793
618.660	0.0140215
618.738	0.0139769
618.817	0.0139713
618.895	0.0139259
618.973	0.0138822
619.051	0.0139236
619.129	0.0139284
619.207	0.0138856
619.285	0.0139058
619.363	0.0140485
619.442	0.0140699
619.520	0.0138434
619.598	0.0139552
619.676	0.0139734
619.754	0.0139104
619.832	0.0139932
619.910	0.0139948
619.988	0.0139253
620.067	0.0138462
620.145	0.0139023
620.223	0.0138202
620.301	0.0139618
620.379	0.0138638
620.457	0.0138748
620.535	0.0138394
620.613	0.0139026
620.692	0.0138824
620.770	0.0138973
620.848	0.0138886
620.926	0.0140126
621.004	0.0140092
621.082	0.0138878
621.160	0.0139581
621.238	0.0139594
621.317	0.0139470
621.395	0.0138640
621.473	0.0139297
621.551	0.0139540
621.629	0.0139969
621.707	0.0138800
621.785	0.0138004
621.863	0.0138923
621.942	0.0138859
622.020	0.0138812
622.098	0.0139029
622.176	0.0138921
622.254	0.0139178
622.332	0.0139376
622.410	0.0139350
622.488	0.0139586
622.567	0.0139673
622.645	0.0138786
622.723	0.0139621
622.801	0.0137811
622.879	0.0138657
622.957	0.0138167
623.035	0.0139166
623.113	0.0139024
623.192	0.0138885
623.270	0.0139202
623.348	0.0139267
623.426	0.0138472
623.504	0.0138176
623.582	0.0139495
623.660	0.0139135
623.738	0.0140008
623.817	0.0138755
623.895	0.0138797
623.973	0.0140203
624.051	0.0139335
624.129	0.0140192
624.207	0.0138112
624.285	0.0139130
624.363	0.0139771
624.442	0.0140228
624.520	0.0139014
624.598	0.0138680
624.676	0.0139541
624.754	0.0138931
624.832	0.0140481
624.910	0.0139639
624.988	0.0138962
625.067	0.0139346
625.145	0.0139648
625.223	0.0137978
625.301	0.0139745
625.379	0.0139471
625.457	0.0139066
625.535	0.0138322
625.613	0.0139844
625.692	0.0138828
625.770	0.0139037
625.848	0.0138986
625.926	0.0138215
626.004	0.0139066
626.082	0.0139380
626.160	0.0139320
626.238	0.0139454
626.317	0.0140294
626.395	0.0138280
626.473	0.0138213
626.551	0.0138764
626.629	0.0139215
626.707	0.0138313
626.785	0.0139381
626.863	0.0138273
626.942	0.0139740
627.020	0.0138213
627.098	0.0139150
627.176	0.0139778
627.254	0.0139893
627.332	0.0138712
627.410	0.0138899
627.488	0.0138541
627.567	0.0138836
627.645	0.0138568
627.723	0.0140073
627.801	0.0139744
627.879	0.0138433
627.957	0.0138104
628.035	0.0139255
628.113	0.0140424
628.192	0.0137868
628.270	0.0138851
628.348	0.0138744
628.426	0.0138309
628.504	0.0139265
628.582	0.0139057
628.660	0.0139407
628.738	0.0138747
628.817	0.0138531
628.895	0.0138608
628.973	0.0137079
629.051	0.0140030
629.129	0.0138739
629.207	0.0136780
629.285	0.0137443
629.363	0.0139362
629.442	0.0137057
629.520	0.0138975
629.598	0.0138798
629.676	0.0139837
629.754	0.0139093
629.832	0.0137363
629.910	0.0136983
629.988	0.0138358
630.067	0.0138737
630.145	0.0138027
630.223	0.0138972
630.301	0.0138493
630.379	0.0138287
630.457	0.0138114
630.535	0.0138741
630.613	0.0139600
630.692	0.0138548
630.770	0.0137617
630.848	0.0137566
630.926	0.0138457
631.004	0.0137337
631.082	0.0137523
631.160	0.0138027
631.238	0.0138215
631.317	0.0138410
631.395	0.0139603
631.473	0.0138364
631.551	0.0138148
631.629	0.0137017
631.707	0.0138491
631.785	0.0138249
631.863	0.0137828
631.942	0.0137762
632.020	0.0137660
632.098	0.0137588
632.176	0.0138041
632.254	0.0137776
632.332	0.0138093
632.410	0.0139368
632.488	0.0139656
632.567	0.0138718
632.645	0.0137917
632.723	0.0138373
632.801	0.0137746
632.879	0.0139097
632.957	0.0138050
633.035	0.0137556
633.113	0.0138911
633.192	0.0138999
633.270	0.0139204
633.348	0.0138418
633.426	0.0137964
633.504	0.0138020
633.582	0.0138927
633.660	0.0138767
633.738	0.0138515
633.817	0.0137360
633.895	0.0138229
633.973	0.0139940
634.051	0.0139028
634.129	0.0137664
634.207	0.0137820
634.285	0.0139597
634.363	0.0138612
634.442	0.0139082
634.520	0.0136722
634.598	0.0138084
634.676	0.0138010
634.754	0.0138277
634.832	0.0138699
634.910	0.0138546
634.988	0.0136958
635.067	0.0138965
635.145	0.0138387
635.223	0.0137553
635.301	0.0138503
635.379	0.0138116
635.457	0.0137814
635.535	0.0138370
635.613	0.0138387
635.692	0.0138944
635.770	0.0138725
635.848	0.0138379
635.926	0.0138609
636.004	0.0138687
636.082	0.0139072
636.160	0.0138573
636.238	0.0138439
636.317	0.0138815
636.395	0.0138314
636.473	0.0137270
636.551	0.0137104
636.629	0.0138598
636.707	0.0137914
636.785	0.0138425
636.863	0.0138191
636.942	0.0137865
637.020	0.0138503
637.098	0.0137817
637.176	0.0138740
637.254	0.0138496
637.332	0.0138223
637.410	0.0138107
637.488	0.0137272
637.567	0.0139301
637.645	0.0139227
637.723	0.0138923
637.801	0.0138468
637.879	0.0139278
637.957	0.0139200
638.035	0.0138776
638.113	0.0139178
638.192	0.0137434
638.270	0.0138703
638.348	0.0138926
638.426	0.0139427
638.504	0.0138177
638.582	0.0137946
638.660	0.0137597
638.738	0.0138979
638.817	0.0139325
638.895	0.0139276
638.973	0.0137756
639.051	0.0137706
639.129	0.0138782
639.207	0.0138434
639.285	0.0139505
639.363	0.0139244
639.442	0.0139302
639.520	0.0137947
639.598	0.0136576
639.676	0.0138565
639.754	0.0139351
639.832	0.0139201
639.910	0.0138813
639.988	0.0137646
640.067	0.0139857
640.145	0.0138104
640.223	0.0138344
640.301	0.0139913
640.379	0.0138793
640.457	0.0138990
640.535	0.0139001
640.613	0.0138663
640.692	0.0138705
640.770	0.0137840
640.848	0.0138499
640.926	0.0137827
641.004	0.0138491
641.082	0.0139735
641.160	0.0139602
641.238	0.0139433
641.317	0.0137723
641.395	0.0138211
641.473	0.0140759
641.551	0.0139283
641.629	0.0140263
641.707	0.0139635
641.785	0.0139116
641.863	0.0137630
641.942	0.0139423
642.020	0.0139719
642.098	0.0138136
642.176	0.0139520
642.254	0.0137862
642.332	0.0138866
642.410	0.0141225
642.488	0.0139091
642.567	0.0139751
642.645	0.0139299
642.723	0.0140740
642.801	0.0139066
642.879	0.0138378
642.957	0.0139502
643.035	0.0140038
643.113	0.0139378
643.192	0.0139652
643.270	0.0139542
643.348	0.0139403
643.426	0.0140728
643.504	0.0140417
643.582	0.0140646
643.660	0.0139319
643.738	0.0139023
643.817	0.0138515
643.895	0.0140195
643.973	0.0139118
644.051	0.0140170
644.129	0.0140509
644.207	0.0138493
644.285	0.0139687
644.363	0.0139712
644.442	0.0138674
644.520	0.0138508
644.598	0.0139072
644.676	0.0138940
644.754	0.0140164
644.832	0.0139230
644.910	0.0139718
644.988	0.0138991
645.067	0.0139542
645.145	0.0139645
645.223	0.0138404
645.301	0.0139951
645.379	0.0139819
645.457	0.0139394
645.535	0.0140305
645.613	0.0139902
645.692	0.0139423
645.770	0.0138552
645.848	0.0140070
645.926	0.0139005
646.004	0.0139311
646.082	0.0138745
646.160	0.0139096
646.238	0.0138385
646.317	0.0139294
646.395	0.0139396
646.473	0.0140573
646.551	0.0139489
646.629	0.0139537
646.707	0.0139293
646.785	0.0138616
646.863	0.0139912
646.942	0.0138911
647.020	0.0139043
647.098	0.0138507
647.176	0.0139570
647.254	0.0138960
647.332	0.0138393
647.410	0.0138732
647.488	0.0139259
647.567	0.0139061
647.645	0.0140688
647.723	0.0139148
647.801	0.0139230
647.879	0.0137524
647.957	0.0139189
648.035	0.0138659
648.113	0.0139217
648.192	0.0137582
648.270	0.0138847
648.348	0.0138807
648.426	0.0138671
648.504	0.0137350
648.582	0.0139983
648.660	0.0138956
648.738	0.0138998
648.817	0.0138168
648.895	0.0139495
648.973	0.0139198
649.051	0.0138741
649.129	0.0139970
649.207	0.0138705
649.285	0.0139291
649.363	0.0139550
649.442	0.0140002
649.520	0.0137790
649.598	0.0138345
649.676	0.0139273
649.754	0.0138828
649.832	0.0139240
649.910	0.0139546
649.988	0.0138876
650.067	0.0138383
650.145	0.0138761
650.223	0.0139101
650.301	0.0139490
650.379	0.0139458
650.457	0.0139145
650.535	0.0138645
650.613	0.0138638
650.692	0.0138543
650.770	0.0139193
650.848	0.0139805
650.926	0.0138156
651.004	0.0139964
651.082	0.0139487
651.160	0.0137753
651.238	0.0138770
651.317	0.0138882
651.395	0.0137828
651.473	0.0139542
651.551	0.0140049
651.629	0.0138128
651.707	0.0139352
651.785	0.0139569
651.863	0.0139027
651.942	0.0138478
652.020	0.0137630
652.098	0.0137813
652.176	0.0139355
652.254	0.0140134
652.332	0.0136764
652.410	0.0139581
652.488	0.0139932
652.567	0.0138462
652.645	0.0140083
652.723	0.0137441
652.801	0.0138808
652.879	0.0138699
652.957	0.0139941
653.035	0.0138054
653.113	0.0138186
653.192	0.0138674
653.270	0.0138844
653.348	0.0141124
653.426	0.0138873
653.504	0.0139692
653.582	0.0139802
653.660	0.0140529
653.738	0.0139635
653.817	0.0138876
653.895	0.0137857
653.973	0.0137865
654.051	0.0139814
654.129	0.0138415
654.207	0.0138675
654.285	0.0139231
654.363	0.0139573
654.442	0.0139682
654.520	0.0138549
654.598	0.0138447
654.676	0.0138940
654.754	0.0138432
654.832	0.0137989
654.910	0.0139629
654.988	0.0138309
655.067	0.0138283
655.145	0.0139414
655.223	0.0139238
655.301	0.0139130
655.379	0.0138429
655.457	0.0139230
655.535	0.0139408
655.613	0.0138427
655.692	0.0139919
655.770	0.0140565
655.848	0.0138728
655.926	0.0139024
656.004	0.0139315
656.082	0.0139542
656.160	0.0138109
656.238	0.0137068
656.317	0.0138741
656.395	0.0137776
656.473	0.0139410
656.551	0.0139103
656.629	0.0138504
656.707	0.0139459
656.785	0.0139394
656.863	0.0138653
656.942	0.0137731
657.020	0.0139796
657.098	0.0139397
657.176	0.0139423
657.254	0.0137926
657.332	0.0139542
657.410	0.0138493
657.488	0.0138719
657.567	0.0139369
657.645	0.0139199
657.723	0.0139362
657.801	0.0138714
657.879	0.0140516
657.957	0.0139018
658.035	0.0138567
658.113	0.0139131
658.192	0.0140404
658.270	0.0137630
658.348	0.0137875
658.426	0.0139730
658.504	0.0139012
658.582	0.0139860
658.660	0.0138721
658.738	0.0137740
658.817	0.0138521
658.895	0.0138412
658.973	0.0138319
659.051	0.0137337
659.129	0.0138173
659.207	0.0139284
659.285	0.0139166
659.363	0.0137589
659.442	0.0138300
659.520	0.0139494
659.598	0.0139129
659.676	0.0139795
659.754	0.0139935
659.832	0.0141529
659.910	0.0141409
659.988	0.0140569
660.067	0.0140644
660.145	0.0140857
660.223	0.0142625
660.301	0.0142424
660.379	0.0142296
660.457	0.0140353
660.535	0.0141582
660.613	0.0141036
660.692	0.0142391
660.770	0.0140759
660.848	0.0139822
660.926	0.0138326
661.004	0.0138644
661.082	0.0137122
661.160	0.0135352
661.238	0.0135102
661.317	0.0135014
661.395	0.0132408
661.473	0.0133682
661.551	0.0134605
661.629	0.0133970
661.707	0.0134318
661.785	0.0135625
661.863	0.0136738
661.942	0.0136589
662.020	0.0137862
662.098	0.0137683
662.176	0.0138280
662.254	0.0139920
662.332	0.0139385
662.410	0.0139510
662.488	0.0139442
662.567	0.0139400
662.645	0.0140723
662.723	0.0142053
662.801	0.0139965
662.879	0.0140317
662.957	0.0141548
663.035	0.0141677
663.113	0.0140984
663.192	0.0138847
663.270	0.0140491
663.348	0.0140504
663.426	0.0140340
663.504	0.0139715
663.582	0.0139774
663.660	0.0140249
663.738	0.0140970
663.817	0.0141212
663.895	0.0140547
663.973	0.0141935
664.051	0.0141766
664.129	0.0142355
664.207	0.0143670
664.285	0.0142550
664.363	0.0143431
664.442	0.0141533
664.520	0.0142847
664.598	0.0141064
664.676	0.0140318
664.754	0.0140144
664.832	0.0139945
664.910	0.0138311
664.988	0.0138226
665.067	0.0136716
665.145	0.0137036
665.223	0.0135043
665.301	0.0134260
665.379	0.0133135
665.457	0.0133748
665.535	0.0133451
665.613	0.0132588
665.692	0.0131734
665.770	0.0131286
665.848	0.0130653
665.926	0.0129820
666.004	0.0129574
666.082	0.0129379
666.160	0.0130058
666.238	0.0131267
666.317	0.0132268
666.395	0.0133859
666.473	0.0136037
666.551	0.0136901
666.629	0.0138929
666.707	0.0142028
666.785	0.0144968
666.863	0.0145210
666.942	0.0147085
667.020	0.0147142
667.098	0.0148477
667.176	0.0148630
667.254	0.0146072
667.332	0.0146053
667.410	0.0146733
667.488	0.0144899
667.567	0.0145126
667.645	0.0145090
667.723	0.0144587
667.801	0.0144192
667.879	0.0142670
667.957	0.0144103
668.035	0.0143827
668.113	0.0143317
668.192	0.0142716
668.270	0.0141118
668.348	0.0140711
668.426	0.0141631
668.504	0.0140211
668.582	0.0139468
668.660	0.0138491
668.738	0.0140974
668.817	0.0139890
668.895	0.0138555
668.973	0.0138303
669.051	0.0138160
669.129	0.0138098
669.207	0.0138280
669.285	0.0137500
669.363	0.0136544
669.442	0.0135119
669.520	0.0134795
669.598	0.0133978
669.676	0.0131982
669.754	0.0129851
669.832	0.0129651
669.910	0.0127178
669.988	0.0126585
670.067	0.0126275
670.145	0.0124358
670.223	0.0123117
670.301	0.0125201
670.379	0.0124342
670.457	0.0125582
670.535	0.0128065
670.613	0.0128169
670.692	0.0133379
670.770	0.0134379
670.848	0.0136491
670.926	0.0142503
671.004	0.0145087
671.082	0.0145843
671.160	0.0147704
671.238	0.0149101
671.317	0.0150532
671.395	0.0150818
671.473	0.0151443
671.551	0.0151191
671.629	0.0148614
671.707	0.0148461
671.785	0.0146315
671.863	0.0146331
671.942	0.0143893
672.020	0.0142486
672.098	0.0144113
672.176	0.0142872
672.254	0.0142889
672.332	0.0142981
672.410	0.0145267
672.488	0.0143421
672.567	0.0142555
672.645	0.0143761
672.723	0.0142180
672.801	0.0144299
672.879	0.0142005
672.957	0.0142610
673.035	0.0142599
673.113	0.0142397
673.192	0.0141850
673.270	0.0142453
673.348	0.0142437
673.426	0.0142281
673.504	0.0142223
673.582	0.0142068
673.660	0.0140948
673.738	0.0139436
673.817	0.0138259
673.895	0.0137718
673.973	0.0135704
674.051	0.0134515
674.129	0.0133387
674.207	0.0132761
674.285	0.0133444
674.363	0.0132592
674.442	0.0132260
674.520	0.0131415
674.598	0.0131327
674.676	0.0131759
674.754	0.0130344
674.832	0.0130371
674.910	0.0128185
674.988	0.0127978
675.067	0.0128795
675.145	0.0127949
675.223	0.0126929
675.301	0.0127481
675.379	0.0126649
675.457	0.0127783
675.535	0.0128423
675.613	0.0129195
675.692	0.0131325
675.770	0.0130825
675.848	0.0132024
675.926	0.0131958
676.004	0.0133694
676.082	0.0136936
676.160	0.0137791
676.238	0.0140105
676.317	0.0141487
676.395	0.0144553
676.473	0.0145936
676.551	0.0147695
676.629	0.0148790
676.707	0.0150188
676.785	0.0153087
676.863	0.0153058
676.942	0.0155309
677.020	0.0153782
677.098	0.0155243
677.176	0.0156057
677.254	0.0154449
677.332	0.0153576
677.410	0.0153484
677.488	0.0152750
677.567	0.0153265
677.645	0.0150848
677.723	0.0148981
677.801	0.0148653
677.879	0.0146793
677.957	0.0145824
678.035	0.0144386
678.113	0.0144386
678.192	0.0143408
678.270	0.0142238
678.348	0.0142635
678.426	0.0141797
678.504	0.0141741
678.582	0.0140636
678.660	0.0139929
678.738	0.0142786
678.817	0.0139530
678.895	0.0139246
678.973	0.0138735
679.051	0.0137473
679.129	0.0137584
679.207	0.0134561
679.285	0.0134980
679.363	0.0133398
679.442	0.0130797
679.520	0.0129129
679.598	0.0126659
679.676	0.0125323
679.754	0.0122477
679.832	0.0120855
679.910	0.0118200
679.988	0.0116953
680.067	0.0115972
680.145	0.0115702
680.223	0.0115069
680.301	0.0115548
680.379	0.0116499
680.457	0.0117178
680.535	0.0120027
680.613	0.0122001
680.692	0.0125188
680.770	0.0127634
680.848	0.0131211
680.926	0.0133768
681.004	0.0139117
681.082	0.0141944
681.160	0.0144424
681.238	0.0147723
681.317	0.0151095
681.395	0.0153930
681.473	0.0156817
681.551	0.0159311
681.629	0.0159206
681.707	0.0159721
681.785	0.0160096
681.863	0.0159892
681.942	0.0161020
682.020	0.0160542
682.098	0.0159042
682.176	0.0156799
682.254	0.0154930
682.332	0.0154403
682.410	0.0154556
682.488	0.0152396
682.567	0.0151179
682.645	0.0150775
682.723	0.0150391
682.801	0.0149494
682.879	0.0148807
682.957	0.0147278
683.035	0.0147679
683.113	0.0146098
683.192	0.0144118
683.270	0.0144419
683.348	0.0141707
683.426	0.0139169
683.504	0.0139072
683.582	0.0136697
683.660	0.0133820
683.738	0.0131968
683.817	0.0131804
683.895	0.0130527
683.973	0.0129588
684.051	0.0128264
684.129	0.0127939
684.207	0.0127809
684.285	0.0128674
684.363	0.0127587
684.442	0.0128962
684.520	0.0126725
684.598	0.0128096
684.676	0.0128898
684.754	0.0128220
684.832	0.0128078
684.910	0.0128963
684.988	0.0131419
685.067	0.0129964
685.145	0.0130569
685.223	0.0132140
685.301	0.0131258
685.379	0.0131706
685.457	0.0133228
685.535	0.0131551
685.613	0.0133779
685.692	0.0134415
685.770	0.0134451
685.848	0.0134170
685.926	0.0136105
686.004	0.0136299
686.082	0.0137182
686.160	0.0138192
686.238	0.0139993
686.317	0.0139972
686.395	0.0142663
686.473	0.0141484
686.551	0.0143926
686.629	0.0142987
686.707	0.0143800
686.785	0.0142899
686.863	0.0144225
686.942	0.0144211
687.020	0.0143909
687.098	0.0143030
687.176	0.0143265
687.254	0.0142818
687.332	0.0141655
687.410	0.0141908
687.488	0.0142039
687.567	0.0140263
687.645	0.0143633
687.723	0.0142646
687.801	0.0143356
687.879	0.0144569
687.957	0.0145528
688.035	0.0148801
688.113	0.0150608
688.192	0.0150070
688.270	0.0152334
688.348	0.0153804
688.426	0.0153093
688.504	0.0153377
688.582	0.0151799
688.660	0.0151044
688.738	0.0150552
688.817	0.0148483
688.895	0.0146673
688.973	0.0145834
689.051	0.0143905
689.129	0.0142930
689.207	0.0141796
689.285	0.0140316
689.363	0.0139134
689.442	0.0137819
689.520	0.0137108
689.598	0.0136050
689.676	0.0136345
689.754	0.0135509
689.832	0.0135814
689.910	0.0134613
689.988	0.0133929
690.067	0.0134630
690.145	0.0132435
690.223	0.0130846
690.301	0.0129577
690.379	0.0127660
690.457	0.0125696
690.535	0.0122884
690.613	0.0122334
690.692	0.0122166
690.770	0.0119891
690.848	0.0121321
690.926	0.0118598
691.004	0.0117771
691.082	0.0120492
691.160	0.0122589
691.238	0.0122628
691.317	0.0126519
691.395	0.0127097
691.473	0.0129561
691.551	0.0134072
691.629	0.0133974
691.707	0.0137249
691.785	0.0139409
691.863	0.0141528
691.942	0.0144292
692.020	0.0146371
692.098	0.0147475
692.176	0.0147674
692.254	0.0146744
692.332	0.0148214
692.410	0.0149020
692.488	0.0149239
692.567	0.0147752
692.645	0.0146690
692.723	0.0147736
692.801	0.0148082
692.879	0.0147091
692.957	0.0147445
693.035	0.0147013
693.113	0.0145741
693.192	0.0146205
693.270	0.0146609
693.348	0.0146548
693.426	0.0145981
693.504	0.0144928
693.582	0.0147328
693.660	0.0147797
693.738	0.0147150
693.817	0.0146608
693.895	0.0145531
693.973	0.0147281
694.051	0.0147321
694.129	0.0145763
694.207	0.0144187
694.285	0.0144009
694.363	0.0141821
694.442	0.0141130
694.520	0.0138208
694.598	0.0138184
694.676	0.0135872
694.754	0.0134024
694.832	0.0133997
694.910	0.0132430
694.988	0.0130894
695.067	0.0133292
695.145	0.0132903
695.223	0.0131161
695.301	0.0132216
695.379	0.0132246
695.457	0.0131819
695.535	0.0133208
695.613	0.0133974
695.692	0.0135918
695.770	0.0136094
695.848	0.0135634
695.926	0.0136386
696.004	0.0136137
696.082	0.0135214
696.160	0.0136608
696.238	0.0136274
696.317	0.0134966
696.395	0.0134080
696.473	0.0135773
696.551	0.0136321
696.629	0.0135087
696.707	0.0135191
696.785	0.0132650
696.863	0.0132462
696.942	0.0132890
697.020	0.0132216
697.098	0.0131973
697.176	0.0132448
697.254	0.0129888
697.332	0.0130457
697.410	0.0130463
697.488	0.0133179
697.567	0.0133007
697.645	0.0134206
697.723	0.0138085
697.801	0.0136190
697.879	0.0139076
697.957	0.0141568
698.035	0.0141103
698.113	0.0144170
698.192	0.0143186
698.270	0.0144725
698.348	0.0144940
698.426	0.0144762
698.504	0.0144524
698.582	0.0145454
698.660	0.0145284
698.738	0.0144982
698.817	0.0144839
698.895	0.0144592
698.973	0.0144514
699.051	0.0145288
699.129	0.0146069
699.207	0.0146847
699.285	0.0146648
699.363	0.0146262
699.442	0.0146893
699.520	0.0148116
699.598	0.0147563
699.676	0.0147111
699.754	0.0145278
699.832	0.0144530
699.910	0.0145365
699.988	0.0144217
700.067	0.0142803
700.145	0.0142135
700.223	0.0140511
700.301	0.0140882
700.379	0.0139653
700.457	0.0137685
700.535	0.0138799
700.613	0.0137775
700.692	0.0136286
700.770	0.0135035
700.848	0.0133836
700.926	0.0131686
701.004	0.0132661
701.082	0.0132961
701.160	0.0131906
701.238	0.0130966
701.317	0.0132115
701.395	0.0132447
701.473	0.0133598
701.551	0.0134396
701.629	0.0135800
701.707	0.0137040
701.785	0.0139101
701.863	0.0139037
701.942	0.0137881
702.020	0.0137669
702.098	0.0138418
702.176	0.0137404
702.254	0.0136356
702.332	0.0134171
702.410	0.0134763
702.488	0.0132204
702.567	0.0131241
702.645	0.0131093
702.723	0.0130403
702.801	0.0131158
702.879	0.0132044
702.957	0.0132143
703.035	0.0134035
703.113	0.0135020
703.192	0.0135851
703.270	0.0138412
703.348	0.0138071
703.426	0.0139709
703.504	0.0142876
703.582	0.0143614
703.660	0.0144038
703.738	0.0145714
703.817	0.0147310
703.895	0.0148180
703.973	0.0147259
704.051	0.0147923
704.129	0.0147190
704.207	0.0146453
704.285	0.0145955
704.363	0.0145131
704.442	0.0144725
704.520	0.0142799
704.598	0.0141694
704.676	0.0139523
704.754	0.0138477
704.832	0.0137143
704.910	0.0136775
704.988	0.0136807
705.067	0.0137224
705.145	0.0137565
705.223	0.0138203
705.301	0.0139529
705.379	0.0138172
705.457	0.0139568
705.535	0.0141794
705.613	0.0140872
705.692	0.0142900
705.770	0.0144155
705.848	0.0144168
705.926	0.0142517
706.004	0.0142116
706.082	0.0143527
706.160	0.0143058
706.238	0.0142113
706.317	0.0141380
706.395	0.0138980
706.473	0.0138221
706.551	0.0137076
706.629	0.0136866
706.707	0.0137601
706.785	0.0135184
706.863	0.0135309
706.942	0.0136480
707.020	0.0137034
707.098	0.0136799
707.176	0.0136611
707.254	0.0138022
707.332	0.0138066
707.410	0.0138206
707.488	0.0139497
707.567	0.0140354
707.645	0.0139729
707.723	0.0137665
707.801	0.0137385
707.879	0.0136926
707.957	0.0136156
708.035	0.0133723
708.113	0.0133338
708.192	0.0131104
708.270	0.0130551
708.348	0.0129796
708.426	0.0128917
708.504	0.0130937
708.582	0.0130087
708.660	0.0130193
708.738	0.0132472
708.817	0.0132674
708.895	0.0133281
708.973	0.0137045
709.051	0.0139069
709.129	0.0139497
709.207	0.0139706
709.285	0.0143135
709.363	0.0145512
709.442	0.0145777
709.520	0.0147328
709.598	0.0148655
709.676	0.0149831
709.754	0.0148598
709.832	0.0147150
709.910	0.0148138
709.988	0.0147666
710.067	0.0146454
710.145	0.0144123
710.223	0.0144269
710.301	0.0140652
710.379	0.0140276
710.457	0.0141244
710.535	0.0138228
710.613	0.0136855
710.692	0.0136186
710.770	0.0135456
710.848	0.0135011
710.926	0.0134595
711.004	0.0134901
711.082	0.0134927
711.160	0.0136473
711.238	0.0138380
711.317	0.0137590
711.395	0.0137828
711.473	0.0137699
711.551	0.0139265
711.629	0.0140396
711.707	0.0140574
711.785	0.0139199
711.863	0.0140471
711.942	0.0140639
712.020	0.0139269
712.098	0.0138533
712.176	0.0136775
712.254	0.0137583
712.332	0.0137841
712.410	0.0136802
712.488	0.0135777
712.567	0.0135789
712.645	0.0135294
712.723	0.0135152
712.801	0.0135469
712.879	0.0135867
712.957	0.0134425
713.035	0.0135017
713.113	0.0134161
713.192	0.0133612
713.270	0.0136727
713.348	0.0136942
713.426	0.0137589
713.504	0.0137594
713.582	0.0137933
713.660	0.0139135
713.738	0.0140678
713.817	0.0140433
713.895	0.0140310
713.973	0.0141102
714.051	0.0142081
714.129	0.0143604
714.207	0.0144998
714.285	0.0142555
714.363	0.0142295
714.442	0.0143191
714.520	0.0142316
714.598	0.0140520
714.676	0.0142622
714.754	0.0141046
714.832	0.0141000
714.910	0.0140708
714.988	0.0138142
715.067	0.0139206
715.145	0.0139168
715.223	0.0139223
715.301	0.0137360
715.379	0.0136048
715.457	0.0135978
715.535	0.0136159
715.613	0.0134351
715.692	0.0135033
715.770	0.0134801
715.848	0.0136191
715.926	0.0135011
716.004	0.0134590
716.082	0.0134284
716.160	0.0133862
716.238	0.0135294
716.317	0.0135144
716.395	0.0135516
716.473	0.0137462
716.551	0.0136626
716.629	0.0138203
716.707	0.0137592
716.785	0.0139168
716.863	0.0138818
716.942	0.0140343
717.020	0.0140791
717.098	0.0139296
717.176	0.0139654
717.254	0.0139959
717.332	0.0139371
717.410	0.0138497
717.488	0.0137936
717.567	0.0138599
717.645	0.0138133
717.723	0.0136923
717.801	0.0138021
717.879	0.0138325
717.957	0.0139368
718.035	0.0138612
718.113	0.0139108
718.192	0.0140722
718.270	0.0140249
718.348	0.0140514
718.426	0.0140918
718.504	0.0141721
718.582	0.0141082
718.660	0.0141651
718.738	0.0142586
718.817	0.0143513
718.895	0.0143738
718.973	0.0142108
719.051	0.0142859
719.129	0.0140992
719.207	0.0143257
719.285	0.0143231
719.363	0.0142523
719.442	0.0143093
719.520	0.0142288
719.598	0.0141891
719.676	0.0141852
719.754	0.0139823
719.832	0.0139115
719.910	0.0137056
719.988	0.0136184
720.067	0.0133839
720.145	0.0132909
720.223	0.0132528
720.301	0.0131794
720.379	0.0131949
720.457	0.0130537
720.535	0.0130747
720.613	0.0131552
720.692	0.0133080
720.770	0.0133047
720.848	0.0131532
720.926	0.0134106
721.004	0.0134880
721.082	0.0135555
721.160	0.0135316
721.238	0.0137411
721.317	0.0137915
721.395	0.0136974
721.473	0.0137991
721.551	0.0138481
721.629	0.0140583
721.707	0.0140497
721.785	0.0141297
721.863	0.0141145
721.942	0.0140615
722.020	0.0141415
722.098	0.0143021
722.176	0.0142973
722.254	0.0142505
722.332	0.0144316
722.410	0.0143311
722.488	0.0142285
722.567	0.0142672
722.645	0.0141270
722.723	0.0138854
722.801	0.0139837
722.879	0.0138969
722.957	0.0139125
723.035	0.0138831
723.113	0.0138670
723.192	0.0137829
723.270	0.0138528
723.348	0.0139666
723.426	0.0138887
723.504	0.0140799
723.582	0.0140762
723.660	0.0140722
723.738	0.0140653
723.817	0.0140349
723.895	0.0139655
723.973	0.0140952
724.051	0.0139468
724.129	0.0139790
724.207	0.0138925
724.285	0.0139762
724.363	0.0138306
724.442	0.0138164
724.520	0.0135984
724.598	0.0138193
724.676	0.0136954
724.754	0.0136002
724.832	0.0137188
724.910	0.0138190
724.988	0.0137724
725.067	0.0137876
725.145	0.0137798
725.223	0.0137305
725.301	0.0138289
725.379	0.0137454
725.457	0.0136209
725.535	0.0137208
725.613	0.0136549
725.692	0.0137652
725.770	0.0135315
725.848	0.0137568
725.926	0.0137411
726.004	0.0137422
726.082	0.0137978
726.160	0.0137822
726.238	0.0138416
726.317	0.0139057
726.395	0.0140312
726.473	0.0140149
726.551	0.0138529
726.629	0.0139229
726.707	0.0139119
726.785	0.0140768
726.863	0.0141240
726.942	0.0140471
727.020	0.0141047
727.098	0.0141432
727.176	0.0140734
727.254	0.0140893
727.332	0.0141437
727.410	0.0140350
727.488	0.0140713
727.567	0.0140859
727.645	0.0140742
727.723	0.0140459
727.801	0.0138010
727.879	0.0138381
727.957	0.0139335
728.035	0.0137903
728.113	0.0138599
728.192	0.0137952
728.270	0.0137785
728.348	0.0137447
728.426	0.0135670
728.504	0.0137530
728.582	0.0137711
728.660	0.0138432
728.738	0.0138473
728.817	0.0137819
728.895	0.0138180
728.973	0.0137395
729.051	0.0136664
729.129	0.0136675
729.207	0.0137679
729.285	0.0136806
729.363	0.0137252
729.442	0.0136343
729.520	0.0133995
729.598	0.0135317
729.676	0.0136775
729.754	0.0135078
729.832	0.0135817
729.910	0.0136252
729.988	0.0138365
730.067	0.0139548
730.145	0.0139466
730.223	0.0139952
730.301	0.0141661
730.379	0.0142023
730.457	0.0143076
730.535	0.0143083
730.613	0.0144846
730.692	0.0144168
730.770	0.0144720
730.848	0.0143777
730.926	0.0142805
731.004	0.0143066
731.082	0.0140624
731.160	0.0140890
731.238	0.0140752
731.317	0.0139074
731.395	0.0137789
731.473	0.0138142
731.551	0.0138194
731.629	0.0136880
731.707	0.0135844
731.785	0.0136446
731.863	0.0135101
731.942	0.0135091
732.020	0.0135802
732.098	0.0134172
732.176	0.0134991
732.254	0.0134672
732.332	0.0134532
732.410	0.0133987
732.488	0.0135267
732.567	0.0134899
732.645	0.0134656
732.723	0.0137259
732.801	0.0138507
732.879	0.0138508
732.957	0.0139680
733.035	0.0140665
733.113	0.0140617
733.192	0.0141560
733.270	0.0141145
733.348	0.0141030
733.426	0.0140814
733.504	0.0142547
733.582	0.0140968
733.660	0.0140620
733.738	0.0141158
733.817	0.0138628
733.895	0.0140033
733.973	0.0138900
734.051	0.0139651
734.129	0.0140110
734.207	0.0137957
734.285	0.0139224
734.363	0.0138528
734.442	0.0138744
734.520	0.0138413
734.598	0.0138305
734.676	0.0138049
734.754	0.0137467
734.832	0.0137399
734.910	0.0136014
734.988	0.0137715
735.067	0.0137253
735.145	0.0136641
735.223	0.0138874
735.301	0.0138928
735.379	0.0137666
735.457	0.0138711
735.535	0.0140559
735.613	0.0140467
735.692	0.0139436
735.770	0.0140192
735.848	0.0140508
735.926	0.0140273
736.004	0.0139210
736.082	0.0139862
736.160	0.0140345
736.238	0.0140276
736.317	0.0139783
736.395	0.0139931
736.473	0.0139372
736.551	0.0138676
736.629	0.0140155
736.707	0.0139729
736.785	0.0139264
736.863	0.0139820
736.942	0.0139117
737.020	0.0139219
737.098	0.0138340
737.176	0.0138297
737.254	0.0137921
737.332	0.0139982
737.410	0.0140231
737.488	0.0137412
737.567	0.0137463
737.645	0.0138237
737.723	0.0137714
737.801	0.0137539
737.879	0.0137381
737.957	0.0137612
738.035	0.0137990
738.113	0.0138776
738.192	0.0137822
738.270	0.0139038
738.348	0.0139732
738.426	0.0138633
738.504	0.0139382
738.582	0.0137761
738.660	0.0140204
738.738	0.0139049
738.817	0.0137964
738.895	0.0136783
738.973	0.0135547
739.051	0.0135825
739.129	0.0135752
739.207	0.0137412
739.285	0.0135642
739.363	0.0135452
739.442	0.0136265
739.520	0.0135474
739.598	0.0135598
739.676	0.0135742
739.754	0.0135968
739.832	0.0137502
739.910	0.0139016
739.988	0.0138692
740.067	0.0139369
740.145	0.0140024
740.223	0.0141071
740.301	0.0139033
740.379	0.0140161
740.457	0.0141352
740.535	0.0140091
740.613	0.0140918
740.692	0.0142033
740.770	0.0141044
740.848	0.0141052
740.926	0.0140120
741.004	0.0140554
741.082	0.0141040
741.160	0.0141969
741.238	0.0140646
741.317	0.0139126
741.395	0.0139783
741.473	0.0139266
741.551	0.0139423
741.629	0.0139841
741.707	0.0138338
741.785	0.0140024
741.863	0.0141255
741.942	0.0139668
742.020	0.0139583
742.098	0.0139172
742.176	0.0140142
742.254	0.0141408
742.332	0.0141267
742.410	0.0140433
742.488	0.0139816
742.567	0.0142186
742.645	0.0140607
742.723	0.0139634
742.801	0.0141008
742.879	0.0141400
742.957	0.0141283
743.035	0.0141384
743.113	0.0142249
743.192	0.0141213
743.270	0.0140178
743.348	0.0139788
743.426	0.0139838
743.504	0.0138251
743.582	0.0138751
743.660	0.0138367
743.738	0.0137297
743.817	0.0137631
743.895	0.0136539
743.973	0.0135753
744.051	0.0136412
744.129	0.0135880
744.207	0.0134796
744.285	0.0135777
744.363	0.0135787
744.442	0.0136429
744.520	0.0136598
744.598	0.0136057
744.676	0.0136011
744.754	0.0137388
744.832	0.0138452
744.910	0.0138097
744.988	0.0137080
745.067	0.0138652
745.145	0.0137041
745.223	0.0137731
745.301	0.0138795
745.379	0.0138200
745.457	0.0139285
745.535	0.0138960
745.613	0.0139238
745.692	0.0137817
745.770	0.0140051
745.848	0.0140568
745.926	0.0139972
746.004	0.0140160
746.082	0.0139309
746.160	0.0141095
746.238	0.0140727
746.317	0.0139870
746.395	0.0139650
746.473	0.0140534
746.551	0.0141487
746.629	0.0139346
746.707	0.0140092
746.785	0.0141931
746.863	0.0140600
746.942	0.0139351
747.020	0.0141695
747.098	0.0140317
747.176	0.0139771
747.254	0.0139657
747.332	0.0139627
747.410	0.0139684
747.488	0.0140260
747.567	0.0139801
747.645	0.0140002
747.723	0.0140558
747.801	0.0138998
747.879	0.0139359
747.957	0.0140391
748.035	0.0140635
748.113	0.0140523
748.192	0.0138439
748.270	0.0138784
748.348	0.0139362
748.426	0.0138031
748.504	0.0139109
748.582	0.0138229
748.660	0.0138932
748.738	0.0138895
748.817	0.0137934
748.895	0.0138326
748.973	0.0137093
749.051	0.0137859
749.129	0.0139948
749.207	0.0139265
749.285	0.0137307
749.363	0.0139718
749.442	0.0138964
749.520	0.0137034
749.598	0.0137831
749.676	0.0137798
749.754	0.0137811
749.832	0.0138611
749.910	0.0136989
749.988	0.0137505
750.067	0.0136127
750.145	0.0138519
750.223	0.0137691
750.301	0.0137007
750.379	0.0137032
750.457	0.0137758
750.535	0.0138020
750.613	0.0136259
750.692	0.0138230
750.770	0.0138486
750.848	0.0140034
750.926	0.0140205
751.004	0.0140246
751.082	0.0141315
751.160	0.0140335
751.238	0.0141580
751.317	0.0140671
751.395	0.0141065
751.473	0.0142116
751.551	0.0140448
751.629	0.0140170
751.707	0.0140403
751.785	0.0141771
751.863	0.0140726
751.942	0.0138844
752.020	0.0139573
752.098	0.0138060
752.176	0.0138272
752.254	0.0139183
752.332	0.0137569
752.410	0.0137512
752.488	0.0137665
752.567	0.0137730
752.645	0.0138297
752.723	0.0136556
752.801	0.0138100
752.879	0.0138687
752.957	0.0138548
753.035	0.0138636
753.113	0.0137536
753.192	0.0137405
753.270	0.0137868
753.348	0.0139132
753.426	0.0137315
753.504	0.0138694
753.582	0.0139104
753.660	0.0139606
753.738	0.0138443
753.817	0.0138435
753.895	0.0138953
753.973	0.0138915
754.051	0.0137685
754.129	0.0139626
754.207	0.0138436
754.285	0.0138197
754.363	0.0138660
754.442	0.0139100
754.520	0.0138963
754.598	0.0138461
754.676	0.0139281
754.754	0.0137383
754.832	0.0138086
754.910	0.0139928
754.988	0.0139957
755.067	0.0138848
755.145	0.0139030
755.223	0.0140466
755.301	0.0139574
755.379	0.0141619
755.457	0.0140469
755.535	0.0140085
755.613	0.0139346
755.692	0.0140785
755.770	0.0139629
755.848	0.0140316
755.926	0.0140431
756.004	0.0140120
756.082	0.0141178
756.160	0.0140331
756.238	0.0137698
756.317	0.0137228
756.395	0.0139133
756.473	0.0137807
756.551	0.0136375
756.629	0.0137862
756.707	0.0138655
756.785	0.0136346
756.863	0.0136293
756.942	0.0137440
757.020	0.0138719
757.098	0.0137994
757.176	0.0138181
757.254	0.0139587
757.332	0.0138933
757.410	0.0139051
757.488	0.0139761
757.567	0.0138351
757.645	0.0138982
757.723	0.0138763
757.801	0.0140318
757.879	0.0138859
757.957	0.0137775
758.035	0.0138285
758.113	0.0139671
758.192	0.0138988
758.270	0.0139088
758.348	0.0139281
758.426	0.0139978
758.504	0.0138456
758.582	0.0139929
758.660	0.0140225
758.738	0.0138847
758.817	0.0141393
758.895	0.0141605
758.973	0.0141250
759.051	0.0141147
759.129	0.0141159
759.207	0.0140889
759.285	0.0141375
759.363	0.0140516
759.442	0.0141719
759.520	0.0140065
759.598	0.0140096
759.676	0.0140704
759.754	0.0139816
759.832	0.0138818
759.910	0.0139033
759.988	0.0137020
760.067	0.0137729
760.145	0.0138172
760.223	0.0137692
760.301	0.0137462
760.379	0.0136300
760.457	0.0136570
760.535	0.0137282
760.613	0.0137032
760.692	0.0138476
760.770	0.0138009
760.848	0.0137460
760.926	0.0138024
761.004	0.0138052
761.082	0.0138397
761.160	0.0137465
761.238	0.0138345
761.317	0.0138661
761.395	0.0138827
761.473	0.0137735
761.551	0.0138147
761.629	0.0137239
761.707	0.0138683
761.785	0.0138700
761.863	0.0137354
761.942	0.0138165
762.020	0.0137868
762.098	0.0136813
762.176	0.0138882
762.254	0.0139973
762.332	0.0139526
762.410	0.0137465
762.488	0.0140361
762.567	0.0139738
762.645	0.0141046
762.723	0.0140329
762.801	0.0139497
762.879	0.0139054
762.957	0.0140223
763.035	0.0140536
763.113	0.0141640
763.192	0.0139368
763.270	0.0141163
763.348	0.0139947
763.426	0.0140530
763.504	0.0140532
763.582	0.0140314
763.660	0.0140277
763.738	0.0139502
763.817	0.0139845
763.895	0.0139690
763.973	0.0140759
764.051	0.0141131
764.129	0.0139631
764.207	0.0139306
764.285	0.0139565
764.363	0.0139874
764.442	0.0139991
764.520	0.0138344
764.598	0.0138939
764.676	0.0138641
764.754	0.0138613
764.832	0.0139632
764.910	0.0138786
764.988	0.0140157
765.067	0.0139776
765.145	0.0140277
765.223	0.0138811
765.301	0.0138559
765.379	0.0139518
765.457	0.0139616
765.535	0.0139375
765.613	0.0138158
765.692	0.0138682
765.770	0.0139410
765.848	0.0136720
765.926	0.0136092
766.004	0.0134604
766.082	0.0136189
766.160	0.0135404
766.238	0.0134489
766.317	0.0135857
766.395	0.0136124
766.473	0.0135619
766.551	0.0135399
766.629	0.0135161
766.707	0.0136082
766.785	0.0136858
766.863	0.0135712
766.942	0.0136795
767.020	0.0138918
767.098	0.0139083
767.176	0.0139432
767.254	0.0139876
767.332	0.0139849
767.410	0.0141363
767.488	0.0141761
767.567	0.0142427
767.645	0.0142397
767.723	0.0142410
767.801	0.0142545
767.879	0.0141629
767.957	0.0142310
768.035	0.0141721
768.113	0.0140929
768.192	0.0141001
768.270	0.0140558
768.348	0.0140421
768.426	0.0139137
768.504	0.0139376
768.582	0.0136590
768.660	0.0137854
768.738	0.0137386
768.817	0.0136045
768.895	0.0136993
768.973	0.0137532
769.051	0.0137409
769.129	0.0138894
769.207	0.0138900
769.285	0.0138934
769.363	0.0139646
769.442	0.0139832
769.520	0.0139661
769.598	0.0139051
769.676	0.0140873
769.754	0.0139092
769.832	0.0138174
769.910	0.0139787
769.988	0.0139790
770.067	0.0139898
770.145	0.0139927
770.223	0.0138860
770.301	0.0139235
770.379	0.0140944
770.457	0.0138853
770.535	0.0140689
770.613	0.0141104
770.692	0.0141664
770.770	0.0139394
770.848	0.0138099
770.926	0.0140176
771.004	0.0140508
771.082	0.0138461
771.160	0.0137595
771.238	0.0138699
771.317	0.0136608
771.395	0.0137539
771.473	0.0137524
771.551	0.0137018
771.629	0.0138509
771.707	0.0137322
771.785	0.0137866
771.863	0.0136232
771.942	0.0137033
772.020	0.0138116
772.098	0.0136977
772.176	0.0135247
772.254	0.0136163
772.332	0.0137007
772.410	0.0137743
772.488	0.0138653
772.567	0.0138489
772.645	0.0138596
772.723	0.0138194
772.801	0.0139457
772.879	0.0140343
772.957	0.0140045
773.035	0.0139338
773.113	0.0141617
773.192	0.0140668
773.270	0.0141978
773.348	0.0142104
773.426	0.0141754
773.504	0.0142060
773.582	0.0141836
773.660	0.0139616
773.738	0.0141338
773.817	0.0140238
773.895	0.0141259
773.973	0.0142242
774.051	0.0139667
774.129	0.0139931
774.207	0.0139694
774.285	0.0138264
774.363	0.0139031
774.442	0.0139603
774.520	0.0140095
774.598	0.0139292
774.676	0.0137984
774.754	0.0139484
774.832	0.0139555
774.910	0.0138316
774.988	0.0139780
775.067	0.0139105
775.145	0.0138934
775.223	0.0139673
775.301	0.0138397
775.379	0.0139364
775.457	0.0141263
775.535	0.0140028
775.613	0.0138934
775.692	0.0138854
775.770	0.0140565
775.848	0.0140841
775.926	0.0138457
776.004	0.0138904
776.082	0.0138197
776.160	0.0138160
776.238	0.0139866
776.317	0.0139649
776.395	0.0137521
776.473	0.0137643
776.551	0.0138255
776.629	0.0138112
776.707	0.0136748
776.785	0.0136362
776.863	0.0135772
776.942	0.0137038
777.020	0.0136620
777.098	0.0137376
777.176	0.0136885
777.254	0.0135770
777.332	0.0136817
777.410	0.0137463
777.488	0.0137293
777.567	0.0137980
777.645	0.0139037
777.723	0.0139069
777.801	0.0138071
777.879	0.0139393
777.957	0.0138917
778.035	0.0138831
778.113	0.0140249
778.192	0.0140379
778.270	0.0141249
778.348	0.0140135
778.426	0.0141141
778.504	0.0142087
778.582	0.0142747
778.660	0.0143647
778.738	0.0141673
778.817	0.0142509
778.895	0.0143117
778.973	0.0142594
779.051	0.0142783
779.129	0.0142729
779.207	0.0143222
779.285	0.0141818
779.363	0.0141732
779.442	0.0141610
779.520	0.0139862
779.598	0.0141230
779.676	0.0140225
779.754	0.0141786
779.832	0.0140722
779.910	0.0141212
779.988	0.0138960
780.067	0.0139781
780.145	0.0139345
780.223	0.0138284
780.301	0.0138290
780.379	0.0137778
780.457	0.0137388
780.535	0.0136567
780.613	0.0137683
780.692	0.0136528
780.770	0.0137953
780.848	0.0137817
780.926	0.0137073
781.004	0.0135783
781.082	0.0137424
781.160	0.0138853
781.238	0.0139917
781.317	0.0137385
781.395	0.0137447
781.473	0.0138606
781.551	0.0137593
781.629	0.0137996
781.707	0.0138101
781.785	0.0138248
781.863	0.0139276
781.942	0.0139291
782.020	0.0138490
782.098	0.0137936
782.176	0.0137727
782.254	0.0138889
782.332	0.0137345
782.410	0.0137888
782.488	0.0137972
782.567	0.0137892
782.645	0.0137840
782.723	0.0137875
782.801	0.0136916
782.879	0.0137916
782.957	0.0137827
783.035	0.0136990
783.113	0.0137408
783.192	0.0139126
783.270	0.0137220
783.348	0.0138826
783.426	0.0138908
783.504	0.0138721
783.582	0.0139576
783.660	0.0140486
783.738	0.0140483
783.817	0.0140545
783.895	0.0140369
783.973	0.0140564
784.051	0.0141128
784.129	0.0142234
784.207	0.0141721
784.285	0.0142935
784.363	0.0143200
784.442	0.0143088
784.520	0.0143275
784.598	0.0142400
784.676	0.0141937
784.754	0.0140953
784.832	0.0141061
784.910	0.0141443
784.988	0.0141219
785.067	0.0140373
785.145	0.0140562
785.223	0.0137734
785.301	0.0139606
785.379	0.0138359
785.457	0.0139066
785.535	0.0137240
785.613	0.0137968
785.692	0.0137678
785.770	0.0136517
785.848	0.0136747
785.926	0.0136176
786.004	0.0137585
786.082	0.0136165
786.160	0.0136127
786.238	0.0136866
786.317	0.0135799
786.395	0.0136855
786.473	0.0136935
786.551	0.0137562
786.629	0.0137326
786.707	0.0137738
786.785	0.0137624
786.863	0.0136971
786.942	0.0139336
787.020	0.0139795
787.098	0.0137876
787.176	0.0138476
787.254	0.0137473
787.332	0.0139201
787.410	0.0138233
787.488	0.0138090
787.567	0.0138551
787.645	0.0138657
787.723	0.0138501
787.801	0.0138496
787.879	0.0138835
787.957	0.0139000
788.035	0.0138424
788.113	0.0137749
788.192	0.0139403
788.270	0.0138183
788.348	0.0139912
788.426	0.0139201
788.504	0.0138229
788.582	0.0138051
788.660	0.0137982
788.738	0.0138704
788.817	0.0139068
788.895	0.0139479
788.973	0.0139090
789.051	0.0138509
789.129	0.0139684
789.207	0.0139494
789.285	0.0140973
789.363	0.0141008
789.442	0.0140858
789.520	0.0140225
789.598	0.0142687
789.676	0.0142151
789.754	0.0142324
789.832	0.0140916
789.910	0.0142012
789.988	0.0141598
790.067	0.0141499
790.145	0.0140378
790.223	0.0139939
790.301	0.0140409
790.379	0.0139817
790.457	0.0138824
790.535	0.0137660
790.613	0.0137341
790.692	0.0138466
790.770	0.0136823
790.848	0.0137410
790.926	0.0135307
791.004	0.0135850
791.082	0.0136104
791.160	0.0134940
791.238	0.0136594
791.317	0.0136436
791.395	0.0136164
791.473	0.0135746
791.551	0.0136279
791.629	0.0136588
791.707	0.0136438
791.785	0.0136207
791.863	0.0137411
791.942	0.0139170
792.020	0.0137375
792.098	0.0139334
792.176	0.0138827
792.254	0.0139617
792.332	0.0139322
792.410	0.0139427
792.488	0.0139187
792.567	0.0140669
792.645	0.0140843
792.723	0.0140492
792.801	0.0140415
792.879	0.0140173
792.957	0.0141470
793.035	0.0140302
793.113	0.0139086
793.192	0.0140091
793.270	0.0139788
793.348	0.0140191
793.426	0.0139280
793.504	0.0138598
793.582	0.0139013
793.660	0.0138783
793.738	0.0138788
793.817	0.0137616
793.895	0.0138731
793.973	0.0139762
794.051	0.0139185
794.129	0.0138048
794.207	0.0138111
794.285	0.0137697
794.363	0.0138562
794.442	0.0138196
794.520	0.0137316
794.598	0.0139224
794.676	0.0137991
794.754	0.0138413
794.832	0.0138840
794.910	0.0139156
794.988	0.0139161
795.067	0.0139623
795.145	0.0139822
795.223	0.0139934
795.301	0.0140140
795.379	0.0140392
795.457	0.0139631
795.535	0.0139958
795.613	0.0139032
795.692	0.0139886
795.770	0.0140223
795.848	0.0141196
795.926	0.0139231
796.004	0.0140191
796.082	0.0139498
796.160	0.0138673
796.238	0.0140063
796.317	0.0139468
796.395	0.0139112
796.473	0.0138328
796.551	0.0139233
796.629	0.0138659
796.707	0.0138303
796.785	0.0138481
796.863	0.0137252
796.942	0.0137878
797.020	0.0137614
797.098	0.0136582
797.176	0.0136916
797.254	0.0137714
797.332	0.0137927
797.410	0.0138422
797.488	0.0137589
797.567	0.0137333
797.645	0.0138142
797.723	0.0138303
797.801	0.0138699
797.879	0.0138594
797.957	0.0139679
798.035	0.0140438
798.113	0.0140521
798.192	0.0139718
798.270	0.0140342
798.348	0.0139379
798.426	0.0139805
798.504	0.0138889
798.582	0.0138200
798.660	0.0140474
798.738	0.0139826
798.817	0.0139423
798.895	0.0139817
798.973	0.0139040
799.051	0.0138338
799.129	0.0139392
799.207	0.0139040
799.285	0.0138896
799.363	0.0137800
799.442	0.0138214
799.520	0.0137655
799.598	0.0138586
799.676	0.0137698
799.754	0.0137476
799.832	0.0137621
799.910	0.0138242
799.988	0.0139256
800.067	0.0137938
800.145	0.0138693
800.223	0.0138771
800.301	0.0137814
800.379	0.0139118
800.457	0.0138728
800.535	0.0138960
800.613	0.0138715
800.692	0.0138237
800.770	0.0139742
800.848	0.0140028
800.926	0.0139874
801.004	0.0139336
801.082	0.0139448
801.160	0.0140298
801.238	0.0140846
801.317	0.0140073
801.395	0.0139499
801.473	0.0139317
801.551	0.0139883
801.629	0.0140627
801.707	0.0139822
801.785	0.0138609
801.863	0.0139311
801.942	0.0138577
802.020	0.0139626
802.098	0.0138877
802.176	0.0137733
802.254	0.0136736
802.332	0.0136724
802.410	0.0138383
802.488	0.0137762
802.567	0.0137489
802.645	0.0136049
802.723	0.0137453
802.801	0.0138436
802.879	0.0139112
802.957	0.0138246
803.035	0.0137948
803.113	0.0137580
803.192	0.0139732
803.270	0.0140450
803.348	0.0139150
803.426	0.0141385
803.504	0.0140958
803.582	0.0141815
803.660	0.0141777
803.738	0.0141145
803.817	0.0140788
803.895	0.0140883
803.973	0.0141193
804.051	0.0139980
804.129	0.0140520
804.207	0.0138539
804.285	0.0139745
804.363	0.0141013
804.442	0.0139005
804.520	0.0138268
804.598	0.0138374
804.676	0.0137419
804.754	0.0137861
804.832	0.0136196
804.910	0.0137093
804.988	0.0137135
805.067	0.0135659
805.145	0.0136438
805.223	0.0137730
805.301	0.0135671
805.379	0.0136998
805.457	0.0137080
805.535	0.0137823
805.613	0.0136566
805.692	0.0138541
805.770	0.0137935
805.848	0.0138797
805.926	0.0137367
806.004	0.0137563
806.082	0.0137633
806.160	0.0139289
806.238	0.0139656
806.317	0.0139954
806.395	0.0139487
806.473	0.0141763
806.551	0.0140537
806.629	0.0140247
806.707	0.0140270
806.785	0.0140523
806.863	0.0140716
806.942	0.0139748
807.020	0.0140857
807.098	0.0140130
807.176	0.0138676
807.254	0.0139961
807.332	0.0140416
807.410	0.0140282
807.488	0.0138948
807.567	0.0139239
807.645	0.0137991
807.723	0.0138914
807.801	0.0136732
807.879	0.0138657
807.957	0.0138166
808.035	0.0136446
808.113	0.0137119
808.192	0.0138516
808.270	0.0139880
808.348	0.0137554
808.426	0.0138421
808.504	0.0139259
808.582	0.0138883
808.660	0.0139342
808.738	0.0138861
808.817	0.0139954
808.895	0.0139272
808.973	0.0141091
809.051	0.0139483
809.129	0.0141690
809.207	0.0141019
809.285	0.0139820
809.363	0.0140559
809.442	0.0142088
809.520	0.0140917
809.598	0.0139410
809.676	0.0139112
809.754	0.0139432
809.832	0.0141046
809.910	0.0139967
809.988	0.0138662
810.067	0.0139131
810.145	0.0137376
810.223	0.0137934
810.301	0.0138995
810.379	0.0139861
810.457	0.0138031
810.535	0.0138594
810.613	0.0139108
810.692	0.0139190
810.770	0.0138147
810.848	0.0138350
810.926	0.0139568
811.004	0.0139186
811.082	0.0138353
811.160	0.0137501
811.238	0.0139369
811.317	0.0137955
811.395	0.0137576
811.473	0.0138428
811.551	0.0137881
811.629	0.0138116
811.707	0.0137209
811.785	0.0137243
811.863	0.0138731
811.942	0.0137708
812.020	0.0136952
812.098	0.0136364
812.176	0.0137912
812.254	0.0137432
812.332	0.0137365
812.410	0.0137299
812.488	0.0138281
812.567	0.0138000
812.645	0.0137648
812.723	0.0138645
812.801	0.0138593
812.879	0.0137950
812.957	0.0138957
813.035	0.0137904
813.113	0.0137653
813.192	0.0138492
813.270	0.0139040
813.348	0.0138076
813.426	0.0138206
813.504	0.0137985
813.582	0.0139051
813.660	0.0138622
813.738	0.0138406
813.817	0.0137788
813.895	0.0137579
813.973	0.0139770
814.051	0.0139245
814.129	0.0138383
814.207	0.0139690
814.285	0.0140057
814.363	0.0140266
814.442	0.0140727
814.520	0.0139637
814.598	0.0138978
814.676	0.0140331
814.754	0.0142351
814.832	0.0141877
814.910	0.0142229
814.988	0.0142194
815.067	0.0142102
815.145	0.0142474
815.223	0.0143314
815.301	0.0141682
815.379	0.0141170
815.457	0.0141397
815.535	0.0141877
815.613	0.0140893
815.692	0.0141029
815.770	0.0139878
815.848	0.0139208
815.926	0.0139230
816.004	0.0138363
816.082	0.0138274
816.160	0.0138533
816.238	0.0137880
816.317	0.0137581
816.395	0.0135426
816.473	0.0135915
816.551	0.0138057
816.629	0.0137422
816.707	0.0136661
816.785	0.0137124
816.863	0.0136166
816.942	0.0136800
817.020	0.0137630
817.098	0.0136901
817.176	0.0138603
817.254	0.0138734
817.332	0.0136538
817.410	0.0137222
817.488	0.0137277
817.567	0.0139022
817.645	0.0139838
817.723	0.0137991
817.801	0.0138630
817.879	0.0138618
817.957	0.0140004
818.035	0.0139392
818.113	0.0138627
818.192	0.0138526
818.270	0.0138049
818.348	0.0139100
818.426	0.0138991
818.504	0.0138893
818.582	0.0138363
818.660	0.0138812
818.738	0.0138725
818.817	0.0139135
818.895	0.0138431
818.973	0.0139719
819.051	0.0139420
819.129	0.0139615
819.207	0.0137993
819.285	0.0139027
819.363	0.0138863
819.442	0.0138554
819.520	0.0138776
819.598	0.0139502
819.676	0.0138400
819.754	0.0138918
819.832	0.0139821
819.910	0.0138875
819.988	0.0139233
820.067	0.0140551
820.145	0.0140566
820.223	0.0138307
820.301	0.0139454
820.379	0.0140356
820.457	0.0138862
820.535	0.0140388
820.613	0.0139896
820.692	0.0139801
820.770	0.0140616
820.848	0.0139834
820.926	0.0140430
821.004	0.0140391
821.082	0.0140515
821.160	0.0138580
821.238	0.0139162
821.317	0.0138902
821.395	0.0139584
821.473	0.0140364
821.551	0.0139293
821.629	0.0137940
821.707	0.0138429
821.785	0.0137941
821.863	0.0137082
821.942	0.0136132
822.020	0.0135761
822.098	0.0136327
822.176	0.0137354
822.254	0.0137666
822.332	0.0137544
822.410	0.0136776
822.488	0.0137213
822.567	0.0139468
822.645	0.0138228
822.723	0.0137888
822.801	0.0137978
822.879	0.0139131
822.957	0.0140132
823.035	0.0139264
823.113	0.0138597
823.192	0.0139763
823.270	0.0140932
823.348	0.0139036
823.426	0.0139738
823.504	0.0140749
823.582	0.0142007
823.660	0.0140508
823.738	0.0141042
823.817	0.0140322
823.895	0.0140458
823.973	0.0139326
824.051	0.0138950
824.129	0.0140369
824.207	0.0138900
824.285	0.0138332
824.363	0.0139419
824.442	0.0138629
824.520	0.0138798
824.598	0.0139453
824.676	0.0138763
824.754	0.0139008
824.832	0.0138122
824.910	0.0138013
824.988	0.0138148
825.067	0.0139784
825.145	0.0139294
825.223	0.0137910
825.301	0.0138082
825.379	0.0139364
825.457	0.0138577
825.535	0.0137707
825.613	0.0137788
825.692	0.0139323
825.770	0.0138864
825.848	0.0139024
825.926	0.0137672
826.004	0.0137292
826.082	0.0138631
826.160	0.0138923
826.238	0.0139227
826.317	0.0139526
826.395	0.0138773
826.473	0.0138327
826.551	0.0139297
826.629	0.0139084
826.707	0.0139355
826.785	0.0139530
826.863	0.0139436
826.942	0.0139875
827.020	0.0139675
827.098	0.0139484
827.176	0.0140199
827.254	0.0140118
827.332	0.0140876
827.410	0.0140933
827.488	0.0139821
827.567	0.0140902
827.645	0.0140256
827.723	0.0137579
827.801	0.0139614
827.879	0.0138839
827.957	0.0139085
828.035	0.0138988
828.113	0.0136411
828.192	0.0137446
828.270	0.0138767
828.348	0.0139397
828.426	0.0137712
828.504	0.0138568
828.582	0.0139528
828.660	0.0137836
828.738	0.0138065
828.817	0.0138877
828.895	0.0138432
828.973	0.0139011
829.051	0.0138374
829.129	0.0139858
829.207	0.0139240
829.285	0.0139165
829.363	0.0138995
829.442	0.0138551
829.520	0.0140118
829.598	0.0139613
829.676	0.0139082
829.754	0.0139790
829.832	0.0140236
829.910	0.0139998
829.988	0.0138716
830.067	0.0139483
830.145	0.0139234
830.223	0.0140894
830.301	0.0138814
830.379	0.0138174
830.457	0.0137436
830.535	0.0139407
830.613	0.0137958
830.692	0.0138026
830.770	0.0138132
830.848	0.0139116
830.926	0.0139413
831.004	0.0139872
831.082	0.0139664
831.160	0.0139170
831.238	0.0139391
831.317	0.0139973
831.395	0.0138569
831.473	0.0138885
831.551	0.0139668
831.629	0.0140582
831.707	0.0139295
831.785	0.0140397
831.863	0.0140208
831.942	0.0140346
832.020	0.0139946
832.098	0.0139437
832.176	0.0138554
832.254	0.0139169
832.332	0.0139233
832.410	0.0138918
832.488	0.0138059
832.567	0.0138077
832.645	0.0138579
832.723	0.0137531
832.801	0.0139013
832.879	0.0138039
832.957	0.0138932
833.035	0.0140048
833.113	0.0137925
833.192	0.0136099
833.270	0.0138489
833.348	0.0137807
833.426	0.0137823
833.504	0.0138748
833.582	0.0138399
833.660	0.0139248
833.738	0.0138879
833.817	0.0138551
833.895	0.0138248
833.973	0.0137810
834.051	0.0136627
834.129	0.0138499
834.207	0.0138818
834.285	0.0138702
834.363	0.0140090
834.442	0.0138831
834.520	0.0137319
834.598	0.0138530
834.676	0.0138419
834.754	0.0137294
834.832	0.0138315
834.910	0.0138949
834.988	0.0138668
835.067	0.0138609
835.145	0.0139612
835.223	0.0139893
835.301	0.0137647
835.379	0.0138509
835.457	0.0139427
835.535	0.0140220
835.613	0.0138367
835.692	0.0138819
835.770	0.0139558
835.848	0.0141665
835.926	0.0140472
836.004	0.0139722
836.082	0.0141397
836.160	0.0139431
836.238	0.0140250
836.317	0.0140515
836.395	0.0140236
836.473	0.0138506
836.551	0.0139166
836.629	0.0140683
836.707	0.0139021
836.785	0.0138171
836.863	0.0138810
836.942	0.0139104
837.020	0.0139436
837.098	0.0139651
837.176	0.0139751
837.254	0.0138474
837.332	0.0139198
837.410	0.0138992
837.488	0.0138316
837.567	0.0138805
837.645	0.0138630
837.723	0.0139930
837.801	0.0137974
837.879	0.0139074
837.957	0.0140862
838.035	0.0139596
838.113	0.0138016
838.192	0.0138182
838.270	0.0139519
838.348	0.0138354
838.426	0.0137933
838.504	0.0138067
838.582	0.0138510
838.660	0.0139294
838.738	0.0137829
838.817	0.0138026
838.895	0.0138958
838.973	0.0139145
839.051	0.0139531
839.129	0.0139022
839.207	0.0138747
839.285	0.0139703
839.363	0.0136742
839.442	0.0138593
839.520	0.0139417
839.598	0.0137556
839.676	0.0137294
839.754	0.0137625
839.832	0.0138586
839.910	0.0138077
839.988	0.0136980
840.067	0.0138544
840.145	0.0138535
840.223	0.0139594
840.301	0.0139250
840.379	0.0138899
840.457	0.0137945
840.535	0.0138330
840.613	0.0140049
840.692	0.0139475
840.770	0.0139188
840.848	0.0138353
840.926	0.0138859
841.004	0.0139353
841.082	0.0139776
841.160	0.0139699
841.238	0.0139929
841.317	0.0139684
841.395	0.0140314
841.473	0.0139464
841.551	0.0141010
841.629	0.0139812
841.707	0.0138245
841.785	0.0139275
841.863	0.0139368
841.942	0.0139002
842.020	0.0139304
842.098	0.0139362
842.176	0.0139105
842.254	0.0140186
842.332	0.0137096
842.410	0.0138506
842.488	0.0139405
842.567	0.0139771
842.645	0.0139722
842.723	0.0138467
842.801	0.0138562
842.879	0.0140056
842.957	0.0139215
843.035	0.0137868
843.113	0.0139032
843.192	0.0139697
843.270	0.0138461
843.348	0.0139796
843.426	0.0140129
843.504	0.0139069
843.582	0.0139687
843.660	0.0139276
843.738	0.0140148
843.817	0.0139760
843.895	0.0138988
843.973	0.0139113
844.051	0.0138969
844.129	0.0138795
844.207	0.0138750
844.285	0.0138844
844.363	0.0138638
844.442	0.0137962
844.520	0.0138065
844.598	0.0138793
844.676	0.0139017
844.754	0.0138703
844.832	0.0140520
844.910	0.0138855
844.988	0.0138544
845.067	0.0139275
845.145	0.0138512
845.223	0.0139926
845.301	0.0138693
845.379	0.0137912
845.457	0.0137551
845.535	0.0138748
845.613	0.0139687
845.692	0.0139397
845.770	0.0139140
845.848	0.0138992
845.926	0.0140199
846.004	0.0139885
846.082	0.0139668
846.160	0.0138614
846.238	0.0139566
846.317	0.0140181
846.395	0.0139475
846.473	0.0137908
846.551	0.0138933
846.629	0.0138805
846.707	0.0139069
846.785	0.0139625
846.863	0.0138599
846.942	0.0139867
847.020	0.0138699
847.098	0.0138346
847.176	0.0139342
847.254	0.0138389
847.332	0.0138691
847.410	0.0138163
847.488	0.0137392
847.567	0.0138674
847.645	0.0137854
847.723	0.0138509
847.801	0.0138655
847.879	0.0137724
847.957	0.0139452
848.035	0.0138715
848.113	0.0139591
848.192	0.0138580
848.270	0.0137222
848.348	0.0138769
848.426	0.0140298
848.504	0.0137632
848.582	0.0138770
848.660	0.0139145
848.738	0.0137322
848.817	0.0139710
848.895	0.0138086
848.973	0.0139217
849.051	0.0138263
849.129	0.0137646
849.207	0.0139827
849.285	0.0137225
849.363	0.0139103
849.442	0.0140369
849.520	0.0139745
849.598	0.0138511
849.676	0.0139171
849.754	0.0139433
849.832	0.0139140
849.910	0.0138415
849.988	0.0138106
850.067	0.0138470
850.145	0.0138772
850.223	0.0139497
850.301	0.0137115
850.379	0.0137111
850.457	0.0139003
850.535	0.0138949
850.613	0.0138948
850.692	0.0140292
850.770	0.0138729
850.848	0.0138361
850.926	0.0137852
851.004	0.0139044
851.082	0.0139560
851.160	0.0138390
851.238	0.0137976
851.317	0.0138261
851.395	0.0137885
851.473	0.0136150
851.551	0.0138998
851.629	0.0137078
851.707	0.0137555
851.785	0.0138876
851.863	0.0139079
851.942	0.0137473
852.020	0.0138937
852.098	0.0138891
852.176	0.0139787
852.254	0.0139909
852.332	0.0139703
852.410	0.0138690
852.488	0.0140738
852.567	0.0139945
852.645	0.0138509
852.723	0.0138697
852.801	0.0140146
852.879	0.0139046
852.957	0.0139105
853.035	0.0139681
853.113	0.0138925
853.192	0.0139554
853.270	0.0138042
853.348	0.0138373
853.426	0.0139082
853.504	0.0138674
853.582	0.0139913
853.660	0.0138514
853.738	0.0139647
853.817	0.0139983
853.895	0.0138380
853.973	0.0138594
854.051	0.0139058
854.129	0.0138940
854.207	0.0139269
854.285	0.0140076
854.363	0.0139735
854.442	0.0138754
854.520	0.0140134
854.598	0.0139098
854.676	0.0139279
854.754	0.0140536
854.832	0.0139112
854.910	0.0139056
854.988	0.0139664
855.067	0.0139588
855.145	0.0140298
855.223	0.0140547
855.301	0.0139140
855.379	0.0138467
855.457	0.0140205
855.535	0.0141161
855.613	0.0140176
855.692	0.0140324
855.770	0.0140946
855.848	0.0138678
855.926	0.0139125
856.004	0.0139455
856.082	0.0139642
856.160	0.0140196
856.238	0.0138940
856.317	0.0138543
856.395	0.0137646
856.473	0.0138506
856.551	0.0138400
856.629	0.0137236
856.707	0.0137938
856.785	0.0137919
856.863	0.0138406
856.942	0.0139146
857.020	0.0139296
857.098	0.0138455
857.176	0.0138543
857.254	0.0139304
857.332	0.0137120
857.410	0.0138334
857.488	0.0138552
857.567	0.0137634
857.645	0.0139592
857.723	0.0140027
857.801	0.0139719
857.879	0.0139839
857.957	0.0139304
858.035	0.0138893
858.113	0.0139468
858.192	0.0140486
858.270	0.0139628
858.348	0.0137725
858.426	0.0139973
858.504	0.0139876
858.582	0.0141033
858.660	0.0140124
858.738	0.0139100
858.817	0.0139619
858.895	0.0139165
858.973	0.0138783
859.051	0.0138931
859.129	0.0139142
859.207	0.0138064
859.285	0.0139207
859.363	0.0139449
859.442	0.0139935
859.520	0.0139057
859.598	0.0138750
859.676	0.0139658
859.754	0.0139731
859.832	0.0140498
859.910	0.0139423
859.988	0.0141112
860.067	0.0141260
860.145	0.0141264
860.223	0.0141609
860.301	0.0141239
860.379	0.0140771
860.457	0.0142348
860.535	0.0140417
860.613	0.0140089
860.692	0.0140285
860.770	0.0140027
860.848	0.0139079
860.926	0.0137503
861.004	0.0139052
861.082	0.0139652
861.160	0.0138432
861.238	0.0138033
861.317	0.0138966
861.395	0.0138904
861.473	0.0137249
861.551	0.0136472
861.629	0.0136935
861.707	0.0138480
861.785	0.0138005
861.863	0.0137489
861.942	0.0136959
862.020	0.0138209
862.098	0.0138678
862.176	0.0138862
862.254	0.0138381
862.332	0.0138536
862.410	0.0139515
862.488	0.0139076
862.567	0.0139015
862.645	0.0139565
862.723	0.0139365
862.801	0.0138628
862.879	0.0138237
862.957	0.0139381
863.035	0.0138116
863.113	0.0140202
863.192	0.0138742
863.270	0.0138126
863.348	0.0138426
863.426	0.0139857
863.504	0.0139040
863.582	0.0139943
863.660	0.0140372
863.738	0.0139471
863.817	0.0139707
863.895	0.0139827
863.973	0.0140306
864.051	0.0140369
864.129	0.0141779
864.207	0.0139966
864.285	0.0140038
864.363	0.0141906
864.442	0.0140183
864.520	0.0140419
864.598	0.0139377
864.676	0.0140266
864.754	0.0141003
864.832	0.0139543
864.910	0.0139928
864.988	0.0139135
865.067	0.0138505
865.145	0.0139777
865.223	0.0138537
865.301	0.0138752
865.379	0.0139366
865.457	0.0140540
865.535	0.0138770
865.613	0.0138940
865.692	0.0138297
865.770	0.0137714
865.848	0.0137862
865.926	0.0138422
866.004	0.0138103
866.082	0.0138388
866.160	0.0138583
866.238	0.0137323
866.317	0.0139391
866.395	0.0138380
866.473	0.0138307
866.551	0.0137654
866.629	0.0139149
866.707	0.0138906
866.785	0.0137561
866.863	0.0138791
866.942	0.0137520
867.020	0.0138689
867.098	0.0138977
867.176	0.0138918
867.254	0.0138537
867.332	0.0136796
867.410	0.0136933
867.488	0.0138412
867.567	0.0138437
867.645	0.0138513
867.723	0.0138517
867.801	0.0138503
867.879	0.0139050
867.957	0.0138170
868.035	0.0139019
868.113	0.0140481
868.192	0.0138388
868.270	0.0139252
868.348	0.0139527
868.426	0.0139372
868.504	0.0140447
868.582	0.0140414
868.660	0.0139686
868.738	0.0139577
868.817	0.0139753
868.895	0.0139688
868.973	0.0140203
869.051	0.0139816
869.129	0.0138921
869.207	0.0140494
869.285	0.0140210
869.363	0.0140955
869.442	0.0139860
869.520	0.0138851
869.598	0.0139465
869.676	0.0139584
869.754	0.0139771
869.832	0.0138708
869.910	0.0139548
869.988	0.0139332
870.067	0.0138816
870.145	0.0138586
870.223	0.0138787
870.301	0.0138638
870.379	0.0138161
870.457	0.0137613
870.535	0.0139582
870.613	0.0139798
870.692	0.0138277
870.770	0.0138648
870.848	0.0137724
870.926	0.0138828
871.004	0.0137765
871.082	0.0138799
871.160	0.0138581
871.238	0.0139143
871.317	0.0137220
871.395	0.0136642
871.473	0.0138560
871.551	0.0137428
871.629	0.0136994
871.707	0.0137511
871.785	0.0137187
871.863	0.0135899
871.942	0.0136908
872.020	0.0136526
872.098	0.0136024
872.176	0.0136829
872.254	0.0138020
872.332	0.0137823
872.410	0.0137080
872.488	0.0138780
872.567	0.0137904
872.645	0.0139577
872.723	0.0139989
872.801	0.0139247
872.879	0.0139159
872.957	0.0139923
873.035	0.0139885
873.113	0.0140542
873.192	0.0139668
873.270	0.0140038
873.348	0.0139031
873.426	0.0140976
873.504	0.0141029
873.582	0.0139404
873.660	0.0140916
873.738	0.0139571
873.817	0.0139846
873.895	0.0138780
873.973	0.0138988
874.051	0.0138484
874.129	0.0138209
874.207	0.0137466
874.285	0.0138477
874.363	0.0137492
874.442	0.0138347
874.520	0.0138336
874.598	0.0138132
874.676	0.0139236
874.754	0.0138668
874.832	0.0136883
874.910	0.0139712
874.988	0.0137913
875.067	0.0138015
875.145	0.0139921
875.223	0.0139616
875.301	0.0139249
875.379	0.0139962
875.457	0.0138538
875.535	0.0137588
875.613	0.0138490
875.692	0.0138898
875.770	0.0139252
875.848	0.0137828
875.926	0.0138986
876.004	0.0137257
876.082	0.0138239
876.160	0.0137203
876.238	0.0137356
876.317	0.0138416
876.395	0.0137833
876.473	0.0137434
876.551	0.0138738
876.629	0.0137582
876.707	0.0138789
876.785	0.0138339
876.863	0.0138332
876.942	0.0137896
877.020	0.0138017
877.098	0.0137938
877.176	0.0138100
877.254	0.0138379
877.332	0.0138018
877.410	0.0139250
877.488	0.0139599
877.567	0.0139246
877.645	0.0139402
877.723	0.0139178
877.801	0.0140090
877.879	0.0138969
877.957	0.0139652
878.035	0.0139703
878.113	0.0139679
878.192	0.0139156
878.270	0.0140244
878.348	0.0139785
878.426	0.0140421
878.504	0.0140462
878.582	0.0139231
878.660	0.0139211
878.738	0.0139603
878.817	0.0139593
878.895	0.0138377
878.973	0.0139666
879.051	0.0138910
879.129	0.0138947
879.207	0.0138087
879.285	0.0138586
879.363	0.0138530
879.442	0.0138728
879.520	0.0138999
879.598	0.0138889
879.676	0.0138462
879.754	0.0139252
879.832	0.0137092
879.910	0.0138398
879.988	0.0138618
880.067	0.0139169
880.145	0.0138873
880.223	0.0139414
880.301	0.0139344
880.379	0.0138705
880.457	0.0138734
880.535	0.0139397
880.613	0.0139665
880.692	0.0139693
880.770	0.0138833
880.848	0.0137976
880.926	0.0136968
881.004	0.0138836
881.082	0.0139433
881.160	0.0139264
881.238	0.0139792
881.317	0.0140462
881.395	0.0138524
881.473	0.0138977
881.551	0.0138241
881.629	0.0139075
881.707	0.0138262
881.785	0.0138390
881.863	0.0138201
881.942	0.0138132
882.020	0.0138199
882.098	0.0138667
882.176	0.0137096
882.254	0.0137565
882.332	0.0138507
882.410	0.0138265
882.488	0.0138421
882.567	0.0137627
882.645	0.0138580
882.723	0.0138185
882.801	0.0139309
882.879	0.0137900
882.957	0.0138016
883.035	0.0138795
883.113	0.0139109
883.192	0.0138448
883.270	0.0137111
883.348	0.0139291
883.426	0.0139494
883.504	0.0139170
883.582	0.0138860
883.660	0.0138823
883.738	0.0139034
883.817	0.0140366
883.895	0.0139275
883.973	0.0139359
884.051	0.0139729
884.129	0.0140054
884.207	0.0139500
884.285	0.0138740
884.363	0.0137294
884.442	0.0140086
884.520	0.0140344
884.598	0.0139581
884.676	0.0137619
884.754	0.0137926
884.832	0.0138532
884.910	0.0139507
884.988	0.0140269
885.067	0.0138885
885.145	0.0138705
885.223	0.0139156
885.301	0.0140120
885.379	0.0139307
885.457	0.0140569
885.535	0.0138791
885.613	0.0139270
885.692	0.0140498
885.770	0.0140456
885.848	0.0139189
885.926	0.0139922
886.004	0.0138605
886.082	0.0139363
886.160	0.0139426
886.238	0.0138660
886.317	0.0138474
886.395	0.0137756
886.473	0.0138888
886.551	0.0137798
886.629	0.0138605
886.707	0.0138425
886.785	0.0137729
886.863	0.0137912
886.942	0.0138800
887.020	0.0139259
887.098	0.0138035
887.176	0.0138967
887.254	0.0139255
887.332	0.0139369
887.410	0.0139482
887.488	0.0140614
887.567	0.0137789
887.645	0.0139342
887.723	0.0139114
887.801	0.0141052
887.879	0.0140494
887.957	0.0140350
888.035	0.0138628
888.113	0.0139067
888.192	0.0139804
888.270	0.0138885
888.348	0.0138242
888.426	0.0138125
888.504	0.0137876
888.582	0.0138634
888.660	0.0140342
888.738	0.0137920
888.817	0.0139069
888.895	0.0139226
888.973	0.0139054
889.051	0.0138087
889.129	0.0137974
889.207	0.0138894
889.285	0.0138601
889.363	0.0140109
889.442	0.0139276
889.520	0.0140054
889.598	0.0139473
889.676	0.0138859
889.754	0.0138315
889.832	0.0139601
889.910	0.0139127
889.988	0.0140112
890.067	0.0139877
890.145	0.0138808
890.223	0.0140241
890.301	0.0140029
890.379	0.0140993
890.457	0.0140305
890.535	0.0138825
890.613	0.0139539
890.692	0.0139697
890.770	0.0140096
890.848	0.0139770
890.926	0.0138619
891.004	0.0139615
891.082	0.0140469
891.160	0.0138978
891.238	0.0139492
891.317	0.0140021
891.395	0.0139761
891.473	0.0139687
891.551	0.0139367
891.629	0.0139075
891.707	0.0138903
891.785	0.0139346
891.863	0.0139626
891.942	0.0139088
892.020	0.0137175
892.098	0.0139611
892.176	0.0138577
892.254	0.0138152
892.332	0.0137969
892.410	0.0139185
892.488	0.0139571
892.567	0.0138808
892.645	0.0138639
892.723	0.0139338
892.801	0.0137386
892.879	0.0138838
892.957	0.0138831
893.035	0.0139455
893.113	0.0138103
893.192	0.0139140
893.270	0.0139104
893.348	0.0138551
893.426	0.0137270
893.504	0.0138224
893.582	0.0139732
893.660	0.0138672
893.738	0.0139082
893.817	0.0139454
893.895	0.0138914
893.973	0.0138334
894.051	0.0137668
894.129	0.0138779
894.207	0.0139353
894.285	0.0137753
894.363	0.0137244
894.442	0.0139084
894.520	0.0138728
894.598	0.0140572
894.676	0.0138719
894.754	0.0138412
894.832	0.0138322
894.910	0.0139558
894.988	0.0138615
895.067	0.0137854
895.145	0.0137254
895.223	0.0138996
895.301	0.0139533
895.379	0.0138331
895.457	0.0138775
895.535	0.0138921
895.613	0.0138943
895.692	0.0138106
895.770	0.0139442
895.848	0.0137482
895.926	0.0138211
896.004	0.0139465
896.082	0.0138361
896.160	0.0139011
896.238	0.0139159
896.317	0.0137980
896.395	0.0138847
896.473	0.0138947
896.551	0.0137495
896.629	0.0139724
896.707	0.0140294
896.785	0.0139788
896.863	0.0138988
896.942	0.0139685
897.020	0.0140783
897.098	0.0140279
897.176	0.0140092
897.254	0.0139891
897.332	0.0140252
897.410	0.0142614
897.488	0.0140701
897.567	0.0140209
897.645	0.0140096
897.723	0.0139621
897.801	0.0139378
897.879	0.0138427
897.957	0.0138973
898.035	0.0137312
898.113	0.0138371
898.192	0.0139391
898.270	0.0137953
898.348	0.0137475
898.426	0.0137218
898.504	0.0138387
898.582	0.0136677
898.660	0.0136763
898.738	0.0138250
898.817	0.0138648
898.895	0.0137904
898.973	0.0137003
899.051	0.0137404
899.129	0.0138042
899.207	0.0138009
899.285	0.0138636
899.363	0.0138352
899.442	0.0138549
899.520	0.0136772
899.598	0.0136404
899.676	0.0138051
899.754	0.0138245
899.832	0.0139804
899.910	0.0138632
899.988	0.0138764
900.067	0.0137247
900.145	0.0138158
900.223	0.0138146
900.301	0.0139169
900.379	0.0138881
900.457	0.0138334
900.535	0.0139113
900.613	0.0139919
900.692	0.0138909
900.770	0.0138355
900.848	0.0138917
900.926	0.0138699
901.004	0.0140976
901.082	0.0139745
901.160	0.0139809
901.238	0.0137972
901.317	0.0139936
901.395	0.0139841
901.473	0.0138457
901.551	0.0139587
901.629	0.0140464
901.707	0.0140743
901.785	0.0140226
901.863	0.0139153
901.942	0.0140847
902.020	0.0139501
902.098	0.0138485
902.176	0.0139786
902.254	0.0139867
902.332	0.0141463
902.410	0.0140012
902.488	0.0140652
902.567	0.0139644
902.645	0.0140005
902.723	0.0140063
902.801	0.0140441
902.879	0.0140501
902.957	0.0140469
903.035	0.0140569
903.113	0.0141234
903.192	0.0140124
903.270	0.0139336
903.348	0.0139902
903.426	0.0140266
903.504	0.0139814
903.582	0.0139837
903.660	0.0138281
903.738	0.0136690
903.817	0.0138773
903.895	0.0138674
903.973	0.0136903
904.051	0.0138197
904.129	0.0138467
904.207	0.0137338
904.285	0.0137184
904.363	0.0137980
904.442	0.0138087
904.520	0.0136539
904.598	0.0137685
904.676	0.0137750
904.754	0.0137772
904.832	0.0137731
904.910	0.0137930
904.988	0.0138817
905.067	0.0138817
905.145	0.0138688
905.223	0.0139144
905.301	0.0138397
905.379	0.0138606
905.457	0.0140101
905.535	0.0140557
905.613	0.0139582
905.692	0.0140132
905.770	0.0138505
905.848	0.0138986
905.926	0.0141605
906.004	0.0139395
906.082	0.0140001
906.160	0.0139838
906.238	0.0139372
906.317	0.0139610
906.395	0.0140568
906.473	0.0140327
906.551	0.0140164
906.629	0.0140205
906.707	0.0140178
906.785	0.0140154
906.863	0.0138347
906.942	0.0140910
907.020	0.0139772
907.098	0.0138155
907.176	0.0139491
907.254	0.0139633
907.332	0.0138645
907.410	0.0140430
907.488	0.0140559
907.567	0.0138264
907.645	0.0138945
907.723	0.0140171
907.801	0.0139227
907.879	0.0139564
907.957	0.0139686
908.035	0.0139499
908.113	0.0139758
908.192	0.0139732
908.270	0.0139394
908.348	0.0139503
908.426	0.0138756
908.504	0.0139598
908.582	0.0139472
908.660	0.0140268
908.738	0.0137775
908.817	0.0138602
908.895	0.0139746
908.973	0.0137726
909.051	0.0138934
909.129	0.0138285
909.207	0.0137260
909.285	0.0137161
909.363	0.0138608
909.442	0.0136501
909.520	0.0136645
909.598	0.0137827
909.676	0.0137284
909.754	0.0137126
909.832	0.0138073
909.910	0.0138026
909.988	0.0138411
910.067	0.0138973
910.145	0.0137866
910.223	0.0138421
910.301	0.0138134
910.379	0.0139156
910.457	0.0138927
910.535	0.0139540
910.613	0.0139455
910.692	0.0137779
910.770	0.0140041
910.848	0.0139648
910.926	0.0138913
911.004	0.0139587
911.082	0.0140238
911.160	0.0139894
911.238	0.0140585
911.317	0.0140035
911.395	0.0138612
911.473	0.0139773
911.551	0.0139487
911.629	0.0139732
911.707	0.0139464
911.785	0.0139780
911.863	0.0137892
911.942	0.0139783
912.020	0.0139804
912.098	0.0140285
912.176	0.0139335
912.254	0.0140345
912.332	0.0139346
912.410	0.0140752
912.488	0.0138947
912.567	0.0139712
912.645	0.0139651
912.723	0.0139622
912.801	0.0139214
912.879	0.0139102
912.957	0.0139561
913.035	0.0139712
913.113	0.0139288
913.192	0.0138669
913.270	0.0140518
913.348	0.0138810
913.426	0.0139379
913.504	0.0139095
913.582	0.0138449
913.660	0.0139960
913.738	0.0137117
913.817	0.0138038
913.895	0.0138136
913.973	0.0138889
914.051	0.0138663
914.129	0.0137817
914.207	0.0136784
914.285	0.0138163
914.363	0.0138291
914.442	0.0137164
914.520	0.0137161
914.598	0.0137130
914.676	0.0137975
914.754	0.0138002
914.832	0.0138226
914.910	0.0137208
914.988	0.0136990
915.067	0.0137910
915.145	0.0137556
915.223	0.0137033
915.301	0.0136920
915.379	0.0137645
915.457	0.0139003
915.535	0.0139484
915.613	0.0138762
915.692	0.0139965
915.770	0.0138143
915.848	0.0138465
915.926	0.0139324
916.004	0.0137327
916.082	0.0139204
916.160	0.0139786
916.238	0.0139420
916.317	0.0140261
916.395	0.0139566
916.473	0.0139491
916.551	0.0140232
916.629	0.0139524
916.707	0.0140189
916.785	0.0138497
916.863	0.0139201
916.942	0.0139571
917.020	0.0139368
917.098	0.0140852
917.176	0.0139874
917.254	0.0140334
917.332	0.0139624
917.410	0.0138123
917.488	0.0138460
917.567	0.0139774
917.645	0.0139037
917.723	0.0139032
917.801	0.0140358
917.879	0.0139898
917.957	0.0139206
918.035	0.0139651
918.113	0.0139655
918.192	0.0139806
918.270	0.0139388
918.348	0.0139562
918.426	0.0139841
918.504	0.0139998
918.582	0.0139115
918.660	0.0138744
918.738	0.0139456
918.817	0.0138696
918.895	0.0139192
918.973	0.0138944
919.051	0.0138665
919.129	0.0138773
919.207	0.0138863
919.285	0.0139359
919.363	0.0137791
919.442	0.0138515
919.520	0.0136311
919.598	0.0137147
919.676	0.0137252
919.754	0.0137862
919.832	0.0137469
919.910	0.0137099
