06/29/2022	22:43:24	Ver.	4.1	UNKNOWN
Optical Delay	630.002507	Delta X		0.078125	Sweeps	1	Scan Rate	0/0
Coordinates	Axis 1	NaN	Axis 2	NaN	Axis 3	NaN	Axis 4	NaN	Axis 5	NaN	Axis 6	0.000000
TX Power	0.000000	RX Power	0.000000

630.003	0.0164611
630.081	0.0164438
630.159	0.0165504
630.237	0.0164960
630.315	0.0164005
630.393	0.0163535
630.471	0.0165223
630.549	0.0164645
630.628	0.0165453
630.706	0.0165874
630.784	0.0164623
630.862	0.0165621
630.940	0.0165048
631.018	0.0164574
631.096	0.0165079
631.174	0.0164582
631.253	0.0164377
631.331	0.0165257
631.409	0.0165007
631.487	0.0164532
631.565	0.0163911
631.643	0.0163126
631.721	0.0164995
631.799	0.0164736
631.878	0.0163975
631.956	0.0165668
632.034	0.0165148
632.112	0.0164764
632.190	0.0163205
632.268	0.0164881
632.346	0.0165842
632.424	0.0165334
632.503	0.0164874
632.581	0.0164207
632.659	0.0164522
632.737	0.0164971
632.815	0.0165699
632.893	0.0164462
632.971	0.0164967
633.049	0.0165298
633.128	0.0165971
633.206	0.0164803
633.284	0.0164878
633.362	0.0165491
633.440	0.0164495
633.518	0.0165092
633.596	0.0165311
633.674	0.0165479
633.753	0.0165344
633.831	0.0165394
633.909	0.0165470
633.987	0.0164455
634.065	0.0164828
634.143	0.0163589
634.221	0.0165146
634.299	0.0164091
634.378	0.0165244
634.456	0.0165551
634.534	0.0164310
634.612	0.0164895
634.690	0.0163885
634.768	0.0164033
634.846	0.0165113
634.924	0.0164703
635.003	0.0165344
635.081	0.0165401
635.159	0.0164007
635.237	0.0163699
635.315	0.0164552
635.393	0.0164363
635.471	0.0164470
635.549	0.0164442
635.628	0.0163721
635.706	0.0165823
635.784	0.0163915
635.862	0.0165266
635.940	0.0164956
636.018	0.0164993
636.096	0.0165223
636.174	0.0165991
636.253	0.0165827
636.331	0.0164550
636.409	0.0163940
636.487	0.0165409
636.565	0.0166142
636.643	0.0164297
636.721	0.0164060
636.799	0.0163342
636.878	0.0163535
636.956	0.0165689
637.034	0.0165636
637.112	0.0164524
637.190	0.0165040
637.268	0.0164816
637.346	0.0164708
637.424	0.0164912
637.503	0.0164690
637.581	0.0165941
637.659	0.0164935
637.737	0.0164211
637.815	0.0163893
637.893	0.0164529
637.971	0.0164524
638.049	0.0164806
638.128	0.0164999
638.206	0.0164708
638.284	0.0165075
638.362	0.0162301
638.440	0.0165302
638.518	0.0165349
638.596	0.0164977
638.674	0.0164772
638.753	0.0164709
638.831	0.0165362
638.909	0.0164317
638.987	0.0164610
639.065	0.0165386
639.143	0.0164955
639.221	0.0163632
639.299	0.0165292
639.378	0.0164160
639.456	0.0165175
639.534	0.0164907
639.612	0.0164570
639.690	0.0164066
639.768	0.0163628
639.846	0.0165231
639.924	0.0163802
640.003	0.0164861
640.081	0.0164130
640.159	0.0165217
640.237	0.0165527
640.315	0.0164807
640.393	0.0164741
640.471	0.0163688
640.549	0.0165911
640.628	0.0164920
640.706	0.0164227
640.784	0.0164818
640.862	0.0164661
640.940	0.0164936
641.018	0.0164006
641.096	0.0163313
641.174	0.0163891
641.253	0.0165012
641.331	0.0164281
641.409	0.0164308
641.487	0.0163179
641.565	0.0163625
641.643	0.0163976
641.721	0.0164611
641.799	0.0165108
641.878	0.0164912
641.956	0.0163827
642.034	0.0164420
642.112	0.0163750
642.190	0.0165438
642.268	0.0165925
642.346	0.0163866
642.424	0.0163052
642.503	0.0164120
642.581	0.0165034
642.659	0.0164429
642.737	0.0165429
642.815	0.0163901
642.893	0.0164655
642.971	0.0164275
643.049	0.0163159
643.128	0.0163830
643.206	0.0164008
643.284	0.0165451
643.362	0.0165073
643.440	0.0162825
643.518	0.0164419
643.596	0.0164093
643.674	0.0164064
643.753	0.0163960
643.831	0.0165529
643.909	0.0163957
643.987	0.0164523
644.065	0.0163882
644.143	0.0163815
644.221	0.0165339
644.299	0.0165310
644.378	0.0164608
644.456	0.0164592
644.534	0.0163293
644.612	0.0164104
644.690	0.0165146
644.768	0.0163680
644.846	0.0164451
644.924	0.0164770
645.003	0.0162913
645.081	0.0163320
645.159	0.0163104
645.237	0.0164879
645.315	0.0164743
645.393	0.0162251
645.471	0.0163454
645.549	0.0164474
645.628	0.0164865
645.706	0.0165446
645.784	0.0164563
645.862	0.0163668
645.940	0.0164506
646.018	0.0164378
646.096	0.0165139
646.174	0.0163506
646.253	0.0164085
646.331	0.0165003
646.409	0.0165649
646.487	0.0164358
646.565	0.0164744
646.643	0.0164328
646.721	0.0163939
646.799	0.0164081
646.878	0.0164896
646.956	0.0164326
647.034	0.0163164
647.112	0.0165794
647.190	0.0164257
647.268	0.0163967
647.346	0.0164098
647.424	0.0164962
647.503	0.0164750
647.581	0.0163732
647.659	0.0164717
647.737	0.0164574
647.815	0.0165334
647.893	0.0164335
647.971	0.0165038
648.049	0.0163999
648.128	0.0163647
648.206	0.0164243
648.284	0.0165119
648.362	0.0163092
648.440	0.0165114
648.518	0.0165765
648.596	0.0164800
648.674	0.0164092
648.753	0.0163924
648.831	0.0164328
648.909	0.0164847
648.987	0.0164902
649.065	0.0164259
649.143	0.0163470
649.221	0.0165455
649.299	0.0164678
649.378	0.0163545
649.456	0.0165771
649.534	0.0163613
649.612	0.0163151
649.690	0.0164223
649.768	0.0164212
649.846	0.0166524
649.924	0.0166196
650.003	0.0164243
650.081	0.0163636
650.159	0.0164032
650.237	0.0164548
650.315	0.0164198
650.393	0.0166299
650.471	0.0164417
650.549	0.0165072
650.628	0.0165131
650.706	0.0164475
650.784	0.0165198
650.862	0.0164718
650.940	0.0163885
651.018	0.0164757
651.096	0.0163030
651.174	0.0164170
651.253	0.0164892
651.331	0.0165141
651.409	0.0164323
651.487	0.0164140
651.565	0.0165244
651.643	0.0165374
651.721	0.0164257
651.799	0.0163905
651.878	0.0163667
651.956	0.0163551
652.034	0.0164345
652.112	0.0164719
652.190	0.0164064
652.268	0.0165267
652.346	0.0164463
652.424	0.0164310
652.503	0.0165009
652.581	0.0164613
652.659	0.0164612
652.737	0.0165054
652.815	0.0163143
652.893	0.0162089
652.971	0.0163219
653.049	0.0164666
653.128	0.0166215
653.206	0.0164783
653.284	0.0164689
653.362	0.0165015
653.440	0.0164291
653.518	0.0164066
653.596	0.0163912
653.674	0.0165605
653.753	0.0164147
653.831	0.0163132
653.909	0.0164645
653.987	0.0164251
654.065	0.0164959
654.143	0.0164461
654.221	0.0164468
654.299	0.0162803
654.378	0.0164318
654.456	0.0164743
654.534	0.0164735
654.612	0.0163868
654.690	0.0163882
654.768	0.0163444
654.846	0.0164898
654.924	0.0164225
655.003	0.0163273
655.081	0.0164227
655.159	0.0164821
655.237	0.0164423
655.315	0.0163912
655.393	0.0164614
655.471	0.0164754
655.549	0.0164819
655.628	0.0164500
655.706	0.0164295
655.784	0.0164405
655.862	0.0165269
655.940	0.0163134
656.018	0.0164257
656.096	0.0164728
656.174	0.0163982
656.253	0.0163225
656.331	0.0164169
656.409	0.0165047
656.487	0.0164017
656.565	0.0163822
656.643	0.0165392
656.721	0.0165826
656.799	0.0165042
656.878	0.0163593
656.956	0.0164368
657.034	0.0165032
657.112	0.0164764
657.190	0.0164359
657.268	0.0163544
657.346	0.0164295
657.424	0.0165714
657.503	0.0163940
657.581	0.0164783
657.659	0.0163770
657.737	0.0164265
657.815	0.0164637
657.893	0.0164812
657.971	0.0165624
658.049	0.0164211
658.128	0.0164318
658.206	0.0165681
658.284	0.0164557
658.362	0.0164277
658.440	0.0164990
658.518	0.0165856
658.596	0.0164467
658.674	0.0164349
658.753	0.0164480
658.831	0.0164928
658.909	0.0164558
658.987	0.0165821
659.065	0.0163716
659.143	0.0163570
659.221	0.0163700
659.299	0.0165444
659.378	0.0164220
659.456	0.0164030
659.534	0.0165614
659.612	0.0165260
659.690	0.0165228
659.768	0.0165842
659.846	0.0164194
659.924	0.0164163
660.003	0.0164767
660.081	0.0165648
660.159	0.0165198
660.237	0.0164837
660.315	0.0164690
660.393	0.0164225
660.471	0.0165814
660.549	0.0164864
660.628	0.0163419
660.706	0.0162931
660.784	0.0165102
660.862	0.0164060
660.940	0.0164552
661.018	0.0164481
661.096	0.0164378
661.174	0.0164051
661.253	0.0164474
661.331	0.0165477
661.409	0.0164172
661.487	0.0163322
661.565	0.0164122
661.643	0.0165478
661.721	0.0164174
661.799	0.0165951
661.878	0.0164717
661.956	0.0162399
662.034	0.0165002
662.112	0.0164782
662.190	0.0164776
662.268	0.0163597
662.346	0.0164400
662.424	0.0165667
662.503	0.0165180
662.581	0.0164355
662.659	0.0164976
662.737	0.0165006
662.815	0.0166230
662.893	0.0164821
662.971	0.0164777
663.049	0.0164039
663.128	0.0163721
663.206	0.0164525
663.284	0.0163083
663.362	0.0165000
663.440	0.0166065
663.518	0.0164816
663.596	0.0163484
663.674	0.0164859
663.753	0.0164555
663.831	0.0164278
663.909	0.0165468
663.987	0.0163865
664.065	0.0165101
664.143	0.0165939
664.221	0.0164057
664.299	0.0163811
664.378	0.0163628
664.456	0.0166064
664.534	0.0164539
664.612	0.0163332
664.690	0.0164854
664.768	0.0163211
664.846	0.0165229
664.924	0.0165784
665.003	0.0163858
665.081	0.0163483
665.159	0.0164548
665.237	0.0164606
665.315	0.0164828
665.393	0.0164450
665.471	0.0164861
665.549	0.0164725
665.628	0.0166047
665.706	0.0165791
665.784	0.0164269
665.862	0.0164382
665.940	0.0164487
666.018	0.0165877
666.096	0.0164836
666.174	0.0165636
666.253	0.0164502
666.331	0.0164576
666.409	0.0164140
666.487	0.0165570
666.565	0.0166156
666.643	0.0164697
666.721	0.0165070
666.799	0.0164561
666.878	0.0164351
666.956	0.0165235
667.034	0.0165081
667.112	0.0164739
667.190	0.0166076
667.268	0.0165141
667.346	0.0164569
667.424	0.0163839
667.503	0.0163607
667.581	0.0166331
667.659	0.0164314
667.737	0.0164589
667.815	0.0165499
667.893	0.0165508
667.971	0.0166367
668.049	0.0164212
668.128	0.0164618
668.206	0.0166526
668.284	0.0166162
668.362	0.0163711
668.440	0.0166106
668.518	0.0165392
668.596	0.0164805
668.674	0.0164014
668.753	0.0163721
668.831	0.0164633
668.909	0.0165108
668.987	0.0164851
669.065	0.0164998
669.143	0.0164513
669.221	0.0164372
669.299	0.0165843
669.378	0.0165105
669.456	0.0165084
669.534	0.0165620
669.612	0.0164086
669.690	0.0164066
669.768	0.0164783
669.846	0.0164439
669.924	0.0164182
670.003	0.0164452
670.081	0.0163889
670.159	0.0164008
670.237	0.0164172
670.315	0.0165065
670.393	0.0165305
670.471	0.0164938
670.549	0.0164812
670.628	0.0162788
670.706	0.0165030
670.784	0.0165191
670.862	0.0164359
670.940	0.0164492
671.018	0.0165244
671.096	0.0163945
671.174	0.0164415
671.253	0.0164059
671.331	0.0165186
671.409	0.0163364
671.487	0.0165615
671.565	0.0165072
671.643	0.0164732
671.721	0.0164451
671.799	0.0163688
671.878	0.0163701
671.956	0.0165083
672.034	0.0164400
672.112	0.0164541
672.190	0.0163520
672.268	0.0164050
672.346	0.0164174
672.424	0.0163745
672.503	0.0163223
672.581	0.0164106
672.659	0.0164540
672.737	0.0164300
672.815	0.0165105
672.893	0.0164847
672.971	0.0165128
673.049	0.0164884
673.128	0.0165816
673.206	0.0163955
673.284	0.0165694
673.362	0.0164960
673.440	0.0163273
673.518	0.0164886
673.596	0.0163912
673.674	0.0164191
673.753	0.0165344
673.831	0.0165440
673.909	0.0165770
673.987	0.0165764
674.065	0.0163856
674.143	0.0162955
674.221	0.0164294
674.299	0.0165321
674.378	0.0164798
674.456	0.0165230
674.534	0.0164671
674.612	0.0163286
674.690	0.0163800
674.768	0.0163685
674.846	0.0165289
674.924	0.0164245
675.003	0.0164121
675.081	0.0164654
675.159	0.0165867
675.237	0.0164449
675.315	0.0164416
675.393	0.0163932
675.471	0.0163631
675.549	0.0165905
675.628	0.0164185
675.706	0.0165757
675.784	0.0165562
675.862	0.0162664
675.940	0.0162040
676.018	0.0165225
676.096	0.0164448
676.174	0.0164719
676.253	0.0165379
676.331	0.0164632
676.409	0.0163702
676.487	0.0165035
676.565	0.0165250
676.643	0.0164255
676.721	0.0164456
676.799	0.0164059
676.878	0.0163863
676.956	0.0165114
677.034	0.0164943
677.112	0.0164008
677.190	0.0165751
677.268	0.0165737
677.346	0.0164595
677.424	0.0163708
677.503	0.0164309
677.581	0.0164762
677.659	0.0164344
677.737	0.0165049
677.815	0.0163612
677.893	0.0164283
677.971	0.0164396
678.049	0.0163412
678.128	0.0164265
678.206	0.0164969
678.284	0.0164218
678.362	0.0162231
678.440	0.0164291
678.518	0.0165591
678.596	0.0165475
678.674	0.0164768
678.753	0.0164752
678.831	0.0164140
678.909	0.0165194
678.987	0.0164667
679.065	0.0165475
679.143	0.0165064
679.221	0.0164973
679.299	0.0165196
679.378	0.0164042
679.456	0.0164304
679.534	0.0165411
679.612	0.0164941
679.690	0.0164526
679.768	0.0164546
679.846	0.0164221
679.924	0.0163957
680.003	0.0165397
680.081	0.0166168
680.159	0.0162741
680.237	0.0164819
680.315	0.0165007
680.393	0.0162429
680.471	0.0163184
680.549	0.0165295
680.628	0.0165276
680.706	0.0163746
680.784	0.0164396
680.862	0.0165218
680.940	0.0163200
681.018	0.0164446
681.096	0.0165275
681.174	0.0164918
681.253	0.0163841
681.331	0.0163862
681.409	0.0163779
681.487	0.0164937
681.565	0.0163718
681.643	0.0165662
681.721	0.0164877
681.799	0.0164828
681.878	0.0165283
681.956	0.0163059
682.034	0.0163803
682.112	0.0165079
682.190	0.0163899
682.268	0.0163837
682.346	0.0165817
682.424	0.0165794
682.503	0.0164994
682.581	0.0164881
682.659	0.0165166
682.737	0.0164407
682.815	0.0164175
682.893	0.0165633
682.971	0.0164882
683.049	0.0165113
683.128	0.0164573
683.206	0.0163683
683.284	0.0164344
683.362	0.0165662
683.440	0.0165176
683.518	0.0164720
683.596	0.0165134
683.674	0.0164639
683.753	0.0162683
683.831	0.0164937
683.909	0.0164910
683.987	0.0165192
684.065	0.0165300
684.143	0.0165340
684.221	0.0165222
684.299	0.0164735
684.378	0.0165421
684.456	0.0163671
684.534	0.0164941
684.612	0.0164722
684.690	0.0165526
684.768	0.0164819
684.846	0.0164304
684.924	0.0164407
685.003	0.0164985
685.081	0.0165571
685.159	0.0164661
685.237	0.0164281
685.315	0.0164841
685.393	0.0164783
685.471	0.0164820
685.549	0.0164401
685.628	0.0164761
685.706	0.0162957
685.784	0.0163821
685.862	0.0163548
685.940	0.0165720
686.018	0.0164683
686.096	0.0164034
686.174	0.0165080
686.253	0.0165862
686.331	0.0164679
686.409	0.0163086
686.487	0.0165837
686.565	0.0165443
686.643	0.0163840
686.721	0.0165324
686.799	0.0164685
686.878	0.0164239
686.956	0.0164739
687.034	0.0164917
687.112	0.0165463
687.190	0.0164355
687.268	0.0165192
687.346	0.0164754
687.424	0.0165018
687.503	0.0165113
687.581	0.0164311
687.659	0.0164725
687.737	0.0164314
687.815	0.0165057
687.893	0.0165803
687.971	0.0164268
688.049	0.0164532
688.128	0.0164037
688.206	0.0164609
688.284	0.0164391
688.362	0.0165512
688.440	0.0165551
688.518	0.0164711
688.596	0.0164344
688.674	0.0164509
688.753	0.0164459
688.831	0.0164877
688.909	0.0165417
688.987	0.0165005
689.065	0.0165470
689.143	0.0163347
689.221	0.0164823
689.299	0.0164267
689.378	0.0164462
689.456	0.0163533
689.534	0.0164965
689.612	0.0166457
689.690	0.0165056
689.768	0.0164183
689.846	0.0162766
689.924	0.0164661
690.003	0.0163873
690.081	0.0162917
690.159	0.0164951
690.237	0.0164896
690.315	0.0164524
690.393	0.0163110
690.471	0.0165847
690.549	0.0165032
690.628	0.0164420
690.706	0.0165675
690.784	0.0165130
690.862	0.0164851
690.940	0.0164040
691.018	0.0163023
691.096	0.0164740
691.174	0.0165087
691.253	0.0163660
691.331	0.0164182
691.409	0.0163725
691.487	0.0165982
691.565	0.0163987
691.643	0.0163558
691.721	0.0165336
691.799	0.0165012
691.878	0.0165363
691.956	0.0164240
692.034	0.0163568
692.112	0.0164462
692.190	0.0164478
692.268	0.0164286
692.346	0.0164560
692.424	0.0164772
692.503	0.0165506
692.581	0.0165602
692.659	0.0164109
692.737	0.0164893
692.815	0.0164324
692.893	0.0164318
692.971	0.0164954
693.049	0.0164533
693.128	0.0162888
693.206	0.0163732
693.284	0.0164301
693.362	0.0163898
693.440	0.0164895
693.518	0.0165650
693.596	0.0164707
693.674	0.0165561
693.753	0.0163964
693.831	0.0164014
693.909	0.0163661
693.987	0.0165272
694.065	0.0165129
694.143	0.0163638
694.221	0.0164624
694.299	0.0165234
694.378	0.0164086
694.456	0.0164250
694.534	0.0163467
694.612	0.0164017
694.690	0.0164323
694.768	0.0163755
694.846	0.0164168
694.924	0.0164819
695.003	0.0164445
695.081	0.0164580
695.159	0.0164311
695.237	0.0165465
695.315	0.0164515
695.393	0.0162642
695.471	0.0164446
695.549	0.0164002
695.628	0.0164854
695.706	0.0164804
695.784	0.0165430
695.862	0.0164075
695.940	0.0164370
696.018	0.0165013
696.096	0.0163774
696.174	0.0165756
696.253	0.0164021
696.331	0.0164981
696.409	0.0165226
696.487	0.0164224
696.565	0.0164139
696.643	0.0165499
696.721	0.0164268
696.799	0.0164336
696.878	0.0163454
696.956	0.0163206
697.034	0.0164210
697.112	0.0165127
697.190	0.0164540
697.268	0.0164275
697.346	0.0164742
697.424	0.0165527
697.503	0.0163243
697.581	0.0164171
697.659	0.0163248
697.737	0.0163388
697.815	0.0164713
697.893	0.0164320
697.971	0.0164249
698.049	0.0163369
698.128	0.0162922
698.206	0.0164745
698.284	0.0165060
698.362	0.0165178
698.440	0.0164160
698.518	0.0163577
698.596	0.0164486
698.674	0.0166045
698.753	0.0163331
698.831	0.0164420
698.909	0.0164621
698.987	0.0165530
699.065	0.0164537
699.143	0.0164096
699.221	0.0165739
699.299	0.0164938
699.378	0.0164147
699.456	0.0163811
699.534	0.0165731
699.612	0.0165914
699.690	0.0163938
699.768	0.0165587
699.846	0.0164773
699.924	0.0165263
700.003	0.0165028
700.081	0.0164378
700.159	0.0163884
700.237	0.0165179
700.315	0.0164687
700.393	0.0165178
700.471	0.0165043
700.549	0.0165173
700.628	0.0165278
700.706	0.0163596
700.784	0.0164910
700.862	0.0165237
700.940	0.0164837
701.018	0.0164495
701.096	0.0165498
701.174	0.0164204
701.253	0.0163833
701.331	0.0164023
701.409	0.0164827
701.487	0.0164470
701.565	0.0165936
701.643	0.0164045
701.721	0.0165611
701.799	0.0164512
701.878	0.0164396
701.956	0.0166002
702.034	0.0165309
702.112	0.0165475
702.190	0.0165379
702.268	0.0165578
702.346	0.0164603
702.424	0.0166529
702.503	0.0165768
702.581	0.0166634
702.659	0.0164513
702.737	0.0164867
702.815	0.0164629
702.893	0.0164746
702.971	0.0164544
703.049	0.0165822
703.128	0.0165135
703.206	0.0165347
703.284	0.0165763
703.362	0.0165853
703.440	0.0165646
703.518	0.0164581
703.596	0.0164232
703.674	0.0165976
703.753	0.0164957
703.831	0.0165449
703.909	0.0163831
703.987	0.0166099
704.065	0.0164293
704.143	0.0164967
704.221	0.0165203
704.299	0.0164614
704.378	0.0164211
704.456	0.0164268
704.534	0.0163949
704.612	0.0165012
704.690	0.0164930
704.768	0.0164721
704.846	0.0164691
704.924	0.0164413
705.003	0.0163969
705.081	0.0163673
705.159	0.0164971
705.237	0.0165121
705.315	0.0164899
705.393	0.0165055
705.471	0.0163535
705.549	0.0164330
705.628	0.0165154
705.706	0.0164571
705.784	0.0165519
705.862	0.0163857
705.940	0.0164038
706.018	0.0164965
706.096	0.0164997
706.174	0.0163273
706.253	0.0162692
706.331	0.0164034
706.409	0.0164286
706.487	0.0165804
706.565	0.0164535
706.643	0.0162671
706.721	0.0164644
706.799	0.0165618
706.878	0.0163982
706.956	0.0163828
707.034	0.0165382
707.112	0.0163425
707.190	0.0164260
707.268	0.0165449
707.346	0.0164801
707.424	0.0163110
707.503	0.0163911
707.581	0.0163319
707.659	0.0164169
707.737	0.0165148
707.815	0.0165074
707.893	0.0163414
707.971	0.0163210
708.049	0.0163557
708.128	0.0165662
708.206	0.0163885
708.284	0.0165064
708.362	0.0164124
708.440	0.0164854
708.518	0.0165089
708.596	0.0162789
708.674	0.0164523
708.753	0.0165356
708.831	0.0164417
708.909	0.0165055
708.987	0.0164336
709.065	0.0163090
709.143	0.0164003
709.221	0.0166063
709.299	0.0164146
709.378	0.0163435
709.456	0.0163386
709.534	0.0164195
709.612	0.0164330
709.690	0.0164403
709.768	0.0163719
709.846	0.0163979
709.924	0.0164280
710.003	0.0163233
710.081	0.0163345
710.159	0.0164664
710.237	0.0164560
710.315	0.0164751
710.393	0.0164325
710.471	0.0164199
710.549	0.0164359
710.628	0.0164462
710.706	0.0164320
710.784	0.0164487
710.862	0.0164394
710.940	0.0164998
711.018	0.0164767
711.096	0.0164583
711.174	0.0165369
711.253	0.0164606
711.331	0.0164326
711.409	0.0164391
711.487	0.0165404
711.565	0.0165039
711.643	0.0165443
711.721	0.0165350
711.799	0.0164796
711.878	0.0163692
711.956	0.0165788
712.034	0.0163744
712.112	0.0164855
712.190	0.0164887
712.268	0.0164981
712.346	0.0164603
712.424	0.0164455
712.503	0.0164990
712.581	0.0165139
712.659	0.0164870
712.737	0.0166197
712.815	0.0165681
712.893	0.0165917
712.971	0.0165630
713.049	0.0164693
713.128	0.0165401
713.206	0.0166846
713.284	0.0164931
713.362	0.0164154
713.440	0.0165742
713.518	0.0165563
713.596	0.0165258
713.674	0.0164073
713.753	0.0164525
713.831	0.0164088
713.909	0.0165101
713.987	0.0164613
714.065	0.0164996
714.143	0.0164549
714.221	0.0165552
714.299	0.0164403
714.378	0.0164018
714.456	0.0164732
714.534	0.0164484
714.612	0.0165019
714.690	0.0164637
714.768	0.0163847
714.846	0.0164976
714.924	0.0162811
715.003	0.0164933
715.081	0.0164137
715.159	0.0165089
715.237	0.0164980
715.315	0.0163990
715.393	0.0164037
715.471	0.0164194
715.549	0.0163552
715.628	0.0163548
715.706	0.0162795
715.784	0.0164401
715.862	0.0164027
715.940	0.0163705
716.018	0.0164800
716.096	0.0164832
716.174	0.0164963
716.253	0.0164402
716.331	0.0164362
716.409	0.0164935
716.487	0.0166196
716.565	0.0166391
716.643	0.0167823
716.721	0.0167754
716.799	0.0167814
716.878	0.0168512
716.956	0.0166693
717.034	0.0168365
717.112	0.0167860
717.190	0.0168042
717.268	0.0167834
717.346	0.0166221
717.424	0.0165844
717.503	0.0165255
717.581	0.0164457
717.659	0.0164743
717.737	0.0163464
717.815	0.0162913
717.893	0.0162934
717.971	0.0161751
718.049	0.0160722
718.128	0.0159568
718.206	0.0161893
718.284	0.0160406
718.362	0.0160676
718.440	0.0161163
718.518	0.0161943
718.596	0.0163676
718.674	0.0163522
718.753	0.0163941
718.831	0.0166042
718.909	0.0166574
718.987	0.0167445
719.065	0.0167432
719.143	0.0167668
719.221	0.0167436
719.299	0.0166607
719.378	0.0167197
719.456	0.0166618
719.534	0.0165635
719.612	0.0165327
719.690	0.0163756
719.768	0.0164015
719.846	0.0161736
719.924	0.0161523
720.003	0.0161755
720.081	0.0161980
720.159	0.0160578
720.237	0.0160300
720.315	0.0160802
720.393	0.0161712
720.471	0.0162959
720.549	0.0163317
720.628	0.0165369
720.706	0.0166049
720.784	0.0166254
720.862	0.0168060
720.940	0.0169691
721.018	0.0170509
721.096	0.0170126
721.174	0.0170862
721.253	0.0170159
721.331	0.0171211
721.409	0.0168889
721.487	0.0169427
721.565	0.0167643
721.643	0.0167144
721.721	0.0166633
721.799	0.0164199
721.878	0.0161940
721.956	0.0161774
722.034	0.0160660
722.112	0.0159396
722.190	0.0158147
722.268	0.0158633
722.346	0.0157363
722.424	0.0158450
722.503	0.0157799
722.581	0.0157429
722.659	0.0159552
722.737	0.0161093
722.815	0.0161445
722.893	0.0162749
722.971	0.0163966
723.049	0.0165491
723.128	0.0166840
723.206	0.0169115
723.284	0.0170280
723.362	0.0171593
723.440	0.0171792
723.518	0.0171143
723.596	0.0172710
723.674	0.0172831
723.753	0.0172746
723.831	0.0171226
723.909	0.0171166
723.987	0.0169662
724.065	0.0169650
724.143	0.0168343
724.221	0.0165918
724.299	0.0165081
724.378	0.0163274
724.456	0.0159990
724.534	0.0159175
724.612	0.0158408
724.690	0.0157042
724.768	0.0156416
724.846	0.0157122
724.924	0.0156620
725.003	0.0156889
725.081	0.0159313
725.159	0.0161221
725.237	0.0161921
725.315	0.0163299
725.393	0.0165171
725.471	0.0164659
725.549	0.0166711
725.628	0.0167764
725.706	0.0168992
725.784	0.0168632
725.862	0.0169823
725.940	0.0170923
726.018	0.0168594
726.096	0.0169029
726.174	0.0167739
726.253	0.0168781
726.331	0.0166259
726.409	0.0165585
726.487	0.0165381
726.565	0.0164738
726.643	0.0162685
726.721	0.0163881
726.799	0.0164081
726.878	0.0163522
726.956	0.0162292
727.034	0.0163680
727.112	0.0165769
727.190	0.0164503
727.268	0.0166087
727.346	0.0165261
727.424	0.0166332
727.503	0.0164430
727.581	0.0164998
727.659	0.0164328
727.737	0.0163901
727.815	0.0162892
727.893	0.0163344
727.971	0.0161366
728.049	0.0162064
728.128	0.0160928
728.206	0.0160171
728.284	0.0159704
728.362	0.0161427
728.440	0.0161686
728.518	0.0161621
728.596	0.0160750
728.674	0.0162749
728.753	0.0164426
728.831	0.0163715
728.909	0.0163681
728.987	0.0165223
729.065	0.0165438
729.143	0.0166936
729.221	0.0165384
729.299	0.0165712
729.378	0.0166388
729.456	0.0165441
729.534	0.0164506
729.612	0.0166602
729.690	0.0164245
729.768	0.0163546
729.846	0.0164725
729.924	0.0165005
730.003	0.0162219
730.081	0.0163272
730.159	0.0162688
730.237	0.0163960
730.315	0.0164599
730.393	0.0164368
730.471	0.0166128
730.549	0.0166742
730.628	0.0166991
730.706	0.0166811
730.784	0.0167805
730.862	0.0168328
730.940	0.0168818
731.018	0.0169703
731.096	0.0168117
731.174	0.0167330
731.253	0.0167899
731.331	0.0167080
731.409	0.0166254
731.487	0.0165145
731.565	0.0164106
731.643	0.0163699
731.721	0.0161446
731.799	0.0161520
731.878	0.0161653
731.956	0.0161460
732.034	0.0161364
732.112	0.0160572
732.190	0.0162218
732.268	0.0161777
732.346	0.0162320
732.424	0.0162807
732.503	0.0163829
732.581	0.0162796
732.659	0.0164565
732.737	0.0163886
732.815	0.0165236
732.893	0.0165342
732.971	0.0164948
733.049	0.0163567
733.128	0.0164856
733.206	0.0164809
733.284	0.0164440
733.362	0.0163647
733.440	0.0162048
733.518	0.0163262
733.596	0.0162592
733.674	0.0163435
733.753	0.0161695
733.831	0.0163120
733.909	0.0162729
733.987	0.0162042
734.065	0.0160975
734.143	0.0162754
734.221	0.0165108
734.299	0.0163617
734.378	0.0163342
734.456	0.0164277
734.534	0.0164614
734.612	0.0165173
734.690	0.0166105
734.768	0.0166439
734.846	0.0168295
734.924	0.0165922
735.003	0.0166639
735.081	0.0167159
735.159	0.0167681
735.237	0.0167963
735.315	0.0166932
735.393	0.0166264
735.471	0.0167367
735.549	0.0166197
735.628	0.0167423
735.706	0.0167809
735.784	0.0165512
735.862	0.0166730
735.940	0.0166098
736.018	0.0166056
736.096	0.0164085
736.174	0.0164788
736.253	0.0164167
736.331	0.0163094
736.409	0.0162539
736.487	0.0161616
736.565	0.0162477
736.643	0.0161635
736.721	0.0160723
736.799	0.0161935
736.878	0.0160316
736.956	0.0161361
737.034	0.0161954
737.112	0.0162480
737.190	0.0162634
737.268	0.0162017
737.346	0.0164082
737.424	0.0162955
737.503	0.0164487
737.581	0.0164541
737.659	0.0164977
737.737	0.0166132
737.815	0.0165599
737.893	0.0165098
737.971	0.0165760
738.049	0.0164822
738.128	0.0166650
738.206	0.0164654
738.284	0.0165949
738.362	0.0164908
738.440	0.0163106
738.518	0.0163256
738.596	0.0165932
738.674	0.0164876
738.753	0.0163242
738.831	0.0163938
738.909	0.0164871
738.987	0.0163768
739.065	0.0164892
739.143	0.0165160
739.221	0.0166948
739.299	0.0165971
739.378	0.0166135
739.456	0.0168032
739.534	0.0167448
739.612	0.0167040
739.690	0.0166672
739.768	0.0167706
739.846	0.0167357
739.924	0.0167120
740.003	0.0166467
740.081	0.0165944
740.159	0.0164712
740.237	0.0165144
740.315	0.0163793
740.393	0.0163721
740.471	0.0163110
740.549	0.0163784
740.628	0.0164635
740.706	0.0163637
740.784	0.0164223
740.862	0.0163553
740.940	0.0165013
741.018	0.0163975
741.096	0.0165334
741.174	0.0163685
741.253	0.0164658
741.331	0.0164307
741.409	0.0165330
741.487	0.0163944
741.565	0.0163570
741.643	0.0162627
741.721	0.0163696
741.799	0.0163963
741.878	0.0164481
741.956	0.0163147
742.034	0.0163383
742.112	0.0163829
742.190	0.0164030
742.268	0.0163412
742.346	0.0163525
742.424	0.0163814
742.503	0.0165752
742.581	0.0163518
742.659	0.0164465
742.737	0.0165421
742.815	0.0164308
742.893	0.0165831
742.971	0.0165196
743.049	0.0164345
743.128	0.0164586
743.206	0.0163998
743.284	0.0162942
743.362	0.0164351
743.440	0.0162608
743.518	0.0161288
743.596	0.0161983
743.674	0.0162680
743.753	0.0163367
743.831	0.0163016
743.909	0.0163628
743.987	0.0165022
744.065	0.0162960
744.143	0.0163950
744.221	0.0165633
744.299	0.0164959
744.378	0.0165759
744.456	0.0164101
744.534	0.0166674
744.612	0.0167516
744.690	0.0166239
744.768	0.0167030
744.846	0.0165171
744.924	0.0166311
745.003	0.0165506
745.081	0.0164288
745.159	0.0165804
745.237	0.0165832
745.315	0.0163817
745.393	0.0162757
745.471	0.0163797
745.549	0.0162981
745.628	0.0162550
745.706	0.0162995
745.784	0.0163551
745.862	0.0162923
745.940	0.0163004
746.018	0.0162025
746.096	0.0163643
746.174	0.0163215
746.253	0.0163806
746.331	0.0164900
746.409	0.0167226
746.487	0.0165733
746.565	0.0166590
746.643	0.0167108
746.721	0.0167270
746.799	0.0167458
746.878	0.0166741
746.956	0.0167558
747.034	0.0168607
747.112	0.0167234
747.190	0.0166975
747.268	0.0166578
747.346	0.0164351
747.424	0.0162855
747.503	0.0163043
747.581	0.0164355
747.659	0.0162154
747.737	0.0161685
747.815	0.0161856
747.893	0.0162193
747.971	0.0163723
748.049	0.0163757
748.128	0.0162881
748.206	0.0164165
748.284	0.0164014
748.362	0.0164316
748.440	0.0164496
748.518	0.0163702
748.596	0.0164533
748.674	0.0165326
748.753	0.0166171
748.831	0.0166025
748.909	0.0165540
748.987	0.0164778
749.065	0.0165176
749.143	0.0165288
749.221	0.0164820
749.299	0.0163904
749.378	0.0164450
749.456	0.0165054
749.534	0.0164252
749.612	0.0164269
749.690	0.0163286
749.768	0.0163425
749.846	0.0162605
749.924	0.0162877
750.003	0.0163122
750.081	0.0162886
750.159	0.0163561
750.237	0.0163647
750.315	0.0162612
750.393	0.0164383
750.471	0.0164384
750.549	0.0163318
750.628	0.0164736
750.706	0.0165018
750.784	0.0165173
750.862	0.0164581
750.940	0.0165498
751.018	0.0163953
751.096	0.0163636
751.174	0.0164026
751.253	0.0163521
751.331	0.0164014
751.409	0.0163545
751.487	0.0165153
751.565	0.0162178
751.643	0.0165059
751.721	0.0164861
751.799	0.0164197
751.878	0.0162777
751.956	0.0164075
752.034	0.0163184
752.112	0.0164531
752.190	0.0165495
752.268	0.0166010
752.346	0.0165893
752.424	0.0165995
752.503	0.0166582
752.581	0.0166137
752.659	0.0166541
752.737	0.0166356
752.815	0.0165789
752.893	0.0166401
752.971	0.0165617
753.049	0.0166167
753.128	0.0165367
753.206	0.0165136
753.284	0.0165559
753.362	0.0166214
753.440	0.0164993
753.518	0.0165233
753.596	0.0163649
753.674	0.0164100
753.753	0.0164459
753.831	0.0162306
753.909	0.0164322
753.987	0.0162682
754.065	0.0164233
754.143	0.0165004
754.221	0.0166357
754.299	0.0164453
754.378	0.0164389
754.456	0.0165341
754.534	0.0166460
754.612	0.0165327
754.690	0.0166298
754.768	0.0167149
754.846	0.0167934
754.924	0.0165376
755.003	0.0164748
755.081	0.0165376
755.159	0.0165429
755.237	0.0165805
755.315	0.0165435
755.393	0.0165007
755.471	0.0164613
755.549	0.0164381
755.628	0.0163696
755.706	0.0164545
755.784	0.0164317
755.862	0.0164680
755.940	0.0165282
756.018	0.0163544
756.096	0.0165431
756.174	0.0164402
756.253	0.0164355
756.331	0.0163354
756.409	0.0164649
756.487	0.0164517
756.565	0.0164932
756.643	0.0164805
756.721	0.0166345
756.799	0.0166831
756.878	0.0164083
756.956	0.0164847
757.034	0.0166036
757.112	0.0163335
757.190	0.0164590
757.268	0.0164911
757.346	0.0162713
757.424	0.0164155
757.503	0.0164405
757.581	0.0163364
757.659	0.0164011
757.737	0.0164322
757.815	0.0164441
757.893	0.0164060
757.971	0.0164581
758.049	0.0164622
758.128	0.0163586
758.206	0.0165258
758.284	0.0166536
758.362	0.0165015
758.440	0.0164323
758.518	0.0164082
758.596	0.0164766
758.674	0.0164218
758.753	0.0164874
758.831	0.0164577
758.909	0.0163846
758.987	0.0163037
759.065	0.0163358
759.143	0.0163680
759.221	0.0162167
759.299	0.0162839
759.378	0.0163811
759.456	0.0161589
759.534	0.0163474
759.612	0.0162154
759.690	0.0162373
759.768	0.0164103
759.846	0.0164319
759.924	0.0164690
760.003	0.0166145
760.081	0.0166829
760.159	0.0164458
760.237	0.0165594
760.315	0.0166841
760.393	0.0165845
760.471	0.0167023
760.549	0.0168149
760.628	0.0165730
760.706	0.0167880
760.784	0.0165576
760.862	0.0165636
760.940	0.0164346
761.018	0.0164577
761.096	0.0163940
761.174	0.0163728
761.253	0.0163088
761.331	0.0164191
761.409	0.0163117
761.487	0.0162132
761.565	0.0163184
761.643	0.0162186
761.721	0.0162708
761.799	0.0163469
761.878	0.0163253
761.956	0.0162739
762.034	0.0163618
762.112	0.0164851
762.190	0.0164233
762.268	0.0164798
762.346	0.0165199
762.424	0.0163976
762.503	0.0164358
762.581	0.0165322
762.659	0.0165316
762.737	0.0165534
762.815	0.0165154
762.893	0.0165133
762.971	0.0164493
763.049	0.0165707
763.128	0.0165227
763.206	0.0163439
763.284	0.0165781
763.362	0.0164902
763.440	0.0164203
763.518	0.0166369
763.596	0.0167964
763.674	0.0167120
763.753	0.0165786
763.831	0.0167014
763.909	0.0167661
763.987	0.0166506
764.065	0.0166550
764.143	0.0166545
764.221	0.0166331
764.299	0.0165045
764.378	0.0165936
764.456	0.0165269
764.534	0.0163616
764.612	0.0162199
764.690	0.0164400
764.768	0.0163942
764.846	0.0163039
764.924	0.0163858
765.003	0.0163935
765.081	0.0163831
765.159	0.0162881
765.237	0.0163377
765.315	0.0162605
765.393	0.0164275
765.471	0.0166168
765.549	0.0164476
765.628	0.0164796
765.706	0.0165524
765.784	0.0165467
765.862	0.0166113
765.940	0.0165691
766.018	0.0167426
766.096	0.0165691
766.174	0.0165282
766.253	0.0165578
766.331	0.0165421
766.409	0.0164342
766.487	0.0165731
766.565	0.0164906
766.643	0.0165488
766.721	0.0164492
766.799	0.0164720
766.878	0.0164435
766.956	0.0163332
767.034	0.0164559
767.112	0.0164655
767.190	0.0163808
767.268	0.0164117
767.346	0.0164642
767.424	0.0164028
767.503	0.0165983
767.581	0.0165996
767.659	0.0164544
767.737	0.0166309
767.815	0.0166445
767.893	0.0165857
767.971	0.0166746
768.049	0.0166795
768.128	0.0166568
768.206	0.0165129
768.284	0.0166016
768.362	0.0165211
768.440	0.0165305
768.518	0.0164814
768.596	0.0163052
768.674	0.0164390
768.753	0.0162476
768.831	0.0163383
768.909	0.0163161
768.987	0.0163377
769.065	0.0164397
769.143	0.0165031
769.221	0.0164639
769.299	0.0163931
769.378	0.0165484
769.456	0.0164585
769.534	0.0165450
769.612	0.0165104
769.690	0.0166769
769.768	0.0166841
769.846	0.0165711
769.924	0.0164579
770.003	0.0164749
770.081	0.0165610
770.159	0.0163924
770.237	0.0164429
770.315	0.0164066
770.393	0.0164703
770.471	0.0165118
770.549	0.0163729
770.628	0.0164050
770.706	0.0163555
770.784	0.0164484
770.862	0.0165231
770.940	0.0165097
771.018	0.0164465
771.096	0.0164850
771.174	0.0165117
771.253	0.0166157
771.331	0.0165826
771.409	0.0165997
771.487	0.0164771
771.565	0.0165363
771.643	0.0165923
771.721	0.0166557
771.799	0.0165221
771.878	0.0165104
771.956	0.0165070
772.034	0.0166285
772.112	0.0164935
772.190	0.0165197
772.268	0.0164545
772.346	0.0163933
772.424	0.0164783
772.503	0.0163949
772.581	0.0163260
772.659	0.0165727
772.737	0.0164808
772.815	0.0164534
772.893	0.0164765
772.971	0.0164397
773.049	0.0163497
773.128	0.0164149
773.206	0.0163913
773.284	0.0163185
773.362	0.0163364
773.440	0.0163797
773.518	0.0163516
773.596	0.0163726
773.674	0.0164346
773.753	0.0162590
773.831	0.0161313
773.909	0.0163937
773.987	0.0163306
774.065	0.0161954
774.143	0.0161945
774.221	0.0162758
774.299	0.0164059
774.378	0.0163123
774.456	0.0163274
774.534	0.0162829
774.612	0.0165298
774.690	0.0165546
774.768	0.0165117
774.846	0.0164644
774.924	0.0166298
775.003	0.0165663
775.081	0.0166986
775.159	0.0166654
775.237	0.0167107
775.315	0.0166768
775.393	0.0165516
775.471	0.0166161
775.549	0.0167174
775.628	0.0166856
775.706	0.0165182
775.784	0.0165726
775.862	0.0166586
775.940	0.0166068
776.018	0.0164495
776.096	0.0164242
776.174	0.0163847
776.253	0.0164753
776.331	0.0164561
776.409	0.0164279
776.487	0.0163720
776.565	0.0164675
776.643	0.0163560
776.721	0.0164182
776.799	0.0162778
776.878	0.0162642
776.956	0.0163890
777.034	0.0163820
777.112	0.0163709
777.190	0.0164123
777.268	0.0163599
777.346	0.0163223
777.424	0.0163866
777.503	0.0163176
777.581	0.0164416
777.659	0.0163629
777.737	0.0166058
777.815	0.0164914
777.893	0.0163308
777.971	0.0163453
778.049	0.0164359
778.128	0.0165803
778.206	0.0163858
778.284	0.0164444
778.362	0.0166353
778.440	0.0165530
778.518	0.0164279
778.596	0.0165036
778.674	0.0164832
778.753	0.0165316
778.831	0.0165055
778.909	0.0165410
778.987	0.0164240
779.065	0.0164990
779.143	0.0165402
779.221	0.0163495
779.299	0.0165774
779.378	0.0165384
779.456	0.0165147
779.534	0.0165720
779.612	0.0166264
779.690	0.0166483
779.768	0.0165668
779.846	0.0165384
779.924	0.0165269
780.003	0.0166599
780.081	0.0166954
780.159	0.0167020
780.237	0.0167635
780.315	0.0167010
780.393	0.0167944
780.471	0.0166199
780.549	0.0167345
780.628	0.0166798
780.706	0.0164335
780.784	0.0166029
780.862	0.0165309
780.940	0.0164568
781.018	0.0164056
781.096	0.0162514
781.174	0.0163375
781.253	0.0162745
781.331	0.0162486
781.409	0.0161090
781.487	0.0161115
781.565	0.0161438
781.643	0.0162006
781.721	0.0162513
781.799	0.0162636
781.878	0.0163738
781.956	0.0162872
782.034	0.0163470
782.112	0.0163313
782.190	0.0162759
782.268	0.0163097
782.346	0.0164948
782.424	0.0165710
782.503	0.0164781
782.581	0.0165305
782.659	0.0166397
782.737	0.0166302
782.815	0.0166286
782.893	0.0165921
782.971	0.0165730
783.049	0.0166196
783.128	0.0166027
783.206	0.0165176
783.284	0.0166375
783.362	0.0166593
783.440	0.0165611
783.518	0.0164328
783.596	0.0165772
783.674	0.0165395
783.753	0.0164072
783.831	0.0164497
783.909	0.0165552
783.987	0.0165134
784.065	0.0165724
784.143	0.0166187
784.221	0.0165829
784.299	0.0166428
784.378	0.0166290
784.456	0.0166228
784.534	0.0165473
784.612	0.0165369
784.690	0.0166080
784.768	0.0166473
784.846	0.0166404
784.924	0.0165217
785.003	0.0164606
785.081	0.0164542
785.159	0.0163927
785.237	0.0164551
785.315	0.0162331
785.393	0.0163174
785.471	0.0162974
785.549	0.0163514
785.628	0.0163190
785.706	0.0162500
785.784	0.0161513
785.862	0.0161639
785.940	0.0164333
786.018	0.0162544
786.096	0.0162799
786.174	0.0163786
786.253	0.0164589
786.331	0.0165231
786.409	0.0165838
786.487	0.0165321
786.565	0.0163935
786.643	0.0163032
786.721	0.0165627
786.799	0.0166383
786.878	0.0165656
786.956	0.0163874
787.034	0.0164312
787.112	0.0165871
787.190	0.0164851
787.268	0.0164119
787.346	0.0165149
787.424	0.0163966
787.503	0.0164321
787.581	0.0164340
787.659	0.0163136
787.737	0.0164508
787.815	0.0165587
787.893	0.0164929
787.971	0.0163818
788.049	0.0165073
788.128	0.0166016
788.206	0.0164151
788.284	0.0165300
788.362	0.0164918
788.440	0.0165112
788.518	0.0165595
788.596	0.0164548
788.674	0.0164276
788.753	0.0164866
788.831	0.0164948
788.909	0.0164573
788.987	0.0165149
789.065	0.0165911
789.143	0.0165131
789.221	0.0163895
789.299	0.0165779
789.378	0.0163570
789.456	0.0163702
789.534	0.0164708
789.612	0.0165891
789.690	0.0165287
789.768	0.0164599
789.846	0.0165012
789.924	0.0165214
790.003	0.0165198
790.081	0.0165184
790.159	0.0166571
790.237	0.0164368
790.315	0.0164500
790.393	0.0164616
790.471	0.0164059
790.549	0.0164506
790.628	0.0164407
790.706	0.0162505
790.784	0.0162910
790.862	0.0163844
790.940	0.0164089
791.018	0.0163476
791.096	0.0163192
791.174	0.0162819
791.253	0.0165078
791.331	0.0163551
791.409	0.0164120
791.487	0.0164235
791.565	0.0165401
791.643	0.0164139
791.721	0.0165821
791.799	0.0165817
791.878	0.0165572
791.956	0.0165331
792.034	0.0165771
792.112	0.0165321
792.190	0.0165897
792.268	0.0166022
792.346	0.0165059
792.424	0.0166022
792.503	0.0165951
792.581	0.0165819
792.659	0.0165098
792.737	0.0164565
792.815	0.0164584
792.893	0.0164289
792.971	0.0165629
793.049	0.0165317
793.128	0.0164129
793.206	0.0165108
793.284	0.0165003
793.362	0.0164510
793.440	0.0164493
793.518	0.0164939
793.596	0.0164219
793.674	0.0164253
793.753	0.0164178
793.831	0.0164236
793.909	0.0164261
793.987	0.0163417
794.065	0.0163503
794.143	0.0164651
794.221	0.0165130
794.299	0.0165192
794.378	0.0165013
794.456	0.0162022
794.534	0.0163299
794.612	0.0163869
794.690	0.0164590
794.768	0.0163866
794.846	0.0165018
794.924	0.0165369
795.003	0.0164137
795.081	0.0164037
795.159	0.0164954
795.237	0.0165196
795.315	0.0165151
795.393	0.0165428
795.471	0.0164455
795.549	0.0164716
795.628	0.0165029
795.706	0.0164537
795.784	0.0165264
795.862	0.0164513
795.940	0.0164211
796.018	0.0165015
796.096	0.0163956
796.174	0.0164127
796.253	0.0162507
796.331	0.0163272
796.409	0.0162693
796.487	0.0163145
796.565	0.0163755
796.643	0.0163246
796.721	0.0163448
796.799	0.0163371
796.878	0.0164885
796.956	0.0164661
797.034	0.0163361
797.112	0.0165402
797.190	0.0166051
797.268	0.0163988
797.346	0.0165788
797.424	0.0166919
797.503	0.0165233
797.581	0.0164390
797.659	0.0166121
797.737	0.0164928
797.815	0.0164913
797.893	0.0165899
797.971	0.0165952
798.049	0.0166206
798.128	0.0164896
798.206	0.0164438
798.284	0.0164732
798.362	0.0163394
798.440	0.0164256
798.518	0.0164806
798.596	0.0164095
798.674	0.0162797
798.753	0.0163907
798.831	0.0163313
798.909	0.0162296
798.987	0.0162627
799.065	0.0164719
799.143	0.0163685
799.221	0.0162718
799.299	0.0163364
799.378	0.0163165
799.456	0.0163072
799.534	0.0164403
799.612	0.0163254
799.690	0.0163470
799.768	0.0163418
799.846	0.0165373
799.924	0.0163834
800.003	0.0164638
800.081	0.0164469
800.159	0.0165099
800.237	0.0163934
800.315	0.0163728
800.393	0.0165340
800.471	0.0163760
800.549	0.0164927
800.628	0.0165664
800.706	0.0164275
800.784	0.0166128
800.862	0.0166071
800.940	0.0164541
801.018	0.0164336
801.096	0.0165632
801.174	0.0164722
801.253	0.0165080
801.331	0.0164754
801.409	0.0165234
801.487	0.0166214
801.565	0.0166301
801.643	0.0164919
801.721	0.0164186
801.799	0.0165077
801.878	0.0164553
801.956	0.0164191
802.034	0.0166247
802.112	0.0163262
802.190	0.0163165
802.268	0.0163264
802.346	0.0164862
802.424	0.0163847
802.503	0.0164629
802.581	0.0164473
802.659	0.0164006
802.737	0.0164995
802.815	0.0164046
802.893	0.0164008
802.971	0.0164040
803.049	0.0164543
803.128	0.0165794
803.206	0.0164960
803.284	0.0165324
803.362	0.0165108
803.440	0.0163863
803.518	0.0165037
803.596	0.0164342
803.674	0.0164825
803.753	0.0163228
803.831	0.0164953
803.909	0.0164680
803.987	0.0162749
804.065	0.0163628
804.143	0.0164186
804.221	0.0164059
804.299	0.0163560
804.378	0.0163532
804.456	0.0164181
804.534	0.0164970
804.612	0.0163743
804.690	0.0164851
804.768	0.0163217
804.846	0.0163147
804.924	0.0163910
805.003	0.0164732
805.081	0.0165340
805.159	0.0166099
805.237	0.0164971
805.315	0.0164298
805.393	0.0164350
805.471	0.0163507
805.549	0.0165527
805.628	0.0163140
805.706	0.0163147
805.784	0.0163811
805.862	0.0164175
805.940	0.0164377
806.018	0.0165999
806.096	0.0162482
806.174	0.0165029
806.253	0.0165320
806.331	0.0165367
806.409	0.0163886
806.487	0.0164541
806.565	0.0164822
806.643	0.0165749
806.721	0.0165442
806.799	0.0165090
806.878	0.0165036
806.956	0.0164870
807.034	0.0165769
807.112	0.0165508
807.190	0.0164948
807.268	0.0166396
807.346	0.0165570
807.424	0.0164636
807.503	0.0166199
807.581	0.0164481
807.659	0.0163738
807.737	0.0164984
807.815	0.0164978
807.893	0.0163946
807.971	0.0163258
808.049	0.0164218
808.128	0.0163920
808.206	0.0163586
808.284	0.0164057
808.362	0.0163078
808.440	0.0163949
808.518	0.0166235
808.596	0.0164908
808.674	0.0164532
808.753	0.0164619
808.831	0.0165443
808.909	0.0166351
808.987	0.0165511
809.065	0.0164355
809.143	0.0166834
809.221	0.0165926
809.299	0.0164403
809.378	0.0164520
809.456	0.0163743
809.534	0.0164175
809.612	0.0165277
809.690	0.0165641
809.768	0.0164662
809.846	0.0164588
809.924	0.0164455
810.003	0.0165153
810.081	0.0164286
810.159	0.0162119
810.237	0.0162544
810.315	0.0163736
810.393	0.0163686
810.471	0.0163273
810.549	0.0163741
810.628	0.0162276
810.706	0.0162689
810.784	0.0163598
810.862	0.0164145
810.940	0.0163345
811.018	0.0163136
811.096	0.0164149
811.174	0.0164335
811.253	0.0163615
811.331	0.0164278
811.409	0.0164785
811.487	0.0164933
811.565	0.0166162
811.643	0.0164435
811.721	0.0164259
811.799	0.0165973
811.878	0.0165588
811.956	0.0164497
812.034	0.0164307
812.112	0.0163928
812.190	0.0165760
812.268	0.0166743
812.346	0.0165168
812.424	0.0165559
812.503	0.0166397
812.581	0.0166620
812.659	0.0165093
812.737	0.0166750
812.815	0.0166211
812.893	0.0166447
812.971	0.0165395
813.049	0.0166204
813.128	0.0165153
813.206	0.0165890
813.284	0.0165389
813.362	0.0165115
813.440	0.0166772
813.518	0.0167129
813.596	0.0164550
813.674	0.0165996
813.753	0.0165576
813.831	0.0165364
813.909	0.0164776
813.987	0.0163856
814.065	0.0165712
814.143	0.0163674
814.221	0.0164139
814.299	0.0164484
814.378	0.0163863
814.456	0.0163622
814.534	0.0164206
814.612	0.0164209
814.690	0.0164969
814.768	0.0162057
814.846	0.0162891
814.924	0.0163677
815.003	0.0164650
815.081	0.0163860
815.159	0.0165424
815.237	0.0165120
815.315	0.0165379
815.393	0.0164748
815.471	0.0165598
815.549	0.0165675
815.628	0.0166116
815.706	0.0164852
815.784	0.0165726
815.862	0.0164732
815.940	0.0164475
816.018	0.0164368
816.096	0.0166982
816.174	0.0164073
816.253	0.0164233
816.331	0.0165142
816.409	0.0165137
816.487	0.0164622
816.565	0.0164202
816.643	0.0163493
816.721	0.0164075
816.799	0.0164709
816.878	0.0164608
816.956	0.0165676
817.034	0.0165731
817.112	0.0164947
817.190	0.0164028
817.268	0.0166492
817.346	0.0166038
817.424	0.0165065
817.503	0.0165491
817.581	0.0167156
817.659	0.0164911
817.737	0.0166719
817.815	0.0165800
817.893	0.0164636
817.971	0.0164692
818.049	0.0164621
818.128	0.0165229
818.206	0.0165054
818.284	0.0165226
818.362	0.0164076
818.440	0.0165553
818.518	0.0163586
818.596	0.0163480
818.674	0.0164418
818.753	0.0165568
818.831	0.0162994
818.909	0.0163111
818.987	0.0163551
819.065	0.0163738
819.143	0.0163866
819.221	0.0164205
819.299	0.0165354
819.378	0.0163974
819.456	0.0163358
819.534	0.0164682
819.612	0.0164356
819.690	0.0165452
819.768	0.0164041
819.846	0.0164345
819.924	0.0166380
820.003	0.0164970
820.081	0.0164799
820.159	0.0164240
820.237	0.0165591
820.315	0.0163888
820.393	0.0163345
820.471	0.0165338
820.549	0.0164777
820.628	0.0164993
820.706	0.0165204
820.784	0.0163615
820.862	0.0164501
820.940	0.0165249
821.018	0.0164921
821.096	0.0165900
821.174	0.0164806
821.253	0.0164946
821.331	0.0164833
821.409	0.0165617
821.487	0.0165112
821.565	0.0164640
821.643	0.0165053
821.721	0.0164284
821.799	0.0164536
821.878	0.0165350
821.956	0.0165361
822.034	0.0165244
822.112	0.0164884
822.190	0.0164251
822.268	0.0164608
822.346	0.0164018
822.424	0.0164424
822.503	0.0163819
822.581	0.0163970
822.659	0.0165228
822.737	0.0165173
822.815	0.0165623
822.893	0.0164566
822.971	0.0164877
823.049	0.0164650
823.128	0.0165153
823.206	0.0164823
823.284	0.0163667
823.362	0.0164224
823.440	0.0164318
823.518	0.0163196
823.596	0.0163712
823.674	0.0164283
823.753	0.0165231
823.831	0.0165082
823.909	0.0165708
823.987	0.0165055
824.065	0.0164687
824.143	0.0165888
824.221	0.0164938
824.299	0.0164021
824.378	0.0163334
824.456	0.0165289
824.534	0.0164255
824.612	0.0164395
824.690	0.0164905
824.768	0.0164813
824.846	0.0164618
824.924	0.0165932
825.003	0.0166470
825.081	0.0164751
825.159	0.0165844
825.237	0.0165679
825.315	0.0165079
825.393	0.0164065
825.471	0.0165297
825.549	0.0164881
825.628	0.0165732
825.706	0.0163499
825.784	0.0164224
825.862	0.0165190
825.940	0.0162440
826.018	0.0163217
826.096	0.0163792
826.174	0.0163963
826.253	0.0162966
826.331	0.0163514
826.409	0.0164379
826.487	0.0163900
826.565	0.0163045
826.643	0.0163412
826.721	0.0162389
826.799	0.0163669
826.878	0.0163391
826.956	0.0164025
827.034	0.0163667
827.112	0.0163354
827.190	0.0165657
827.268	0.0165134
827.346	0.0163986
827.424	0.0164279
827.503	0.0165254
827.581	0.0165588
827.659	0.0167403
827.737	0.0166998
827.815	0.0167202
827.893	0.0167513
827.971	0.0165914
828.049	0.0167173
828.128	0.0165971
828.206	0.0165815
828.284	0.0164886
828.362	0.0167868
828.440	0.0165760
828.518	0.0164577
828.596	0.0164946
828.674	0.0165266
828.753	0.0165791
828.831	0.0164293
828.909	0.0164893
828.987	0.0164879
829.065	0.0166080
829.143	0.0162994
829.221	0.0163083
829.299	0.0164680
829.378	0.0163403
829.456	0.0164057
829.534	0.0164287
829.612	0.0163292
829.690	0.0162065
829.768	0.0163865
829.846	0.0164041
829.924	0.0163740
830.003	0.0163560
830.081	0.0163644
830.159	0.0165472
830.237	0.0164764
830.315	0.0163902
830.393	0.0164056
830.471	0.0164031
830.549	0.0164413
830.628	0.0164372
830.706	0.0164299
830.784	0.0166162
830.862	0.0163480
830.940	0.0164655
831.018	0.0164639
831.096	0.0164739
831.174	0.0163614
831.253	0.0165219
831.331	0.0164430
831.409	0.0164273
831.487	0.0165386
831.565	0.0164440
831.643	0.0164804
831.721	0.0165526
831.799	0.0165558
831.878	0.0166270
831.956	0.0166783
832.034	0.0165786
832.112	0.0166315
832.190	0.0166476
832.268	0.0165587
832.346	0.0165779
832.424	0.0165329
832.503	0.0166546
832.581	0.0166372
832.659	0.0165584
832.737	0.0165416
832.815	0.0164309
832.893	0.0164001
832.971	0.0163731
833.049	0.0164779
833.128	0.0164419
833.206	0.0163728
833.284	0.0163794
833.362	0.0164754
833.440	0.0164759
833.518	0.0162714
833.596	0.0163400
833.674	0.0164587
833.753	0.0162075
833.831	0.0163334
833.909	0.0164240
833.987	0.0163465
834.065	0.0164500
834.143	0.0164506
834.221	0.0164323
834.299	0.0163799
834.378	0.0164011
834.456	0.0164091
834.534	0.0165139
834.612	0.0165808
834.690	0.0164210
834.768	0.0164166
834.846	0.0163942
834.924	0.0164102
835.003	0.0163945
835.081	0.0164692
835.159	0.0164953
835.237	0.0164833
835.315	0.0164149
835.393	0.0165025
835.471	0.0164417
835.549	0.0165634
835.628	0.0165356
835.706	0.0164551
835.784	0.0165712
835.862	0.0166031
835.940	0.0165006
836.018	0.0164906
836.096	0.0166992
836.174	0.0166072
836.253	0.0165043
836.331	0.0166270
836.409	0.0166241
836.487	0.0166098
836.565	0.0165935
836.643	0.0165329
836.721	0.0165411
836.799	0.0165622
836.878	0.0165955
836.956	0.0165441
837.034	0.0166875
837.112	0.0165367
837.190	0.0165141
837.268	0.0164630
837.346	0.0164500
837.424	0.0165184
837.503	0.0164848
837.581	0.0163783
837.659	0.0163348
837.737	0.0164790
837.815	0.0163518
837.893	0.0164548
837.971	0.0164620
838.049	0.0163777
838.128	0.0163754
838.206	0.0162728
838.284	0.0162463
838.362	0.0163531
838.440	0.0163663
838.518	0.0163220
838.596	0.0162489
838.674	0.0162569
838.753	0.0163545
838.831	0.0163601
838.909	0.0162910
838.987	0.0162428
839.065	0.0163158
839.143	0.0162411
839.221	0.0163333
839.299	0.0162486
839.378	0.0163619
839.456	0.0164201
839.534	0.0163177
839.612	0.0164460
839.690	0.0164429
839.768	0.0164970
839.846	0.0164914
839.924	0.0164809
840.003	0.0164980
840.081	0.0165259
840.159	0.0164365
840.237	0.0165937
840.315	0.0165313
840.393	0.0166599
840.471	0.0165101
840.549	0.0165195
840.628	0.0166731
840.706	0.0166233
840.784	0.0165686
840.862	0.0166293
840.940	0.0166098
841.018	0.0164704
841.096	0.0166037
841.174	0.0165364
841.253	0.0165259
841.331	0.0165204
841.409	0.0163149
841.487	0.0165990
841.565	0.0165546
841.643	0.0164053
841.721	0.0164384
841.799	0.0164166
841.878	0.0165772
841.956	0.0164390
842.034	0.0164677
842.112	0.0163710
842.190	0.0162958
842.268	0.0163057
842.346	0.0163453
842.424	0.0163586
842.503	0.0163029
842.581	0.0162849
842.659	0.0161717
842.737	0.0163947
842.815	0.0163395
842.893	0.0162796
842.971	0.0162571
843.049	0.0164221
843.128	0.0164093
843.206	0.0163882
843.284	0.0163172
843.362	0.0164661
843.440	0.0164346
843.518	0.0166962
843.596	0.0166024
843.674	0.0166358
843.753	0.0165874
843.831	0.0167191
843.909	0.0165970
843.987	0.0164529
844.065	0.0166654
844.143	0.0166718
844.221	0.0166714
844.299	0.0166650
844.378	0.0166143
844.456	0.0165643
844.534	0.0166144
844.612	0.0165492
844.690	0.0164675
844.768	0.0166262
844.846	0.0166715
844.924	0.0164933
845.003	0.0163847
845.081	0.0165131
845.159	0.0164517
845.237	0.0164147
845.315	0.0163672
845.393	0.0166330
845.471	0.0165277
845.549	0.0163895
845.628	0.0164416
845.706	0.0164693
845.784	0.0164650
845.862	0.0163947
845.940	0.0165063
846.018	0.0164182
846.096	0.0164013
846.174	0.0163670
846.253	0.0163800
846.331	0.0164405
846.409	0.0164095
846.487	0.0163811
846.565	0.0164816
846.643	0.0162792
846.721	0.0165028
846.799	0.0164622
846.878	0.0163901
846.956	0.0164529
847.034	0.0163203
847.112	0.0164659
847.190	0.0164473
847.268	0.0164458
847.346	0.0163801
847.424	0.0164851
847.503	0.0164882
847.581	0.0164315
847.659	0.0165189
847.737	0.0165646
847.815	0.0165778
847.893	0.0165501
847.971	0.0166083
848.049	0.0165797
848.128	0.0164288
848.206	0.0164634
848.284	0.0165981
848.362	0.0165844
848.440	0.0165813
848.518	0.0165208
848.596	0.0165207
848.674	0.0164964
848.753	0.0164989
848.831	0.0164684
848.909	0.0165085
848.987	0.0164300
849.065	0.0164560
849.143	0.0164838
849.221	0.0165193
849.299	0.0165151
849.378	0.0163921
849.456	0.0165121
849.534	0.0163245
849.612	0.0164381
849.690	0.0164029
849.768	0.0165068
849.846	0.0164822
849.924	0.0163314
850.003	0.0163921
850.081	0.0164827
850.159	0.0164104
850.237	0.0164221
850.315	0.0163940
850.393	0.0165237
850.471	0.0165152
850.549	0.0164046
850.628	0.0164462
850.706	0.0165170
850.784	0.0164962
850.862	0.0165447
850.940	0.0164596
851.018	0.0163343
851.096	0.0164442
851.174	0.0163811
851.253	0.0164122
851.331	0.0163713
851.409	0.0165266
851.487	0.0163963
851.565	0.0163009
851.643	0.0163638
851.721	0.0162991
851.799	0.0164109
851.878	0.0165232
851.956	0.0164643
852.034	0.0163795
852.112	0.0165445
852.190	0.0164175
852.268	0.0164273
852.346	0.0164737
852.424	0.0164155
852.503	0.0163972
852.581	0.0164674
852.659	0.0163889
852.737	0.0165500
852.815	0.0164881
852.893	0.0165179
852.971	0.0164244
853.049	0.0165990
853.128	0.0165205
853.206	0.0166705
853.284	0.0165710
853.362	0.0168199
853.440	0.0167491
853.518	0.0166279
853.596	0.0166007
853.674	0.0166252
853.753	0.0166286
853.831	0.0165826
853.909	0.0165652
853.987	0.0165742
854.065	0.0166499
854.143	0.0165084
854.221	0.0164489
854.299	0.0166363
854.378	0.0165209
854.456	0.0164150
854.534	0.0163972
854.612	0.0163023
854.690	0.0163102
854.768	0.0163241
854.846	0.0162827
854.924	0.0163345
855.003	0.0162244
855.081	0.0163303
855.159	0.0163726
855.237	0.0162448
855.315	0.0162702
855.393	0.0163585
855.471	0.0164355
855.549	0.0163252
855.628	0.0163187
855.706	0.0164391
855.784	0.0164111
855.862	0.0163987
855.940	0.0163242
856.018	0.0164165
856.096	0.0163305
856.174	0.0164138
856.253	0.0164759
856.331	0.0166067
856.409	0.0165700
856.487	0.0166157
856.565	0.0164146
856.643	0.0164130
856.721	0.0165199
856.799	0.0167257
856.878	0.0168264
856.956	0.0164404
857.034	0.0164157
857.112	0.0166035
857.190	0.0167206
857.268	0.0166119
857.346	0.0164867
857.424	0.0166990
857.503	0.0166177
857.581	0.0165253
857.659	0.0164513
857.737	0.0166827
857.815	0.0165488
857.893	0.0165680
857.971	0.0165273
858.049	0.0163342
858.128	0.0164378
858.206	0.0164722
858.284	0.0164532
858.362	0.0164995
858.440	0.0166086
858.518	0.0165754
858.596	0.0164946
858.674	0.0164671
858.753	0.0165177
858.831	0.0165529
858.909	0.0164628
858.987	0.0165514
859.065	0.0165903
859.143	0.0165217
859.221	0.0163637
859.299	0.0164905
859.378	0.0165501
859.456	0.0165430
859.534	0.0164230
859.612	0.0165948
859.690	0.0165112
859.768	0.0165363
859.846	0.0165310
859.924	0.0164840
860.003	0.0165567
860.081	0.0164210
860.159	0.0164172
860.237	0.0164411
860.315	0.0163183
860.393	0.0164840
860.471	0.0164362
860.549	0.0163939
860.628	0.0162280
860.706	0.0164642
860.784	0.0164060
860.862	0.0164400
860.940	0.0164240
861.018	0.0163878
861.096	0.0163626
861.174	0.0163134
861.253	0.0162965
861.331	0.0164709
861.409	0.0164585
861.487	0.0164732
861.565	0.0162759
861.643	0.0164282
861.721	0.0165204
861.799	0.0165335
861.878	0.0165984
861.956	0.0166694
862.034	0.0166093
862.112	0.0165299
862.190	0.0165511
862.268	0.0164368
862.346	0.0165786
862.424	0.0165915
862.503	0.0164601
862.581	0.0166138
862.659	0.0164984
862.737	0.0165948
862.815	0.0165387
862.893	0.0164822
862.971	0.0165546
863.049	0.0164890
863.128	0.0164813
863.206	0.0163996
863.284	0.0163455
863.362	0.0163678
863.440	0.0163966
863.518	0.0164233
863.596	0.0164632
863.674	0.0163898
863.753	0.0162675
863.831	0.0164111
863.909	0.0164555
863.987	0.0163478
864.065	0.0163262
864.143	0.0163043
864.221	0.0163142
864.299	0.0162958
864.378	0.0164185
864.456	0.0162712
864.534	0.0163519
864.612	0.0163615
864.690	0.0163522
864.768	0.0162647
864.846	0.0163732
864.924	0.0164773
865.003	0.0165555
865.081	0.0164288
865.159	0.0165046
865.237	0.0164110
865.315	0.0166695
865.393	0.0165578
865.471	0.0164922
865.549	0.0165102
865.628	0.0164127
865.706	0.0163706
865.784	0.0164185
865.862	0.0165514
865.940	0.0164458
866.018	0.0163405
866.096	0.0164320
866.174	0.0164354
866.253	0.0164975
866.331	0.0163715
866.409	0.0163078
866.487	0.0163100
866.565	0.0164471
866.643	0.0163760
866.721	0.0164583
866.799	0.0164216
866.878	0.0164619
866.956	0.0164454
867.034	0.0164847
867.112	0.0166025
867.190	0.0165114
867.268	0.0165754
867.346	0.0165889
867.424	0.0164813
867.503	0.0164292
867.581	0.0164943
867.659	0.0165011
867.737	0.0164430
867.815	0.0165350
867.893	0.0165341
867.971	0.0164983
868.049	0.0164661
868.128	0.0164402
868.206	0.0165618
868.284	0.0165063
868.362	0.0165083
868.440	0.0165038
868.518	0.0164783
868.596	0.0163383
868.674	0.0163741
868.753	0.0163264
868.831	0.0164426
868.909	0.0162920
868.987	0.0162057
869.065	0.0163172
869.143	0.0162807
869.221	0.0163573
869.299	0.0163278
869.378	0.0163996
869.456	0.0162439
869.534	0.0164131
869.612	0.0163968
869.690	0.0162397
869.768	0.0163454
869.846	0.0164148
869.924	0.0163328
870.003	0.0163342
870.081	0.0164546
870.159	0.0164546
870.237	0.0164101
870.315	0.0164281
870.393	0.0164474
870.471	0.0165546
870.549	0.0164386
870.628	0.0163898
870.706	0.0164217
870.784	0.0164651
870.862	0.0165506
870.940	0.0165034
871.018	0.0165717
871.096	0.0163774
871.174	0.0164733
871.253	0.0165502
871.331	0.0166435
871.409	0.0165359
871.487	0.0166178
871.565	0.0167071
871.643	0.0165063
871.721	0.0166619
871.799	0.0164828
871.878	0.0164283
871.956	0.0165770
872.034	0.0166866
872.112	0.0166552
872.190	0.0166987
872.268	0.0165845
872.346	0.0166340
872.424	0.0166507
872.503	0.0164888
872.581	0.0164654
872.659	0.0165308
872.737	0.0165314
872.815	0.0164460
872.893	0.0163928
872.971	0.0164013
873.049	0.0164695
873.128	0.0164522
873.206	0.0164618
873.284	0.0165406
873.362	0.0165018
873.440	0.0164280
873.518	0.0164645
873.596	0.0165060
873.674	0.0163744
873.753	0.0164366
873.831	0.0164108
873.909	0.0164657
873.987	0.0164484
874.065	0.0163606
874.143	0.0162977
874.221	0.0163573
874.299	0.0164178
874.378	0.0162252
874.456	0.0162445
874.534	0.0163004
874.612	0.0165098
874.690	0.0163151
874.768	0.0162656
874.846	0.0162759
874.924	0.0161909
875.003	0.0162455
875.081	0.0164317
875.159	0.0163506
875.237	0.0163894
875.315	0.0162671
875.393	0.0163138
875.471	0.0164046
875.549	0.0163496
875.628	0.0163876
875.706	0.0164561
875.784	0.0163540
875.862	0.0165166
875.940	0.0164952
876.018	0.0164397
876.096	0.0164897
876.174	0.0164303
876.253	0.0164232
876.331	0.0164417
876.409	0.0164436
876.487	0.0164930
876.565	0.0165012
876.643	0.0165993
876.721	0.0166372
876.799	0.0164565
876.878	0.0165632
876.956	0.0165781
877.034	0.0165325
877.112	0.0166692
877.190	0.0165489
877.268	0.0165131
877.346	0.0165192
877.424	0.0165269
877.503	0.0164871
877.581	0.0164418
877.659	0.0164453
877.737	0.0165774
877.815	0.0163438
877.893	0.0164391
877.971	0.0163134
878.049	0.0163289
878.128	0.0164071
878.206	0.0164434
878.284	0.0163842
878.362	0.0163261
878.440	0.0164541
878.518	0.0163422
878.596	0.0165160
878.674	0.0163255
878.753	0.0162569
878.831	0.0165976
878.909	0.0164775
878.987	0.0164676
879.065	0.0164930
879.143	0.0165050
879.221	0.0164053
879.299	0.0165132
879.378	0.0164523
879.456	0.0164101
879.534	0.0165755
879.612	0.0164991
879.690	0.0165118
879.768	0.0164853
879.846	0.0164068
879.924	0.0164100
880.003	0.0163908
880.081	0.0163886
880.159	0.0165791
880.237	0.0164780
880.315	0.0164497
880.393	0.0163881
880.471	0.0163736
880.549	0.0162662
880.628	0.0164336
880.706	0.0163514
880.784	0.0164328
880.862	0.0164503
880.940	0.0164087
881.018	0.0164789
881.096	0.0164538
881.174	0.0165379
881.253	0.0165688
881.331	0.0166507
881.409	0.0164592
881.487	0.0163228
881.565	0.0164584
881.643	0.0164616
881.721	0.0164497
881.799	0.0164546
881.878	0.0164899
881.956	0.0165110
882.034	0.0164940
882.112	0.0163955
882.190	0.0165517
882.268	0.0165450
882.346	0.0165569
882.424	0.0165155
882.503	0.0165439
882.581	0.0165914
882.659	0.0165799
882.737	0.0166931
882.815	0.0167038
882.893	0.0166750
882.971	0.0166178
883.049	0.0165781
883.128	0.0166550
883.206	0.0166302
883.284	0.0164672
883.362	0.0164711
883.440	0.0165432
883.518	0.0165105
883.596	0.0164750
883.674	0.0165604
883.753	0.0163826
883.831	0.0165598
883.909	0.0163982
883.987	0.0163050
884.065	0.0163595
884.143	0.0163087
884.221	0.0163982
884.299	0.0162550
884.378	0.0163933
884.456	0.0162653
884.534	0.0162784
884.612	0.0163808
884.690	0.0163620
884.768	0.0163496
884.846	0.0163920
884.924	0.0165141
885.003	0.0164087
885.081	0.0164462
885.159	0.0165604
885.237	0.0164026
885.315	0.0164017
885.393	0.0163768
885.471	0.0164842
885.549	0.0165952
885.628	0.0164108
885.706	0.0164390
885.784	0.0165567
885.862	0.0165695
885.940	0.0164829
886.018	0.0165087
886.096	0.0164992
886.174	0.0164359
886.253	0.0164227
886.331	0.0163734
886.409	0.0165370
886.487	0.0165197
886.565	0.0165277
886.643	0.0165227
886.721	0.0165081
886.799	0.0165147
886.878	0.0166052
886.956	0.0165340
887.034	0.0164202
887.112	0.0164095
887.190	0.0164154
887.268	0.0165405
887.346	0.0162934
887.424	0.0164035
887.503	0.0163640
887.581	0.0164081
887.659	0.0164024
887.737	0.0164559
887.815	0.0163443
887.893	0.0163148
887.971	0.0163987
888.049	0.0166022
888.128	0.0165614
888.206	0.0163248
888.284	0.0165700
888.362	0.0164787
888.440	0.0164974
888.518	0.0165294
888.596	0.0166010
888.674	0.0163177
888.753	0.0164211
888.831	0.0165121
888.909	0.0165762
888.987	0.0166281
889.065	0.0165260
889.143	0.0166220
889.221	0.0166083
889.299	0.0165487
889.378	0.0165818
889.456	0.0164770
889.534	0.0165519
889.612	0.0167191
889.690	0.0165395
889.768	0.0165791
889.846	0.0164723
889.924	0.0164489
890.003	0.0164954
890.081	0.0164187
890.159	0.0164423
890.237	0.0163454
890.315	0.0163458
890.393	0.0163326
890.471	0.0163348
890.549	0.0163587
890.628	0.0165000
890.706	0.0163592
890.784	0.0163922
890.862	0.0164115
890.940	0.0163186
891.018	0.0162643
891.096	0.0163738
891.174	0.0164381
891.253	0.0162577
891.331	0.0163027
891.409	0.0163840
891.487	0.0164217
891.565	0.0164787
891.643	0.0164819
891.721	0.0165099
891.799	0.0165170
891.878	0.0165398
891.956	0.0165011
892.034	0.0163584
892.112	0.0165444
892.190	0.0164117
892.268	0.0165985
892.346	0.0164913
892.424	0.0163139
892.503	0.0164384
892.581	0.0166418
892.659	0.0164754
892.737	0.0165248
892.815	0.0165687
892.893	0.0164992
892.971	0.0165553
893.049	0.0164216
893.128	0.0165825
893.206	0.0165713
893.284	0.0164469
893.362	0.0164294
893.440	0.0165250
893.518	0.0165310
893.596	0.0164571
893.674	0.0164049
893.753	0.0165635
893.831	0.0165166
893.909	0.0164450
893.987	0.0164050
894.065	0.0163727
894.143	0.0162746
894.221	0.0162875
894.299	0.0164611
894.378	0.0165225
894.456	0.0163025
894.534	0.0162693
894.612	0.0162376
894.690	0.0163843
894.768	0.0164936
894.846	0.0163587
894.924	0.0163864
895.003	0.0164046
895.081	0.0165543
895.159	0.0164597
895.237	0.0164890
895.315	0.0165491
895.393	0.0164687
895.471	0.0164259
895.549	0.0164619
895.628	0.0166042
895.706	0.0165652
895.784	0.0164684
895.862	0.0165722
895.940	0.0164879
896.018	0.0164871
896.096	0.0164898
896.174	0.0165338
896.253	0.0164781
896.331	0.0165393
896.409	0.0164732
896.487	0.0165200
896.565	0.0166767
896.643	0.0164896
896.721	0.0164440
896.799	0.0164267
896.878	0.0165164
896.956	0.0164776
897.034	0.0164059
897.112	0.0164373
897.190	0.0164655
897.268	0.0164047
897.346	0.0163948
897.424	0.0164827
897.503	0.0164028
897.581	0.0163892
897.659	0.0163879
897.737	0.0164154
897.815	0.0162822
897.893	0.0163570
897.971	0.0162374
898.049	0.0163416
898.128	0.0163551
898.206	0.0162188
898.284	0.0163277
898.362	0.0163668
898.440	0.0162989
898.518	0.0163156
898.596	0.0164201
898.674	0.0163672
898.753	0.0164761
898.831	0.0163982
898.909	0.0164143
898.987	0.0165644
899.065	0.0164902
899.143	0.0164291
899.221	0.0163854
899.299	0.0165731
899.378	0.0164651
899.456	0.0165199
899.534	0.0164365
899.612	0.0165075
899.690	0.0165454
899.768	0.0165684
899.846	0.0165602
899.924	0.0164433
900.003	0.0163087
900.081	0.0164314
900.159	0.0164383
900.237	0.0164142
900.315	0.0164819
900.393	0.0165673
900.471	0.0164182
900.549	0.0163174
900.628	0.0164392
900.706	0.0164730
900.784	0.0164769
900.862	0.0163711
900.940	0.0164311
901.018	0.0165298
901.096	0.0166451
901.174	0.0165539
901.253	0.0164515
901.331	0.0164671
901.409	0.0165538
901.487	0.0165044
901.565	0.0164993
901.643	0.0164887
901.721	0.0164938
901.799	0.0164749
901.878	0.0164792
901.956	0.0164087
902.034	0.0164297
902.112	0.0164293
902.190	0.0164344
902.268	0.0164090
902.346	0.0164263
902.424	0.0163907
902.503	0.0164841
902.581	0.0165246
902.659	0.0165604
902.737	0.0164824
902.815	0.0164467
902.893	0.0165649
902.971	0.0164020
903.049	0.0165960
903.128	0.0164304
903.206	0.0163403
903.284	0.0163963
903.362	0.0163598
903.440	0.0163751
903.518	0.0164355
903.596	0.0163434
903.674	0.0163835
903.753	0.0162558
903.831	0.0164304
903.909	0.0164992
903.987	0.0163246
904.065	0.0164653
904.143	0.0164766
904.221	0.0164911
904.299	0.0164238
904.378	0.0164465
904.456	0.0165366
904.534	0.0164069
904.612	0.0164501
904.690	0.0164170
904.768	0.0165633
904.846	0.0165013
904.924	0.0166611
905.003	0.0165273
905.081	0.0165513
905.159	0.0165966
905.237	0.0164494
905.315	0.0165726
905.393	0.0165473
905.471	0.0164451
905.549	0.0165685
905.628	0.0166015
905.706	0.0165141
905.784	0.0164078
905.862	0.0165502
905.940	0.0165353
906.018	0.0164647
906.096	0.0165413
906.174	0.0165089
906.253	0.0164954
906.331	0.0164848
906.409	0.0165037
906.487	0.0164134
906.565	0.0164590
906.643	0.0163943
906.721	0.0165580
906.799	0.0164038
906.878	0.0164471
906.956	0.0165621
907.034	0.0164234
907.112	0.0164111
907.190	0.0164874
907.268	0.0163766
907.346	0.0164468
907.424	0.0163373
907.503	0.0165221
907.581	0.0165749
907.659	0.0167142
907.737	0.0165457
907.815	0.0165821
907.893	0.0165930
907.971	0.0166604
908.049	0.0164156
908.128	0.0166466
908.206	0.0164822
908.284	0.0164942
908.362	0.0166158
908.440	0.0165773
908.518	0.0165672
908.596	0.0164984
908.674	0.0165977
908.753	0.0164404
908.831	0.0165369
908.909	0.0164876
908.987	0.0166167
909.065	0.0165981
909.143	0.0163777
909.221	0.0165021
909.299	0.0164903
909.378	0.0164091
909.456	0.0164275
909.534	0.0162926
909.612	0.0163422
909.690	0.0164977
909.768	0.0163870
909.846	0.0164186
909.924	0.0164423
910.003	0.0164439
910.081	0.0166033
910.159	0.0166074
910.237	0.0165210
910.315	0.0165141
910.393	0.0165569
910.471	0.0164733
910.549	0.0165456
910.628	0.0163690
910.706	0.0164969
910.784	0.0166071
910.862	0.0165775
910.940	0.0164147
911.018	0.0164986
911.096	0.0165507
911.174	0.0165589
911.253	0.0165025
911.331	0.0164459
911.409	0.0163197
911.487	0.0163683
911.565	0.0164886
911.643	0.0164624
911.721	0.0164816
911.799	0.0163496
911.878	0.0163730
911.956	0.0164550
912.034	0.0162613
912.112	0.0163684
912.190	0.0164612
912.268	0.0164312
912.346	0.0164063
912.424	0.0165031
912.503	0.0164540
912.581	0.0164199
912.659	0.0164118
912.737	0.0163935
912.815	0.0165853
912.893	0.0164194
912.971	0.0162646
913.049	0.0165711
913.128	0.0165018
913.206	0.0163943
913.284	0.0162891
913.362	0.0162009
913.440	0.0164662
913.518	0.0164169
913.596	0.0163662
913.674	0.0164977
913.753	0.0164653
913.831	0.0165808
913.909	0.0164062
913.987	0.0164464
914.065	0.0165665
914.143	0.0165443
914.221	0.0166335
914.299	0.0168254
914.378	0.0165050
914.456	0.0165043
914.534	0.0167103
914.612	0.0167661
914.690	0.0165582
914.768	0.0165285
914.846	0.0165170
914.924	0.0165664
915.003	0.0163972
915.081	0.0163605
915.159	0.0164252
915.237	0.0164714
915.315	0.0163281
915.393	0.0163633
915.471	0.0162502
915.549	0.0163902
915.628	0.0163375
915.706	0.0163161
915.784	0.0164310
915.862	0.0163321
915.940	0.0165104
916.018	0.0163644
916.096	0.0162901
916.174	0.0164826
916.253	0.0163461
916.331	0.0163492
916.409	0.0162411
916.487	0.0164058
916.565	0.0164938
916.643	0.0164574
916.721	0.0164001
916.799	0.0163857
916.878	0.0163448
916.956	0.0163918
917.034	0.0164917
917.112	0.0163725
917.190	0.0164107
917.268	0.0163931
917.346	0.0164258
917.424	0.0165590
917.503	0.0165429
917.581	0.0164109
917.659	0.0164726
917.737	0.0164349
917.815	0.0164094
917.893	0.0164650
917.971	0.0165493
918.049	0.0165485
918.128	0.0165474
918.206	0.0164447
918.284	0.0163999
918.362	0.0164531
918.440	0.0165272
918.518	0.0164901
918.596	0.0165652
918.674	0.0164439
918.753	0.0165420
918.831	0.0165176
918.909	0.0164796
918.987	0.0164650
919.065	0.0165348
919.143	0.0164752
919.221	0.0164838
919.299	0.0165817
919.378	0.0164997
919.456	0.0164967
919.534	0.0164256
919.612	0.0165099
919.690	0.0165192
919.768	0.0164757
919.846	0.0163902
919.924	0.0164507
920.003	0.0163688
920.081	0.0163589
920.159	0.0164758
920.237	0.0164709
920.315	0.0164217
920.393	0.0164108
920.471	0.0164953
920.549	0.0165529
920.628	0.0165412
920.706	0.0164383
920.784	0.0164351
920.862	0.0165395
920.940	0.0164389
921.018	0.0164034
921.096	0.0164619
921.174	0.0165045
921.253	0.0165486
921.331	0.0164103
921.409	0.0164611
921.487	0.0164204
921.565	0.0164291
921.643	0.0164925
921.721	0.0165348
921.799	0.0164204
921.878	0.0165150
921.956	0.0163988
922.034	0.0163271
922.112	0.0164729
922.190	0.0165671
922.268	0.0164079
922.346	0.0165781
922.424	0.0164999
922.503	0.0165423
922.581	0.0165379
922.659	0.0166875
922.737	0.0164931
922.815	0.0165192
922.893	0.0164215
922.971	0.0162810
923.049	0.0163821
923.128	0.0164304
923.206	0.0163696
923.284	0.0163569
923.362	0.0162946
923.440	0.0163438
923.518	0.0162457
923.596	0.0162775
923.674	0.0161989
923.753	0.0162453
923.831	0.0164559
923.909	0.0163741
923.987	0.0164322
924.065	0.0162994
924.143	0.0164627
924.221	0.0163005
924.299	0.0164273
924.378	0.0164487
924.456	0.0165408
924.534	0.0165244
924.612	0.0164443
924.690	0.0165070
924.768	0.0165039
924.846	0.0163841
924.924	0.0164031
925.003	0.0164565
925.081	0.0164660
925.159	0.0164418
925.237	0.0163587
925.315	0.0163863
925.393	0.0165577
925.471	0.0166183
925.549	0.0164375
925.628	0.0163988
925.706	0.0164730
925.784	0.0165098
925.862	0.0164542
925.940	0.0165734
926.018	0.0165009
926.096	0.0165855
926.174	0.0164589
926.253	0.0163057
926.331	0.0164288
926.409	0.0165690
926.487	0.0165627
926.565	0.0163623
926.643	0.0164479
926.721	0.0163971
926.799	0.0163039
926.878	0.0164402
926.956	0.0164812
927.034	0.0163977
927.112	0.0164040
927.190	0.0164510
927.268	0.0164388
927.346	0.0164507
927.424	0.0163422
927.503	0.0163454
927.581	0.0163980
927.659	0.0163389
927.737	0.0163490
927.815	0.0163086
927.893	0.0163908
927.971	0.0164815
928.049	0.0163576
928.128	0.0163363
928.206	0.0165546
928.284	0.0165816
928.362	0.0163640
928.440	0.0163287
928.518	0.0164628
928.596	0.0164610
928.674	0.0163912
928.753	0.0165043
928.831	0.0166432
928.909	0.0165636
928.987	0.0164628
929.065	0.0164825
929.143	0.0164581
929.221	0.0163541
929.299	0.0164706
929.378	0.0165674
929.456	0.0164716
929.534	0.0164984
929.612	0.0164298
929.690	0.0165240
929.768	0.0164197
929.846	0.0163814
929.924	0.0164977
930.003	0.0163614
930.081	0.0164520
930.159	0.0163791
930.237	0.0164663
930.315	0.0164114
930.393	0.0165376
930.471	0.0165279
930.549	0.0165465
930.628	0.0164880
930.706	0.0165240
930.784	0.0166187
930.862	0.0164515
930.940	0.0165706
931.018	0.0163577
931.096	0.0165108
931.174	0.0164914
931.253	0.0165292
931.331	0.0166461
931.409	0.0167027
931.487	0.0165456
931.565	0.0166010
931.643	0.0164105
931.721	0.0166571
931.799	0.0165042
931.878	0.0164957
931.956	0.0163828
932.034	0.0164357
932.112	0.0164292
932.190	0.0165659
932.268	0.0164122
932.346	0.0164600
932.424	0.0164439
932.503	0.0165942
932.581	0.0164991
932.659	0.0164566
932.737	0.0164816
932.815	0.0166171
932.893	0.0165699
932.971	0.0164668
933.049	0.0164692
933.128	0.0165135
933.206	0.0166709
933.284	0.0165154
933.362	0.0165253
933.440	0.0165375
933.518	0.0163222
933.596	0.0164640
933.674	0.0165687
933.753	0.0164790
933.831	0.0165170
933.909	0.0165805
933.987	0.0163753
934.065	0.0163936
934.143	0.0164970
934.221	0.0164831
934.299	0.0164709
934.378	0.0164973
934.456	0.0165333
934.534	0.0164498
934.612	0.0163343
934.690	0.0166081
934.768	0.0165935
934.846	0.0164240
934.924	0.0163401
935.003	0.0164955
935.081	0.0163628
935.159	0.0162975
935.237	0.0164611
935.315	0.0164500
935.393	0.0163399
935.471	0.0163831
935.549	0.0163844
935.628	0.0164037
935.706	0.0164964
935.784	0.0164936
935.862	0.0164379
935.940	0.0163855
936.018	0.0164111
936.096	0.0164996
936.174	0.0164704
936.253	0.0164260
936.331	0.0165408
936.409	0.0165152
936.487	0.0165443
936.565	0.0165461
936.643	0.0164940
936.721	0.0165391
936.799	0.0165091
936.878	0.0164222
936.956	0.0163629
937.034	0.0164785
937.112	0.0164511
937.190	0.0163567
937.268	0.0163828
937.346	0.0164782
937.424	0.0164483
937.503	0.0163618
937.581	0.0164814
937.659	0.0164632
937.737	0.0164254
937.815	0.0164229
937.893	0.0163049
937.971	0.0164639
938.049	0.0163718
938.128	0.0163793
938.206	0.0162740
938.284	0.0164492
938.362	0.0164986
938.440	0.0164613
938.518	0.0165047
938.596	0.0164518
938.674	0.0164201
938.753	0.0163622
938.831	0.0164417
938.909	0.0165379
938.987	0.0165405
939.065	0.0164410
939.143	0.0165398
939.221	0.0164571
939.299	0.0164851
939.378	0.0163946
939.456	0.0164091
939.534	0.0164585
939.612	0.0163155
939.690	0.0163009
939.768	0.0165018
939.846	0.0164498
939.924	0.0162335
940.003	0.0165258
940.081	0.0165337
940.159	0.0163832
940.237	0.0164163
940.315	0.0163674
940.393	0.0164028
940.471	0.0165875
940.549	0.0165215
940.628	0.0163921
940.706	0.0164423
940.784	0.0164802
940.862	0.0165677
940.940	0.0165373
941.018	0.0163165
941.096	0.0166310
941.174	0.0166048
941.253	0.0164405
941.331	0.0165166
941.409	0.0164606
941.487	0.0163964
941.565	0.0165350
941.643	0.0165693
941.721	0.0165496
941.799	0.0165034
941.878	0.0164893
941.956	0.0164880
942.034	0.0165606
942.112	0.0166091
942.190	0.0165275
942.268	0.0165418
942.346	0.0166000
942.424	0.0163891
942.503	0.0163844
942.581	0.0165038
942.659	0.0164188
942.737	0.0164585
942.815	0.0166165
942.893	0.0163581
942.971	0.0163198
943.049	0.0164908
943.128	0.0164352
943.206	0.0164571
943.284	0.0163528
943.362	0.0163551
943.440	0.0165521
943.518	0.0164830
943.596	0.0164420
943.674	0.0164630
943.753	0.0163541
943.831	0.0165530
943.909	0.0164462
943.987	0.0163262
944.065	0.0164710
944.143	0.0164851
944.221	0.0164109
944.299	0.0162955
944.378	0.0162721
944.456	0.0165338
944.534	0.0164525
944.612	0.0165077
944.690	0.0163073
944.768	0.0163685
944.846	0.0164485
944.924	0.0164955
945.003	0.0163734
945.081	0.0165401
945.159	0.0165565
945.237	0.0164700
945.315	0.0165685
945.393	0.0165401
945.471	0.0164478
945.549	0.0165003
945.628	0.0166277
945.706	0.0164342
945.784	0.0166236
945.862	0.0165669
945.940	0.0164037
946.018	0.0164066
946.096	0.0164468
946.174	0.0165166
946.253	0.0164827
946.331	0.0164368
946.409	0.0164244
946.487	0.0164500
946.565	0.0164391
946.643	0.0164819
946.721	0.0163785
946.799	0.0162711
946.878	0.0164561
946.956	0.0163689
947.034	0.0162451
947.112	0.0164285
947.190	0.0165101
947.268	0.0164365
947.346	0.0164676
947.424	0.0165411
947.503	0.0165579
947.581	0.0164085
947.659	0.0163555
947.737	0.0163287
947.815	0.0163726
947.893	0.0163786
947.971	0.0164956
948.049	0.0165892
948.128	0.0165134
948.206	0.0164945
948.284	0.0164426
948.362	0.0163577
948.440	0.0164998
948.518	0.0164805
948.596	0.0162948
948.674	0.0164829
948.753	0.0163973
948.831	0.0164861
948.909	0.0163493
948.987	0.0164446
949.065	0.0163924
949.143	0.0164867
949.221	0.0165015
949.299	0.0165073
949.378	0.0165472
949.456	0.0163605
949.534	0.0165038
949.612	0.0164894
949.690	0.0165402
949.768	0.0165165
949.846	0.0164144
949.924	0.0166338
