06/29/2022	23:16:21	Ver.	4.1	UNKNOWN
Optical Delay	630.002507	Delta X		0.078125	Sweeps	1	Scan Rate	0/0
Coordinates	Axis 1	NaN	Axis 2	NaN	Axis 3	NaN	Axis 4	NaN	Axis 5	NaN	Axis 6	0.000000
TX Power	0.000000	RX Power	0.000000

630.003	0.0164989
630.081	0.0164784
630.159	0.0163673
630.237	0.0163783
630.315	0.0163764
630.393	0.0165318
630.471	0.0163976
630.549	0.0165032
630.628	0.0164695
630.706	0.0164453
630.784	0.0164338
630.862	0.0164380
630.940	0.0165107
631.018	0.0164769
631.096	0.0164452
631.174	0.0164861
631.253	0.0166151
631.331	0.0163713
631.409	0.0164756
631.487	0.0164369
631.565	0.0164798
631.643	0.0163976
631.721	0.0164739
631.799	0.0164111
631.878	0.0163434
631.956	0.0163714
632.034	0.0165190
632.112	0.0164377
632.190	0.0164880
632.268	0.0164056
632.346	0.0164443
632.424	0.0163605
632.503	0.0163847
632.581	0.0163828
632.659	0.0163918
632.737	0.0163922
632.815	0.0163183
632.893	0.0164198
632.971	0.0164669
633.049	0.0164059
633.128	0.0164081
633.206	0.0165234
633.284	0.0163371
633.362	0.0166081
633.440	0.0165392
633.518	0.0165236
633.596	0.0163786
633.674	0.0164690
633.753	0.0163992
633.831	0.0163701
633.909	0.0164036
633.987	0.0163818
634.065	0.0164523
634.143	0.0163776
634.221	0.0164143
634.299	0.0163146
634.378	0.0164610
634.456	0.0164285
634.534	0.0165144
634.612	0.0164499
634.690	0.0163616
634.768	0.0165334
634.846	0.0164425
634.924	0.0164464
635.003	0.0162693
635.081	0.0163509
635.159	0.0164117
635.237	0.0163901
635.315	0.0164787
635.393	0.0162936
635.471	0.0164458
635.549	0.0164671
635.628	0.0164657
635.706	0.0165597
635.784	0.0162505
635.862	0.0163659
635.940	0.0164985
636.018	0.0164288
636.096	0.0164261
636.174	0.0163445
636.253	0.0164102
636.331	0.0164146
636.409	0.0163080
636.487	0.0164910
636.565	0.0163825
636.643	0.0164361
636.721	0.0164467
636.799	0.0164743
636.878	0.0163937
636.956	0.0164249
637.034	0.0162777
637.112	0.0162727
637.190	0.0163560
637.268	0.0164064
637.346	0.0163563
637.424	0.0164027
637.503	0.0164671
637.581	0.0162714
637.659	0.0163457
637.737	0.0163503
637.815	0.0165184
637.893	0.0163821
637.971	0.0164004
638.049	0.0165141
638.128	0.0162760
638.206	0.0162410
638.284	0.0163533
638.362	0.0165481
638.440	0.0164098
638.518	0.0162534
638.596	0.0165066
638.674	0.0163377
638.753	0.0164513
638.831	0.0164497
638.909	0.0163972
638.987	0.0164539
639.065	0.0163998
639.143	0.0163873
639.221	0.0162460
639.299	0.0163212
639.378	0.0164114
639.456	0.0163475
639.534	0.0163623
639.612	0.0164594
639.690	0.0165145
639.768	0.0163259
639.846	0.0163717
639.924	0.0165791
640.003	0.0164193
640.081	0.0163851
640.159	0.0165004
640.237	0.0163728
640.315	0.0164569
640.393	0.0163847
640.471	0.0164305
640.549	0.0164330
640.628	0.0163204
640.706	0.0164386
640.784	0.0164631
640.862	0.0163522
640.940	0.0164476
641.018	0.0165768
641.096	0.0163139
641.174	0.0165372
641.253	0.0163098
641.331	0.0164487
641.409	0.0163562
641.487	0.0164500
641.565	0.0164165
641.643	0.0164219
641.721	0.0163819
641.799	0.0163632
641.878	0.0166041
641.956	0.0163905
642.034	0.0163769
642.112	0.0164250
642.190	0.0164028
642.268	0.0161675
642.346	0.0163034
642.424	0.0163525
642.503	0.0163560
642.581	0.0163348
642.659	0.0164049
642.737	0.0163380
642.815	0.0163858
642.893	0.0164706
642.971	0.0162984
643.049	0.0165622
643.128	0.0164434
643.206	0.0163684
643.284	0.0165900
643.362	0.0163145
643.440	0.0162490
643.518	0.0164748
643.596	0.0165622
643.674	0.0163844
643.753	0.0163829
643.831	0.0163993
643.909	0.0163917
643.987	0.0163317
644.065	0.0163579
644.143	0.0164384
644.221	0.0164186
644.299	0.0163353
644.378	0.0164041
644.456	0.0165426
644.534	0.0163378
644.612	0.0164131
644.690	0.0164257
644.768	0.0164586
644.846	0.0165475
644.924	0.0165062
645.003	0.0164892
645.081	0.0163647
645.159	0.0163385
645.237	0.0164250
645.315	0.0164181
645.393	0.0163062
645.471	0.0163790
645.549	0.0163900
645.628	0.0164722
645.706	0.0162806
645.784	0.0162730
645.862	0.0163179
645.940	0.0164377
646.018	0.0164373
646.096	0.0163560
646.174	0.0162141
646.253	0.0163106
646.331	0.0164536
646.409	0.0164191
646.487	0.0162796
646.565	0.0163193
646.643	0.0164279
646.721	0.0163987
646.799	0.0162920
646.878	0.0163520
646.956	0.0164819
647.034	0.0164074
647.112	0.0163336
647.190	0.0164824
647.268	0.0165014
647.346	0.0163431
647.424	0.0164330
647.503	0.0161652
647.581	0.0163848
647.659	0.0164235
647.737	0.0164035
647.815	0.0164248
647.893	0.0164791
647.971	0.0163579
648.049	0.0164227
648.128	0.0162942
648.206	0.0163153
648.284	0.0164211
648.362	0.0164603
648.440	0.0163743
648.518	0.0163177
648.596	0.0165234
648.674	0.0164021
648.753	0.0163754
648.831	0.0162740
648.909	0.0163755
648.987	0.0164281
649.065	0.0163133
649.143	0.0163546
649.221	0.0163326
649.299	0.0163689
649.378	0.0163532
649.456	0.0162938
649.534	0.0163403
649.612	0.0163499
649.690	0.0164668
649.768	0.0165553
649.846	0.0163835
649.924	0.0166208
650.003	0.0164883
650.081	0.0165109
650.159	0.0165730
650.237	0.0163838
650.315	0.0165829
650.393	0.0164523
650.471	0.0163898
650.549	0.0165494
650.628	0.0165647
650.706	0.0165205
650.784	0.0165867
650.862	0.0164025
650.940	0.0164561
651.018	0.0165530
651.096	0.0164207
651.174	0.0164767
651.253	0.0164848
651.331	0.0164750
651.409	0.0165626
651.487	0.0164566
651.565	0.0164254
651.643	0.0164884
651.721	0.0165750
651.799	0.0165397
651.878	0.0164352
651.956	0.0163773
652.034	0.0165422
652.112	0.0164101
652.190	0.0165224
652.268	0.0165874
652.346	0.0165062
652.424	0.0164880
652.503	0.0164661
652.581	0.0165433
652.659	0.0164375
652.737	0.0165344
652.815	0.0165598
652.893	0.0164217
652.971	0.0165356
653.049	0.0164435
653.128	0.0164777
653.206	0.0164426
653.284	0.0165768
653.362	0.0164577
653.440	0.0164805
653.518	0.0163996
653.596	0.0165794
653.674	0.0164233
653.753	0.0163073
653.831	0.0164840
653.909	0.0163126
653.987	0.0163998
654.065	0.0163778
654.143	0.0163677
654.221	0.0164500
654.299	0.0163727
654.378	0.0164379
654.456	0.0164780
654.534	0.0163820
654.612	0.0164738
654.690	0.0163630
654.768	0.0163939
654.846	0.0164488
654.924	0.0164680
655.003	0.0162584
655.081	0.0163690
655.159	0.0165018
655.237	0.0165156
655.315	0.0164964
655.393	0.0165614
655.471	0.0164670
655.549	0.0163424
655.628	0.0164419
655.706	0.0165110
655.784	0.0164642
655.862	0.0163699
655.940	0.0165040
656.018	0.0164359
656.096	0.0163055
656.174	0.0165043
656.253	0.0163592
656.331	0.0162897
656.409	0.0163477
656.487	0.0165550
656.565	0.0164381
656.643	0.0164420
656.721	0.0164652
656.799	0.0162527
656.878	0.0162772
656.956	0.0163857
657.034	0.0163153
657.112	0.0163410
657.190	0.0163058
657.268	0.0164092
657.346	0.0163111
657.424	0.0164149
657.503	0.0163591
657.581	0.0163332
657.659	0.0165092
657.737	0.0164242
657.815	0.0164180
657.893	0.0164696
657.971	0.0163695
658.049	0.0163029
658.128	0.0163272
658.206	0.0162427
658.284	0.0164014
658.362	0.0164165
658.440	0.0162324
658.518	0.0163721
658.596	0.0163975
658.674	0.0163375
658.753	0.0164121
658.831	0.0163852
658.909	0.0165834
658.987	0.0164484
659.065	0.0163132
659.143	0.0164315
659.221	0.0163914
659.299	0.0163816
659.378	0.0162486
659.456	0.0164180
659.534	0.0163578
659.612	0.0163348
659.690	0.0163288
659.768	0.0163705
659.846	0.0164202
659.924	0.0164690
660.003	0.0163332
660.081	0.0163380
660.159	0.0163792
660.237	0.0162895
660.315	0.0163876
660.393	0.0164902
660.471	0.0163876
660.549	0.0164533
660.628	0.0163116
660.706	0.0163834
660.784	0.0164464
660.862	0.0164232
660.940	0.0164056
661.018	0.0162753
661.096	0.0164252
661.174	0.0164265
661.253	0.0163596
661.331	0.0163101
661.409	0.0164764
661.487	0.0164904
661.565	0.0164326
661.643	0.0165206
661.721	0.0161555
661.799	0.0164454
661.878	0.0164746
661.956	0.0163910
662.034	0.0163601
662.112	0.0164520
662.190	0.0164582
662.268	0.0162158
662.346	0.0163283
662.424	0.0165657
662.503	0.0164011
662.581	0.0164663
662.659	0.0164945
662.737	0.0163956
662.815	0.0164261
662.893	0.0163829
662.971	0.0165105
663.049	0.0163730
663.128	0.0165061
663.206	0.0164450
663.284	0.0164190
663.362	0.0164043
663.440	0.0163366
663.518	0.0162989
663.596	0.0164378
663.674	0.0164821
663.753	0.0165260
663.831	0.0163971
663.909	0.0163183
663.987	0.0162831
664.065	0.0164712
664.143	0.0164814
664.221	0.0165147
664.299	0.0163803
664.378	0.0163311
664.456	0.0163673
664.534	0.0164917
664.612	0.0164219
664.690	0.0164489
664.768	0.0165281
664.846	0.0163977
664.924	0.0163862
665.003	0.0163966
665.081	0.0164904
665.159	0.0164114
665.237	0.0164763
665.315	0.0165058
665.393	0.0163249
665.471	0.0163259
665.549	0.0163643
665.628	0.0164243
665.706	0.0164287
665.784	0.0164617
665.862	0.0163524
665.940	0.0163283
666.018	0.0164200
666.096	0.0163297
666.174	0.0163658
666.253	0.0164920
666.331	0.0163634
666.409	0.0164301
666.487	0.0163801
666.565	0.0164716
666.643	0.0165108
666.721	0.0163874
666.799	0.0164607
666.878	0.0163689
666.956	0.0164734
667.034	0.0163889
667.112	0.0164867
667.190	0.0164456
667.268	0.0164181
667.346	0.0164417
667.424	0.0164611
667.503	0.0164867
667.581	0.0165202
667.659	0.0164352
667.737	0.0165037
667.815	0.0166242
667.893	0.0164831
667.971	0.0163744
668.049	0.0163626
668.128	0.0164280
668.206	0.0164156
668.284	0.0164804
668.362	0.0165817
668.440	0.0163825
668.518	0.0164510
668.596	0.0165920
668.674	0.0165851
668.753	0.0164340
668.831	0.0164499
668.909	0.0164925
668.987	0.0164722
669.065	0.0165128
669.143	0.0165672
669.221	0.0165286
669.299	0.0164716
669.378	0.0166306
669.456	0.0164338
669.534	0.0163299
669.612	0.0164474
669.690	0.0163978
669.768	0.0165488
669.846	0.0165906
669.924	0.0165661
670.003	0.0164741
670.081	0.0165158
670.159	0.0165637
670.237	0.0164746
670.315	0.0164257
670.393	0.0165114
670.471	0.0164765
670.549	0.0164634
670.628	0.0165450
670.706	0.0165196
670.784	0.0165527
670.862	0.0165260
670.940	0.0164787
671.018	0.0164600
671.096	0.0164612
671.174	0.0166572
671.253	0.0165436
671.331	0.0165637
671.409	0.0166290
671.487	0.0164265
671.565	0.0164527
671.643	0.0165465
671.721	0.0164997
671.799	0.0164614
671.878	0.0165207
671.956	0.0165408
672.034	0.0165247
672.112	0.0163261
672.190	0.0165298
672.268	0.0165491
672.346	0.0165907
672.424	0.0165112
672.503	0.0164110
672.581	0.0164196
672.659	0.0164819
672.737	0.0164455
672.815	0.0164133
672.893	0.0163543
672.971	0.0165010
673.049	0.0164568
673.128	0.0164924
673.206	0.0163338
673.284	0.0163993
673.362	0.0164493
673.440	0.0163349
673.518	0.0162920
673.596	0.0163690
673.674	0.0163681
673.753	0.0163758
673.831	0.0163525
673.909	0.0162897
673.987	0.0163875
674.065	0.0163944
674.143	0.0162907
674.221	0.0163351
674.299	0.0163306
674.378	0.0163749
674.456	0.0164140
674.534	0.0162997
674.612	0.0163793
674.690	0.0164024
674.768	0.0163171
674.846	0.0163850
674.924	0.0163559
675.003	0.0163773
675.081	0.0161625
675.159	0.0165598
675.237	0.0164368
675.315	0.0164830
675.393	0.0163641
675.471	0.0163416
675.549	0.0163295
675.628	0.0162520
675.706	0.0162015
675.784	0.0163219
675.862	0.0164719
675.940	0.0164212
676.018	0.0163612
676.096	0.0163779
676.174	0.0165186
676.253	0.0165060
676.331	0.0163188
676.409	0.0163779
676.487	0.0163536
676.565	0.0162336
676.643	0.0164298
676.721	0.0163992
676.799	0.0163961
676.878	0.0164257
676.956	0.0164481
677.034	0.0164190
677.112	0.0164095
677.190	0.0162897
677.268	0.0163542
677.346	0.0164166
677.424	0.0164082
677.503	0.0164556
677.581	0.0164020
677.659	0.0164785
677.737	0.0164801
677.815	0.0163854
677.893	0.0165591
677.971	0.0163934
678.049	0.0163801
678.128	0.0164908
678.206	0.0165059
678.284	0.0164927
678.362	0.0165311
678.440	0.0164276
678.518	0.0164996
678.596	0.0164812
678.674	0.0165324
678.753	0.0164381
678.831	0.0165081
678.909	0.0165328
678.987	0.0164830
679.065	0.0164769
679.143	0.0165363
679.221	0.0165104
679.299	0.0164617
679.378	0.0164764
679.456	0.0165643
679.534	0.0165726
679.612	0.0165996
679.690	0.0165317
679.768	0.0164303
679.846	0.0165464
679.924	0.0165637
680.003	0.0166354
680.081	0.0163352
680.159	0.0164123
680.237	0.0164945
680.315	0.0163876
680.393	0.0165859
680.471	0.0165478
680.549	0.0163841
680.628	0.0163798
680.706	0.0165031
680.784	0.0164904
680.862	0.0165302
680.940	0.0164635
681.018	0.0164196
681.096	0.0164951
681.174	0.0164753
681.253	0.0164628
681.331	0.0164606
681.409	0.0164661
681.487	0.0165137
681.565	0.0165637
681.643	0.0165481
681.721	0.0164378
681.799	0.0164406
681.878	0.0164169
681.956	0.0164036
682.034	0.0165986
682.112	0.0164428
682.190	0.0164137
682.268	0.0164606
682.346	0.0164281
682.424	0.0164238
682.503	0.0164251
682.581	0.0164818
682.659	0.0164626
682.737	0.0165019
682.815	0.0165196
682.893	0.0165047
682.971	0.0164445
683.049	0.0163723
683.128	0.0164600
683.206	0.0165207
683.284	0.0165244
683.362	0.0163963
683.440	0.0163723
683.518	0.0163031
683.596	0.0163392
683.674	0.0165428
683.753	0.0163215
683.831	0.0164099
683.909	0.0165626
683.987	0.0164976
684.065	0.0163548
684.143	0.0164303
684.221	0.0164034
684.299	0.0164111
684.378	0.0163446
684.456	0.0164892
684.534	0.0164310
684.612	0.0163511
684.690	0.0164334
684.768	0.0164016
684.846	0.0164192
684.924	0.0164950
685.003	0.0165581
685.081	0.0163383
685.159	0.0163439
685.237	0.0163729
685.315	0.0164332
685.393	0.0164628
685.471	0.0163350
685.549	0.0164229
685.628	0.0164435
685.706	0.0163982
685.784	0.0163642
685.862	0.0166566
685.940	0.0165359
686.018	0.0163400
686.096	0.0162952
686.174	0.0163861
686.253	0.0163658
686.331	0.0164161
686.409	0.0165138
686.487	0.0165652
686.565	0.0164748
686.643	0.0164465
686.721	0.0166118
686.799	0.0164371
686.878	0.0163873
686.956	0.0166032
687.034	0.0165513
687.112	0.0165463
687.190	0.0165964
687.268	0.0167044
687.346	0.0165371
687.424	0.0164151
687.503	0.0164236
687.581	0.0165025
687.659	0.0165129
687.737	0.0163697
687.815	0.0163095
687.893	0.0166278
687.971	0.0163917
688.049	0.0164026
688.128	0.0165551
688.206	0.0165267
688.284	0.0164600
688.362	0.0163991
688.440	0.0164880
688.518	0.0164653
688.596	0.0163175
688.674	0.0164668
688.753	0.0164081
688.831	0.0163999
688.909	0.0164233
688.987	0.0165017
689.065	0.0163274
689.143	0.0164807
689.221	0.0164264
689.299	0.0164703
689.378	0.0165248
689.456	0.0164523
689.534	0.0165611
689.612	0.0165459
689.690	0.0165179
689.768	0.0164674
689.846	0.0164712
689.924	0.0165274
690.003	0.0164120
690.081	0.0163918
690.159	0.0164339
690.237	0.0165501
690.315	0.0164050
690.393	0.0162836
690.471	0.0163206
690.549	0.0164122
690.628	0.0164060
690.706	0.0163570
690.784	0.0163895
690.862	0.0163824
690.940	0.0163460
691.018	0.0163799
691.096	0.0163641
691.174	0.0164532
691.253	0.0164752
691.331	0.0164045
691.409	0.0164379
691.487	0.0164294
691.565	0.0165638
691.643	0.0164783
691.721	0.0165597
691.799	0.0164710
691.878	0.0163428
691.956	0.0164742
692.034	0.0164661
692.112	0.0165712
692.190	0.0166360
692.268	0.0167045
692.346	0.0165428
692.424	0.0164490
692.503	0.0165002
692.581	0.0164859
692.659	0.0165218
692.737	0.0165141
692.815	0.0165255
692.893	0.0164658
692.971	0.0165400
693.049	0.0166098
693.128	0.0165499
693.206	0.0164555
693.284	0.0165842
693.362	0.0164510
693.440	0.0164178
693.518	0.0164787
693.596	0.0164320
693.674	0.0164109
693.753	0.0164010
693.831	0.0164128
693.909	0.0164297
693.987	0.0162736
694.065	0.0164186
694.143	0.0163047
694.221	0.0165643
694.299	0.0163807
694.378	0.0164844
694.456	0.0163766
694.534	0.0163894
694.612	0.0164799
694.690	0.0164359
694.768	0.0164701
694.846	0.0165460
694.924	0.0164678
695.003	0.0164175
695.081	0.0164994
695.159	0.0166226
695.237	0.0165813
695.315	0.0166455
695.393	0.0165430
695.471	0.0165176
695.549	0.0165467
695.628	0.0164516
695.706	0.0165171
695.784	0.0165166
695.862	0.0163258
695.940	0.0163282
696.018	0.0164393
696.096	0.0162661
696.174	0.0162723
696.253	0.0163112
696.331	0.0163035
696.409	0.0162104
696.487	0.0163077
696.565	0.0163647
696.643	0.0161871
696.721	0.0163908
696.799	0.0162550
696.878	0.0162188
696.956	0.0162771
697.034	0.0161256
697.112	0.0163700
697.190	0.0165248
697.268	0.0163338
697.346	0.0163518
697.424	0.0165472
697.503	0.0165321
697.581	0.0163311
697.659	0.0166121
697.737	0.0166108
697.815	0.0165379
697.893	0.0164837
697.971	0.0164486
698.049	0.0163850
698.128	0.0163276
698.206	0.0164030
698.284	0.0162477
698.362	0.0163428
698.440	0.0164226
698.518	0.0164450
698.596	0.0162726
698.674	0.0163180
698.753	0.0163652
698.831	0.0162318
698.909	0.0163784
698.987	0.0163860
699.065	0.0162820
699.143	0.0162685
699.221	0.0162894
699.299	0.0163956
699.378	0.0164643
699.456	0.0164424
699.534	0.0165030
699.612	0.0163693
699.690	0.0163001
699.768	0.0164336
699.846	0.0164112
699.924	0.0163881
700.003	0.0164222
700.081	0.0163512
700.159	0.0164683
700.237	0.0164311
700.315	0.0165181
700.393	0.0164749
700.471	0.0162376
700.549	0.0164108
700.628	0.0162840
700.706	0.0164102
700.784	0.0163927
700.862	0.0162731
700.940	0.0162422
701.018	0.0164471
701.096	0.0164498
701.174	0.0163692
701.253	0.0163032
701.331	0.0165632
701.409	0.0163368
701.487	0.0162796
701.565	0.0164277
701.643	0.0163730
701.721	0.0162156
701.799	0.0163239
701.878	0.0163466
701.956	0.0162120
702.034	0.0163324
702.112	0.0162571
702.190	0.0161209
702.268	0.0163019
702.346	0.0163206
702.424	0.0162724
702.503	0.0163133
702.581	0.0162884
702.659	0.0163693
702.737	0.0164412
702.815	0.0162934
702.893	0.0163955
702.971	0.0164590
703.049	0.0164662
703.128	0.0164975
703.206	0.0164739
703.284	0.0164165
703.362	0.0165308
703.440	0.0165720
703.518	0.0164890
703.596	0.0165374
703.674	0.0167079
703.753	0.0167023
703.831	0.0164529
703.909	0.0164178
703.987	0.0166872
704.065	0.0165646
704.143	0.0164730
704.221	0.0164629
704.299	0.0163085
704.378	0.0163747
704.456	0.0163187
704.534	0.0164191
704.612	0.0163986
704.690	0.0164297
704.768	0.0162657
704.846	0.0163251
704.924	0.0162989
705.003	0.0162300
705.081	0.0163322
705.159	0.0161651
705.237	0.0162888
705.315	0.0163288
705.393	0.0163920
705.471	0.0163375
705.549	0.0163438
705.628	0.0165089
705.706	0.0163884
705.784	0.0164397
705.862	0.0162725
705.940	0.0164774
706.018	0.0163132
706.096	0.0163482
706.174	0.0163354
706.253	0.0164752
706.331	0.0164524
706.409	0.0164920
706.487	0.0163899
706.565	0.0164261
706.643	0.0164706
706.721	0.0164128
706.799	0.0165437
706.878	0.0166569
706.956	0.0166164
707.034	0.0165377
707.112	0.0165932
707.190	0.0164960
707.268	0.0166187
707.346	0.0166257
707.424	0.0164968
707.503	0.0166987
707.581	0.0165969
707.659	0.0167227
707.737	0.0167609
707.815	0.0167618
707.893	0.0165424
707.971	0.0165737
708.049	0.0164590
708.128	0.0166045
708.206	0.0167154
708.284	0.0164804
708.362	0.0164581
708.440	0.0165143
708.518	0.0164896
708.596	0.0163829
708.674	0.0161382
708.753	0.0163126
708.831	0.0163255
708.909	0.0162167
708.987	0.0162383
709.065	0.0161083
709.143	0.0162154
709.221	0.0163787
709.299	0.0164637
709.378	0.0161702
709.456	0.0162281
709.534	0.0163798
709.612	0.0163621
709.690	0.0162933
709.768	0.0162747
709.846	0.0164863
709.924	0.0163897
710.003	0.0164037
710.081	0.0163136
710.159	0.0163622
710.237	0.0164346
710.315	0.0164287
710.393	0.0165365
710.471	0.0163946
710.549	0.0164178
710.628	0.0165226
710.706	0.0164843
710.784	0.0164891
710.862	0.0163438
710.940	0.0165843
711.018	0.0164352
711.096	0.0163537
711.174	0.0164514
711.253	0.0165158
711.331	0.0165047
711.409	0.0164027
711.487	0.0164571
711.565	0.0164671
711.643	0.0165085
711.721	0.0163329
711.799	0.0163528
711.878	0.0163522
711.956	0.0164678
712.034	0.0163393
712.112	0.0164701
712.190	0.0164348
712.268	0.0162621
712.346	0.0162263
712.424	0.0162991
712.503	0.0163176
712.581	0.0164616
712.659	0.0165156
712.737	0.0164472
712.815	0.0164909
712.893	0.0164265
712.971	0.0163769
713.049	0.0164362
713.128	0.0163185
713.206	0.0164435
713.284	0.0164248
713.362	0.0164614
713.440	0.0163945
713.518	0.0164068
713.596	0.0162604
713.674	0.0163271
713.753	0.0161861
713.831	0.0163863
713.909	0.0163343
713.987	0.0163764
714.065	0.0162910
714.143	0.0163138
714.221	0.0164114
714.299	0.0164142
714.378	0.0163467
714.456	0.0162761
714.534	0.0164012
714.612	0.0163702
714.690	0.0164185
714.768	0.0164980
714.846	0.0165368
714.924	0.0164449
715.003	0.0163730
715.081	0.0164163
715.159	0.0163583
715.237	0.0163287
715.315	0.0163321
715.393	0.0164697
715.471	0.0163150
715.549	0.0161984
715.628	0.0163471
715.706	0.0162009
715.784	0.0164365
715.862	0.0165251
715.940	0.0163367
716.018	0.0164272
716.096	0.0165695
716.174	0.0166418
716.253	0.0165752
716.331	0.0167637
716.409	0.0166731
716.487	0.0166881
716.565	0.0168047
716.643	0.0168157
716.721	0.0169444
716.799	0.0168115
716.878	0.0167448
716.956	0.0167580
717.034	0.0166579
717.112	0.0166116
717.190	0.0165777
717.268	0.0164082
717.346	0.0163869
717.424	0.0162262
717.503	0.0161577
717.581	0.0161959
717.659	0.0160509
717.737	0.0160185
717.815	0.0159673
717.893	0.0160535
717.971	0.0159742
718.049	0.0159685
718.128	0.0160507
718.206	0.0159840
718.284	0.0159612
718.362	0.0159462
718.440	0.0160763
718.518	0.0161243
718.596	0.0161936
718.674	0.0161758
718.753	0.0161383
718.831	0.0162569
718.909	0.0163514
718.987	0.0163492
719.065	0.0165621
719.143	0.0166077
719.221	0.0166574
719.299	0.0166224
719.378	0.0165790
719.456	0.0166338
719.534	0.0167083
719.612	0.0166399
719.690	0.0166698
719.768	0.0166905
719.846	0.0167693
719.924	0.0165675
720.003	0.0166560
720.081	0.0166016
720.159	0.0165572
720.237	0.0164635
720.315	0.0164715
720.393	0.0165533
720.471	0.0163677
720.549	0.0163371
720.628	0.0163317
720.706	0.0163937
720.784	0.0162995
720.862	0.0162545
720.940	0.0162170
721.018	0.0162647
721.096	0.0161137
721.174	0.0162948
721.253	0.0161449
721.331	0.0161497
721.409	0.0161541
721.487	0.0162595
721.565	0.0162167
721.643	0.0163263
721.721	0.0163391
721.799	0.0162410
721.878	0.0163445
721.956	0.0165900
722.034	0.0163528
722.112	0.0164632
722.190	0.0165157
722.268	0.0164487
722.346	0.0165590
722.424	0.0166902
722.503	0.0166785
722.581	0.0167783
722.659	0.0166511
722.737	0.0167140
722.815	0.0167235
722.893	0.0168288
722.971	0.0167648
723.049	0.0166835
723.128	0.0167763
723.206	0.0166925
723.284	0.0167083
723.362	0.0166337
723.440	0.0165788
723.518	0.0165741
723.596	0.0166258
723.674	0.0164369
723.753	0.0162555
723.831	0.0162728
723.909	0.0163120
723.987	0.0161115
724.065	0.0161470
724.143	0.0160447
724.221	0.0159433
724.299	0.0158424
724.378	0.0157394
724.456	0.0158316
724.534	0.0158594
724.612	0.0158257
724.690	0.0156806
724.768	0.0155994
724.846	0.0156256
724.924	0.0157210
725.003	0.0158318
725.081	0.0157775
725.159	0.0159486
725.237	0.0160663
725.315	0.0161618
725.393	0.0162241
725.471	0.0163890
725.549	0.0164589
725.628	0.0165105
725.706	0.0166200
725.784	0.0167712
725.862	0.0169035
725.940	0.0170631
726.018	0.0170246
726.096	0.0170550
726.174	0.0171841
726.253	0.0173387
726.331	0.0172104
726.409	0.0172906
726.487	0.0172330
726.565	0.0173827
726.643	0.0172374
726.721	0.0170419
726.799	0.0171567
726.878	0.0169700
726.956	0.0169484
727.034	0.0168766
727.112	0.0167355
727.190	0.0165017
727.268	0.0165628
727.346	0.0165061
727.424	0.0164417
727.503	0.0163586
727.581	0.0164523
727.659	0.0162752
727.737	0.0162606
727.815	0.0161041
727.893	0.0160220
727.971	0.0161337
728.049	0.0161539
728.128	0.0160883
728.206	0.0160300
728.284	0.0160004
728.362	0.0160603
728.440	0.0159838
728.518	0.0158543
728.596	0.0160430
728.674	0.0161586
728.753	0.0160010
728.831	0.0159405
728.909	0.0161150
728.987	0.0159851
729.065	0.0161624
729.143	0.0161401
729.221	0.0161313
729.299	0.0164824
729.378	0.0163460
729.456	0.0164187
729.534	0.0165845
729.612	0.0166924
729.690	0.0166641
729.768	0.0167374
729.846	0.0168750
729.924	0.0168523
730.003	0.0167776
730.081	0.0168124
730.159	0.0168799
730.237	0.0168194
730.315	0.0170003
730.393	0.0169163
730.471	0.0168870
730.549	0.0167048
730.628	0.0166757
730.706	0.0166065
730.784	0.0164972
730.862	0.0165901
730.940	0.0165779
731.018	0.0165129
731.096	0.0163287
731.174	0.0164175
731.253	0.0164820
731.331	0.0164093
731.409	0.0162871
731.487	0.0164071
731.565	0.0165240
731.643	0.0164213
731.721	0.0164636
731.799	0.0164509
731.878	0.0166287
731.956	0.0165145
732.034	0.0165920
732.112	0.0165842
732.190	0.0166414
732.268	0.0166193
732.346	0.0167782
732.424	0.0164512
732.503	0.0166700
732.581	0.0166118
732.659	0.0164478
732.737	0.0165562
732.815	0.0166178
732.893	0.0166253
732.971	0.0165119
733.049	0.0164171
733.128	0.0165991
733.206	0.0165105
733.284	0.0163593
733.362	0.0163309
733.440	0.0163162
733.518	0.0163020
733.596	0.0162145
733.674	0.0161996
733.753	0.0160437
733.831	0.0160228
733.909	0.0159947
733.987	0.0159812
734.065	0.0160245
734.143	0.0157961
734.221	0.0156742
734.299	0.0157533
734.378	0.0157244
734.456	0.0156176
734.534	0.0158023
734.612	0.0158923
734.690	0.0159184
734.768	0.0157722
734.846	0.0159378
734.924	0.0159973
735.003	0.0162053
735.081	0.0161987
735.159	0.0162447
735.237	0.0163731
735.315	0.0165047
735.393	0.0166296
735.471	0.0166193
735.549	0.0168662
735.628	0.0168755
735.706	0.0169450
735.784	0.0170243
735.862	0.0171204
735.940	0.0171804
736.018	0.0172827
736.096	0.0171524
736.174	0.0173588
736.253	0.0172682
736.331	0.0172649
736.409	0.0172340
736.487	0.0171791
736.565	0.0171694
736.643	0.0171764
736.721	0.0172929
736.799	0.0170876
736.878	0.0169473
736.956	0.0168180
737.034	0.0167524
737.112	0.0167198
737.190	0.0166236
737.268	0.0164327
737.346	0.0162782
737.424	0.0161391
737.503	0.0162183
737.581	0.0159736
737.659	0.0159942
737.737	0.0159576
737.815	0.0157491
737.893	0.0155985
737.971	0.0155896
738.049	0.0153654
738.128	0.0153445
738.206	0.0153187
738.284	0.0152485
738.362	0.0151507
738.440	0.0152505
738.518	0.0152293
738.596	0.0152123
738.674	0.0151487
738.753	0.0151987
738.831	0.0153111
738.909	0.0156065
738.987	0.0156154
739.065	0.0157706
739.143	0.0157307
739.221	0.0160945
739.299	0.0164087
739.378	0.0164490
739.456	0.0166707
739.534	0.0169104
739.612	0.0170248
739.690	0.0170783
739.768	0.0171671
739.846	0.0173711
739.924	0.0174479
740.003	0.0175175
740.081	0.0176034
740.159	0.0176818
740.237	0.0174935
740.315	0.0176399
740.393	0.0176155
740.471	0.0175671
740.549	0.0174982
740.628	0.0174696
740.706	0.0176203
740.784	0.0173856
740.862	0.0171854
740.940	0.0170097
741.018	0.0170930
741.096	0.0168952
741.174	0.0165483
741.253	0.0166488
741.331	0.0164571
741.409	0.0161367
741.487	0.0162661
741.565	0.0159091
741.643	0.0157962
741.721	0.0157361
741.799	0.0157510
741.878	0.0157218
741.956	0.0156583
742.034	0.0155330
742.112	0.0155165
742.190	0.0154405
742.268	0.0155061
742.346	0.0154768
742.424	0.0153075
742.503	0.0155293
742.581	0.0154587
742.659	0.0156119
742.737	0.0156397
742.815	0.0156063
742.893	0.0158282
742.971	0.0159034
743.049	0.0158172
743.128	0.0159844
743.206	0.0159602
743.284	0.0162016
743.362	0.0161957
743.440	0.0164014
743.518	0.0164948
743.596	0.0165356
743.674	0.0165454
743.753	0.0166617
743.831	0.0166518
743.909	0.0167371
743.987	0.0168275
744.065	0.0169817
744.143	0.0167997
744.221	0.0169371
744.299	0.0169567
744.378	0.0169475
744.456	0.0170718
744.534	0.0170079
744.612	0.0170434
744.690	0.0172327
744.768	0.0171976
744.846	0.0171237
744.924	0.0171702
745.003	0.0171996
745.081	0.0169785
745.159	0.0171096
745.237	0.0170749
745.315	0.0169594
745.393	0.0171059
745.471	0.0168697
745.549	0.0168291
745.628	0.0169696
745.706	0.0167350
745.784	0.0168364
745.862	0.0165960
745.940	0.0164745
746.018	0.0165653
746.096	0.0164289
746.174	0.0164791
746.253	0.0164869
746.331	0.0163229
746.409	0.0164645
746.487	0.0163161
746.565	0.0162809
746.643	0.0163145
746.721	0.0162294
746.799	0.0162456
746.878	0.0160860
746.956	0.0160722
747.034	0.0161758
747.112	0.0160614
747.190	0.0160527
747.268	0.0160670
747.346	0.0161010
747.424	0.0160566
747.503	0.0160243
747.581	0.0159986
747.659	0.0159911
747.737	0.0160129
747.815	0.0161508
747.893	0.0160692
747.971	0.0158483
748.049	0.0161406
748.128	0.0161168
748.206	0.0161976
748.284	0.0162106
748.362	0.0163234
748.440	0.0164577
748.518	0.0163496
748.596	0.0164465
748.674	0.0165784
748.753	0.0164509
748.831	0.0164694
748.909	0.0165344
748.987	0.0165324
749.065	0.0165020
749.143	0.0164710
749.221	0.0163706
749.299	0.0164526
749.378	0.0164462
749.456	0.0164232
749.534	0.0163093
749.612	0.0163354
749.690	0.0163473
749.768	0.0163126
749.846	0.0165605
749.924	0.0164268
750.003	0.0164291
750.081	0.0167080
750.159	0.0165961
750.237	0.0166081
750.315	0.0168133
750.393	0.0168102
750.471	0.0169778
750.549	0.0170204
750.628	0.0169942
750.706	0.0171867
750.784	0.0172170
750.862	0.0171645
750.940	0.0172771
751.018	0.0172641
751.096	0.0171008
751.174	0.0169676
751.253	0.0170377
751.331	0.0171066
751.409	0.0168865
751.487	0.0169166
751.565	0.0168036
751.643	0.0166460
751.721	0.0165941
751.799	0.0164307
751.878	0.0163481
751.956	0.0163969
752.034	0.0160899
752.112	0.0161441
752.190	0.0161503
752.268	0.0159648
752.346	0.0159864
752.424	0.0159921
752.503	0.0159792
752.581	0.0160313
752.659	0.0158714
752.737	0.0159592
752.815	0.0159550
752.893	0.0159738
752.971	0.0158666
753.049	0.0158928
753.128	0.0159624
753.206	0.0159337
753.284	0.0159870
753.362	0.0160302
753.440	0.0161487
753.518	0.0161282
753.596	0.0163120
753.674	0.0164011
753.753	0.0161971
753.831	0.0163798
753.909	0.0163718
753.987	0.0165101
754.065	0.0165932
754.143	0.0164133
754.221	0.0165964
754.299	0.0166175
754.378	0.0165656
754.456	0.0166286
754.534	0.0167203
754.612	0.0164478
754.690	0.0166168
754.768	0.0165973
754.846	0.0165860
754.924	0.0166199
755.003	0.0168562
755.081	0.0167549
755.159	0.0166411
755.237	0.0167357
755.315	0.0166923
755.393	0.0168015
755.471	0.0168619
755.549	0.0166193
755.628	0.0167634
755.706	0.0168340
755.784	0.0169287
755.862	0.0168807
755.940	0.0169344
756.018	0.0168205
756.096	0.0169093
756.174	0.0168560
756.253	0.0168529
756.331	0.0169489
756.409	0.0169155
756.487	0.0170292
756.565	0.0168829
756.643	0.0168118
756.721	0.0169205
756.799	0.0168014
756.878	0.0168339
756.956	0.0167562
757.034	0.0167291
757.112	0.0166320
757.190	0.0165063
757.268	0.0162666
757.346	0.0162613
757.424	0.0161566
757.503	0.0162126
757.581	0.0161751
757.659	0.0160575
757.737	0.0160396
757.815	0.0159922
757.893	0.0159026
757.971	0.0160992
758.049	0.0161073
758.128	0.0160822
758.206	0.0162669
758.284	0.0162292
758.362	0.0163137
758.440	0.0164078
758.518	0.0164571
758.596	0.0165771
758.674	0.0166057
758.753	0.0165646
758.831	0.0167221
758.909	0.0167957
758.987	0.0167616
759.065	0.0167341
759.143	0.0168010
759.221	0.0168344
759.299	0.0166533
759.378	0.0165822
759.456	0.0166597
759.534	0.0164643
759.612	0.0164666
759.690	0.0163125
759.768	0.0163067
759.846	0.0162297
759.924	0.0160427
760.003	0.0162139
760.081	0.0161467
760.159	0.0160743
760.237	0.0160786
760.315	0.0161530
760.393	0.0160577
760.471	0.0160927
760.549	0.0160088
760.628	0.0160892
760.706	0.0161862
760.784	0.0162300
760.862	0.0161143
760.940	0.0162984
761.018	0.0162211
761.096	0.0161893
761.174	0.0162693
761.253	0.0162746
761.331	0.0163548
761.409	0.0163667
761.487	0.0164286
761.565	0.0162774
761.643	0.0164337
761.721	0.0167661
761.799	0.0166911
761.878	0.0166344
761.956	0.0166060
762.034	0.0166664
762.112	0.0168385
762.190	0.0166154
762.268	0.0166088
762.346	0.0166277
762.424	0.0166379
762.503	0.0166179
762.581	0.0165939
762.659	0.0163471
762.737	0.0164355
762.815	0.0164160
762.893	0.0162746
762.971	0.0161116
763.049	0.0164361
763.128	0.0162804
763.206	0.0161244
763.284	0.0161345
763.362	0.0160966
763.440	0.0160708
763.518	0.0161962
763.596	0.0162082
763.674	0.0160807
763.753	0.0162132
763.831	0.0161671
763.909	0.0161473
763.987	0.0159887
764.065	0.0159688
764.143	0.0160262
764.221	0.0161522
764.299	0.0161748
764.378	0.0161994
764.456	0.0163216
764.534	0.0162341
764.612	0.0162551
764.690	0.0161354
764.768	0.0161658
764.846	0.0162334
764.924	0.0163892
765.003	0.0163992
765.081	0.0163271
765.159	0.0164766
765.237	0.0163477
765.315	0.0163297
765.393	0.0164937
765.471	0.0164364
765.549	0.0163820
765.628	0.0164310
765.706	0.0165278
765.784	0.0164866
765.862	0.0164663
765.940	0.0164314
766.018	0.0163229
766.096	0.0163661
766.174	0.0163649
766.253	0.0163055
766.331	0.0163008
766.409	0.0162585
766.487	0.0161945
766.565	0.0163103
766.643	0.0162625
766.721	0.0162115
766.799	0.0161757
766.878	0.0162402
766.956	0.0163364
767.034	0.0163248
767.112	0.0163583
767.190	0.0164169
767.268	0.0162475
767.346	0.0162910
767.424	0.0164403
767.503	0.0164046
767.581	0.0163567
767.659	0.0165331
767.737	0.0166257
767.815	0.0165649
767.893	0.0166317
767.971	0.0166644
768.049	0.0166521
768.128	0.0166529
768.206	0.0167265
768.284	0.0165852
768.362	0.0167414
768.440	0.0167547
768.518	0.0167696
768.596	0.0167461
768.674	0.0167270
768.753	0.0167078
768.831	0.0167713
768.909	0.0167027
768.987	0.0168008
769.065	0.0167995
769.143	0.0168045
769.221	0.0167345
769.299	0.0165807
769.378	0.0165788
769.456	0.0164936
769.534	0.0165416
769.612	0.0165086
769.690	0.0164339
769.768	0.0164310
769.846	0.0164593
769.924	0.0164629
770.003	0.0163921
770.081	0.0163722
770.159	0.0163473
770.237	0.0162317
770.315	0.0162451
770.393	0.0162495
770.471	0.0162858
770.549	0.0163521
770.628	0.0162500
770.706	0.0161667
770.784	0.0163278
770.862	0.0162127
770.940	0.0161327
771.018	0.0161110
771.096	0.0161509
771.174	0.0161632
771.253	0.0162350
771.331	0.0162177
771.409	0.0162875
771.487	0.0164028
771.565	0.0165088
771.643	0.0163075
771.721	0.0164159
771.799	0.0164591
771.878	0.0165205
771.956	0.0165173
772.034	0.0165088
772.112	0.0164605
772.190	0.0165939
772.268	0.0165802
772.346	0.0164561
772.424	0.0166279
772.503	0.0165533
772.581	0.0166535
772.659	0.0166302
772.737	0.0166129
772.815	0.0165192
772.893	0.0166148
772.971	0.0166453
773.049	0.0166547
773.128	0.0166667
773.206	0.0165966
773.284	0.0166496
773.362	0.0167303
773.440	0.0166398
773.518	0.0165421
773.596	0.0164925
773.674	0.0165680
773.753	0.0166187
773.831	0.0166317
773.909	0.0166071
773.987	0.0166860
774.065	0.0167525
774.143	0.0166700
774.221	0.0165781
774.299	0.0165063
774.378	0.0164424
774.456	0.0164911
774.534	0.0164657
774.612	0.0164990
774.690	0.0163564
774.768	0.0162576
774.846	0.0163232
774.924	0.0163087
775.003	0.0162627
775.081	0.0162771
775.159	0.0164197
775.237	0.0161650
775.315	0.0162137
775.393	0.0161584
775.471	0.0162518
775.549	0.0161478
775.628	0.0162080
775.706	0.0162716
775.784	0.0162046
775.862	0.0161342
775.940	0.0162655
776.018	0.0162836
776.096	0.0161766
776.174	0.0163088
776.253	0.0163185
776.331	0.0163261
776.409	0.0165347
776.487	0.0164284
776.565	0.0165192
776.643	0.0165472
776.721	0.0165448
776.799	0.0164770
776.878	0.0166307
776.956	0.0168341
777.034	0.0167236
777.112	0.0165452
777.190	0.0166566
777.268	0.0167560
777.346	0.0166777
777.424	0.0166593
777.503	0.0166217
777.581	0.0165605
777.659	0.0165903
777.737	0.0165335
777.815	0.0164827
777.893	0.0164355
777.971	0.0165303
778.049	0.0165305
778.128	0.0164837
778.206	0.0163091
778.284	0.0165198
778.362	0.0164063
778.440	0.0164483
778.518	0.0164546
778.596	0.0163520
778.674	0.0165082
778.753	0.0163688
778.831	0.0163525
778.909	0.0166589
778.987	0.0165685
779.065	0.0165411
779.143	0.0164834
779.221	0.0166018
779.299	0.0165550
779.378	0.0165273
779.456	0.0166961
779.534	0.0164146
779.612	0.0165182
779.690	0.0166423
779.768	0.0166998
779.846	0.0166055
779.924	0.0166351
780.003	0.0165256
780.081	0.0165609
780.159	0.0165508
780.237	0.0165791
780.315	0.0164249
780.393	0.0165079
780.471	0.0166129
780.549	0.0163544
780.628	0.0163955
780.706	0.0164531
780.784	0.0165213
780.862	0.0164954
780.940	0.0164554
781.018	0.0164949
781.096	0.0163332
781.174	0.0163773
781.253	0.0164184
781.331	0.0163049
781.409	0.0164391
781.487	0.0164239
781.565	0.0164951
781.643	0.0163703
781.721	0.0163917
781.799	0.0163284
781.878	0.0162497
781.956	0.0162486
782.034	0.0163169
782.112	0.0163534
782.190	0.0164111
782.268	0.0164252
782.346	0.0162313
782.424	0.0161523
782.503	0.0163529
782.581	0.0164571
782.659	0.0164014
782.737	0.0163338
782.815	0.0162898
782.893	0.0163594
782.971	0.0164469
783.049	0.0162627
783.128	0.0163638
783.206	0.0163209
783.284	0.0165186
783.362	0.0164375
783.440	0.0163347
783.518	0.0163810
783.596	0.0163118
783.674	0.0163013
783.753	0.0163310
783.831	0.0163158
783.909	0.0163649
783.987	0.0161700
784.065	0.0164096
784.143	0.0165405
784.221	0.0164196
784.299	0.0164224
784.378	0.0165799
784.456	0.0164586
784.534	0.0163634
784.612	0.0165887
784.690	0.0164883
784.768	0.0163807
784.846	0.0165883
784.924	0.0165333
785.003	0.0164909
785.081	0.0165067
785.159	0.0164723
785.237	0.0163392
785.315	0.0163359
785.393	0.0164112
785.471	0.0162482
785.549	0.0163535
785.628	0.0162130
785.706	0.0162944
785.784	0.0161484
785.862	0.0161412
785.940	0.0162627
786.018	0.0160670
786.096	0.0161843
786.174	0.0161732
786.253	0.0162955
786.331	0.0161450
786.409	0.0161038
786.487	0.0162360
786.565	0.0162415
786.643	0.0163172
786.721	0.0162836
786.799	0.0165343
786.878	0.0164680
786.956	0.0163409
787.034	0.0162454
787.112	0.0163466
787.190	0.0164299
787.268	0.0163906
787.346	0.0163672
787.424	0.0162700
787.503	0.0164628
787.581	0.0162225
787.659	0.0163343
787.737	0.0162599
787.815	0.0161741
787.893	0.0162371
787.971	0.0163408
788.049	0.0162765
788.128	0.0161536
788.206	0.0164642
788.284	0.0162356
788.362	0.0163757
788.440	0.0163082
788.518	0.0163251
788.596	0.0164087
788.674	0.0163194
788.753	0.0162582
788.831	0.0164008
788.909	0.0165870
788.987	0.0163744
789.065	0.0164957
789.143	0.0164682
789.221	0.0164703
789.299	0.0165159
789.378	0.0165538
789.456	0.0165279
789.534	0.0164944
789.612	0.0166048
789.690	0.0167993
789.768	0.0165361
789.846	0.0166197
789.924	0.0166428
790.003	0.0165822
790.081	0.0165675
790.159	0.0165475
790.237	0.0165042
790.315	0.0164382
790.393	0.0163943
790.471	0.0164536
790.549	0.0163245
790.628	0.0163534
790.706	0.0163937
790.784	0.0162729
790.862	0.0162261
790.940	0.0162600
791.018	0.0162183
791.096	0.0162440
791.174	0.0161562
791.253	0.0162000
791.331	0.0162096
791.409	0.0163386
791.487	0.0163107
791.565	0.0162208
791.643	0.0162708
791.721	0.0163543
791.799	0.0163235
791.878	0.0162946
791.956	0.0163429
792.034	0.0164928
792.112	0.0164272
792.190	0.0164797
792.268	0.0165033
792.346	0.0164973
792.424	0.0165866
792.503	0.0166112
792.581	0.0167292
792.659	0.0165974
792.737	0.0166580
792.815	0.0165874
792.893	0.0167831
792.971	0.0167410
793.049	0.0167182
793.128	0.0167343
793.206	0.0167039
793.284	0.0166956
793.362	0.0166358
793.440	0.0165051
793.518	0.0166335
793.596	0.0165649
793.674	0.0165499
793.753	0.0165248
793.831	0.0165114
793.909	0.0164734
793.987	0.0163340
794.065	0.0163853
794.143	0.0165469
794.221	0.0161906
794.299	0.0161546
794.378	0.0161212
794.456	0.0161288
794.534	0.0161932
794.612	0.0161477
794.690	0.0161681
794.768	0.0162005
794.846	0.0162440
794.924	0.0161337
795.003	0.0161388
795.081	0.0162606
795.159	0.0162888
795.237	0.0163039
795.315	0.0162717
795.393	0.0164578
795.471	0.0165644
795.549	0.0164535
795.628	0.0165221
795.706	0.0165091
795.784	0.0165895
795.862	0.0166470
795.940	0.0166888
796.018	0.0166179
796.096	0.0166116
796.174	0.0165888
796.253	0.0166563
796.331	0.0167161
796.409	0.0164940
796.487	0.0166005
796.565	0.0167703
796.643	0.0165652
796.721	0.0163926
796.799	0.0164191
796.878	0.0165613
796.956	0.0166330
797.034	0.0164796
797.112	0.0164910
797.190	0.0165535
797.268	0.0165660
797.346	0.0164864
797.424	0.0165425
797.503	0.0165615
797.581	0.0165076
797.659	0.0164377
797.737	0.0166097
797.815	0.0165215
797.893	0.0164033
797.971	0.0164036
798.049	0.0163400
798.128	0.0165900
798.206	0.0165142
798.284	0.0164826
798.362	0.0164493
798.440	0.0165675
798.518	0.0164697
798.596	0.0164870
798.674	0.0165397
798.753	0.0164273
798.831	0.0165636
798.909	0.0165057
798.987	0.0163512
799.065	0.0165520
799.143	0.0164767
799.221	0.0163257
799.299	0.0164336
799.378	0.0165056
799.456	0.0165479
799.534	0.0165103
799.612	0.0165212
799.690	0.0164548
799.768	0.0166210
799.846	0.0165646
799.924	0.0165233
800.003	0.0163904
800.081	0.0164727
800.159	0.0164646
800.237	0.0164173
800.315	0.0164345
800.393	0.0164262
800.471	0.0163638
800.549	0.0163716
800.628	0.0163731
800.706	0.0163528
800.784	0.0164279
800.862	0.0162669
800.940	0.0164058
801.018	0.0163506
801.096	0.0163145
801.174	0.0163013
801.253	0.0164646
801.331	0.0164376
801.409	0.0163699
801.487	0.0163851
801.565	0.0164476
801.643	0.0164878
801.721	0.0165490
801.799	0.0163972
801.878	0.0165462
801.956	0.0166541
802.034	0.0164683
802.112	0.0164730
802.190	0.0165507
802.268	0.0166373
802.346	0.0165080
802.424	0.0166315
802.503	0.0165321
802.581	0.0163931
802.659	0.0164427
802.737	0.0165543
802.815	0.0163905
802.893	0.0164751
802.971	0.0164053
803.049	0.0164231
803.128	0.0164183
803.206	0.0163223
803.284	0.0164416
803.362	0.0165655
803.440	0.0164649
803.518	0.0163221
803.596	0.0164377
803.674	0.0164382
803.753	0.0163824
803.831	0.0164416
803.909	0.0164643
803.987	0.0164644
804.065	0.0165773
804.143	0.0165936
804.221	0.0164534
804.299	0.0164171
804.378	0.0164763
804.456	0.0164520
804.534	0.0163821
804.612	0.0165685
804.690	0.0163612
804.768	0.0162587
804.846	0.0163210
804.924	0.0163428
805.003	0.0164754
805.081	0.0163857
805.159	0.0163139
805.237	0.0161868
805.315	0.0163479
805.393	0.0164818
805.471	0.0163477
805.549	0.0163284
805.628	0.0162963
805.706	0.0164475
805.784	0.0164374
805.862	0.0164372
805.940	0.0164103
806.018	0.0165886
806.096	0.0164825
806.174	0.0162671
806.253	0.0164036
806.331	0.0163889
806.409	0.0164413
806.487	0.0163596
806.565	0.0164190
806.643	0.0165393
806.721	0.0162605
806.799	0.0162978
806.878	0.0163817
806.956	0.0162605
807.034	0.0163474
807.112	0.0164310
807.190	0.0164059
807.268	0.0164622
807.346	0.0163409
807.424	0.0163749
807.503	0.0164028
807.581	0.0162956
807.659	0.0163943
807.737	0.0165176
807.815	0.0164115
807.893	0.0164936
807.971	0.0164653
808.049	0.0164333
808.128	0.0165508
808.206	0.0165393
808.284	0.0164895
808.362	0.0164584
808.440	0.0163313
808.518	0.0164883
808.596	0.0163338
808.674	0.0166575
808.753	0.0163046
808.831	0.0164577
808.909	0.0165302
808.987	0.0166229
809.065	0.0163680
809.143	0.0163526
809.221	0.0165269
809.299	0.0165069
809.378	0.0163067
809.456	0.0166146
809.534	0.0166263
809.612	0.0165060
809.690	0.0162527
809.768	0.0165707
809.846	0.0164938
809.924	0.0166479
810.003	0.0165026
810.081	0.0166213
810.159	0.0165111
810.237	0.0163963
810.315	0.0164854
810.393	0.0166013
810.471	0.0165652
810.549	0.0164685
810.628	0.0165491
810.706	0.0164321
810.784	0.0164783
810.862	0.0165677
810.940	0.0163095
811.018	0.0164362
811.096	0.0163763
811.174	0.0164912
811.253	0.0164780
811.331	0.0165323
811.409	0.0165005
811.487	0.0164826
811.565	0.0165406
811.643	0.0165008
811.721	0.0165508
811.799	0.0165067
811.878	0.0166115
811.956	0.0165430
812.034	0.0166431
812.112	0.0166457
812.190	0.0167527
812.268	0.0166273
812.346	0.0167343
812.424	0.0169218
812.503	0.0168233
812.581	0.0166775
812.659	0.0167406
812.737	0.0168320
812.815	0.0166302
812.893	0.0166647
812.971	0.0166615
813.049	0.0167527
813.128	0.0166049
813.206	0.0165714
813.284	0.0165435
813.362	0.0164456
813.440	0.0164263
813.518	0.0163620
813.596	0.0162291
813.674	0.0163721
813.753	0.0162614
813.831	0.0162894
813.909	0.0163829
813.987	0.0163500
814.065	0.0163848
814.143	0.0162521
814.221	0.0162878
814.299	0.0163820
814.378	0.0163956
814.456	0.0163922
814.534	0.0163968
814.612	0.0163389
814.690	0.0163505
814.768	0.0163728
814.846	0.0165389
814.924	0.0164573
815.003	0.0163555
815.081	0.0165617
815.159	0.0165047
815.237	0.0166527
815.315	0.0165121
815.393	0.0166187
815.471	0.0164072
815.549	0.0166259
815.628	0.0166269
815.706	0.0166109
815.784	0.0166846
815.862	0.0166581
815.940	0.0166139
816.018	0.0166326
816.096	0.0165654
816.174	0.0166541
816.253	0.0165044
816.331	0.0167197
816.409	0.0167541
816.487	0.0165808
816.565	0.0166344
816.643	0.0165608
816.721	0.0166269
816.799	0.0166867
816.878	0.0164926
816.956	0.0165878
817.034	0.0165570
817.112	0.0165176
817.190	0.0166063
817.268	0.0163795
817.346	0.0163353
817.424	0.0165004
817.503	0.0163705
817.581	0.0163065
817.659	0.0163313
817.737	0.0163634
817.815	0.0164368
817.893	0.0164422
817.971	0.0163962
818.049	0.0163904
818.128	0.0163294
818.206	0.0163731
818.284	0.0163438
818.362	0.0165308
818.440	0.0164440
818.518	0.0165344
818.596	0.0165865
818.674	0.0166416
818.753	0.0166230
818.831	0.0165129
818.909	0.0165561
818.987	0.0166671
819.065	0.0166996
819.143	0.0165529
819.221	0.0168009
819.299	0.0166034
819.378	0.0165793
819.456	0.0165379
819.534	0.0166420
819.612	0.0165591
819.690	0.0167623
819.768	0.0166917
819.846	0.0166211
819.924	0.0165889
820.003	0.0164148
820.081	0.0164885
820.159	0.0165476
820.237	0.0164274
820.315	0.0164668
820.393	0.0163747
820.471	0.0164077
820.549	0.0163910
820.628	0.0162302
820.706	0.0163577
820.784	0.0163916
820.862	0.0162688
820.940	0.0162683
821.018	0.0162983
821.096	0.0163694
821.174	0.0161639
821.253	0.0162691
821.331	0.0162743
821.409	0.0162089
821.487	0.0163266
821.565	0.0162621
821.643	0.0163012
821.721	0.0164163
821.799	0.0164827
821.878	0.0164126
821.956	0.0164214
822.034	0.0164097
822.112	0.0164867
822.190	0.0164397
822.268	0.0164871
822.346	0.0164404
822.424	0.0165421
822.503	0.0165103
822.581	0.0166326
822.659	0.0164797
822.737	0.0166805
822.815	0.0165374
822.893	0.0167098
822.971	0.0166034
823.049	0.0166299
823.128	0.0166268
823.206	0.0166892
823.284	0.0165594
823.362	0.0165549
823.440	0.0166481
823.518	0.0166378
823.596	0.0164442
823.674	0.0163528
823.753	0.0163638
823.831	0.0164635
823.909	0.0165661
823.987	0.0163071
824.065	0.0162130
824.143	0.0162945
824.221	0.0162815
824.299	0.0163555
824.378	0.0164590
824.456	0.0163723
824.534	0.0164036
824.612	0.0164652
824.690	0.0163705
824.768	0.0163313
824.846	0.0164571
824.924	0.0164752
825.003	0.0164403
825.081	0.0166019
825.159	0.0164211
825.237	0.0163921
825.315	0.0164343
825.393	0.0165228
825.471	0.0165090
825.549	0.0164008
825.628	0.0164220
825.706	0.0162275
825.784	0.0163633
825.862	0.0162919
825.940	0.0163388
826.018	0.0162756
826.096	0.0163693
826.174	0.0163268
826.253	0.0162264
826.331	0.0163203
826.409	0.0161489
826.487	0.0162698
826.565	0.0162609
826.643	0.0161806
826.721	0.0162707
826.799	0.0161423
826.878	0.0163111
826.956	0.0163795
827.034	0.0162774
827.112	0.0162714
827.190	0.0164410
827.268	0.0163992
827.346	0.0164268
827.424	0.0164063
827.503	0.0164745
827.581	0.0164401
827.659	0.0164182
827.737	0.0164294
827.815	0.0164546
827.893	0.0166388
827.971	0.0164806
828.049	0.0163956
828.128	0.0165946
828.206	0.0164919
828.284	0.0165134
828.362	0.0165676
828.440	0.0166358
828.518	0.0164600
828.596	0.0165388
828.674	0.0164948
828.753	0.0164050
828.831	0.0163943
828.909	0.0165286
828.987	0.0165788
829.065	0.0165717
829.143	0.0165627
829.221	0.0164539
829.299	0.0164574
829.378	0.0163935
829.456	0.0164833
829.534	0.0164500
829.612	0.0164687
829.690	0.0163347
829.768	0.0163620
829.846	0.0165280
829.924	0.0164285
830.003	0.0162426
830.081	0.0163115
830.159	0.0164085
830.237	0.0163525
830.315	0.0161938
830.393	0.0163145
830.471	0.0163104
830.549	0.0162282
830.628	0.0162965
830.706	0.0163259
830.784	0.0162331
830.862	0.0162273
830.940	0.0163168
831.018	0.0162924
831.096	0.0162608
831.174	0.0164125
831.253	0.0162746
831.331	0.0164109
831.409	0.0164136
831.487	0.0163557
831.565	0.0163196
831.643	0.0164662
831.721	0.0165163
831.799	0.0164661
831.878	0.0165207
831.956	0.0164082
832.034	0.0163982
832.112	0.0165432
832.190	0.0165903
832.268	0.0164883
832.346	0.0166006
832.424	0.0165927
832.503	0.0165907
832.581	0.0164014
832.659	0.0164815
832.737	0.0165036
832.815	0.0164764
832.893	0.0165735
832.971	0.0165767
833.049	0.0164618
833.128	0.0164791
833.206	0.0166405
833.284	0.0164836
833.362	0.0164960
833.440	0.0165543
833.518	0.0164471
833.596	0.0163632
833.674	0.0163956
833.753	0.0163433
833.831	0.0164472
833.909	0.0164302
833.987	0.0164536
834.065	0.0163455
834.143	0.0162561
834.221	0.0162611
834.299	0.0163390
834.378	0.0162067
834.456	0.0162203
834.534	0.0162933
834.612	0.0162666
834.690	0.0162510
834.768	0.0162304
834.846	0.0161505
834.924	0.0161706
835.003	0.0162039
835.081	0.0162670
835.159	0.0162038
835.237	0.0162467
835.315	0.0163550
835.393	0.0163215
835.471	0.0162897
835.549	0.0163520
835.628	0.0164696
835.706	0.0164941
835.784	0.0163542
835.862	0.0164637
835.940	0.0164007
836.018	0.0165823
836.096	0.0166131
836.174	0.0165722
836.253	0.0166059
836.331	0.0165462
836.409	0.0166676
836.487	0.0166557
836.565	0.0165369
836.643	0.0166232
836.721	0.0165604
836.799	0.0165812
836.878	0.0166584
836.956	0.0165136
837.034	0.0165759
837.112	0.0165445
837.190	0.0166940
837.268	0.0165292
837.346	0.0166440
837.424	0.0166985
837.503	0.0165721
837.581	0.0164678
837.659	0.0165233
837.737	0.0165847
837.815	0.0164539
837.893	0.0165680
837.971	0.0165276
838.049	0.0165205
838.128	0.0164352
838.206	0.0164761
838.284	0.0164059
838.362	0.0163573
838.440	0.0164856
838.518	0.0163929
838.596	0.0162785
838.674	0.0162518
838.753	0.0163341
838.831	0.0161156
838.909	0.0161337
838.987	0.0162315
839.065	0.0161549
839.143	0.0162231
839.221	0.0163369
839.299	0.0160956
839.378	0.0162624
839.456	0.0161592
839.534	0.0162225
839.612	0.0163047
839.690	0.0161939
839.768	0.0161671
839.846	0.0160933
839.924	0.0162975
840.003	0.0163464
840.081	0.0163505
840.159	0.0162688
840.237	0.0164307
840.315	0.0163262
840.393	0.0162202
840.471	0.0163656
840.549	0.0164267
840.628	0.0165530
840.706	0.0165119
840.784	0.0163798
840.862	0.0165594
840.940	0.0165032
841.018	0.0165946
841.096	0.0165031
841.174	0.0164539
841.253	0.0165408
841.331	0.0166164
841.409	0.0165292
841.487	0.0165321
841.565	0.0165743
841.643	0.0166721
841.721	0.0167030
841.799	0.0164915
841.878	0.0167537
841.956	0.0167920
842.034	0.0165957
842.112	0.0166511
842.190	0.0164986
842.268	0.0164869
842.346	0.0164961
842.424	0.0165602
842.503	0.0165012
842.581	0.0163663
842.659	0.0164289
842.737	0.0164937
842.815	0.0165380
842.893	0.0163571
842.971	0.0164148
843.049	0.0164635
843.128	0.0163920
843.206	0.0164176
843.284	0.0163657
843.362	0.0163394
843.440	0.0163368
843.518	0.0163790
843.596	0.0164144
843.674	0.0162572
843.753	0.0161600
843.831	0.0163580
843.909	0.0161965
843.987	0.0162121
844.065	0.0162562
844.143	0.0164312
844.221	0.0164373
844.299	0.0163512
844.378	0.0164433
844.456	0.0163431
844.534	0.0164494
844.612	0.0163361
844.690	0.0165004
844.768	0.0164829
844.846	0.0165266
844.924	0.0165210
845.003	0.0165302
845.081	0.0166610
845.159	0.0164256
845.237	0.0164826
845.315	0.0165816
845.393	0.0165513
845.471	0.0165482
845.549	0.0164674
845.628	0.0165733
845.706	0.0165686
845.784	0.0164245
845.862	0.0164729
845.940	0.0163747
846.018	0.0164140
846.096	0.0164361
846.174	0.0163930
846.253	0.0165559
846.331	0.0164114
846.409	0.0163611
846.487	0.0165012
846.565	0.0164456
846.643	0.0163922
846.721	0.0164344
846.799	0.0164913
846.878	0.0163605
846.956	0.0165395
847.034	0.0163949
847.112	0.0165416
847.190	0.0164854
847.268	0.0166058
847.346	0.0165161
847.424	0.0164470
847.503	0.0164924
847.581	0.0165096
847.659	0.0165955
847.737	0.0165644
847.815	0.0165229
847.893	0.0166071
847.971	0.0165227
848.049	0.0164045
848.128	0.0164270
848.206	0.0164923
848.284	0.0164496
848.362	0.0163750
848.440	0.0165108
848.518	0.0164992
848.596	0.0164134
848.674	0.0164675
848.753	0.0163560
848.831	0.0163773
848.909	0.0163465
848.987	0.0164067
849.065	0.0164119
849.143	0.0163197
849.221	0.0163530
849.299	0.0162988
849.378	0.0163734
849.456	0.0163465
849.534	0.0162498
849.612	0.0163458
849.690	0.0163771
849.768	0.0161517
849.846	0.0161540
849.924	0.0162119
850.003	0.0163078
850.081	0.0162772
850.159	0.0161008
850.237	0.0161507
850.315	0.0162589
850.393	0.0163353
850.471	0.0163120
850.549	0.0161995
850.628	0.0163503
850.706	0.0164208
850.784	0.0162195
850.862	0.0163441
850.940	0.0164485
851.018	0.0164165
851.096	0.0164484
851.174	0.0165272
851.253	0.0166669
851.331	0.0165603
851.409	0.0165164
851.487	0.0167239
851.565	0.0165325
851.643	0.0165022
851.721	0.0165531
851.799	0.0167384
851.878	0.0166148
851.956	0.0164456
852.034	0.0166842
852.112	0.0166156
852.190	0.0165586
852.268	0.0166304
852.346	0.0164857
852.424	0.0165719
852.503	0.0165355
852.581	0.0164575
852.659	0.0166821
852.737	0.0164476
852.815	0.0164802
852.893	0.0166722
852.971	0.0163834
853.049	0.0165179
853.128	0.0164375
853.206	0.0163864
853.284	0.0164183
853.362	0.0164686
853.440	0.0163738
853.518	0.0164056
853.596	0.0162703
853.674	0.0164571
853.753	0.0164361
853.831	0.0163219
853.909	0.0163935
853.987	0.0164835
854.065	0.0163596
854.143	0.0162926
854.221	0.0164538
854.299	0.0163617
854.378	0.0163760
854.456	0.0163255
854.534	0.0164198
854.612	0.0165940
854.690	0.0165774
854.768	0.0165675
854.846	0.0163871
854.924	0.0163081
855.003	0.0165126
855.081	0.0165558
855.159	0.0165308
855.237	0.0164697
855.315	0.0163896
855.393	0.0165527
855.471	0.0166158
855.549	0.0163520
855.628	0.0164376
855.706	0.0164997
855.784	0.0165470
855.862	0.0164616
855.940	0.0164458
856.018	0.0163893
856.096	0.0163178
856.174	0.0162379
856.253	0.0163000
856.331	0.0164600
856.409	0.0163908
856.487	0.0162553
856.565	0.0162022
856.643	0.0163633
856.721	0.0163766
856.799	0.0162730
856.878	0.0162798
856.956	0.0164175
857.034	0.0162174
857.112	0.0163492
857.190	0.0164114
857.268	0.0163920
857.346	0.0163022
857.424	0.0163747
857.503	0.0162907
857.581	0.0163548
857.659	0.0163714
857.737	0.0164258
857.815	0.0165462
857.893	0.0164212
857.971	0.0163464
858.049	0.0164658
858.128	0.0164536
858.206	0.0164611
858.284	0.0165638
858.362	0.0163560
858.440	0.0164521
858.518	0.0164017
858.596	0.0164294
858.674	0.0164633
858.753	0.0166386
858.831	0.0165035
858.909	0.0164858
858.987	0.0163692
859.065	0.0165106
859.143	0.0163810
859.221	0.0163862
859.299	0.0162823
859.378	0.0163544
859.456	0.0163972
859.534	0.0164431
859.612	0.0164238
859.690	0.0164360
859.768	0.0163364
859.846	0.0162418
859.924	0.0163342
860.003	0.0163354
860.081	0.0162588
860.159	0.0163612
860.237	0.0163461
860.315	0.0163940
860.393	0.0163949
860.471	0.0163651
860.549	0.0163313
860.628	0.0163908
860.706	0.0163270
860.784	0.0163152
860.862	0.0163265
860.940	0.0163425
861.018	0.0162482
861.096	0.0162067
861.174	0.0163605
861.253	0.0161846
861.331	0.0162947
861.409	0.0161952
861.487	0.0162415
861.565	0.0162514
861.643	0.0163138
861.721	0.0163416
861.799	0.0162910
861.878	0.0160703
861.956	0.0160839
862.034	0.0163486
862.112	0.0164500
862.190	0.0162936
862.268	0.0163601
862.346	0.0163734
862.424	0.0162056
862.503	0.0162423
862.581	0.0163693
862.659	0.0162569
862.737	0.0163634
862.815	0.0164334
862.893	0.0165402
862.971	0.0163129
863.049	0.0163485
863.128	0.0164124
863.206	0.0164880
863.284	0.0163467
863.362	0.0163831
863.440	0.0163584
863.518	0.0163937
863.596	0.0164155
863.674	0.0163652
863.753	0.0163303
863.831	0.0163793
863.909	0.0165020
863.987	0.0163772
864.065	0.0164975
864.143	0.0164577
864.221	0.0164812
864.299	0.0164344
864.378	0.0165354
864.456	0.0163448
864.534	0.0164020
864.612	0.0164320
864.690	0.0163625
864.768	0.0162872
864.846	0.0163641
864.924	0.0163539
865.003	0.0163755
865.081	0.0163528
865.159	0.0163932
865.237	0.0165060
865.315	0.0162608
865.393	0.0163491
865.471	0.0164131
865.549	0.0161918
865.628	0.0162725
865.706	0.0161890
865.784	0.0161118
865.862	0.0163140
865.940	0.0162840
866.018	0.0162630
866.096	0.0162617
866.174	0.0160779
866.253	0.0162375
866.331	0.0163132
866.409	0.0163101
866.487	0.0161559
866.565	0.0162434
866.643	0.0161575
866.721	0.0161705
866.799	0.0162164
866.878	0.0162313
866.956	0.0162172
867.034	0.0162529
867.112	0.0163094
867.190	0.0163626
867.268	0.0164002
867.346	0.0165448
867.424	0.0163374
867.503	0.0163743
867.581	0.0164060
867.659	0.0164764
867.737	0.0164182
867.815	0.0163554
867.893	0.0164482
867.971	0.0165771
868.049	0.0163129
868.128	0.0163490
868.206	0.0165701
868.284	0.0164912
868.362	0.0163534
868.440	0.0163128
868.518	0.0165028
868.596	0.0165627
868.674	0.0163605
868.753	0.0164349
868.831	0.0165125
868.909	0.0165716
868.987	0.0166708
869.065	0.0165271
869.143	0.0165674
869.221	0.0165546
869.299	0.0163208
869.378	0.0163818
869.456	0.0164423
869.534	0.0165047
869.612	0.0164140
869.690	0.0164545
869.768	0.0165142
869.846	0.0163946
869.924	0.0165470
870.003	0.0164294
870.081	0.0164655
870.159	0.0166193
870.237	0.0162980
870.315	0.0164288
870.393	0.0164835
870.471	0.0165780
870.549	0.0164774
870.628	0.0163709
870.706	0.0164800
870.784	0.0164818
870.862	0.0163968
870.940	0.0163223
871.018	0.0163097
871.096	0.0165157
871.174	0.0163622
871.253	0.0163124
871.331	0.0163226
871.409	0.0164071
871.487	0.0163811
871.565	0.0163766
871.643	0.0162527
871.721	0.0164079
871.799	0.0163570
871.878	0.0163966
871.956	0.0162717
872.034	0.0165118
872.112	0.0163082
872.190	0.0164163
872.268	0.0164312
872.346	0.0163600
872.424	0.0163972
872.503	0.0163805
872.581	0.0163948
872.659	0.0165077
872.737	0.0165135
872.815	0.0164400
872.893	0.0165359
872.971	0.0165797
873.049	0.0165165
873.128	0.0164326
873.206	0.0164222
873.284	0.0165247
873.362	0.0165862
873.440	0.0164283
873.518	0.0165453
873.596	0.0166517
873.674	0.0166634
873.753	0.0165769
873.831	0.0165414
873.909	0.0165980
873.987	0.0166911
874.065	0.0165462
874.143	0.0164241
874.221	0.0164251
874.299	0.0165986
874.378	0.0166022
874.456	0.0164863
874.534	0.0165670
874.612	0.0165237
874.690	0.0164068
874.768	0.0166846
874.846	0.0166382
874.924	0.0165689
875.003	0.0164760
875.081	0.0166542
875.159	0.0165158
875.237	0.0163618
875.315	0.0165166
875.393	0.0164289
875.471	0.0164733
875.549	0.0165056
875.628	0.0164876
875.706	0.0163226
875.784	0.0164288
875.862	0.0164352
875.940	0.0165975
876.018	0.0163878
876.096	0.0165105
876.174	0.0165365
876.253	0.0163509
876.331	0.0164357
876.409	0.0163836
876.487	0.0164928
876.565	0.0163892
876.643	0.0165123
876.721	0.0166279
876.799	0.0164738
876.878	0.0163936
876.956	0.0163783
877.034	0.0163488
877.112	0.0164758
877.190	0.0164484
877.268	0.0163860
877.346	0.0166104
877.424	0.0164740
877.503	0.0166674
877.581	0.0164139
877.659	0.0165115
877.737	0.0164237
877.815	0.0165675
877.893	0.0164722
877.971	0.0164768
878.049	0.0164105
878.128	0.0164656
878.206	0.0163126
878.284	0.0164230
878.362	0.0164865
878.440	0.0165498
878.518	0.0163712
878.596	0.0164096
878.674	0.0164593
878.753	0.0163693
878.831	0.0164606
878.909	0.0164623
878.987	0.0164825
879.065	0.0165056
879.143	0.0165833
879.221	0.0163662
879.299	0.0164143
879.378	0.0163309
879.456	0.0165395
879.534	0.0165417
879.612	0.0163046
879.690	0.0164191
879.768	0.0163798
879.846	0.0164037
879.924	0.0164359
880.003	0.0162684
880.081	0.0163009
880.159	0.0162347
880.237	0.0163531
880.315	0.0163222
880.393	0.0164135
880.471	0.0163495
880.549	0.0163088
880.628	0.0163823
880.706	0.0162817
880.784	0.0162094
880.862	0.0162424
880.940	0.0162648
881.018	0.0164140
881.096	0.0163738
881.174	0.0162953
881.253	0.0163590
881.331	0.0163443
881.409	0.0163745
881.487	0.0163069
881.565	0.0163580
881.643	0.0163660
881.721	0.0164441
881.799	0.0163630
881.878	0.0163908
881.956	0.0163681
882.034	0.0164898
882.112	0.0164220
882.190	0.0163834
882.268	0.0164144
882.346	0.0164399
882.424	0.0164417
882.503	0.0163800
882.581	0.0165401
882.659	0.0164324
882.737	0.0164351
882.815	0.0165078
882.893	0.0163373
882.971	0.0165147
883.049	0.0164393
883.128	0.0164700
883.206	0.0164050
883.284	0.0164965
883.362	0.0164153
883.440	0.0164162
883.518	0.0165461
883.596	0.0165903
883.674	0.0165416
883.753	0.0164919
883.831	0.0164896
883.909	0.0164372
883.987	0.0164539
884.065	0.0164877
884.143	0.0165697
884.221	0.0163443
884.299	0.0164603
884.378	0.0165974
884.456	0.0163895
884.534	0.0164671
884.612	0.0165364
884.690	0.0165070
884.768	0.0164172
884.846	0.0164411
884.924	0.0164648
885.003	0.0164780
885.081	0.0163357
885.159	0.0164017
885.237	0.0165431
885.315	0.0164579
885.393	0.0164536
885.471	0.0165030
885.549	0.0164379
885.628	0.0162889
885.706	0.0164979
885.784	0.0164661
885.862	0.0165034
885.940	0.0163895
886.018	0.0165025
886.096	0.0164484
886.174	0.0165266
886.253	0.0164599
886.331	0.0164696
886.409	0.0166029
886.487	0.0165686
886.565	0.0164770
886.643	0.0165117
886.721	0.0164205
886.799	0.0164777
886.878	0.0164819
886.956	0.0164072
887.034	0.0163725
887.112	0.0163113
887.190	0.0164079
887.268	0.0163809
887.346	0.0164075
887.424	0.0163966
887.503	0.0163894
887.581	0.0164038
887.659	0.0163181
887.737	0.0163377
887.815	0.0164257
887.893	0.0162566
887.971	0.0163171
888.049	0.0163419
888.128	0.0163027
888.206	0.0162771
888.284	0.0161724
888.362	0.0163560
888.440	0.0163811
888.518	0.0163911
888.596	0.0165018
888.674	0.0164935
888.753	0.0163582
888.831	0.0164930
888.909	0.0164513
888.987	0.0163383
889.065	0.0164188
889.143	0.0165516
889.221	0.0164693
889.299	0.0165829
889.378	0.0163901
889.456	0.0163345
889.534	0.0164521
889.612	0.0164056
889.690	0.0163500
889.768	0.0163695
889.846	0.0164668
889.924	0.0164767
890.003	0.0164296
890.081	0.0164993
890.159	0.0163902
890.237	0.0164615
890.315	0.0164514
890.393	0.0163798
890.471	0.0164195
890.549	0.0164646
890.628	0.0164098
890.706	0.0162600
890.784	0.0163341
890.862	0.0163119
890.940	0.0162614
891.018	0.0163044
891.096	0.0161774
891.174	0.0161913
891.253	0.0161738
891.331	0.0163115
891.409	0.0163483
891.487	0.0162146
891.565	0.0163170
891.643	0.0162393
891.721	0.0162430
891.799	0.0163107
891.878	0.0161832
891.956	0.0163170
892.034	0.0163569
892.112	0.0164027
892.190	0.0164345
892.268	0.0165067
892.346	0.0165031
892.424	0.0163433
892.503	0.0164671
892.581	0.0165202
892.659	0.0164500
892.737	0.0164795
892.815	0.0166246
892.893	0.0165408
892.971	0.0165862
893.049	0.0165759
893.128	0.0164750
893.206	0.0165624
893.284	0.0164614
893.362	0.0165685
893.440	0.0165005
893.518	0.0164924
893.596	0.0166145
893.674	0.0165815
893.753	0.0164015
893.831	0.0164442
893.909	0.0163302
893.987	0.0163979
894.065	0.0164025
894.143	0.0164767
894.221	0.0165345
894.299	0.0165089
894.378	0.0165007
894.456	0.0164389
894.534	0.0164731
894.612	0.0166085
894.690	0.0165276
894.768	0.0166257
894.846	0.0166469
894.924	0.0164421
895.003	0.0165900
895.081	0.0165985
895.159	0.0165838
895.237	0.0165746
895.315	0.0164477
895.393	0.0165543
895.471	0.0165217
895.549	0.0164959
895.628	0.0165619
895.706	0.0163477
895.784	0.0165179
895.862	0.0165680
895.940	0.0163324
896.018	0.0165143
896.096	0.0164692
896.174	0.0164732
896.253	0.0164053
896.331	0.0164176
896.409	0.0164241
896.487	0.0162840
896.565	0.0164860
896.643	0.0165400
896.721	0.0164918
896.799	0.0163543
896.878	0.0164162
896.956	0.0163032
897.034	0.0164977
897.112	0.0163255
897.190	0.0164648
897.268	0.0164213
897.346	0.0163458
897.424	0.0164890
897.503	0.0166935
897.581	0.0165054
897.659	0.0164252
897.737	0.0163806
897.815	0.0165436
897.893	0.0165230
897.971	0.0165022
898.049	0.0165395
898.128	0.0164980
898.206	0.0165460
898.284	0.0165236
898.362	0.0164404
898.440	0.0164975
898.518	0.0164730
898.596	0.0164024
898.674	0.0165501
898.753	0.0165472
898.831	0.0164672
898.909	0.0165025
898.987	0.0164409
899.065	0.0163515
899.143	0.0165628
899.221	0.0164515
899.299	0.0163721
899.378	0.0164522
899.456	0.0163678
899.534	0.0165132
899.612	0.0165031
899.690	0.0165149
899.768	0.0163197
899.846	0.0163511
899.924	0.0163274
900.003	0.0164658
900.081	0.0163735
900.159	0.0164274
900.237	0.0163789
900.315	0.0163544
900.393	0.0163778
900.471	0.0164848
900.549	0.0163262
900.628	0.0164008
900.706	0.0163113
900.784	0.0162313
900.862	0.0163228
900.940	0.0162231
901.018	0.0163844
901.096	0.0163309
901.174	0.0164578
901.253	0.0163926
901.331	0.0163078
901.409	0.0164225
901.487	0.0164143
901.565	0.0163629
901.643	0.0164915
901.721	0.0162941
901.799	0.0163109
901.878	0.0163740
901.956	0.0163644
902.034	0.0163578
902.112	0.0164885
902.190	0.0164736
902.268	0.0163600
902.346	0.0163090
902.424	0.0164069
902.503	0.0165395
902.581	0.0164342
902.659	0.0163723
902.737	0.0164558
902.815	0.0163920
902.893	0.0163742
902.971	0.0164539
903.049	0.0165196
903.128	0.0163853
903.206	0.0164130
903.284	0.0164480
903.362	0.0163188
903.440	0.0164130
903.518	0.0162203
903.596	0.0163993
903.674	0.0164672
903.753	0.0165656
903.831	0.0163353
903.909	0.0162849
903.987	0.0166078
904.065	0.0164500
904.143	0.0163947
904.221	0.0163299
904.299	0.0163143
904.378	0.0162906
904.456	0.0162690
904.534	0.0163617
904.612	0.0162656
904.690	0.0163976
904.768	0.0163708
904.846	0.0162633
904.924	0.0162492
905.003	0.0163354
905.081	0.0162680
905.159	0.0162919
905.237	0.0163958
905.315	0.0163248
905.393	0.0162364
905.471	0.0162525
905.549	0.0162940
905.628	0.0164072
905.706	0.0162821
905.784	0.0162365
905.862	0.0163294
905.940	0.0162717
906.018	0.0163300
906.096	0.0162754
906.174	0.0162383
906.253	0.0163119
906.331	0.0163569
906.409	0.0164253
906.487	0.0163707
906.565	0.0164907
906.643	0.0163512
906.721	0.0164274
906.799	0.0163811
906.878	0.0163861
906.956	0.0162814
907.034	0.0161825
907.112	0.0162555
907.190	0.0162016
907.268	0.0161858
907.346	0.0162550
907.424	0.0163038
907.503	0.0162849
907.581	0.0163837
907.659	0.0163157
907.737	0.0163046
907.815	0.0161910
907.893	0.0162514
907.971	0.0162583
908.049	0.0162682
908.128	0.0163012
908.206	0.0163121
908.284	0.0162973
908.362	0.0163994
908.440	0.0164439
908.518	0.0163375
908.596	0.0163599
908.674	0.0164061
908.753	0.0163836
908.831	0.0163467
908.909	0.0163792
908.987	0.0164848
909.065	0.0163702
909.143	0.0163455
909.221	0.0163556
909.299	0.0163198
909.378	0.0165014
909.456	0.0164455
909.534	0.0164409
909.612	0.0162974
909.690	0.0164659
909.768	0.0165264
909.846	0.0164569
909.924	0.0164774
910.003	0.0163039
910.081	0.0163909
910.159	0.0164750
910.237	0.0163168
910.315	0.0165055
910.393	0.0163944
910.471	0.0163461
910.549	0.0165535
910.628	0.0163926
910.706	0.0163495
910.784	0.0163893
910.862	0.0163702
910.940	0.0164164
911.018	0.0164242
911.096	0.0163955
911.174	0.0164155
911.253	0.0163172
911.331	0.0164375
911.409	0.0163449
911.487	0.0163725
911.565	0.0164288
911.643	0.0165031
911.721	0.0163519
911.799	0.0163571
911.878	0.0161819
911.956	0.0163548
912.034	0.0163139
912.112	0.0164008
912.190	0.0164708
912.268	0.0163672
912.346	0.0162936
912.424	0.0163409
912.503	0.0164555
912.581	0.0164463
912.659	0.0164620
912.737	0.0164394
912.815	0.0164342
912.893	0.0165915
912.971	0.0164220
913.049	0.0164539
913.128	0.0165333
913.206	0.0164162
913.284	0.0164825
913.362	0.0165366
913.440	0.0164571
913.518	0.0166145
913.596	0.0164677
913.674	0.0164266
913.753	0.0165172
913.831	0.0165584
913.909	0.0164935
913.987	0.0165329
914.065	0.0165948
914.143	0.0165385
914.221	0.0164539
914.299	0.0163493
914.378	0.0163448
914.456	0.0165746
914.534	0.0164616
914.612	0.0164452
914.690	0.0164468
914.768	0.0163587
914.846	0.0164623
914.924	0.0163742
915.003	0.0164923
915.081	0.0163931
915.159	0.0163605
915.237	0.0164546
915.315	0.0163932
915.393	0.0164735
915.471	0.0164017
915.549	0.0164914
915.628	0.0163504
915.706	0.0164239
915.784	0.0164088
915.862	0.0163421
915.940	0.0164582
916.018	0.0165905
916.096	0.0164704
916.174	0.0164925
916.253	0.0163963
916.331	0.0164375
916.409	0.0163972
916.487	0.0164736
916.565	0.0165589
916.643	0.0165913
916.721	0.0164102
916.799	0.0163595
916.878	0.0164953
916.956	0.0163502
917.034	0.0166022
917.112	0.0165060
917.190	0.0165006
917.268	0.0164904
917.346	0.0166456
917.424	0.0164776
917.503	0.0164600
917.581	0.0165182
917.659	0.0165337
917.737	0.0164653
917.815	0.0165192
917.893	0.0166859
917.971	0.0163805
918.049	0.0163763
918.128	0.0164845
918.206	0.0165331
918.284	0.0165412
918.362	0.0165383
918.440	0.0165046
918.518	0.0165436
918.596	0.0164436
918.674	0.0165214
918.753	0.0164548
918.831	0.0165390
918.909	0.0164309
918.987	0.0164259
919.065	0.0164671
919.143	0.0165324
919.221	0.0164442
919.299	0.0165662
919.378	0.0164299
919.456	0.0165497
919.534	0.0165129
919.612	0.0165520
919.690	0.0164561
919.768	0.0165450
919.846	0.0165399
919.924	0.0164577
920.003	0.0165160
920.081	0.0165897
920.159	0.0164990
920.237	0.0165718
920.315	0.0166779
920.393	0.0163828
920.471	0.0164243
920.549	0.0163735
920.628	0.0163087
920.706	0.0163390
920.784	0.0163828
920.862	0.0163691
920.940	0.0164016
921.018	0.0162336
921.096	0.0163412
921.174	0.0164888
921.253	0.0164365
921.331	0.0162676
921.409	0.0165190
921.487	0.0165592
921.565	0.0164313
921.643	0.0165433
921.721	0.0166341
921.799	0.0164445
921.878	0.0164606
921.956	0.0163955
922.034	0.0164839
922.112	0.0165509
922.190	0.0163595
922.268	0.0164565
922.346	0.0165415
922.424	0.0164293
922.503	0.0163711
922.581	0.0163763
922.659	0.0165364
922.737	0.0163720
922.815	0.0166012
922.893	0.0165176
922.971	0.0164808
923.049	0.0164047
923.128	0.0164363
923.206	0.0166030
923.284	0.0163534
923.362	0.0164671
923.440	0.0165490
923.518	0.0164232
923.596	0.0164745
923.674	0.0165439
923.753	0.0164894
923.831	0.0163711
923.909	0.0165137
923.987	0.0163275
924.065	0.0165195
924.143	0.0163353
924.221	0.0163123
924.299	0.0165454
924.378	0.0165222
924.456	0.0163712
924.534	0.0163350
924.612	0.0163315
924.690	0.0163834
924.768	0.0163815
924.846	0.0163546
924.924	0.0164133
925.003	0.0163960
925.081	0.0163699
925.159	0.0164050
925.237	0.0162663
925.315	0.0162943
925.393	0.0162799
925.471	0.0162598
925.549	0.0163859
925.628	0.0163634
925.706	0.0163618
925.784	0.0162085
925.862	0.0162711
925.940	0.0162390
926.018	0.0163763
926.096	0.0164174
926.174	0.0164127
926.253	0.0161194
926.331	0.0163182
926.409	0.0165009
926.487	0.0165002
926.565	0.0164058
926.643	0.0164470
926.721	0.0163826
926.799	0.0164496
926.878	0.0164727
926.956	0.0163566
927.034	0.0164992
927.112	0.0164866
927.190	0.0164320
927.268	0.0165219
927.346	0.0165132
927.424	0.0164384
927.503	0.0164893
927.581	0.0163157
927.659	0.0165480
927.737	0.0164775
927.815	0.0163924
927.893	0.0163150
927.971	0.0164286
928.049	0.0164626
928.128	0.0164703
928.206	0.0164400
928.284	0.0165075
928.362	0.0164796
928.440	0.0162710
928.518	0.0163287
928.596	0.0163358
928.674	0.0163204
928.753	0.0162772
928.831	0.0162637
928.909	0.0162498
928.987	0.0163096
929.065	0.0162767
929.143	0.0161521
929.221	0.0161512
929.299	0.0161192
929.378	0.0161323
929.456	0.0161975
929.534	0.0162386
929.612	0.0162208
929.690	0.0163142
929.768	0.0161417
929.846	0.0161735
929.924	0.0162312
930.003	0.0161770
930.081	0.0162555
930.159	0.0162644
930.237	0.0161481
930.315	0.0161768
930.393	0.0163223
930.471	0.0163612
930.549	0.0162887
930.628	0.0163608
930.706	0.0163279
930.784	0.0161957
930.862	0.0164105
930.940	0.0163271
931.018	0.0163364
931.096	0.0163675
931.174	0.0163511
931.253	0.0163072
931.331	0.0163369
931.409	0.0163245
931.487	0.0163054
931.565	0.0162904
931.643	0.0162170
931.721	0.0163255
931.799	0.0162151
931.878	0.0162464
931.956	0.0162777
932.034	0.0163295
932.112	0.0163443
932.190	0.0163566
932.268	0.0162248
932.346	0.0162235
932.424	0.0161702
932.503	0.0162691
932.581	0.0163220
932.659	0.0163097
932.737	0.0161977
932.815	0.0163763
932.893	0.0162405
932.971	0.0162230
933.049	0.0162328
933.128	0.0162571
933.206	0.0164035
933.284	0.0163202
933.362	0.0163078
933.440	0.0164129
933.518	0.0163373
933.596	0.0164886
933.674	0.0164261
933.753	0.0163461
933.831	0.0163405
933.909	0.0163593
933.987	0.0164907
934.065	0.0164993
934.143	0.0162362
934.221	0.0163454
934.299	0.0162775
934.378	0.0165201
934.456	0.0165400
934.534	0.0164741
934.612	0.0164191
934.690	0.0165444
934.768	0.0165389
934.846	0.0165517
934.924	0.0164304
935.003	0.0164362
935.081	0.0165263
935.159	0.0165298
935.237	0.0163625
935.315	0.0164256
935.393	0.0163116
935.471	0.0164261
935.549	0.0165117
935.628	0.0164229
935.706	0.0164567
935.784	0.0166185
935.862	0.0164304
935.940	0.0165004
936.018	0.0164244
936.096	0.0163987
936.174	0.0163821
936.253	0.0163691
936.331	0.0164201
936.409	0.0164516
936.487	0.0163859
936.565	0.0165203
936.643	0.0164830
936.721	0.0163659
936.799	0.0164167
936.878	0.0165274
936.956	0.0164835
937.034	0.0165205
937.112	0.0165504
937.190	0.0163642
937.268	0.0166097
937.346	0.0167069
937.424	0.0165604
937.503	0.0165750
937.581	0.0165778
937.659	0.0166576
937.737	0.0165947
937.815	0.0164756
937.893	0.0165324
937.971	0.0165456
938.049	0.0165082
938.128	0.0166474
938.206	0.0165496
938.284	0.0166319
938.362	0.0166673
938.440	0.0164990
938.518	0.0165232
938.596	0.0165401
938.674	0.0164744
938.753	0.0165799
938.831	0.0165942
938.909	0.0166149
938.987	0.0166158
939.065	0.0165821
939.143	0.0165741
939.221	0.0164290
939.299	0.0164283
939.378	0.0164840
939.456	0.0163503
939.534	0.0164178
939.612	0.0164016
939.690	0.0164258
939.768	0.0164608
939.846	0.0165182
939.924	0.0164004
940.003	0.0164481
940.081	0.0164989
940.159	0.0165041
940.237	0.0165562
940.315	0.0165704
940.393	0.0164656
940.471	0.0164803
940.549	0.0165817
940.628	0.0165430
940.706	0.0164491
940.784	0.0166301
940.862	0.0166798
940.940	0.0165616
941.018	0.0167177
941.096	0.0165901
941.174	0.0164910
941.253	0.0166505
941.331	0.0165381
941.409	0.0167129
941.487	0.0165750
941.565	0.0166383
941.643	0.0165979
941.721	0.0167310
941.799	0.0167390
941.878	0.0165736
941.956	0.0165688
942.034	0.0165771
942.112	0.0163826
942.190	0.0165343
942.268	0.0165340
942.346	0.0165412
942.424	0.0165976
942.503	0.0165362
942.581	0.0163565
942.659	0.0165571
942.737	0.0164410
942.815	0.0165182
942.893	0.0164592
942.971	0.0164169
943.049	0.0164082
943.128	0.0165417
943.206	0.0164530
943.284	0.0164928
943.362	0.0164207
943.440	0.0166380
943.518	0.0165016
943.596	0.0164721
943.674	0.0164246
943.753	0.0164361
943.831	0.0164545
943.909	0.0164678
943.987	0.0164601
944.065	0.0164530
944.143	0.0166212
944.221	0.0164283
944.299	0.0165820
944.378	0.0166074
944.456	0.0164842
944.534	0.0165974
944.612	0.0164856
944.690	0.0167854
944.768	0.0165514
944.846	0.0165561
944.924	0.0165754
945.003	0.0165707
945.081	0.0166277
945.159	0.0165281
945.237	0.0164559
945.315	0.0164081
945.393	0.0165709
945.471	0.0164928
945.549	0.0164538
945.628	0.0165567
945.706	0.0165013
945.784	0.0166293
945.862	0.0164236
945.940	0.0165826
946.018	0.0165405
946.096	0.0164634
946.174	0.0164269
946.253	0.0165592
946.331	0.0164818
946.409	0.0165401
946.487	0.0163998
946.565	0.0165263
946.643	0.0164803
946.721	0.0163454
946.799	0.0164046
946.878	0.0164375
946.956	0.0165678
947.034	0.0164770
947.112	0.0164446
947.190	0.0164263
947.268	0.0163798
947.346	0.0163467
947.424	0.0164267
947.503	0.0165100
947.581	0.0163483
947.659	0.0164283
947.737	0.0165145
947.815	0.0164616
947.893	0.0165705
947.971	0.0165219
948.049	0.0164420
948.128	0.0163824
948.206	0.0165697
948.284	0.0163535
948.362	0.0164426
948.440	0.0166092
948.518	0.0165086
948.596	0.0164110
948.674	0.0165179
948.753	0.0165411
948.831	0.0165182
948.909	0.0164205
948.987	0.0165136
949.065	0.0166297
949.143	0.0165254
949.221	0.0165800
949.299	0.0166261
949.378	0.0166004
949.456	0.0165439
949.534	0.0164683
949.612	0.0165051
949.690	0.0164345
949.768	0.0164285
949.846	0.0165367
949.924	0.0165561
