06/29/2022	23:19:31	Ver.	4.1	UNKNOWN
Optical Delay	630.002507	Delta X		0.078125	Sweeps	1	Scan Rate	0/0
Coordinates	Axis 1	NaN	Axis 2	NaN	Axis 3	NaN	Axis 4	NaN	Axis 5	NaN	Axis 6	0.000000
TX Power	0.000000	RX Power	0.000000

630.003	0.0163866
630.081	0.0164149
630.159	0.0163292
630.237	0.0164533
630.315	0.0162684
630.393	0.0164282
630.471	0.0164308
630.549	0.0164007
630.628	0.0162453
630.706	0.0163779
630.784	0.0163838
630.862	0.0163673
630.940	0.0164642
631.018	0.0164023
631.096	0.0163657
631.174	0.0164144
631.253	0.0164610
631.331	0.0163097
631.409	0.0163599
631.487	0.0163744
631.565	0.0164152
631.643	0.0163798
631.721	0.0163292
631.799	0.0164502
631.878	0.0163541
631.956	0.0163993
632.034	0.0162858
632.112	0.0165246
632.190	0.0164008
632.268	0.0164420
632.346	0.0164641
632.424	0.0163359
632.503	0.0163992
632.581	0.0164710
632.659	0.0165324
632.737	0.0163769
632.815	0.0164328
632.893	0.0164603
632.971	0.0163536
633.049	0.0163310
633.128	0.0165105
633.206	0.0164451
633.284	0.0164663
633.362	0.0164590
633.440	0.0164372
633.518	0.0163265
633.596	0.0163341
633.674	0.0164100
633.753	0.0164013
633.831	0.0164605
633.909	0.0164384
633.987	0.0164278
634.065	0.0163935
634.143	0.0162853
634.221	0.0164670
634.299	0.0164601
634.378	0.0163573
634.456	0.0163763
634.534	0.0164550
634.612	0.0165388
634.690	0.0164825
634.768	0.0163628
634.846	0.0163530
634.924	0.0165114
635.003	0.0164809
635.081	0.0163916
635.159	0.0163144
635.237	0.0163413
635.315	0.0164285
635.393	0.0163977
635.471	0.0163855
635.549	0.0164603
635.628	0.0165070
635.706	0.0165526
635.784	0.0164148
635.862	0.0164027
635.940	0.0165961
636.018	0.0165263
636.096	0.0164130
636.174	0.0164199
636.253	0.0163915
636.331	0.0163766
636.409	0.0164326
636.487	0.0164727
636.565	0.0164578
636.643	0.0164970
636.721	0.0164696
636.799	0.0164901
636.878	0.0164586
636.956	0.0164819
637.034	0.0163007
637.112	0.0164838
637.190	0.0164893
637.268	0.0164056
637.346	0.0164331
637.424	0.0164455
637.503	0.0163603
637.581	0.0164686
637.659	0.0165093
637.737	0.0164124
637.815	0.0164777
637.893	0.0163883
637.971	0.0164263
638.049	0.0164242
638.128	0.0164912
638.206	0.0165014
638.284	0.0163345
638.362	0.0164091
638.440	0.0165579
638.518	0.0164327
638.596	0.0163791
638.674	0.0165843
638.753	0.0164941
638.831	0.0161661
638.909	0.0163486
638.987	0.0163377
639.065	0.0164307
639.143	0.0164252
639.221	0.0165350
639.299	0.0164561
639.378	0.0164961
639.456	0.0162448
639.534	0.0162862
639.612	0.0164210
639.690	0.0163658
639.768	0.0163140
639.846	0.0163680
639.924	0.0162479
640.003	0.0163298
640.081	0.0164886
640.159	0.0163663
640.237	0.0163228
640.315	0.0163200
640.393	0.0163768
640.471	0.0164491
640.549	0.0163725
640.628	0.0163524
640.706	0.0163623
640.784	0.0163960
640.862	0.0164298
640.940	0.0162586
641.018	0.0161956
641.096	0.0165562
641.174	0.0162319
641.253	0.0163737
641.331	0.0162611
641.409	0.0163305
641.487	0.0164890
641.565	0.0164125
641.643	0.0164169
641.721	0.0163297
641.799	0.0163778
641.878	0.0163206
641.956	0.0164368
642.034	0.0164191
642.112	0.0165408
642.190	0.0165675
642.268	0.0165652
642.346	0.0163142
642.424	0.0163409
642.503	0.0163942
642.581	0.0163250
642.659	0.0164647
642.737	0.0166280
642.815	0.0165129
642.893	0.0162871
642.971	0.0165407
643.049	0.0164508
643.128	0.0163675
643.206	0.0166659
643.284	0.0165544
643.362	0.0164133
643.440	0.0164362
643.518	0.0164632
643.596	0.0165086
643.674	0.0163445
643.753	0.0164775
643.831	0.0165452
643.909	0.0165983
643.987	0.0165601
644.065	0.0165968
644.143	0.0163919
644.221	0.0164028
644.299	0.0165226
644.378	0.0165834
644.456	0.0165307
644.534	0.0164412
644.612	0.0164742
644.690	0.0165871
644.768	0.0165195
644.846	0.0165504
644.924	0.0166528
645.003	0.0166192
645.081	0.0166818
645.159	0.0166490
645.237	0.0165717
645.315	0.0165079
645.393	0.0166136
645.471	0.0165234
645.549	0.0164725
645.628	0.0166550
645.706	0.0167223
645.784	0.0165628
645.862	0.0165382
645.940	0.0164762
646.018	0.0165503
646.096	0.0167174
646.174	0.0166231
646.253	0.0165863
646.331	0.0168200
646.409	0.0165318
646.487	0.0165292
646.565	0.0165199
646.643	0.0165455
646.721	0.0165381
646.799	0.0165534
646.878	0.0164680
646.956	0.0165226
647.034	0.0166928
647.112	0.0165217
647.190	0.0165360
647.268	0.0165843
647.346	0.0165215
647.424	0.0164917
647.503	0.0165864
647.581	0.0164999
647.659	0.0166071
647.737	0.0165356
647.815	0.0164670
647.893	0.0165096
647.971	0.0164393
648.049	0.0164034
648.128	0.0165404
648.206	0.0165009
648.284	0.0164545
648.362	0.0163684
648.440	0.0164232
648.518	0.0164040
648.596	0.0165253
648.674	0.0163250
648.753	0.0163421
648.831	0.0164848
648.909	0.0164309
648.987	0.0164034
649.065	0.0163567
649.143	0.0164296
649.221	0.0162563
649.299	0.0163823
649.378	0.0163616
649.456	0.0164257
649.534	0.0162808
649.612	0.0163342
649.690	0.0164104
649.768	0.0165404
649.846	0.0163652
649.924	0.0164658
650.003	0.0162859
650.081	0.0164801
650.159	0.0163818
650.237	0.0163203
650.315	0.0163500
650.393	0.0165148
650.471	0.0163733
650.549	0.0163203
650.628	0.0162998
650.706	0.0163699
650.784	0.0164194
650.862	0.0162823
650.940	0.0163166
651.018	0.0164737
651.096	0.0164517
651.174	0.0163322
651.253	0.0162629
651.331	0.0163532
651.409	0.0162929
651.487	0.0163354
651.565	0.0164967
651.643	0.0165033
651.721	0.0164322
651.799	0.0164282
651.878	0.0163262
651.956	0.0163049
652.034	0.0164263
652.112	0.0162360
652.190	0.0164462
652.268	0.0163396
652.346	0.0163079
652.424	0.0163522
652.503	0.0163798
652.581	0.0162981
652.659	0.0163716
652.737	0.0164170
652.815	0.0165202
652.893	0.0163393
652.971	0.0164736
653.049	0.0164627
653.128	0.0163342
653.206	0.0162720
653.284	0.0162598
653.362	0.0163728
653.440	0.0164008
653.518	0.0163889
653.596	0.0163345
653.674	0.0162817
653.753	0.0164261
653.831	0.0164228
653.909	0.0163111
653.987	0.0165126
654.065	0.0164778
654.143	0.0164130
654.221	0.0163269
654.299	0.0165390
654.378	0.0164770
654.456	0.0163375
654.534	0.0163628
654.612	0.0164790
654.690	0.0164020
654.768	0.0164447
654.846	0.0164449
654.924	0.0165346
655.003	0.0165810
655.081	0.0164850
655.159	0.0165172
655.237	0.0164858
655.315	0.0163480
655.393	0.0163992
655.471	0.0164330
655.549	0.0166013
655.628	0.0165781
655.706	0.0164706
655.784	0.0165519
655.862	0.0165447
655.940	0.0164761
656.018	0.0165408
656.096	0.0165323
656.174	0.0165617
656.253	0.0166518
656.331	0.0165205
656.409	0.0164890
656.487	0.0166341
656.565	0.0165939
656.643	0.0164570
656.721	0.0165631
656.799	0.0166257
656.878	0.0165392
656.956	0.0165170
657.034	0.0165491
657.112	0.0165147
657.190	0.0165487
657.268	0.0165218
657.346	0.0165123
657.424	0.0165488
657.503	0.0165786
657.581	0.0165868
657.659	0.0164248
657.737	0.0163686
657.815	0.0166895
657.893	0.0165611
657.971	0.0164632
658.049	0.0165668
658.128	0.0166349
658.206	0.0166686
658.284	0.0165166
658.362	0.0164487
658.440	0.0164568
658.518	0.0166422
658.596	0.0165324
658.674	0.0166791
658.753	0.0164357
658.831	0.0165780
658.909	0.0165136
658.987	0.0165602
659.065	0.0164847
659.143	0.0164704
659.221	0.0165350
659.299	0.0165468
659.378	0.0165781
659.456	0.0164623
659.534	0.0165773
659.612	0.0166231
659.690	0.0165268
659.768	0.0165313
659.846	0.0164939
659.924	0.0164839
660.003	0.0165221
660.081	0.0163570
660.159	0.0165620
660.237	0.0165995
660.315	0.0164789
660.393	0.0164933
660.471	0.0165634
660.549	0.0165457
660.628	0.0165527
660.706	0.0164832
660.784	0.0165152
660.862	0.0164972
660.940	0.0164036
661.018	0.0164539
661.096	0.0164624
661.174	0.0165003
661.253	0.0165480
661.331	0.0164150
661.409	0.0165273
661.487	0.0164055
661.565	0.0164783
661.643	0.0164022
661.721	0.0165705
661.799	0.0165480
661.878	0.0166048
661.956	0.0164832
662.034	0.0164292
662.112	0.0165354
662.190	0.0165096
662.268	0.0164817
662.346	0.0164624
662.424	0.0165449
662.503	0.0165061
662.581	0.0165258
662.659	0.0165569
662.737	0.0164980
662.815	0.0164708
662.893	0.0165340
662.971	0.0164426
663.049	0.0165274
663.128	0.0166367
663.206	0.0165987
663.284	0.0164960
663.362	0.0165117
663.440	0.0164574
663.518	0.0165011
663.596	0.0165096
663.674	0.0165761
663.753	0.0165506
663.831	0.0165009
663.909	0.0165668
663.987	0.0165828
664.065	0.0165511
664.143	0.0163010
664.221	0.0164465
664.299	0.0165211
664.378	0.0165608
664.456	0.0164575
664.534	0.0164121
664.612	0.0164930
664.690	0.0163779
664.768	0.0162710
664.846	0.0164338
664.924	0.0163558
665.003	0.0163656
665.081	0.0164912
665.159	0.0165768
665.237	0.0164178
665.315	0.0164867
665.393	0.0165630
665.471	0.0164120
665.549	0.0164838
665.628	0.0165637
665.706	0.0163216
665.784	0.0164302
665.862	0.0164601
665.940	0.0164699
666.018	0.0164706
666.096	0.0164014
666.174	0.0164748
666.253	0.0164732
666.331	0.0164864
666.409	0.0164732
666.487	0.0164877
666.565	0.0165002
666.643	0.0166421
666.721	0.0164951
666.799	0.0165545
666.878	0.0164791
666.956	0.0165368
667.034	0.0165855
667.112	0.0165320
667.190	0.0165658
667.268	0.0165836
667.346	0.0165018
667.424	0.0166072
667.503	0.0165639
667.581	0.0165147
667.659	0.0164660
667.737	0.0164703
667.815	0.0165915
667.893	0.0165910
667.971	0.0165758
668.049	0.0165574
668.128	0.0164922
668.206	0.0165039
668.284	0.0164417
668.362	0.0165530
668.440	0.0166607
668.518	0.0165829
668.596	0.0163720
668.674	0.0163784
668.753	0.0165221
668.831	0.0165125
668.909	0.0164854
668.987	0.0167010
669.065	0.0165903
669.143	0.0165366
669.221	0.0166069
669.299	0.0165760
669.378	0.0165829
669.456	0.0164392
669.534	0.0164689
669.612	0.0164940
669.690	0.0165446
669.768	0.0164940
669.846	0.0165318
669.924	0.0166526
670.003	0.0166100
670.081	0.0165104
670.159	0.0166016
670.237	0.0165391
670.315	0.0164801
670.393	0.0163666
670.471	0.0164354
670.549	0.0164709
670.628	0.0166275
670.706	0.0164159
670.784	0.0163504
670.862	0.0165431
670.940	0.0164912
671.018	0.0163551
671.096	0.0165203
671.174	0.0164812
671.253	0.0165125
671.331	0.0163466
671.409	0.0164793
671.487	0.0164328
671.565	0.0164931
671.643	0.0164040
671.721	0.0163478
671.799	0.0164645
671.878	0.0164131
671.956	0.0164101
672.034	0.0163786
672.112	0.0165628
672.190	0.0164016
672.268	0.0164056
672.346	0.0163647
672.424	0.0165107
672.503	0.0163441
672.581	0.0163922
672.659	0.0164899
672.737	0.0162840
672.815	0.0164114
672.893	0.0163939
672.971	0.0164958
673.049	0.0163944
673.128	0.0164659
673.206	0.0164059
673.284	0.0162755
673.362	0.0164488
673.440	0.0165221
673.518	0.0163725
673.596	0.0163359
673.674	0.0164246
673.753	0.0165060
673.831	0.0163868
673.909	0.0164420
673.987	0.0164108
674.065	0.0163068
674.143	0.0163816
674.221	0.0163844
674.299	0.0163791
674.378	0.0163483
674.456	0.0163246
674.534	0.0163435
674.612	0.0163064
674.690	0.0163127
674.768	0.0164317
674.846	0.0164118
674.924	0.0163663
675.003	0.0162198
675.081	0.0163913
675.159	0.0162496
675.237	0.0162638
675.315	0.0163449
675.393	0.0163986
675.471	0.0163291
675.549	0.0162837
675.628	0.0163200
675.706	0.0163331
675.784	0.0163847
675.862	0.0162910
675.940	0.0164142
676.018	0.0163256
676.096	0.0162993
676.174	0.0163210
676.253	0.0162354
676.331	0.0163362
676.409	0.0164066
676.487	0.0162936
676.565	0.0163179
676.643	0.0163696
676.721	0.0161633
676.799	0.0162616
676.878	0.0163457
676.956	0.0164022
677.034	0.0162171
677.112	0.0163712
677.190	0.0163540
677.268	0.0162948
677.346	0.0162931
677.424	0.0164019
677.503	0.0164373
677.581	0.0164983
677.659	0.0163927
677.737	0.0163877
677.815	0.0163139
677.893	0.0163054
677.971	0.0162151
678.049	0.0164642
678.128	0.0164162
678.206	0.0164940
678.284	0.0163717
678.362	0.0163763
678.440	0.0164075
678.518	0.0164197
678.596	0.0164549
678.674	0.0163034
678.753	0.0162671
678.831	0.0164939
678.909	0.0165454
678.987	0.0165803
679.065	0.0163895
679.143	0.0164338
679.221	0.0164305
679.299	0.0164453
679.378	0.0165486
679.456	0.0164217
679.534	0.0163776
679.612	0.0163736
679.690	0.0164250
679.768	0.0163816
679.846	0.0164906
679.924	0.0164095
680.003	0.0164984
680.081	0.0163813
680.159	0.0163597
680.237	0.0165234
680.315	0.0164391
680.393	0.0163127
680.471	0.0164798
680.549	0.0163969
680.628	0.0163990
680.706	0.0165511
680.784	0.0164722
680.862	0.0163966
680.940	0.0164543
681.018	0.0164436
681.096	0.0163441
681.174	0.0163640
681.253	0.0163883
681.331	0.0165996
681.409	0.0164110
681.487	0.0163850
681.565	0.0164348
681.643	0.0164530
681.721	0.0164783
681.799	0.0165276
681.878	0.0164574
681.956	0.0164103
682.034	0.0164541
682.112	0.0165472
682.190	0.0164741
682.268	0.0163803
682.346	0.0164400
682.424	0.0164281
682.503	0.0165043
682.581	0.0165810
682.659	0.0165603
682.737	0.0165089
682.815	0.0164050
682.893	0.0164471
682.971	0.0164758
683.049	0.0165759
683.128	0.0165157
683.206	0.0163805
683.284	0.0165436
683.362	0.0165602
683.440	0.0164867
683.518	0.0166148
683.596	0.0165006
683.674	0.0165734
683.753	0.0165244
683.831	0.0165592
683.909	0.0164912
683.987	0.0165291
684.065	0.0164829
684.143	0.0164632
684.221	0.0165331
684.299	0.0164941
684.378	0.0163455
684.456	0.0163160
684.534	0.0162427
684.612	0.0164101
684.690	0.0164851
684.768	0.0164925
684.846	0.0164471
684.924	0.0165176
685.003	0.0164084
685.081	0.0166432
685.159	0.0164288
685.237	0.0165154
685.315	0.0164191
685.393	0.0164326
685.471	0.0164580
685.549	0.0163951
685.628	0.0163353
685.706	0.0164123
685.784	0.0164001
685.862	0.0163507
685.940	0.0164169
686.018	0.0165334
686.096	0.0165793
686.174	0.0164090
686.253	0.0164377
686.331	0.0165024
686.409	0.0163811
686.487	0.0162910
686.565	0.0163558
686.643	0.0164551
686.721	0.0163255
686.799	0.0164977
686.878	0.0164478
686.956	0.0164149
687.034	0.0164165
687.112	0.0164692
687.190	0.0165205
687.268	0.0164772
687.346	0.0163734
687.424	0.0163246
687.503	0.0164702
687.581	0.0164396
687.659	0.0166259
687.737	0.0164960
687.815	0.0164250
687.893	0.0164800
687.971	0.0163982
688.049	0.0164122
688.128	0.0164474
688.206	0.0164117
688.284	0.0165546
688.362	0.0164708
688.440	0.0165720
688.518	0.0163962
688.596	0.0163629
688.674	0.0165077
688.753	0.0164545
688.831	0.0163812
688.909	0.0164553
688.987	0.0164960
689.065	0.0164013
689.143	0.0164067
689.221	0.0165320
689.299	0.0163655
689.378	0.0165224
689.456	0.0164518
689.534	0.0164327
689.612	0.0165500
689.690	0.0164323
689.768	0.0163490
689.846	0.0164468
689.924	0.0164693
690.003	0.0163852
690.081	0.0163897
690.159	0.0165901
690.237	0.0166196
690.315	0.0165574
690.393	0.0164030
690.471	0.0163931
690.549	0.0165530
690.628	0.0165570
690.706	0.0164662
690.784	0.0164252
690.862	0.0164137
690.940	0.0163103
691.018	0.0165361
691.096	0.0164962
691.174	0.0164674
691.253	0.0163799
691.331	0.0162640
691.409	0.0164480
691.487	0.0164747
691.565	0.0164890
691.643	0.0163528
691.721	0.0163457
691.799	0.0165542
691.878	0.0163402
691.956	0.0163455
692.034	0.0164924
692.112	0.0163470
692.190	0.0165406
692.268	0.0164698
692.346	0.0164507
692.424	0.0164754
692.503	0.0164916
692.581	0.0166792
692.659	0.0165618
692.737	0.0166473
692.815	0.0166054
692.893	0.0164473
692.971	0.0163793
693.049	0.0165665
693.128	0.0164999
693.206	0.0164606
693.284	0.0164190
693.362	0.0164732
693.440	0.0163689
693.518	0.0163517
693.596	0.0164622
693.674	0.0163338
693.753	0.0162937
693.831	0.0164216
693.909	0.0164206
693.987	0.0163251
694.065	0.0163162
694.143	0.0163675
694.221	0.0162867
694.299	0.0164951
694.378	0.0163933
694.456	0.0165245
694.534	0.0164056
694.612	0.0165460
694.690	0.0165280
694.768	0.0163847
694.846	0.0165196
694.924	0.0165181
695.003	0.0163204
695.081	0.0164763
695.159	0.0163860
695.237	0.0164421
695.315	0.0164725
695.393	0.0164020
695.471	0.0163881
695.549	0.0164791
695.628	0.0163702
695.706	0.0164062
695.784	0.0163664
695.862	0.0163448
695.940	0.0163932
696.018	0.0162244
696.096	0.0162898
696.174	0.0164516
696.253	0.0163614
696.331	0.0162373
696.409	0.0164745
696.487	0.0162670
696.565	0.0162749
696.643	0.0162103
696.721	0.0163400
696.799	0.0162943
696.878	0.0164194
696.956	0.0164974
697.034	0.0163573
697.112	0.0164942
697.190	0.0165990
697.268	0.0163951
697.346	0.0165373
697.424	0.0164146
697.503	0.0162500
697.581	0.0164354
697.659	0.0163681
697.737	0.0164489
697.815	0.0164036
697.893	0.0162859
697.971	0.0162376
698.049	0.0164167
698.128	0.0162630
698.206	0.0164054
698.284	0.0163934
698.362	0.0162521
698.440	0.0161557
698.518	0.0162647
698.596	0.0162648
698.674	0.0162693
698.753	0.0161181
698.831	0.0161803
698.909	0.0162025
698.987	0.0163218
699.065	0.0163018
699.143	0.0162112
699.221	0.0162770
699.299	0.0161072
699.378	0.0161707
699.456	0.0161991
699.534	0.0163967
699.612	0.0162672
699.690	0.0163214
699.768	0.0164405
699.846	0.0162727
699.924	0.0162530
700.003	0.0163805
700.081	0.0164126
700.159	0.0163361
700.237	0.0162682
700.315	0.0163855
700.393	0.0164092
700.471	0.0162305
700.549	0.0162791
700.628	0.0162711
700.706	0.0164538
700.784	0.0164909
700.862	0.0163823
700.940	0.0164090
701.018	0.0164816
701.096	0.0165717
701.174	0.0164138
701.253	0.0165321
701.331	0.0166210
701.409	0.0165182
701.487	0.0164490
701.565	0.0164169
701.643	0.0165053
701.721	0.0163692
701.799	0.0163858
701.878	0.0164989
701.956	0.0164705
702.034	0.0162851
702.112	0.0163727
702.190	0.0163868
702.268	0.0162806
702.346	0.0161932
702.424	0.0161987
702.503	0.0164108
702.581	0.0163310
702.659	0.0163786
702.737	0.0163362
702.815	0.0163065
702.893	0.0162775
702.971	0.0163032
703.049	0.0164545
703.128	0.0162971
703.206	0.0162779
703.284	0.0162955
703.362	0.0162898
703.440	0.0164336
703.518	0.0164822
703.596	0.0163254
703.674	0.0163541
703.753	0.0162172
703.831	0.0162564
703.909	0.0163497
703.987	0.0163728
704.065	0.0161417
704.143	0.0163999
704.221	0.0162681
704.299	0.0162762
704.378	0.0162700
704.456	0.0164238
704.534	0.0162359
704.612	0.0165300
704.690	0.0163283
704.768	0.0163536
704.846	0.0163449
704.924	0.0164510
705.003	0.0162558
705.081	0.0165150
705.159	0.0165842
705.237	0.0165008
705.315	0.0165498
705.393	0.0166238
705.471	0.0164934
705.549	0.0165794
705.628	0.0167112
705.706	0.0166347
705.784	0.0165694
705.862	0.0165052
705.940	0.0165668
706.018	0.0164722
706.096	0.0165103
706.174	0.0165469
706.253	0.0166156
706.331	0.0164442
706.409	0.0164153
706.487	0.0163477
706.565	0.0163906
706.643	0.0164697
706.721	0.0164703
706.799	0.0163833
706.878	0.0163670
706.956	0.0163940
707.034	0.0163830
707.112	0.0163525
707.190	0.0164111
707.268	0.0164935
707.346	0.0163190
707.424	0.0163604
707.503	0.0163631
707.581	0.0164158
707.659	0.0163728
707.737	0.0163178
707.815	0.0165703
707.893	0.0164508
707.971	0.0163056
708.049	0.0164029
708.128	0.0164361
708.206	0.0164913
708.284	0.0163778
708.362	0.0165856
708.440	0.0165173
708.518	0.0163787
708.596	0.0165724
708.674	0.0164723
708.753	0.0164850
708.831	0.0165817
708.909	0.0165176
708.987	0.0165767
709.065	0.0166007
709.143	0.0166491
709.221	0.0167067
709.299	0.0168766
709.378	0.0168160
709.456	0.0166795
709.534	0.0168086
709.612	0.0166546
709.690	0.0167973
709.768	0.0168420
709.846	0.0168008
709.924	0.0168165
710.003	0.0166832
710.081	0.0165567
710.159	0.0164825
710.237	0.0167518
710.315	0.0166097
710.393	0.0164999
710.471	0.0165187
710.549	0.0162870
710.628	0.0163712
710.706	0.0162970
710.784	0.0163736
710.862	0.0162482
710.940	0.0162733
711.018	0.0161804
711.096	0.0161156
711.174	0.0161411
711.253	0.0161817
711.331	0.0161140
711.409	0.0163392
711.487	0.0163183
711.565	0.0161760
711.643	0.0161847
711.721	0.0162733
711.799	0.0163586
711.878	0.0164517
711.956	0.0164718
712.034	0.0165012
712.112	0.0165327
712.190	0.0165865
712.268	0.0164692
712.346	0.0164732
712.424	0.0167140
712.503	0.0165624
712.581	0.0165905
712.659	0.0165805
712.737	0.0165999
712.815	0.0167498
712.893	0.0165553
712.971	0.0166096
713.049	0.0165384
713.128	0.0165218
713.206	0.0167057
713.284	0.0164755
713.362	0.0165807
713.440	0.0165082
713.518	0.0163715
713.596	0.0165794
713.674	0.0164889
713.753	0.0164919
713.831	0.0164977
713.909	0.0166412
713.987	0.0164529
714.065	0.0164905
714.143	0.0165765
714.221	0.0165196
714.299	0.0165040
714.378	0.0165948
714.456	0.0164259
714.534	0.0164332
714.612	0.0163891
714.690	0.0162673
714.768	0.0163733
714.846	0.0163336
714.924	0.0162576
715.003	0.0161993
715.081	0.0164053
715.159	0.0163863
715.237	0.0163107
715.315	0.0161896
715.393	0.0162610
715.471	0.0162302
715.549	0.0163075
715.628	0.0162463
715.706	0.0163813
715.784	0.0162318
715.862	0.0164566
715.940	0.0165902
716.018	0.0165341
716.096	0.0166045
716.174	0.0165462
716.253	0.0164513
716.331	0.0165241
716.409	0.0166198
716.487	0.0165554
716.565	0.0163304
716.643	0.0164281
716.721	0.0165280
716.799	0.0164188
716.878	0.0162889
716.956	0.0162470
717.034	0.0162943
717.112	0.0162090
717.190	0.0163007
717.268	0.0161150
717.346	0.0162331
717.424	0.0161688
717.503	0.0162539
717.581	0.0161659
717.659	0.0161878
717.737	0.0161222
717.815	0.0161739
717.893	0.0162482
717.971	0.0162911
718.049	0.0162755
718.128	0.0162673
718.206	0.0163734
718.284	0.0163720
718.362	0.0163808
718.440	0.0163654
718.518	0.0163416
718.596	0.0164668
718.674	0.0165859
718.753	0.0165522
718.831	0.0166165
718.909	0.0167921
718.987	0.0167128
719.065	0.0166904
719.143	0.0168069
719.221	0.0167089
719.299	0.0169459
719.378	0.0168556
719.456	0.0168276
719.534	0.0169388
719.612	0.0168648
719.690	0.0166231
719.768	0.0166254
719.846	0.0167686
719.924	0.0166203
720.003	0.0167088
720.081	0.0164131
720.159	0.0164516
720.237	0.0164572
720.315	0.0163804
720.393	0.0162013
720.471	0.0161092
720.549	0.0161958
720.628	0.0160276
720.706	0.0160418
720.784	0.0158995
720.862	0.0157748
720.940	0.0158986
721.018	0.0158531
721.096	0.0157288
721.174	0.0157587
721.253	0.0159817
721.331	0.0159646
721.409	0.0160524
721.487	0.0159669
721.565	0.0160184
721.643	0.0162379
721.721	0.0162278
721.799	0.0162946
721.878	0.0164970
721.956	0.0163266
722.034	0.0164782
722.112	0.0165101
722.190	0.0165334
722.268	0.0166261
722.346	0.0167281
722.424	0.0167699
722.503	0.0166859
722.581	0.0166820
722.659	0.0167005
722.737	0.0166732
722.815	0.0167931
722.893	0.0169804
722.971	0.0169279
723.049	0.0167678
723.128	0.0167300
723.206	0.0168660
723.284	0.0168309
723.362	0.0167630
723.440	0.0167934
723.518	0.0166882
723.596	0.0165565
723.674	0.0166230
723.753	0.0165979
723.831	0.0164349
723.909	0.0164260
723.987	0.0163586
724.065	0.0162695
724.143	0.0161793
724.221	0.0161481
724.299	0.0161102
724.378	0.0160185
724.456	0.0158719
724.534	0.0159758
724.612	0.0158646
724.690	0.0157259
724.768	0.0157778
724.846	0.0158571
724.924	0.0158730
725.003	0.0157936
725.081	0.0158711
725.159	0.0160369
725.237	0.0160659
725.315	0.0161773
725.393	0.0162178
725.471	0.0161807
725.549	0.0161911
725.628	0.0165115
725.706	0.0165408
725.784	0.0166029
725.862	0.0167229
725.940	0.0167673
726.018	0.0168534
726.096	0.0169508
726.174	0.0167841
726.253	0.0170251
726.331	0.0171318
726.409	0.0170250
726.487	0.0170577
726.565	0.0170575
726.643	0.0170358
726.721	0.0170097
726.799	0.0170454
726.878	0.0169428
726.956	0.0168797
727.034	0.0169325
727.112	0.0168697
727.190	0.0167506
727.268	0.0168031
727.346	0.0167455
727.424	0.0164745
727.503	0.0164581
727.581	0.0163039
727.659	0.0163349
727.737	0.0161089
727.815	0.0161282
727.893	0.0158275
727.971	0.0158542
728.049	0.0157159
728.128	0.0157468
728.206	0.0156636
728.284	0.0156259
728.362	0.0156742
728.440	0.0156444
728.518	0.0157843
728.596	0.0157587
728.674	0.0158888
728.753	0.0159687
728.831	0.0160635
728.909	0.0160106
728.987	0.0162937
729.065	0.0164879
729.143	0.0165879
729.221	0.0165006
729.299	0.0167210
729.378	0.0168727
729.456	0.0169917
729.534	0.0170908
729.612	0.0172064
729.690	0.0171617
729.768	0.0174601
729.846	0.0174078
729.924	0.0174872
730.003	0.0174678
730.081	0.0174628
730.159	0.0174202
730.237	0.0173552
730.315	0.0174734
730.393	0.0174325
730.471	0.0172594
730.549	0.0174041
730.628	0.0170378
730.706	0.0170444
730.784	0.0169328
730.862	0.0167010
730.940	0.0165675
731.018	0.0164101
731.096	0.0163876
731.174	0.0162247
731.253	0.0160611
731.331	0.0161217
731.409	0.0159694
731.487	0.0159612
731.565	0.0157774
731.643	0.0158562
731.721	0.0158728
731.799	0.0157160
731.878	0.0156672
731.956	0.0158018
732.034	0.0157050
732.112	0.0159568
732.190	0.0159668
732.268	0.0159889
732.346	0.0160458
732.424	0.0161750
732.503	0.0161597
732.581	0.0165483
732.659	0.0164372
732.737	0.0166078
732.815	0.0167227
732.893	0.0168460
732.971	0.0170898
733.049	0.0169240
733.128	0.0169791
733.206	0.0170622
733.284	0.0173460
733.362	0.0172205
733.440	0.0173083
733.518	0.0172662
733.596	0.0171132
733.674	0.0171449
733.753	0.0171458
733.831	0.0171355
733.909	0.0169121
733.987	0.0167429
734.065	0.0167096
734.143	0.0167608
734.221	0.0165839
734.299	0.0165221
734.378	0.0164155
734.456	0.0163108
734.534	0.0161498
734.612	0.0161644
734.690	0.0161251
734.768	0.0160317
734.846	0.0161057
734.924	0.0160301
735.003	0.0159862
735.081	0.0159010
735.159	0.0159246
735.237	0.0159589
735.315	0.0160331
735.393	0.0159508
735.471	0.0158759
735.549	0.0159486
735.628	0.0160601
735.706	0.0163148
735.784	0.0163282
735.862	0.0162598
735.940	0.0163041
736.018	0.0164904
736.096	0.0164441
736.174	0.0165303
736.253	0.0166769
736.331	0.0167818
736.409	0.0168906
736.487	0.0168761
736.565	0.0168822
736.643	0.0170543
736.721	0.0169820
736.799	0.0170741
736.878	0.0170767
736.956	0.0170257
737.034	0.0171278
737.112	0.0170535
737.190	0.0168481
737.268	0.0169209
737.346	0.0167484
737.424	0.0169460
737.503	0.0166637
737.581	0.0165166
737.659	0.0164354
737.737	0.0163758
737.815	0.0161273
737.893	0.0161650
737.971	0.0159440
738.049	0.0158798
738.128	0.0156302
738.206	0.0155933
738.284	0.0155163
738.362	0.0155588
738.440	0.0154101
738.518	0.0152762
738.596	0.0151552
738.674	0.0150750
738.753	0.0151852
738.831	0.0152257
738.909	0.0153650
738.987	0.0152937
739.065	0.0154286
739.143	0.0155559
739.221	0.0156869
739.299	0.0158625
739.378	0.0159209
739.456	0.0159669
739.534	0.0160916
739.612	0.0164668
739.690	0.0164482
739.768	0.0166428
739.846	0.0168465
739.924	0.0169283
740.003	0.0168816
740.081	0.0171100
740.159	0.0171663
740.237	0.0172552
740.315	0.0172449
740.393	0.0173104
740.471	0.0173351
740.549	0.0174944
740.628	0.0172523
740.706	0.0171857
740.784	0.0172382
740.862	0.0171509
740.940	0.0171928
741.018	0.0170023
741.096	0.0167072
741.174	0.0167398
741.253	0.0167423
741.331	0.0165923
741.409	0.0165995
741.487	0.0166035
741.565	0.0163155
741.643	0.0162077
741.721	0.0162576
741.799	0.0160515
741.878	0.0159252
741.956	0.0159457
742.034	0.0159176
742.112	0.0159175
742.190	0.0156793
742.268	0.0158496
742.346	0.0158153
742.424	0.0157513
742.503	0.0157032
742.581	0.0157315
742.659	0.0156746
742.737	0.0156385
742.815	0.0156588
742.893	0.0157157
742.971	0.0157691
743.049	0.0157182
743.128	0.0157848
743.206	0.0157261
743.284	0.0159734
743.362	0.0158980
743.440	0.0160056
743.518	0.0160242
743.596	0.0161107
743.674	0.0161486
743.753	0.0163342
743.831	0.0163921
743.909	0.0163403
743.987	0.0164996
744.065	0.0165539
744.143	0.0165556
744.221	0.0167515
744.299	0.0166370
744.378	0.0167498
744.456	0.0167905
744.534	0.0168233
744.612	0.0167482
744.690	0.0169592
744.768	0.0169308
744.846	0.0169900
744.924	0.0168751
745.003	0.0168016
745.081	0.0167910
745.159	0.0168969
745.237	0.0169712
745.315	0.0168727
745.393	0.0168261
745.471	0.0167730
745.549	0.0168117
745.628	0.0166233
745.706	0.0167013
745.784	0.0167542
745.862	0.0166077
745.940	0.0165252
746.018	0.0164839
746.096	0.0164531
746.174	0.0166272
746.253	0.0165373
746.331	0.0163515
746.409	0.0163988
746.487	0.0162537
746.565	0.0162865
746.643	0.0161953
746.721	0.0162698
746.799	0.0164050
746.878	0.0162974
746.956	0.0162271
747.034	0.0162796
747.112	0.0164114
747.190	0.0163428
747.268	0.0163554
747.346	0.0162861
747.424	0.0163628
747.503	0.0162969
747.581	0.0163725
747.659	0.0163080
747.737	0.0164189
747.815	0.0163426
747.893	0.0162717
747.971	0.0163417
748.049	0.0161658
748.128	0.0162731
748.206	0.0161788
748.284	0.0162579
748.362	0.0161701
748.440	0.0160144
748.518	0.0159785
748.596	0.0160078
748.674	0.0161261
748.753	0.0160449
748.831	0.0159983
748.909	0.0160358
748.987	0.0160783
749.065	0.0162092
749.143	0.0163078
749.221	0.0161904
749.299	0.0161442
749.378	0.0162036
749.456	0.0164912
749.534	0.0163474
749.612	0.0164029
749.690	0.0163741
749.768	0.0165529
749.846	0.0166718
749.924	0.0167310
750.003	0.0166107
750.081	0.0167265
750.159	0.0169099
750.237	0.0167728
750.315	0.0167741
750.393	0.0169476
750.471	0.0169552
750.549	0.0169825
750.628	0.0170772
750.706	0.0169148
750.784	0.0168833
750.862	0.0170380
750.940	0.0169881
751.018	0.0167906
751.096	0.0168628
751.174	0.0167863
751.253	0.0166732
751.331	0.0166394
751.409	0.0167381
751.487	0.0166304
751.565	0.0165798
751.643	0.0165740
751.721	0.0165522
751.799	0.0164384
751.878	0.0165832
751.956	0.0162912
752.034	0.0162856
752.112	0.0164567
752.190	0.0163559
752.268	0.0163141
752.346	0.0162088
752.424	0.0162941
752.503	0.0162390
752.581	0.0161152
752.659	0.0161587
752.737	0.0160509
752.815	0.0161398
752.893	0.0160699
752.971	0.0160419
753.049	0.0161396
753.128	0.0161439
753.206	0.0160846
753.284	0.0160588
753.362	0.0162967
753.440	0.0163283
753.518	0.0164021
753.596	0.0165467
753.674	0.0164178
753.753	0.0165128
753.831	0.0165744
753.909	0.0166589
753.987	0.0165596
754.065	0.0165310
754.143	0.0164993
754.221	0.0166374
754.299	0.0166163
754.378	0.0164989
754.456	0.0164494
754.534	0.0165674
754.612	0.0165163
754.690	0.0162284
754.768	0.0162703
754.846	0.0165014
754.924	0.0164355
755.003	0.0164130
755.081	0.0164098
755.159	0.0163927
755.237	0.0164084
755.315	0.0164070
755.393	0.0166003
755.471	0.0165131
755.549	0.0164474
755.628	0.0166340
755.706	0.0166592
755.784	0.0166573
755.862	0.0168139
755.940	0.0167480
756.018	0.0167680
756.096	0.0167185
756.174	0.0168369
756.253	0.0167985
756.331	0.0168028
756.409	0.0168750
756.487	0.0168414
756.565	0.0168954
756.643	0.0166344
756.721	0.0166142
756.799	0.0167157
756.878	0.0167570
756.956	0.0166016
757.034	0.0165240
757.112	0.0165389
757.190	0.0164578
757.268	0.0163818
757.346	0.0162270
757.424	0.0165083
757.503	0.0164160
757.581	0.0163965
757.659	0.0163322
757.737	0.0162963
757.815	0.0162233
757.893	0.0161778
757.971	0.0161481
758.049	0.0163227
758.128	0.0161836
758.206	0.0161580
758.284	0.0162298
758.362	0.0161848
758.440	0.0161343
758.518	0.0162721
758.596	0.0163055
758.674	0.0163025
758.753	0.0163219
758.831	0.0162415
758.909	0.0163528
758.987	0.0163424
759.065	0.0163642
759.143	0.0164343
759.221	0.0163168
759.299	0.0162630
759.378	0.0163625
759.456	0.0163600
759.534	0.0162690
759.612	0.0162952
759.690	0.0163679
759.768	0.0162794
759.846	0.0161774
759.924	0.0162193
760.003	0.0162385
760.081	0.0160986
760.159	0.0161028
760.237	0.0161353
760.315	0.0160174
760.393	0.0159264
760.471	0.0159020
760.549	0.0159973
760.628	0.0159837
760.706	0.0161572
760.784	0.0160213
760.862	0.0158504
760.940	0.0159219
761.018	0.0161803
761.096	0.0162181
761.174	0.0162212
761.253	0.0163209
761.331	0.0162091
761.409	0.0163862
761.487	0.0164933
761.565	0.0166122
761.643	0.0166116
761.721	0.0166148
761.799	0.0165674
761.878	0.0167516
761.956	0.0167722
762.034	0.0168314
762.112	0.0167366
762.190	0.0167776
762.268	0.0166853
762.346	0.0166325
762.424	0.0166809
762.503	0.0166828
762.581	0.0165192
762.659	0.0162884
762.737	0.0163296
762.815	0.0163337
762.893	0.0162386
762.971	0.0161369
763.049	0.0161919
763.128	0.0161269
763.206	0.0161842
763.284	0.0162494
763.362	0.0161189
763.440	0.0161349
763.518	0.0161668
763.596	0.0160680
763.674	0.0161799
763.753	0.0161653
763.831	0.0161812
763.909	0.0161077
763.987	0.0162863
764.065	0.0161911
764.143	0.0160987
764.221	0.0160986
764.299	0.0161919
764.378	0.0161626
764.456	0.0162281
764.534	0.0163110
764.612	0.0161343
764.690	0.0161386
764.768	0.0162197
764.846	0.0162817
764.924	0.0162370
765.003	0.0163401
765.081	0.0162612
765.159	0.0163129
765.237	0.0163060
765.315	0.0164264
765.393	0.0164526
765.471	0.0163929
765.549	0.0164963
765.628	0.0164321
765.706	0.0165861
765.784	0.0164243
765.862	0.0164748
765.940	0.0164014
766.018	0.0163663
766.096	0.0164803
766.174	0.0164513
766.253	0.0161653
766.331	0.0162203
766.409	0.0163175
766.487	0.0162647
766.565	0.0162455
766.643	0.0162006
766.721	0.0162425
766.799	0.0162946
766.878	0.0164047
766.956	0.0162456
767.034	0.0162812
767.112	0.0164058
767.190	0.0163229
767.268	0.0164972
767.346	0.0165042
767.424	0.0167262
767.503	0.0165808
767.581	0.0165654
767.659	0.0167529
767.737	0.0167273
767.815	0.0167714
767.893	0.0168749
767.971	0.0167480
768.049	0.0168271
768.128	0.0167174
768.206	0.0168024
768.284	0.0166279
768.362	0.0165807
768.440	0.0167097
768.518	0.0165092
768.596	0.0166087
768.674	0.0165611
768.753	0.0165314
768.831	0.0165285
768.909	0.0164789
768.987	0.0164482
769.065	0.0162849
769.143	0.0163487
769.221	0.0163377
769.299	0.0163414
769.378	0.0163165
769.456	0.0161668
769.534	0.0163071
769.612	0.0161349
769.690	0.0162646
769.768	0.0161456
769.846	0.0161358
769.924	0.0161319
770.003	0.0162585
770.081	0.0164990
770.159	0.0163188
770.237	0.0164333
770.315	0.0165359
770.393	0.0166453
770.471	0.0166177
770.549	0.0165173
770.628	0.0167403
770.706	0.0167205
770.784	0.0166797
770.862	0.0167010
770.940	0.0167626
771.018	0.0166775
771.096	0.0167822
771.174	0.0166380
771.253	0.0166119
771.331	0.0164128
771.409	0.0165137
771.487	0.0164225
771.565	0.0164663
771.643	0.0164191
771.721	0.0162872
771.799	0.0161147
771.878	0.0161937
771.956	0.0161513
772.034	0.0160761
772.112	0.0162019
772.190	0.0161238
772.268	0.0162490
772.346	0.0160731
772.424	0.0159423
772.503	0.0160915
772.581	0.0160822
772.659	0.0161707
772.737	0.0161631
772.815	0.0162789
772.893	0.0162001
772.971	0.0162236
773.049	0.0163785
773.128	0.0164863
773.206	0.0164303
773.284	0.0165745
773.362	0.0164952
773.440	0.0167157
773.518	0.0167937
773.596	0.0168052
773.674	0.0168439
773.753	0.0170019
773.831	0.0169588
773.909	0.0169913
773.987	0.0169072
774.065	0.0169487
774.143	0.0169198
774.221	0.0169587
774.299	0.0168279
774.378	0.0167282
774.456	0.0168243
774.534	0.0167493
774.612	0.0165990
774.690	0.0165730
774.768	0.0165662
774.846	0.0166339
774.924	0.0165694
775.003	0.0164893
775.081	0.0165829
775.159	0.0164585
775.237	0.0162690
775.315	0.0162379
775.393	0.0163124
775.471	0.0162041
775.549	0.0162392
775.628	0.0162296
775.706	0.0161571
775.784	0.0163338
775.862	0.0163650
775.940	0.0163638
776.018	0.0163081
776.096	0.0163687
776.174	0.0161375
776.253	0.0163541
776.331	0.0163396
776.409	0.0164460
776.487	0.0164832
776.565	0.0164350
776.643	0.0165372
776.721	0.0165271
776.799	0.0164442
776.878	0.0164397
776.956	0.0163890
777.034	0.0164437
777.112	0.0163692
777.190	0.0163032
777.268	0.0162806
777.346	0.0162167
777.424	0.0162081
777.503	0.0162153
777.581	0.0162328
777.659	0.0163026
777.737	0.0162352
777.815	0.0160677
777.893	0.0160980
777.971	0.0161712
778.049	0.0160320
778.128	0.0160914
778.206	0.0162261
778.284	0.0162884
778.362	0.0163096
778.440	0.0163006
778.518	0.0163855
778.596	0.0162778
778.674	0.0162402
778.753	0.0163476
778.831	0.0164572
778.909	0.0164966
778.987	0.0163726
779.065	0.0164447
779.143	0.0163938
779.221	0.0164143
779.299	0.0164948
779.378	0.0165880
779.456	0.0165988
779.534	0.0166173
779.612	0.0164359
779.690	0.0165659
779.768	0.0166874
779.846	0.0166974
779.924	0.0165494
780.003	0.0163790
780.081	0.0164825
780.159	0.0166393
780.237	0.0166322
780.315	0.0164787
780.393	0.0163602
780.471	0.0164735
780.549	0.0164655
780.628	0.0163991
780.706	0.0163389
780.784	0.0162066
780.862	0.0162270
780.940	0.0162262
781.018	0.0162033
781.096	0.0162659
781.174	0.0159463
781.253	0.0160320
781.331	0.0159698
781.409	0.0159483
781.487	0.0159827
781.565	0.0159850
781.643	0.0159862
781.721	0.0160237
781.799	0.0161388
781.878	0.0161427
781.956	0.0162058
782.034	0.0163130
782.112	0.0161880
782.190	0.0163276
782.268	0.0163965
782.346	0.0163952
782.424	0.0164230
782.503	0.0165953
782.581	0.0163519
782.659	0.0165450
782.737	0.0166341
782.815	0.0166064
782.893	0.0165958
782.971	0.0166254
783.049	0.0165889
783.128	0.0165165
783.206	0.0165004
783.284	0.0162917
783.362	0.0164835
783.440	0.0163224
783.518	0.0163341
783.596	0.0163577
783.674	0.0162472
783.753	0.0161485
783.831	0.0162390
783.909	0.0161909
783.987	0.0161963
784.065	0.0162021
784.143	0.0162113
784.221	0.0162540
784.299	0.0162582
784.378	0.0163162
784.456	0.0163508
784.534	0.0162994
784.612	0.0163377
784.690	0.0163449
784.768	0.0163534
784.846	0.0164619
784.924	0.0163663
785.003	0.0164014
785.081	0.0163226
785.159	0.0166550
785.237	0.0165516
785.315	0.0165306
785.393	0.0165660
785.471	0.0164527
785.549	0.0166325
785.628	0.0166391
785.706	0.0167700
785.784	0.0168098
785.862	0.0167289
785.940	0.0167176
786.018	0.0167130
786.096	0.0167439
786.174	0.0168173
786.253	0.0167764
786.331	0.0167447
786.409	0.0167848
786.487	0.0168032
786.565	0.0167934
786.643	0.0168268
786.721	0.0166759
786.799	0.0166174
786.878	0.0166128
786.956	0.0166694
787.034	0.0165488
787.112	0.0165811
787.190	0.0166286
787.268	0.0164254
787.346	0.0164903
787.424	0.0165346
787.503	0.0164203
787.581	0.0164807
787.659	0.0165191
787.737	0.0165118
787.815	0.0162877
787.893	0.0165199
787.971	0.0164523
788.049	0.0163663
788.128	0.0163329
788.206	0.0163497
788.284	0.0162966
788.362	0.0164554
788.440	0.0164570
788.518	0.0163397
788.596	0.0164830
788.674	0.0164629
788.753	0.0165189
788.831	0.0163553
788.909	0.0164898
788.987	0.0165112
789.065	0.0165224
789.143	0.0164164
789.221	0.0164723
789.299	0.0164027
789.378	0.0164869
789.456	0.0164376
789.534	0.0164202
789.612	0.0163465
789.690	0.0164648
789.768	0.0164908
789.846	0.0164626
789.924	0.0164424
790.003	0.0164638
790.081	0.0163965
790.159	0.0162502
790.237	0.0163462
790.315	0.0164507
790.393	0.0164695
790.471	0.0164523
790.549	0.0164556
790.628	0.0165299
790.706	0.0164417
790.784	0.0166237
790.862	0.0166026
790.940	0.0165978
791.018	0.0167686
791.096	0.0166051
791.174	0.0165345
791.253	0.0165676
791.331	0.0166148
791.409	0.0166109
791.487	0.0166199
791.565	0.0165421
791.643	0.0165412
791.721	0.0163923
791.799	0.0165188
791.878	0.0164243
791.956	0.0164818
792.034	0.0164355
792.112	0.0163818
792.190	0.0163163
792.268	0.0163685
792.346	0.0163843
792.424	0.0163518
792.503	0.0164568
792.581	0.0163515
792.659	0.0164540
792.737	0.0164391
792.815	0.0164835
792.893	0.0165042
792.971	0.0164867
793.049	0.0164153
793.128	0.0164109
793.206	0.0164462
793.284	0.0164661
793.362	0.0165340
793.440	0.0166055
793.518	0.0165897
793.596	0.0164584
793.674	0.0166270
793.753	0.0167281
793.831	0.0167070
793.909	0.0167500
793.987	0.0167352
794.065	0.0166884
794.143	0.0167520
794.221	0.0166254
794.299	0.0167036
794.378	0.0166924
794.456	0.0165014
794.534	0.0165336
794.612	0.0166127
794.690	0.0166096
794.768	0.0165766
794.846	0.0164870
794.924	0.0164668
795.003	0.0162803
795.081	0.0163464
795.159	0.0164574
795.237	0.0165520
795.315	0.0164942
795.393	0.0164231
795.471	0.0165245
795.549	0.0164806
795.628	0.0165636
795.706	0.0164869
795.784	0.0163737
795.862	0.0164314
795.940	0.0164945
796.018	0.0165233
796.096	0.0164174
796.174	0.0164398
796.253	0.0164552
796.331	0.0164719
796.409	0.0166359
796.487	0.0164690
796.565	0.0163893
796.643	0.0163988
796.721	0.0164751
796.799	0.0165190
796.878	0.0163728
796.956	0.0164368
797.034	0.0162873
797.112	0.0164533
797.190	0.0165756
797.268	0.0166648
797.346	0.0165903
797.424	0.0163935
797.503	0.0164836
797.581	0.0166565
797.659	0.0166416
797.737	0.0164753
797.815	0.0166241
797.893	0.0166934
797.971	0.0166473
798.049	0.0166206
798.128	0.0166580
798.206	0.0165492
798.284	0.0165579
798.362	0.0165385
798.440	0.0166003
798.518	0.0166379
798.596	0.0166360
798.674	0.0166227
798.753	0.0166490
798.831	0.0165044
798.909	0.0165589
798.987	0.0166500
799.065	0.0166491
799.143	0.0165357
799.221	0.0164598
799.299	0.0165816
799.378	0.0164993
799.456	0.0164174
799.534	0.0164870
799.612	0.0164967
799.690	0.0163419
799.768	0.0163521
799.846	0.0164526
799.924	0.0164392
800.003	0.0164406
800.081	0.0164042
800.159	0.0163678
800.237	0.0164021
800.315	0.0163589
800.393	0.0163808
800.471	0.0163431
800.549	0.0162247
800.628	0.0161591
800.706	0.0161957
800.784	0.0162456
800.862	0.0164476
800.940	0.0161670
801.018	0.0161637
801.096	0.0161764
801.174	0.0163204
801.253	0.0163522
801.331	0.0163206
801.409	0.0162466
801.487	0.0162638
801.565	0.0162086
801.643	0.0163274
801.721	0.0164259
801.799	0.0163275
801.878	0.0162961
801.956	0.0164490
802.034	0.0163525
802.112	0.0163487
802.190	0.0164529
802.268	0.0163799
802.346	0.0163428
802.424	0.0164959
802.503	0.0163547
802.581	0.0164069
802.659	0.0164362
802.737	0.0164695
802.815	0.0163028
802.893	0.0163952
802.971	0.0162400
803.049	0.0163370
803.128	0.0163255
803.206	0.0162854
803.284	0.0163128
803.362	0.0163619
803.440	0.0162827
803.518	0.0162286
803.596	0.0163440
803.674	0.0162508
803.753	0.0163343
803.831	0.0161749
803.909	0.0161742
803.987	0.0163223
804.065	0.0162251
804.143	0.0162560
804.221	0.0163004
804.299	0.0162318
804.378	0.0162666
804.456	0.0163034
804.534	0.0163672
804.612	0.0162804
804.690	0.0162550
804.768	0.0162854
804.846	0.0163734
804.924	0.0164830
805.003	0.0163687
805.081	0.0163745
805.159	0.0163216
805.237	0.0164245
805.315	0.0166866
805.393	0.0164439
805.471	0.0164919
805.549	0.0164421
805.628	0.0164897
805.706	0.0165050
805.784	0.0167210
805.862	0.0165588
805.940	0.0165668
806.018	0.0165179
806.096	0.0167345
806.174	0.0167108
806.253	0.0166804
806.331	0.0166689
806.409	0.0166734
806.487	0.0166750
806.565	0.0167331
806.643	0.0166330
806.721	0.0166103
806.799	0.0166203
806.878	0.0165931
806.956	0.0166545
807.034	0.0166245
807.112	0.0165776
807.190	0.0165968
807.268	0.0164764
807.346	0.0164911
807.424	0.0165437
807.503	0.0166529
807.581	0.0164425
807.659	0.0165779
807.737	0.0163090
807.815	0.0163464
807.893	0.0165092
807.971	0.0165292
808.049	0.0164046
808.128	0.0164455
808.206	0.0163826
808.284	0.0162235
808.362	0.0164954
808.440	0.0164137
808.518	0.0163750
808.596	0.0164789
808.674	0.0165295
808.753	0.0164238
808.831	0.0164192
808.909	0.0164922
808.987	0.0164996
809.065	0.0165663
809.143	0.0165332
809.221	0.0165973
809.299	0.0165369
809.378	0.0165987
809.456	0.0164194
809.534	0.0165678
809.612	0.0166070
809.690	0.0166819
809.768	0.0167093
809.846	0.0165289
809.924	0.0166553
810.003	0.0166936
810.081	0.0166221
810.159	0.0166527
810.237	0.0165711
810.315	0.0165657
810.393	0.0165410
810.471	0.0166744
810.549	0.0166030
810.628	0.0163979
810.706	0.0163831
810.784	0.0163739
810.862	0.0166668
810.940	0.0165359
811.018	0.0163850
811.096	0.0165005
811.174	0.0164697
811.253	0.0164095
811.331	0.0163865
811.409	0.0164050
811.487	0.0164455
811.565	0.0164694
811.643	0.0163067
811.721	0.0164492
811.799	0.0163800
811.878	0.0163600
811.956	0.0164879
812.034	0.0164634
812.112	0.0163589
812.190	0.0164932
812.268	0.0163779
812.346	0.0165025
812.424	0.0164031
812.503	0.0164880
812.581	0.0165520
812.659	0.0163480
812.737	0.0164130
812.815	0.0164024
812.893	0.0164399
812.971	0.0163416
813.049	0.0162801
813.128	0.0164337
813.206	0.0163210
813.284	0.0162148
813.362	0.0161766
813.440	0.0162068
813.518	0.0162449
813.596	0.0162124
813.674	0.0161942
813.753	0.0162705
813.831	0.0164067
813.909	0.0162962
813.987	0.0161170
814.065	0.0164276
814.143	0.0162289
814.221	0.0162416
814.299	0.0162505
814.378	0.0162630
814.456	0.0162548
814.534	0.0164790
814.612	0.0163133
814.690	0.0161892
814.768	0.0162038
814.846	0.0164252
814.924	0.0162981
815.003	0.0162226
815.081	0.0161892
815.159	0.0163306
815.237	0.0163553
815.315	0.0161986
815.393	0.0164046
815.471	0.0163091
815.549	0.0163873
815.628	0.0163201
815.706	0.0163264
815.784	0.0164241
815.862	0.0163326
815.940	0.0163600
816.018	0.0163506
816.096	0.0165562
816.174	0.0164509
816.253	0.0163454
816.331	0.0164420
816.409	0.0164558
816.487	0.0164453
816.565	0.0163622
816.643	0.0162676
816.721	0.0163734
816.799	0.0164220
816.878	0.0162016
816.956	0.0161855
817.034	0.0162939
817.112	0.0163522
817.190	0.0162868
817.268	0.0162405
817.346	0.0163950
817.424	0.0163470
817.503	0.0163494
817.581	0.0163061
817.659	0.0163851
817.737	0.0165231
817.815	0.0165618
817.893	0.0163566
817.971	0.0164259
818.049	0.0164482
818.128	0.0165092
818.206	0.0164677
818.284	0.0163634
818.362	0.0164463
818.440	0.0166366
818.518	0.0166215
818.596	0.0164400
818.674	0.0166505
818.753	0.0167897
818.831	0.0167086
818.909	0.0165682
818.987	0.0167088
819.065	0.0166171
819.143	0.0165862
819.221	0.0165869
819.299	0.0167930
819.378	0.0166313
819.456	0.0165092
819.534	0.0165896
819.612	0.0164952
819.690	0.0166048
819.768	0.0165578
819.846	0.0164441
819.924	0.0164764
820.003	0.0164860
820.081	0.0164444
820.159	0.0163071
820.237	0.0163668
820.315	0.0163997
820.393	0.0164262
820.471	0.0163409
820.549	0.0163927
820.628	0.0163153
820.706	0.0162574
820.784	0.0163844
820.862	0.0162203
820.940	0.0162315
821.018	0.0163953
821.096	0.0162984
821.174	0.0163583
821.253	0.0163071
821.331	0.0161690
821.409	0.0163107
821.487	0.0162450
821.565	0.0164530
821.643	0.0162873
821.721	0.0164478
821.799	0.0164025
821.878	0.0163609
821.956	0.0165422
822.034	0.0165024
822.112	0.0166083
822.190	0.0165186
822.268	0.0164671
822.346	0.0165931
822.424	0.0165887
822.503	0.0164571
822.581	0.0166347
822.659	0.0166052
822.737	0.0166134
822.815	0.0165251
822.893	0.0167646
822.971	0.0165461
823.049	0.0165238
823.128	0.0165130
823.206	0.0164909
823.284	0.0164941
823.362	0.0165034
823.440	0.0165594
823.518	0.0165269
823.596	0.0165011
823.674	0.0164156
823.753	0.0165816
823.831	0.0164485
823.909	0.0163009
823.987	0.0163148
824.065	0.0162919
824.143	0.0163395
824.221	0.0162756
824.299	0.0163123
824.378	0.0163503
824.456	0.0161959
824.534	0.0162086
824.612	0.0161915
824.690	0.0162284
824.768	0.0163209
824.846	0.0163084
824.924	0.0163300
825.003	0.0164149
825.081	0.0163837
825.159	0.0162783
825.237	0.0165029
825.315	0.0163437
825.393	0.0163376
825.471	0.0166335
825.549	0.0165758
825.628	0.0164595
825.706	0.0165024
825.784	0.0166193
825.862	0.0165435
825.940	0.0165549
826.018	0.0166426
826.096	0.0167066
826.174	0.0166369
826.253	0.0167204
826.331	0.0166983
826.409	0.0167794
826.487	0.0167173
826.565	0.0166372
826.643	0.0167574
826.721	0.0165322
826.799	0.0166900
826.878	0.0166089
826.956	0.0166655
827.034	0.0167493
827.112	0.0166674
827.190	0.0166138
827.268	0.0165834
827.346	0.0166206
827.424	0.0165895
827.503	0.0166501
827.581	0.0165378
827.659	0.0164091
827.737	0.0165260
827.815	0.0163655
827.893	0.0163893
827.971	0.0164709
828.049	0.0163189
828.128	0.0163484
828.206	0.0163100
828.284	0.0162582
828.362	0.0163971
828.440	0.0164383
828.518	0.0163239
828.596	0.0163783
828.674	0.0164475
828.753	0.0164294
828.831	0.0163218
828.909	0.0164646
828.987	0.0164761
829.065	0.0164683
829.143	0.0165576
829.221	0.0164168
829.299	0.0164477
829.378	0.0164307
829.456	0.0165138
829.534	0.0164989
829.612	0.0165592
829.690	0.0166476
829.768	0.0165142
829.846	0.0164796
829.924	0.0165781
830.003	0.0165710
830.081	0.0165271
830.159	0.0164478
830.237	0.0164680
830.315	0.0165645
830.393	0.0165542
830.471	0.0164645
830.549	0.0164386
830.628	0.0165355
830.706	0.0165456
830.784	0.0165050
830.862	0.0162479
830.940	0.0163055
831.018	0.0164360
831.096	0.0164989
831.174	0.0163920
831.253	0.0164655
831.331	0.0163253
831.409	0.0163672
831.487	0.0163549
831.565	0.0164383
831.643	0.0163182
831.721	0.0164074
831.799	0.0164084
831.878	0.0162891
831.956	0.0163372
832.034	0.0162822
832.112	0.0162896
832.190	0.0163969
832.268	0.0164204
832.346	0.0163795
832.424	0.0163471
832.503	0.0163329
832.581	0.0163964
832.659	0.0163247
832.737	0.0163969
832.815	0.0163589
832.893	0.0164215
832.971	0.0164388
833.049	0.0163017
833.128	0.0162336
833.206	0.0164562
833.284	0.0162269
833.362	0.0165324
833.440	0.0163588
833.518	0.0165328
833.596	0.0164126
833.674	0.0163786
833.753	0.0164211
833.831	0.0164433
833.909	0.0163159
833.987	0.0163313
834.065	0.0164129
834.143	0.0164200
834.221	0.0163499
834.299	0.0164390
834.378	0.0163474
834.456	0.0162032
834.534	0.0163192
834.612	0.0163214
834.690	0.0163354
834.768	0.0163226
834.846	0.0161938
834.924	0.0160482
835.003	0.0162666
835.081	0.0162504
835.159	0.0161559
835.237	0.0160499
835.315	0.0161628
835.393	0.0161083
835.471	0.0161921
835.549	0.0161137
835.628	0.0162367
835.706	0.0161450
835.784	0.0163585
835.862	0.0163911
835.940	0.0162376
836.018	0.0162602
836.096	0.0162823
836.174	0.0163508
836.253	0.0162605
836.331	0.0162948
836.409	0.0163751
836.487	0.0163983
836.565	0.0165568
836.643	0.0165008
836.721	0.0165353
836.799	0.0165491
836.878	0.0166035
836.956	0.0166415
837.034	0.0164618
837.112	0.0165276
837.190	0.0167091
837.268	0.0166470
837.346	0.0165147
837.424	0.0165675
837.503	0.0165807
837.581	0.0163623
837.659	0.0164387
837.737	0.0165111
837.815	0.0164770
837.893	0.0164635
837.971	0.0165218
838.049	0.0165196
838.128	0.0163394
838.206	0.0164115
838.284	0.0161976
838.362	0.0161842
838.440	0.0162870
838.518	0.0162947
838.596	0.0162752
838.674	0.0162456
838.753	0.0161687
838.831	0.0160867
838.909	0.0160621
838.987	0.0160197
839.065	0.0160663
839.143	0.0160564
839.221	0.0159166
839.299	0.0159196
839.378	0.0159641
839.456	0.0160353
839.534	0.0159518
839.612	0.0158560
839.690	0.0160688
839.768	0.0161610
839.846	0.0160343
839.924	0.0160910
840.003	0.0160296
840.081	0.0161400
840.159	0.0161470
840.237	0.0162302
840.315	0.0161162
840.393	0.0163036
840.471	0.0162484
840.549	0.0164054
840.628	0.0162730
840.706	0.0162231
840.784	0.0164733
840.862	0.0164468
840.940	0.0164513
841.018	0.0163984
841.096	0.0164745
841.174	0.0165422
841.253	0.0165631
841.331	0.0165393
841.409	0.0166561
841.487	0.0165593
841.565	0.0164850
841.643	0.0165120
841.721	0.0167091
841.799	0.0164904
841.878	0.0164514
841.956	0.0165276
842.034	0.0164355
842.112	0.0164715
842.190	0.0163268
842.268	0.0165057
842.346	0.0163352
842.424	0.0163493
842.503	0.0163546
842.581	0.0163465
842.659	0.0163316
842.737	0.0164381
842.815	0.0163422
842.893	0.0162361
842.971	0.0161795
843.049	0.0163078
843.128	0.0162741
843.206	0.0162782
843.284	0.0163184
843.362	0.0161295
843.440	0.0161026
843.518	0.0161751
843.596	0.0163151
843.674	0.0163826
843.753	0.0162447
843.831	0.0162830
843.909	0.0163486
843.987	0.0162120
844.065	0.0162917
844.143	0.0163483
844.221	0.0162957
844.299	0.0163916
844.378	0.0161921
844.456	0.0163021
844.534	0.0162039
844.612	0.0162477
844.690	0.0162980
844.768	0.0162809
844.846	0.0163000
844.924	0.0162872
845.003	0.0162357
845.081	0.0162600
845.159	0.0163979
845.237	0.0164052
845.315	0.0162222
845.393	0.0163220
845.471	0.0163262
845.549	0.0163549
845.628	0.0162620
845.706	0.0163059
845.784	0.0163661
845.862	0.0163863
845.940	0.0163522
846.018	0.0163835
846.096	0.0164103
846.174	0.0163637
846.253	0.0165073
846.331	0.0164594
846.409	0.0165769
846.487	0.0165597
846.565	0.0165199
846.643	0.0165913
846.721	0.0165331
846.799	0.0165591
846.878	0.0165665
846.956	0.0166178
847.034	0.0168150
847.112	0.0166226
847.190	0.0166147
847.268	0.0166709
847.346	0.0166734
847.424	0.0167578
847.503	0.0166302
847.581	0.0164592
847.659	0.0165722
847.737	0.0166856
847.815	0.0166251
847.893	0.0166356
847.971	0.0166531
848.049	0.0165742
848.128	0.0165664
848.206	0.0165527
848.284	0.0165508
848.362	0.0165393
848.440	0.0165058
848.518	0.0165164
848.596	0.0165708
848.674	0.0164645
848.753	0.0164351
848.831	0.0165792
848.909	0.0164768
848.987	0.0165498
849.065	0.0166178
849.143	0.0164771
849.221	0.0164341
849.299	0.0165141
849.378	0.0163601
849.456	0.0164977
849.534	0.0164213
849.612	0.0163902
849.690	0.0164729
849.768	0.0165951
849.846	0.0165224
849.924	0.0165612
850.003	0.0164819
850.081	0.0165181
850.159	0.0166010
850.237	0.0165173
850.315	0.0166586
850.393	0.0166253
850.471	0.0165805
850.549	0.0165792
850.628	0.0166687
850.706	0.0166609
850.784	0.0164967
850.862	0.0167148
850.940	0.0166401
851.018	0.0164912
851.096	0.0166132
851.174	0.0165974
851.253	0.0165662
851.331	0.0165501
851.409	0.0166000
851.487	0.0165913
851.565	0.0164836
851.643	0.0164486
851.721	0.0164317
851.799	0.0165475
851.878	0.0165627
851.956	0.0164574
852.034	0.0165508
852.112	0.0164078
852.190	0.0166662
852.268	0.0166493
852.346	0.0165443
852.424	0.0165916
852.503	0.0166027
852.581	0.0165361
852.659	0.0166425
852.737	0.0165030
852.815	0.0166228
852.893	0.0164807
852.971	0.0164864
853.049	0.0166303
853.128	0.0166950
853.206	0.0166015
853.284	0.0164796
853.362	0.0164825
853.440	0.0164594
853.518	0.0166760
853.596	0.0165311
853.674	0.0165109
853.753	0.0164315
853.831	0.0165347
853.909	0.0164782
853.987	0.0164736
854.065	0.0164419
854.143	0.0165948
854.221	0.0163858
854.299	0.0163274
854.378	0.0164414
854.456	0.0164323
854.534	0.0163998
854.612	0.0163599
854.690	0.0164497
854.768	0.0163652
854.846	0.0163725
854.924	0.0163960
855.003	0.0164926
855.081	0.0164244
855.159	0.0163551
855.237	0.0164117
855.315	0.0162737
855.393	0.0163309
855.471	0.0164020
855.549	0.0164653
855.628	0.0165971
855.706	0.0165169
855.784	0.0164153
855.862	0.0162471
855.940	0.0162818
856.018	0.0163004
856.096	0.0163971
856.174	0.0162269
856.253	0.0162602
856.331	0.0162749
856.409	0.0164311
856.487	0.0163857
856.565	0.0164093
856.643	0.0162823
856.721	0.0163006
856.799	0.0163676
856.878	0.0164424
856.956	0.0165054
857.034	0.0164091
857.112	0.0164155
857.190	0.0164614
857.268	0.0164297
857.346	0.0162776
857.424	0.0164760
857.503	0.0164167
857.581	0.0164123
857.659	0.0164021
857.737	0.0163581
857.815	0.0164368
857.893	0.0163403
857.971	0.0164271
858.049	0.0163073
858.128	0.0163647
858.206	0.0164619
858.284	0.0164223
858.362	0.0164257
858.440	0.0164923
858.518	0.0164495
858.596	0.0163636
858.674	0.0164474
858.753	0.0162730
858.831	0.0163371
858.909	0.0163566
858.987	0.0162514
859.065	0.0163464
859.143	0.0163049
859.221	0.0163976
859.299	0.0163323
859.378	0.0162988
859.456	0.0163586
859.534	0.0162695
859.612	0.0161758
859.690	0.0162340
859.768	0.0162375
859.846	0.0162931
859.924	0.0163937
860.003	0.0162507
860.081	0.0162730
860.159	0.0163523
860.237	0.0163712
860.315	0.0164352
860.393	0.0163510
860.471	0.0164793
860.549	0.0162280
860.628	0.0162930
860.706	0.0163455
860.784	0.0164130
860.862	0.0163156
860.940	0.0163590
861.018	0.0163615
861.096	0.0163329
861.174	0.0162401
861.253	0.0163663
861.331	0.0163376
861.409	0.0163516
861.487	0.0162746
861.565	0.0163284
861.643	0.0163339
861.721	0.0163525
861.799	0.0162933
861.878	0.0163116
861.956	0.0162615
862.034	0.0161478
862.112	0.0163485
862.190	0.0165001
862.268	0.0164365
862.346	0.0162975
862.424	0.0163530
862.503	0.0165074
862.581	0.0164626
862.659	0.0164084
862.737	0.0163317
862.815	0.0163898
862.893	0.0164685
862.971	0.0165634
863.049	0.0164225
863.128	0.0165177
863.206	0.0163337
863.284	0.0163681
863.362	0.0163821
863.440	0.0163454
863.518	0.0163466
863.596	0.0164426
863.674	0.0164207
863.753	0.0163023
863.831	0.0163938
863.909	0.0165017
863.987	0.0163103
864.065	0.0163366
864.143	0.0162120
864.221	0.0163535
864.299	0.0164346
864.378	0.0164342
864.456	0.0163683
864.534	0.0162182
864.612	0.0163224
864.690	0.0164034
864.768	0.0163499
864.846	0.0162576
864.924	0.0164641
865.003	0.0163149
865.081	0.0163731
865.159	0.0162187
865.237	0.0161185
865.315	0.0163442
865.393	0.0162369
865.471	0.0163949
865.549	0.0164194
865.628	0.0163690
865.706	0.0163702
865.784	0.0164102
865.862	0.0163393
865.940	0.0163112
866.018	0.0162254
866.096	0.0162764
866.174	0.0162634
866.253	0.0164172
866.331	0.0164828
866.409	0.0162250
866.487	0.0163808
866.565	0.0165337
866.643	0.0162980
866.721	0.0162697
866.799	0.0162331
866.878	0.0163841
866.956	0.0162898
867.034	0.0163134
867.112	0.0163607
867.190	0.0163254
867.268	0.0164281
867.346	0.0165448
867.424	0.0164624
867.503	0.0163155
867.581	0.0164191
867.659	0.0163818
867.737	0.0164629
867.815	0.0164209
867.893	0.0164079
867.971	0.0163987
868.049	0.0164059
868.128	0.0164805
868.206	0.0164420
868.284	0.0163898
868.362	0.0164762
868.440	0.0166171
868.518	0.0166769
868.596	0.0165139
868.674	0.0163612
868.753	0.0163438
868.831	0.0164905
868.909	0.0165935
868.987	0.0165123
869.065	0.0164616
869.143	0.0164182
869.221	0.0164766
869.299	0.0166058
869.378	0.0164858
869.456	0.0164333
869.534	0.0165703
869.612	0.0164611
869.690	0.0164797
869.768	0.0165429
869.846	0.0163828
869.924	0.0165026
870.003	0.0165361
870.081	0.0165575
870.159	0.0164209
870.237	0.0166138
870.315	0.0166705
870.393	0.0165540
870.471	0.0165795
870.549	0.0166238
870.628	0.0165782
870.706	0.0164101
870.784	0.0165763
870.862	0.0164569
870.940	0.0165869
871.018	0.0165413
871.096	0.0164921
871.174	0.0167357
871.253	0.0164591
871.331	0.0164270
871.409	0.0164139
871.487	0.0164634
871.565	0.0166078
871.643	0.0166064
871.721	0.0165214
871.799	0.0165729
871.878	0.0164899
871.956	0.0165907
872.034	0.0165017
872.112	0.0164951
872.190	0.0165112
872.268	0.0164776
872.346	0.0165334
872.424	0.0164480
872.503	0.0164787
872.581	0.0165385
872.659	0.0164950
872.737	0.0165751
872.815	0.0165901
872.893	0.0165260
872.971	0.0164770
873.049	0.0165827
873.128	0.0164745
873.206	0.0164384
873.284	0.0163101
873.362	0.0165466
873.440	0.0165529
873.518	0.0164391
873.596	0.0162724
873.674	0.0163495
873.753	0.0163728
873.831	0.0163197
873.909	0.0163022
873.987	0.0163290
874.065	0.0164196
874.143	0.0164417
874.221	0.0163074
874.299	0.0163609
874.378	0.0164160
874.456	0.0163641
874.534	0.0164620
874.612	0.0163497
874.690	0.0165289
874.768	0.0165826
874.846	0.0163844
874.924	0.0164189
875.003	0.0164685
875.081	0.0163599
875.159	0.0164328
875.237	0.0164918
875.315	0.0163485
875.393	0.0164037
875.471	0.0163875
875.549	0.0165079
875.628	0.0165554
875.706	0.0164849
875.784	0.0164961
875.862	0.0163373
875.940	0.0163490
876.018	0.0165123
876.096	0.0164562
876.174	0.0163299
876.253	0.0166230
876.331	0.0163997
876.409	0.0163944
876.487	0.0164441
876.565	0.0165892
876.643	0.0165823
876.721	0.0164970
876.799	0.0164403
876.878	0.0164182
876.956	0.0164983
877.034	0.0164839
877.112	0.0163404
877.190	0.0165439
877.268	0.0167059
877.346	0.0164555
877.424	0.0164497
877.503	0.0164157
877.581	0.0164977
877.659	0.0165327
877.737	0.0164699
877.815	0.0163706
877.893	0.0163340
877.971	0.0162450
878.049	0.0164242
878.128	0.0163823
878.206	0.0165179
878.284	0.0164174
878.362	0.0163404
878.440	0.0164438
878.518	0.0165049
878.596	0.0164830
878.674	0.0163797
878.753	0.0163365
878.831	0.0163633
878.909	0.0164769
878.987	0.0165253
879.065	0.0164489
879.143	0.0164564
879.221	0.0163199
879.299	0.0163314
879.378	0.0164335
879.456	0.0164508
879.534	0.0163596
879.612	0.0162132
879.690	0.0163376
879.768	0.0162346
879.846	0.0161976
879.924	0.0163223
880.003	0.0162519
880.081	0.0162553
880.159	0.0163898
880.237	0.0162083
880.315	0.0161716
880.393	0.0162184
880.471	0.0162241
880.549	0.0162523
880.628	0.0162733
880.706	0.0162328
880.784	0.0162571
880.862	0.0161658
880.940	0.0162205
881.018	0.0164088
881.096	0.0163309
881.174	0.0162276
881.253	0.0162014
881.331	0.0162334
881.409	0.0161886
881.487	0.0162649
881.565	0.0161998
881.643	0.0162901
881.721	0.0161401
881.799	0.0161880
881.878	0.0161900
881.956	0.0162561
882.034	0.0161526
882.112	0.0162389
882.190	0.0161860
882.268	0.0161655
882.346	0.0162292
882.424	0.0163518
882.503	0.0163641
882.581	0.0163379
882.659	0.0164050
882.737	0.0164244
882.815	0.0163242
882.893	0.0163198
882.971	0.0163835
883.049	0.0163857
883.128	0.0164708
883.206	0.0164168
883.284	0.0164514
883.362	0.0165331
883.440	0.0165510
883.518	0.0164425
883.596	0.0164714
883.674	0.0165373
883.753	0.0163444
883.831	0.0164387
883.909	0.0164043
883.987	0.0163957
884.065	0.0162746
884.143	0.0164311
884.221	0.0164183
884.299	0.0164719
884.378	0.0163980
884.456	0.0163974
884.534	0.0163058
884.612	0.0163299
884.690	0.0163691
884.768	0.0163935
884.846	0.0162885
884.924	0.0163478
885.003	0.0162186
885.081	0.0163174
885.159	0.0161647
885.237	0.0164398
885.315	0.0163198
885.393	0.0163497
885.471	0.0161970
885.549	0.0161935
885.628	0.0161797
885.706	0.0162907
885.784	0.0162557
885.862	0.0164043
885.940	0.0162621
886.018	0.0163055
886.096	0.0163496
886.174	0.0163081
886.253	0.0163721
886.331	0.0164182
886.409	0.0163779
886.487	0.0163695
886.565	0.0162672
886.643	0.0162960
886.721	0.0163419
886.799	0.0162309
886.878	0.0163857
886.956	0.0163904
887.034	0.0163885
887.112	0.0163409
887.190	0.0163412
887.268	0.0163685
887.346	0.0163771
887.424	0.0163939
887.503	0.0162677
887.581	0.0163107
887.659	0.0164089
887.737	0.0164170
887.815	0.0163802
887.893	0.0164980
887.971	0.0164669
888.049	0.0165001
888.128	0.0165060
888.206	0.0166086
888.284	0.0165826
888.362	0.0164670
888.440	0.0165628
888.518	0.0165815
888.596	0.0164378
888.674	0.0165374
888.753	0.0165160
888.831	0.0166976
888.909	0.0165913
888.987	0.0166038
889.065	0.0166027
889.143	0.0166171
889.221	0.0166110
889.299	0.0165395
889.378	0.0165277
889.456	0.0164761
889.534	0.0165373
889.612	0.0164809
889.690	0.0164878
889.768	0.0166724
889.846	0.0165810
889.924	0.0165593
890.003	0.0164932
890.081	0.0165572
890.159	0.0166183
890.237	0.0166986
890.315	0.0165697
890.393	0.0165594
890.471	0.0166576
890.549	0.0165324
890.628	0.0165872
890.706	0.0165390
890.784	0.0165255
890.862	0.0164577
890.940	0.0165276
891.018	0.0165881
891.096	0.0165205
891.174	0.0165746
891.253	0.0166920
891.331	0.0165175
891.409	0.0165591
891.487	0.0166501
891.565	0.0165884
891.643	0.0165936
891.721	0.0166489
891.799	0.0166697
891.878	0.0166209
891.956	0.0166245
892.034	0.0166544
892.112	0.0165271
892.190	0.0165835
892.268	0.0166319
892.346	0.0165984
892.424	0.0168121
892.503	0.0165912
892.581	0.0166012
892.659	0.0166074
892.737	0.0166435
892.815	0.0166577
892.893	0.0165721
892.971	0.0166742
893.049	0.0164886
893.128	0.0164744
893.206	0.0164608
893.284	0.0164651
893.362	0.0164156
893.440	0.0165572
893.518	0.0166425
893.596	0.0165709
893.674	0.0165236
893.753	0.0165739
893.831	0.0164185
893.909	0.0165383
893.987	0.0165479
894.065	0.0166295
894.143	0.0164027
894.221	0.0165490
894.299	0.0164950
894.378	0.0164169
894.456	0.0164448
894.534	0.0164499
894.612	0.0164566
894.690	0.0164242
894.768	0.0164760
894.846	0.0164542
894.924	0.0165216
895.003	0.0163864
895.081	0.0164476
895.159	0.0165273
895.237	0.0167010
895.315	0.0164220
895.393	0.0165197
895.471	0.0164133
895.549	0.0164455
895.628	0.0165430
895.706	0.0164977
895.784	0.0165446
895.862	0.0165581
895.940	0.0165014
896.018	0.0165425
896.096	0.0166370
896.174	0.0164727
896.253	0.0164475
896.331	0.0166150
896.409	0.0165371
896.487	0.0165600
896.565	0.0165633
896.643	0.0165324
896.721	0.0164823
896.799	0.0166032
896.878	0.0165262
896.956	0.0165504
897.034	0.0166403
897.112	0.0165242
897.190	0.0164404
897.268	0.0166071
897.346	0.0164850
897.424	0.0164944
897.503	0.0165732
897.581	0.0165261
897.659	0.0165294
897.737	0.0165010
897.815	0.0165224
897.893	0.0164793
897.971	0.0164334
898.049	0.0164545
898.128	0.0164532
898.206	0.0165026
898.284	0.0164613
898.362	0.0163631
898.440	0.0163811
898.518	0.0162862
898.596	0.0165095
898.674	0.0165099
898.753	0.0164631
898.831	0.0164657
898.909	0.0163964
898.987	0.0165520
899.065	0.0165392
899.143	0.0164304
899.221	0.0164985
899.299	0.0165685
899.378	0.0165489
899.456	0.0163693
899.534	0.0163931
899.612	0.0164800
899.690	0.0165634
899.768	0.0164256
899.846	0.0166725
899.924	0.0163551
900.003	0.0163322
900.081	0.0165863
900.159	0.0164480
900.237	0.0163930
900.315	0.0165292
900.393	0.0165578
900.471	0.0165079
900.549	0.0164905
900.628	0.0163336
900.706	0.0164637
900.784	0.0165524
900.862	0.0165665
900.940	0.0164336
901.018	0.0165022
901.096	0.0164130
901.174	0.0164919
901.253	0.0165665
901.331	0.0164497
901.409	0.0165347
901.487	0.0164182
901.565	0.0165846
901.643	0.0164993
901.721	0.0164124
901.799	0.0163615
901.878	0.0164027
901.956	0.0164386
902.034	0.0164117
902.112	0.0163643
902.190	0.0163171
902.268	0.0163366
902.346	0.0162358
902.424	0.0163026
902.503	0.0163863
902.581	0.0163303
902.659	0.0163068
902.737	0.0164147
902.815	0.0163677
902.893	0.0164350
902.971	0.0163680
903.049	0.0163406
903.128	0.0163582
903.206	0.0164493
903.284	0.0162099
903.362	0.0162965
903.440	0.0163919
903.518	0.0163395
903.596	0.0163719
903.674	0.0163107
903.753	0.0161851
903.831	0.0162347
903.909	0.0163183
903.987	0.0162390
904.065	0.0163111
904.143	0.0163379
904.221	0.0162394
904.299	0.0162022
904.378	0.0162726
904.456	0.0162810
904.534	0.0161889
904.612	0.0162000
904.690	0.0161901
904.768	0.0162493
904.846	0.0162392
904.924	0.0161864
905.003	0.0161581
905.081	0.0162671
905.159	0.0162844
905.237	0.0160808
905.315	0.0162394
905.393	0.0163287
905.471	0.0162115
905.549	0.0161555
905.628	0.0161814
905.706	0.0161527
905.784	0.0162349
905.862	0.0163131
905.940	0.0163259
906.018	0.0162200
906.096	0.0161862
906.174	0.0163162
906.253	0.0164142
906.331	0.0164532
906.409	0.0162143
906.487	0.0162721
906.565	0.0163696
906.643	0.0164854
906.721	0.0164203
906.799	0.0162200
906.878	0.0162243
906.956	0.0162380
907.034	0.0162543
907.112	0.0163996
907.190	0.0164027
907.268	0.0163023
907.346	0.0164732
907.424	0.0163809
907.503	0.0164278
907.581	0.0163918
907.659	0.0163161
907.737	0.0164225
907.815	0.0163097
907.893	0.0164169
907.971	0.0164332
908.049	0.0164652
908.128	0.0164056
908.206	0.0162487
908.284	0.0162772
908.362	0.0163425
908.440	0.0164232
908.518	0.0163291
908.596	0.0164210
908.674	0.0164246
908.753	0.0164084
908.831	0.0164975
908.909	0.0163538
908.987	0.0162235
909.065	0.0164588
909.143	0.0163312
909.221	0.0163925
909.299	0.0164600
909.378	0.0162854
909.456	0.0163838
909.534	0.0164794
909.612	0.0163439
909.690	0.0163986
909.768	0.0164716
909.846	0.0165457
909.924	0.0164281
910.003	0.0164285
910.081	0.0163972
910.159	0.0163436
910.237	0.0164546
910.315	0.0163875
910.393	0.0163696
910.471	0.0164648
910.549	0.0164108
910.628	0.0164162
910.706	0.0164665
910.784	0.0164892
910.862	0.0164423
910.940	0.0162971
911.018	0.0162634
911.096	0.0163738
911.174	0.0164662
911.253	0.0162769
911.331	0.0164305
911.409	0.0163822
911.487	0.0162999
911.565	0.0163954
911.643	0.0163255
911.721	0.0163389
911.799	0.0163898
911.878	0.0162128
911.956	0.0164191
912.034	0.0164042
912.112	0.0164976
912.190	0.0163155
912.268	0.0163168
912.346	0.0164344
912.424	0.0163430
912.503	0.0163755
912.581	0.0165413
912.659	0.0164137
912.737	0.0164106
912.815	0.0164502
912.893	0.0164785
912.971	0.0164229
913.049	0.0165347
913.128	0.0165240
913.206	0.0164926
913.284	0.0163651
913.362	0.0165500
913.440	0.0166045
913.518	0.0164155
913.596	0.0165240
913.674	0.0165529
913.753	0.0165826
913.831	0.0165570
913.909	0.0165362
913.987	0.0166184
914.065	0.0165201
914.143	0.0166560
914.221	0.0166797
914.299	0.0166013
914.378	0.0165232
914.456	0.0165742
914.534	0.0166026
914.612	0.0165240
914.690	0.0164755
914.768	0.0164758
914.846	0.0167452
914.924	0.0166074
915.003	0.0166113
915.081	0.0165390
915.159	0.0167049
915.237	0.0166273
915.315	0.0165784
915.393	0.0165012
915.471	0.0166061
915.549	0.0166908
915.628	0.0166349
915.706	0.0166586
915.784	0.0165395
915.862	0.0165707
915.940	0.0166799
916.018	0.0168140
916.096	0.0166337
916.174	0.0167345
916.253	0.0164447
916.331	0.0166206
916.409	0.0168087
916.487	0.0165490
916.565	0.0164326
916.643	0.0165291
916.721	0.0165327
916.799	0.0165599
916.878	0.0166142
916.956	0.0165604
917.034	0.0166025
917.112	0.0164952
917.190	0.0166814
917.268	0.0167427
917.346	0.0166311
917.424	0.0166386
917.503	0.0166927
917.581	0.0166306
917.659	0.0165999
917.737	0.0166270
917.815	0.0165405
917.893	0.0165981
917.971	0.0166214
918.049	0.0164684
918.128	0.0166184
918.206	0.0165733
918.284	0.0164947
918.362	0.0164820
918.440	0.0164827
918.518	0.0165317
918.596	0.0164359
918.674	0.0165826
918.753	0.0165713
918.831	0.0166329
918.909	0.0165638
918.987	0.0165604
919.065	0.0165020
919.143	0.0166463
919.221	0.0164103
919.299	0.0164977
919.378	0.0165270
919.456	0.0164273
919.534	0.0163927
919.612	0.0166479
919.690	0.0165338
919.768	0.0166006
919.846	0.0166433
919.924	0.0165759
920.003	0.0165930
920.081	0.0165577
920.159	0.0166885
920.237	0.0166676
920.315	0.0166663
920.393	0.0165991
920.471	0.0166346
920.549	0.0165825
920.628	0.0166561
920.706	0.0166878
920.784	0.0166485
920.862	0.0167985
920.940	0.0166002
921.018	0.0167156
921.096	0.0166994
921.174	0.0168130
921.253	0.0165491
921.331	0.0167828
921.409	0.0167654
921.487	0.0166192
921.565	0.0166615
921.643	0.0166182
921.721	0.0166337
921.799	0.0167645
921.878	0.0166682
921.956	0.0165054
922.034	0.0166055
922.112	0.0166018
922.190	0.0164973
922.268	0.0164922
922.346	0.0165942
922.424	0.0166003
922.503	0.0164469
922.581	0.0163927
922.659	0.0164864
922.737	0.0164561
922.815	0.0164267
922.893	0.0165514
922.971	0.0165484
923.049	0.0165972
923.128	0.0165226
923.206	0.0163648
923.284	0.0165727
923.362	0.0163783
923.440	0.0162599
923.518	0.0165213
923.596	0.0165189
923.674	0.0164492
923.753	0.0163850
923.831	0.0164257
923.909	0.0163588
923.987	0.0165353
924.065	0.0163931
924.143	0.0163944
924.221	0.0163290
924.299	0.0163490
924.378	0.0163602
924.456	0.0165188
924.534	0.0164104
924.612	0.0163773
924.690	0.0164038
924.768	0.0164463
924.846	0.0164462
924.924	0.0164204
925.003	0.0162800
925.081	0.0162321
925.159	0.0163168
925.237	0.0163037
925.315	0.0163546
925.393	0.0163486
925.471	0.0162394
925.549	0.0162603
925.628	0.0163467
925.706	0.0162785
925.784	0.0161481
925.862	0.0163026
925.940	0.0161526
926.018	0.0162491
926.096	0.0161017
926.174	0.0161861
926.253	0.0162646
926.331	0.0162093
926.409	0.0161254
926.487	0.0163924
926.565	0.0163525
926.643	0.0162372
926.721	0.0163614
926.799	0.0163216
926.878	0.0162060
926.956	0.0163663
927.034	0.0163435
927.112	0.0163839
927.190	0.0161974
927.268	0.0162494
927.346	0.0162609
927.424	0.0162550
927.503	0.0163795
927.581	0.0163741
927.659	0.0163477
927.737	0.0163673
927.815	0.0164425
927.893	0.0163525
927.971	0.0162727
928.049	0.0162001
928.128	0.0163699
928.206	0.0162737
928.284	0.0163003
928.362	0.0164462
928.440	0.0163432
928.518	0.0162480
928.596	0.0163242
928.674	0.0163672
928.753	0.0163991
928.831	0.0163202
928.909	0.0162555
928.987	0.0162612
929.065	0.0163457
929.143	0.0162457
929.221	0.0163322
929.299	0.0163477
929.378	0.0163249
929.456	0.0163091
929.534	0.0164528
929.612	0.0164948
929.690	0.0164101
929.768	0.0163127
929.846	0.0163286
929.924	0.0163444
930.003	0.0163759
930.081	0.0164301
930.159	0.0163505
930.237	0.0165033
930.315	0.0165076
930.393	0.0164155
930.471	0.0164060
930.549	0.0164354
930.628	0.0163763
930.706	0.0164561
930.784	0.0164928
930.862	0.0165304
930.940	0.0167294
931.018	0.0165929
931.096	0.0164227
931.174	0.0164324
931.253	0.0166674
931.331	0.0165076
931.409	0.0165586
931.487	0.0166072
931.565	0.0165573
931.643	0.0166280
931.721	0.0166757
931.799	0.0164764
931.878	0.0165829
931.956	0.0166113
932.034	0.0165651
932.112	0.0164151
932.190	0.0164548
932.268	0.0165282
932.346	0.0165819
932.424	0.0164873
932.503	0.0165224
932.581	0.0163528
932.659	0.0165939
932.737	0.0165917
932.815	0.0163853
932.893	0.0164214
932.971	0.0163246
933.049	0.0164378
933.128	0.0164953
933.206	0.0164468
933.284	0.0165295
933.362	0.0164911
933.440	0.0163637
933.518	0.0164259
933.596	0.0164575
933.674	0.0163648
933.753	0.0163779
933.831	0.0164310
933.909	0.0165659
933.987	0.0163943
934.065	0.0161912
934.143	0.0163725
934.221	0.0164995
934.299	0.0164795
934.378	0.0164930
934.456	0.0164922
934.534	0.0164448
934.612	0.0164345
934.690	0.0165248
934.768	0.0165706
934.846	0.0165268
934.924	0.0164827
935.003	0.0164036
935.081	0.0166063
935.159	0.0165718
935.237	0.0165692
935.315	0.0164556
935.393	0.0165781
935.471	0.0164965
935.549	0.0164298
935.628	0.0164980
935.706	0.0164594
935.784	0.0164213
935.862	0.0164630
935.940	0.0165850
936.018	0.0164178
936.096	0.0163312
936.174	0.0164639
936.253	0.0163999
936.331	0.0163610
936.409	0.0163966
936.487	0.0163633
936.565	0.0164139
936.643	0.0162459
936.721	0.0163022
936.799	0.0162704
936.878	0.0163311
936.956	0.0162601
937.034	0.0163023
937.112	0.0163581
937.190	0.0163512
937.268	0.0164198
937.346	0.0163177
937.424	0.0162761
937.503	0.0162830
937.581	0.0163055
937.659	0.0164804
937.737	0.0163162
937.815	0.0163866
937.893	0.0164989
937.971	0.0164299
938.049	0.0164863
938.128	0.0163151
938.206	0.0163656
938.284	0.0164257
938.362	0.0164574
938.440	0.0163887
938.518	0.0164063
938.596	0.0164799
938.674	0.0163577
938.753	0.0163802
938.831	0.0163784
938.909	0.0164085
938.987	0.0164713
939.065	0.0162939
939.143	0.0163000
939.221	0.0163857
939.299	0.0165338
939.378	0.0162839
939.456	0.0162505
939.534	0.0163301
939.612	0.0163653
939.690	0.0163713
939.768	0.0163290
939.846	0.0163291
939.924	0.0162442
940.003	0.0162903
940.081	0.0162568
940.159	0.0163370
940.237	0.0164684
940.315	0.0163816
940.393	0.0161970
940.471	0.0163638
940.549	0.0164110
940.628	0.0163756
940.706	0.0162195
940.784	0.0163960
940.862	0.0164455
940.940	0.0165199
941.018	0.0164858
941.096	0.0164886
941.174	0.0163176
941.253	0.0162900
941.331	0.0164971
941.409	0.0164098
941.487	0.0166099
941.565	0.0165155
941.643	0.0164843
941.721	0.0164170
941.799	0.0165579
941.878	0.0165849
941.956	0.0165547
942.034	0.0165385
942.112	0.0164628
942.190	0.0164124
942.268	0.0164294
942.346	0.0164983
942.424	0.0162474
942.503	0.0163515
942.581	0.0163838
942.659	0.0163708
942.737	0.0162887
942.815	0.0163326
942.893	0.0163040
942.971	0.0163999
943.049	0.0164036
943.128	0.0163478
943.206	0.0162661
943.284	0.0163692
943.362	0.0162714
943.440	0.0162805
943.518	0.0162901
943.596	0.0163694
943.674	0.0164530
943.753	0.0163706
943.831	0.0164128
943.909	0.0163813
943.987	0.0163773
944.065	0.0164225
944.143	0.0164139
944.221	0.0163689
944.299	0.0163474
944.378	0.0164565
944.456	0.0163318
944.534	0.0163335
944.612	0.0162844
944.690	0.0163535
944.768	0.0162770
944.846	0.0162847
944.924	0.0164273
945.003	0.0164287
945.081	0.0163602
945.159	0.0163792
945.237	0.0164940
945.315	0.0163609
945.393	0.0162136
945.471	0.0163136
945.549	0.0163483
945.628	0.0164843
945.706	0.0164012
945.784	0.0163172
945.862	0.0163972
945.940	0.0163303
946.018	0.0163226
946.096	0.0163343
946.174	0.0161213
946.253	0.0163169
946.331	0.0164462
946.409	0.0163192
946.487	0.0162959
946.565	0.0163290
946.643	0.0162905
946.721	0.0163853
946.799	0.0162154
946.878	0.0161867
946.956	0.0161395
947.034	0.0163305
947.112	0.0162643
947.190	0.0163166
947.268	0.0162169
947.346	0.0162257
947.424	0.0163001
947.503	0.0162939
947.581	0.0163613
947.659	0.0162560
947.737	0.0162693
947.815	0.0164523
947.893	0.0162830
947.971	0.0161780
948.049	0.0163342
948.128	0.0162415
948.206	0.0163656
948.284	0.0163024
948.362	0.0162687
948.440	0.0162619
948.518	0.0161839
948.596	0.0164323
948.674	0.0162007
948.753	0.0161306
948.831	0.0162842
948.909	0.0162622
948.987	0.0162067
949.065	0.0162315
949.143	0.0163151
949.221	0.0163159
949.299	0.0162391
949.378	0.0162692
949.456	0.0163808
949.534	0.0161711
949.612	0.0162109
949.690	0.0162881
949.768	0.0163660
949.846	0.0162688
949.924	0.0162494
