06/29/2022	23:20:01	Ver.	4.1	UNKNOWN
Optical Delay	630.002507	Delta X		0.078125	Sweeps	1	Scan Rate	0/0
Coordinates	Axis 1	NaN	Axis 2	NaN	Axis 3	NaN	Axis 4	NaN	Axis 5	NaN	Axis 6	0.000000
TX Power	0.000000	RX Power	0.000000

630.003	0.0164418
630.081	0.0164875
630.159	0.0164440
630.237	0.0165820
630.315	0.0164788
630.393	0.0163867
630.471	0.0164316
630.549	0.0164000
630.628	0.0163897
630.706	0.0164996
630.784	0.0165163
630.862	0.0163557
630.940	0.0164498
631.018	0.0163519
631.096	0.0164524
631.174	0.0164310
631.253	0.0164165
631.331	0.0165229
631.409	0.0163272
631.487	0.0163386
631.565	0.0163730
631.643	0.0164205
631.721	0.0165045
631.799	0.0165216
631.878	0.0166811
631.956	0.0164959
632.034	0.0163024
632.112	0.0165246
632.190	0.0165176
632.268	0.0164371
632.346	0.0163626
632.424	0.0164764
632.503	0.0164024
632.581	0.0165493
632.659	0.0164863
632.737	0.0164725
632.815	0.0164226
632.893	0.0164704
632.971	0.0165178
633.049	0.0165498
633.128	0.0163327
633.206	0.0164670
633.284	0.0164726
633.362	0.0164105
633.440	0.0164693
633.518	0.0164942
633.596	0.0163725
633.674	0.0163639
633.753	0.0164282
633.831	0.0164651
633.909	0.0164944
633.987	0.0163169
634.065	0.0163976
634.143	0.0164782
634.221	0.0164446
634.299	0.0164306
634.378	0.0164149
634.456	0.0165338
634.534	0.0165216
634.612	0.0163927
634.690	0.0162657
634.768	0.0165849
634.846	0.0165254
634.924	0.0163878
635.003	0.0164347
635.081	0.0164201
635.159	0.0165553
635.237	0.0164999
635.315	0.0164080
635.393	0.0165069
635.471	0.0164403
635.549	0.0164242
635.628	0.0164883
635.706	0.0164030
635.784	0.0163313
635.862	0.0165533
635.940	0.0165549
636.018	0.0164610
636.096	0.0164137
636.174	0.0165067
636.253	0.0165064
636.331	0.0163985
636.409	0.0162897
636.487	0.0164877
636.565	0.0163113
636.643	0.0163311
636.721	0.0164973
636.799	0.0163794
636.878	0.0164241
636.956	0.0164755
637.034	0.0164619
637.112	0.0164048
637.190	0.0164175
637.268	0.0165591
637.346	0.0164257
637.424	0.0163757
637.503	0.0164146
637.581	0.0163976
637.659	0.0163926
637.737	0.0164743
637.815	0.0164310
637.893	0.0163308
637.971	0.0164257
638.049	0.0163982
638.128	0.0163026
638.206	0.0163779
638.284	0.0164378
638.362	0.0163423
638.440	0.0163546
638.518	0.0164165
638.596	0.0163892
638.674	0.0163674
638.753	0.0164568
638.831	0.0162851
638.909	0.0163549
638.987	0.0164365
639.065	0.0163475
639.143	0.0164183
639.221	0.0162892
639.299	0.0164776
639.378	0.0163631
639.456	0.0164229
639.534	0.0164286
639.612	0.0163905
639.690	0.0164790
639.768	0.0164329
639.846	0.0163828
639.924	0.0163928
640.003	0.0164249
640.081	0.0165474
640.159	0.0164954
640.237	0.0163562
640.315	0.0165931
640.393	0.0164997
640.471	0.0164626
640.549	0.0165180
640.628	0.0164885
640.706	0.0165928
640.784	0.0165329
640.862	0.0165443
640.940	0.0166302
641.018	0.0165737
641.096	0.0165141
641.174	0.0166232
641.253	0.0165005
641.331	0.0166050
641.409	0.0167271
641.487	0.0165900
641.565	0.0166225
641.643	0.0166786
641.721	0.0167138
641.799	0.0167268
641.878	0.0166184
641.956	0.0165945
642.034	0.0166016
642.112	0.0165571
642.190	0.0164833
642.268	0.0166239
642.346	0.0167393
642.424	0.0165496
642.503	0.0165072
642.581	0.0165947
642.659	0.0165848
642.737	0.0166080
642.815	0.0166026
642.893	0.0165313
642.971	0.0167272
643.049	0.0166957
643.128	0.0164987
643.206	0.0163959
643.284	0.0165368
643.362	0.0165966
643.440	0.0165987
643.518	0.0165560
643.596	0.0164818
643.674	0.0163903
643.753	0.0164774
643.831	0.0164787
643.909	0.0165771
643.987	0.0166180
644.065	0.0165093
644.143	0.0164676
644.221	0.0165622
644.299	0.0165440
644.378	0.0165727
644.456	0.0165031
644.534	0.0164935
644.612	0.0164417
644.690	0.0164320
644.768	0.0164596
644.846	0.0164713
644.924	0.0165269
645.003	0.0165630
645.081	0.0165916
645.159	0.0165636
645.237	0.0165343
645.315	0.0165405
645.393	0.0164488
645.471	0.0163625
645.549	0.0165466
645.628	0.0165504
645.706	0.0163631
645.784	0.0164506
645.862	0.0164351
645.940	0.0164591
646.018	0.0165064
646.096	0.0164191
646.174	0.0163737
646.253	0.0165403
646.331	0.0165710
646.409	0.0164476
646.487	0.0164338
646.565	0.0163872
646.643	0.0163673
646.721	0.0165240
646.799	0.0163503
646.878	0.0162927
646.956	0.0163905
647.034	0.0164280
647.112	0.0164684
647.190	0.0165264
647.268	0.0165356
647.346	0.0165471
647.424	0.0165907
647.503	0.0165623
647.581	0.0163857
647.659	0.0163809
647.737	0.0164314
647.815	0.0164079
647.893	0.0163793
647.971	0.0164479
648.049	0.0162974
648.128	0.0163757
648.206	0.0164037
648.284	0.0163343
648.362	0.0163710
648.440	0.0164500
648.518	0.0163594
648.596	0.0162988
648.674	0.0164088
648.753	0.0163399
648.831	0.0164624
648.909	0.0163371
648.987	0.0164454
649.065	0.0163490
649.143	0.0164040
649.221	0.0163459
649.299	0.0163233
649.378	0.0163647
649.456	0.0163573
649.534	0.0163230
649.612	0.0164045
649.690	0.0163589
649.768	0.0162428
649.846	0.0164568
649.924	0.0162984
650.003	0.0164386
650.081	0.0163931
650.159	0.0164702
650.237	0.0165463
650.315	0.0164149
650.393	0.0163678
650.471	0.0164703
650.549	0.0164046
650.628	0.0162587
650.706	0.0165142
650.784	0.0163620
650.862	0.0165520
650.940	0.0164367
651.018	0.0162917
651.096	0.0163712
651.174	0.0164178
651.253	0.0163927
651.331	0.0164998
651.409	0.0164187
651.487	0.0163645
651.565	0.0165367
651.643	0.0163750
651.721	0.0164553
651.799	0.0164915
651.878	0.0164742
651.956	0.0165643
652.034	0.0164837
652.112	0.0165510
652.190	0.0164598
652.268	0.0165805
652.346	0.0164532
652.424	0.0166779
652.503	0.0166704
652.581	0.0165795
652.659	0.0166250
652.737	0.0166055
652.815	0.0164967
652.893	0.0166254
652.971	0.0165542
653.049	0.0165134
653.128	0.0165511
653.206	0.0164631
653.284	0.0164722
653.362	0.0164571
653.440	0.0165742
653.518	0.0165800
653.596	0.0166298
653.674	0.0165532
653.753	0.0166617
653.831	0.0166916
653.909	0.0165614
653.987	0.0164743
654.065	0.0166265
654.143	0.0167037
654.221	0.0166130
654.299	0.0167100
654.378	0.0165588
654.456	0.0167645
654.534	0.0167060
654.612	0.0165739
654.690	0.0165485
654.768	0.0167665
654.846	0.0166133
654.924	0.0165767
655.003	0.0166823
655.081	0.0165585
655.159	0.0165887
655.237	0.0166585
655.315	0.0165872
655.393	0.0166803
655.471	0.0166457
655.549	0.0166373
655.628	0.0166199
655.706	0.0164331
655.784	0.0165705
655.862	0.0164691
655.940	0.0165133
656.018	0.0167358
656.096	0.0166038
656.174	0.0166269
656.253	0.0164332
656.331	0.0164774
656.409	0.0166372
656.487	0.0164305
656.565	0.0166162
656.643	0.0164429
656.721	0.0164485
656.799	0.0165156
656.878	0.0163960
656.956	0.0164641
657.034	0.0164528
657.112	0.0166049
657.190	0.0165709
657.268	0.0166013
657.346	0.0164413
657.424	0.0165762
657.503	0.0165685
657.581	0.0164474
657.659	0.0164584
657.737	0.0165960
657.815	0.0164707
657.893	0.0165440
657.971	0.0165176
658.049	0.0165549
658.128	0.0164924
658.206	0.0164843
658.284	0.0165533
658.362	0.0165340
658.440	0.0163648
658.518	0.0165351
658.596	0.0164798
658.674	0.0165064
658.753	0.0164473
658.831	0.0163929
658.909	0.0165137
658.987	0.0164059
659.065	0.0164674
659.143	0.0164102
659.221	0.0164381
659.299	0.0165270
659.378	0.0164254
659.456	0.0164810
659.534	0.0164287
659.612	0.0164737
659.690	0.0165602
659.768	0.0162525
659.846	0.0162315
659.924	0.0164287
660.003	0.0163146
660.081	0.0162477
660.159	0.0164015
660.237	0.0164782
660.315	0.0163354
660.393	0.0163927
660.471	0.0163937
660.549	0.0163250
660.628	0.0163632
660.706	0.0163357
660.784	0.0164370
660.862	0.0163409
660.940	0.0162806
661.018	0.0162579
661.096	0.0163033
661.174	0.0163149
661.253	0.0165856
661.331	0.0165146
661.409	0.0164006
661.487	0.0162955
661.565	0.0163576
661.643	0.0165532
661.721	0.0164502
661.799	0.0165321
661.878	0.0163300
661.956	0.0164485
662.034	0.0165971
662.112	0.0164580
662.190	0.0164427
662.268	0.0164671
662.346	0.0164311
662.424	0.0165370
662.503	0.0165601
662.581	0.0163635
662.659	0.0164651
662.737	0.0166483
662.815	0.0165395
662.893	0.0165454
662.971	0.0166707
663.049	0.0166409
663.128	0.0165907
663.206	0.0164423
663.284	0.0163444
663.362	0.0164859
663.440	0.0166191
663.518	0.0164606
663.596	0.0166122
663.674	0.0165503
663.753	0.0165575
663.831	0.0164680
663.909	0.0164851
663.987	0.0165706
664.065	0.0166116
664.143	0.0165553
664.221	0.0165488
664.299	0.0165591
664.378	0.0165515
664.456	0.0165072
664.534	0.0165111
664.612	0.0166199
664.690	0.0164010
664.768	0.0166039
664.846	0.0166351
664.924	0.0164612
665.003	0.0164861
665.081	0.0165542
665.159	0.0164090
665.237	0.0166429
665.315	0.0163794
665.393	0.0165265
665.471	0.0165268
665.549	0.0164404
665.628	0.0164896
665.706	0.0165827
665.784	0.0164736
665.862	0.0164075
665.940	0.0163741
666.018	0.0165400
666.096	0.0164596
666.174	0.0164423
666.253	0.0164410
666.331	0.0165122
666.409	0.0164156
666.487	0.0165520
666.565	0.0164072
666.643	0.0163965
666.721	0.0165404
666.799	0.0164993
666.878	0.0164418
666.956	0.0163177
667.034	0.0164323
667.112	0.0163622
667.190	0.0164288
667.268	0.0164597
667.346	0.0164497
667.424	0.0163923
667.503	0.0164561
667.581	0.0164061
667.659	0.0163876
667.737	0.0164185
667.815	0.0163668
667.893	0.0163622
667.971	0.0164138
668.049	0.0163499
668.128	0.0163551
668.206	0.0163193
668.284	0.0163071
668.362	0.0164294
668.440	0.0163332
668.518	0.0162359
668.596	0.0163244
668.674	0.0163066
668.753	0.0162951
668.831	0.0163091
668.909	0.0163460
668.987	0.0163658
669.065	0.0163359
669.143	0.0162917
669.221	0.0162204
669.299	0.0164185
669.378	0.0163725
669.456	0.0162851
669.534	0.0163088
669.612	0.0163468
669.690	0.0163856
669.768	0.0163121
669.846	0.0162256
669.924	0.0164616
670.003	0.0163876
670.081	0.0163822
670.159	0.0163468
670.237	0.0163727
670.315	0.0164679
670.393	0.0163398
670.471	0.0164724
670.549	0.0164813
670.628	0.0163956
670.706	0.0164159
670.784	0.0164363
670.862	0.0163642
670.940	0.0162129
671.018	0.0163586
671.096	0.0163078
671.174	0.0162248
671.253	0.0164297
671.331	0.0164082
671.409	0.0163991
671.487	0.0164880
671.565	0.0163406
671.643	0.0163778
671.721	0.0164072
671.799	0.0163268
671.878	0.0163435
671.956	0.0163425
672.034	0.0164737
672.112	0.0162710
672.190	0.0162849
672.268	0.0165026
672.346	0.0163969
672.424	0.0163092
672.503	0.0164344
672.581	0.0163968
672.659	0.0163850
672.737	0.0162772
672.815	0.0163412
672.893	0.0164252
672.971	0.0163243
673.049	0.0163697
673.128	0.0164104
673.206	0.0163399
673.284	0.0161934
673.362	0.0162681
673.440	0.0164467
673.518	0.0162675
673.596	0.0163335
673.674	0.0165110
673.753	0.0164593
673.831	0.0161920
673.909	0.0164426
673.987	0.0165200
674.065	0.0163557
674.143	0.0165112
674.221	0.0163038
674.299	0.0165013
674.378	0.0164915
674.456	0.0162979
674.534	0.0164090
674.612	0.0165808
674.690	0.0163680
674.768	0.0164218
674.846	0.0162950
674.924	0.0165396
675.003	0.0165247
675.081	0.0166104
675.159	0.0163643
675.237	0.0163454
675.315	0.0163189
675.393	0.0164342
675.471	0.0162925
675.549	0.0163066
675.628	0.0164932
675.706	0.0164663
675.784	0.0163531
675.862	0.0163036
675.940	0.0162527
676.018	0.0163738
676.096	0.0163974
676.174	0.0162670
676.253	0.0164508
676.331	0.0163840
676.409	0.0162791
676.487	0.0164725
676.565	0.0163908
676.643	0.0163289
676.721	0.0164906
676.799	0.0165430
676.878	0.0163118
676.956	0.0165022
677.034	0.0164514
677.112	0.0163174
677.190	0.0163950
677.268	0.0165349
677.346	0.0164773
677.424	0.0164140
677.503	0.0165923
677.581	0.0164757
677.659	0.0164878
677.737	0.0165600
677.815	0.0164783
677.893	0.0164838
677.971	0.0166087
678.049	0.0165676
678.128	0.0165458
678.206	0.0166367
678.284	0.0164168
678.362	0.0163890
678.440	0.0164675
678.518	0.0166402
678.596	0.0165497
678.674	0.0164071
678.753	0.0165569
678.831	0.0165960
678.909	0.0163817
678.987	0.0164896
679.065	0.0164131
679.143	0.0165411
679.221	0.0166148
679.299	0.0165237
679.378	0.0164893
679.456	0.0165350
679.534	0.0164269
679.612	0.0163536
679.690	0.0164101
679.768	0.0165312
679.846	0.0164462
679.924	0.0164362
680.003	0.0165388
680.081	0.0165546
680.159	0.0164261
680.237	0.0164435
680.315	0.0165871
680.393	0.0164980
680.471	0.0165511
680.549	0.0163090
680.628	0.0164290
680.706	0.0165185
680.784	0.0164581
680.862	0.0163434
680.940	0.0164148
681.018	0.0164431
681.096	0.0166428
681.174	0.0163387
681.253	0.0163502
681.331	0.0163790
681.409	0.0164372
681.487	0.0164317
681.565	0.0165654
681.643	0.0164408
681.721	0.0165125
681.799	0.0163344
681.878	0.0164991
681.956	0.0164915
682.034	0.0164722
682.112	0.0165305
682.190	0.0163955
682.268	0.0165394
682.346	0.0165783
682.424	0.0165260
682.503	0.0164786
682.581	0.0162856
682.659	0.0165390
682.737	0.0164396
682.815	0.0164002
682.893	0.0164523
682.971	0.0164262
683.049	0.0164362
683.128	0.0162330
683.206	0.0163558
683.284	0.0164694
683.362	0.0163596
683.440	0.0164063
683.518	0.0162420
683.596	0.0164285
683.674	0.0163607
683.753	0.0163241
683.831	0.0163882
683.909	0.0164648
683.987	0.0162637
684.065	0.0163744
684.143	0.0163188
684.221	0.0164251
684.299	0.0164471
684.378	0.0164193
684.456	0.0164552
684.534	0.0163545
684.612	0.0163176
684.690	0.0164412
684.768	0.0164098
684.846	0.0163746
684.924	0.0164199
685.003	0.0162759
685.081	0.0164604
685.159	0.0162396
685.237	0.0163118
685.315	0.0164548
685.393	0.0162731
685.471	0.0163522
685.549	0.0165191
685.628	0.0163726
685.706	0.0164283
685.784	0.0163331
685.862	0.0163210
685.940	0.0164488
686.018	0.0164251
686.096	0.0164562
686.174	0.0163027
686.253	0.0164545
686.331	0.0163993
686.409	0.0163168
686.487	0.0163895
686.565	0.0165330
686.643	0.0164613
686.721	0.0163033
686.799	0.0163447
686.878	0.0164240
686.956	0.0164192
687.034	0.0164153
687.112	0.0163003
687.190	0.0165398
687.268	0.0165445
687.346	0.0163222
687.424	0.0162627
687.503	0.0163886
687.581	0.0163616
687.659	0.0163203
687.737	0.0163100
687.815	0.0163373
687.893	0.0163605
687.971	0.0163018
688.049	0.0164841
688.128	0.0163147
688.206	0.0165553
688.284	0.0164396
688.362	0.0164157
688.440	0.0163467
688.518	0.0162094
688.596	0.0163769
688.674	0.0163897
688.753	0.0164204
688.831	0.0166025
688.909	0.0164905
688.987	0.0164825
689.065	0.0163410
689.143	0.0164713
689.221	0.0163758
689.299	0.0163443
689.378	0.0163951
689.456	0.0164366
689.534	0.0166647
689.612	0.0163974
689.690	0.0164063
689.768	0.0164648
689.846	0.0165594
689.924	0.0163941
690.003	0.0164124
690.081	0.0165926
690.159	0.0164888
690.237	0.0163478
690.315	0.0163722
690.393	0.0163790
690.471	0.0163039
690.549	0.0163730
690.628	0.0163377
690.706	0.0163853
690.784	0.0163493
690.862	0.0162786
690.940	0.0162698
691.018	0.0163532
691.096	0.0161997
691.174	0.0162683
691.253	0.0162498
691.331	0.0162975
691.409	0.0164120
691.487	0.0164302
691.565	0.0163873
691.643	0.0164389
691.721	0.0163625
691.799	0.0164944
691.878	0.0164325
691.956	0.0163023
692.034	0.0162345
692.112	0.0164776
692.190	0.0165372
692.268	0.0163009
692.346	0.0163605
692.424	0.0165554
692.503	0.0164929
692.581	0.0165221
692.659	0.0162930
692.737	0.0163559
692.815	0.0162617
692.893	0.0163535
692.971	0.0163655
693.049	0.0162766
693.128	0.0162996
693.206	0.0161812
693.284	0.0162569
693.362	0.0163422
693.440	0.0161882
693.518	0.0163802
693.596	0.0162760
693.674	0.0161944
693.753	0.0161845
693.831	0.0163776
693.909	0.0163346
693.987	0.0162495
694.065	0.0163234
694.143	0.0162792
694.221	0.0162157
694.299	0.0163602
694.378	0.0163712
694.456	0.0163373
694.534	0.0163950
694.612	0.0163557
694.690	0.0163696
694.768	0.0163393
694.846	0.0163071
694.924	0.0162827
695.003	0.0163737
695.081	0.0162663
695.159	0.0162457
695.237	0.0162428
695.315	0.0162560
695.393	0.0162546
695.471	0.0163528
695.549	0.0163129
695.628	0.0163096
695.706	0.0162162
695.784	0.0161935
695.862	0.0163430
695.940	0.0162818
696.018	0.0162440
696.096	0.0162737
696.174	0.0162972
696.253	0.0162763
696.331	0.0163813
696.409	0.0165385
696.487	0.0163455
696.565	0.0163830
696.643	0.0164526
696.721	0.0165353
696.799	0.0165397
696.878	0.0165345
696.956	0.0163834
697.034	0.0165919
697.112	0.0165691
697.190	0.0165968
697.268	0.0164329
697.346	0.0163627
697.424	0.0164449
697.503	0.0165414
697.581	0.0165371
697.659	0.0166076
697.737	0.0164272
697.815	0.0164888
697.893	0.0162388
697.971	0.0163104
698.049	0.0165116
698.128	0.0165501
698.206	0.0164514
698.284	0.0163412
698.362	0.0164603
698.440	0.0163827
698.518	0.0165160
698.596	0.0164418
698.674	0.0162808
698.753	0.0163712
698.831	0.0165657
698.909	0.0164352
698.987	0.0163773
699.065	0.0164452
699.143	0.0165400
699.221	0.0163438
699.299	0.0164516
699.378	0.0163593
699.456	0.0165228
699.534	0.0164319
699.612	0.0162926
699.690	0.0163713
699.768	0.0165861
699.846	0.0164153
699.924	0.0164282
700.003	0.0164212
700.081	0.0163964
700.159	0.0164833
700.237	0.0164838
700.315	0.0165546
700.393	0.0164685
700.471	0.0166038
700.549	0.0165536
700.628	0.0165265
700.706	0.0165874
700.784	0.0166953
700.862	0.0168408
700.940	0.0165719
701.018	0.0167194
701.096	0.0166063
701.174	0.0165739
701.253	0.0166023
701.331	0.0167123
701.409	0.0166270
701.487	0.0165722
701.565	0.0165461
701.643	0.0165599
701.721	0.0165194
701.799	0.0165121
701.878	0.0163882
701.956	0.0165575
702.034	0.0164813
702.112	0.0164388
702.190	0.0164587
702.268	0.0164429
702.346	0.0163756
702.424	0.0164814
702.503	0.0163905
702.581	0.0164907
702.659	0.0165223
702.737	0.0166208
702.815	0.0164920
702.893	0.0164349
702.971	0.0165125
703.049	0.0164964
703.128	0.0165411
703.206	0.0166253
703.284	0.0165380
703.362	0.0163977
703.440	0.0164810
703.518	0.0165314
703.596	0.0164299
703.674	0.0163162
703.753	0.0164323
703.831	0.0165022
703.909	0.0165422
703.987	0.0165136
704.065	0.0164740
704.143	0.0165005
704.221	0.0165754
704.299	0.0163985
704.378	0.0165134
704.456	0.0165368
704.534	0.0166199
704.612	0.0166811
704.690	0.0166030
704.768	0.0166199
704.846	0.0166535
704.924	0.0166103
705.003	0.0167690
705.081	0.0166621
705.159	0.0167093
705.237	0.0166934
705.315	0.0166905
705.393	0.0165647
705.471	0.0166868
705.549	0.0167216
705.628	0.0165933
705.706	0.0166935
705.784	0.0165870
705.862	0.0164942
705.940	0.0166037
706.018	0.0165173
706.096	0.0163715
706.174	0.0165154
706.253	0.0165806
706.331	0.0164352
706.409	0.0164723
706.487	0.0164101
706.565	0.0166152
706.643	0.0165195
706.721	0.0164909
706.799	0.0163941
706.878	0.0164980
706.956	0.0165522
707.034	0.0164495
707.112	0.0164647
707.190	0.0163839
707.268	0.0164581
707.346	0.0165294
707.424	0.0163617
707.503	0.0164713
707.581	0.0162723
707.659	0.0163569
707.737	0.0163047
707.815	0.0162956
707.893	0.0163253
707.971	0.0162514
708.049	0.0164754
708.128	0.0164935
708.206	0.0164486
708.284	0.0163866
708.362	0.0165144
708.440	0.0164139
708.518	0.0165652
708.596	0.0165096
708.674	0.0164140
708.753	0.0166644
708.831	0.0166814
708.909	0.0166393
708.987	0.0167384
709.065	0.0167480
709.143	0.0168002
709.221	0.0166936
709.299	0.0167170
709.378	0.0167531
709.456	0.0167457
709.534	0.0166299
709.612	0.0166102
709.690	0.0164201
709.768	0.0164495
709.846	0.0165619
709.924	0.0164902
710.003	0.0164354
710.081	0.0162923
710.159	0.0162778
710.237	0.0163850
710.315	0.0162510
710.393	0.0162479
710.471	0.0162300
710.549	0.0161662
710.628	0.0159389
710.706	0.0161149
710.784	0.0160706
710.862	0.0160155
710.940	0.0160638
711.018	0.0161610
711.096	0.0159486
711.174	0.0161309
711.253	0.0161519
711.331	0.0160310
711.409	0.0161052
711.487	0.0161288
711.565	0.0162019
711.643	0.0162836
711.721	0.0162473
711.799	0.0162594
711.878	0.0162962
711.956	0.0165340
712.034	0.0163223
712.112	0.0164211
712.190	0.0163949
712.268	0.0164719
712.346	0.0165374
712.424	0.0165021
712.503	0.0163584
712.581	0.0165147
712.659	0.0165678
712.737	0.0165669
712.815	0.0164848
712.893	0.0165788
712.971	0.0165320
713.049	0.0164548
713.128	0.0165051
713.206	0.0164777
713.284	0.0165527
713.362	0.0164258
713.440	0.0163962
713.518	0.0164348
713.596	0.0165255
713.674	0.0166333
713.753	0.0164375
713.831	0.0163654
713.909	0.0163241
713.987	0.0163686
714.065	0.0165103
714.143	0.0163805
714.221	0.0164285
714.299	0.0164754
714.378	0.0162115
714.456	0.0162474
714.534	0.0162158
714.612	0.0162297
714.690	0.0162665
714.768	0.0161633
714.846	0.0161087
714.924	0.0160894
715.003	0.0161134
715.081	0.0161818
715.159	0.0162122
715.237	0.0162430
715.315	0.0163457
715.393	0.0161893
715.471	0.0163451
715.549	0.0164141
715.628	0.0163943
715.706	0.0164783
715.784	0.0165865
715.862	0.0165515
715.940	0.0165616
716.018	0.0165714
716.096	0.0165080
716.174	0.0166305
716.253	0.0166607
716.331	0.0165678
716.409	0.0164365
716.487	0.0166041
716.565	0.0164605
716.643	0.0165392
716.721	0.0165300
716.799	0.0164909
716.878	0.0163412
716.956	0.0163859
717.034	0.0164445
717.112	0.0163432
717.190	0.0162733
717.268	0.0162959
717.346	0.0163143
717.424	0.0162482
717.503	0.0163613
717.581	0.0163619
717.659	0.0161970
717.737	0.0161772
717.815	0.0161861
717.893	0.0164067
717.971	0.0162736
718.049	0.0162479
718.128	0.0162868
718.206	0.0162817
718.284	0.0164257
718.362	0.0163563
718.440	0.0165996
718.518	0.0165652
718.596	0.0166141
718.674	0.0165993
718.753	0.0168528
718.831	0.0169423
718.909	0.0169558
718.987	0.0169099
719.065	0.0169464
719.143	0.0169595
719.221	0.0169982
719.299	0.0170638
719.378	0.0170097
719.456	0.0169774
719.534	0.0169886
719.612	0.0168482
719.690	0.0169674
719.768	0.0168342
719.846	0.0167046
719.924	0.0167060
720.003	0.0165216
720.081	0.0165978
720.159	0.0164265
720.237	0.0164256
720.315	0.0164021
720.393	0.0161893
720.471	0.0160880
720.549	0.0161538
720.628	0.0160366
720.706	0.0159673
720.784	0.0160268
720.862	0.0160873
720.940	0.0159500
721.018	0.0160056
721.096	0.0161732
721.174	0.0161194
721.253	0.0159483
721.331	0.0160737
721.409	0.0161575
721.487	0.0161487
721.565	0.0161230
721.643	0.0163331
721.721	0.0162872
721.799	0.0163808
721.878	0.0163313
721.956	0.0164520
722.034	0.0166944
722.112	0.0165387
722.190	0.0166129
722.268	0.0166682
722.346	0.0166797
722.424	0.0166972
722.503	0.0167398
722.581	0.0167392
722.659	0.0167429
722.737	0.0168810
722.815	0.0169548
722.893	0.0169386
722.971	0.0171164
723.049	0.0170292
723.128	0.0169469
723.206	0.0168193
723.284	0.0169028
723.362	0.0169911
723.440	0.0170357
723.518	0.0169250
723.596	0.0167954
723.674	0.0167655
723.753	0.0166299
723.831	0.0166953
723.909	0.0164902
723.987	0.0165545
724.065	0.0164899
724.143	0.0164303
724.221	0.0160955
724.299	0.0160439
724.378	0.0161288
724.456	0.0160900
724.534	0.0160487
724.612	0.0160340
724.690	0.0160034
724.768	0.0158645
724.846	0.0161128
724.924	0.0160698
725.003	0.0160620
725.081	0.0161008
725.159	0.0161897
725.237	0.0161341
725.315	0.0164487
725.393	0.0163348
725.471	0.0163900
725.549	0.0165852
725.628	0.0166135
725.706	0.0166914
725.784	0.0168150
725.862	0.0170078
725.940	0.0170294
726.018	0.0169482
726.096	0.0170258
726.174	0.0172252
726.253	0.0172385
726.331	0.0173247
726.409	0.0172430
726.487	0.0173927
726.565	0.0174642
726.643	0.0173008
726.721	0.0173492
726.799	0.0173918
726.878	0.0172365
726.956	0.0172894
727.034	0.0172083
727.112	0.0170271
727.190	0.0171322
727.268	0.0170535
727.346	0.0168165
727.424	0.0167139
727.503	0.0166563
727.581	0.0164273
727.659	0.0163559
727.737	0.0163129
727.815	0.0161324
727.893	0.0159831
727.971	0.0159785
728.049	0.0157376
728.128	0.0158145
728.206	0.0157136
728.284	0.0157194
728.362	0.0156924
728.440	0.0157172
728.518	0.0158924
728.596	0.0157155
728.674	0.0159260
728.753	0.0159894
728.831	0.0160504
728.909	0.0161773
728.987	0.0161421
729.065	0.0163554
729.143	0.0164818
729.221	0.0166079
729.299	0.0166370
729.378	0.0168465
729.456	0.0169009
729.534	0.0170610
729.612	0.0171861
729.690	0.0171945
729.768	0.0172440
729.846	0.0173450
729.924	0.0173953
730.003	0.0174503
730.081	0.0174889
730.159	0.0173974
730.237	0.0173093
730.315	0.0174585
730.393	0.0173003
730.471	0.0173066
730.549	0.0171085
730.628	0.0170381
730.706	0.0171522
730.784	0.0169508
730.862	0.0167487
730.940	0.0167059
731.018	0.0164146
731.096	0.0163111
731.174	0.0162536
731.253	0.0160715
731.331	0.0159086
731.409	0.0157712
731.487	0.0158640
731.565	0.0156100
731.643	0.0154758
731.721	0.0153725
731.799	0.0153194
731.878	0.0154886
731.956	0.0152683
732.034	0.0151917
732.112	0.0154361
732.190	0.0154529
732.268	0.0154434
732.346	0.0155037
732.424	0.0156813
732.503	0.0157925
732.581	0.0159347
732.659	0.0159597
732.737	0.0162563
732.815	0.0164202
732.893	0.0164825
732.971	0.0165445
733.049	0.0167115
733.128	0.0168443
733.206	0.0169247
733.284	0.0169238
733.362	0.0168539
733.440	0.0171261
733.518	0.0170033
733.596	0.0170612
733.674	0.0168142
733.753	0.0170520
733.831	0.0169438
733.909	0.0168582
733.987	0.0167374
734.065	0.0167120
734.143	0.0167217
734.221	0.0165533
734.299	0.0164198
734.378	0.0164336
734.456	0.0162079
734.534	0.0162514
734.612	0.0162211
734.690	0.0160939
734.768	0.0160938
734.846	0.0161384
734.924	0.0159912
735.003	0.0158871
735.081	0.0160403
735.159	0.0157961
735.237	0.0158334
735.315	0.0158817
735.393	0.0158942
735.471	0.0159353
735.549	0.0158295
735.628	0.0161139
735.706	0.0161169
735.784	0.0161723
735.862	0.0160775
735.940	0.0160712
736.018	0.0163479
736.096	0.0163818
736.174	0.0163689
736.253	0.0165529
736.331	0.0167305
736.409	0.0167450
736.487	0.0166464
736.565	0.0169023
736.643	0.0169487
736.721	0.0169157
736.799	0.0170305
736.878	0.0169037
736.956	0.0169671
737.034	0.0169624
737.112	0.0168859
737.190	0.0168418
737.268	0.0169088
737.346	0.0168805
737.424	0.0168800
737.503	0.0169249
737.581	0.0166797
737.659	0.0165347
737.737	0.0163973
737.815	0.0163454
737.893	0.0163002
737.971	0.0162314
738.049	0.0160900
738.128	0.0157494
738.206	0.0158176
738.284	0.0157437
738.362	0.0155489
738.440	0.0156198
738.518	0.0154150
738.596	0.0153915
738.674	0.0153433
738.753	0.0154237
738.831	0.0154620
738.909	0.0154878
738.987	0.0153772
739.065	0.0156368
739.143	0.0157079
739.221	0.0158598
739.299	0.0159671
739.378	0.0159917
739.456	0.0162591
739.534	0.0164805
739.612	0.0164996
739.690	0.0166101
739.768	0.0167855
739.846	0.0168674
739.924	0.0171214
740.003	0.0171410
740.081	0.0172227
740.159	0.0172836
740.237	0.0174031
740.315	0.0172691
740.393	0.0172820
740.471	0.0172838
740.549	0.0172848
740.628	0.0173079
740.706	0.0171268
740.784	0.0171290
740.862	0.0171767
740.940	0.0169826
741.018	0.0168671
741.096	0.0169839
741.174	0.0167830
741.253	0.0167344
741.331	0.0166225
741.409	0.0166351
741.487	0.0164589
741.565	0.0163680
741.643	0.0163387
741.721	0.0163197
741.799	0.0162676
741.878	0.0162292
741.956	0.0162280
742.034	0.0161122
742.112	0.0161285
742.190	0.0160185
742.268	0.0159682
742.346	0.0161002
742.424	0.0160513
742.503	0.0159615
742.581	0.0159826
742.659	0.0158981
742.737	0.0159330
742.815	0.0159310
742.893	0.0158816
742.971	0.0157114
743.049	0.0158426
743.128	0.0159748
743.206	0.0157598
743.284	0.0159242
743.362	0.0160435
743.440	0.0160722
743.518	0.0161588
743.596	0.0163182
743.674	0.0163381
743.753	0.0162218
743.831	0.0163235
743.909	0.0165101
743.987	0.0165165
744.065	0.0166472
744.143	0.0166766
744.221	0.0167009
744.299	0.0167972
744.378	0.0167638
744.456	0.0168027
744.534	0.0169763
744.612	0.0169350
744.690	0.0169823
744.768	0.0170042
744.846	0.0170332
744.924	0.0169659
745.003	0.0168859
745.081	0.0168715
745.159	0.0170306
745.237	0.0170247
745.315	0.0167591
745.393	0.0169279
745.471	0.0168802
745.549	0.0168555
745.628	0.0167677
745.706	0.0166583
745.784	0.0167104
745.862	0.0166447
745.940	0.0165507
746.018	0.0165228
746.096	0.0164182
746.174	0.0164041
746.253	0.0164601
746.331	0.0163594
746.409	0.0164491
746.487	0.0163809
746.565	0.0162571
746.643	0.0164049
746.721	0.0162976
746.799	0.0162811
746.878	0.0163553
746.956	0.0164127
747.034	0.0165131
747.112	0.0165752
747.190	0.0165767
747.268	0.0165180
747.346	0.0164870
747.424	0.0165514
747.503	0.0166288
747.581	0.0166344
747.659	0.0164941
747.737	0.0165530
747.815	0.0166017
747.893	0.0166259
747.971	0.0165064
748.049	0.0163438
748.128	0.0163421
748.206	0.0164031
748.284	0.0163974
748.362	0.0163394
748.440	0.0161989
748.518	0.0162971
748.596	0.0162000
748.674	0.0162350
748.753	0.0161777
748.831	0.0163415
748.909	0.0162601
748.987	0.0161268
749.065	0.0161880
749.143	0.0161975
749.221	0.0162864
749.299	0.0163803
749.378	0.0162632
749.456	0.0164809
749.534	0.0164771
749.612	0.0165460
749.690	0.0164518
749.768	0.0165063
749.846	0.0164904
749.924	0.0166905
750.003	0.0164836
750.081	0.0167781
750.159	0.0166921
750.237	0.0168097
750.315	0.0169210
750.393	0.0168430
750.471	0.0169526
750.549	0.0168684
750.628	0.0168455
750.706	0.0169550
750.784	0.0170099
750.862	0.0169834
750.940	0.0170057
751.018	0.0170370
751.096	0.0169115
751.174	0.0168591
751.253	0.0167987
751.331	0.0168982
751.409	0.0168907
751.487	0.0168313
751.565	0.0168416
751.643	0.0166677
751.721	0.0168847
751.799	0.0166540
751.878	0.0165736
751.956	0.0166238
752.034	0.0166089
752.112	0.0165984
752.190	0.0164915
752.268	0.0163694
752.346	0.0163640
752.424	0.0163728
752.503	0.0163951
752.581	0.0161945
752.659	0.0160930
752.737	0.0162121
752.815	0.0161610
752.893	0.0160152
752.971	0.0160105
753.049	0.0161590
753.128	0.0159860
753.206	0.0160652
753.284	0.0160413
753.362	0.0161891
753.440	0.0161082
753.518	0.0161377
753.596	0.0161213
753.674	0.0162539
753.753	0.0162711
753.831	0.0162175
753.909	0.0161262
753.987	0.0163119
754.065	0.0164091
754.143	0.0163501
754.221	0.0162795
754.299	0.0164192
754.378	0.0164963
754.456	0.0162435
754.534	0.0162897
754.612	0.0163235
754.690	0.0164088
754.768	0.0161189
754.846	0.0162991
754.924	0.0163958
755.003	0.0164345
755.081	0.0162954
755.159	0.0163049
755.237	0.0164339
755.315	0.0164257
755.393	0.0162045
755.471	0.0162961
755.549	0.0163942
755.628	0.0164467
755.706	0.0165562
755.784	0.0164803
755.862	0.0164294
755.940	0.0165052
756.018	0.0165025
756.096	0.0166253
756.174	0.0165654
756.253	0.0164095
756.331	0.0165397
756.409	0.0166618
756.487	0.0164983
756.565	0.0164721
756.643	0.0165209
756.721	0.0164301
756.799	0.0163510
756.878	0.0164536
756.956	0.0164914
757.034	0.0165388
757.112	0.0163368
757.190	0.0164353
757.268	0.0164626
757.346	0.0162420
757.424	0.0162175
757.503	0.0163725
757.581	0.0163303
757.659	0.0162119
757.737	0.0162102
757.815	0.0161606
757.893	0.0162227
757.971	0.0160583
758.049	0.0162945
758.128	0.0161546
758.206	0.0161475
758.284	0.0161979
758.362	0.0160732
758.440	0.0160664
758.518	0.0160650
758.596	0.0161346
758.674	0.0162006
758.753	0.0161494
758.831	0.0162717
758.909	0.0161843
758.987	0.0163981
759.065	0.0162691
759.143	0.0163755
759.221	0.0161484
759.299	0.0163566
759.378	0.0163037
759.456	0.0162463
759.534	0.0164642
759.612	0.0163803
759.690	0.0162862
759.768	0.0162459
759.846	0.0162551
759.924	0.0162664
760.003	0.0161266
760.081	0.0162174
760.159	0.0162483
760.237	0.0160120
760.315	0.0160210
760.393	0.0158709
760.471	0.0160146
760.549	0.0159795
760.628	0.0159648
760.706	0.0159631
760.784	0.0160021
760.862	0.0160945
760.940	0.0161416
761.018	0.0162393
761.096	0.0163074
761.174	0.0163361
761.253	0.0163950
761.331	0.0164668
761.409	0.0164811
761.487	0.0166651
761.565	0.0167223
761.643	0.0168648
761.721	0.0168407
761.799	0.0170425
761.878	0.0172252
761.956	0.0171897
762.034	0.0169888
762.112	0.0169802
762.190	0.0171464
762.268	0.0170557
762.346	0.0169556
762.424	0.0170496
762.503	0.0168501
762.581	0.0169095
762.659	0.0167931
762.737	0.0167479
762.815	0.0166464
762.893	0.0165089
762.971	0.0165303
763.049	0.0165682
763.128	0.0164196
763.206	0.0163070
763.284	0.0162973
763.362	0.0162794
763.440	0.0163005
763.518	0.0162040
763.596	0.0161597
763.674	0.0162511
763.753	0.0162041
763.831	0.0161924
763.909	0.0160895
763.987	0.0161176
764.065	0.0160677
764.143	0.0162058
764.221	0.0161996
764.299	0.0161358
764.378	0.0160907
764.456	0.0159048
764.534	0.0161617
764.612	0.0161681
764.690	0.0161430
764.768	0.0161591
764.846	0.0160957
764.924	0.0163032
765.003	0.0164741
765.081	0.0162223
765.159	0.0162946
765.237	0.0164712
765.315	0.0164725
765.393	0.0163404
765.471	0.0164267
765.549	0.0164962
765.628	0.0164392
765.706	0.0165057
765.784	0.0162858
765.862	0.0163774
765.940	0.0163300
766.018	0.0163864
766.096	0.0162277
766.174	0.0162557
766.253	0.0162395
766.331	0.0161215
766.409	0.0161858
766.487	0.0162297
766.565	0.0161879
766.643	0.0163371
766.721	0.0163403
766.799	0.0162741
766.878	0.0163953
766.956	0.0163396
767.034	0.0164139
767.112	0.0164822
767.190	0.0166135
767.268	0.0165347
767.346	0.0166544
767.424	0.0168257
767.503	0.0168121
767.581	0.0168993
767.659	0.0169806
767.737	0.0168659
767.815	0.0169751
767.893	0.0169469
767.971	0.0168659
768.049	0.0170390
768.128	0.0168477
768.206	0.0169672
768.284	0.0169940
768.362	0.0167963
768.440	0.0166302
768.518	0.0167206
768.596	0.0166959
768.674	0.0167413
768.753	0.0164239
768.831	0.0164646
768.909	0.0165666
768.987	0.0165218
769.065	0.0162784
769.143	0.0162327
769.221	0.0161795
769.299	0.0162366
769.378	0.0161699
769.456	0.0161224
769.534	0.0162703
769.612	0.0161731
769.690	0.0161992
769.768	0.0162642
769.846	0.0163669
769.924	0.0161988
770.003	0.0161625
770.081	0.0162750
770.159	0.0162614
770.237	0.0163457
770.315	0.0163862
770.393	0.0163996
770.471	0.0166081
770.549	0.0165839
770.628	0.0165900
770.706	0.0167896
770.784	0.0167535
770.862	0.0166991
770.940	0.0166910
771.018	0.0168151
771.096	0.0167072
771.174	0.0167210
771.253	0.0167452
771.331	0.0166198
771.409	0.0166209
771.487	0.0167358
771.565	0.0166675
771.643	0.0164957
771.721	0.0163441
771.799	0.0163219
771.878	0.0164066
771.956	0.0163038
772.034	0.0161662
772.112	0.0162141
772.190	0.0161076
772.268	0.0161790
772.346	0.0160674
772.424	0.0160268
772.503	0.0161359
772.581	0.0163581
772.659	0.0160159
772.737	0.0161569
772.815	0.0162981
772.893	0.0163673
772.971	0.0163023
773.049	0.0164249
773.128	0.0164275
773.206	0.0163310
773.284	0.0165166
773.362	0.0167155
773.440	0.0167053
773.518	0.0166669
773.596	0.0166762
773.674	0.0167336
773.753	0.0168293
773.831	0.0168330
773.909	0.0168459
773.987	0.0168867
774.065	0.0168790
774.143	0.0170011
774.221	0.0167435
774.299	0.0167081
774.378	0.0168465
774.456	0.0167990
774.534	0.0167213
774.612	0.0165668
774.690	0.0165458
774.768	0.0165980
774.846	0.0166345
774.924	0.0162852
775.003	0.0162601
775.081	0.0162699
775.159	0.0161572
775.237	0.0163203
775.315	0.0163173
775.393	0.0162534
775.471	0.0161190
775.549	0.0161104
775.628	0.0161595
775.706	0.0160329
775.784	0.0161666
775.862	0.0161737
775.940	0.0160405
776.018	0.0160305
776.096	0.0162467
776.174	0.0160747
776.253	0.0160635
776.331	0.0161508
776.409	0.0162272
776.487	0.0162673
776.565	0.0162492
776.643	0.0162595
776.721	0.0162729
776.799	0.0161082
776.878	0.0161111
776.956	0.0162251
777.034	0.0160719
777.112	0.0161423
777.190	0.0161697
777.268	0.0162215
777.346	0.0163176
777.424	0.0161272
777.503	0.0161631
777.581	0.0162325
777.659	0.0162329
777.737	0.0160242
777.815	0.0160888
777.893	0.0162326
777.971	0.0161521
778.049	0.0161426
778.128	0.0162079
778.206	0.0163472
778.284	0.0163029
778.362	0.0163317
778.440	0.0164813
778.518	0.0163616
778.596	0.0163766
778.674	0.0164548
778.753	0.0165892
778.831	0.0165889
778.909	0.0166609
778.987	0.0166830
779.065	0.0168663
779.143	0.0169014
779.221	0.0168544
779.299	0.0167426
779.378	0.0168342
779.456	0.0168893
779.534	0.0167228
779.612	0.0168986
779.690	0.0168838
779.768	0.0168403
779.846	0.0169108
779.924	0.0168800
780.003	0.0167675
780.081	0.0168098
780.159	0.0167842
780.237	0.0167738
780.315	0.0167984
780.393	0.0168519
780.471	0.0167678
780.549	0.0164902
780.628	0.0164701
780.706	0.0166667
780.784	0.0164999
780.862	0.0164873
780.940	0.0163834
781.018	0.0163737
781.096	0.0163299
781.174	0.0163618
781.253	0.0164281
781.331	0.0162981
781.409	0.0161034
781.487	0.0163644
781.565	0.0163656
781.643	0.0163659
781.721	0.0163526
781.799	0.0165254
781.878	0.0164330
781.956	0.0163548
782.034	0.0165854
782.112	0.0166296
782.190	0.0165096
782.268	0.0166232
782.346	0.0167235
782.424	0.0167765
782.503	0.0168977
782.581	0.0168077
782.659	0.0168853
782.737	0.0168466
782.815	0.0167770
782.893	0.0168090
782.971	0.0168945
783.049	0.0168876
783.128	0.0166133
783.206	0.0164996
783.284	0.0165636
783.362	0.0166274
783.440	0.0164807
783.518	0.0165127
783.596	0.0163319
783.674	0.0163441
783.753	0.0164388
783.831	0.0164043
783.909	0.0163360
783.987	0.0164282
784.065	0.0162458
784.143	0.0163490
784.221	0.0164066
784.299	0.0163967
784.378	0.0163366
784.456	0.0163631
784.534	0.0164137
784.612	0.0164647
784.690	0.0165022
784.768	0.0166108
784.846	0.0166090
784.924	0.0165634
785.003	0.0166917
785.081	0.0165965
785.159	0.0166171
785.237	0.0165214
785.315	0.0166279
785.393	0.0165709
785.471	0.0165313
785.549	0.0166420
785.628	0.0167371
785.706	0.0167229
785.784	0.0168330
785.862	0.0167786
785.940	0.0166451
786.018	0.0167745
786.096	0.0166820
786.174	0.0167400
786.253	0.0165778
786.331	0.0165018
786.409	0.0166227
786.487	0.0166084
786.565	0.0166335
786.643	0.0164835
786.721	0.0165173
786.799	0.0164537
786.878	0.0164796
786.956	0.0165598
787.034	0.0164922
787.112	0.0164774
787.190	0.0164533
787.268	0.0164054
787.346	0.0166026
787.424	0.0163903
787.503	0.0165459
787.581	0.0165311
787.659	0.0164091
787.737	0.0164851
787.815	0.0164369
787.893	0.0164835
787.971	0.0163879
788.049	0.0165242
788.128	0.0164079
788.206	0.0164429
788.284	0.0164425
788.362	0.0163930
788.440	0.0163596
788.518	0.0163844
788.596	0.0164154
788.674	0.0164166
788.753	0.0165148
788.831	0.0164196
788.909	0.0164055
788.987	0.0164986
789.065	0.0164314
789.143	0.0164109
789.221	0.0165484
789.299	0.0163173
789.378	0.0165343
789.456	0.0165229
789.534	0.0164227
789.612	0.0164891
789.690	0.0165730
789.768	0.0164822
789.846	0.0165369
789.924	0.0165311
790.003	0.0164858
790.081	0.0163760
790.159	0.0164864
790.237	0.0166190
790.315	0.0164084
790.393	0.0166650
790.471	0.0165151
790.549	0.0166016
790.628	0.0166563
790.706	0.0167696
790.784	0.0167284
790.862	0.0166181
790.940	0.0166889
791.018	0.0166934
791.096	0.0165665
791.174	0.0168140
791.253	0.0167064
791.331	0.0166209
791.409	0.0168362
791.487	0.0166528
791.565	0.0167172
791.643	0.0165470
791.721	0.0165952
791.799	0.0163666
791.878	0.0164511
791.956	0.0165008
792.034	0.0162717
792.112	0.0165227
792.190	0.0163710
792.268	0.0163927
792.346	0.0164785
792.424	0.0163148
792.503	0.0164909
792.581	0.0164612
792.659	0.0165321
792.737	0.0165652
792.815	0.0163562
792.893	0.0164721
792.971	0.0165993
793.049	0.0164988
793.128	0.0165016
793.206	0.0166291
793.284	0.0166276
793.362	0.0165984
793.440	0.0165010
793.518	0.0165984
793.596	0.0166650
793.674	0.0165485
793.753	0.0166695
793.831	0.0166896
793.909	0.0166808
793.987	0.0166248
794.065	0.0166265
794.143	0.0166037
794.221	0.0165015
794.299	0.0165446
794.378	0.0166236
794.456	0.0165253
794.534	0.0164214
794.612	0.0163873
794.690	0.0164135
794.768	0.0164861
794.846	0.0163446
794.924	0.0164527
795.003	0.0166163
795.081	0.0164798
795.159	0.0164404
795.237	0.0165668
795.315	0.0164020
795.393	0.0165369
795.471	0.0164462
795.549	0.0164742
795.628	0.0164269
795.706	0.0164782
795.784	0.0164324
795.862	0.0164301
795.940	0.0163863
796.018	0.0163176
796.096	0.0165024
796.174	0.0164838
796.253	0.0162495
796.331	0.0161162
796.409	0.0161380
796.487	0.0161803
796.565	0.0163516
796.643	0.0163342
796.721	0.0161537
796.799	0.0162484
796.878	0.0163171
796.956	0.0163449
797.034	0.0164674
797.112	0.0163831
797.190	0.0163245
797.268	0.0164652
797.346	0.0166380
797.424	0.0164860
797.503	0.0163802
797.581	0.0164207
797.659	0.0164990
797.737	0.0164738
797.815	0.0165386
797.893	0.0162892
797.971	0.0163993
798.049	0.0164775
798.128	0.0163860
798.206	0.0163509
798.284	0.0163712
798.362	0.0163663
798.440	0.0163410
798.518	0.0163702
798.596	0.0163876
798.674	0.0164187
798.753	0.0164547
798.831	0.0163395
798.909	0.0163696
798.987	0.0163912
799.065	0.0165166
799.143	0.0164679
799.221	0.0164102
799.299	0.0164638
799.378	0.0164440
799.456	0.0163799
799.534	0.0164343
799.612	0.0163995
799.690	0.0164192
799.768	0.0165696
799.846	0.0165257
799.924	0.0163464
800.003	0.0164212
800.081	0.0165474
800.159	0.0164939
800.237	0.0164787
800.315	0.0165073
800.393	0.0162811
800.471	0.0164410
800.549	0.0164100
800.628	0.0162879
800.706	0.0163334
800.784	0.0164551
800.862	0.0163068
800.940	0.0164303
801.018	0.0163190
801.096	0.0164316
801.174	0.0164099
801.253	0.0164187
801.331	0.0164661
801.409	0.0164077
801.487	0.0164613
801.565	0.0164936
801.643	0.0164661
801.721	0.0165667
801.799	0.0164715
801.878	0.0165058
801.956	0.0164675
802.034	0.0165133
802.112	0.0165215
802.190	0.0166127
802.268	0.0164642
802.346	0.0167514
802.424	0.0167091
802.503	0.0166019
802.581	0.0165406
802.659	0.0166405
802.737	0.0165314
802.815	0.0165993
802.893	0.0168307
802.971	0.0167122
803.049	0.0167100
803.128	0.0166267
803.206	0.0167656
803.284	0.0167146
803.362	0.0166360
803.440	0.0166579
803.518	0.0167373
803.596	0.0165794
803.674	0.0167997
803.753	0.0166380
803.831	0.0166687
803.909	0.0166149
803.987	0.0167239
804.065	0.0167243
804.143	0.0166593
804.221	0.0165283
804.299	0.0166188
804.378	0.0166018
804.456	0.0166478
804.534	0.0165769
804.612	0.0164476
804.690	0.0165775
804.768	0.0166367
804.846	0.0166119
804.924	0.0166696
805.003	0.0164098
805.081	0.0164858
805.159	0.0165526
805.237	0.0164087
805.315	0.0165267
805.393	0.0166130
805.471	0.0165323
805.549	0.0165984
805.628	0.0164375
805.706	0.0165955
805.784	0.0163926
805.862	0.0166400
805.940	0.0166004
806.018	0.0165057
806.096	0.0164735
806.174	0.0165440
806.253	0.0167328
806.331	0.0166529
806.409	0.0166166
806.487	0.0165543
806.565	0.0166449
806.643	0.0164963
806.721	0.0165844
806.799	0.0165911
806.878	0.0165298
806.956	0.0165588
807.034	0.0164733
807.112	0.0165661
807.190	0.0164285
807.268	0.0164363
807.346	0.0164942
807.424	0.0165192
807.503	0.0164059
807.581	0.0164172
807.659	0.0163047
807.737	0.0163638
807.815	0.0164344
807.893	0.0163671
807.971	0.0162302
808.049	0.0163850
808.128	0.0163413
808.206	0.0162831
808.284	0.0164811
808.362	0.0163312
808.440	0.0162786
808.518	0.0163440
808.596	0.0162823
808.674	0.0163276
808.753	0.0163605
808.831	0.0162540
808.909	0.0164119
808.987	0.0163201
809.065	0.0163753
809.143	0.0162711
809.221	0.0164547
809.299	0.0162811
809.378	0.0163532
809.456	0.0163223
809.534	0.0163035
809.612	0.0163982
809.690	0.0163419
809.768	0.0164455
809.846	0.0163532
809.924	0.0162927
810.003	0.0165192
810.081	0.0163686
810.159	0.0163720
810.237	0.0164227
810.315	0.0163847
810.393	0.0163979
810.471	0.0164495
810.549	0.0163564
810.628	0.0164561
810.706	0.0164053
810.784	0.0163980
810.862	0.0164664
810.940	0.0163397
811.018	0.0163837
811.096	0.0163129
811.174	0.0164009
811.253	0.0164263
811.331	0.0163757
811.409	0.0163923
811.487	0.0163710
811.565	0.0163577
811.643	0.0164165
811.721	0.0164368
811.799	0.0165191
811.878	0.0164971
811.956	0.0165150
812.034	0.0164883
812.112	0.0164597
812.190	0.0164099
812.268	0.0164587
812.346	0.0164350
812.424	0.0164019
812.503	0.0165065
812.581	0.0164725
812.659	0.0164452
812.737	0.0165060
812.815	0.0164768
812.893	0.0164822
812.971	0.0164278
813.049	0.0164657
813.128	0.0164677
813.206	0.0164745
813.284	0.0165005
813.362	0.0164964
813.440	0.0164702
813.518	0.0165226
813.596	0.0163740
813.674	0.0164362
813.753	0.0164472
813.831	0.0165581
813.909	0.0163470
813.987	0.0163138
814.065	0.0165417
814.143	0.0164421
814.221	0.0163180
814.299	0.0165238
814.378	0.0163848
814.456	0.0164030
814.534	0.0164787
814.612	0.0165170
814.690	0.0164670
814.768	0.0165553
814.846	0.0165914
814.924	0.0163516
815.003	0.0165324
815.081	0.0165160
815.159	0.0163533
815.237	0.0164555
815.315	0.0165308
815.393	0.0165529
815.471	0.0165434
815.549	0.0166430
815.628	0.0166148
815.706	0.0166174
815.784	0.0167303
815.862	0.0166092
815.940	0.0166746
816.018	0.0165415
816.096	0.0165374
816.174	0.0165774
816.253	0.0164230
816.331	0.0164507
816.409	0.0163502
816.487	0.0166160
816.565	0.0164938
816.643	0.0163569
816.721	0.0163170
816.799	0.0164624
816.878	0.0164915
816.956	0.0164224
817.034	0.0162448
817.112	0.0163940
817.190	0.0163529
817.268	0.0163745
817.346	0.0164034
817.424	0.0163406
817.503	0.0162965
817.581	0.0164027
817.659	0.0166001
817.737	0.0165199
817.815	0.0163094
817.893	0.0163709
817.971	0.0164185
818.049	0.0164687
818.128	0.0163984
818.206	0.0164291
818.284	0.0164719
818.362	0.0164450
818.440	0.0165177
818.518	0.0164167
818.596	0.0164949
818.674	0.0165490
818.753	0.0164996
818.831	0.0166691
818.909	0.0166469
818.987	0.0165482
819.065	0.0165820
819.143	0.0166066
819.221	0.0167308
819.299	0.0166412
819.378	0.0166586
819.456	0.0165578
819.534	0.0165004
819.612	0.0166206
819.690	0.0166652
819.768	0.0164009
819.846	0.0164142
819.924	0.0164125
820.003	0.0164459
820.081	0.0165331
820.159	0.0165119
820.237	0.0165070
820.315	0.0163550
820.393	0.0162960
820.471	0.0164600
820.549	0.0163459
820.628	0.0162286
820.706	0.0163584
820.784	0.0162737
820.862	0.0163619
820.940	0.0161976
821.018	0.0162805
821.096	0.0163358
821.174	0.0162801
821.253	0.0164097
821.331	0.0163084
821.409	0.0164421
821.487	0.0163261
821.565	0.0163675
821.643	0.0163958
821.721	0.0163739
821.799	0.0163954
821.878	0.0164115
821.956	0.0165520
822.034	0.0164823
822.112	0.0165399
822.190	0.0164258
822.268	0.0165661
822.346	0.0165749
822.424	0.0166351
822.503	0.0166509
822.581	0.0166418
822.659	0.0165530
822.737	0.0165900
822.815	0.0166969
822.893	0.0165620
822.971	0.0166272
823.049	0.0165829
823.128	0.0167836
823.206	0.0165276
823.284	0.0166759
823.362	0.0167329
823.440	0.0167229
823.518	0.0167667
823.596	0.0166255
823.674	0.0166469
823.753	0.0166595
823.831	0.0165189
823.909	0.0166535
823.987	0.0165630
824.065	0.0164731
824.143	0.0163714
824.221	0.0164336
824.299	0.0164011
824.378	0.0163567
824.456	0.0163339
824.534	0.0163335
824.612	0.0164111
824.690	0.0163451
824.768	0.0164071
824.846	0.0162731
824.924	0.0164134
825.003	0.0164059
825.081	0.0166066
825.159	0.0164987
825.237	0.0164642
825.315	0.0164616
825.393	0.0163782
825.471	0.0165584
825.549	0.0165760
825.628	0.0164884
825.706	0.0164568
825.784	0.0163902
825.862	0.0164964
825.940	0.0165289
826.018	0.0165298
826.096	0.0165122
826.174	0.0166032
826.253	0.0166494
826.331	0.0165861
826.409	0.0166154
826.487	0.0166905
826.565	0.0166190
826.643	0.0164114
826.721	0.0162829
826.799	0.0165108
826.878	0.0166846
826.956	0.0166901
827.034	0.0166250
827.112	0.0166814
827.190	0.0164629
827.268	0.0163326
827.346	0.0163941
827.424	0.0163692
827.503	0.0164507
827.581	0.0164690
827.659	0.0163964
827.737	0.0162920
827.815	0.0163200
827.893	0.0162587
827.971	0.0162193
828.049	0.0163190
828.128	0.0161832
828.206	0.0160729
828.284	0.0161671
828.362	0.0161649
828.440	0.0162859
828.518	0.0161491
828.596	0.0161327
828.674	0.0162728
828.753	0.0162494
828.831	0.0163171
828.909	0.0162814
828.987	0.0162141
829.065	0.0162733
829.143	0.0164465
829.221	0.0163155
829.299	0.0164441
829.378	0.0164306
829.456	0.0164732
829.534	0.0164931
829.612	0.0164621
829.690	0.0165562
829.768	0.0165217
829.846	0.0165840
829.924	0.0166275
830.003	0.0165701
830.081	0.0165269
830.159	0.0165102
830.237	0.0165331
830.315	0.0164886
830.393	0.0166481
830.471	0.0164754
830.549	0.0165002
830.628	0.0165592
830.706	0.0165004
830.784	0.0164292
830.862	0.0165497
830.940	0.0164160
831.018	0.0164919
831.096	0.0164986
831.174	0.0163996
831.253	0.0164844
831.331	0.0164125
831.409	0.0163453
831.487	0.0165588
831.565	0.0163809
831.643	0.0164549
831.721	0.0164632
831.799	0.0164872
831.878	0.0166147
831.956	0.0163799
832.034	0.0164193
832.112	0.0164148
832.190	0.0163840
832.268	0.0164419
832.346	0.0162830
832.424	0.0164112
832.503	0.0162524
832.581	0.0163803
832.659	0.0164259
832.737	0.0164380
832.815	0.0163202
832.893	0.0162730
832.971	0.0163470
833.049	0.0163425
833.128	0.0164687
833.206	0.0163437
833.284	0.0163914
833.362	0.0164219
833.440	0.0164158
833.518	0.0163573
833.596	0.0164538
833.674	0.0163733
833.753	0.0162674
833.831	0.0163922
833.909	0.0163362
833.987	0.0164507
834.065	0.0162251
834.143	0.0162889
834.221	0.0163336
834.299	0.0162665
834.378	0.0163006
834.456	0.0163088
834.534	0.0161775
834.612	0.0162389
834.690	0.0163015
834.768	0.0162573
834.846	0.0161671
834.924	0.0161068
835.003	0.0161501
835.081	0.0163008
835.159	0.0161976
835.237	0.0162116
835.315	0.0161397
835.393	0.0161841
835.471	0.0162144
835.549	0.0162040
835.628	0.0162630
835.706	0.0161987
835.784	0.0163357
835.862	0.0163083
835.940	0.0163174
836.018	0.0164066
836.096	0.0164106
836.174	0.0163844
836.253	0.0163374
836.331	0.0164436
836.409	0.0162990
836.487	0.0163409
836.565	0.0164258
836.643	0.0163652
836.721	0.0163911
836.799	0.0165768
836.878	0.0165779
836.956	0.0164986
837.034	0.0164956
837.112	0.0165124
837.190	0.0165282
837.268	0.0165573
837.346	0.0165736
837.424	0.0166696
837.503	0.0166009
837.581	0.0166318
837.659	0.0165504
837.737	0.0164908
837.815	0.0165252
837.893	0.0165108
837.971	0.0165853
838.049	0.0165054
838.128	0.0164362
838.206	0.0163675
838.284	0.0164130
838.362	0.0165279
838.440	0.0165077
838.518	0.0164105
838.596	0.0162861
838.674	0.0163483
838.753	0.0164272
838.831	0.0161520
838.909	0.0162211
838.987	0.0162651
839.065	0.0161398
839.143	0.0159988
839.221	0.0161234
839.299	0.0161351
839.378	0.0160222
839.456	0.0159588
839.534	0.0160535
839.612	0.0161182
839.690	0.0159531
839.768	0.0160060
839.846	0.0162054
839.924	0.0161065
840.003	0.0161121
840.081	0.0159943
840.159	0.0162037
840.237	0.0161388
840.315	0.0163091
840.393	0.0163406
840.471	0.0161468
840.549	0.0162046
840.628	0.0163827
840.706	0.0163905
840.784	0.0164156
840.862	0.0163198
840.940	0.0164262
841.018	0.0163965
841.096	0.0164754
841.174	0.0164960
841.253	0.0164835
841.331	0.0165450
841.409	0.0165405
841.487	0.0164870
841.565	0.0166643
841.643	0.0166657
841.721	0.0166111
841.799	0.0165709
841.878	0.0165665
841.956	0.0164733
842.034	0.0167499
842.112	0.0166227
842.190	0.0164884
842.268	0.0164307
842.346	0.0165810
842.424	0.0165243
842.503	0.0164866
842.581	0.0165281
842.659	0.0166648
842.737	0.0163720
842.815	0.0164632
842.893	0.0164581
842.971	0.0164883
843.049	0.0164679
843.128	0.0164273
843.206	0.0165176
843.284	0.0164556
843.362	0.0164098
843.440	0.0163182
843.518	0.0164963
843.596	0.0165147
843.674	0.0164641
843.753	0.0164266
843.831	0.0165668
843.909	0.0166120
843.987	0.0166924
844.065	0.0166093
844.143	0.0165401
844.221	0.0164491
844.299	0.0166301
844.378	0.0165108
844.456	0.0165273
844.534	0.0164931
844.612	0.0163829
844.690	0.0165087
844.768	0.0165707
844.846	0.0164981
844.924	0.0164153
845.003	0.0163871
845.081	0.0164456
845.159	0.0164513
845.237	0.0164214
845.315	0.0164661
845.393	0.0165684
845.471	0.0164664
845.549	0.0164205
845.628	0.0165245
845.706	0.0163650
845.784	0.0165579
845.862	0.0166857
845.940	0.0165762
846.018	0.0164789
846.096	0.0165723
846.174	0.0165723
846.253	0.0166964
846.331	0.0166138
846.409	0.0165448
846.487	0.0167341
846.565	0.0167684
846.643	0.0167209
846.721	0.0165248
846.799	0.0165457
846.878	0.0166275
846.956	0.0166581
847.034	0.0166460
847.112	0.0166288
847.190	0.0168691
847.268	0.0167052
847.346	0.0166079
847.424	0.0166081
847.503	0.0166702
847.581	0.0167717
847.659	0.0167016
847.737	0.0166673
847.815	0.0167149
847.893	0.0166233
847.971	0.0165611
848.049	0.0164746
848.128	0.0166006
848.206	0.0165738
848.284	0.0165575
848.362	0.0165675
848.440	0.0165035
848.518	0.0163760
848.596	0.0164080
848.674	0.0165076
848.753	0.0164437
848.831	0.0164319
848.909	0.0163123
848.987	0.0164735
849.065	0.0163968
849.143	0.0163662
849.221	0.0163787
849.299	0.0163064
849.378	0.0163881
849.456	0.0163845
849.534	0.0163200
849.612	0.0164682
849.690	0.0162690
849.768	0.0164172
849.846	0.0163919
849.924	0.0165057
850.003	0.0164184
850.081	0.0163758
850.159	0.0164491
850.237	0.0164503
850.315	0.0164947
850.393	0.0165680
850.471	0.0164743
850.549	0.0165640
850.628	0.0165824
850.706	0.0164387
850.784	0.0163239
850.862	0.0165237
850.940	0.0165425
851.018	0.0163627
851.096	0.0164758
851.174	0.0164231
851.253	0.0164358
851.331	0.0163174
851.409	0.0164381
851.487	0.0163615
851.565	0.0164720
851.643	0.0165172
851.721	0.0163329
851.799	0.0165022
851.878	0.0165130
851.956	0.0164034
852.034	0.0165439
852.112	0.0164641
852.190	0.0164738
852.268	0.0165041
852.346	0.0163708
852.424	0.0163692
852.503	0.0164909
852.581	0.0166749
852.659	0.0164816
852.737	0.0164632
852.815	0.0164754
852.893	0.0165233
852.971	0.0165350
853.049	0.0164928
853.128	0.0165045
853.206	0.0164981
853.284	0.0162970
853.362	0.0164716
853.440	0.0165417
853.518	0.0165618
853.596	0.0163484
853.674	0.0163972
853.753	0.0165986
853.831	0.0163435
853.909	0.0162482
853.987	0.0164320
854.065	0.0163884
854.143	0.0163810
854.221	0.0165206
854.299	0.0163081
854.378	0.0164643
854.456	0.0163772
854.534	0.0163245
854.612	0.0164683
854.690	0.0163000
854.768	0.0162853
854.846	0.0163033
854.924	0.0163696
855.003	0.0164240
855.081	0.0162919
855.159	0.0162419
855.237	0.0164243
855.315	0.0162733
855.393	0.0163028
855.471	0.0164001
855.549	0.0163118
855.628	0.0162893
855.706	0.0162508
855.784	0.0162813
855.862	0.0162580
855.940	0.0162827
856.018	0.0163339
856.096	0.0163103
856.174	0.0162011
856.253	0.0162769
856.331	0.0163139
856.409	0.0162717
856.487	0.0162890
856.565	0.0163132
856.643	0.0162499
856.721	0.0163882
856.799	0.0164203
856.878	0.0164960
856.956	0.0163752
857.034	0.0163956
857.112	0.0164693
857.190	0.0164147
857.268	0.0163272
857.346	0.0163689
857.424	0.0164056
857.503	0.0163868
857.581	0.0164105
857.659	0.0164739
857.737	0.0162429
857.815	0.0163773
857.893	0.0164362
857.971	0.0163953
858.049	0.0165474
858.128	0.0165546
858.206	0.0165721
858.284	0.0164231
858.362	0.0164860
858.440	0.0164401
858.518	0.0164613
858.596	0.0164096
858.674	0.0165063
858.753	0.0165148
858.831	0.0164884
858.909	0.0165074
858.987	0.0165374
859.065	0.0164790
859.143	0.0165034
859.221	0.0164263
859.299	0.0163503
859.378	0.0164173
859.456	0.0164194
859.534	0.0163487
859.612	0.0163547
859.690	0.0163455
859.768	0.0163396
859.846	0.0163637
859.924	0.0163589
860.003	0.0163512
860.081	0.0161971
860.159	0.0162389
860.237	0.0162347
860.315	0.0164011
860.393	0.0163891
860.471	0.0162578
860.549	0.0163586
860.628	0.0163483
860.706	0.0163660
860.784	0.0163461
860.862	0.0162878
860.940	0.0162700
861.018	0.0163181
861.096	0.0164725
861.174	0.0163087
861.253	0.0162997
861.331	0.0163137
861.409	0.0162742
861.487	0.0163971
861.565	0.0163887
861.643	0.0163010
861.721	0.0163909
861.799	0.0164615
861.878	0.0163427
861.956	0.0163992
862.034	0.0164777
862.112	0.0164424
862.190	0.0162577
862.268	0.0163457
862.346	0.0164651
862.424	0.0164317
862.503	0.0163525
862.581	0.0162766
862.659	0.0163965
862.737	0.0164261
862.815	0.0164404
862.893	0.0165620
862.971	0.0163898
863.049	0.0163541
863.128	0.0163776
863.206	0.0163744
863.284	0.0164892
863.362	0.0165639
863.440	0.0163077
863.518	0.0165051
863.596	0.0165656
863.674	0.0164608
863.753	0.0163220
863.831	0.0164910
863.909	0.0165723
863.987	0.0164571
864.065	0.0165525
864.143	0.0165675
864.221	0.0164806
864.299	0.0165492
864.378	0.0165968
864.456	0.0164659
864.534	0.0165820
864.612	0.0165938
864.690	0.0166131
864.768	0.0165709
864.846	0.0166736
864.924	0.0164596
865.003	0.0163748
865.081	0.0164558
865.159	0.0165779
865.237	0.0164839
865.315	0.0164993
865.393	0.0164938
865.471	0.0165549
865.549	0.0164976
865.628	0.0163203
865.706	0.0164541
865.784	0.0164531
865.862	0.0163074
865.940	0.0163858
866.018	0.0164919
866.096	0.0164616
866.174	0.0162428
866.253	0.0164208
866.331	0.0164976
866.409	0.0163666
866.487	0.0163802
866.565	0.0163451
866.643	0.0163414
866.721	0.0164688
866.799	0.0164508
866.878	0.0164123
866.956	0.0165325
867.034	0.0163853
867.112	0.0165269
867.190	0.0165846
867.268	0.0165388
867.346	0.0164587
867.424	0.0164742
867.503	0.0164607
867.581	0.0164832
867.659	0.0164004
867.737	0.0166618
867.815	0.0165034
867.893	0.0164169
867.971	0.0165894
868.049	0.0164522
868.128	0.0164516
868.206	0.0165860
868.284	0.0164993
868.362	0.0163870
868.440	0.0165045
868.518	0.0163879
868.596	0.0165824
868.674	0.0164595
868.753	0.0163927
868.831	0.0164323
868.909	0.0162993
868.987	0.0164898
869.065	0.0164907
869.143	0.0163697
869.221	0.0164492
869.299	0.0165593
869.378	0.0164571
869.456	0.0164668
869.534	0.0163936
869.612	0.0163998
869.690	0.0166024
869.768	0.0165350
869.846	0.0163609
869.924	0.0164064
870.003	0.0165952
870.081	0.0165745
870.159	0.0165885
870.237	0.0166127
870.315	0.0164833
870.393	0.0165415
870.471	0.0165044
870.549	0.0165154
870.628	0.0164828
870.706	0.0163686
870.784	0.0164368
870.862	0.0165192
870.940	0.0164726
871.018	0.0164407
871.096	0.0164793
871.174	0.0164088
871.253	0.0163982
871.331	0.0164764
871.409	0.0164666
871.487	0.0164156
871.565	0.0164482
871.643	0.0165062
871.721	0.0164384
871.799	0.0164768
871.878	0.0164803
871.956	0.0163988
872.034	0.0164244
872.112	0.0165185
872.190	0.0163682
872.268	0.0163248
872.346	0.0164156
872.424	0.0163378
872.503	0.0163617
872.581	0.0164899
872.659	0.0164404
872.737	0.0163991
872.815	0.0162800
872.893	0.0162618
872.971	0.0164229
873.049	0.0164266
873.128	0.0162077
873.206	0.0162048
873.284	0.0163422
873.362	0.0163908
873.440	0.0164005
873.518	0.0163248
873.596	0.0163519
873.674	0.0162500
873.753	0.0162678
873.831	0.0162527
873.909	0.0163559
873.987	0.0162917
874.065	0.0163532
874.143	0.0162917
874.221	0.0162563
874.299	0.0164104
874.378	0.0163635
874.456	0.0163729
874.534	0.0165012
874.612	0.0163337
874.690	0.0163351
874.768	0.0164474
874.846	0.0163593
874.924	0.0162746
875.003	0.0163348
875.081	0.0165141
875.159	0.0163583
875.237	0.0163791
875.315	0.0164891
875.393	0.0164225
875.471	0.0163456
875.549	0.0162861
875.628	0.0163977
875.706	0.0163744
875.784	0.0164912
875.862	0.0165281
875.940	0.0164733
876.018	0.0164043
876.096	0.0163696
876.174	0.0164860
876.253	0.0163202
876.331	0.0164551
876.409	0.0165205
876.487	0.0165104
876.565	0.0165599
876.643	0.0165337
876.721	0.0163743
876.799	0.0164759
876.878	0.0164574
876.956	0.0165314
877.034	0.0165619
877.112	0.0164997
877.190	0.0163116
877.268	0.0163596
877.346	0.0165720
877.424	0.0163756
877.503	0.0164127
877.581	0.0164317
877.659	0.0164217
877.737	0.0163795
877.815	0.0162289
877.893	0.0163530
877.971	0.0162666
878.049	0.0163470
878.128	0.0164124
878.206	0.0163220
878.284	0.0162490
878.362	0.0163859
878.440	0.0163445
878.518	0.0164166
878.596	0.0164896
878.674	0.0164603
878.753	0.0163725
878.831	0.0164169
878.909	0.0164350
878.987	0.0164938
879.065	0.0165192
879.143	0.0164243
879.221	0.0162675
879.299	0.0164290
879.378	0.0165797
879.456	0.0165722
879.534	0.0165246
879.612	0.0163380
879.690	0.0164038
879.768	0.0164450
879.846	0.0162902
879.924	0.0163131
880.003	0.0163407
880.081	0.0164608
880.159	0.0163801
880.237	0.0163857
880.315	0.0163335
880.393	0.0163735
880.471	0.0163827
880.549	0.0163606
880.628	0.0163532
880.706	0.0162659
880.784	0.0163200
880.862	0.0163521
880.940	0.0162499
881.018	0.0163418
881.096	0.0163182
881.174	0.0162743
881.253	0.0162432
881.331	0.0163158
881.409	0.0163705
881.487	0.0164455
881.565	0.0163623
881.643	0.0165303
881.721	0.0162592
881.799	0.0164753
881.878	0.0163902
881.956	0.0162962
882.034	0.0163213
882.112	0.0164754
882.190	0.0164742
882.268	0.0164075
882.346	0.0164419
882.424	0.0164054
882.503	0.0165795
882.581	0.0165360
882.659	0.0164526
882.737	0.0164874
882.815	0.0164712
882.893	0.0164857
882.971	0.0163653
883.049	0.0165530
883.128	0.0165533
883.206	0.0167104
883.284	0.0167033
883.362	0.0165791
883.440	0.0165611
883.518	0.0165921
883.596	0.0164912
883.674	0.0166337
883.753	0.0166357
883.831	0.0166515
883.909	0.0164716
883.987	0.0164936
884.065	0.0166590
884.143	0.0165276
884.221	0.0165416
884.299	0.0164598
884.378	0.0165985
884.456	0.0164719
884.534	0.0164436
884.612	0.0164124
884.690	0.0163726
884.768	0.0164710
884.846	0.0165296
884.924	0.0164859
885.003	0.0164528
885.081	0.0164206
885.159	0.0163652
885.237	0.0163259
885.315	0.0164049
885.393	0.0165032
885.471	0.0166208
885.549	0.0164369
885.628	0.0164066
885.706	0.0164515
885.784	0.0166031
885.862	0.0166255
885.940	0.0165319
886.018	0.0165080
886.096	0.0165977
886.174	0.0165461
886.253	0.0164467
886.331	0.0164042
886.409	0.0165747
886.487	0.0166589
886.565	0.0167514
886.643	0.0166804
886.721	0.0166624
886.799	0.0165575
886.878	0.0166826
886.956	0.0166586
887.034	0.0165879
887.112	0.0165084
887.190	0.0165771
887.268	0.0166555
887.346	0.0167308
887.424	0.0165334
887.503	0.0165379
887.581	0.0166226
887.659	0.0166650
887.737	0.0167242
887.815	0.0166663
887.893	0.0166757
887.971	0.0165701
888.049	0.0166619
888.128	0.0166398
888.206	0.0165206
888.284	0.0166361
888.362	0.0166238
888.440	0.0165252
888.518	0.0164864
888.596	0.0166385
888.674	0.0166476
888.753	0.0165440
888.831	0.0165195
888.909	0.0164834
888.987	0.0164826
889.065	0.0165174
889.143	0.0165284
889.221	0.0164816
889.299	0.0164988
889.378	0.0164835
889.456	0.0165142
889.534	0.0165844
889.612	0.0164733
889.690	0.0165561
889.768	0.0166101
889.846	0.0165699
889.924	0.0164721
890.003	0.0165128
890.081	0.0164966
890.159	0.0163680
890.237	0.0164961
890.315	0.0164576
890.393	0.0165862
890.471	0.0166193
890.549	0.0165617
890.628	0.0165195
890.706	0.0164448
890.784	0.0164237
890.862	0.0163744
890.940	0.0164294
891.018	0.0164666
891.096	0.0164643
891.174	0.0163754
891.253	0.0164016
891.331	0.0165043
891.409	0.0165269
891.487	0.0166702
891.565	0.0165588
891.643	0.0165211
891.721	0.0166026
891.799	0.0164877
891.878	0.0165179
891.956	0.0164948
892.034	0.0164462
892.112	0.0165482
892.190	0.0166203
892.268	0.0166035
892.346	0.0165469
892.424	0.0166299
892.503	0.0164957
892.581	0.0165153
892.659	0.0166747
892.737	0.0165840
892.815	0.0165656
892.893	0.0166187
892.971	0.0165294
893.049	0.0163483
893.128	0.0166203
893.206	0.0165927
893.284	0.0164175
893.362	0.0166431
893.440	0.0165085
893.518	0.0164823
893.596	0.0164613
893.674	0.0165270
893.753	0.0165025
893.831	0.0166174
893.909	0.0165160
893.987	0.0165240
894.065	0.0166006
894.143	0.0166099
894.221	0.0167514
894.299	0.0165096
894.378	0.0166293
894.456	0.0167125
894.534	0.0166422
894.612	0.0166901
894.690	0.0166975
894.768	0.0166718
894.846	0.0166166
894.924	0.0166513
895.003	0.0165768
895.081	0.0165415
895.159	0.0165739
895.237	0.0165503
895.315	0.0165405
895.393	0.0166310
895.471	0.0166497
895.549	0.0165712
895.628	0.0165883
895.706	0.0166504
895.784	0.0165597
895.862	0.0167463
895.940	0.0165611
896.018	0.0166468
896.096	0.0166101
896.174	0.0166618
896.253	0.0167027
896.331	0.0166915
896.409	0.0165572
896.487	0.0164689
896.565	0.0165090
896.643	0.0165848
896.721	0.0166284
896.799	0.0165090
896.878	0.0163789
896.956	0.0165279
897.034	0.0164861
897.112	0.0163931
897.190	0.0163469
897.268	0.0164546
897.346	0.0163993
897.424	0.0163711
897.503	0.0162999
897.581	0.0163639
897.659	0.0163902
897.737	0.0163370
897.815	0.0162247
897.893	0.0162222
897.971	0.0163330
898.049	0.0164098
898.128	0.0161338
898.206	0.0162502
898.284	0.0163712
898.362	0.0162699
898.440	0.0163055
898.518	0.0161340
898.596	0.0162233
898.674	0.0162485
898.753	0.0162250
898.831	0.0161071
898.909	0.0162186
898.987	0.0163300
899.065	0.0161478
899.143	0.0161006
899.221	0.0162374
899.299	0.0163098
899.378	0.0163065
899.456	0.0163104
899.534	0.0163015
899.612	0.0162351
899.690	0.0161907
899.768	0.0162372
899.846	0.0162889
899.924	0.0161617
900.003	0.0161608
900.081	0.0161578
900.159	0.0164819
900.237	0.0163046
900.315	0.0163181
900.393	0.0163678
900.471	0.0162628
900.549	0.0162416
900.628	0.0163773
900.706	0.0163152
900.784	0.0163844
900.862	0.0162991
900.940	0.0162333
901.018	0.0162481
901.096	0.0161525
901.174	0.0163805
901.253	0.0162235
901.331	0.0163248
901.409	0.0162542
901.487	0.0161283
901.565	0.0162236
901.643	0.0161047
901.721	0.0162289
901.799	0.0161605
901.878	0.0161242
901.956	0.0160719
902.034	0.0162199
902.112	0.0162207
902.190	0.0163379
902.268	0.0162640
902.346	0.0160699
902.424	0.0162829
902.503	0.0162910
902.581	0.0163589
902.659	0.0162740
902.737	0.0162202
902.815	0.0163398
902.893	0.0164285
902.971	0.0164172
903.049	0.0163937
903.128	0.0163982
903.206	0.0165613
903.284	0.0166397
903.362	0.0165240
903.440	0.0164418
903.518	0.0164061
903.596	0.0164803
903.674	0.0165110
903.753	0.0164415
903.831	0.0164707
903.909	0.0164975
903.987	0.0163523
904.065	0.0164855
904.143	0.0164483
904.221	0.0164473
904.299	0.0164362
904.378	0.0164461
904.456	0.0164230
904.534	0.0163622
904.612	0.0164135
904.690	0.0163137
904.768	0.0166445
904.846	0.0164437
904.924	0.0163900
905.003	0.0164766
905.081	0.0164960
905.159	0.0165340
905.237	0.0165821
905.315	0.0164913
905.393	0.0164642
905.471	0.0165388
905.549	0.0165314
905.628	0.0165379
905.706	0.0164511
905.784	0.0164487
905.862	0.0165470
905.940	0.0165884
906.018	0.0164912
906.096	0.0165636
906.174	0.0165869
906.253	0.0164717
906.331	0.0165028
906.409	0.0165711
906.487	0.0165939
906.565	0.0165376
906.643	0.0165465
906.721	0.0164095
906.799	0.0166357
906.878	0.0166240
906.956	0.0165457
907.034	0.0164603
907.112	0.0165431
907.190	0.0165421
907.268	0.0164785
907.346	0.0165073
907.424	0.0166075
907.503	0.0164539
907.581	0.0165099
907.659	0.0165549
907.737	0.0164478
907.815	0.0164671
907.893	0.0165377
907.971	0.0165300
908.049	0.0164389
908.128	0.0165063
908.206	0.0166212
908.284	0.0165584
908.362	0.0165356
908.440	0.0165426
908.518	0.0165253
908.596	0.0164111
908.674	0.0164117
908.753	0.0164490
908.831	0.0165788
908.909	0.0165616
908.987	0.0165469
909.065	0.0167628
909.143	0.0166402
909.221	0.0165602
909.299	0.0165969
909.378	0.0166177
909.456	0.0166247
909.534	0.0166720
909.612	0.0165261
909.690	0.0166594
909.768	0.0165664
909.846	0.0166679
909.924	0.0166234
910.003	0.0166354
910.081	0.0166196
910.159	0.0165823
910.237	0.0165395
910.315	0.0165880
910.393	0.0165601
910.471	0.0165669
910.549	0.0165581
910.628	0.0165282
910.706	0.0166021
910.784	0.0167175
910.862	0.0165101
910.940	0.0165199
911.018	0.0165148
911.096	0.0165083
911.174	0.0164498
911.253	0.0165572
911.331	0.0163902
911.409	0.0164225
911.487	0.0165755
911.565	0.0165743
911.643	0.0164589
911.721	0.0164378
911.799	0.0165315
911.878	0.0164217
911.956	0.0163835
912.034	0.0164554
912.112	0.0166475
912.190	0.0165047
912.268	0.0165872
912.346	0.0165649
912.424	0.0163809
912.503	0.0164024
912.581	0.0165289
912.659	0.0165957
912.737	0.0166399
912.815	0.0167228
912.893	0.0166577
912.971	0.0166314
913.049	0.0165993
913.128	0.0166071
913.206	0.0167621
913.284	0.0166499
913.362	0.0165976
913.440	0.0167165
913.518	0.0167785
913.596	0.0167119
913.674	0.0167773
913.753	0.0165680
913.831	0.0167184
913.909	0.0167932
913.987	0.0167313
914.065	0.0166885
914.143	0.0166786
914.221	0.0167635
914.299	0.0167629
914.378	0.0166651
914.456	0.0166704
914.534	0.0166482
914.612	0.0166984
914.690	0.0167370
914.768	0.0167069
914.846	0.0167235
914.924	0.0165275
915.003	0.0167837
915.081	0.0168747
915.159	0.0166388
915.237	0.0165931
915.315	0.0167637
915.393	0.0165529
915.471	0.0168057
915.549	0.0166827
915.628	0.0166166
915.706	0.0166142
915.784	0.0164536
915.862	0.0167235
915.940	0.0166698
916.018	0.0165127
916.096	0.0166357
916.174	0.0167016
916.253	0.0165534
916.331	0.0166616
916.409	0.0166586
916.487	0.0165970
916.565	0.0165849
916.643	0.0165765
916.721	0.0166000
916.799	0.0167722
916.878	0.0167669
916.956	0.0166374
917.034	0.0165915
917.112	0.0167946
917.190	0.0166238
917.268	0.0165373
917.346	0.0166850
917.424	0.0167923
917.503	0.0166660
917.581	0.0167170
917.659	0.0167974
917.737	0.0167744
917.815	0.0166861
917.893	0.0165842
917.971	0.0166050
918.049	0.0166788
918.128	0.0165993
918.206	0.0165359
918.284	0.0165729
918.362	0.0164806
918.440	0.0164726
918.518	0.0166002
918.596	0.0165683
918.674	0.0165498
918.753	0.0165762
918.831	0.0165774
918.909	0.0166342
918.987	0.0164940
919.065	0.0164264
919.143	0.0164658
919.221	0.0164394
919.299	0.0163573
919.378	0.0164888
919.456	0.0164098
919.534	0.0164610
919.612	0.0164170
919.690	0.0164575
919.768	0.0164790
919.846	0.0164113
919.924	0.0165176
920.003	0.0165517
920.081	0.0164211
920.159	0.0163708
920.237	0.0165211
920.315	0.0163756
920.393	0.0163968
920.471	0.0165616
920.549	0.0164270
920.628	0.0163924
920.706	0.0164754
920.784	0.0164101
920.862	0.0163654
920.940	0.0164620
921.018	0.0164378
921.096	0.0163404
921.174	0.0163441
921.253	0.0163430
921.331	0.0163171
921.409	0.0164480
921.487	0.0164356
921.565	0.0163505
921.643	0.0163277
921.721	0.0162974
921.799	0.0161597
921.878	0.0161446
921.956	0.0162505
922.034	0.0163048
922.112	0.0161909
922.190	0.0162257
922.268	0.0160541
922.346	0.0162061
922.424	0.0162102
922.503	0.0160920
922.581	0.0161028
922.659	0.0160011
922.737	0.0161780
922.815	0.0161604
922.893	0.0161195
922.971	0.0162645
923.049	0.0162052
923.128	0.0160010
923.206	0.0161771
923.284	0.0159799
923.362	0.0161156
923.440	0.0161144
923.518	0.0159344
923.596	0.0161948
923.674	0.0162282
923.753	0.0161853
923.831	0.0162098
923.909	0.0162192
923.987	0.0162209
924.065	0.0163419
924.143	0.0162667
924.221	0.0162482
924.299	0.0162319
924.378	0.0163519
924.456	0.0163180
924.534	0.0164019
924.612	0.0163357
924.690	0.0163051
924.768	0.0163793
924.846	0.0163607
924.924	0.0163825
925.003	0.0162701
925.081	0.0163129
925.159	0.0163186
925.237	0.0162629
925.315	0.0163706
925.393	0.0163441
925.471	0.0163356
925.549	0.0162191
925.628	0.0163160
925.706	0.0162008
925.784	0.0161927
925.862	0.0163381
925.940	0.0161206
926.018	0.0162076
926.096	0.0162714
926.174	0.0163560
926.253	0.0162948
926.331	0.0163367
926.409	0.0163251
926.487	0.0164233
926.565	0.0164522
926.643	0.0163747
926.721	0.0163211
926.799	0.0162861
926.878	0.0164207
926.956	0.0165433
927.034	0.0164503
927.112	0.0164746
927.190	0.0164830
927.268	0.0164851
927.346	0.0164776
927.424	0.0164925
927.503	0.0165656
927.581	0.0166348
927.659	0.0165096
927.737	0.0165828
927.815	0.0165398
927.893	0.0166304
927.971	0.0164207
928.049	0.0166747
928.128	0.0165559
928.206	0.0164747
928.284	0.0164934
928.362	0.0165242
928.440	0.0165266
928.518	0.0166071
928.596	0.0165502
928.674	0.0164686
928.753	0.0165084
928.831	0.0164408
928.909	0.0164192
928.987	0.0164572
929.065	0.0163745
929.143	0.0164476
929.221	0.0164417
929.299	0.0165325
929.378	0.0164189
929.456	0.0163769
929.534	0.0164086
929.612	0.0164446
929.690	0.0164271
929.768	0.0165530
929.846	0.0164423
929.924	0.0164302
930.003	0.0164311
930.081	0.0165090
930.159	0.0164517
930.237	0.0164139
930.315	0.0166329
930.393	0.0165746
930.471	0.0164131
930.549	0.0164687
930.628	0.0166342
930.706	0.0164883
930.784	0.0165214
930.862	0.0163936
930.940	0.0165355
931.018	0.0165823
931.096	0.0165006
931.174	0.0165221
931.253	0.0166579
931.331	0.0164313
931.409	0.0165047
931.487	0.0166252
931.565	0.0164252
931.643	0.0165430
931.721	0.0165411
931.799	0.0166096
931.878	0.0163940
931.956	0.0164684
932.034	0.0164059
932.112	0.0164703
932.190	0.0164975
932.268	0.0165450
932.346	0.0165189
932.424	0.0164566
932.503	0.0165159
932.581	0.0163593
932.659	0.0163710
932.737	0.0163649
932.815	0.0162380
932.893	0.0164945
932.971	0.0164689
933.049	0.0163641
933.128	0.0162726
933.206	0.0163239
933.284	0.0163356
933.362	0.0164342
933.440	0.0164107
933.518	0.0164415
933.596	0.0162862
933.674	0.0164212
933.753	0.0165898
933.831	0.0164467
933.909	0.0164562
933.987	0.0164831
934.065	0.0163405
934.143	0.0163533
934.221	0.0165298
934.299	0.0165485
934.378	0.0164182
934.456	0.0165313
934.534	0.0165672
934.612	0.0165233
934.690	0.0165427
934.768	0.0165833
934.846	0.0165801
934.924	0.0166651
935.003	0.0166811
935.081	0.0165199
935.159	0.0163799
935.237	0.0164713
935.315	0.0165549
935.393	0.0165458
935.471	0.0164686
935.549	0.0165173
935.628	0.0166378
935.706	0.0165526
935.784	0.0166171
935.862	0.0165424
935.940	0.0165146
936.018	0.0163403
936.096	0.0165147
936.174	0.0164574
936.253	0.0164428
936.331	0.0163888
936.409	0.0164676
936.487	0.0164677
936.565	0.0164059
936.643	0.0163326
936.721	0.0164220
936.799	0.0164138
936.878	0.0164576
936.956	0.0163105
937.034	0.0163616
937.112	0.0164056
937.190	0.0164729
937.268	0.0164484
937.346	0.0163640
937.424	0.0164062
937.503	0.0163283
937.581	0.0164375
937.659	0.0163102
937.737	0.0163424
937.815	0.0164391
937.893	0.0165635
937.971	0.0165732
938.049	0.0164638
938.128	0.0165065
938.206	0.0164442
938.284	0.0164548
938.362	0.0163651
938.440	0.0164438
938.518	0.0164131
938.596	0.0164636
938.674	0.0165385
938.753	0.0165052
938.831	0.0165395
938.909	0.0166328
938.987	0.0165779
939.065	0.0163866
939.143	0.0165462
939.221	0.0166460
939.299	0.0164177
939.378	0.0165253
939.456	0.0165028
939.534	0.0165002
939.612	0.0166214
939.690	0.0163837
939.768	0.0164038
939.846	0.0163882
939.924	0.0165142
940.003	0.0164784
940.081	0.0163835
940.159	0.0164640
940.237	0.0164720
940.315	0.0164802
940.393	0.0163116
940.471	0.0164533
940.549	0.0164464
940.628	0.0163786
940.706	0.0164889
940.784	0.0164849
940.862	0.0165359
940.940	0.0164411
941.018	0.0164239
941.096	0.0164388
941.174	0.0164067
941.253	0.0165905
941.331	0.0164110
941.409	0.0164484
941.487	0.0166132
941.565	0.0164294
941.643	0.0164606
941.721	0.0164697
941.799	0.0164774
941.878	0.0164272
941.956	0.0164372
942.034	0.0163899
942.112	0.0162977
942.190	0.0164766
942.268	0.0163271
942.346	0.0163823
942.424	0.0163441
942.503	0.0163396
942.581	0.0163094
942.659	0.0161728
942.737	0.0161759
942.815	0.0161959
942.893	0.0161772
942.971	0.0163166
943.049	0.0163169
943.128	0.0163135
943.206	0.0162073
943.284	0.0162887
943.362	0.0162872
943.440	0.0163376
943.518	0.0162906
943.596	0.0161333
943.674	0.0163372
943.753	0.0163956
943.831	0.0161372
943.909	0.0162830
943.987	0.0161617
944.065	0.0161496
944.143	0.0162163
944.221	0.0161665
944.299	0.0162271
944.378	0.0162383
944.456	0.0162414
944.534	0.0163036
944.612	0.0162595
944.690	0.0162307
944.768	0.0162661
944.846	0.0163612
944.924	0.0163237
945.003	0.0163637
945.081	0.0162885
945.159	0.0162238
945.237	0.0162895
945.315	0.0163340
945.393	0.0162299
945.471	0.0163522
945.549	0.0161407
945.628	0.0162095
945.706	0.0162532
945.784	0.0162582
945.862	0.0161624
945.940	0.0162488
946.018	0.0163103
946.096	0.0162849
946.174	0.0163657
946.253	0.0161275
946.331	0.0163028
946.409	0.0163400
946.487	0.0161940
946.565	0.0163193
946.643	0.0161919
946.721	0.0161727
946.799	0.0163612
946.878	0.0161806
946.956	0.0162302
947.034	0.0162098
947.112	0.0163863
947.190	0.0163824
947.268	0.0161546
947.346	0.0162356
947.424	0.0164075
947.503	0.0163259
947.581	0.0163154
947.659	0.0163782
947.737	0.0163838
947.815	0.0164087
947.893	0.0163620
947.971	0.0161261
948.049	0.0163159
948.128	0.0164684
948.206	0.0163503
948.284	0.0164919
948.362	0.0163055
948.440	0.0163658
948.518	0.0164436
948.596	0.0163978
948.674	0.0164265
948.753	0.0164430
948.831	0.0163899
948.909	0.0164744
948.987	0.0164423
949.065	0.0163017
949.143	0.0165233
949.221	0.0164561
949.299	0.0164942
949.378	0.0165928
949.456	0.0165674
949.534	0.0165689
949.612	0.0164791
949.690	0.0164428
949.768	0.0166010
949.846	0.0166020
949.924	0.0165249
