06/29/2022	23:20:16	Ver.	4.1	UNKNOWN
Optical Delay	630.002507	Delta X		0.078125	Sweeps	1	Scan Rate	0/0
Coordinates	Axis 1	NaN	Axis 2	NaN	Axis 3	NaN	Axis 4	NaN	Axis 5	NaN	Axis 6	0.000000
TX Power	0.000000	RX Power	0.000000

630.003	0.0156590
630.081	0.0157945
630.159	0.0156449
630.237	0.0155749
630.315	0.0157832
630.393	0.0156522
630.471	0.0156704
630.549	0.0157177
630.628	0.0157424
630.706	0.0157401
630.784	0.0156527
630.862	0.0156534
630.940	0.0156363
631.018	0.0155475
631.096	0.0155362
631.174	0.0156645
631.253	0.0156615
631.331	0.0156079
631.409	0.0158205
631.487	0.0156056
631.565	0.0155978
631.643	0.0156852
631.721	0.0157336
631.799	0.0156261
631.878	0.0154883
631.956	0.0154991
632.034	0.0154874
632.112	0.0157450
632.190	0.0155565
632.268	0.0156667
632.346	0.0156145
632.424	0.0156065
632.503	0.0156558
632.581	0.0156563
632.659	0.0155905
632.737	0.0157516
632.815	0.0156232
632.893	0.0155514
632.971	0.0154791
633.049	0.0155672
633.128	0.0156776
633.206	0.0156596
633.284	0.0155455
633.362	0.0156982
633.440	0.0154823
633.518	0.0156760
633.596	0.0156155
633.674	0.0156512
633.753	0.0156442
633.831	0.0156564
633.909	0.0156628
633.987	0.0157774
634.065	0.0155910
634.143	0.0157341
634.221	0.0156326
634.299	0.0156990
634.378	0.0157838
634.456	0.0155599
634.534	0.0156757
634.612	0.0157205
634.690	0.0157342
634.768	0.0156621
634.846	0.0157147
634.924	0.0156703
635.003	0.0156728
635.081	0.0155752
635.159	0.0156576
635.237	0.0156058
635.315	0.0155504
635.393	0.0157278
635.471	0.0155509
635.549	0.0155701
635.628	0.0154725
635.706	0.0156466
635.784	0.0156002
635.862	0.0155412
635.940	0.0154182
636.018	0.0155553
636.096	0.0156367
636.174	0.0154543
636.253	0.0154923
636.331	0.0155927
636.409	0.0155431
636.487	0.0156323
636.565	0.0154969
636.643	0.0155094
636.721	0.0157603
636.799	0.0155828
636.878	0.0155962
636.956	0.0156419
637.034	0.0156814
637.112	0.0156252
637.190	0.0155419
637.268	0.0155856
637.346	0.0157212
637.424	0.0156153
637.503	0.0155170
637.581	0.0156744
637.659	0.0155328
637.737	0.0155291
637.815	0.0155981
637.893	0.0156126
637.971	0.0155989
638.049	0.0156348
638.128	0.0157121
638.206	0.0156508
638.284	0.0155932
638.362	0.0156737
638.440	0.0156311
638.518	0.0157939
638.596	0.0157565
638.674	0.0156492
638.753	0.0155076
638.831	0.0156986
638.909	0.0156808
638.987	0.0157094
639.065	0.0157324
639.143	0.0156786
639.221	0.0157253
639.299	0.0158086
639.378	0.0156129
639.456	0.0156784
639.534	0.0156593
639.612	0.0156812
639.690	0.0157534
639.768	0.0157455
639.846	0.0157817
639.924	0.0157260
640.003	0.0157491
640.081	0.0156110
640.159	0.0156529
640.237	0.0157939
640.315	0.0157584
640.393	0.0158041
640.471	0.0157735
640.549	0.0156945
640.628	0.0157697
640.706	0.0157349
640.784	0.0157832
640.862	0.0157660
640.940	0.0156177
641.018	0.0156953
641.096	0.0158378
641.174	0.0158341
641.253	0.0157301
641.331	0.0157071
641.409	0.0156997
641.487	0.0156999
641.565	0.0158450
641.643	0.0157913
641.721	0.0156940
641.799	0.0158157
641.878	0.0156696
641.956	0.0157365
642.034	0.0157417
642.112	0.0156524
642.190	0.0157150
642.268	0.0157621
642.346	0.0155969
642.424	0.0156459
642.503	0.0158044
642.581	0.0156979
642.659	0.0157125
642.737	0.0156935
642.815	0.0155586
642.893	0.0156490
642.971	0.0156278
643.049	0.0155721
643.128	0.0157159
643.206	0.0155593
643.284	0.0156155
643.362	0.0156874
643.440	0.0156492
643.518	0.0156062
643.596	0.0156966
643.674	0.0157772
643.753	0.0156284
643.831	0.0156562
643.909	0.0156002
643.987	0.0156926
644.065	0.0155556
644.143	0.0156185
644.221	0.0155360
644.299	0.0156165
644.378	0.0156042
644.456	0.0156483
644.534	0.0155975
644.612	0.0156144
644.690	0.0157625
644.768	0.0155850
644.846	0.0154871
644.924	0.0157126
645.003	0.0155824
645.081	0.0156067
645.159	0.0156772
645.237	0.0156162
645.315	0.0156758
645.393	0.0156363
645.471	0.0157005
645.549	0.0157205
645.628	0.0157603
645.706	0.0156864
645.784	0.0155880
645.862	0.0155487
645.940	0.0155257
646.018	0.0156608
646.096	0.0156772
646.174	0.0155824
646.253	0.0156033
646.331	0.0157629
646.409	0.0157150
646.487	0.0156317
646.565	0.0157388
646.643	0.0156586
646.721	0.0155138
646.799	0.0156172
646.878	0.0155477
646.956	0.0155760
647.034	0.0154609
647.112	0.0155618
647.190	0.0156010
647.268	0.0155956
647.346	0.0154629
647.424	0.0155222
647.503	0.0157641
647.581	0.0154805
647.659	0.0155021
647.737	0.0155141
647.815	0.0156714
647.893	0.0154867
647.971	0.0154850
648.049	0.0155772
648.128	0.0154773
648.206	0.0155016
648.284	0.0154560
648.362	0.0155799
648.440	0.0155503
648.518	0.0155244
648.596	0.0156200
648.674	0.0155776
648.753	0.0154686
648.831	0.0155529
648.909	0.0155096
648.987	0.0155988
649.065	0.0155511
649.143	0.0155349
649.221	0.0156106
649.299	0.0153844
649.378	0.0153525
649.456	0.0155360
649.534	0.0156354
649.612	0.0156654
649.690	0.0156535
649.768	0.0155421
649.846	0.0155850
649.924	0.0155807
650.003	0.0155875
650.081	0.0155110
650.159	0.0156363
650.237	0.0155213
650.315	0.0154836
650.393	0.0156114
650.471	0.0156571
650.549	0.0157004
650.628	0.0157140
650.706	0.0155694
650.784	0.0156818
650.862	0.0156059
650.940	0.0156059
651.018	0.0155895
651.096	0.0157323
651.174	0.0156764
651.253	0.0156275
651.331	0.0157259
651.409	0.0157664
651.487	0.0156556
651.565	0.0156102
651.643	0.0157116
651.721	0.0156330
651.799	0.0157060
651.878	0.0156281
651.956	0.0157616
652.034	0.0157876
652.112	0.0158637
652.190	0.0157543
652.268	0.0158009
652.346	0.0157613
652.424	0.0157732
652.503	0.0155556
652.581	0.0158556
652.659	0.0157704
652.737	0.0157111
652.815	0.0157603
652.893	0.0157447
652.971	0.0156952
653.049	0.0157709
653.128	0.0158045
653.206	0.0157056
653.284	0.0157544
653.362	0.0157935
653.440	0.0158638
653.518	0.0157933
653.596	0.0158765
653.674	0.0158038
653.753	0.0157841
653.831	0.0157501
653.909	0.0157338
653.987	0.0157445
654.065	0.0158633
654.143	0.0159511
654.221	0.0158520
654.299	0.0158801
654.378	0.0157471
654.456	0.0156961
654.534	0.0158146
654.612	0.0157950
654.690	0.0158002
654.768	0.0156807
654.846	0.0158203
654.924	0.0157272
655.003	0.0156438
655.081	0.0157731
655.159	0.0157179
655.237	0.0157064
655.315	0.0157630
655.393	0.0157990
655.471	0.0157176
655.549	0.0156898
655.628	0.0157322
655.706	0.0156127
655.784	0.0156489
655.862	0.0157364
655.940	0.0157475
656.018	0.0156644
656.096	0.0156542
656.174	0.0155865
656.253	0.0157497
656.331	0.0155387
656.409	0.0157265
656.487	0.0156791
656.565	0.0156939
656.643	0.0157339
656.721	0.0156256
656.799	0.0156435
656.878	0.0156857
656.956	0.0157393
657.034	0.0155676
657.112	0.0156702
657.190	0.0157459
657.268	0.0156094
657.346	0.0155196
657.424	0.0156776
657.503	0.0155536
657.581	0.0156320
657.659	0.0155645
657.737	0.0155347
657.815	0.0155629
657.893	0.0156126
657.971	0.0154856
658.049	0.0155186
658.128	0.0155913
658.206	0.0156324
658.284	0.0155360
658.362	0.0155510
658.440	0.0154089
658.518	0.0154825
658.596	0.0155136
658.674	0.0154089
658.753	0.0155270
658.831	0.0154883
658.909	0.0156335
658.987	0.0154626
659.065	0.0155529
659.143	0.0155160
659.221	0.0154573
659.299	0.0153905
659.378	0.0155156
659.456	0.0155051
659.534	0.0155927
659.612	0.0156092
659.690	0.0155605
659.768	0.0156068
659.846	0.0155562
659.924	0.0155387
660.003	0.0155430
660.081	0.0156668
660.159	0.0154390
660.237	0.0157311
660.315	0.0156142
660.393	0.0156036
660.471	0.0155869
660.549	0.0156876
660.628	0.0155212
660.706	0.0156451
660.784	0.0155991
660.862	0.0155328
660.940	0.0155500
661.018	0.0155946
661.096	0.0156294
661.174	0.0156951
661.253	0.0156038
661.331	0.0155965
661.409	0.0157043
661.487	0.0158303
661.565	0.0156231
661.643	0.0155328
661.721	0.0155458
661.799	0.0156300
661.878	0.0155331
661.956	0.0155035
662.034	0.0156098
662.112	0.0156513
662.190	0.0156282
662.268	0.0158046
662.346	0.0157037
662.424	0.0157300
662.503	0.0156800
662.581	0.0157355
662.659	0.0157847
662.737	0.0157355
662.815	0.0157983
662.893	0.0157097
662.971	0.0157376
663.049	0.0156509
663.128	0.0156577
663.206	0.0156038
663.284	0.0156725
663.362	0.0158032
663.440	0.0156638
663.518	0.0157265
663.596	0.0157236
663.674	0.0157744
663.753	0.0157270
663.831	0.0156934
663.909	0.0157281
663.987	0.0157259
664.065	0.0156783
664.143	0.0156805
664.221	0.0157249
664.299	0.0158007
664.378	0.0156761
664.456	0.0156333
664.534	0.0156735
664.612	0.0155780
664.690	0.0156259
664.768	0.0157113
664.846	0.0156884
664.924	0.0155202
665.003	0.0155157
665.081	0.0156051
665.159	0.0155714
665.237	0.0156407
665.315	0.0156196
665.393	0.0156142
665.471	0.0156047
665.549	0.0156489
665.628	0.0154197
665.706	0.0155679
665.784	0.0156657
665.862	0.0155595
665.940	0.0155938
666.018	0.0155025
666.096	0.0156304
666.174	0.0156489
666.253	0.0156495
666.331	0.0156657
666.409	0.0155238
666.487	0.0154921
666.565	0.0155109
666.643	0.0153867
666.721	0.0154482
666.799	0.0155264
666.878	0.0153089
666.956	0.0154792
667.034	0.0156144
667.112	0.0153419
667.190	0.0153492
667.268	0.0154345
667.346	0.0154877
667.424	0.0155029
667.503	0.0154370
667.581	0.0155416
667.659	0.0155674
667.737	0.0155663
667.815	0.0154835
667.893	0.0155142
667.971	0.0155795
668.049	0.0155514
668.128	0.0156803
668.206	0.0155579
668.284	0.0154836
668.362	0.0155824
668.440	0.0155777
668.518	0.0155349
668.596	0.0156094
668.674	0.0154464
668.753	0.0155791
668.831	0.0155209
668.909	0.0155685
668.987	0.0155811
669.065	0.0156217
669.143	0.0156831
669.221	0.0155460
669.299	0.0155697
669.378	0.0154361
669.456	0.0156499
669.534	0.0155248
669.612	0.0154634
669.690	0.0155299
669.768	0.0155376
669.846	0.0154183
669.924	0.0155048
670.003	0.0155256
670.081	0.0154467
670.159	0.0156395
670.237	0.0155644
670.315	0.0155324
670.393	0.0156528
670.471	0.0154890
670.549	0.0155434
670.628	0.0155860
670.706	0.0155254
670.784	0.0157028
670.862	0.0157267
670.940	0.0156017
671.018	0.0154340
671.096	0.0156174
671.174	0.0155765
671.253	0.0156271
671.331	0.0155332
671.409	0.0155667
671.487	0.0155826
671.565	0.0156301
671.643	0.0157433
671.721	0.0156130
671.799	0.0155384
671.878	0.0157706
671.956	0.0157104
672.034	0.0156367
672.112	0.0156814
672.190	0.0155795
672.268	0.0156760
672.346	0.0156202
672.424	0.0154517
672.503	0.0155779
672.581	0.0156535
672.659	0.0158018
672.737	0.0155920
672.815	0.0156052
672.893	0.0156195
672.971	0.0156625
673.049	0.0157676
673.128	0.0157317
673.206	0.0155223
673.284	0.0156288
673.362	0.0156847
673.440	0.0155531
673.518	0.0155297
673.596	0.0155964
673.674	0.0156578
673.753	0.0155907
673.831	0.0156607
673.909	0.0156494
673.987	0.0157520
674.065	0.0155518
674.143	0.0154928
674.221	0.0156116
674.299	0.0157585
674.378	0.0157452
674.456	0.0155688
674.534	0.0155943
674.612	0.0157329
674.690	0.0156039
674.768	0.0155564
674.846	0.0157907
674.924	0.0156351
675.003	0.0157601
675.081	0.0157192
675.159	0.0157023
675.237	0.0155161
675.315	0.0155518
675.393	0.0155903
675.471	0.0156960
675.549	0.0157677
675.628	0.0156706
675.706	0.0158231
675.784	0.0158302
675.862	0.0156213
675.940	0.0155492
676.018	0.0157378
676.096	0.0156873
676.174	0.0156194
676.253	0.0155791
676.331	0.0157141
676.409	0.0157348
676.487	0.0156296
676.565	0.0157236
676.643	0.0156000
676.721	0.0156446
676.799	0.0156008
676.878	0.0157557
676.956	0.0156580
677.034	0.0157219
677.112	0.0157536
677.190	0.0157157
677.268	0.0158028
677.346	0.0157825
677.424	0.0155393
677.503	0.0156866
677.581	0.0156906
677.659	0.0157259
677.737	0.0156108
677.815	0.0156341
677.893	0.0156004
677.971	0.0156731
678.049	0.0157642
678.128	0.0156828
678.206	0.0156752
678.284	0.0155278
678.362	0.0155723
678.440	0.0155730
678.518	0.0156083
678.596	0.0155539
678.674	0.0155930
678.753	0.0156608
678.831	0.0155597
678.909	0.0155066
678.987	0.0155006
679.065	0.0155180
679.143	0.0156276
679.221	0.0154699
679.299	0.0155802
679.378	0.0155180
679.456	0.0155737
679.534	0.0155553
679.612	0.0154926
679.690	0.0155968
679.768	0.0157413
679.846	0.0156951
679.924	0.0155943
680.003	0.0155033
680.081	0.0156753
680.159	0.0155708
680.237	0.0155575
680.315	0.0155779
680.393	0.0156288
680.471	0.0156506
680.549	0.0156209
680.628	0.0156504
680.706	0.0157097
680.784	0.0154852
680.862	0.0155613
680.940	0.0155871
681.018	0.0156582
681.096	0.0156314
681.174	0.0156676
681.253	0.0156569
681.331	0.0156606
681.409	0.0156437
681.487	0.0153998
681.565	0.0155546
681.643	0.0157426
681.721	0.0156403
681.799	0.0156524
681.878	0.0155596
681.956	0.0155666
682.034	0.0155925
682.112	0.0156199
682.190	0.0156805
682.268	0.0155301
682.346	0.0156686
682.424	0.0153722
682.503	0.0156383
682.581	0.0156567
682.659	0.0155075
682.737	0.0155311
682.815	0.0156163
682.893	0.0156013
682.971	0.0156255
683.049	0.0155791
683.128	0.0155526
683.206	0.0155827
683.284	0.0155172
683.362	0.0154174
683.440	0.0155830
683.518	0.0155067
683.596	0.0155321
683.674	0.0155152
683.753	0.0154746
683.831	0.0154175
683.909	0.0154485
683.987	0.0155005
684.065	0.0154835
684.143	0.0155043
684.221	0.0154784
684.299	0.0155952
684.378	0.0155409
684.456	0.0154012
684.534	0.0154406
684.612	0.0154902
684.690	0.0157328
684.768	0.0155267
684.846	0.0154575
684.924	0.0155141
685.003	0.0155459
685.081	0.0154409
685.159	0.0156122
685.237	0.0155267
685.315	0.0156618
685.393	0.0156156
685.471	0.0156365
685.549	0.0154796
685.628	0.0156181
685.706	0.0153708
685.784	0.0154738
685.862	0.0153501
685.940	0.0156033
686.018	0.0155762
686.096	0.0155555
686.174	0.0156315
686.253	0.0156053
686.331	0.0155418
686.409	0.0154597
686.487	0.0154715
686.565	0.0155037
686.643	0.0155852
686.721	0.0155559
686.799	0.0155485
686.878	0.0155003
686.956	0.0155113
687.034	0.0155739
687.112	0.0155921
687.190	0.0154897
687.268	0.0156054
687.346	0.0156153
687.424	0.0155415
687.503	0.0154542
687.581	0.0155699
687.659	0.0156486
687.737	0.0155817
687.815	0.0155629
687.893	0.0155993
687.971	0.0155524
688.049	0.0155038
688.128	0.0155756
688.206	0.0154263
688.284	0.0155151
688.362	0.0154836
688.440	0.0155995
688.518	0.0153910
688.596	0.0155857
688.674	0.0155563
688.753	0.0156058
688.831	0.0157291
688.909	0.0155706
688.987	0.0155543
689.065	0.0155872
689.143	0.0155138
689.221	0.0154791
689.299	0.0156121
689.378	0.0155652
689.456	0.0155039
689.534	0.0156606
689.612	0.0156239
689.690	0.0155815
689.768	0.0156327
689.846	0.0155529
689.924	0.0155264
690.003	0.0155248
690.081	0.0154878
690.159	0.0154494
690.237	0.0156043
690.315	0.0154372
690.393	0.0155029
690.471	0.0154893
690.549	0.0154246
690.628	0.0153855
690.706	0.0155805
690.784	0.0155015
690.862	0.0155859
690.940	0.0156476
691.018	0.0154495
691.096	0.0154961
691.174	0.0154864
691.253	0.0154985
691.331	0.0156826
691.409	0.0157082
691.487	0.0156171
691.565	0.0156780
691.643	0.0155817
691.721	0.0156266
691.799	0.0156660
691.878	0.0155873
691.956	0.0157262
692.034	0.0155808
692.112	0.0155706
692.190	0.0156758
692.268	0.0156746
692.346	0.0157330
692.424	0.0157484
692.503	0.0156675
692.581	0.0155847
692.659	0.0155189
692.737	0.0155997
692.815	0.0157735
692.893	0.0157242
692.971	0.0155135
693.049	0.0155440
693.128	0.0156828
693.206	0.0156039
693.284	0.0156554
693.362	0.0156252
693.440	0.0155830
693.518	0.0157703
693.596	0.0156980
693.674	0.0155805
693.753	0.0156106
693.831	0.0157247
693.909	0.0156857
693.987	0.0156166
694.065	0.0157597
694.143	0.0158238
694.221	0.0158382
694.299	0.0157267
694.378	0.0158074
694.456	0.0157444
694.534	0.0156731
694.612	0.0157003
694.690	0.0156292
694.768	0.0158218
694.846	0.0157791
694.924	0.0156824
695.003	0.0157291
695.081	0.0156992
695.159	0.0156937
695.237	0.0155951
695.315	0.0156712
695.393	0.0155986
695.471	0.0156754
695.549	0.0155273
695.628	0.0157037
695.706	0.0155959
695.784	0.0154722
695.862	0.0156266
695.940	0.0155456
696.018	0.0156796
696.096	0.0156735
696.174	0.0155756
696.253	0.0156823
696.331	0.0156041
696.409	0.0155823
696.487	0.0156295
696.565	0.0158032
696.643	0.0156203
696.721	0.0156153
696.799	0.0156617
696.878	0.0155555
696.956	0.0157405
697.034	0.0155608
697.112	0.0155602
697.190	0.0154951
697.268	0.0156615
697.346	0.0156207
697.424	0.0154231
697.503	0.0155112
697.581	0.0155177
697.659	0.0155621
697.737	0.0154639
697.815	0.0154305
697.893	0.0155749
697.971	0.0154569
698.049	0.0154764
698.128	0.0154861
698.206	0.0154562
698.284	0.0153906
698.362	0.0155445
698.440	0.0154497
698.518	0.0155384
698.596	0.0154869
698.674	0.0155525
698.753	0.0155621
698.831	0.0154823
698.909	0.0155043
698.987	0.0155217
699.065	0.0155005
699.143	0.0156657
699.221	0.0155591
699.299	0.0155083
699.378	0.0156175
699.456	0.0156993
699.534	0.0155444
699.612	0.0155291
699.690	0.0156160
699.768	0.0155403
699.846	0.0156641
699.924	0.0157296
700.003	0.0157755
700.081	0.0155671
700.159	0.0156184
700.237	0.0157561
700.315	0.0156470
700.393	0.0157378
700.471	0.0158167
700.549	0.0156868
700.628	0.0156046
700.706	0.0158178
700.784	0.0159695
700.862	0.0157442
700.940	0.0157848
701.018	0.0158671
701.096	0.0157128
701.174	0.0158440
701.253	0.0158765
701.331	0.0157296
701.409	0.0157734
701.487	0.0158943
701.565	0.0157668
701.643	0.0158575
701.721	0.0158096
701.799	0.0156509
701.878	0.0155743
701.956	0.0157121
702.034	0.0157108
702.112	0.0158129
702.190	0.0157448
702.268	0.0155859
702.346	0.0157375
702.424	0.0157291
702.503	0.0156342
702.581	0.0156858
702.659	0.0156190
702.737	0.0158192
702.815	0.0156679
702.893	0.0158311
702.971	0.0158459
703.049	0.0156657
703.128	0.0156955
703.206	0.0157646
703.284	0.0156419
703.362	0.0157465
703.440	0.0156136
703.518	0.0158142
703.596	0.0157833
703.674	0.0157558
703.753	0.0156547
703.831	0.0157652
703.909	0.0156892
703.987	0.0156418
704.065	0.0156301
704.143	0.0156519
704.221	0.0157655
704.299	0.0157844
704.378	0.0158327
704.456	0.0159431
704.534	0.0157368
704.612	0.0157793
704.690	0.0157994
704.768	0.0158192
704.846	0.0158519
704.924	0.0158809
705.003	0.0160264
705.081	0.0158314
705.159	0.0158368
705.237	0.0157574
705.315	0.0159254
705.393	0.0158321
705.471	0.0156322
705.549	0.0156494
705.628	0.0156100
705.706	0.0157209
705.784	0.0155978
705.862	0.0156789
705.940	0.0157077
706.018	0.0154028
706.096	0.0155841
706.174	0.0157140
706.253	0.0155895
706.331	0.0155386
706.409	0.0154960
706.487	0.0155286
706.565	0.0156059
706.643	0.0156107
706.721	0.0156913
706.799	0.0156126
706.878	0.0155726
706.956	0.0155816
707.034	0.0155503
707.112	0.0155277
707.190	0.0155431
707.268	0.0155482
707.346	0.0154432
707.424	0.0154507
707.503	0.0154192
707.581	0.0155283
707.659	0.0153426
707.737	0.0151823
707.815	0.0154367
707.893	0.0152786
707.971	0.0152479
708.049	0.0153032
708.128	0.0153638
708.206	0.0153302
708.284	0.0154144
708.362	0.0154816
708.440	0.0155659
708.518	0.0155228
708.596	0.0156342
708.674	0.0156561
708.753	0.0156593
708.831	0.0155996
708.909	0.0157140
708.987	0.0156413
709.065	0.0157915
709.143	0.0157606
709.221	0.0158195
709.299	0.0157330
709.378	0.0157300
709.456	0.0157911
709.534	0.0156272
709.612	0.0154520
709.690	0.0155399
709.768	0.0155090
709.846	0.0155231
709.924	0.0155019
710.003	0.0153137
710.081	0.0153334
710.159	0.0153744
710.237	0.0152676
710.315	0.0153483
710.393	0.0152117
710.471	0.0152530
710.549	0.0153159
710.628	0.0152937
710.706	0.0151061
710.784	0.0151776
710.862	0.0153088
710.940	0.0150780
711.018	0.0152273
711.096	0.0153154
711.174	0.0153005
711.253	0.0151373
711.331	0.0153580
711.409	0.0154119
711.487	0.0153654
711.565	0.0153423
711.643	0.0155653
711.721	0.0156105
711.799	0.0154963
711.878	0.0155958
711.956	0.0155798
712.034	0.0157172
712.112	0.0157475
712.190	0.0155882
712.268	0.0157877
712.346	0.0156290
712.424	0.0158695
712.503	0.0158333
712.581	0.0156953
712.659	0.0157619
712.737	0.0157983
712.815	0.0157247
712.893	0.0157977
712.971	0.0157295
713.049	0.0157422
713.128	0.0157847
713.206	0.0156786
713.284	0.0158176
713.362	0.0156130
713.440	0.0155372
713.518	0.0156711
713.596	0.0157323
713.674	0.0155527
713.753	0.0154623
713.831	0.0156122
713.909	0.0154593
713.987	0.0156112
714.065	0.0156090
714.143	0.0155269
714.221	0.0154604
714.299	0.0154646
714.378	0.0155360
714.456	0.0154550
714.534	0.0153999
714.612	0.0154692
714.690	0.0155103
714.768	0.0153756
714.846	0.0153646
714.924	0.0154231
715.003	0.0154639
715.081	0.0154411
715.159	0.0154330
715.237	0.0155428
715.315	0.0157214
715.393	0.0155168
715.471	0.0157778
715.549	0.0158110
715.628	0.0158166
715.706	0.0158768
715.784	0.0156660
715.862	0.0157950
715.940	0.0158097
716.018	0.0157157
716.096	0.0159476
716.174	0.0157672
716.253	0.0158115
716.331	0.0159847
716.409	0.0157276
716.487	0.0157176
716.565	0.0156894
716.643	0.0156978
716.721	0.0156928
716.799	0.0156994
716.878	0.0157272
716.956	0.0155481
717.034	0.0156174
717.112	0.0157040
717.190	0.0155678
717.268	0.0156451
717.346	0.0155659
717.424	0.0154466
717.503	0.0155833
717.581	0.0154989
717.659	0.0154664
717.737	0.0156137
717.815	0.0154839
717.893	0.0154897
717.971	0.0154309
718.049	0.0155174
718.128	0.0154716
718.206	0.0155569
718.284	0.0155554
718.362	0.0156574
718.440	0.0156683
718.518	0.0157089
718.596	0.0157834
718.674	0.0159185
718.753	0.0158953
718.831	0.0159003
718.909	0.0160622
718.987	0.0160817
719.065	0.0160677
719.143	0.0162341
719.221	0.0162718
719.299	0.0164874
719.378	0.0161612
719.456	0.0161826
719.534	0.0161578
719.612	0.0161382
719.690	0.0158562
719.768	0.0158086
719.846	0.0158004
719.924	0.0158549
720.003	0.0156290
720.081	0.0155736
720.159	0.0155891
720.237	0.0154762
720.315	0.0154288
720.393	0.0153443
720.471	0.0153319
720.549	0.0152158
720.628	0.0153158
720.706	0.0152180
720.784	0.0152305
720.862	0.0152379
720.940	0.0153388
721.018	0.0153252
721.096	0.0152988
721.174	0.0153181
721.253	0.0153545
721.331	0.0153072
721.409	0.0153955
721.487	0.0155693
721.565	0.0155933
721.643	0.0155540
721.721	0.0157227
721.799	0.0157446
721.878	0.0157426
721.956	0.0157706
722.034	0.0158762
722.112	0.0159483
722.190	0.0158993
722.268	0.0157874
722.346	0.0160506
722.424	0.0158990
722.503	0.0161236
722.581	0.0161954
722.659	0.0162681
722.737	0.0161456
722.815	0.0163688
722.893	0.0163963
722.971	0.0163045
723.049	0.0162579
723.128	0.0161664
723.206	0.0162778
723.284	0.0161373
723.362	0.0160393
723.440	0.0161971
723.518	0.0160480
723.596	0.0159184
723.674	0.0159416
723.753	0.0159254
723.831	0.0158071
723.909	0.0156982
723.987	0.0156519
724.065	0.0154778
724.143	0.0155282
724.221	0.0153752
724.299	0.0153114
724.378	0.0150985
724.456	0.0151925
724.534	0.0150443
724.612	0.0150755
724.690	0.0149380
724.768	0.0150922
724.846	0.0151626
724.924	0.0151358
725.003	0.0151015
725.081	0.0151413
725.159	0.0152831
725.237	0.0154576
725.315	0.0153767
725.393	0.0155515
725.471	0.0156298
725.549	0.0158527
725.628	0.0157680
725.706	0.0159978
725.784	0.0160259
725.862	0.0160974
725.940	0.0160990
726.018	0.0160453
726.096	0.0163109
726.174	0.0163918
726.253	0.0162746
726.331	0.0164981
726.409	0.0164846
726.487	0.0165174
726.565	0.0165487
726.643	0.0165456
726.721	0.0166888
726.799	0.0164973
726.878	0.0165134
726.956	0.0164285
727.034	0.0163630
727.112	0.0162519
727.190	0.0161837
727.268	0.0160292
727.346	0.0160454
727.424	0.0157343
727.503	0.0157171
727.581	0.0154854
727.659	0.0153849
727.737	0.0152541
727.815	0.0151481
727.893	0.0150645
727.971	0.0149590
728.049	0.0148499
728.128	0.0148149
728.206	0.0147862
728.284	0.0147701
728.362	0.0147060
728.440	0.0148615
728.518	0.0145843
728.596	0.0146199
728.674	0.0147567
728.753	0.0148385
728.831	0.0150288
728.909	0.0150777
728.987	0.0152079
729.065	0.0153124
729.143	0.0152302
729.221	0.0154994
729.299	0.0156234
729.378	0.0155602
729.456	0.0157446
729.534	0.0159134
729.612	0.0160863
729.690	0.0162182
729.768	0.0162929
729.846	0.0162937
729.924	0.0164382
730.003	0.0163892
730.081	0.0164198
730.159	0.0164857
730.237	0.0165412
730.315	0.0165112
730.393	0.0163908
730.471	0.0163778
730.549	0.0163171
730.628	0.0161628
730.706	0.0161782
730.784	0.0161160
730.862	0.0158957
730.940	0.0156265
731.018	0.0154514
731.096	0.0154842
731.174	0.0153212
731.253	0.0149911
731.331	0.0149556
731.409	0.0148853
731.487	0.0148238
731.565	0.0147877
731.643	0.0146131
731.721	0.0144590
731.799	0.0143948
731.878	0.0143684
731.956	0.0144025
732.034	0.0143956
732.112	0.0143058
732.190	0.0143951
732.268	0.0145919
732.346	0.0145865
732.424	0.0146962
732.503	0.0148560
732.581	0.0149149
732.659	0.0148335
732.737	0.0151183
732.815	0.0153429
732.893	0.0154488
732.971	0.0156613
733.049	0.0157272
733.128	0.0157359
733.206	0.0159940
733.284	0.0160941
733.362	0.0161405
733.440	0.0162428
733.518	0.0161515
733.596	0.0162666
733.674	0.0163432
733.753	0.0161781
733.831	0.0163263
733.909	0.0162606
733.987	0.0161283
734.065	0.0161303
734.143	0.0160219
734.221	0.0159322
734.299	0.0158334
734.378	0.0158633
734.456	0.0157126
734.534	0.0157525
734.612	0.0155357
734.690	0.0155048
734.768	0.0153757
734.846	0.0154081
734.924	0.0152201
735.003	0.0152513
735.081	0.0152235
735.159	0.0151086
735.237	0.0150838
735.315	0.0150796
735.393	0.0150903
735.471	0.0151891
735.549	0.0150789
735.628	0.0151655
735.706	0.0152986
735.784	0.0153254
735.862	0.0153263
735.940	0.0153720
736.018	0.0154198
736.096	0.0154913
736.174	0.0155122
736.253	0.0156628
736.331	0.0156732
736.409	0.0158832
736.487	0.0157338
736.565	0.0158048
736.643	0.0159670
736.721	0.0159790
736.799	0.0160353
736.878	0.0160385
736.956	0.0161118
737.034	0.0161349
737.112	0.0162187
737.190	0.0160584
737.268	0.0159795
737.346	0.0160484
737.424	0.0160878
737.503	0.0159708
737.581	0.0160345
737.659	0.0159351
737.737	0.0156569
737.815	0.0157719
737.893	0.0157557
737.971	0.0155186
738.049	0.0153191
738.128	0.0153701
738.206	0.0151856
738.284	0.0149704
738.362	0.0147626
738.440	0.0147869
738.518	0.0147741
738.596	0.0147330
738.674	0.0147145
738.753	0.0146570
738.831	0.0146539
738.909	0.0145749
738.987	0.0146359
739.065	0.0147533
739.143	0.0148910
739.221	0.0149895
739.299	0.0150864
739.378	0.0151247
739.456	0.0152219
739.534	0.0154433
739.612	0.0155621
739.690	0.0158351
739.768	0.0159203
739.846	0.0161825
739.924	0.0160886
740.003	0.0162626
740.081	0.0162857
740.159	0.0164730
740.237	0.0163982
740.315	0.0164660
740.393	0.0165400
740.471	0.0164426
740.549	0.0164459
740.628	0.0163362
740.706	0.0164420
740.784	0.0163782
740.862	0.0161859
740.940	0.0161402
741.018	0.0162064
741.096	0.0160951
741.174	0.0160109
741.253	0.0159238
741.331	0.0159582
741.409	0.0158524
741.487	0.0156876
741.565	0.0157809
741.643	0.0157387
741.721	0.0156841
741.799	0.0156612
741.878	0.0155335
741.956	0.0153524
742.034	0.0154694
742.112	0.0154711
742.190	0.0153541
742.268	0.0153648
742.346	0.0151231
742.424	0.0151548
742.503	0.0150785
742.581	0.0151920
742.659	0.0151260
742.737	0.0150349
742.815	0.0150116
742.893	0.0149122
742.971	0.0149505
743.049	0.0149731
743.128	0.0149563
743.206	0.0149065
743.284	0.0150784
743.362	0.0150936
743.440	0.0150744
743.518	0.0151935
743.596	0.0151767
743.674	0.0152718
743.753	0.0154012
743.831	0.0153748
743.909	0.0155846
743.987	0.0157235
744.065	0.0156620
744.143	0.0155814
744.221	0.0158749
744.299	0.0157958
744.378	0.0158854
744.456	0.0158778
744.534	0.0161481
744.612	0.0161079
744.690	0.0161700
744.768	0.0162379
744.846	0.0161577
744.924	0.0161018
745.003	0.0161006
745.081	0.0161073
745.159	0.0162241
745.237	0.0160896
745.315	0.0162138
745.393	0.0161342
745.471	0.0160826
745.549	0.0160323
745.628	0.0161651
745.706	0.0159219
745.784	0.0158356
745.862	0.0158084
745.940	0.0157274
746.018	0.0155076
746.096	0.0157070
746.174	0.0158177
746.253	0.0155626
746.331	0.0154507
746.409	0.0154526
746.487	0.0155688
746.565	0.0154601
746.643	0.0156103
746.721	0.0155666
746.799	0.0156058
746.878	0.0155857
746.956	0.0155508
747.034	0.0155622
747.112	0.0156390
747.190	0.0156525
747.268	0.0156962
747.346	0.0157931
747.424	0.0156109
747.503	0.0158114
747.581	0.0157084
747.659	0.0155589
747.737	0.0158155
747.815	0.0157704
747.893	0.0156747
747.971	0.0157078
748.049	0.0155679
748.128	0.0157504
748.206	0.0157327
748.284	0.0155307
748.362	0.0155523
748.440	0.0155553
748.518	0.0157224
748.596	0.0154810
748.674	0.0154272
748.753	0.0154659
748.831	0.0154773
748.909	0.0153362
748.987	0.0152906
749.065	0.0154253
749.143	0.0153441
749.221	0.0152397
749.299	0.0153945
749.378	0.0153690
749.456	0.0152879
749.534	0.0155135
749.612	0.0153410
749.690	0.0153738
749.768	0.0154106
749.846	0.0155071
749.924	0.0156995
750.003	0.0156097
750.081	0.0156540
750.159	0.0158143
750.237	0.0159093
750.315	0.0156878
750.393	0.0158060
750.471	0.0160532
750.549	0.0160938
750.628	0.0161612
750.706	0.0161684
750.784	0.0161244
750.862	0.0162430
750.940	0.0160629
751.018	0.0162072
751.096	0.0161394
751.174	0.0160454
751.253	0.0162501
751.331	0.0159837
751.409	0.0160204
751.487	0.0160136
751.565	0.0160235
751.643	0.0159286
751.721	0.0157906
751.799	0.0159138
751.878	0.0156761
751.956	0.0156142
752.034	0.0156252
752.112	0.0155820
752.190	0.0155270
752.268	0.0155477
752.346	0.0154394
752.424	0.0153055
752.503	0.0150705
752.581	0.0151782
752.659	0.0153716
752.737	0.0152900
752.815	0.0150156
752.893	0.0150854
752.971	0.0151414
753.049	0.0150445
753.128	0.0149975
753.206	0.0149849
753.284	0.0149804
753.362	0.0149446
753.440	0.0149911
753.518	0.0149557
753.596	0.0149501
753.674	0.0150491
753.753	0.0152646
753.831	0.0150369
753.909	0.0151147
753.987	0.0152171
754.065	0.0151709
754.143	0.0152928
754.221	0.0153167
754.299	0.0151932
754.378	0.0152361
754.456	0.0153004
754.534	0.0153798
754.612	0.0152773
754.690	0.0154025
754.768	0.0154844
754.846	0.0155207
754.924	0.0154841
755.003	0.0156068
755.081	0.0155131
755.159	0.0156543
755.237	0.0156023
755.315	0.0156750
755.393	0.0155804
755.471	0.0156550
755.549	0.0157393
755.628	0.0156859
755.706	0.0156487
755.784	0.0156553
755.862	0.0156616
755.940	0.0156419
756.018	0.0157076
756.096	0.0157475
756.174	0.0157655
756.253	0.0157503
756.331	0.0157635
756.409	0.0158203
756.487	0.0157570
756.565	0.0156194
756.643	0.0158335
756.721	0.0156808
756.799	0.0157536
756.878	0.0158332
756.956	0.0157224
757.034	0.0157423
757.112	0.0156731
757.190	0.0157161
757.268	0.0156770
757.346	0.0155518
757.424	0.0154876
757.503	0.0154498
757.581	0.0155271
757.659	0.0155540
757.737	0.0155222
757.815	0.0152963
757.893	0.0154282
757.971	0.0155478
758.049	0.0154357
758.128	0.0153027
758.206	0.0154037
758.284	0.0152725
758.362	0.0153645
758.440	0.0152765
758.518	0.0152129
758.596	0.0151873
758.674	0.0153616
758.753	0.0153231
758.831	0.0153793
758.909	0.0153510
758.987	0.0153256
759.065	0.0153960
759.143	0.0155754
759.221	0.0154729
759.299	0.0155180
759.378	0.0153881
759.456	0.0155646
759.534	0.0157056
759.612	0.0155777
759.690	0.0155946
759.768	0.0155360
759.846	0.0155225
759.924	0.0155287
760.003	0.0154528
760.081	0.0153873
760.159	0.0153437
760.237	0.0153291
760.315	0.0154334
760.393	0.0152530
760.471	0.0152224
760.549	0.0150836
760.628	0.0150719
760.706	0.0150957
760.784	0.0152235
760.862	0.0152087
760.940	0.0152080
761.018	0.0150537
761.096	0.0155132
761.174	0.0153769
761.253	0.0154279
761.331	0.0154662
761.409	0.0155399
761.487	0.0157329
761.565	0.0158082
761.643	0.0158082
761.721	0.0159415
761.799	0.0159855
761.878	0.0159910
761.956	0.0161292
762.034	0.0162048
762.112	0.0161791
762.190	0.0163980
762.268	0.0163258
762.346	0.0162372
762.424	0.0161903
762.503	0.0161220
762.581	0.0159528
762.659	0.0158680
762.737	0.0158857
762.815	0.0157839
762.893	0.0158611
762.971	0.0158090
763.049	0.0156627
763.128	0.0155854
763.206	0.0155041
763.284	0.0154411
763.362	0.0154845
763.440	0.0154807
763.518	0.0153258
763.596	0.0153191
763.674	0.0153345
763.753	0.0154568
763.831	0.0153556
763.909	0.0151198
763.987	0.0152698
764.065	0.0154478
764.143	0.0152027
764.221	0.0151571
764.299	0.0153016
764.378	0.0152063
764.456	0.0151247
764.534	0.0152513
764.612	0.0152415
764.690	0.0153779
764.768	0.0152842
764.846	0.0154616
764.924	0.0154526
765.003	0.0154493
765.081	0.0154798
765.159	0.0154965
765.237	0.0156289
765.315	0.0156055
765.393	0.0156237
765.471	0.0156506
765.549	0.0157888
765.628	0.0158427
765.706	0.0156695
765.784	0.0155923
765.862	0.0156055
765.940	0.0156298
766.018	0.0156712
766.096	0.0154655
766.174	0.0155733
766.253	0.0155981
766.331	0.0154811
766.409	0.0155659
766.487	0.0155106
766.565	0.0155349
766.643	0.0154173
766.721	0.0156313
766.799	0.0155574
766.878	0.0154848
766.956	0.0155699
767.034	0.0156221
767.112	0.0157150
767.190	0.0158665
767.268	0.0159867
767.346	0.0160873
767.424	0.0159999
767.503	0.0161971
767.581	0.0162328
767.659	0.0162508
767.737	0.0162039
767.815	0.0162905
767.893	0.0163026
767.971	0.0161222
768.049	0.0162417
768.128	0.0163196
768.206	0.0160477
768.284	0.0161061
768.362	0.0161102
768.440	0.0160672
768.518	0.0159325
768.596	0.0159480
768.674	0.0159555
768.753	0.0158633
768.831	0.0156773
768.909	0.0157389
768.987	0.0156393
769.065	0.0155766
769.143	0.0155724
769.221	0.0155317
769.299	0.0153864
769.378	0.0153772
769.456	0.0152901
769.534	0.0152580
769.612	0.0153868
769.690	0.0153212
769.768	0.0151882
769.846	0.0152142
769.924	0.0154119
770.003	0.0155078
770.081	0.0153930
770.159	0.0154755
770.237	0.0153938
770.315	0.0155213
770.393	0.0154993
770.471	0.0155706
770.549	0.0156925
770.628	0.0157112
770.706	0.0158049
770.784	0.0157417
770.862	0.0156945
770.940	0.0157024
771.018	0.0157862
771.096	0.0158788
771.174	0.0157925
771.253	0.0158832
771.331	0.0158136
771.409	0.0158585
771.487	0.0156410
771.565	0.0156840
771.643	0.0157259
771.721	0.0156000
771.799	0.0155811
771.878	0.0155952
771.956	0.0154753
772.034	0.0154797
772.112	0.0154610
772.190	0.0152879
772.268	0.0152608
772.346	0.0151435
772.424	0.0151007
772.503	0.0150464
772.581	0.0151595
772.659	0.0151993
772.737	0.0151556
772.815	0.0151676
772.893	0.0152756
772.971	0.0152795
773.049	0.0153075
773.128	0.0154765
773.206	0.0154916
773.284	0.0155421
773.362	0.0156831
773.440	0.0157725
773.518	0.0158734
773.596	0.0157851
773.674	0.0158617
773.753	0.0159208
773.831	0.0161418
773.909	0.0161563
773.987	0.0160239
774.065	0.0159034
774.143	0.0161242
774.221	0.0160513
774.299	0.0159793
774.378	0.0159924
774.456	0.0158646
774.534	0.0159229
774.612	0.0157118
774.690	0.0157114
774.768	0.0157262
774.846	0.0156522
774.924	0.0154581
775.003	0.0155712
775.081	0.0153736
775.159	0.0153391
775.237	0.0152680
775.315	0.0153288
775.393	0.0152750
775.471	0.0150799
775.549	0.0152136
775.628	0.0151294
775.706	0.0151215
775.784	0.0152949
775.862	0.0152132
775.940	0.0152752
776.018	0.0153434
776.096	0.0153861
776.174	0.0152644
776.253	0.0153446
776.331	0.0153742
776.409	0.0154621
776.487	0.0155209
776.565	0.0155976
776.643	0.0154176
776.721	0.0155396
776.799	0.0154451
776.878	0.0155142
776.956	0.0154179
777.034	0.0154220
777.112	0.0154884
777.190	0.0154739
777.268	0.0155038
777.346	0.0154057
777.424	0.0152599
777.503	0.0153345
777.581	0.0155148
777.659	0.0155307
777.737	0.0153895
777.815	0.0155132
777.893	0.0155711
777.971	0.0154923
778.049	0.0155611
778.128	0.0155194
778.206	0.0157257
778.284	0.0157786
778.362	0.0156145
778.440	0.0157007
778.518	0.0156741
778.596	0.0156541
778.674	0.0155785
778.753	0.0159365
778.831	0.0158825
778.909	0.0157920
778.987	0.0159176
779.065	0.0158540
779.143	0.0159155
779.221	0.0160386
779.299	0.0159358
779.378	0.0160471
779.456	0.0161196
779.534	0.0161228
779.612	0.0161047
779.690	0.0160949
779.768	0.0160007
779.846	0.0159398
779.924	0.0161514
780.003	0.0160995
780.081	0.0160960
780.159	0.0159328
780.237	0.0159465
780.315	0.0158633
780.393	0.0159060
780.471	0.0159090
780.549	0.0157089
780.628	0.0156377
780.706	0.0157339
780.784	0.0156308
780.862	0.0155059
780.940	0.0153531
781.018	0.0154691
781.096	0.0155786
781.174	0.0153441
781.253	0.0153576
781.331	0.0153288
781.409	0.0152914
781.487	0.0153561
781.565	0.0153618
781.643	0.0153053
781.721	0.0154015
781.799	0.0154005
781.878	0.0155280
781.956	0.0155155
782.034	0.0156521
782.112	0.0156567
782.190	0.0156982
782.268	0.0156423
782.346	0.0157624
782.424	0.0158269
782.503	0.0158468
782.581	0.0158233
782.659	0.0157508
782.737	0.0159975
782.815	0.0160046
782.893	0.0159871
782.971	0.0160181
783.049	0.0159653
783.128	0.0159803
783.206	0.0158385
783.284	0.0158472
783.362	0.0157354
783.440	0.0158041
783.518	0.0157626
783.596	0.0156654
783.674	0.0155947
783.753	0.0154636
783.831	0.0154393
783.909	0.0154764
783.987	0.0155678
784.065	0.0155881
784.143	0.0153606
784.221	0.0155708
784.299	0.0155946
784.378	0.0155514
784.456	0.0154235
784.534	0.0155307
784.612	0.0156702
784.690	0.0154916
784.768	0.0156459
784.846	0.0158721
784.924	0.0153795
785.003	0.0156561
785.081	0.0156059
785.159	0.0156953
785.237	0.0154881
785.315	0.0155976
785.393	0.0156466
785.471	0.0156859
785.549	0.0156547
785.628	0.0156622
785.706	0.0157656
785.784	0.0157053
785.862	0.0157352
785.940	0.0157256
786.018	0.0157677
786.096	0.0157779
786.174	0.0158973
786.253	0.0158102
786.331	0.0157268
786.409	0.0159246
786.487	0.0158529
786.565	0.0158600
786.643	0.0157677
786.721	0.0156715
786.799	0.0157673
786.878	0.0157192
786.956	0.0157055
787.034	0.0157381
787.112	0.0156672
787.190	0.0157677
787.268	0.0156629
787.346	0.0154473
787.424	0.0156796
787.503	0.0156546
787.581	0.0154665
787.659	0.0155141
787.737	0.0155566
787.815	0.0156088
787.893	0.0156308
787.971	0.0154803
788.049	0.0155733
788.128	0.0155176
788.206	0.0156656
788.284	0.0156665
788.362	0.0155777
788.440	0.0156286
788.518	0.0155875
788.596	0.0155370
788.674	0.0155303
788.753	0.0154972
788.831	0.0156433
788.909	0.0156792
788.987	0.0156127
789.065	0.0156778
789.143	0.0157436
789.221	0.0156081
789.299	0.0155909
789.378	0.0156231
789.456	0.0156177
789.534	0.0156759
789.612	0.0156879
789.690	0.0156904
789.768	0.0156875
789.846	0.0156244
789.924	0.0156432
790.003	0.0156805
790.081	0.0157695
790.159	0.0157143
790.237	0.0156512
790.315	0.0158151
790.393	0.0157347
790.471	0.0158300
790.549	0.0157235
790.628	0.0158324
790.706	0.0158801
790.784	0.0158485
790.862	0.0158829
790.940	0.0158725
791.018	0.0158557
791.096	0.0159753
791.174	0.0159171
791.253	0.0159568
791.331	0.0158763
791.409	0.0159343
791.487	0.0159109
791.565	0.0157155
791.643	0.0157961
791.721	0.0158602
791.799	0.0157915
791.878	0.0157391
791.956	0.0156918
792.034	0.0155209
792.112	0.0155810
792.190	0.0157422
792.268	0.0156871
792.346	0.0157080
792.424	0.0156986
792.503	0.0155945
792.581	0.0156240
792.659	0.0156435
792.737	0.0156114
792.815	0.0156857
792.893	0.0156832
792.971	0.0156125
793.049	0.0157887
793.128	0.0158393
793.206	0.0158709
793.284	0.0158161
793.362	0.0157659
793.440	0.0156940
793.518	0.0157127
793.596	0.0156832
793.674	0.0157261
793.753	0.0157525
793.831	0.0155761
793.909	0.0155669
793.987	0.0157078
794.065	0.0155486
794.143	0.0155672
794.221	0.0157022
794.299	0.0155701
794.378	0.0156632
794.456	0.0156995
794.534	0.0154364
794.612	0.0155058
794.690	0.0156150
794.768	0.0155486
794.846	0.0154108
794.924	0.0154608
795.003	0.0153782
795.081	0.0155212
795.159	0.0154120
795.237	0.0155466
795.315	0.0155211
795.393	0.0154837
795.471	0.0156430
795.549	0.0155352
795.628	0.0157036
795.706	0.0156856
795.784	0.0155348
795.862	0.0156503
795.940	0.0156393
796.018	0.0156013
796.096	0.0156095
796.174	0.0155814
796.253	0.0155687
796.331	0.0155383
796.409	0.0155882
796.487	0.0155126
796.565	0.0155239
796.643	0.0154327
796.721	0.0154727
796.799	0.0154927
796.878	0.0155164
796.956	0.0156133
797.034	0.0155791
797.112	0.0156384
797.190	0.0156606
797.268	0.0156617
797.346	0.0156436
797.424	0.0156450
797.503	0.0155701
797.581	0.0156944
797.659	0.0157040
797.737	0.0155959
797.815	0.0155824
797.893	0.0157923
797.971	0.0156935
798.049	0.0156310
798.128	0.0155962
798.206	0.0155983
798.284	0.0156250
798.362	0.0156270
798.440	0.0155812
798.518	0.0155619
798.596	0.0155585
798.674	0.0154723
798.753	0.0156195
798.831	0.0154230
798.909	0.0155426
798.987	0.0154916
799.065	0.0155841
799.143	0.0156525
799.221	0.0156384
799.299	0.0157253
799.378	0.0156321
799.456	0.0156539
799.534	0.0158598
799.612	0.0156799
799.690	0.0157697
799.768	0.0158665
799.846	0.0157609
799.924	0.0157473
800.003	0.0157625
800.081	0.0157056
800.159	0.0157726
800.237	0.0157239
800.315	0.0156818
800.393	0.0157648
800.471	0.0157542
800.549	0.0156374
800.628	0.0157372
800.706	0.0156938
800.784	0.0158698
800.862	0.0158160
800.940	0.0157733
801.018	0.0157208
801.096	0.0157922
801.174	0.0157504
801.253	0.0157058
801.331	0.0157647
801.409	0.0157664
801.487	0.0156857
801.565	0.0156890
801.643	0.0157430
801.721	0.0158096
801.799	0.0158131
801.878	0.0157436
801.956	0.0158647
802.034	0.0157011
802.112	0.0158971
802.190	0.0157484
802.268	0.0157825
802.346	0.0158425
802.424	0.0158345
802.503	0.0158674
802.581	0.0157863
802.659	0.0158498
802.737	0.0158071
802.815	0.0158256
802.893	0.0158324
802.971	0.0158252
803.049	0.0158355
803.128	0.0158758
803.206	0.0157793
803.284	0.0157951
803.362	0.0157981
803.440	0.0159274
803.518	0.0157498
803.596	0.0157604
803.674	0.0157823
803.753	0.0157258
803.831	0.0157922
803.909	0.0158482
803.987	0.0156858
804.065	0.0155698
804.143	0.0156529
804.221	0.0155332
804.299	0.0156815
804.378	0.0155713
804.456	0.0156521
804.534	0.0156340
804.612	0.0155812
804.690	0.0156037
804.768	0.0155315
804.846	0.0154794
804.924	0.0156950
805.003	0.0155884
805.081	0.0156333
805.159	0.0155062
805.237	0.0156354
805.315	0.0156820
805.393	0.0155253
805.471	0.0154978
805.549	0.0156348
805.628	0.0157241
805.706	0.0156194
805.784	0.0156009
805.862	0.0157211
805.940	0.0158768
806.018	0.0157793
806.096	0.0157239
806.174	0.0158443
806.253	0.0157838
806.331	0.0158017
806.409	0.0157390
806.487	0.0156776
806.565	0.0156556
806.643	0.0157941
806.721	0.0156290
806.799	0.0158250
806.878	0.0158305
806.956	0.0155244
807.034	0.0156871
807.112	0.0156540
807.190	0.0155180
807.268	0.0156601
807.346	0.0156259
807.424	0.0156606
807.503	0.0154642
807.581	0.0154201
807.659	0.0155202
807.737	0.0155424
807.815	0.0154587
807.893	0.0154351
807.971	0.0154709
808.049	0.0154362
808.128	0.0156295
808.206	0.0155273
808.284	0.0154096
808.362	0.0154464
808.440	0.0154048
808.518	0.0155600
808.596	0.0155446
808.674	0.0156001
808.753	0.0154718
808.831	0.0154779
808.909	0.0154997
808.987	0.0155926
809.065	0.0156049
809.143	0.0154986
809.221	0.0155479
809.299	0.0154916
809.378	0.0156189
809.456	0.0155738
809.534	0.0155395
809.612	0.0155723
809.690	0.0156879
809.768	0.0156573
809.846	0.0156551
809.924	0.0156319
810.003	0.0156107
810.081	0.0157063
810.159	0.0156614
810.237	0.0155833
810.315	0.0156152
810.393	0.0155748
810.471	0.0156765
810.549	0.0155647
810.628	0.0153933
810.706	0.0154641
810.784	0.0155808
810.862	0.0156390
810.940	0.0156304
811.018	0.0156086
811.096	0.0155277
811.174	0.0154687
811.253	0.0157101
811.331	0.0155093
811.409	0.0154602
811.487	0.0155887
811.565	0.0157359
811.643	0.0156669
811.721	0.0156063
811.799	0.0156776
811.878	0.0155986
811.956	0.0156870
812.034	0.0158019
812.112	0.0158154
812.190	0.0156903
812.268	0.0156655
812.346	0.0156230
812.424	0.0157542
812.503	0.0156417
812.581	0.0156431
812.659	0.0157552
812.737	0.0157962
812.815	0.0157086
812.893	0.0155893
812.971	0.0156449
813.049	0.0157587
813.128	0.0157470
813.206	0.0156972
813.284	0.0156350
813.362	0.0157035
813.440	0.0157902
813.518	0.0156725
813.596	0.0156221
813.674	0.0156052
813.753	0.0156777
813.831	0.0156019
813.909	0.0155802
813.987	0.0155397
814.065	0.0156856
814.143	0.0155931
814.221	0.0156013
814.299	0.0156321
814.378	0.0155772
814.456	0.0153636
814.534	0.0155918
814.612	0.0155908
814.690	0.0155808
814.768	0.0156155
814.846	0.0155939
814.924	0.0157202
815.003	0.0156179
815.081	0.0156094
815.159	0.0155516
815.237	0.0156927
815.315	0.0158131
815.393	0.0156532
815.471	0.0156390
815.549	0.0156157
815.628	0.0156903
815.706	0.0157411
815.784	0.0157874
815.862	0.0157457
815.940	0.0156851
816.018	0.0156934
816.096	0.0157430
816.174	0.0158327
816.253	0.0159240
816.331	0.0156075
816.409	0.0154867
816.487	0.0156259
816.565	0.0154864
816.643	0.0154860
816.721	0.0156232
816.799	0.0155203
816.878	0.0156270
816.956	0.0155083
817.034	0.0152438
817.112	0.0154321
817.190	0.0155332
817.268	0.0154779
817.346	0.0153709
817.424	0.0154950
817.503	0.0156013
817.581	0.0155852
817.659	0.0154607
817.737	0.0155510
817.815	0.0154398
817.893	0.0154735
817.971	0.0155657
818.049	0.0155930
818.128	0.0155456
818.206	0.0156148
818.284	0.0155350
818.362	0.0155875
818.440	0.0157242
818.518	0.0156858
818.596	0.0157118
818.674	0.0157833
818.753	0.0156960
818.831	0.0156470
818.909	0.0158227
818.987	0.0157258
819.065	0.0158139
819.143	0.0157568
819.221	0.0158736
819.299	0.0157106
819.378	0.0158465
819.456	0.0159409
819.534	0.0158006
819.612	0.0158021
819.690	0.0158833
819.768	0.0159499
819.846	0.0157020
819.924	0.0157153
820.003	0.0157393
820.081	0.0157616
820.159	0.0158608
820.237	0.0155157
820.315	0.0157636
820.393	0.0158910
820.471	0.0156458
820.549	0.0155447
820.628	0.0155692
820.706	0.0156616
820.784	0.0155810
820.862	0.0154661
820.940	0.0156155
821.018	0.0156482
821.096	0.0155310
821.174	0.0154812
821.253	0.0154874
821.331	0.0154703
821.409	0.0155789
821.487	0.0154158
821.565	0.0155517
821.643	0.0155672
821.721	0.0155402
821.799	0.0155260
821.878	0.0155676
821.956	0.0156512
822.034	0.0155996
822.112	0.0155679
822.190	0.0156912
822.268	0.0156934
822.346	0.0157899
822.424	0.0156136
822.503	0.0157384
822.581	0.0157549
822.659	0.0158862
822.737	0.0157679
822.815	0.0157963
822.893	0.0158307
822.971	0.0158840
823.049	0.0158605
823.128	0.0158253
823.206	0.0157066
823.284	0.0158795
823.362	0.0158321
823.440	0.0157636
823.518	0.0159032
823.596	0.0157638
823.674	0.0157807
823.753	0.0157899
823.831	0.0157236
823.909	0.0157595
823.987	0.0156853
824.065	0.0156615
824.143	0.0157125
824.221	0.0156074
824.299	0.0157287
824.378	0.0156165
824.456	0.0156466
824.534	0.0154842
824.612	0.0155186
824.690	0.0155553
824.768	0.0156111
824.846	0.0156171
824.924	0.0156406
825.003	0.0156015
825.081	0.0156576
825.159	0.0155385
825.237	0.0155505
825.315	0.0154333
825.393	0.0155573
825.471	0.0156869
825.549	0.0155618
825.628	0.0156175
825.706	0.0156024
825.784	0.0156456
825.862	0.0155403
825.940	0.0154707
826.018	0.0155566
826.096	0.0156757
826.174	0.0156739
826.253	0.0154922
826.331	0.0155965
826.409	0.0156696
826.487	0.0156015
826.565	0.0156629
826.643	0.0157426
826.721	0.0157529
826.799	0.0155974
826.878	0.0156969
826.956	0.0158189
827.034	0.0156074
827.112	0.0156355
827.190	0.0155656
827.268	0.0155090
827.346	0.0156556
827.424	0.0156387
827.503	0.0155450
827.581	0.0155727
827.659	0.0155963
827.737	0.0155324
827.815	0.0154154
827.893	0.0152730
827.971	0.0153295
828.049	0.0153766
828.128	0.0153870
828.206	0.0153467
828.284	0.0155243
828.362	0.0153143
828.440	0.0154269
828.518	0.0153927
828.596	0.0153082
828.674	0.0153043
828.753	0.0155616
828.831	0.0153670
828.909	0.0153571
828.987	0.0155776
829.065	0.0155593
829.143	0.0153606
829.221	0.0155251
829.299	0.0155433
829.378	0.0156206
829.456	0.0156136
829.534	0.0157395
829.612	0.0157849
829.690	0.0156979
829.768	0.0156867
829.846	0.0157757
829.924	0.0159583
830.003	0.0158147
830.081	0.0157176
830.159	0.0158640
830.237	0.0157096
830.315	0.0158418
830.393	0.0157733
830.471	0.0157607
830.549	0.0156596
830.628	0.0156859
830.706	0.0155583
830.784	0.0155971
830.862	0.0156607
830.940	0.0155860
831.018	0.0156768
831.096	0.0156028
831.174	0.0155355
831.253	0.0155096
831.331	0.0155839
831.409	0.0154942
831.487	0.0154881
831.565	0.0154878
831.643	0.0156226
831.721	0.0155686
831.799	0.0155823
831.878	0.0155363
831.956	0.0155009
832.034	0.0155052
832.112	0.0155803
832.190	0.0156437
832.268	0.0155087
832.346	0.0157455
832.424	0.0155959
832.503	0.0155342
832.581	0.0155316
832.659	0.0153822
832.737	0.0154804
832.815	0.0154318
832.893	0.0155957
832.971	0.0156372
833.049	0.0154746
833.128	0.0155151
833.206	0.0155656
833.284	0.0156110
833.362	0.0156143
833.440	0.0154293
833.518	0.0154114
833.596	0.0155926
833.674	0.0156414
833.753	0.0156499
833.831	0.0155293
833.909	0.0155119
833.987	0.0156074
834.065	0.0155048
834.143	0.0156578
834.221	0.0156884
834.299	0.0155531
834.378	0.0155246
834.456	0.0155196
834.534	0.0157019
834.612	0.0155612
834.690	0.0154194
834.768	0.0154356
834.846	0.0153282
834.924	0.0153149
835.003	0.0154712
835.081	0.0154016
835.159	0.0154135
835.237	0.0154669
835.315	0.0154473
835.393	0.0153841
835.471	0.0153478
835.549	0.0154537
835.628	0.0154214
835.706	0.0154374
835.784	0.0155204
835.862	0.0156406
835.940	0.0154239
836.018	0.0154529
836.096	0.0155123
836.174	0.0156048
836.253	0.0155507
836.331	0.0155710
836.409	0.0154821
836.487	0.0154649
836.565	0.0156892
836.643	0.0154769
836.721	0.0156050
836.799	0.0156963
836.878	0.0156760
836.956	0.0156104
837.034	0.0155800
837.112	0.0156452
837.190	0.0156131
837.268	0.0156669
837.346	0.0156394
837.424	0.0157030
837.503	0.0156169
837.581	0.0156757
837.659	0.0155727
837.737	0.0155669
837.815	0.0155984
837.893	0.0156905
837.971	0.0155008
838.049	0.0156625
838.128	0.0156493
838.206	0.0155998
838.284	0.0155719
838.362	0.0155956
838.440	0.0157301
838.518	0.0155615
838.596	0.0155170
838.674	0.0156036
838.753	0.0155382
838.831	0.0154227
838.909	0.0153801
838.987	0.0154380
839.065	0.0153949
839.143	0.0153613
839.221	0.0153860
839.299	0.0153364
839.378	0.0153529
839.456	0.0154031
839.534	0.0153302
839.612	0.0152194
839.690	0.0154102
839.768	0.0153896
839.846	0.0153055
839.924	0.0152756
840.003	0.0153529
840.081	0.0154723
840.159	0.0155082
840.237	0.0155711
840.315	0.0155335
840.393	0.0155472
840.471	0.0155981
840.549	0.0156110
840.628	0.0156671
840.706	0.0155021
840.784	0.0156462
840.862	0.0157540
840.940	0.0156564
841.018	0.0157327
841.096	0.0158014
841.174	0.0158666
841.253	0.0158966
841.331	0.0158762
841.409	0.0158487
841.487	0.0159541
841.565	0.0158372
841.643	0.0158774
841.721	0.0160494
841.799	0.0160038
841.878	0.0159199
841.956	0.0158949
842.034	0.0159095
842.112	0.0159801
842.190	0.0158569
842.268	0.0159425
842.346	0.0159058
842.424	0.0158892
842.503	0.0158210
842.581	0.0157503
842.659	0.0158234
842.737	0.0158134
842.815	0.0158744
842.893	0.0157951
842.971	0.0158453
843.049	0.0156694
843.128	0.0157133
843.206	0.0158145
843.284	0.0157294
843.362	0.0158419
843.440	0.0157258
843.518	0.0156120
843.596	0.0156261
843.674	0.0156516
843.753	0.0156473
843.831	0.0156644
843.909	0.0157932
843.987	0.0156865
844.065	0.0157597
844.143	0.0156725
844.221	0.0157954
844.299	0.0157674
844.378	0.0156731
844.456	0.0156368
844.534	0.0158036
844.612	0.0159003
844.690	0.0157644
844.768	0.0157098
844.846	0.0157390
844.924	0.0157113
845.003	0.0156841
845.081	0.0156817
845.159	0.0157834
845.237	0.0158744
845.315	0.0156681
845.393	0.0156261
845.471	0.0156101
845.549	0.0156938
845.628	0.0156564
845.706	0.0156994
845.784	0.0156061
845.862	0.0157131
845.940	0.0156144
846.018	0.0156915
846.096	0.0156666
846.174	0.0157391
846.253	0.0157307
846.331	0.0156325
846.409	0.0155954
846.487	0.0156849
846.565	0.0157681
846.643	0.0157111
846.721	0.0157848
846.799	0.0158342
846.878	0.0156609
846.956	0.0157156
847.034	0.0157673
847.112	0.0157874
847.190	0.0157526
847.268	0.0158703
847.346	0.0156622
847.424	0.0158294
847.503	0.0157716
847.581	0.0157218
847.659	0.0158655
847.737	0.0156316
847.815	0.0157694
847.893	0.0158000
847.971	0.0157170
848.049	0.0155851
848.128	0.0157336
848.206	0.0156583
848.284	0.0157563
848.362	0.0157285
848.440	0.0156709
848.518	0.0158018
848.596	0.0156451
848.674	0.0156741
848.753	0.0156815
848.831	0.0156648
848.909	0.0156655
848.987	0.0157265
849.065	0.0155840
849.143	0.0155858
849.221	0.0155745
849.299	0.0154881
849.378	0.0155218
849.456	0.0155958
849.534	0.0155997
849.612	0.0155586
849.690	0.0155748
849.768	0.0154469
849.846	0.0154850
849.924	0.0156997
850.003	0.0156459
850.081	0.0156017
850.159	0.0155633
850.237	0.0155940
850.315	0.0154554
850.393	0.0156712
850.471	0.0156339
850.549	0.0155821
850.628	0.0156500
850.706	0.0156627
850.784	0.0158621
850.862	0.0155971
850.940	0.0156043
851.018	0.0155865
851.096	0.0156480
851.174	0.0156248
851.253	0.0156485
851.331	0.0156578
851.409	0.0155677
851.487	0.0155943
851.565	0.0155984
851.643	0.0155322
851.721	0.0155029
851.799	0.0156907
851.878	0.0155823
851.956	0.0155520
852.034	0.0156686
852.112	0.0156467
852.190	0.0155366
852.268	0.0157111
852.346	0.0155867
852.424	0.0156110
852.503	0.0155128
852.581	0.0157487
852.659	0.0156207
852.737	0.0156504
852.815	0.0155634
852.893	0.0157169
852.971	0.0155133
853.049	0.0156599
853.128	0.0155688
853.206	0.0155169
853.284	0.0156187
853.362	0.0156895
853.440	0.0156750
853.518	0.0156851
853.596	0.0157239
853.674	0.0156523
853.753	0.0155799
853.831	0.0156090
853.909	0.0157375
853.987	0.0155807
854.065	0.0156460
854.143	0.0156995
854.221	0.0155763
854.299	0.0156075
854.378	0.0154541
854.456	0.0155279
854.534	0.0155208
854.612	0.0154500
854.690	0.0154258
854.768	0.0155186
854.846	0.0154385
854.924	0.0154205
855.003	0.0153799
855.081	0.0154861
855.159	0.0155186
855.237	0.0155410
855.315	0.0155100
855.393	0.0156391
855.471	0.0154266
855.549	0.0153728
855.628	0.0155572
855.706	0.0155466
855.784	0.0155077
855.862	0.0153996
855.940	0.0155068
856.018	0.0154819
856.096	0.0153327
856.174	0.0153974
856.253	0.0155725
856.331	0.0154993
856.409	0.0154704
856.487	0.0154591
856.565	0.0154699
856.643	0.0154891
856.721	0.0155720
856.799	0.0154458
856.878	0.0155774
856.956	0.0154673
857.034	0.0153793
857.112	0.0155542
857.190	0.0156302
857.268	0.0154900
857.346	0.0154115
857.424	0.0154536
857.503	0.0155617
857.581	0.0155648
857.659	0.0154485
857.737	0.0154937
857.815	0.0154247
857.893	0.0156091
857.971	0.0155236
858.049	0.0155523
858.128	0.0155003
858.206	0.0155486
858.284	0.0155939
858.362	0.0155517
858.440	0.0156061
858.518	0.0155970
858.596	0.0155070
858.674	0.0156008
858.753	0.0155263
858.831	0.0156388
858.909	0.0156331
858.987	0.0156552
859.065	0.0157218
859.143	0.0155210
859.221	0.0155764
859.299	0.0156690
859.378	0.0156339
859.456	0.0156087
859.534	0.0156339
859.612	0.0156226
859.690	0.0154819
859.768	0.0155715
859.846	0.0156292
859.924	0.0155152
860.003	0.0156832
860.081	0.0153720
860.159	0.0155047
860.237	0.0156073
860.315	0.0155233
860.393	0.0155901
860.471	0.0155398
860.549	0.0156033
860.628	0.0155302
860.706	0.0154954
860.784	0.0155849
860.862	0.0155919
860.940	0.0155648
861.018	0.0155865
861.096	0.0154607
861.174	0.0154794
861.253	0.0155255
861.331	0.0154689
861.409	0.0156467
861.487	0.0155225
861.565	0.0155570
861.643	0.0154633
861.721	0.0154330
861.799	0.0155090
861.878	0.0154152
861.956	0.0156078
862.034	0.0155445
862.112	0.0156149
862.190	0.0155054
862.268	0.0156062
862.346	0.0155951
862.424	0.0157053
862.503	0.0156203
862.581	0.0157812
862.659	0.0157462
862.737	0.0156306
862.815	0.0156127
862.893	0.0155946
862.971	0.0156728
863.049	0.0157201
863.128	0.0155512
863.206	0.0156046
863.284	0.0156898
863.362	0.0156660
863.440	0.0157414
863.518	0.0158503
863.596	0.0157207
863.674	0.0157121
863.753	0.0158385
863.831	0.0158274
863.909	0.0157892
863.987	0.0157418
864.065	0.0157172
864.143	0.0157161
864.221	0.0158149
864.299	0.0157994
864.378	0.0158498
864.456	0.0159096
864.534	0.0159015
864.612	0.0158148
864.690	0.0157738
864.768	0.0159080
864.846	0.0159563
864.924	0.0158260
865.003	0.0157008
865.081	0.0156310
865.159	0.0157988
865.237	0.0158491
865.315	0.0157224
865.393	0.0158856
865.471	0.0157559
865.549	0.0157496
865.628	0.0158472
865.706	0.0156738
865.784	0.0155773
865.862	0.0156717
865.940	0.0156901
866.018	0.0156438
866.096	0.0156082
866.174	0.0153710
866.253	0.0154958
866.331	0.0156449
866.409	0.0155595
866.487	0.0155276
866.565	0.0155644
866.643	0.0156419
866.721	0.0156423
866.799	0.0156425
866.878	0.0155759
866.956	0.0155579
867.034	0.0156815
867.112	0.0155222
867.190	0.0154293
867.268	0.0155863
867.346	0.0156252
867.424	0.0156941
867.503	0.0157250
867.581	0.0156686
867.659	0.0156083
867.737	0.0156492
867.815	0.0157709
867.893	0.0157874
867.971	0.0157066
868.049	0.0156333
868.128	0.0156022
868.206	0.0158464
868.284	0.0157750
868.362	0.0156385
868.440	0.0157293
868.518	0.0157758
868.596	0.0156525
868.674	0.0155679
868.753	0.0156075
868.831	0.0157026
868.909	0.0157164
868.987	0.0157104
869.065	0.0157493
869.143	0.0156468
869.221	0.0156680
869.299	0.0156805
869.378	0.0157570
869.456	0.0156791
869.534	0.0158791
869.612	0.0156506
869.690	0.0157451
869.768	0.0158830
869.846	0.0158879
869.924	0.0156940
870.003	0.0156733
870.081	0.0157993
870.159	0.0157523
870.237	0.0158606
870.315	0.0158498
870.393	0.0157578
870.471	0.0157098
870.549	0.0158138
870.628	0.0157127
870.706	0.0157645
870.784	0.0157156
870.862	0.0156989
870.940	0.0156147
871.018	0.0156538
871.096	0.0157580
871.174	0.0158214
871.253	0.0156707
871.331	0.0155709
871.409	0.0155461
871.487	0.0156060
871.565	0.0155776
871.643	0.0156538
871.721	0.0155494
871.799	0.0155129
871.878	0.0155286
871.956	0.0156331
872.034	0.0155557
872.112	0.0153758
872.190	0.0154912
872.268	0.0155470
872.346	0.0154709
872.424	0.0155268
872.503	0.0156129
872.581	0.0154984
872.659	0.0155143
872.737	0.0155423
872.815	0.0155679
872.893	0.0154282
872.971	0.0154424
873.049	0.0155437
873.128	0.0155489
873.206	0.0155504
873.284	0.0155286
873.362	0.0153090
873.440	0.0153232
873.518	0.0155755
873.596	0.0156538
873.674	0.0155514
873.753	0.0154433
873.831	0.0156353
873.909	0.0156231
873.987	0.0154539
874.065	0.0155291
874.143	0.0155448
874.221	0.0156657
874.299	0.0156355
874.378	0.0155379
874.456	0.0155673
874.534	0.0156153
874.612	0.0156558
874.690	0.0155466
874.768	0.0156132
874.846	0.0157386
874.924	0.0156070
875.003	0.0155690
875.081	0.0156166
875.159	0.0155576
875.237	0.0155598
875.315	0.0155965
875.393	0.0154993
875.471	0.0155267
875.549	0.0155786
875.628	0.0155865
875.706	0.0155433
875.784	0.0155515
875.862	0.0156190
875.940	0.0156364
876.018	0.0155393
876.096	0.0155115
876.174	0.0154871
876.253	0.0155169
876.331	0.0155070
876.409	0.0155648
876.487	0.0155432
876.565	0.0156197
876.643	0.0155131
876.721	0.0156997
876.799	0.0155983
876.878	0.0156019
876.956	0.0155773
877.034	0.0155569
877.112	0.0155744
877.190	0.0155741
877.268	0.0155257
877.346	0.0154201
877.424	0.0155146
877.503	0.0155862
877.581	0.0154390
877.659	0.0155553
877.737	0.0155058
877.815	0.0154322
877.893	0.0154253
877.971	0.0153847
878.049	0.0154157
878.128	0.0153564
878.206	0.0154778
878.284	0.0154323
878.362	0.0154691
878.440	0.0156029
878.518	0.0154105
878.596	0.0153672
878.674	0.0154952
878.753	0.0155375
878.831	0.0154972
878.909	0.0154292
878.987	0.0155053
879.065	0.0156010
879.143	0.0155696
879.221	0.0156918
879.299	0.0155415
879.378	0.0155726
879.456	0.0156352
879.534	0.0155558
879.612	0.0155280
879.690	0.0155229
879.768	0.0155967
879.846	0.0156368
879.924	0.0156242
880.003	0.0156467
880.081	0.0155869
880.159	0.0155219
880.237	0.0154993
880.315	0.0154936
880.393	0.0156001
880.471	0.0155503
880.549	0.0156405
880.628	0.0155868
880.706	0.0155327
880.784	0.0155766
880.862	0.0156246
880.940	0.0156474
881.018	0.0155747
881.096	0.0156581
881.174	0.0156571
881.253	0.0156478
881.331	0.0156726
881.409	0.0156113
881.487	0.0156593
881.565	0.0156205
881.643	0.0157498
881.721	0.0158253
881.799	0.0158016
881.878	0.0156396
881.956	0.0156789
882.034	0.0156833
882.112	0.0156727
882.190	0.0156604
882.268	0.0157137
882.346	0.0156046
882.424	0.0156901
882.503	0.0156075
882.581	0.0157751
882.659	0.0157797
882.737	0.0157099
882.815	0.0156704
882.893	0.0157619
882.971	0.0155270
883.049	0.0157104
883.128	0.0155787
883.206	0.0156869
883.284	0.0156832
883.362	0.0156902
883.440	0.0156264
883.518	0.0157069
883.596	0.0157717
883.674	0.0157684
883.753	0.0157284
883.831	0.0158116
883.909	0.0156844
883.987	0.0155792
884.065	0.0157671
884.143	0.0158060
884.221	0.0157581
884.299	0.0157880
884.378	0.0156212
884.456	0.0157529
884.534	0.0158363
884.612	0.0157567
884.690	0.0157319
884.768	0.0157682
884.846	0.0157569
884.924	0.0157437
885.003	0.0156561
885.081	0.0156652
885.159	0.0156967
885.237	0.0158627
885.315	0.0157033
885.393	0.0156884
885.471	0.0157217
885.549	0.0156597
885.628	0.0156714
885.706	0.0158469
885.784	0.0157799
885.862	0.0156593
885.940	0.0157129
886.018	0.0156546
886.096	0.0156712
886.174	0.0157690
886.253	0.0155816
886.331	0.0156059
886.409	0.0157812
886.487	0.0158055
886.565	0.0157422
886.643	0.0157056
886.721	0.0156108
886.799	0.0156461
886.878	0.0156615
886.956	0.0155154
887.034	0.0156366
887.112	0.0156186
887.190	0.0156431
887.268	0.0156814
887.346	0.0156802
887.424	0.0155673
887.503	0.0155121
887.581	0.0157383
887.659	0.0155923
887.737	0.0155640
887.815	0.0155575
887.893	0.0157158
887.971	0.0156020
888.049	0.0156197
888.128	0.0156255
888.206	0.0155711
888.284	0.0156612
888.362	0.0156575
888.440	0.0157043
888.518	0.0156750
888.596	0.0155802
888.674	0.0155564
888.753	0.0156539
888.831	0.0155569
888.909	0.0157392
888.987	0.0155737
889.065	0.0156718
889.143	0.0157730
889.221	0.0157311
889.299	0.0157391
889.378	0.0156709
889.456	0.0157200
889.534	0.0156901
889.612	0.0158574
889.690	0.0157839
889.768	0.0156937
889.846	0.0157843
889.924	0.0157079
890.003	0.0157311
890.081	0.0158313
890.159	0.0156531
890.237	0.0155403
890.315	0.0157689
890.393	0.0157836
890.471	0.0156136
890.549	0.0156421
890.628	0.0156961
890.706	0.0156918
890.784	0.0156413
890.862	0.0157953
890.940	0.0156690
891.018	0.0156191
891.096	0.0158665
891.174	0.0158177
891.253	0.0157310
891.331	0.0157379
891.409	0.0155931
891.487	0.0156939
891.565	0.0155981
891.643	0.0158543
891.721	0.0157813
891.799	0.0156929
891.878	0.0156516
891.956	0.0156432
892.034	0.0156506
892.112	0.0157260
892.190	0.0157516
892.268	0.0157545
892.346	0.0158658
892.424	0.0157404
892.503	0.0157563
892.581	0.0158257
892.659	0.0157313
892.737	0.0157992
892.815	0.0157005
892.893	0.0157043
892.971	0.0157705
893.049	0.0157319
893.128	0.0158149
893.206	0.0158105
893.284	0.0157900
893.362	0.0158122
893.440	0.0157659
893.518	0.0157546
893.596	0.0156153
893.674	0.0158214
893.753	0.0158730
893.831	0.0158740
893.909	0.0156696
893.987	0.0157259
894.065	0.0157193
894.143	0.0156000
894.221	0.0158180
894.299	0.0157082
894.378	0.0158477
894.456	0.0157526
894.534	0.0157142
894.612	0.0156557
894.690	0.0157263
894.768	0.0157330
894.846	0.0156605
894.924	0.0156498
895.003	0.0156016
895.081	0.0156852
895.159	0.0155054
895.237	0.0155518
895.315	0.0156382
895.393	0.0155890
895.471	0.0154839
895.549	0.0155755
895.628	0.0154925
895.706	0.0155571
895.784	0.0154697
895.862	0.0154631
895.940	0.0154894
896.018	0.0155151
896.096	0.0155618
896.174	0.0155430
896.253	0.0153413
896.331	0.0155457
896.409	0.0155322
896.487	0.0155039
896.565	0.0155912
896.643	0.0155797
896.721	0.0153702
896.799	0.0155389
896.878	0.0153435
896.956	0.0153403
897.034	0.0153799
897.112	0.0153331
897.190	0.0154950
897.268	0.0154453
897.346	0.0153345
897.424	0.0153957
897.503	0.0152089
897.581	0.0153098
897.659	0.0154710
897.737	0.0153494
897.815	0.0153750
897.893	0.0153458
897.971	0.0152419
898.049	0.0153261
898.128	0.0154843
898.206	0.0152845
898.284	0.0152580
898.362	0.0153764
898.440	0.0153675
898.518	0.0153561
898.596	0.0153957
898.674	0.0154359
898.753	0.0152441
898.831	0.0152916
898.909	0.0154096
898.987	0.0153963
899.065	0.0153278
899.143	0.0153654
899.221	0.0154443
899.299	0.0154133
899.378	0.0154720
899.456	0.0155190
899.534	0.0154830
899.612	0.0154658
899.690	0.0154070
899.768	0.0153103
899.846	0.0154561
899.924	0.0155545
900.003	0.0154259
900.081	0.0154297
900.159	0.0155627
900.237	0.0155890
900.315	0.0154240
900.393	0.0154941
900.471	0.0155430
900.549	0.0156685
900.628	0.0157200
900.706	0.0154993
900.784	0.0156738
900.862	0.0155637
900.940	0.0155971
901.018	0.0155019
901.096	0.0155820
901.174	0.0155242
901.253	0.0154105
901.331	0.0155813
901.409	0.0155457
901.487	0.0155489
901.565	0.0155984
901.643	0.0154536
901.721	0.0155655
901.799	0.0155280
901.878	0.0155286
901.956	0.0154295
902.034	0.0154822
902.112	0.0154982
902.190	0.0155156
902.268	0.0154153
902.346	0.0155001
902.424	0.0155926
902.503	0.0156467
902.581	0.0155788
902.659	0.0157277
902.737	0.0155547
902.815	0.0155696
902.893	0.0155650
902.971	0.0156593
903.049	0.0155574
903.128	0.0156631
903.206	0.0157148
903.284	0.0156252
903.362	0.0157032
903.440	0.0156850
903.518	0.0156896
903.596	0.0158349
903.674	0.0156920
903.753	0.0154991
903.831	0.0157493
903.909	0.0157086
903.987	0.0157509
904.065	0.0155701
904.143	0.0156618
904.221	0.0156767
904.299	0.0156400
904.378	0.0158184
904.456	0.0156110
904.534	0.0156327
904.612	0.0156666
904.690	0.0156245
904.768	0.0156254
904.846	0.0156161
904.924	0.0155152
905.003	0.0156041
905.081	0.0155705
905.159	0.0155679
905.237	0.0155534
905.315	0.0156019
905.393	0.0156586
905.471	0.0156063
905.549	0.0155507
905.628	0.0155132
905.706	0.0156210
905.784	0.0155524
905.862	0.0156233
905.940	0.0156844
906.018	0.0155949
906.096	0.0157463
906.174	0.0157207
906.253	0.0157762
906.331	0.0157033
906.409	0.0156973
906.487	0.0156055
906.565	0.0157735
906.643	0.0157337
906.721	0.0158594
906.799	0.0159114
906.878	0.0157934
906.956	0.0157957
907.034	0.0157790
907.112	0.0157543
907.190	0.0157079
907.268	0.0157760
907.346	0.0159221
907.424	0.0157784
907.503	0.0158821
907.581	0.0158759
907.659	0.0156693
907.737	0.0156675
907.815	0.0157547
907.893	0.0157375
907.971	0.0158161
908.049	0.0156066
908.128	0.0156931
908.206	0.0157301
908.284	0.0156435
908.362	0.0156688
908.440	0.0157204
908.518	0.0156860
908.596	0.0156976
908.674	0.0157314
908.753	0.0157274
908.831	0.0156891
908.909	0.0157224
908.987	0.0156969
909.065	0.0156948
909.143	0.0157614
909.221	0.0159010
909.299	0.0156045
909.378	0.0157046
909.456	0.0156664
909.534	0.0156533
909.612	0.0157039
909.690	0.0156725
909.768	0.0156561
909.846	0.0156348
909.924	0.0156744
910.003	0.0155567
910.081	0.0156596
910.159	0.0158637
910.237	0.0158307
910.315	0.0156734
910.393	0.0157244
910.471	0.0158644
910.549	0.0158331
910.628	0.0157072
910.706	0.0157485
910.784	0.0157730
910.862	0.0157343
910.940	0.0157166
911.018	0.0158990
911.096	0.0158471
911.174	0.0156681
911.253	0.0158216
911.331	0.0157259
911.409	0.0158585
911.487	0.0157729
911.565	0.0157043
911.643	0.0158028
911.721	0.0158842
911.799	0.0157815
911.878	0.0157919
911.956	0.0158455
912.034	0.0157876
912.112	0.0157108
912.190	0.0157565
912.268	0.0158944
912.346	0.0157535
912.424	0.0157970
912.503	0.0157831
912.581	0.0158582
912.659	0.0158819
912.737	0.0159177
912.815	0.0159082
912.893	0.0159117
912.971	0.0158078
913.049	0.0160880
913.128	0.0159765
913.206	0.0159026
913.284	0.0159565
913.362	0.0159432
913.440	0.0158427
913.518	0.0157252
913.596	0.0158763
913.674	0.0158085
913.753	0.0158319
913.831	0.0158845
913.909	0.0159208
913.987	0.0160062
914.065	0.0159686
914.143	0.0158545
914.221	0.0157837
914.299	0.0158918
914.378	0.0158257
914.456	0.0158225
914.534	0.0158996
914.612	0.0158903
914.690	0.0158136
914.768	0.0158946
914.846	0.0159056
914.924	0.0158255
915.003	0.0158935
915.081	0.0158952
915.159	0.0158227
915.237	0.0158428
915.315	0.0159244
915.393	0.0158275
915.471	0.0159235
915.549	0.0158756
915.628	0.0158522
915.706	0.0158466
915.784	0.0159798
915.862	0.0158709
915.940	0.0158970
916.018	0.0159512
916.096	0.0158478
916.174	0.0158037
916.253	0.0159348
916.331	0.0158479
916.409	0.0157741
916.487	0.0158089
916.565	0.0158076
916.643	0.0159399
916.721	0.0158466
916.799	0.0158184
916.878	0.0158819
916.956	0.0158891
917.034	0.0157527
917.112	0.0159374
917.190	0.0158524
917.268	0.0158524
917.346	0.0157897
917.424	0.0158492
917.503	0.0157169
917.581	0.0155728
917.659	0.0156790
917.737	0.0156651
917.815	0.0156400
917.893	0.0156128
917.971	0.0155618
918.049	0.0154385
918.128	0.0155026
918.206	0.0154581
918.284	0.0153954
918.362	0.0154995
918.440	0.0154677
918.518	0.0154588
918.596	0.0154027
918.674	0.0152750
918.753	0.0152068
918.831	0.0153104
918.909	0.0152928
918.987	0.0152473
919.065	0.0152518
919.143	0.0152013
919.221	0.0150809
919.299	0.0153451
919.378	0.0152489
919.456	0.0152957
919.534	0.0153250
919.612	0.0152878
919.690	0.0152258
919.768	0.0152553
919.846	0.0152357
919.924	0.0152712
920.003	0.0151480
920.081	0.0153050
920.159	0.0151946
920.237	0.0152531
920.315	0.0154117
920.393	0.0153364
920.471	0.0154401
920.549	0.0152447
920.628	0.0152515
920.706	0.0152522
920.784	0.0154079
920.862	0.0152946
920.940	0.0154184
921.018	0.0153992
921.096	0.0153913
921.174	0.0151888
921.253	0.0154592
921.331	0.0153919
921.409	0.0153580
921.487	0.0154751
921.565	0.0153732
921.643	0.0153664
921.721	0.0153049
921.799	0.0153841
921.878	0.0152924
921.956	0.0153948
922.034	0.0152846
922.112	0.0154561
922.190	0.0154537
922.268	0.0153070
922.346	0.0153492
922.424	0.0154967
922.503	0.0154029
922.581	0.0153477
922.659	0.0154340
922.737	0.0153358
922.815	0.0152658
922.893	0.0156008
922.971	0.0155279
923.049	0.0153934
923.128	0.0154134
923.206	0.0155753
923.284	0.0154494
923.362	0.0154860
923.440	0.0155209
923.518	0.0155299
923.596	0.0154305
923.674	0.0155810
923.753	0.0155311
923.831	0.0155046
923.909	0.0156084
923.987	0.0156532
924.065	0.0155586
924.143	0.0156219
924.221	0.0156063
924.299	0.0156641
924.378	0.0156212
924.456	0.0156086
924.534	0.0156636
924.612	0.0156027
924.690	0.0156241
924.768	0.0156653
924.846	0.0156252
924.924	0.0155877
925.003	0.0155482
925.081	0.0155500
925.159	0.0156097
925.237	0.0156580
925.315	0.0154723
925.393	0.0156112
925.471	0.0156470
925.549	0.0156326
925.628	0.0156422
925.706	0.0154724
925.784	0.0154894
925.862	0.0156110
925.940	0.0156114
926.018	0.0155663
926.096	0.0155733
926.174	0.0156122
926.253	0.0156334
926.331	0.0156786
926.409	0.0155663
926.487	0.0154938
926.565	0.0156371
926.643	0.0156690
926.721	0.0155756
926.799	0.0156316
926.878	0.0156168
926.956	0.0156475
927.034	0.0158170
927.112	0.0156962
927.190	0.0156687
927.268	0.0157115
927.346	0.0156917
927.424	0.0155910
927.503	0.0157834
927.581	0.0157040
927.659	0.0159048
927.737	0.0156745
927.815	0.0158011
927.893	0.0158101
927.971	0.0158810
928.049	0.0158080
928.128	0.0157449
928.206	0.0158704
928.284	0.0157692
928.362	0.0159610
928.440	0.0158139
928.518	0.0158500
928.596	0.0157990
928.674	0.0158842
928.753	0.0158788
928.831	0.0156038
928.909	0.0156364
928.987	0.0157323
929.065	0.0155784
929.143	0.0157683
929.221	0.0157516
929.299	0.0156124
929.378	0.0156284
929.456	0.0156062
929.534	0.0154237
929.612	0.0155138
929.690	0.0157798
929.768	0.0155650
929.846	0.0156322
929.924	0.0156293
930.003	0.0155637
930.081	0.0155135
930.159	0.0156157
930.237	0.0155674
930.315	0.0156974
930.393	0.0156898
930.471	0.0156761
930.549	0.0156247
930.628	0.0155326
930.706	0.0155951
930.784	0.0156906
930.862	0.0155733
930.940	0.0157599
931.018	0.0155930
931.096	0.0155460
931.174	0.0156307
931.253	0.0156680
931.331	0.0157201
931.409	0.0157538
931.487	0.0156640
931.565	0.0156951
931.643	0.0155814
931.721	0.0156450
931.799	0.0157085
931.878	0.0156660
931.956	0.0156180
932.034	0.0157518
932.112	0.0157759
932.190	0.0155320
932.268	0.0156467
932.346	0.0156326
932.424	0.0156551
932.503	0.0155900
932.581	0.0155441
932.659	0.0157365
932.737	0.0157182
932.815	0.0154890
932.893	0.0156100
932.971	0.0156186
933.049	0.0155699
933.128	0.0156262
933.206	0.0155398
933.284	0.0156387
933.362	0.0157018
933.440	0.0155883
933.518	0.0157368
933.596	0.0158122
933.674	0.0157238
933.753	0.0155954
933.831	0.0156981
933.909	0.0157047
933.987	0.0156401
934.065	0.0157541
934.143	0.0157565
934.221	0.0157841
934.299	0.0158195
934.378	0.0158100
934.456	0.0155875
934.534	0.0158621
934.612	0.0157359
934.690	0.0158958
934.768	0.0157549
934.846	0.0158211
934.924	0.0158280
935.003	0.0158177
935.081	0.0159317
935.159	0.0157489
935.237	0.0158538
935.315	0.0158340
935.393	0.0159136
935.471	0.0157633
935.549	0.0157922
935.628	0.0157500
935.706	0.0157281
935.784	0.0156673
935.862	0.0157156
935.940	0.0156058
936.018	0.0156342
936.096	0.0155647
936.174	0.0155784
936.253	0.0156871
936.331	0.0156582
936.409	0.0156126
936.487	0.0155282
936.565	0.0155665
936.643	0.0156056
936.721	0.0155389
936.799	0.0155862
936.878	0.0155843
936.956	0.0155175
937.034	0.0154504
937.112	0.0156910
937.190	0.0155390
937.268	0.0156130
937.346	0.0157188
937.424	0.0155638
937.503	0.0155956
937.581	0.0155790
937.659	0.0156272
937.737	0.0155594
937.815	0.0155338
937.893	0.0156229
937.971	0.0156954
938.049	0.0156483
938.128	0.0155453
938.206	0.0156507
938.284	0.0157701
938.362	0.0155682
938.440	0.0156497
938.518	0.0155917
938.596	0.0155684
938.674	0.0156166
938.753	0.0156174
938.831	0.0155978
938.909	0.0156326
938.987	0.0157137
939.065	0.0156300
939.143	0.0154663
939.221	0.0155628
939.299	0.0154976
939.378	0.0154932
939.456	0.0156335
939.534	0.0154545
939.612	0.0154790
939.690	0.0155054
939.768	0.0154774
939.846	0.0153558
939.924	0.0155003
940.003	0.0154346
940.081	0.0154649
940.159	0.0154553
940.237	0.0155280
940.315	0.0154527
940.393	0.0153391
940.471	0.0154718
940.549	0.0154367
940.628	0.0154470
940.706	0.0153658
940.784	0.0154527
940.862	0.0154631
940.940	0.0154627
941.018	0.0154714
941.096	0.0153993
941.174	0.0154227
941.253	0.0153564
941.331	0.0155781
941.409	0.0155817
941.487	0.0155035
941.565	0.0154455
941.643	0.0153281
941.721	0.0153997
941.799	0.0155212
941.878	0.0153987
941.956	0.0155264
942.034	0.0154677
942.112	0.0155573
942.190	0.0155227
942.268	0.0155466
942.346	0.0155709
942.424	0.0155098
942.503	0.0153635
942.581	0.0153432
942.659	0.0155454
942.737	0.0155009
942.815	0.0156021
942.893	0.0153735
942.971	0.0154443
943.049	0.0153731
943.128	0.0154131
943.206	0.0154358
943.284	0.0153418
943.362	0.0154720
943.440	0.0153629
943.518	0.0152477
943.596	0.0155155
943.674	0.0153848
943.753	0.0153443
943.831	0.0152717
943.909	0.0153963
943.987	0.0154964
944.065	0.0153204
944.143	0.0154461
944.221	0.0154385
944.299	0.0155589
944.378	0.0155132
944.456	0.0156395
944.534	0.0154385
944.612	0.0154140
944.690	0.0154160
944.768	0.0155938
944.846	0.0155852
944.924	0.0156250
945.003	0.0154787
945.081	0.0154449
945.159	0.0155798
945.237	0.0156601
945.315	0.0156030
945.393	0.0155940
945.471	0.0155190
945.549	0.0156676
945.628	0.0155506
945.706	0.0154499
945.784	0.0157173
945.862	0.0155770
945.940	0.0154529
946.018	0.0155872
946.096	0.0157005
946.174	0.0156100
946.253	0.0156335
946.331	0.0156326
946.409	0.0155555
946.487	0.0156950
946.565	0.0155891
946.643	0.0156310
946.721	0.0155758
946.799	0.0154383
946.878	0.0154587
946.956	0.0155046
947.034	0.0155559
947.112	0.0155308
947.190	0.0154728
947.268	0.0155430
947.346	0.0154386
947.424	0.0156886
947.503	0.0155415
947.581	0.0155600
947.659	0.0154212
947.737	0.0155438
947.815	0.0154821
947.893	0.0154581
947.971	0.0155287
948.049	0.0156537
948.128	0.0155328
948.206	0.0155659
948.284	0.0156156
948.362	0.0156873
948.440	0.0156575
948.518	0.0156175
948.596	0.0156270
948.674	0.0156432
948.753	0.0156938
948.831	0.0156923
948.909	0.0156194
948.987	0.0158242
949.065	0.0157552
949.143	0.0156561
949.221	0.0155733
949.299	0.0156229
949.378	0.0157651
949.456	0.0156804
949.534	0.0156892
949.612	0.0157037
949.690	0.0156956
949.768	0.0155963
949.846	0.0157139
949.924	0.0157043
