06/29/2022	23:20:41	Ver.	4.1	UNKNOWN
Optical Delay	630.002507	Delta X		0.078125	Sweeps	1	Scan Rate	0/0
Coordinates	Axis 1	NaN	Axis 2	NaN	Axis 3	NaN	Axis 4	NaN	Axis 5	NaN	Axis 6	0.000000
TX Power	0.000000	RX Power	0.000000

630.003	0.0158833
630.081	0.0156725
630.159	0.0157836
630.237	0.0158540
630.315	0.0158514
630.393	0.0156548
630.471	0.0157878
630.549	0.0157162
630.628	0.0157471
630.706	0.0158552
630.784	0.0158429
630.862	0.0157857
630.940	0.0158640
631.018	0.0159680
631.096	0.0158379
631.174	0.0158654
631.253	0.0159321
631.331	0.0158363
631.409	0.0159245
631.487	0.0158997
631.565	0.0158991
631.643	0.0159854
631.721	0.0160207
631.799	0.0158804
631.878	0.0158012
631.956	0.0158053
632.034	0.0158332
632.112	0.0158680
632.190	0.0160342
632.268	0.0157246
632.346	0.0158468
632.424	0.0159806
632.503	0.0157555
632.581	0.0157850
632.659	0.0159544
632.737	0.0158839
632.815	0.0158375
632.893	0.0157999
632.971	0.0157972
633.049	0.0158308
633.128	0.0157199
633.206	0.0158288
633.284	0.0157803
633.362	0.0157989
633.440	0.0157256
633.518	0.0158245
633.596	0.0158878
633.674	0.0157036
633.753	0.0158448
633.831	0.0158537
633.909	0.0158373
633.987	0.0158457
634.065	0.0157870
634.143	0.0157890
634.221	0.0158552
634.299	0.0159398
634.378	0.0159087
634.456	0.0157153
634.534	0.0157378
634.612	0.0157333
634.690	0.0157128
634.768	0.0158340
634.846	0.0157058
634.924	0.0159281
635.003	0.0158452
635.081	0.0158633
635.159	0.0158976
635.237	0.0156279
635.315	0.0157499
635.393	0.0157625
635.471	0.0157320
635.549	0.0158200
635.628	0.0157890
635.706	0.0158142
635.784	0.0157771
635.862	0.0158899
635.940	0.0159350
636.018	0.0157935
636.096	0.0157423
636.174	0.0159625
636.253	0.0159386
636.331	0.0157475
636.409	0.0158985
636.487	0.0159090
636.565	0.0159074
636.643	0.0157498
636.721	0.0158897
636.799	0.0158961
636.878	0.0159953
636.956	0.0159810
637.034	0.0158625
637.112	0.0159064
637.190	0.0160101
637.268	0.0159049
637.346	0.0160365
637.424	0.0159084
637.503	0.0159100
637.581	0.0159753
637.659	0.0160686
637.737	0.0158607
637.815	0.0159988
637.893	0.0161378
637.971	0.0158918
638.049	0.0158558
638.128	0.0158985
638.206	0.0157854
638.284	0.0159498
638.362	0.0158100
638.440	0.0160738
638.518	0.0159243
638.596	0.0159712
638.674	0.0158436
638.753	0.0159033
638.831	0.0158784
638.909	0.0160438
638.987	0.0158750
639.065	0.0158845
639.143	0.0159403
639.221	0.0159248
639.299	0.0157915
639.378	0.0159036
639.456	0.0158846
639.534	0.0158852
639.612	0.0158300
639.690	0.0158618
639.768	0.0159698
639.846	0.0159158
639.924	0.0158781
640.003	0.0158366
640.081	0.0159875
640.159	0.0160112
640.237	0.0159051
640.315	0.0157883
640.393	0.0160423
640.471	0.0159520
640.549	0.0157513
640.628	0.0159509
640.706	0.0159190
640.784	0.0159499
640.862	0.0158858
640.940	0.0158987
641.018	0.0159254
641.096	0.0158717
641.174	0.0157935
641.253	0.0159952
641.331	0.0160023
641.409	0.0158234
641.487	0.0157401
641.565	0.0159547
641.643	0.0159155
641.721	0.0158996
641.799	0.0157524
641.878	0.0158966
641.956	0.0159398
642.034	0.0157617
642.112	0.0158259
642.190	0.0159312
642.268	0.0158337
642.346	0.0158692
642.424	0.0158751
642.503	0.0158097
642.581	0.0158283
642.659	0.0157896
642.737	0.0158585
642.815	0.0158588
642.893	0.0158931
642.971	0.0158549
643.049	0.0158309
643.128	0.0158078
643.206	0.0159941
643.284	0.0157835
643.362	0.0158817
643.440	0.0158350
643.518	0.0158649
643.596	0.0159082
643.674	0.0159899
643.753	0.0157685
643.831	0.0158631
643.909	0.0157510
643.987	0.0157617
644.065	0.0157497
644.143	0.0158009
644.221	0.0158768
644.299	0.0158720
644.378	0.0158782
644.456	0.0158627
644.534	0.0157151
644.612	0.0157961
644.690	0.0158156
644.768	0.0158643
644.846	0.0157532
644.924	0.0158084
645.003	0.0157974
645.081	0.0157350
645.159	0.0158473
645.237	0.0158773
645.315	0.0157651
645.393	0.0157308
645.471	0.0157781
645.549	0.0158714
645.628	0.0157323
645.706	0.0158672
645.784	0.0158879
645.862	0.0158376
645.940	0.0157991
646.018	0.0158543
646.096	0.0157890
646.174	0.0159267
646.253	0.0158083
646.331	0.0158991
646.409	0.0157276
646.487	0.0158219
646.565	0.0159042
646.643	0.0158862
646.721	0.0158308
646.799	0.0157703
646.878	0.0158698
646.956	0.0158803
647.034	0.0158066
647.112	0.0158677
647.190	0.0157406
647.268	0.0158750
647.346	0.0158148
647.424	0.0158184
647.503	0.0157595
647.581	0.0156819
647.659	0.0157678
647.737	0.0157071
647.815	0.0157869
647.893	0.0156470
647.971	0.0156297
648.049	0.0158039
648.128	0.0158909
648.206	0.0159273
648.284	0.0158468
648.362	0.0157829
648.440	0.0158425
648.518	0.0157747
648.596	0.0159592
648.674	0.0158488
648.753	0.0158885
648.831	0.0160152
648.909	0.0160392
648.987	0.0158597
649.065	0.0159834
649.143	0.0160481
649.221	0.0159061
649.299	0.0160305
649.378	0.0158956
649.456	0.0159615
649.534	0.0159605
649.612	0.0158504
649.690	0.0159439
649.768	0.0158701
649.846	0.0159709
649.924	0.0159432
650.003	0.0159800
650.081	0.0158955
650.159	0.0160091
650.237	0.0162601
650.315	0.0160844
650.393	0.0161284
650.471	0.0160232
650.549	0.0159511
650.628	0.0160067
650.706	0.0160715
650.784	0.0160994
650.862	0.0160654
650.940	0.0161024
651.018	0.0159987
651.096	0.0160324
651.174	0.0160542
651.253	0.0160205
651.331	0.0160477
651.409	0.0160027
651.487	0.0159568
651.565	0.0160083
651.643	0.0161695
651.721	0.0160227
651.799	0.0158956
651.878	0.0160105
651.956	0.0160643
652.034	0.0159666
652.112	0.0160010
652.190	0.0160386
652.268	0.0160042
652.346	0.0160063
652.424	0.0160240
652.503	0.0160547
652.581	0.0160410
652.659	0.0160411
652.737	0.0159637
652.815	0.0159910
652.893	0.0159232
652.971	0.0160402
653.049	0.0158823
653.128	0.0159869
653.206	0.0158456
653.284	0.0159684
653.362	0.0161328
653.440	0.0159523
653.518	0.0158904
653.596	0.0159209
653.674	0.0159163
653.753	0.0158329
653.831	0.0159314
653.909	0.0158675
653.987	0.0158966
654.065	0.0159245
654.143	0.0159100
654.221	0.0159785
654.299	0.0159483
654.378	0.0157579
654.456	0.0157875
654.534	0.0157296
654.612	0.0157763
654.690	0.0158598
654.768	0.0157395
654.846	0.0158030
654.924	0.0158575
655.003	0.0158043
655.081	0.0156731
655.159	0.0156184
655.237	0.0157872
655.315	0.0157433
655.393	0.0156554
655.471	0.0156953
655.549	0.0157991
655.628	0.0156618
655.706	0.0158342
655.784	0.0160019
655.862	0.0158104
655.940	0.0157062
656.018	0.0157991
656.096	0.0158659
656.174	0.0156338
656.253	0.0156584
656.331	0.0157167
656.409	0.0158702
656.487	0.0157578
656.565	0.0156998
656.643	0.0157041
656.721	0.0156857
656.799	0.0158495
656.878	0.0156910
656.956	0.0157616
657.034	0.0156995
657.112	0.0157642
657.190	0.0157944
657.268	0.0156830
657.346	0.0157610
657.424	0.0157582
657.503	0.0157962
657.581	0.0157079
657.659	0.0156429
657.737	0.0157688
657.815	0.0156863
657.893	0.0158038
657.971	0.0157415
658.049	0.0157108
658.128	0.0157877
658.206	0.0158398
658.284	0.0156139
658.362	0.0157818
658.440	0.0156878
658.518	0.0157689
658.596	0.0157629
658.674	0.0157375
658.753	0.0156712
658.831	0.0157327
658.909	0.0158170
658.987	0.0157648
659.065	0.0157242
659.143	0.0157101
659.221	0.0157047
659.299	0.0157562
659.378	0.0158017
659.456	0.0157597
659.534	0.0157752
659.612	0.0157496
659.690	0.0157783
659.768	0.0157352
659.846	0.0158157
659.924	0.0158380
660.003	0.0158126
660.081	0.0157228
660.159	0.0156788
660.237	0.0157673
660.315	0.0156914
660.393	0.0158236
660.471	0.0157234
660.549	0.0157642
660.628	0.0158813
660.706	0.0157754
660.784	0.0157888
660.862	0.0157936
660.940	0.0159090
661.018	0.0159351
661.096	0.0157494
661.174	0.0158325
661.253	0.0159032
661.331	0.0159014
661.409	0.0157947
661.487	0.0158416
661.565	0.0158234
661.643	0.0157796
661.721	0.0158983
661.799	0.0159374
661.878	0.0156860
661.956	0.0158705
662.034	0.0160844
662.112	0.0159570
662.190	0.0157092
662.268	0.0158633
662.346	0.0159978
662.424	0.0158360
662.503	0.0158877
662.581	0.0159060
662.659	0.0157619
662.737	0.0157722
662.815	0.0158202
662.893	0.0157252
662.971	0.0158022
663.049	0.0157304
663.128	0.0158025
663.206	0.0158215
663.284	0.0157358
663.362	0.0157506
663.440	0.0157745
663.518	0.0158136
663.596	0.0156963
663.674	0.0157951
663.753	0.0157475
663.831	0.0156476
663.909	0.0157018
663.987	0.0157446
664.065	0.0157643
664.143	0.0157596
664.221	0.0155089
664.299	0.0157164
664.378	0.0157653
664.456	0.0158318
664.534	0.0157292
664.612	0.0156826
664.690	0.0155949
664.768	0.0157440
664.846	0.0155643
664.924	0.0157497
665.003	0.0157056
665.081	0.0157199
665.159	0.0156212
665.237	0.0155859
665.315	0.0156527
665.393	0.0157468
665.471	0.0155588
665.549	0.0157381
665.628	0.0157072
665.706	0.0157383
665.784	0.0155759
665.862	0.0156714
665.940	0.0156065
666.018	0.0156889
666.096	0.0156412
666.174	0.0157280
666.253	0.0157881
666.331	0.0156448
666.409	0.0158879
666.487	0.0158148
666.565	0.0158203
666.643	0.0157431
666.721	0.0157841
666.799	0.0159113
666.878	0.0157684
666.956	0.0159054
667.034	0.0159311
667.112	0.0158554
667.190	0.0158687
667.268	0.0159324
667.346	0.0158318
667.424	0.0158163
667.503	0.0158641
667.581	0.0157817
667.659	0.0159608
667.737	0.0159825
667.815	0.0158395
667.893	0.0158648
667.971	0.0159272
668.049	0.0159492
668.128	0.0158645
668.206	0.0157790
668.284	0.0158735
668.362	0.0160051
668.440	0.0159310
668.518	0.0158524
668.596	0.0157819
668.674	0.0159642
668.753	0.0159656
668.831	0.0159400
668.909	0.0159689
668.987	0.0158208
669.065	0.0159295
669.143	0.0160456
669.221	0.0158001
669.299	0.0158635
669.378	0.0158531
669.456	0.0159161
669.534	0.0156436
669.612	0.0158612
669.690	0.0159100
669.768	0.0158591
669.846	0.0159267
669.924	0.0158661
670.003	0.0157354
670.081	0.0159198
670.159	0.0156425
670.237	0.0158088
670.315	0.0157625
670.393	0.0157353
670.471	0.0158387
670.549	0.0157611
670.628	0.0159065
670.706	0.0158334
670.784	0.0157902
670.862	0.0159164
670.940	0.0158468
671.018	0.0157816
671.096	0.0159368
671.174	0.0158481
671.253	0.0157772
671.331	0.0158421
671.409	0.0158015
671.487	0.0157902
671.565	0.0157518
671.643	0.0159612
671.721	0.0158582
671.799	0.0158147
671.878	0.0158340
671.956	0.0157697
672.034	0.0158065
672.112	0.0159492
672.190	0.0159756
672.268	0.0158463
672.346	0.0159406
672.424	0.0159349
672.503	0.0159155
672.581	0.0159273
672.659	0.0158387
672.737	0.0160231
672.815	0.0157835
672.893	0.0158910
672.971	0.0157845
673.049	0.0158586
673.128	0.0158440
673.206	0.0159866
673.284	0.0158263
673.362	0.0158898
673.440	0.0158046
673.518	0.0160251
673.596	0.0159555
673.674	0.0158849
673.753	0.0158974
673.831	0.0158338
673.909	0.0160805
673.987	0.0161228
674.065	0.0158947
674.143	0.0158165
674.221	0.0158730
674.299	0.0159558
674.378	0.0158241
674.456	0.0158017
674.534	0.0159728
674.612	0.0158992
674.690	0.0159869
674.768	0.0158427
674.846	0.0158881
674.924	0.0157794
675.003	0.0158038
675.081	0.0158154
675.159	0.0159900
675.237	0.0160166
675.315	0.0158508
675.393	0.0158263
675.471	0.0158252
675.549	0.0158752
675.628	0.0158391
675.706	0.0157649
675.784	0.0158852
675.862	0.0158041
675.940	0.0158307
676.018	0.0160220
676.096	0.0157613
676.174	0.0158050
676.253	0.0158656
676.331	0.0158241
676.409	0.0157705
676.487	0.0157788
676.565	0.0158849
676.643	0.0160622
676.721	0.0158620
676.799	0.0159261
676.878	0.0158325
676.956	0.0158099
677.034	0.0157938
677.112	0.0158173
677.190	0.0157942
677.268	0.0158424
677.346	0.0156707
677.424	0.0156751
677.503	0.0157827
677.581	0.0159340
677.659	0.0158211
677.737	0.0157774
677.815	0.0157244
677.893	0.0156245
677.971	0.0157101
678.049	0.0158481
678.128	0.0158065
678.206	0.0157891
678.284	0.0157845
678.362	0.0158199
678.440	0.0158470
678.518	0.0157856
678.596	0.0157993
678.674	0.0157167
678.753	0.0157710
678.831	0.0158450
678.909	0.0156524
678.987	0.0158015
679.065	0.0158212
679.143	0.0157085
679.221	0.0157017
679.299	0.0157374
679.378	0.0157483
679.456	0.0157582
679.534	0.0158216
679.612	0.0157796
679.690	0.0158752
679.768	0.0158042
679.846	0.0157251
679.924	0.0157391
680.003	0.0158042
680.081	0.0157594
680.159	0.0159092
680.237	0.0158620
680.315	0.0157275
680.393	0.0157285
680.471	0.0157019
680.549	0.0157341
680.628	0.0159017
680.706	0.0157536
680.784	0.0157752
680.862	0.0158241
680.940	0.0157806
681.018	0.0157817
681.096	0.0157172
681.174	0.0157624
681.253	0.0158713
681.331	0.0157946
681.409	0.0158258
681.487	0.0158098
681.565	0.0156493
681.643	0.0158881
681.721	0.0158854
681.799	0.0157246
681.878	0.0156281
681.956	0.0156775
682.034	0.0156635
682.112	0.0159396
682.190	0.0157970
682.268	0.0158695
682.346	0.0158012
682.424	0.0157410
682.503	0.0157688
682.581	0.0157753
682.659	0.0157835
682.737	0.0158409
682.815	0.0157533
682.893	0.0157574
682.971	0.0157722
683.049	0.0156874
683.128	0.0157654
683.206	0.0158727
683.284	0.0156762
683.362	0.0156263
683.440	0.0157121
683.518	0.0157166
683.596	0.0157134
683.674	0.0157312
683.753	0.0157147
683.831	0.0158688
683.909	0.0156204
683.987	0.0156751
684.065	0.0158539
684.143	0.0158637
684.221	0.0157835
684.299	0.0156155
684.378	0.0155564
684.456	0.0157169
684.534	0.0156671
684.612	0.0157400
684.690	0.0156199
684.768	0.0156602
684.846	0.0156129
684.924	0.0156597
685.003	0.0156854
685.081	0.0155986
685.159	0.0157005
685.237	0.0157195
685.315	0.0158047
685.393	0.0157191
685.471	0.0157955
685.549	0.0157437
685.628	0.0156854
685.706	0.0157673
685.784	0.0156737
685.862	0.0158775
685.940	0.0157701
686.018	0.0157693
686.096	0.0157714
686.174	0.0157922
686.253	0.0158334
686.331	0.0157660
686.409	0.0157674
686.487	0.0157723
686.565	0.0158381
686.643	0.0156925
686.721	0.0158929
686.799	0.0158597
686.878	0.0158803
686.956	0.0157949
687.034	0.0157897
687.112	0.0156455
687.190	0.0157594
687.268	0.0157269
687.346	0.0158135
687.424	0.0158368
687.503	0.0158786
687.581	0.0157715
687.659	0.0158246
687.737	0.0158115
687.815	0.0157756
687.893	0.0158849
687.971	0.0157789
688.049	0.0158274
688.128	0.0159521
688.206	0.0159412
688.284	0.0159489
688.362	0.0158827
688.440	0.0160366
688.518	0.0158926
688.596	0.0157945
688.674	0.0159801
688.753	0.0160278
688.831	0.0159701
688.909	0.0160921
688.987	0.0160124
689.065	0.0160408
689.143	0.0159875
689.221	0.0158031
689.299	0.0159695
689.378	0.0161122
689.456	0.0160148
689.534	0.0159480
689.612	0.0160110
689.690	0.0161510
689.768	0.0158620
689.846	0.0158447
689.924	0.0158547
690.003	0.0159550
690.081	0.0158170
690.159	0.0159084
690.237	0.0158395
690.315	0.0157747
690.393	0.0158696
690.471	0.0159553
690.549	0.0158710
690.628	0.0157294
690.706	0.0158071
690.784	0.0158292
690.862	0.0158427
690.940	0.0158736
691.018	0.0158466
691.096	0.0158670
691.174	0.0159695
691.253	0.0157159
691.331	0.0158524
691.409	0.0158062
691.487	0.0158459
691.565	0.0159003
691.643	0.0157944
691.721	0.0158716
691.799	0.0158000
691.878	0.0158846
691.956	0.0156996
692.034	0.0157913
692.112	0.0158377
692.190	0.0157510
692.268	0.0157601
692.346	0.0158531
692.424	0.0157147
692.503	0.0157072
692.581	0.0156296
692.659	0.0155785
692.737	0.0157706
692.815	0.0158174
692.893	0.0157413
692.971	0.0157227
693.049	0.0156751
693.128	0.0156230
693.206	0.0156251
693.284	0.0157409
693.362	0.0157978
693.440	0.0158229
693.518	0.0157654
693.596	0.0158851
693.674	0.0158846
693.753	0.0157793
693.831	0.0158127
693.909	0.0158573
693.987	0.0157980
694.065	0.0157849
694.143	0.0159044
694.221	0.0158349
694.299	0.0157590
694.378	0.0157455
694.456	0.0156769
694.534	0.0157736
694.612	0.0158587
694.690	0.0157655
694.768	0.0157880
694.846	0.0157278
694.924	0.0156126
695.003	0.0157085
695.081	0.0157104
695.159	0.0157245
695.237	0.0156652
695.315	0.0155716
695.393	0.0155821
695.471	0.0156444
695.549	0.0156250
695.628	0.0156236
695.706	0.0157362
695.784	0.0158037
695.862	0.0157581
695.940	0.0157452
696.018	0.0158176
696.096	0.0157031
696.174	0.0158269
696.253	0.0157855
696.331	0.0158999
696.409	0.0159184
696.487	0.0159048
696.565	0.0159555
696.643	0.0158823
696.721	0.0159657
696.799	0.0158434
696.878	0.0157742
696.956	0.0158505
697.034	0.0158245
697.112	0.0158507
697.190	0.0159063
697.268	0.0158008
697.346	0.0158842
697.424	0.0157829
697.503	0.0158981
697.581	0.0158194
697.659	0.0159065
697.737	0.0158998
697.815	0.0158699
697.893	0.0159408
697.971	0.0158231
698.049	0.0158540
698.128	0.0158678
698.206	0.0159430
698.284	0.0159398
698.362	0.0159889
698.440	0.0160119
698.518	0.0159330
698.596	0.0160671
698.674	0.0159929
698.753	0.0160395
698.831	0.0161108
698.909	0.0160904
698.987	0.0160487
699.065	0.0159726
699.143	0.0158858
699.221	0.0159269
699.299	0.0159909
699.378	0.0159177
699.456	0.0160434
699.534	0.0158911
699.612	0.0158707
699.690	0.0158768
699.768	0.0159041
699.846	0.0159112
699.924	0.0160079
700.003	0.0160091
700.081	0.0159500
700.159	0.0159944
700.237	0.0159793
700.315	0.0160455
700.393	0.0160304
700.471	0.0160694
700.549	0.0161208
700.628	0.0159921
700.706	0.0160170
700.784	0.0161234
700.862	0.0159769
700.940	0.0160421
701.018	0.0161057
701.096	0.0161603
701.174	0.0160468
701.253	0.0161484
701.331	0.0159363
701.409	0.0160696
701.487	0.0160234
701.565	0.0158693
701.643	0.0162034
701.721	0.0160423
701.799	0.0158932
701.878	0.0159881
701.956	0.0159602
702.034	0.0159203
702.112	0.0158412
702.190	0.0158105
702.268	0.0159608
702.346	0.0159286
702.424	0.0158808
702.503	0.0159499
702.581	0.0158736
702.659	0.0159632
702.737	0.0158385
702.815	0.0159338
702.893	0.0158986
702.971	0.0159013
703.049	0.0158141
703.128	0.0157610
703.206	0.0158149
703.284	0.0158287
703.362	0.0158884
703.440	0.0157659
703.518	0.0157242
703.596	0.0157951
703.674	0.0158894
703.753	0.0157307
703.831	0.0157946
703.909	0.0158163
703.987	0.0159737
704.065	0.0158292
704.143	0.0158967
704.221	0.0159408
704.299	0.0159022
704.378	0.0158261
704.456	0.0159766
704.534	0.0159749
704.612	0.0158102
704.690	0.0158895
704.768	0.0158853
704.846	0.0158588
704.924	0.0158374
705.003	0.0159078
705.081	0.0158487
705.159	0.0157381
705.237	0.0159241
705.315	0.0158706
705.393	0.0157470
705.471	0.0157689
705.549	0.0157886
705.628	0.0156141
705.706	0.0156776
705.784	0.0158274
705.862	0.0157207
705.940	0.0155199
706.018	0.0155848
706.096	0.0156300
706.174	0.0156999
706.253	0.0156962
706.331	0.0156902
706.409	0.0156767
706.487	0.0157401
706.565	0.0157545
706.643	0.0158584
706.721	0.0158307
706.799	0.0156881
706.878	0.0158030
706.956	0.0155740
707.034	0.0155050
707.112	0.0156660
707.190	0.0156843
707.268	0.0157059
707.346	0.0155585
707.424	0.0156277
707.503	0.0157039
707.581	0.0157332
707.659	0.0155402
707.737	0.0154860
707.815	0.0156942
707.893	0.0156222
707.971	0.0157248
708.049	0.0157236
708.128	0.0158221
708.206	0.0160210
708.284	0.0160146
708.362	0.0159516
708.440	0.0160548
708.518	0.0161239
708.596	0.0159438
708.674	0.0161269
708.753	0.0160558
708.831	0.0160135
708.909	0.0162066
708.987	0.0162407
709.065	0.0160616
709.143	0.0159382
709.221	0.0160134
709.299	0.0159404
709.378	0.0160861
709.456	0.0158320
709.534	0.0159102
709.612	0.0158747
709.690	0.0156403
709.768	0.0157887
709.846	0.0157423
709.924	0.0157221
710.003	0.0157219
710.081	0.0157382
710.159	0.0157127
710.237	0.0155360
710.315	0.0155276
710.393	0.0155884
710.471	0.0156013
710.549	0.0156844
710.628	0.0155296
710.706	0.0156504
710.784	0.0155509
710.862	0.0156576
710.940	0.0154832
711.018	0.0156294
711.096	0.0157647
711.174	0.0155537
711.253	0.0157019
711.331	0.0156988
711.409	0.0156324
711.487	0.0156098
711.565	0.0158530
711.643	0.0159332
711.721	0.0158741
711.799	0.0158044
711.878	0.0158785
711.956	0.0160955
712.034	0.0162760
712.112	0.0160699
712.190	0.0162448
712.268	0.0162545
712.346	0.0163113
712.424	0.0161878
712.503	0.0162019
712.581	0.0161706
712.659	0.0163516
712.737	0.0162386
712.815	0.0161491
712.893	0.0161579
712.971	0.0161915
713.049	0.0161642
713.128	0.0160730
713.206	0.0160617
713.284	0.0159205
713.362	0.0159355
713.440	0.0159789
713.518	0.0159310
713.596	0.0159854
713.674	0.0159335
713.753	0.0159154
713.831	0.0158678
713.909	0.0158126
713.987	0.0157581
714.065	0.0158793
714.143	0.0158056
714.221	0.0158178
714.299	0.0159283
714.378	0.0156781
714.456	0.0157911
714.534	0.0157909
714.612	0.0158227
714.690	0.0158965
714.768	0.0159534
714.846	0.0158638
714.924	0.0158879
715.003	0.0157726
715.081	0.0158774
715.159	0.0159045
715.237	0.0159389
715.315	0.0160503
715.393	0.0162008
715.471	0.0160966
715.549	0.0160490
715.628	0.0161947
715.706	0.0162411
715.784	0.0161121
715.862	0.0160933
715.940	0.0161890
716.018	0.0160113
716.096	0.0161905
716.174	0.0160738
716.253	0.0160223
716.331	0.0161037
716.409	0.0161132
716.487	0.0160759
716.565	0.0159719
716.643	0.0159977
716.721	0.0159272
716.799	0.0160233
716.878	0.0159290
716.956	0.0157711
717.034	0.0158824
717.112	0.0156887
717.190	0.0156158
717.268	0.0156973
717.346	0.0157494
717.424	0.0156754
717.503	0.0155628
717.581	0.0156478
717.659	0.0155437
717.737	0.0154899
717.815	0.0155757
717.893	0.0154244
717.971	0.0154824
718.049	0.0156157
718.128	0.0156763
718.206	0.0155672
718.284	0.0154862
718.362	0.0156693
718.440	0.0158356
718.518	0.0159152
718.596	0.0160102
718.674	0.0160184
718.753	0.0162247
718.831	0.0162991
718.909	0.0162505
718.987	0.0163639
719.065	0.0163351
719.143	0.0163403
719.221	0.0164417
719.299	0.0161846
719.378	0.0163059
719.456	0.0163799
719.534	0.0161281
719.612	0.0159733
719.690	0.0160123
719.768	0.0160145
719.846	0.0159832
719.924	0.0159409
720.003	0.0156711
720.081	0.0156991
720.159	0.0156934
720.237	0.0156985
720.315	0.0154243
720.393	0.0154267
720.471	0.0154827
720.549	0.0154777
720.628	0.0155081
720.706	0.0154641
720.784	0.0154742
720.862	0.0153653
720.940	0.0155252
721.018	0.0155174
721.096	0.0156458
721.174	0.0155910
721.253	0.0155630
721.331	0.0155870
721.409	0.0158339
721.487	0.0157539
721.565	0.0157716
721.643	0.0158689
721.721	0.0159627
721.799	0.0160292
721.878	0.0161603
721.956	0.0161459
722.034	0.0160619
722.112	0.0161869
722.190	0.0162698
722.268	0.0163630
722.346	0.0164619
722.424	0.0163793
722.503	0.0164266
722.581	0.0165571
722.659	0.0165251
722.737	0.0164510
722.815	0.0166447
722.893	0.0165414
722.971	0.0165683
723.049	0.0164550
723.128	0.0163771
723.206	0.0165002
723.284	0.0164574
723.362	0.0163933
723.440	0.0162446
723.518	0.0162934
723.596	0.0159910
723.674	0.0159029
723.753	0.0159064
723.831	0.0158230
723.909	0.0157273
723.987	0.0157482
724.065	0.0155797
724.143	0.0155594
724.221	0.0154199
724.299	0.0154160
724.378	0.0153188
724.456	0.0152770
724.534	0.0152451
724.612	0.0152779
724.690	0.0153561
724.768	0.0152610
724.846	0.0153148
724.924	0.0154316
725.003	0.0154060
725.081	0.0154704
725.159	0.0154932
725.237	0.0156077
725.315	0.0157399
725.393	0.0156979
725.471	0.0158231
725.549	0.0159373
725.628	0.0160201
725.706	0.0162517
725.784	0.0162612
725.862	0.0162622
725.940	0.0163012
726.018	0.0164261
726.096	0.0164882
726.174	0.0164457
726.253	0.0166132
726.331	0.0165889
726.409	0.0166010
726.487	0.0165749
726.565	0.0166220
726.643	0.0166281
726.721	0.0166368
726.799	0.0167107
726.878	0.0165276
726.956	0.0163909
727.034	0.0162726
727.112	0.0162453
727.190	0.0160869
727.268	0.0158142
727.346	0.0157698
727.424	0.0156046
727.503	0.0154493
727.581	0.0154425
727.659	0.0152076
727.737	0.0148933
727.815	0.0150108
727.893	0.0148306
727.971	0.0147504
728.049	0.0148046
728.128	0.0147267
728.206	0.0146989
728.284	0.0146930
728.362	0.0146689
728.440	0.0147894
728.518	0.0147320
728.596	0.0147661
728.674	0.0149155
728.753	0.0149918
728.831	0.0150865
728.909	0.0151749
728.987	0.0153761
729.065	0.0156686
729.143	0.0155335
729.221	0.0157984
729.299	0.0158725
729.378	0.0160665
729.456	0.0161409
729.534	0.0162019
729.612	0.0163873
729.690	0.0164173
729.768	0.0164051
729.846	0.0166511
729.924	0.0167682
730.003	0.0167878
730.081	0.0166526
730.159	0.0167068
730.237	0.0166975
730.315	0.0167467
730.393	0.0165845
730.471	0.0165511
730.549	0.0165244
730.628	0.0163718
730.706	0.0163416
730.784	0.0160246
730.862	0.0160217
730.940	0.0158476
731.018	0.0156717
731.096	0.0155266
731.174	0.0154771
731.253	0.0152484
731.331	0.0151443
731.409	0.0150902
731.487	0.0149961
731.565	0.0150067
731.643	0.0147089
731.721	0.0147235
731.799	0.0146676
731.878	0.0147031
731.956	0.0146464
732.034	0.0147162
732.112	0.0147417
732.190	0.0148415
732.268	0.0149721
732.346	0.0149844
732.424	0.0151088
732.503	0.0153818
732.581	0.0154253
732.659	0.0154199
732.737	0.0156574
732.815	0.0158073
732.893	0.0158551
732.971	0.0159600
733.049	0.0160771
733.128	0.0162156
733.206	0.0164750
733.284	0.0165120
733.362	0.0166270
733.440	0.0166389
733.518	0.0167602
733.596	0.0167356
733.674	0.0168066
733.753	0.0166032
733.831	0.0166997
733.909	0.0166011
733.987	0.0165491
734.065	0.0164312
734.143	0.0163541
734.221	0.0162550
734.299	0.0162180
734.378	0.0160223
734.456	0.0161044
734.534	0.0157733
734.612	0.0157696
734.690	0.0156554
734.768	0.0156725
734.846	0.0155385
734.924	0.0153355
735.003	0.0152425
735.081	0.0153548
735.159	0.0152492
735.237	0.0152661
735.315	0.0151039
735.393	0.0151643
735.471	0.0152317
735.549	0.0152480
735.628	0.0153825
735.706	0.0151272
735.784	0.0154850
735.862	0.0155903
735.940	0.0154724
736.018	0.0154884
736.096	0.0156673
736.174	0.0156670
736.253	0.0157636
736.331	0.0159736
736.409	0.0159737
736.487	0.0160213
736.565	0.0160822
736.643	0.0163049
736.721	0.0161171
736.799	0.0164390
736.878	0.0164310
736.956	0.0163624
737.034	0.0164116
737.112	0.0163430
737.190	0.0164859
737.268	0.0164796
737.346	0.0161580
737.424	0.0162206
737.503	0.0162521
737.581	0.0162189
737.659	0.0161366
737.737	0.0159599
737.815	0.0159056
737.893	0.0156908
737.971	0.0156669
738.049	0.0155682
738.128	0.0154985
738.206	0.0152763
738.284	0.0152604
738.362	0.0152210
738.440	0.0151228
738.518	0.0150720
738.596	0.0150578
738.674	0.0150258
738.753	0.0150302
738.831	0.0149478
738.909	0.0150311
738.987	0.0152229
739.065	0.0152320
739.143	0.0152390
739.221	0.0153783
739.299	0.0154604
739.378	0.0156784
739.456	0.0158626
739.534	0.0159984
739.612	0.0159377
739.690	0.0162790
739.768	0.0163412
739.846	0.0164095
739.924	0.0163892
740.003	0.0165603
740.081	0.0165382
740.159	0.0166715
740.237	0.0166677
740.315	0.0165887
740.393	0.0166345
740.471	0.0165564
740.549	0.0164366
740.628	0.0165026
740.706	0.0163346
740.784	0.0163400
740.862	0.0163175
740.940	0.0162299
741.018	0.0162077
741.096	0.0161506
741.174	0.0160970
741.253	0.0162080
741.331	0.0159049
741.409	0.0160573
741.487	0.0159695
741.565	0.0159396
741.643	0.0159071
741.721	0.0158103
741.799	0.0157151
741.878	0.0158536
741.956	0.0156849
742.034	0.0155604
742.112	0.0156470
742.190	0.0156915
742.268	0.0154503
742.346	0.0156057
742.424	0.0155942
742.503	0.0153840
742.581	0.0153745
742.659	0.0152769
742.737	0.0153403
742.815	0.0153033
742.893	0.0153766
742.971	0.0151563
743.049	0.0151164
743.128	0.0152300
743.206	0.0153992
743.284	0.0153458
743.362	0.0153231
743.440	0.0154144
743.518	0.0155051
743.596	0.0154733
743.674	0.0156866
743.753	0.0157475
743.831	0.0156879
743.909	0.0159565
743.987	0.0160961
744.065	0.0160622
744.143	0.0160630
744.221	0.0161623
744.299	0.0162811
744.378	0.0163712
744.456	0.0162994
744.534	0.0163306
744.612	0.0163911
744.690	0.0163018
744.768	0.0164348
744.846	0.0163152
744.924	0.0165533
745.003	0.0163580
745.081	0.0165189
745.159	0.0163832
745.237	0.0164011
745.315	0.0163564
745.393	0.0163380
745.471	0.0163953
745.549	0.0163151
745.628	0.0160614
745.706	0.0162371
745.784	0.0161779
745.862	0.0158502
745.940	0.0160527
746.018	0.0159566
746.096	0.0159380
746.174	0.0158161
746.253	0.0157474
746.331	0.0157650
746.409	0.0157719
746.487	0.0157812
746.565	0.0157298
746.643	0.0156989
746.721	0.0157745
746.799	0.0157880
746.878	0.0158694
746.956	0.0158247
747.034	0.0158078
747.112	0.0158511
747.190	0.0159805
747.268	0.0157444
747.346	0.0157154
747.424	0.0160388
747.503	0.0159049
747.581	0.0158823
747.659	0.0158971
747.737	0.0159212
747.815	0.0160458
747.893	0.0158505
747.971	0.0158213
748.049	0.0159042
748.128	0.0157661
748.206	0.0158504
748.284	0.0157674
748.362	0.0157465
748.440	0.0156872
748.518	0.0156509
748.596	0.0156348
748.674	0.0157471
748.753	0.0155859
748.831	0.0154975
748.909	0.0155257
748.987	0.0154551
749.065	0.0153394
749.143	0.0154501
749.221	0.0152784
749.299	0.0154269
749.378	0.0154587
749.456	0.0154178
749.534	0.0153585
749.612	0.0155382
749.690	0.0154794
749.768	0.0155245
749.846	0.0155057
749.924	0.0155253
750.003	0.0158009
750.081	0.0158344
750.159	0.0158928
750.237	0.0160126
750.315	0.0160889
750.393	0.0162249
750.471	0.0162282
750.549	0.0162374
750.628	0.0164198
750.706	0.0162849
750.784	0.0163744
750.862	0.0162997
750.940	0.0163371
751.018	0.0163110
751.096	0.0163891
751.174	0.0162640
751.253	0.0162151
751.331	0.0161898
751.409	0.0161491
751.487	0.0162609
751.565	0.0159596
751.643	0.0158765
751.721	0.0159791
751.799	0.0159878
751.878	0.0157599
751.956	0.0156823
752.034	0.0158174
752.112	0.0154932
752.190	0.0156070
752.268	0.0155998
752.346	0.0153448
752.424	0.0155862
752.503	0.0154307
752.581	0.0153113
752.659	0.0152971
752.737	0.0151720
752.815	0.0152412
752.893	0.0151975
752.971	0.0152025
753.049	0.0150957
753.128	0.0152005
753.206	0.0151279
753.284	0.0150758
753.362	0.0150961
753.440	0.0152348
753.518	0.0152216
753.596	0.0151562
753.674	0.0150917
753.753	0.0152254
753.831	0.0153590
753.909	0.0152715
753.987	0.0153261
754.065	0.0155160
754.143	0.0155746
754.221	0.0155044
754.299	0.0156132
754.378	0.0156844
754.456	0.0155840
754.534	0.0156928
754.612	0.0157014
754.690	0.0157566
754.768	0.0157024
754.846	0.0156403
754.924	0.0157684
755.003	0.0158308
755.081	0.0156718
755.159	0.0158228
755.237	0.0158179
755.315	0.0159564
755.393	0.0158426
755.471	0.0159092
755.549	0.0158689
755.628	0.0158456
755.706	0.0158000
755.784	0.0159703
755.862	0.0159162
755.940	0.0159421
756.018	0.0158061
756.096	0.0159350
756.174	0.0161140
756.253	0.0160241
756.331	0.0160601
756.409	0.0160082
756.487	0.0160212
756.565	0.0159900
756.643	0.0160754
756.721	0.0160697
756.799	0.0160005
756.878	0.0159669
756.956	0.0160490
757.034	0.0159737
757.112	0.0159039
757.190	0.0160102
757.268	0.0160068
757.346	0.0159299
757.424	0.0159096
757.503	0.0158040
757.581	0.0158047
757.659	0.0156964
757.737	0.0156374
757.815	0.0157533
757.893	0.0155816
757.971	0.0155978
758.049	0.0156096
758.128	0.0153926
758.206	0.0154539
758.284	0.0155262
758.362	0.0154563
758.440	0.0154823
758.518	0.0155606
758.596	0.0156670
758.674	0.0156364
758.753	0.0155479
758.831	0.0155320
758.909	0.0156982
758.987	0.0157891
759.065	0.0157664
759.143	0.0158046
759.221	0.0156990
759.299	0.0159803
759.378	0.0159088
759.456	0.0159007
759.534	0.0158022
759.612	0.0157061
759.690	0.0157404
759.768	0.0157249
759.846	0.0159692
759.924	0.0157993
760.003	0.0158077
760.081	0.0156357
760.159	0.0156912
760.237	0.0155189
760.315	0.0156184
760.393	0.0155478
760.471	0.0154884
760.549	0.0154987
760.628	0.0155648
760.706	0.0155966
760.784	0.0155296
760.862	0.0155861
760.940	0.0157095
761.018	0.0156319
761.096	0.0156821
761.174	0.0157716
761.253	0.0158123
761.331	0.0160179
761.409	0.0161183
761.487	0.0160954
761.565	0.0161922
761.643	0.0162469
761.721	0.0162117
761.799	0.0163061
761.878	0.0165525
761.956	0.0164893
762.034	0.0165726
762.112	0.0165482
762.190	0.0165477
762.268	0.0165080
762.346	0.0166156
762.424	0.0164732
762.503	0.0165151
762.581	0.0163902
762.659	0.0163051
762.737	0.0164659
762.815	0.0162669
762.893	0.0162782
762.971	0.0162031
763.049	0.0160512
763.128	0.0159419
763.206	0.0159512
763.284	0.0160382
763.362	0.0158307
763.440	0.0156565
763.518	0.0155670
763.596	0.0155802
763.674	0.0157341
763.753	0.0153634
763.831	0.0156303
763.909	0.0155093
763.987	0.0154025
764.065	0.0154996
764.143	0.0153540
764.221	0.0153453
764.299	0.0153691
764.378	0.0154016
764.456	0.0154845
764.534	0.0155536
764.612	0.0155737
764.690	0.0155650
764.768	0.0155462
764.846	0.0156281
764.924	0.0158164
765.003	0.0159333
765.081	0.0159399
765.159	0.0159489
765.237	0.0159039
765.315	0.0160556
765.393	0.0160425
765.471	0.0161255
765.549	0.0160500
765.628	0.0159990
765.706	0.0159679
765.784	0.0159685
765.862	0.0160581
765.940	0.0161047
766.018	0.0159727
766.096	0.0159084
766.174	0.0156995
766.253	0.0158038
766.331	0.0158619
766.409	0.0158391
766.487	0.0157890
766.565	0.0157135
766.643	0.0157425
766.721	0.0157307
766.799	0.0158508
766.878	0.0159339
766.956	0.0159908
767.034	0.0159076
767.112	0.0159804
767.190	0.0161439
767.268	0.0162988
767.346	0.0161729
767.424	0.0163874
767.503	0.0163300
767.581	0.0164582
767.659	0.0164077
767.737	0.0163909
767.815	0.0164678
767.893	0.0164804
767.971	0.0165390
768.049	0.0163617
768.128	0.0163988
768.206	0.0163733
768.284	0.0161309
768.362	0.0162332
768.440	0.0159978
768.518	0.0160191
768.596	0.0160083
768.674	0.0160078
768.753	0.0158855
768.831	0.0158030
768.909	0.0157072
768.987	0.0155554
769.065	0.0156536
769.143	0.0155437
769.221	0.0154787
769.299	0.0154874
769.378	0.0152080
769.456	0.0153792
769.534	0.0152448
769.612	0.0152795
769.690	0.0152322
769.768	0.0152550
769.846	0.0151572
769.924	0.0153452
770.003	0.0153596
770.081	0.0153022
770.159	0.0154438
770.237	0.0153639
770.315	0.0154745
770.393	0.0155531
770.471	0.0156503
770.549	0.0157131
770.628	0.0156187
770.706	0.0159009
770.784	0.0158279
770.862	0.0159313
770.940	0.0160897
771.018	0.0159412
771.096	0.0160661
771.174	0.0161520
771.253	0.0161080
771.331	0.0160478
771.409	0.0159527
771.487	0.0158849
771.565	0.0160318
771.643	0.0158550
771.721	0.0158965
771.799	0.0158265
771.878	0.0157871
771.956	0.0156821
772.034	0.0159174
772.112	0.0156174
772.190	0.0154452
772.268	0.0155891
772.346	0.0157071
772.424	0.0154583
772.503	0.0153694
772.581	0.0155233
772.659	0.0153832
772.737	0.0153760
772.815	0.0153741
772.893	0.0155238
772.971	0.0154554
773.049	0.0156876
773.128	0.0156647
773.206	0.0154080
773.284	0.0157870
773.362	0.0158461
773.440	0.0160475
773.518	0.0162131
773.596	0.0160078
773.674	0.0162284
773.753	0.0160980
773.831	0.0161122
773.909	0.0160730
773.987	0.0160818
774.065	0.0161655
774.143	0.0161318
774.221	0.0160426
774.299	0.0160756
774.378	0.0161452
774.456	0.0158847
774.534	0.0159430
774.612	0.0161632
774.690	0.0159377
774.768	0.0159231
774.846	0.0159254
774.924	0.0158144
775.003	0.0158871
775.081	0.0157904
775.159	0.0158762
775.237	0.0157588
775.315	0.0156549
775.393	0.0155817
775.471	0.0155698
775.549	0.0156582
775.628	0.0156236
775.706	0.0155462
775.784	0.0156062
775.862	0.0156099
775.940	0.0156541
776.018	0.0156084
776.096	0.0155914
776.174	0.0156020
776.253	0.0157252
776.331	0.0157745
776.409	0.0157504
776.487	0.0158607
776.565	0.0157907
776.643	0.0159296
776.721	0.0158936
776.799	0.0158675
776.878	0.0157834
776.956	0.0157903
777.034	0.0158540
777.112	0.0160028
777.190	0.0158572
777.268	0.0157019
777.346	0.0157352
777.424	0.0156859
777.503	0.0156576
777.581	0.0159192
777.659	0.0158456
777.737	0.0158053
777.815	0.0156628
777.893	0.0158179
777.971	0.0159703
778.049	0.0158266
778.128	0.0158272
778.206	0.0158996
778.284	0.0160042
778.362	0.0159349
778.440	0.0160156
778.518	0.0160312
778.596	0.0160638
778.674	0.0161528
778.753	0.0160409
778.831	0.0161093
778.909	0.0163159
778.987	0.0162071
779.065	0.0162968
779.143	0.0161437
779.221	0.0163143
779.299	0.0161127
779.378	0.0162821
779.456	0.0163642
779.534	0.0163493
779.612	0.0162392
779.690	0.0162671
779.768	0.0163332
779.846	0.0162854
779.924	0.0162037
780.003	0.0162116
780.081	0.0159871
780.159	0.0161112
780.237	0.0162353
780.315	0.0161309
780.393	0.0160929
780.471	0.0158332
780.549	0.0158237
780.628	0.0159174
780.706	0.0158871
780.784	0.0156168
780.862	0.0156200
780.940	0.0157195
781.018	0.0154929
781.096	0.0154388
781.174	0.0155329
781.253	0.0155007
781.331	0.0154532
781.409	0.0154093
781.487	0.0152930
781.565	0.0154787
781.643	0.0154762
781.721	0.0155427
781.799	0.0155601
781.878	0.0155964
781.956	0.0156319
782.034	0.0157225
782.112	0.0159424
782.190	0.0157482
782.268	0.0159892
782.346	0.0160674
782.424	0.0160538
782.503	0.0161375
782.581	0.0162196
782.659	0.0162263
782.737	0.0162022
782.815	0.0160854
782.893	0.0161582
782.971	0.0160980
783.049	0.0159294
783.128	0.0160285
783.206	0.0159959
783.284	0.0158701
783.362	0.0158173
783.440	0.0159447
783.518	0.0157581
783.596	0.0158125
783.674	0.0158938
783.753	0.0158699
783.831	0.0157494
783.909	0.0157969
783.987	0.0157328
784.065	0.0158228
784.143	0.0159219
784.221	0.0158048
784.299	0.0158467
784.378	0.0159007
784.456	0.0157946
784.534	0.0159639
784.612	0.0159085
784.690	0.0158147
784.768	0.0159053
784.846	0.0158867
784.924	0.0160081
785.003	0.0159414
785.081	0.0159328
785.159	0.0159361
785.237	0.0160275
785.315	0.0159048
785.393	0.0158231
785.471	0.0159917
785.549	0.0159366
785.628	0.0160035
785.706	0.0161121
785.784	0.0159741
785.862	0.0160360
785.940	0.0160520
786.018	0.0162294
786.096	0.0161994
786.174	0.0161361
786.253	0.0162148
786.331	0.0161483
786.409	0.0160291
786.487	0.0162029
786.565	0.0162596
786.643	0.0161987
786.721	0.0161349
786.799	0.0159586
786.878	0.0161189
786.956	0.0162234
787.034	0.0159622
787.112	0.0160036
787.190	0.0159325
787.268	0.0159291
787.346	0.0159267
787.424	0.0158454
787.503	0.0158833
787.581	0.0159369
787.659	0.0158689
787.737	0.0156989
787.815	0.0157470
787.893	0.0157136
787.971	0.0157145
788.049	0.0158483
788.128	0.0156987
788.206	0.0156642
788.284	0.0158016
788.362	0.0157614
788.440	0.0157003
788.518	0.0157072
788.596	0.0158466
788.674	0.0159110
788.753	0.0157903
788.831	0.0158585
788.909	0.0159310
788.987	0.0159171
789.065	0.0159946
789.143	0.0157713
789.221	0.0159570
789.299	0.0158261
789.378	0.0156907
789.456	0.0158911
789.534	0.0159219
789.612	0.0159116
789.690	0.0158929
789.768	0.0157283
789.846	0.0159727
789.924	0.0159845
790.003	0.0160703
790.081	0.0160645
790.159	0.0160475
790.237	0.0159671
790.315	0.0162222
790.393	0.0161066
790.471	0.0161194
790.549	0.0161515
790.628	0.0160081
790.706	0.0160857
790.784	0.0162386
790.862	0.0160363
790.940	0.0160542
791.018	0.0160509
791.096	0.0161067
791.174	0.0159998
791.253	0.0160492
791.331	0.0159354
791.409	0.0158944
791.487	0.0159164
791.565	0.0158166
791.643	0.0158385
791.721	0.0158006
791.799	0.0158142
791.878	0.0157877
791.956	0.0159120
792.034	0.0157732
792.112	0.0157130
792.190	0.0156930
792.268	0.0158871
792.346	0.0157372
792.424	0.0155776
792.503	0.0156190
792.581	0.0157224
792.659	0.0157070
792.737	0.0156891
792.815	0.0157532
792.893	0.0157178
792.971	0.0156577
793.049	0.0156660
793.128	0.0157400
793.206	0.0155008
793.284	0.0156547
793.362	0.0158369
793.440	0.0157066
793.518	0.0158168
793.596	0.0156667
793.674	0.0157408
793.753	0.0158785
793.831	0.0157497
793.909	0.0157383
793.987	0.0156640
794.065	0.0157334
794.143	0.0157547
794.221	0.0157600
794.299	0.0156638
794.378	0.0157581
794.456	0.0156924
794.534	0.0156700
794.612	0.0156592
794.690	0.0157100
794.768	0.0155753
794.846	0.0156981
794.924	0.0155895
795.003	0.0156371
795.081	0.0156871
795.159	0.0156229
795.237	0.0158130
795.315	0.0157214
795.393	0.0157799
795.471	0.0158202
795.549	0.0156754
795.628	0.0158199
795.706	0.0156985
795.784	0.0155875
795.862	0.0158694
795.940	0.0157268
796.018	0.0157613
796.096	0.0158092
796.174	0.0158688
796.253	0.0157264
796.331	0.0156982
796.409	0.0159370
796.487	0.0158992
796.565	0.0158772
796.643	0.0158497
796.721	0.0159363
796.799	0.0159253
796.878	0.0158888
796.956	0.0158089
797.034	0.0158704
797.112	0.0160135
797.190	0.0158915
797.268	0.0159667
797.346	0.0159590
797.424	0.0158505
797.503	0.0159956
797.581	0.0160233
797.659	0.0158422
797.737	0.0160081
797.815	0.0159586
797.893	0.0159094
797.971	0.0158898
798.049	0.0158805
798.128	0.0158938
798.206	0.0157961
798.284	0.0158865
798.362	0.0159066
798.440	0.0158377
798.518	0.0158732
798.596	0.0159081
798.674	0.0159317
798.753	0.0160659
798.831	0.0160611
798.909	0.0161377
798.987	0.0157944
799.065	0.0159097
799.143	0.0160405
799.221	0.0159772
799.299	0.0159985
799.378	0.0160772
799.456	0.0160678
799.534	0.0158991
799.612	0.0160594
799.690	0.0162403
799.768	0.0161969
799.846	0.0159868
799.924	0.0160311
800.003	0.0160572
800.081	0.0160824
800.159	0.0161376
800.237	0.0160028
800.315	0.0161470
800.393	0.0161001
800.471	0.0159234
800.549	0.0159678
800.628	0.0159061
800.706	0.0159911
800.784	0.0158352
800.862	0.0160262
800.940	0.0159734
801.018	0.0158846
801.096	0.0160154
801.174	0.0159319
801.253	0.0158477
801.331	0.0158011
801.409	0.0158691
801.487	0.0158136
801.565	0.0159232
801.643	0.0159024
801.721	0.0157418
801.799	0.0157874
801.878	0.0158897
801.956	0.0158083
802.034	0.0157364
802.112	0.0158253
802.190	0.0159457
802.268	0.0156246
802.346	0.0156796
802.424	0.0157833
802.503	0.0158421
802.581	0.0157541
802.659	0.0156274
802.737	0.0158289
802.815	0.0158279
802.893	0.0158315
802.971	0.0158340
803.049	0.0157389
803.128	0.0157478
803.206	0.0159340
803.284	0.0158068
803.362	0.0157738
803.440	0.0158197
803.518	0.0157394
803.596	0.0157869
803.674	0.0158497
803.753	0.0156927
803.831	0.0157549
803.909	0.0159180
803.987	0.0158996
804.065	0.0157912
804.143	0.0158221
804.221	0.0158524
804.299	0.0158734
804.378	0.0158112
804.456	0.0158362
804.534	0.0158255
804.612	0.0158272
804.690	0.0158226
804.768	0.0158389
804.846	0.0158070
804.924	0.0157308
805.003	0.0158096
805.081	0.0157421
805.159	0.0158143
805.237	0.0156496
805.315	0.0157435
805.393	0.0158186
805.471	0.0158318
805.549	0.0157507
805.628	0.0157866
805.706	0.0158707
805.784	0.0157695
805.862	0.0158480
805.940	0.0158900
806.018	0.0157608
806.096	0.0158263
806.174	0.0159624
806.253	0.0159306
806.331	0.0158932
806.409	0.0158157
806.487	0.0158105
806.565	0.0158962
806.643	0.0158842
806.721	0.0157943
806.799	0.0158205
806.878	0.0157221
806.956	0.0155929
807.034	0.0157333
807.112	0.0156566
807.190	0.0156972
807.268	0.0154996
807.346	0.0156264
807.424	0.0156582
807.503	0.0156274
807.581	0.0157428
807.659	0.0157039
807.737	0.0157294
807.815	0.0157508
807.893	0.0157478
807.971	0.0158310
808.049	0.0158163
808.128	0.0155904
808.206	0.0156993
808.284	0.0157778
808.362	0.0158084
808.440	0.0157718
808.518	0.0157560
808.596	0.0158244
808.674	0.0158427
808.753	0.0158222
808.831	0.0157845
808.909	0.0159307
808.987	0.0158806
809.065	0.0158073
809.143	0.0158620
809.221	0.0160260
809.299	0.0160236
809.378	0.0158366
809.456	0.0158192
809.534	0.0158773
809.612	0.0158694
809.690	0.0159349
809.768	0.0160341
809.846	0.0159586
809.924	0.0157849
810.003	0.0158429
810.081	0.0158841
810.159	0.0159185
810.237	0.0157232
810.315	0.0157886
810.393	0.0158750
810.471	0.0158062
810.549	0.0158853
810.628	0.0156330
810.706	0.0157097
810.784	0.0157042
810.862	0.0156261
810.940	0.0156792
811.018	0.0157965
811.096	0.0157268
811.174	0.0156501
811.253	0.0156738
811.331	0.0158083
811.409	0.0157551
811.487	0.0157364
811.565	0.0157583
811.643	0.0157800
811.721	0.0157440
811.799	0.0157083
811.878	0.0158484
811.956	0.0157618
812.034	0.0158562
812.112	0.0158348
812.190	0.0157812
812.268	0.0159603
812.346	0.0160429
812.424	0.0159668
812.503	0.0160080
812.581	0.0159794
812.659	0.0159563
812.737	0.0158151
812.815	0.0159893
812.893	0.0159550
812.971	0.0160309
813.049	0.0159024
813.128	0.0159414
813.206	0.0159054
813.284	0.0159541
813.362	0.0158214
813.440	0.0158774
813.518	0.0159319
813.596	0.0157854
813.674	0.0157927
813.753	0.0158679
813.831	0.0158372
813.909	0.0157556
813.987	0.0157160
814.065	0.0157196
814.143	0.0156956
814.221	0.0156367
814.299	0.0156064
814.378	0.0157837
814.456	0.0157481
814.534	0.0157227
814.612	0.0156686
814.690	0.0157801
814.768	0.0157717
814.846	0.0156902
814.924	0.0157156
815.003	0.0157031
815.081	0.0158182
815.159	0.0158665
815.237	0.0158671
815.315	0.0158181
815.393	0.0157504
815.471	0.0157774
815.549	0.0159684
815.628	0.0158865
815.706	0.0159229
815.784	0.0158463
815.862	0.0157846
815.940	0.0158723
816.018	0.0158400
816.096	0.0158243
816.174	0.0158781
816.253	0.0158157
816.331	0.0158968
816.409	0.0158659
816.487	0.0158118
816.565	0.0158705
816.643	0.0158623
816.721	0.0157316
816.799	0.0157787
816.878	0.0158258
816.956	0.0159255
817.034	0.0158310
817.112	0.0159575
817.190	0.0159055
817.268	0.0159511
817.346	0.0159301
817.424	0.0159520
817.503	0.0160567
817.581	0.0158609
817.659	0.0158571
817.737	0.0158978
817.815	0.0159478
817.893	0.0159313
817.971	0.0159715
818.049	0.0158899
818.128	0.0159521
818.206	0.0158905
818.284	0.0159792
818.362	0.0160461
818.440	0.0161121
818.518	0.0160294
818.596	0.0159364
818.674	0.0160603
818.753	0.0160462
818.831	0.0161148
818.909	0.0159113
818.987	0.0160244
819.065	0.0160246
819.143	0.0160497
819.221	0.0161130
819.299	0.0160931
819.378	0.0159608
819.456	0.0158927
819.534	0.0159820
819.612	0.0159480
819.690	0.0159511
819.768	0.0159934
819.846	0.0160055
819.924	0.0158767
820.003	0.0158357
820.081	0.0157570
820.159	0.0158104
820.237	0.0157264
820.315	0.0157528
820.393	0.0157565
820.471	0.0156836
820.549	0.0156648
820.628	0.0156675
820.706	0.0157288
820.784	0.0157157
820.862	0.0156460
820.940	0.0157053
821.018	0.0156683
821.096	0.0157389
821.174	0.0155583
821.253	0.0156415
821.331	0.0158494
821.409	0.0157409
821.487	0.0157182
821.565	0.0156931
821.643	0.0158032
821.721	0.0158372
821.799	0.0158563
821.878	0.0157638
821.956	0.0158539
822.034	0.0158447
822.112	0.0158549
822.190	0.0157735
822.268	0.0158221
822.346	0.0159092
822.424	0.0159215
822.503	0.0159537
822.581	0.0160157
822.659	0.0160165
822.737	0.0158801
822.815	0.0158728
822.893	0.0159361
822.971	0.0159558
823.049	0.0157877
823.128	0.0158881
823.206	0.0157694
823.284	0.0158924
823.362	0.0157706
823.440	0.0158192
823.518	0.0158649
823.596	0.0157088
823.674	0.0155606
823.753	0.0157923
823.831	0.0157536
823.909	0.0157331
823.987	0.0157346
824.065	0.0155753
824.143	0.0156686
824.221	0.0156465
824.299	0.0157153
824.378	0.0156312
824.456	0.0156030
824.534	0.0156362
824.612	0.0157148
824.690	0.0155708
824.768	0.0154223
824.846	0.0157327
824.924	0.0156424
825.003	0.0156533
825.081	0.0156297
825.159	0.0156919
825.237	0.0157714
825.315	0.0156941
825.393	0.0156989
825.471	0.0157858
825.549	0.0157919
825.628	0.0158472
825.706	0.0157796
825.784	0.0158369
825.862	0.0159204
825.940	0.0158906
826.018	0.0159432
826.096	0.0159325
826.174	0.0159562
826.253	0.0159011
826.331	0.0160113
826.409	0.0159131
826.487	0.0158759
826.565	0.0159066
826.643	0.0161111
826.721	0.0161482
826.799	0.0161038
826.878	0.0159959
826.956	0.0158220
827.034	0.0158452
827.112	0.0160359
827.190	0.0160905
827.268	0.0157752
827.346	0.0158643
827.424	0.0158252
827.503	0.0157935
827.581	0.0157256
827.659	0.0156732
827.737	0.0157179
827.815	0.0156200
827.893	0.0156482
827.971	0.0156925
828.049	0.0155703
828.128	0.0155205
828.206	0.0155476
828.284	0.0154577
828.362	0.0154961
828.440	0.0155192
828.518	0.0155096
828.596	0.0153806
828.674	0.0156337
828.753	0.0155068
828.831	0.0156064
828.909	0.0155930
828.987	0.0156600
829.065	0.0157220
829.143	0.0156036
829.221	0.0157278
829.299	0.0158233
829.378	0.0155740
829.456	0.0156944
829.534	0.0157587
829.612	0.0158039
829.690	0.0158679
829.768	0.0157997
829.846	0.0158784
829.924	0.0157051
830.003	0.0158131
830.081	0.0158477
830.159	0.0159159
830.237	0.0159261
830.315	0.0157995
830.393	0.0157298
830.471	0.0158903
830.549	0.0159129
830.628	0.0159277
830.706	0.0159003
830.784	0.0159097
830.862	0.0157848
830.940	0.0157070
831.018	0.0158790
831.096	0.0157513
831.174	0.0157767
831.253	0.0157231
831.331	0.0158342
831.409	0.0156992
831.487	0.0157823
831.565	0.0157050
831.643	0.0157060
831.721	0.0157286
831.799	0.0155849
831.878	0.0157252
831.956	0.0156272
832.034	0.0156418
832.112	0.0157465
832.190	0.0155781
832.268	0.0156457
832.346	0.0156389
832.424	0.0155624
832.503	0.0156757
832.581	0.0155904
832.659	0.0157005
832.737	0.0156888
832.815	0.0156252
832.893	0.0157253
832.971	0.0156461
833.049	0.0156498
833.128	0.0156699
833.206	0.0156247
833.284	0.0157830
833.362	0.0157160
833.440	0.0156110
833.518	0.0156123
833.596	0.0157510
833.674	0.0157635
833.753	0.0157185
833.831	0.0156110
833.909	0.0158048
833.987	0.0157322
834.065	0.0157889
834.143	0.0157141
834.221	0.0157715
834.299	0.0157362
834.378	0.0157241
834.456	0.0156983
834.534	0.0157353
834.612	0.0155863
834.690	0.0158829
834.768	0.0157932
834.846	0.0157005
834.924	0.0156828
835.003	0.0157850
835.081	0.0156248
835.159	0.0155695
835.237	0.0155403
835.315	0.0157768
835.393	0.0157641
835.471	0.0157449
835.549	0.0156660
835.628	0.0157549
835.706	0.0155237
835.784	0.0155837
835.862	0.0157560
835.940	0.0158029
836.018	0.0157368
836.096	0.0157523
836.174	0.0158419
836.253	0.0158268
836.331	0.0157436
836.409	0.0157584
836.487	0.0157927
836.565	0.0158870
836.643	0.0159299
836.721	0.0158318
836.799	0.0160389
836.878	0.0159260
836.956	0.0158800
837.034	0.0158111
837.112	0.0158154
837.190	0.0158909
837.268	0.0158103
837.346	0.0159837
837.424	0.0159325
837.503	0.0159328
837.581	0.0157937
837.659	0.0159009
837.737	0.0159169
837.815	0.0158942
837.893	0.0158105
837.971	0.0159890
838.049	0.0159050
838.128	0.0160753
838.206	0.0159155
838.284	0.0159941
838.362	0.0160221
838.440	0.0160268
838.518	0.0159073
838.596	0.0158357
838.674	0.0158463
838.753	0.0158978
838.831	0.0158388
838.909	0.0159830
838.987	0.0157803
839.065	0.0158059
839.143	0.0158289
839.221	0.0157641
839.299	0.0157002
839.378	0.0158297
839.456	0.0158292
839.534	0.0157697
839.612	0.0156281
839.690	0.0156705
839.768	0.0157849
839.846	0.0156850
839.924	0.0157568
840.003	0.0158076
840.081	0.0156692
840.159	0.0157549
840.237	0.0158761
840.315	0.0158582
840.393	0.0157623
840.471	0.0158744
840.549	0.0158338
840.628	0.0159779
840.706	0.0158746
840.784	0.0159699
840.862	0.0159647
840.940	0.0159088
841.018	0.0158790
841.096	0.0159912
841.174	0.0161069
841.253	0.0161002
841.331	0.0162060
841.409	0.0160754
841.487	0.0161709
841.565	0.0162315
841.643	0.0160410
841.721	0.0160573
841.799	0.0160788
841.878	0.0162892
841.956	0.0161894
842.034	0.0159332
842.112	0.0160889
842.190	0.0160815
842.268	0.0162084
842.346	0.0160799
842.424	0.0161365
842.503	0.0161417
842.581	0.0160670
842.659	0.0159245
842.737	0.0160894
842.815	0.0160550
842.893	0.0159887
842.971	0.0159229
843.049	0.0159093
843.128	0.0157793
843.206	0.0157934
843.284	0.0158931
843.362	0.0157815
843.440	0.0159663
843.518	0.0157884
843.596	0.0157809
843.674	0.0157008
843.753	0.0158890
843.831	0.0159162
843.909	0.0158352
843.987	0.0158208
844.065	0.0158495
844.143	0.0158919
844.221	0.0159866
844.299	0.0158687
844.378	0.0159148
844.456	0.0160107
844.534	0.0159811
844.612	0.0159922
844.690	0.0158820
844.768	0.0159152
844.846	0.0158097
844.924	0.0159711
845.003	0.0158865
845.081	0.0158595
845.159	0.0158939
845.237	0.0158093
845.315	0.0157429
845.393	0.0157993
845.471	0.0158953
845.549	0.0157618
845.628	0.0157407
845.706	0.0157780
845.784	0.0157764
845.862	0.0156384
845.940	0.0157794
846.018	0.0157660
846.096	0.0159516
846.174	0.0157596
846.253	0.0157491
846.331	0.0157261
846.409	0.0158508
846.487	0.0158617
846.565	0.0156827
846.643	0.0157851
846.721	0.0160008
846.799	0.0159374
846.878	0.0159296
846.956	0.0159678
847.034	0.0159132
847.112	0.0159625
847.190	0.0159920
847.268	0.0160853
847.346	0.0159769
847.424	0.0160873
847.503	0.0160439
847.581	0.0160585
847.659	0.0159891
847.737	0.0160327
847.815	0.0160380
847.893	0.0159715
847.971	0.0160600
848.049	0.0159852
848.128	0.0160123
848.206	0.0159267
848.284	0.0160134
848.362	0.0158594
848.440	0.0158698
848.518	0.0158972
848.596	0.0157909
848.674	0.0158881
848.753	0.0158521
848.831	0.0158421
848.909	0.0159044
848.987	0.0158111
849.065	0.0157292
849.143	0.0157734
849.221	0.0156890
849.299	0.0157499
849.378	0.0156316
849.456	0.0157403
849.534	0.0156862
849.612	0.0156622
849.690	0.0157349
849.768	0.0156201
849.846	0.0156670
849.924	0.0156925
850.003	0.0156504
850.081	0.0156377
850.159	0.0155999
850.237	0.0156622
850.315	0.0156764
850.393	0.0155860
850.471	0.0156091
850.549	0.0158522
850.628	0.0157453
850.706	0.0157508
850.784	0.0157346
850.862	0.0156821
850.940	0.0157491
851.018	0.0157397
851.096	0.0156544
851.174	0.0156976
851.253	0.0156998
851.331	0.0156960
851.409	0.0157886
851.487	0.0158391
851.565	0.0157640
851.643	0.0158286
851.721	0.0158234
851.799	0.0158619
851.878	0.0157506
851.956	0.0158484
852.034	0.0157376
852.112	0.0157661
852.190	0.0156947
852.268	0.0158243
852.346	0.0156992
852.424	0.0157637
852.503	0.0157684
852.581	0.0157047
852.659	0.0158033
852.737	0.0157547
852.815	0.0157792
852.893	0.0159159
852.971	0.0158789
853.049	0.0157780
853.128	0.0158190
853.206	0.0158073
853.284	0.0157611
853.362	0.0157935
853.440	0.0156944
853.518	0.0157554
853.596	0.0157433
853.674	0.0157652
853.753	0.0157617
853.831	0.0157659
853.909	0.0157829
853.987	0.0156691
854.065	0.0156912
854.143	0.0156853
854.221	0.0157346
854.299	0.0156251
854.378	0.0156242
854.456	0.0156976
854.534	0.0156295
854.612	0.0156069
854.690	0.0156615
854.768	0.0156117
854.846	0.0157173
854.924	0.0156156
855.003	0.0156271
855.081	0.0155827
855.159	0.0154770
855.237	0.0155752
855.315	0.0155527
855.393	0.0155804
855.471	0.0155917
855.549	0.0156863
855.628	0.0155870
855.706	0.0155824
855.784	0.0157442
855.862	0.0155653
855.940	0.0156752
856.018	0.0157395
856.096	0.0157504
856.174	0.0157104
856.253	0.0157676
856.331	0.0157175
856.409	0.0157890
856.487	0.0158917
856.565	0.0157309
856.643	0.0158356
856.721	0.0157500
856.799	0.0158097
856.878	0.0157893
856.956	0.0157886
857.034	0.0158540
857.112	0.0158028
857.190	0.0158791
857.268	0.0158738
857.346	0.0158549
857.424	0.0158045
857.503	0.0159377
857.581	0.0159064
857.659	0.0158134
857.737	0.0159331
857.815	0.0159293
857.893	0.0159219
857.971	0.0159953
858.049	0.0160540
858.128	0.0159168
858.206	0.0159157
858.284	0.0159538
858.362	0.0159206
858.440	0.0158611
858.518	0.0160008
858.596	0.0160341
858.674	0.0160717
858.753	0.0161011
858.831	0.0160154
858.909	0.0160014
858.987	0.0158546
859.065	0.0160088
859.143	0.0159167
859.221	0.0158188
859.299	0.0159168
859.378	0.0159367
859.456	0.0159755
859.534	0.0158358
859.612	0.0158530
859.690	0.0158559
859.768	0.0157201
859.846	0.0157339
859.924	0.0159190
860.003	0.0158058
860.081	0.0158249
860.159	0.0156953
860.237	0.0157983
860.315	0.0158147
860.393	0.0157272
860.471	0.0157419
860.549	0.0158002
860.628	0.0158644
860.706	0.0157030
860.784	0.0156915
860.862	0.0158500
860.940	0.0156373
861.018	0.0157511
861.096	0.0157512
861.174	0.0158921
861.253	0.0158734
861.331	0.0158237
861.409	0.0158129
861.487	0.0157583
861.565	0.0158429
861.643	0.0157603
861.721	0.0157840
861.799	0.0158637
861.878	0.0159090
861.956	0.0159718
862.034	0.0158256
862.112	0.0159554
862.190	0.0159362
862.268	0.0159653
862.346	0.0159360
862.424	0.0158793
862.503	0.0159608
862.581	0.0158922
862.659	0.0161346
862.737	0.0159888
862.815	0.0158711
862.893	0.0159086
862.971	0.0159033
863.049	0.0161539
863.128	0.0161152
863.206	0.0160671
863.284	0.0159221
863.362	0.0160482
863.440	0.0159129
863.518	0.0160271
863.596	0.0159671
863.674	0.0160939
863.753	0.0161053
863.831	0.0160176
863.909	0.0161076
863.987	0.0160670
864.065	0.0159186
864.143	0.0160503
864.221	0.0161179
864.299	0.0159175
864.378	0.0159692
864.456	0.0159854
864.534	0.0161143
864.612	0.0160675
864.690	0.0160214
864.768	0.0158540
864.846	0.0158935
864.924	0.0160876
865.003	0.0160432
865.081	0.0159083
865.159	0.0157291
865.237	0.0160109
865.315	0.0159432
865.393	0.0159270
865.471	0.0157671
865.549	0.0159068
865.628	0.0158497
865.706	0.0158675
865.784	0.0156910
865.862	0.0158364
865.940	0.0158826
866.018	0.0158401
866.096	0.0158817
866.174	0.0157759
866.253	0.0156474
866.331	0.0157551
866.409	0.0158257
866.487	0.0157076
866.565	0.0158016
866.643	0.0157346
866.721	0.0157578
866.799	0.0157454
866.878	0.0158379
866.956	0.0157902
867.034	0.0156304
867.112	0.0157796
867.190	0.0158565
867.268	0.0157512
867.346	0.0158397
867.424	0.0158195
867.503	0.0157924
867.581	0.0158055
867.659	0.0158724
867.737	0.0157982
867.815	0.0158141
867.893	0.0158912
867.971	0.0158973
868.049	0.0158722
868.128	0.0157674
868.206	0.0159743
868.284	0.0157938
868.362	0.0157871
868.440	0.0157861
868.518	0.0156433
868.596	0.0158501
868.674	0.0159117
868.753	0.0158215
868.831	0.0158055
868.909	0.0158044
868.987	0.0156815
869.065	0.0157673
869.143	0.0157865
869.221	0.0157317
869.299	0.0157491
869.378	0.0157531
869.456	0.0157177
869.534	0.0157309
869.612	0.0157581
869.690	0.0158722
869.768	0.0157400
869.846	0.0157671
869.924	0.0157691
870.003	0.0157317
870.081	0.0156081
870.159	0.0157473
870.237	0.0157973
870.315	0.0159382
870.393	0.0156432
870.471	0.0157253
870.549	0.0158426
870.628	0.0156693
870.706	0.0158551
870.784	0.0158940
870.862	0.0158701
870.940	0.0158000
871.018	0.0157256
871.096	0.0158041
871.174	0.0157903
871.253	0.0157462
871.331	0.0156505
871.409	0.0156599
871.487	0.0157766
871.565	0.0158224
871.643	0.0155958
871.721	0.0157634
871.799	0.0157797
871.878	0.0156770
871.956	0.0157113
872.034	0.0156509
872.112	0.0157481
872.190	0.0156652
872.268	0.0158957
872.346	0.0157743
872.424	0.0157468
872.503	0.0157309
872.581	0.0156523
872.659	0.0156173
872.737	0.0157543
872.815	0.0156535
872.893	0.0157719
872.971	0.0156674
873.049	0.0156450
873.128	0.0155648
873.206	0.0157338
873.284	0.0158193
873.362	0.0157337
873.440	0.0156696
873.518	0.0157014
873.596	0.0157393
873.674	0.0157258
873.753	0.0157037
873.831	0.0156992
873.909	0.0156658
873.987	0.0155725
874.065	0.0156268
874.143	0.0158101
874.221	0.0155725
874.299	0.0156409
874.378	0.0158123
874.456	0.0156902
874.534	0.0157334
874.612	0.0157319
874.690	0.0157372
874.768	0.0156186
874.846	0.0157079
874.924	0.0158133
875.003	0.0158131
875.081	0.0157561
875.159	0.0156419
875.237	0.0157475
875.315	0.0156932
875.393	0.0157701
875.471	0.0157814
875.549	0.0158811
875.628	0.0157287
875.706	0.0158077
875.784	0.0158045
875.862	0.0157293
875.940	0.0158051
876.018	0.0158808
876.096	0.0158595
876.174	0.0158035
876.253	0.0160538
876.331	0.0158335
876.409	0.0158969
876.487	0.0157507
876.565	0.0157328
876.643	0.0160136
876.721	0.0159628
876.799	0.0158866
876.878	0.0158888
876.956	0.0158514
877.034	0.0159711
877.112	0.0159248
877.190	0.0158132
877.268	0.0158342
877.346	0.0157986
877.424	0.0160036
877.503	0.0158945
877.581	0.0158064
877.659	0.0157664
877.737	0.0159036
877.815	0.0157985
877.893	0.0158604
877.971	0.0159248
878.049	0.0159045
878.128	0.0158212
878.206	0.0158223
878.284	0.0158589
878.362	0.0157468
878.440	0.0157323
878.518	0.0157731
878.596	0.0157491
878.674	0.0157652
878.753	0.0158233
878.831	0.0158296
878.909	0.0157564
878.987	0.0157140
879.065	0.0158376
879.143	0.0158504
879.221	0.0157973
879.299	0.0158300
879.378	0.0159313
879.456	0.0158431
879.534	0.0158147
879.612	0.0158366
879.690	0.0157271
879.768	0.0159116
879.846	0.0159682
879.924	0.0159146
880.003	0.0159768
880.081	0.0158324
880.159	0.0158475
880.237	0.0159246
880.315	0.0158213
880.393	0.0158665
880.471	0.0159435
880.549	0.0159679
880.628	0.0159341
880.706	0.0159274
880.784	0.0160168
880.862	0.0158762
880.940	0.0160501
881.018	0.0159721
881.096	0.0159234
881.174	0.0159058
881.253	0.0159653
881.331	0.0159411
881.409	0.0158418
881.487	0.0159733
881.565	0.0158610
881.643	0.0158428
881.721	0.0159048
881.799	0.0158547
881.878	0.0158407
881.956	0.0159029
882.034	0.0159452
882.112	0.0158540
882.190	0.0159913
882.268	0.0158398
882.346	0.0158704
882.424	0.0159150
882.503	0.0157991
882.581	0.0159820
882.659	0.0159196
882.737	0.0158479
882.815	0.0159951
882.893	0.0158978
882.971	0.0159074
883.049	0.0159719
883.128	0.0160227
883.206	0.0160111
883.284	0.0161322
883.362	0.0159405
883.440	0.0158614
883.518	0.0160945
883.596	0.0159167
883.674	0.0158852
883.753	0.0159484
883.831	0.0160600
883.909	0.0159477
883.987	0.0158495
884.065	0.0158990
884.143	0.0159798
884.221	0.0159543
884.299	0.0159683
884.378	0.0158555
884.456	0.0158522
884.534	0.0159112
884.612	0.0157133
884.690	0.0159460
884.768	0.0159933
884.846	0.0160985
884.924	0.0160301
885.003	0.0160074
885.081	0.0158997
885.159	0.0159846
885.237	0.0159837
885.315	0.0159337
885.393	0.0158126
885.471	0.0160117
885.549	0.0160178
885.628	0.0159319
885.706	0.0159235
885.784	0.0160121
885.862	0.0159592
885.940	0.0158598
886.018	0.0159525
886.096	0.0160467
886.174	0.0161020
886.253	0.0159956
886.331	0.0160173
886.409	0.0160116
886.487	0.0158978
886.565	0.0160299
886.643	0.0160358
886.721	0.0159984
886.799	0.0159838
886.878	0.0159854
886.956	0.0161965
887.034	0.0160616
887.112	0.0159627
887.190	0.0159365
887.268	0.0160547
887.346	0.0160464
887.424	0.0159488
887.503	0.0159380
887.581	0.0159159
887.659	0.0159681
887.737	0.0159511
887.815	0.0159727
887.893	0.0159854
887.971	0.0160973
888.049	0.0159281
888.128	0.0158910
888.206	0.0159384
888.284	0.0159691
888.362	0.0160570
888.440	0.0160001
888.518	0.0159651
888.596	0.0159074
888.674	0.0158229
888.753	0.0159580
888.831	0.0158807
888.909	0.0159175
888.987	0.0158748
889.065	0.0160345
889.143	0.0160010
889.221	0.0161772
889.299	0.0160405
889.378	0.0160242
889.456	0.0160573
889.534	0.0160299
889.612	0.0160316
889.690	0.0159669
889.768	0.0160529
889.846	0.0160347
889.924	0.0160086
890.003	0.0160468
890.081	0.0159412
890.159	0.0160481
890.237	0.0160872
890.315	0.0159422
890.393	0.0159405
890.471	0.0160529
890.549	0.0160668
890.628	0.0158313
890.706	0.0159756
890.784	0.0160270
890.862	0.0159820
890.940	0.0159716
891.018	0.0159380
891.096	0.0159247
891.174	0.0159300
891.253	0.0158054
891.331	0.0158929
891.409	0.0159609
891.487	0.0159454
891.565	0.0159729
891.643	0.0159469
891.721	0.0158154
891.799	0.0159379
891.878	0.0158873
891.956	0.0158812
892.034	0.0159737
892.112	0.0158934
892.190	0.0159127
892.268	0.0159293
892.346	0.0159237
892.424	0.0158939
892.503	0.0157858
892.581	0.0157209
892.659	0.0157339
892.737	0.0157893
892.815	0.0157578
892.893	0.0158163
892.971	0.0158755
893.049	0.0156591
893.128	0.0155951
893.206	0.0156816
893.284	0.0156567
893.362	0.0156123
893.440	0.0156163
893.518	0.0155678
893.596	0.0157026
893.674	0.0156650
893.753	0.0156644
893.831	0.0156374
893.909	0.0156770
893.987	0.0156782
894.065	0.0155571
894.143	0.0155401
894.221	0.0157085
894.299	0.0154945
894.378	0.0156620
894.456	0.0156466
894.534	0.0156666
894.612	0.0155619
894.690	0.0155985
894.768	0.0155286
894.846	0.0155499
894.924	0.0155403
895.003	0.0155552
895.081	0.0156725
895.159	0.0156380
895.237	0.0155375
895.315	0.0156055
895.393	0.0155759
895.471	0.0156079
895.549	0.0155545
895.628	0.0155671
895.706	0.0155868
895.784	0.0156512
895.862	0.0155904
895.940	0.0156647
896.018	0.0156181
896.096	0.0156352
896.174	0.0155904
896.253	0.0156084
896.331	0.0158044
896.409	0.0155337
896.487	0.0156010
896.565	0.0155732
896.643	0.0155334
896.721	0.0155445
896.799	0.0156374
896.878	0.0156173
896.956	0.0155981
897.034	0.0155450
897.112	0.0155466
897.190	0.0155199
897.268	0.0155936
897.346	0.0156231
897.424	0.0154691
897.503	0.0155404
897.581	0.0156259
897.659	0.0157012
897.737	0.0155177
897.815	0.0155343
897.893	0.0153236
897.971	0.0156769
898.049	0.0156030
898.128	0.0156129
898.206	0.0155193
898.284	0.0156345
898.362	0.0154485
898.440	0.0154989
898.518	0.0156596
898.596	0.0156837
898.674	0.0156920
898.753	0.0156554
898.831	0.0154305
898.909	0.0156108
898.987	0.0157816
899.065	0.0157449
899.143	0.0157094
899.221	0.0157899
899.299	0.0157622
899.378	0.0156751
899.456	0.0157533
899.534	0.0158065
899.612	0.0158955
899.690	0.0158768
899.768	0.0158459
899.846	0.0157537
899.924	0.0158627
900.003	0.0158102
900.081	0.0158803
900.159	0.0160493
900.237	0.0159183
900.315	0.0158176
900.393	0.0159557
900.471	0.0159293
900.549	0.0159014
900.628	0.0159902
900.706	0.0160113
900.784	0.0158569
900.862	0.0159908
900.940	0.0160233
901.018	0.0159967
901.096	0.0160124
901.174	0.0159518
901.253	0.0160859
901.331	0.0160201
901.409	0.0158476
901.487	0.0159238
901.565	0.0160500
901.643	0.0158344
901.721	0.0158860
901.799	0.0158659
901.878	0.0160925
901.956	0.0159201
902.034	0.0160826
902.112	0.0158989
902.190	0.0159692
902.268	0.0160419
902.346	0.0159401
902.424	0.0159962
902.503	0.0158968
902.581	0.0159608
902.659	0.0160167
902.737	0.0159895
902.815	0.0158831
902.893	0.0161160
902.971	0.0157877
903.049	0.0158707
903.128	0.0159683
903.206	0.0159640
903.284	0.0159434
903.362	0.0160218
903.440	0.0159235
903.518	0.0159957
903.596	0.0159885
903.674	0.0159793
903.753	0.0159237
903.831	0.0159589
903.909	0.0160299
903.987	0.0159377
904.065	0.0161015
904.143	0.0160381
904.221	0.0159594
904.299	0.0160919
904.378	0.0160493
904.456	0.0161460
904.534	0.0159967
904.612	0.0159786
904.690	0.0160344
904.768	0.0159325
904.846	0.0159116
904.924	0.0159782
905.003	0.0159857
905.081	0.0159546
905.159	0.0159779
905.237	0.0159779
905.315	0.0159238
905.393	0.0159460
905.471	0.0160477
905.549	0.0159488
905.628	0.0160100
905.706	0.0159010
905.784	0.0158739
905.862	0.0160290
905.940	0.0159529
906.018	0.0160361
906.096	0.0158829
906.174	0.0159461
906.253	0.0158792
906.331	0.0159328
906.409	0.0160026
906.487	0.0159430
906.565	0.0158934
906.643	0.0158975
906.721	0.0159760
906.799	0.0158440
906.878	0.0159837
906.956	0.0160168
907.034	0.0158619
907.112	0.0160151
907.190	0.0159368
907.268	0.0159181
907.346	0.0158379
907.424	0.0159114
907.503	0.0158952
907.581	0.0157601
907.659	0.0159068
907.737	0.0159500
907.815	0.0159014
907.893	0.0158630
907.971	0.0158429
908.049	0.0159498
908.128	0.0158129
908.206	0.0158650
908.284	0.0159277
908.362	0.0159436
908.440	0.0159559
908.518	0.0160014
908.596	0.0160661
908.674	0.0159415
908.753	0.0158217
908.831	0.0161155
908.909	0.0159476
908.987	0.0160316
909.065	0.0160226
909.143	0.0159436
909.221	0.0160065
909.299	0.0160774
909.378	0.0160374
909.456	0.0160211
909.534	0.0161072
909.612	0.0161662
909.690	0.0160629
909.768	0.0162087
909.846	0.0160052
909.924	0.0161372
910.003	0.0161824
910.081	0.0161165
910.159	0.0161661
910.237	0.0161334
910.315	0.0161639
910.393	0.0163077
910.471	0.0160936
910.549	0.0161934
910.628	0.0163533
910.706	0.0163058
910.784	0.0161521
910.862	0.0162879
910.940	0.0161098
911.018	0.0161366
911.096	0.0162405
911.174	0.0162366
911.253	0.0162453
911.331	0.0161792
911.409	0.0159956
911.487	0.0159852
911.565	0.0160598
911.643	0.0159583
911.721	0.0160159
911.799	0.0160423
911.878	0.0159385
911.956	0.0160230
912.034	0.0159505
912.112	0.0158087
912.190	0.0160485
912.268	0.0159393
912.346	0.0159445
912.424	0.0158955
912.503	0.0159133
912.581	0.0159253
912.659	0.0159372
912.737	0.0159295
912.815	0.0160184
912.893	0.0158764
912.971	0.0159980
913.049	0.0160785
913.128	0.0159691
913.206	0.0160201
913.284	0.0159328
913.362	0.0159636
913.440	0.0160933
913.518	0.0159937
913.596	0.0158849
913.674	0.0161305
913.753	0.0159211
913.831	0.0160336
913.909	0.0160175
913.987	0.0160988
914.065	0.0159589
914.143	0.0159893
914.221	0.0160199
914.299	0.0159648
914.378	0.0159122
914.456	0.0160454
914.534	0.0159111
914.612	0.0159991
914.690	0.0159209
914.768	0.0158273
914.846	0.0158937
914.924	0.0157944
915.003	0.0157679
915.081	0.0159962
915.159	0.0158385
915.237	0.0156371
915.315	0.0157809
915.393	0.0157903
915.471	0.0156950
915.549	0.0156249
915.628	0.0156310
915.706	0.0156651
915.784	0.0156634
915.862	0.0156474
915.940	0.0155189
916.018	0.0156852
916.096	0.0156149
916.174	0.0156289
916.253	0.0155482
916.331	0.0155131
916.409	0.0156703
916.487	0.0157803
916.565	0.0156513
916.643	0.0155431
916.721	0.0156721
916.799	0.0155372
916.878	0.0155071
916.956	0.0154237
917.034	0.0156192
917.112	0.0155473
917.190	0.0156049
917.268	0.0155482
917.346	0.0153905
917.424	0.0154860
917.503	0.0154314
917.581	0.0155789
917.659	0.0154418
917.737	0.0155679
917.815	0.0156570
917.893	0.0156402
917.971	0.0154635
918.049	0.0155065
918.128	0.0155824
918.206	0.0154382
918.284	0.0153965
918.362	0.0153386
918.440	0.0153899
918.518	0.0154817
918.596	0.0154305
918.674	0.0154886
918.753	0.0154657
918.831	0.0153709
918.909	0.0154297
918.987	0.0153766
919.065	0.0152881
919.143	0.0155154
919.221	0.0154528
919.299	0.0154935
919.378	0.0154034
919.456	0.0153770
919.534	0.0153353
919.612	0.0155006
919.690	0.0153819
919.768	0.0155432
919.846	0.0155419
919.924	0.0155618
920.003	0.0154527
920.081	0.0156714
920.159	0.0156400
920.237	0.0156379
920.315	0.0156590
920.393	0.0157041
920.471	0.0158061
920.549	0.0156914
920.628	0.0156290
920.706	0.0158117
920.784	0.0157919
920.862	0.0158292
920.940	0.0159213
921.018	0.0157888
921.096	0.0158083
921.174	0.0157442
921.253	0.0157906
921.331	0.0157813
921.409	0.0158925
921.487	0.0158540
921.565	0.0158068
921.643	0.0158495
921.721	0.0159335
921.799	0.0157977
921.878	0.0158706
921.956	0.0158880
922.034	0.0157656
922.112	0.0158389
922.190	0.0157576
922.268	0.0158060
922.346	0.0158454
922.424	0.0157589
922.503	0.0157420
922.581	0.0158139
922.659	0.0156676
922.737	0.0157919
922.815	0.0157010
922.893	0.0157653
922.971	0.0157469
923.049	0.0157459
923.128	0.0157023
923.206	0.0158279
923.284	0.0157575
923.362	0.0156340
923.440	0.0158405
923.518	0.0157981
923.596	0.0158892
923.674	0.0159559
923.753	0.0158424
923.831	0.0159192
923.909	0.0160126
923.987	0.0158332
924.065	0.0159262
924.143	0.0158777
924.221	0.0159644
924.299	0.0158698
924.378	0.0159486
924.456	0.0159586
924.534	0.0160735
924.612	0.0160338
924.690	0.0160199
924.768	0.0159261
924.846	0.0158532
924.924	0.0159270
925.003	0.0160015
925.081	0.0159208
925.159	0.0158690
925.237	0.0158465
925.315	0.0158281
925.393	0.0158833
925.471	0.0158523
925.549	0.0157771
925.628	0.0159136
925.706	0.0158112
925.784	0.0158866
925.862	0.0158102
925.940	0.0158770
926.018	0.0158652
926.096	0.0157848
926.174	0.0157214
926.253	0.0159086
926.331	0.0159622
926.409	0.0157993
926.487	0.0158055
926.565	0.0158258
926.643	0.0158932
926.721	0.0160263
926.799	0.0158483
926.878	0.0158892
926.956	0.0159057
927.034	0.0158326
927.112	0.0159013
927.190	0.0160700
927.268	0.0160289
927.346	0.0159704
927.424	0.0159796
927.503	0.0159735
927.581	0.0158865
927.659	0.0160149
927.737	0.0160713
927.815	0.0160384
927.893	0.0158672
927.971	0.0159521
928.049	0.0160410
928.128	0.0159442
928.206	0.0159590
928.284	0.0160676
928.362	0.0159484
928.440	0.0157907
928.518	0.0158884
928.596	0.0159147
928.674	0.0158338
928.753	0.0159075
928.831	0.0158169
928.909	0.0157740
928.987	0.0158841
929.065	0.0157639
929.143	0.0157252
929.221	0.0158369
929.299	0.0157177
929.378	0.0156985
929.456	0.0157758
929.534	0.0158153
929.612	0.0157127
929.690	0.0157772
929.768	0.0158124
929.846	0.0158022
929.924	0.0158131
930.003	0.0157127
930.081	0.0157757
930.159	0.0157814
930.237	0.0159347
930.315	0.0158822
930.393	0.0157630
930.471	0.0158162
930.549	0.0159076
930.628	0.0158675
930.706	0.0158552
930.784	0.0158975
930.862	0.0159113
930.940	0.0160629
931.018	0.0159289
931.096	0.0158704
931.174	0.0159646
931.253	0.0158730
931.331	0.0159180
931.409	0.0159129
931.487	0.0158221
931.565	0.0159219
931.643	0.0158623
931.721	0.0159943
931.799	0.0160193
931.878	0.0160571
931.956	0.0159271
932.034	0.0158929
932.112	0.0158965
932.190	0.0159564
932.268	0.0158615
932.346	0.0157723
932.424	0.0159087
932.503	0.0158913
932.581	0.0159304
932.659	0.0159132
932.737	0.0158702
932.815	0.0158218
932.893	0.0158180
932.971	0.0158553
933.049	0.0157629
933.128	0.0157846
933.206	0.0158014
933.284	0.0159208
933.362	0.0158677
933.440	0.0156796
933.518	0.0159760
933.596	0.0158107
933.674	0.0159213
933.753	0.0157554
933.831	0.0157823
933.909	0.0158080
933.987	0.0158409
934.065	0.0159360
934.143	0.0157855
934.221	0.0158831
934.299	0.0156569
934.378	0.0158363
934.456	0.0159395
934.534	0.0158523
934.612	0.0159682
934.690	0.0159279
934.768	0.0159267
934.846	0.0159897
934.924	0.0159922
935.003	0.0160039
935.081	0.0158350
935.159	0.0158576
935.237	0.0158667
935.315	0.0159258
935.393	0.0159935
935.471	0.0160129
935.549	0.0160259
935.628	0.0157935
935.706	0.0158736
935.784	0.0158576
935.862	0.0160235
935.940	0.0157541
936.018	0.0157868
936.096	0.0156926
936.174	0.0157359
936.253	0.0157690
936.331	0.0156827
936.409	0.0155360
936.487	0.0158505
936.565	0.0156731
936.643	0.0156819
936.721	0.0156577
936.799	0.0155820
936.878	0.0155997
936.956	0.0157011
937.034	0.0156421
937.112	0.0156140
937.190	0.0157889
937.268	0.0157034
937.346	0.0155930
937.424	0.0157742
937.503	0.0156262
937.581	0.0156392
937.659	0.0158479
937.737	0.0157679
937.815	0.0156483
937.893	0.0157204
937.971	0.0156324
938.049	0.0156422
938.128	0.0157721
938.206	0.0156692
938.284	0.0156574
938.362	0.0158202
938.440	0.0156989
938.518	0.0157432
938.596	0.0156369
938.674	0.0156200
938.753	0.0157433
938.831	0.0157894
938.909	0.0156157
938.987	0.0155185
939.065	0.0156069
939.143	0.0156615
939.221	0.0156307
939.299	0.0156544
939.378	0.0155948
939.456	0.0155708
939.534	0.0156004
939.612	0.0155514
939.690	0.0155474
939.768	0.0155987
939.846	0.0155296
939.924	0.0154970
940.003	0.0154653
940.081	0.0156258
940.159	0.0155238
940.237	0.0156092
940.315	0.0154681
940.393	0.0155246
940.471	0.0155200
940.549	0.0157024
940.628	0.0155601
940.706	0.0156484
940.784	0.0155982
940.862	0.0155881
940.940	0.0156756
941.018	0.0156203
941.096	0.0156337
941.174	0.0155692
941.253	0.0155962
941.331	0.0156227
941.409	0.0155135
941.487	0.0156879
941.565	0.0156426
941.643	0.0155743
941.721	0.0155940
941.799	0.0156889
941.878	0.0156856
941.956	0.0157521
942.034	0.0156298
942.112	0.0154982
942.190	0.0157038
942.268	0.0157640
942.346	0.0156242
942.424	0.0156120
942.503	0.0156270
942.581	0.0157144
942.659	0.0156890
942.737	0.0155867
942.815	0.0157099
942.893	0.0156512
942.971	0.0156638
943.049	0.0155098
943.128	0.0154916
943.206	0.0156693
943.284	0.0156931
943.362	0.0156360
943.440	0.0155097
943.518	0.0156594
943.596	0.0156654
943.674	0.0155573
943.753	0.0155253
943.831	0.0156858
943.909	0.0158176
943.987	0.0156297
944.065	0.0157080
944.143	0.0157186
944.221	0.0157674
944.299	0.0156593
944.378	0.0158286
944.456	0.0158389
944.534	0.0158436
944.612	0.0157207
944.690	0.0158295
944.768	0.0159172
944.846	0.0158852
944.924	0.0158914
945.003	0.0157786
945.081	0.0157722
945.159	0.0159819
945.237	0.0158720
945.315	0.0157633
945.393	0.0158689
945.471	0.0159564
945.549	0.0159103
945.628	0.0159601
945.706	0.0157903
945.784	0.0159224
945.862	0.0159542
945.940	0.0159360
946.018	0.0157896
946.096	0.0159236
946.174	0.0157641
946.253	0.0158968
946.331	0.0158902
946.409	0.0158212
946.487	0.0157899
946.565	0.0158777
946.643	0.0157368
946.721	0.0157654
946.799	0.0157117
946.878	0.0158388
946.956	0.0157339
947.034	0.0158057
947.112	0.0155424
947.190	0.0156505
947.268	0.0157935
947.346	0.0157861
947.424	0.0157509
947.503	0.0157951
947.581	0.0157675
947.659	0.0156781
947.737	0.0156828
947.815	0.0157329
947.893	0.0156738
947.971	0.0159003
948.049	0.0157867
948.128	0.0156914
948.206	0.0157674
948.284	0.0156998
948.362	0.0158192
948.440	0.0158827
948.518	0.0158740
948.596	0.0159904
948.674	0.0158556
948.753	0.0159865
948.831	0.0158783
948.909	0.0160134
948.987	0.0159618
949.065	0.0159099
949.143	0.0160173
949.221	0.0159711
949.299	0.0157990
949.378	0.0161009
949.456	0.0160401
949.534	0.0158916
949.612	0.0159939
949.690	0.0159560
949.768	0.0158629
949.846	0.0158891
949.924	0.0159713
