06/29/2022	23:24:07	Ver.	4.1	UNKNOWN
Optical Delay	630.002507	Delta X		0.078125	Sweeps	1	Scan Rate	0/0
Coordinates	Axis 1	NaN	Axis 2	NaN	Axis 3	NaN	Axis 4	NaN	Axis 5	NaN	Axis 6	0.000000
TX Power	0.000000	RX Power	0.000000

630.003	0.0147649
630.081	0.0152644
630.159	0.0153655
630.237	0.0154111
630.315	0.0153879
630.393	0.0156364
630.471	0.0156489
630.549	0.0155849
630.628	0.0156171
630.706	0.0157061
630.784	0.0157755
630.862	0.0158271
630.940	0.0158382
631.018	0.0159603
631.096	0.0159625
631.174	0.0161416
631.253	0.0161085
631.331	0.0161742
631.409	0.0162784
631.487	0.0161317
631.565	0.0163200
631.643	0.0161991
631.721	0.0162827
631.799	0.0163436
631.878	0.0164557
631.956	0.0163618
632.034	0.0163042
632.112	0.0164246
632.190	0.0163718
632.268	0.0163505
632.346	0.0161075
632.424	0.0162760
632.503	0.0163207
632.581	0.0163457
632.659	0.0163352
632.737	0.0164011
632.815	0.0163933
632.893	0.0164741
632.971	0.0163473
633.049	0.0165024
633.128	0.0165347
633.206	0.0163954
633.284	0.0164740
633.362	0.0163425
633.440	0.0163338
633.518	0.0163852
633.596	0.0163086
633.674	0.0162518
633.753	0.0162938
633.831	0.0162989
633.909	0.0162777
633.987	0.0163385
634.065	0.0162305
634.143	0.0163043
634.221	0.0163125
634.299	0.0163589
634.378	0.0163098
634.456	0.0162476
634.534	0.0162824
634.612	0.0163744
634.690	0.0162424
634.768	0.0162889
634.846	0.0162959
634.924	0.0163396
635.003	0.0161666
635.081	0.0163409
635.159	0.0161932
635.237	0.0161639
635.315	0.0160561
635.393	0.0161752
635.471	0.0160912
635.549	0.0160486
635.628	0.0159230
635.706	0.0158591
635.784	0.0157697
635.862	0.0157544
635.940	0.0158416
636.018	0.0158698
636.096	0.0158467
636.174	0.0157272
636.253	0.0157139
636.331	0.0158090
636.409	0.0156330
636.487	0.0155122
636.565	0.0156387
636.643	0.0155605
636.721	0.0153557
636.799	0.0152766
636.878	0.0151326
636.956	0.0150542
637.034	0.0149517
637.112	0.0149670
637.190	0.0149157
637.268	0.0150038
637.346	0.0148653
637.424	0.0149241
637.503	0.0148423
637.581	0.0150077
637.659	0.0150299
637.737	0.0149617
637.815	0.0150732
637.893	0.0151492
637.971	0.0152444
638.049	0.0150216
638.128	0.0151003
638.206	0.0152648
638.284	0.0152983
638.362	0.0151350
638.440	0.0152605
638.518	0.0153195
638.596	0.0153584
638.674	0.0153031
638.753	0.0151511
638.831	0.0152773
638.909	0.0154752
638.987	0.0153690
639.065	0.0153481
639.143	0.0153751
639.221	0.0152222
639.299	0.0152195
639.378	0.0153139
639.456	0.0153721
639.534	0.0152721
639.612	0.0153165
639.690	0.0154408
639.768	0.0153666
639.846	0.0153388
639.924	0.0154758
640.003	0.0154951
640.081	0.0156163
640.159	0.0156336
640.237	0.0155704
640.315	0.0156165
640.393	0.0155846
640.471	0.0156696
640.549	0.0156136
640.628	0.0155354
640.706	0.0156853
640.784	0.0156299
640.862	0.0156947
640.940	0.0157303
641.018	0.0156693
641.096	0.0156140
641.174	0.0155781
641.253	0.0157293
641.331	0.0158561
641.409	0.0158619
641.487	0.0158347
641.565	0.0159609
641.643	0.0158117
641.721	0.0159740
641.799	0.0160327
641.878	0.0158774
641.956	0.0160455
642.034	0.0161734
642.112	0.0159991
642.190	0.0161482
642.268	0.0161806
642.346	0.0162080
642.424	0.0161838
642.503	0.0161195
642.581	0.0161040
642.659	0.0161530
642.737	0.0161996
642.815	0.0161794
642.893	0.0162639
642.971	0.0162401
643.049	0.0161623
643.128	0.0163195
643.206	0.0161601
643.284	0.0164536
643.362	0.0164590
643.440	0.0164813
643.518	0.0163925
643.596	0.0164916
643.674	0.0165366
643.753	0.0165192
643.831	0.0164846
643.909	0.0164732
643.987	0.0165150
644.065	0.0164398
644.143	0.0164301
644.221	0.0165852
644.299	0.0164740
644.378	0.0163707
644.456	0.0163158
644.534	0.0163982
644.612	0.0163953
644.690	0.0164191
644.768	0.0162359
644.846	0.0162988
644.924	0.0164231
645.003	0.0163724
645.081	0.0161994
645.159	0.0163219
645.237	0.0162708
645.315	0.0163074
645.393	0.0162854
645.471	0.0161232
645.549	0.0161475
645.628	0.0161794
645.706	0.0161176
645.784	0.0159673
645.862	0.0159527
645.940	0.0161256
646.018	0.0161373
646.096	0.0161059
646.174	0.0160302
646.253	0.0160632
646.331	0.0161568
646.409	0.0159451
646.487	0.0159477
646.565	0.0160027
646.643	0.0159999
646.721	0.0159170
646.799	0.0158109
646.878	0.0158756
646.956	0.0157458
647.034	0.0157054
647.112	0.0156875
647.190	0.0156863
647.268	0.0156464
647.346	0.0156984
647.424	0.0156452
647.503	0.0156077
647.581	0.0155977
647.659	0.0154917
647.737	0.0154073
647.815	0.0154392
647.893	0.0154259
647.971	0.0152524
648.049	0.0153298
648.128	0.0154730
648.206	0.0153065
648.284	0.0152690
648.362	0.0155016
648.440	0.0152923
648.518	0.0153530
648.596	0.0152721
648.674	0.0154276
648.753	0.0152667
648.831	0.0155024
648.909	0.0154829
648.987	0.0154922
649.065	0.0155106
649.143	0.0155914
649.221	0.0155562
649.299	0.0155141
649.378	0.0155930
649.456	0.0156055
649.534	0.0155834
649.612	0.0155373
649.690	0.0154613
649.768	0.0156142
649.846	0.0154458
649.924	0.0155054
650.003	0.0155190
650.081	0.0156285
650.159	0.0155657
650.237	0.0155804
650.315	0.0156434
650.393	0.0157259
650.471	0.0157993
650.549	0.0158334
650.628	0.0157983
650.706	0.0157536
650.784	0.0158364
650.862	0.0158260
650.940	0.0158986
651.018	0.0158315
651.096	0.0160014
651.174	0.0159391
651.253	0.0160619
651.331	0.0160816
651.409	0.0159869
651.487	0.0160057
651.565	0.0159473
651.643	0.0161233
651.721	0.0161017
651.799	0.0160593
651.878	0.0160126
651.956	0.0160078
652.034	0.0159933
652.112	0.0160950
652.190	0.0160712
652.268	0.0159592
652.346	0.0158955
652.424	0.0159431
652.503	0.0157969
652.581	0.0158475
652.659	0.0157553
652.737	0.0158188
652.815	0.0157593
652.893	0.0157185
652.971	0.0158679
653.049	0.0156901
653.128	0.0156679
653.206	0.0156369
653.284	0.0155628
653.362	0.0154768
653.440	0.0154957
653.518	0.0153995
653.596	0.0153736
653.674	0.0154243
653.753	0.0152679
653.831	0.0154010
653.909	0.0153106
653.987	0.0151331
654.065	0.0153038
654.143	0.0153558
654.221	0.0154272
654.299	0.0151953
654.378	0.0151998
654.456	0.0153536
654.534	0.0154687
654.612	0.0155132
654.690	0.0153909
654.768	0.0152986
654.846	0.0152922
654.924	0.0153980
655.003	0.0153631
655.081	0.0153140
655.159	0.0153010
655.237	0.0152369
655.315	0.0153374
655.393	0.0153015
655.471	0.0152321
655.549	0.0152302
655.628	0.0151549
655.706	0.0152883
655.784	0.0154227
655.862	0.0152397
655.940	0.0154077
656.018	0.0153281
656.096	0.0153249
656.174	0.0154227
656.253	0.0155059
656.331	0.0154041
656.409	0.0153173
656.487	0.0152078
656.565	0.0155218
656.643	0.0154713
656.721	0.0154156
656.799	0.0152836
656.878	0.0152650
656.956	0.0154104
657.034	0.0154246
657.112	0.0153585
657.190	0.0153895
657.268	0.0154466
657.346	0.0154024
657.424	0.0154604
657.503	0.0153419
657.581	0.0154259
657.659	0.0154314
657.737	0.0156054
657.815	0.0156367
657.893	0.0156113
657.971	0.0156333
658.049	0.0156249
658.128	0.0157247
658.206	0.0157255
658.284	0.0157805
658.362	0.0157568
658.440	0.0158116
658.518	0.0158077
658.596	0.0157044
658.674	0.0157671
658.753	0.0157795
658.831	0.0158698
658.909	0.0159691
658.987	0.0158776
659.065	0.0158611
659.143	0.0158953
659.221	0.0159051
659.299	0.0160483
659.378	0.0160213
659.456	0.0161004
659.534	0.0158670
659.612	0.0159687
659.690	0.0159936
659.768	0.0160069
659.846	0.0160867
659.924	0.0160163
660.003	0.0161105
660.081	0.0159357
660.159	0.0159195
660.237	0.0160509
660.315	0.0158735
660.393	0.0159521
660.471	0.0160957
660.549	0.0159861
660.628	0.0159296
660.706	0.0159155
660.784	0.0158221
660.862	0.0158493
660.940	0.0159960
661.018	0.0159397
661.096	0.0158480
661.174	0.0158452
661.253	0.0158452
661.331	0.0158329
661.409	0.0158364
661.487	0.0157169
661.565	0.0156994
661.643	0.0156492
661.721	0.0155938
661.799	0.0155677
661.878	0.0155862
661.956	0.0156383
662.034	0.0155612
662.112	0.0156026
662.190	0.0155831
662.268	0.0155587
662.346	0.0155411
662.424	0.0155262
662.503	0.0155083
662.581	0.0155562
662.659	0.0156129
662.737	0.0156622
662.815	0.0155910
662.893	0.0156100
662.971	0.0157461
663.049	0.0156587
663.128	0.0156698
663.206	0.0157365
663.284	0.0157752
663.362	0.0157758
663.440	0.0158009
663.518	0.0157649
663.596	0.0157758
663.674	0.0158961
663.753	0.0158719
663.831	0.0157193
663.909	0.0157403
663.987	0.0157719
664.065	0.0157906
664.143	0.0157745
664.221	0.0156483
664.299	0.0157003
664.378	0.0158115
664.456	0.0156792
664.534	0.0156467
664.612	0.0156691
664.690	0.0156966
664.768	0.0156515
664.846	0.0155483
664.924	0.0157264
665.003	0.0157074
665.081	0.0157183
665.159	0.0158218
665.237	0.0156381
665.315	0.0157661
665.393	0.0158359
665.471	0.0157190
665.549	0.0158943
665.628	0.0157954
665.706	0.0156877
665.784	0.0158676
665.862	0.0157824
665.940	0.0158475
666.018	0.0157684
666.096	0.0158089
666.174	0.0158379
666.253	0.0157861
666.331	0.0157372
666.409	0.0158330
666.487	0.0158397
666.565	0.0158022
666.643	0.0157618
666.721	0.0158296
666.799	0.0160440
666.878	0.0159059
666.956	0.0159404
667.034	0.0159709
667.112	0.0158701
667.190	0.0161024
667.268	0.0160806
667.346	0.0160072
667.424	0.0159817
667.503	0.0161965
667.581	0.0161938
667.659	0.0161547
667.737	0.0161378
667.815	0.0160606
667.893	0.0161671
667.971	0.0162321
668.049	0.0160142
668.128	0.0161505
668.206	0.0161750
668.284	0.0161828
668.362	0.0160112
668.440	0.0162190
668.518	0.0162217
668.596	0.0160373
668.674	0.0161456
668.753	0.0161388
668.831	0.0161649
668.909	0.0161819
668.987	0.0161378
669.065	0.0162149
669.143	0.0159489
669.221	0.0160970
669.299	0.0160508
669.378	0.0160818
669.456	0.0161402
669.534	0.0161170
669.612	0.0161768
669.690	0.0161217
669.768	0.0160818
669.846	0.0159499
669.924	0.0162607
670.003	0.0161832
670.081	0.0160724
670.159	0.0161849
670.237	0.0162236
670.315	0.0162195
670.393	0.0160839
670.471	0.0161249
670.549	0.0162392
670.628	0.0162747
670.706	0.0162999
670.784	0.0162706
670.862	0.0161807
670.940	0.0162311
671.018	0.0161908
671.096	0.0161198
671.174	0.0161475
671.253	0.0163567
671.331	0.0161355
671.409	0.0161064
671.487	0.0161690
671.565	0.0161260
671.643	0.0160109
671.721	0.0162074
671.799	0.0158697
671.878	0.0160244
671.956	0.0159837
672.034	0.0159108
672.112	0.0160612
672.190	0.0160213
672.268	0.0159937
672.346	0.0159692
672.424	0.0157954
672.503	0.0159123
672.581	0.0158634
672.659	0.0159000
672.737	0.0160698
672.815	0.0160311
672.893	0.0159587
672.971	0.0158347
673.049	0.0157690
673.128	0.0157606
673.206	0.0156578
673.284	0.0158331
673.362	0.0157775
673.440	0.0157436
673.518	0.0156538
673.596	0.0156871
673.674	0.0157153
673.753	0.0156342
673.831	0.0154099
673.909	0.0154557
673.987	0.0155307
674.065	0.0153904
674.143	0.0153078
674.221	0.0155791
674.299	0.0153760
674.378	0.0152667
674.456	0.0154617
674.534	0.0151934
674.612	0.0152737
674.690	0.0153928
674.768	0.0153364
674.846	0.0152083
674.924	0.0154630
675.003	0.0152784
675.081	0.0153024
675.159	0.0153214
675.237	0.0154737
675.315	0.0154636
675.393	0.0154507
675.471	0.0155198
675.549	0.0154449
675.628	0.0154120
675.706	0.0154156
675.784	0.0155949
675.862	0.0156129
675.940	0.0155389
676.018	0.0157011
676.096	0.0156681
676.174	0.0157738
676.253	0.0156299
676.331	0.0156469
676.409	0.0156908
676.487	0.0155260
676.565	0.0154711
676.643	0.0154189
676.721	0.0154730
676.799	0.0154786
676.878	0.0153606
676.956	0.0152972
677.034	0.0150500
677.112	0.0150702
677.190	0.0150384
677.268	0.0150493
677.346	0.0149895
677.424	0.0150613
677.503	0.0150903
677.581	0.0149791
677.659	0.0148238
677.737	0.0150167
677.815	0.0150729
677.893	0.0150291
677.971	0.0151849
678.049	0.0152785
678.128	0.0151523
678.206	0.0153059
678.284	0.0152334
678.362	0.0152082
678.440	0.0151016
678.518	0.0151440
678.596	0.0153892
678.674	0.0151544
678.753	0.0153138
678.831	0.0151853
678.909	0.0153962
678.987	0.0154465
679.065	0.0152741
679.143	0.0155764
679.221	0.0156843
679.299	0.0157373
679.378	0.0157903
679.456	0.0158901
679.534	0.0160005
679.612	0.0161210
679.690	0.0161729
679.768	0.0163356
679.846	0.0164423
679.924	0.0165073
680.003	0.0165710
680.081	0.0166138
680.159	0.0165615
680.237	0.0166040
680.315	0.0167103
680.393	0.0168227
680.471	0.0167210
680.549	0.0168100
680.628	0.0165457
680.706	0.0166608
680.784	0.0167575
680.862	0.0168602
680.940	0.0166106
681.018	0.0165564
681.096	0.0165487
681.174	0.0166370
681.253	0.0163665
681.331	0.0164107
681.409	0.0163187
681.487	0.0163780
681.565	0.0163594
681.643	0.0162805
681.721	0.0162147
681.799	0.0160925
681.878	0.0160945
681.956	0.0159025
682.034	0.0161931
682.112	0.0160426
682.190	0.0159970
682.268	0.0159267
682.346	0.0159479
682.424	0.0159914
682.503	0.0158166
682.581	0.0160163
682.659	0.0158729
682.737	0.0160220
682.815	0.0159888
682.893	0.0160670
682.971	0.0159719
683.049	0.0161368
683.128	0.0160355
683.206	0.0160854
683.284	0.0160978
683.362	0.0161271
683.440	0.0162711
683.518	0.0161722
683.596	0.0162908
683.674	0.0162013
683.753	0.0163075
683.831	0.0162383
683.909	0.0163260
683.987	0.0161545
684.065	0.0162395
684.143	0.0161386
684.221	0.0161246
684.299	0.0161261
684.378	0.0159652
684.456	0.0160397
684.534	0.0159905
684.612	0.0160455
684.690	0.0159315
684.768	0.0159093
684.846	0.0157809
684.924	0.0158028
685.003	0.0157162
685.081	0.0156786
685.159	0.0157259
685.237	0.0158418
685.315	0.0157278
685.393	0.0157428
685.471	0.0157471
685.549	0.0154665
685.628	0.0153592
685.706	0.0153883
685.784	0.0155235
685.862	0.0153703
685.940	0.0152943
686.018	0.0152141
686.096	0.0151482
686.174	0.0152267
686.253	0.0151720
686.331	0.0150960
686.409	0.0150861
686.487	0.0150645
686.565	0.0150516
686.643	0.0151116
686.721	0.0148624
686.799	0.0149307
686.878	0.0150692
686.956	0.0149538
687.034	0.0149638
687.112	0.0150668
687.190	0.0151016
687.268	0.0149694
687.346	0.0150010
687.424	0.0151323
687.503	0.0150388
687.581	0.0151052
687.659	0.0151700
687.737	0.0154250
687.815	0.0153848
687.893	0.0153487
687.971	0.0152747
688.049	0.0155268
688.128	0.0153506
688.206	0.0154526
688.284	0.0153754
688.362	0.0155211
688.440	0.0155638
688.518	0.0156131
688.596	0.0155392
688.674	0.0154999
688.753	0.0156496
688.831	0.0157986
688.909	0.0155857
688.987	0.0155222
689.065	0.0157379
689.143	0.0155691
689.221	0.0156041
689.299	0.0156398
689.378	0.0157971
689.456	0.0157781
689.534	0.0156036
689.612	0.0158120
689.690	0.0158791
689.768	0.0157545
689.846	0.0158770
689.924	0.0160005
690.003	0.0159699
690.081	0.0160458
690.159	0.0159982
690.237	0.0161005
690.315	0.0161288
690.393	0.0161302
690.471	0.0161919
690.549	0.0161137
690.628	0.0162566
690.706	0.0160679
690.784	0.0162749
690.862	0.0162567
690.940	0.0163288
691.018	0.0162871
691.096	0.0163547
691.174	0.0163914
691.253	0.0163196
691.331	0.0163239
691.409	0.0163622
691.487	0.0163274
691.565	0.0163359
691.643	0.0164191
691.721	0.0162844
691.799	0.0163212
691.878	0.0163969
691.956	0.0162694
692.034	0.0162446
692.112	0.0163029
692.190	0.0163439
692.268	0.0161288
692.346	0.0161996
692.424	0.0161575
692.503	0.0161061
692.581	0.0159753
692.659	0.0159518
692.737	0.0160336
692.815	0.0157970
692.893	0.0157722
692.971	0.0158550
693.049	0.0158086
693.128	0.0157668
693.206	0.0156647
693.284	0.0157420
693.362	0.0155488
693.440	0.0154852
693.518	0.0154482
693.596	0.0154506
693.674	0.0153741
693.753	0.0155077
693.831	0.0154340
693.909	0.0155054
693.987	0.0152538
694.065	0.0153302
694.143	0.0153078
694.221	0.0151955
694.299	0.0153516
694.378	0.0152883
694.456	0.0154551
694.534	0.0155104
694.612	0.0155075
694.690	0.0155228
694.768	0.0155154
694.846	0.0154662
694.924	0.0155080
695.003	0.0156599
695.081	0.0156621
695.159	0.0156013
695.237	0.0156664
695.315	0.0156622
695.393	0.0156796
695.471	0.0158391
695.549	0.0156919
695.628	0.0158395
695.706	0.0158144
695.784	0.0159077
695.862	0.0158428
695.940	0.0157361
696.018	0.0158601
696.096	0.0160436
696.174	0.0159337
696.253	0.0159691
696.331	0.0159180
696.409	0.0159206
696.487	0.0159965
696.565	0.0161490
696.643	0.0161569
696.721	0.0160548
696.799	0.0160706
696.878	0.0160429
696.956	0.0160238
697.034	0.0159660
697.112	0.0159290
697.190	0.0158646
697.268	0.0158350
697.346	0.0157751
697.424	0.0157796
697.503	0.0157417
697.581	0.0156885
697.659	0.0157273
697.737	0.0155439
697.815	0.0157219
697.893	0.0155981
697.971	0.0156989
698.049	0.0156477
698.128	0.0156767
698.206	0.0157107
698.284	0.0155554
698.362	0.0155305
698.440	0.0156644
698.518	0.0154481
698.596	0.0154785
698.674	0.0155733
698.753	0.0156208
698.831	0.0156973
698.909	0.0156210
698.987	0.0155401
699.065	0.0156382
699.143	0.0157684
699.221	0.0157351
699.299	0.0157370
699.378	0.0157388
699.456	0.0158536
699.534	0.0157862
699.612	0.0156107
699.690	0.0155760
699.768	0.0156251
699.846	0.0154772
699.924	0.0153854
700.003	0.0151781
700.081	0.0151159
700.159	0.0151189
700.237	0.0151521
700.315	0.0149209
700.393	0.0150861
700.471	0.0150329
700.549	0.0149840
700.628	0.0149397
700.706	0.0150288
700.784	0.0150793
700.862	0.0150330
700.940	0.0150371
701.018	0.0150599
701.096	0.0150531
701.174	0.0150170
701.253	0.0151928
701.331	0.0152238
701.409	0.0152971
701.487	0.0151881
701.565	0.0152210
701.643	0.0152957
701.721	0.0153840
701.799	0.0156010
701.878	0.0154414
701.956	0.0154800
702.034	0.0156792
702.112	0.0154993
702.190	0.0156120
702.268	0.0155593
702.346	0.0155740
702.424	0.0157117
702.503	0.0156620
702.581	0.0157069
702.659	0.0157233
702.737	0.0157551
702.815	0.0158567
702.893	0.0158260
702.971	0.0159168
703.049	0.0158204
703.128	0.0159416
703.206	0.0157953
703.284	0.0158785
703.362	0.0158178
703.440	0.0157049
703.518	0.0157124
703.596	0.0158228
703.674	0.0158497
703.753	0.0158709
703.831	0.0157976
703.909	0.0157393
703.987	0.0157745
704.065	0.0158214
704.143	0.0159053
704.221	0.0157404
704.299	0.0156821
704.378	0.0158427
704.456	0.0157806
704.534	0.0157258
704.612	0.0157922
704.690	0.0158383
704.768	0.0158441
704.846	0.0159573
704.924	0.0159105
705.003	0.0159823
705.081	0.0160844
705.159	0.0161063
705.237	0.0160896
705.315	0.0160338
705.393	0.0161035
705.471	0.0161623
705.549	0.0161594
705.628	0.0161575
705.706	0.0162251
705.784	0.0163257
705.862	0.0163604
705.940	0.0162734
706.018	0.0163673
706.096	0.0162442
706.174	0.0162765
706.253	0.0162847
706.331	0.0163034
706.409	0.0162450
706.487	0.0162442
706.565	0.0162241
706.643	0.0162695
706.721	0.0163602
706.799	0.0162956
706.878	0.0163996
706.956	0.0163242
707.034	0.0163671
707.112	0.0163428
707.190	0.0163115
707.268	0.0164526
707.346	0.0162954
707.424	0.0162517
707.503	0.0163482
707.581	0.0163270
707.659	0.0160299
707.737	0.0162033
707.815	0.0162194
707.893	0.0162348
707.971	0.0163644
708.049	0.0162872
708.128	0.0161582
708.206	0.0161696
708.284	0.0162025
708.362	0.0161330
708.440	0.0161711
708.518	0.0161362
708.596	0.0160526
708.674	0.0160456
708.753	0.0160771
708.831	0.0161602
708.909	0.0160538
708.987	0.0160143
709.065	0.0159647
709.143	0.0159912
709.221	0.0159701
709.299	0.0158241
709.378	0.0158475
709.456	0.0159408
709.534	0.0157294
709.612	0.0155811
709.690	0.0156114
709.768	0.0155373
709.846	0.0154842
709.924	0.0156431
710.003	0.0154944
710.081	0.0153271
710.159	0.0153723
710.237	0.0154186
710.315	0.0151329
710.393	0.0152007
710.471	0.0151419
710.549	0.0151569
710.628	0.0151470
710.706	0.0149928
710.784	0.0149652
710.862	0.0150060
710.940	0.0147607
711.018	0.0150014
711.096	0.0148042
711.174	0.0148523
711.253	0.0148898
711.331	0.0147202
711.409	0.0149364
711.487	0.0150829
711.565	0.0148965
711.643	0.0149543
711.721	0.0150318
711.799	0.0149266
711.878	0.0148911
711.956	0.0149898
712.034	0.0149944
712.112	0.0149470
712.190	0.0149940
712.268	0.0149126
712.346	0.0149802
712.424	0.0149765
712.503	0.0150323
712.581	0.0151492
712.659	0.0151493
712.737	0.0150643
712.815	0.0151773
712.893	0.0153401
712.971	0.0153636
713.049	0.0153194
713.128	0.0154928
713.206	0.0155771
713.284	0.0155596
713.362	0.0156031
713.440	0.0156804
713.518	0.0157191
713.596	0.0157429
713.674	0.0156623
713.753	0.0156946
713.831	0.0157475
713.909	0.0157001
713.987	0.0158043
714.065	0.0157681
714.143	0.0157249
714.221	0.0157713
714.299	0.0158729
714.378	0.0159023
714.456	0.0157243
714.534	0.0159095
714.612	0.0159250
714.690	0.0158093
714.768	0.0157586
714.846	0.0157660
714.924	0.0159402
715.003	0.0159892
715.081	0.0158350
715.159	0.0159524
715.237	0.0158738
715.315	0.0158891
715.393	0.0159365
715.471	0.0159335
715.549	0.0159543
715.628	0.0158517
715.706	0.0159605
715.784	0.0159641
715.862	0.0159911
715.940	0.0159490
716.018	0.0159874
716.096	0.0158753
716.174	0.0159173
716.253	0.0157413
716.331	0.0158361
716.409	0.0158902
716.487	0.0158118
716.565	0.0156304
716.643	0.0156870
716.721	0.0158176
716.799	0.0158485
716.878	0.0156741
716.956	0.0157344
717.034	0.0157064
717.112	0.0155392
717.190	0.0156093
717.268	0.0155636
717.346	0.0157453
717.424	0.0156317
717.503	0.0157407
717.581	0.0157529
717.659	0.0157413
717.737	0.0157368
717.815	0.0156866
717.893	0.0156582
717.971	0.0157295
718.049	0.0158420
718.128	0.0158058
718.206	0.0157925
718.284	0.0158231
718.362	0.0159363
718.440	0.0158122
718.518	0.0158039
718.596	0.0158294
718.674	0.0158606
718.753	0.0157355
718.831	0.0158323
718.909	0.0157893
718.987	0.0158025
719.065	0.0156620
719.143	0.0156300
719.221	0.0157506
719.299	0.0156249
719.378	0.0155160
719.456	0.0155360
719.534	0.0153560
719.612	0.0154741
719.690	0.0156101
719.768	0.0154528
719.846	0.0154523
719.924	0.0150532
720.003	0.0153427
720.081	0.0154886
720.159	0.0153842
720.237	0.0154188
720.315	0.0153613
720.393	0.0154080
720.471	0.0154654
720.549	0.0154778
720.628	0.0154751
720.706	0.0155312
720.784	0.0155724
720.862	0.0156181
720.940	0.0156489
721.018	0.0156259
721.096	0.0156346
721.174	0.0157111
721.253	0.0158051
721.331	0.0156295
721.409	0.0156371
721.487	0.0155771
721.565	0.0156847
721.643	0.0157104
721.721	0.0156654
721.799	0.0156407
721.878	0.0157485
721.956	0.0157359
722.034	0.0157669
722.112	0.0157619
722.190	0.0158257
722.268	0.0156631
722.346	0.0159303
722.424	0.0159032
722.503	0.0158984
722.581	0.0158461
722.659	0.0156732
722.737	0.0159727
722.815	0.0157382
722.893	0.0158171
722.971	0.0156637
723.049	0.0156831
723.128	0.0155522
723.206	0.0156218
723.284	0.0156042
723.362	0.0155233
723.440	0.0156970
723.518	0.0155032
723.596	0.0154148
723.674	0.0153835
723.753	0.0152398
723.831	0.0152436
723.909	0.0151733
723.987	0.0150974
724.065	0.0150768
724.143	0.0153027
724.221	0.0152477
724.299	0.0152312
724.378	0.0153131
724.456	0.0154028
724.534	0.0154417
724.612	0.0153628
724.690	0.0154431
724.768	0.0155052
724.846	0.0154980
724.924	0.0155902
725.003	0.0157042
725.081	0.0157472
725.159	0.0157476
725.237	0.0157952
725.315	0.0157800
725.393	0.0157676
725.471	0.0158372
725.549	0.0158096
725.628	0.0159098
725.706	0.0157865
725.784	0.0157994
725.862	0.0159283
725.940	0.0160224
726.018	0.0158727
726.096	0.0158781
726.174	0.0158783
726.253	0.0159418
726.331	0.0159225
726.409	0.0158560
726.487	0.0160022
726.565	0.0160303
726.643	0.0158867
726.721	0.0158689
726.799	0.0157410
726.878	0.0156227
726.956	0.0157062
727.034	0.0156195
727.112	0.0154975
727.190	0.0153753
727.268	0.0153185
727.346	0.0153020
727.424	0.0152907
727.503	0.0152923
727.581	0.0151848
727.659	0.0150102
727.737	0.0150474
727.815	0.0150345
727.893	0.0151016
727.971	0.0151044
728.049	0.0150346
728.128	0.0149936
728.206	0.0152250
728.284	0.0152086
728.362	0.0151814
728.440	0.0154604
728.518	0.0153880
728.596	0.0153765
728.674	0.0156460
728.753	0.0157880
728.831	0.0156300
728.909	0.0157373
728.987	0.0158691
729.065	0.0159190
729.143	0.0159975
729.221	0.0159703
729.299	0.0160300
729.378	0.0160961
729.456	0.0159746
729.534	0.0161151
729.612	0.0161295
729.690	0.0161122
729.768	0.0160212
729.846	0.0160804
729.924	0.0161134
730.003	0.0160055
730.081	0.0160944
730.159	0.0160783
730.237	0.0160585
730.315	0.0161629
730.393	0.0161100
730.471	0.0161871
730.549	0.0161797
730.628	0.0159905
730.706	0.0159019
730.784	0.0160154
730.862	0.0158392
730.940	0.0159428
731.018	0.0158842
731.096	0.0156558
731.174	0.0157439
731.253	0.0157214
731.331	0.0157491
731.409	0.0157262
731.487	0.0156756
731.565	0.0156423
731.643	0.0155118
731.721	0.0155898
731.799	0.0155870
731.878	0.0156477
731.956	0.0157220
732.034	0.0155420
732.112	0.0155258
732.190	0.0156918
732.268	0.0156070
732.346	0.0156432
732.424	0.0157666
732.503	0.0157760
732.581	0.0157968
732.659	0.0158806
732.737	0.0159017
732.815	0.0159481
732.893	0.0158315
732.971	0.0159879
733.049	0.0161423
733.128	0.0160417
733.206	0.0162688
733.284	0.0163666
733.362	0.0162128
733.440	0.0162365
733.518	0.0162321
733.596	0.0162642
733.674	0.0162703
733.753	0.0161708
733.831	0.0163181
733.909	0.0162673
733.987	0.0161926
734.065	0.0160017
734.143	0.0161436
734.221	0.0160171
734.299	0.0158741
734.378	0.0157495
734.456	0.0157278
734.534	0.0156265
734.612	0.0155227
734.690	0.0155065
734.768	0.0154140
734.846	0.0151063
734.924	0.0150722
735.003	0.0149058
735.081	0.0147753
735.159	0.0146378
735.237	0.0147409
735.315	0.0145683
735.393	0.0146436
735.471	0.0145326
735.549	0.0146423
735.628	0.0146052
735.706	0.0145399
735.784	0.0147592
735.862	0.0147447
735.940	0.0148201
736.018	0.0150064
736.096	0.0151166
736.174	0.0151660
736.253	0.0151997
736.331	0.0154720
736.409	0.0155981
736.487	0.0155267
736.565	0.0157455
736.643	0.0157388
736.721	0.0158868
736.799	0.0158928
736.878	0.0160223
736.956	0.0161391
737.034	0.0160955
737.112	0.0161590
737.190	0.0163015
737.268	0.0162699
737.346	0.0163036
737.424	0.0164789
737.503	0.0162909
737.581	0.0162907
737.659	0.0164056
737.737	0.0163560
737.815	0.0163618
737.893	0.0163414
737.971	0.0162661
738.049	0.0161639
738.128	0.0161216
738.206	0.0160566
738.284	0.0159793
738.362	0.0159279
738.440	0.0157645
738.518	0.0157809
738.596	0.0157343
738.674	0.0156673
738.753	0.0156210
738.831	0.0155903
738.909	0.0154835
738.987	0.0156213
739.065	0.0154618
739.143	0.0154883
739.221	0.0153666
739.299	0.0154230
739.378	0.0154307
739.456	0.0154918
739.534	0.0155042
739.612	0.0154682
739.690	0.0154144
739.768	0.0154188
739.846	0.0154456
739.924	0.0155196
740.003	0.0155035
740.081	0.0155081
740.159	0.0155071
740.237	0.0155674
740.315	0.0155618
740.393	0.0156282
740.471	0.0155799
740.549	0.0156276
740.628	0.0156250
740.706	0.0156031
740.784	0.0156237
740.862	0.0157111
740.940	0.0157490
741.018	0.0156805
741.096	0.0158208
741.174	0.0157151
741.253	0.0157272
741.331	0.0157721
741.409	0.0157666
741.487	0.0158095
741.565	0.0159708
741.643	0.0158468
741.721	0.0158095
741.799	0.0159614
741.878	0.0157700
741.956	0.0158011
742.034	0.0158096
742.112	0.0158277
742.190	0.0159011
742.268	0.0158049
742.346	0.0158691
742.424	0.0157210
742.503	0.0157866
742.581	0.0157804
742.659	0.0157767
742.737	0.0156914
742.815	0.0156443
742.893	0.0156515
742.971	0.0155335
743.049	0.0153800
743.128	0.0153984
743.206	0.0154324
743.284	0.0155107
743.362	0.0154499
743.440	0.0154208
743.518	0.0155228
743.596	0.0154313
743.674	0.0155875
743.753	0.0156354
743.831	0.0156956
743.909	0.0157297
743.987	0.0156690
744.065	0.0158215
744.143	0.0159405
744.221	0.0159032
744.299	0.0158656
744.378	0.0159113
744.456	0.0161201
744.534	0.0161490
744.612	0.0159702
744.690	0.0159953
744.768	0.0159173
744.846	0.0159509
744.924	0.0159335
745.003	0.0158192
745.081	0.0159348
745.159	0.0157731
745.237	0.0158035
745.315	0.0157140
745.393	0.0157959
745.471	0.0158226
745.549	0.0158840
745.628	0.0157899
745.706	0.0158076
745.784	0.0157845
745.862	0.0159081
745.940	0.0159170
746.018	0.0159141
746.096	0.0160462
746.174	0.0160023
746.253	0.0159952
746.331	0.0159882
746.409	0.0159129
746.487	0.0160864
746.565	0.0161102
746.643	0.0159482
746.721	0.0160086
746.799	0.0160047
746.878	0.0160271
746.956	0.0160754
747.034	0.0160456
747.112	0.0159722
747.190	0.0160603
747.268	0.0159284
747.346	0.0158797
747.424	0.0159639
747.503	0.0159514
747.581	0.0159525
747.659	0.0157738
747.737	0.0159062
747.815	0.0158894
747.893	0.0160242
747.971	0.0156506
748.049	0.0158392
748.128	0.0159074
748.206	0.0158089
748.284	0.0156943
748.362	0.0157417
748.440	0.0155543
748.518	0.0156152
748.596	0.0156895
748.674	0.0156477
748.753	0.0156380
748.831	0.0155969
748.909	0.0155781
748.987	0.0155656
749.065	0.0155978
749.143	0.0156774
749.221	0.0157645
749.299	0.0156840
749.378	0.0156661
749.456	0.0158471
749.534	0.0157756
749.612	0.0157190
749.690	0.0156454
749.768	0.0158376
749.846	0.0159218
749.924	0.0158265
750.003	0.0161681
750.081	0.0160324
750.159	0.0159777
750.237	0.0160690
750.315	0.0160459
750.393	0.0162827
750.471	0.0162106
750.549	0.0161716
750.628	0.0160961
750.706	0.0162289
750.784	0.0163235
750.862	0.0162147
750.940	0.0162538
751.018	0.0163370
751.096	0.0162226
751.174	0.0160844
751.253	0.0161925
751.331	0.0162248
751.409	0.0161211
751.487	0.0158755
751.565	0.0160088
751.643	0.0157868
751.721	0.0159277
751.799	0.0157964
751.878	0.0157510
751.956	0.0156705
752.034	0.0158163
752.112	0.0156300
752.190	0.0157694
752.268	0.0157129
752.346	0.0157495
752.424	0.0157293
752.503	0.0157303
752.581	0.0157244
752.659	0.0156587
752.737	0.0157829
752.815	0.0157614
752.893	0.0156914
752.971	0.0157863
753.049	0.0158714
753.128	0.0158156
753.206	0.0156078
753.284	0.0156688
753.362	0.0158022
753.440	0.0157653
753.518	0.0158012
753.596	0.0157853
753.674	0.0157375
753.753	0.0156271
753.831	0.0157047
753.909	0.0157938
753.987	0.0157122
754.065	0.0155688
754.143	0.0156529
754.221	0.0156659
754.299	0.0155920
754.378	0.0156008
754.456	0.0157059
754.534	0.0157160
754.612	0.0157938
754.690	0.0159087
754.768	0.0158099
754.846	0.0156946
754.924	0.0157493
755.003	0.0159861
755.081	0.0159595
755.159	0.0160030
755.237	0.0161720
755.315	0.0161916
755.393	0.0162598
755.471	0.0162572
755.549	0.0164339
755.628	0.0165228
755.706	0.0165199
755.784	0.0165831
755.862	0.0164925
755.940	0.0166560
756.018	0.0165047
756.096	0.0164858
756.174	0.0166947
756.253	0.0165820
756.331	0.0165046
756.409	0.0165126
756.487	0.0164661
756.565	0.0164682
756.643	0.0165793
756.721	0.0165696
756.799	0.0163442
756.878	0.0162632
756.956	0.0162002
757.034	0.0162437
757.112	0.0161653
757.190	0.0161275
757.268	0.0159906
757.346	0.0159986
757.424	0.0159833
757.503	0.0160333
757.581	0.0158274
757.659	0.0159184
757.737	0.0158039
757.815	0.0157141
757.893	0.0156481
757.971	0.0157557
758.049	0.0157066
758.128	0.0156477
758.206	0.0156525
758.284	0.0156160
758.362	0.0157704
758.440	0.0156966
758.518	0.0155489
758.596	0.0157019
758.674	0.0157966
758.753	0.0156107
758.831	0.0155523
758.909	0.0157223
758.987	0.0157514
759.065	0.0156558
759.143	0.0158040
759.221	0.0156647
759.299	0.0157500
759.378	0.0156363
759.456	0.0156866
759.534	0.0156241
759.612	0.0157201
759.690	0.0156497
759.768	0.0154031
759.846	0.0156657
759.924	0.0155418
760.003	0.0154986
760.081	0.0155813
760.159	0.0156075
760.237	0.0154556
760.315	0.0154952
760.393	0.0157286
760.471	0.0156121
760.549	0.0156536
760.628	0.0156757
760.706	0.0156356
760.784	0.0155296
760.862	0.0155028
760.940	0.0155593
761.018	0.0155173
761.096	0.0157040
761.174	0.0155542
761.253	0.0155314
761.331	0.0156024
761.409	0.0156358
761.487	0.0157166
761.565	0.0156178
761.643	0.0157619
761.721	0.0155791
761.799	0.0155066
761.878	0.0155507
761.956	0.0156268
762.034	0.0157470
762.112	0.0156875
762.190	0.0157452
762.268	0.0157170
762.346	0.0156649
762.424	0.0156993
762.503	0.0155972
762.581	0.0157148
762.659	0.0156494
762.737	0.0155724
762.815	0.0155909
762.893	0.0155977
762.971	0.0157561
763.049	0.0156361
763.128	0.0155750
763.206	0.0154705
763.284	0.0154552
763.362	0.0154501
763.440	0.0153846
763.518	0.0154215
763.596	0.0155257
763.674	0.0154729
763.753	0.0153321
763.831	0.0152915
763.909	0.0153946
763.987	0.0154015
764.065	0.0153400
764.143	0.0152480
764.221	0.0154933
764.299	0.0153365
764.378	0.0152531
764.456	0.0154736
764.534	0.0155938
764.612	0.0155318
764.690	0.0154191
764.768	0.0156116
764.846	0.0157123
764.924	0.0156223
765.003	0.0158259
765.081	0.0157858
765.159	0.0156680
765.237	0.0158508
765.315	0.0156908
765.393	0.0156976
765.471	0.0158336
765.549	0.0156506
765.628	0.0157278
765.706	0.0157073
765.784	0.0156790
765.862	0.0156853
765.940	0.0157440
766.018	0.0158932
766.096	0.0157973
766.174	0.0158370
766.253	0.0159424
766.331	0.0159277
766.409	0.0158471
766.487	0.0160336
766.565	0.0160516
766.643	0.0160363
766.721	0.0158679
766.799	0.0159270
766.878	0.0159966
766.956	0.0160673
767.034	0.0161994
767.112	0.0161518
767.190	0.0159931
767.268	0.0162804
767.346	0.0161049
767.424	0.0161758
767.503	0.0163558
767.581	0.0163141
767.659	0.0163010
767.737	0.0163452
767.815	0.0163052
767.893	0.0162070
767.971	0.0162215
768.049	0.0162726
768.128	0.0161706
768.206	0.0161745
768.284	0.0162095
768.362	0.0160493
768.440	0.0160212
768.518	0.0161505
768.596	0.0160506
768.674	0.0159799
768.753	0.0160046
768.831	0.0160737
768.909	0.0160589
768.987	0.0159985
769.065	0.0159863
769.143	0.0159937
769.221	0.0159259
769.299	0.0160346
769.378	0.0160522
769.456	0.0161348
769.534	0.0160246
769.612	0.0159785
769.690	0.0161642
769.768	0.0160880
769.846	0.0161731
769.924	0.0162249
770.003	0.0162997
770.081	0.0161941
770.159	0.0160876
770.237	0.0163201
770.315	0.0161932
770.393	0.0161503
770.471	0.0162128
770.549	0.0162709
770.628	0.0161369
770.706	0.0160516
770.784	0.0161657
770.862	0.0161969
770.940	0.0161227
771.018	0.0159276
771.096	0.0160104
771.174	0.0160522
771.253	0.0157998
771.331	0.0158674
771.409	0.0158451
771.487	0.0157105
771.565	0.0156467
771.643	0.0154914
771.721	0.0154088
771.799	0.0153539
771.878	0.0153561
771.956	0.0153110
772.034	0.0152644
772.112	0.0152391
772.190	0.0152839
772.268	0.0153054
772.346	0.0155328
772.424	0.0156216
772.503	0.0154848
772.581	0.0158086
772.659	0.0158007
772.737	0.0158686
772.815	0.0160111
772.893	0.0160304
772.971	0.0162882
773.049	0.0164876
773.128	0.0165239
773.206	0.0165257
773.284	0.0166166
773.362	0.0166808
773.440	0.0165598
773.518	0.0167207
773.596	0.0166529
773.674	0.0164510
773.753	0.0164729
773.831	0.0164723
773.909	0.0164664
773.987	0.0162996
774.065	0.0163346
774.143	0.0162524
774.221	0.0161864
774.299	0.0160442
774.378	0.0159744
774.456	0.0158779
774.534	0.0158494
774.612	0.0157784
774.690	0.0156989
774.768	0.0155540
774.846	0.0155466
774.924	0.0154039
775.003	0.0154516
775.081	0.0153098
775.159	0.0152880
775.237	0.0151546
775.315	0.0149731
775.393	0.0149085
775.471	0.0149718
775.549	0.0148767
775.628	0.0148271
775.706	0.0146703
775.784	0.0147152
775.862	0.0146118
775.940	0.0148673
776.018	0.0147959
776.096	0.0147798
776.174	0.0147868
776.253	0.0148039
776.331	0.0147609
776.409	0.0150211
776.487	0.0150497
776.565	0.0150020
776.643	0.0152451
776.721	0.0152535
776.799	0.0153510
776.878	0.0153844
776.956	0.0154462
777.034	0.0156351
777.112	0.0158035
777.190	0.0158272
777.268	0.0157880
777.346	0.0161198
777.424	0.0160811
777.503	0.0161515
777.581	0.0161263
777.659	0.0162555
777.737	0.0162718
777.815	0.0162806
777.893	0.0163344
777.971	0.0163244
778.049	0.0165098
778.128	0.0164531
778.206	0.0164328
778.284	0.0165452
778.362	0.0165074
778.440	0.0165111
778.518	0.0164662
778.596	0.0164123
778.674	0.0162916
778.753	0.0162646
778.831	0.0162608
778.909	0.0162241
778.987	0.0162884
779.065	0.0162043
779.143	0.0159984
779.221	0.0161465
779.299	0.0162020
779.378	0.0161678
779.456	0.0158825
779.534	0.0158183
779.612	0.0158830
779.690	0.0157846
779.768	0.0158018
779.846	0.0156475
779.924	0.0156348
780.003	0.0155751
780.081	0.0154680
780.159	0.0155205
780.237	0.0154163
780.315	0.0152826
780.393	0.0152803
780.471	0.0153810
780.549	0.0150694
780.628	0.0150887
780.706	0.0152897
780.784	0.0151079
780.862	0.0151580
780.940	0.0151022
781.018	0.0152781
781.096	0.0152122
781.174	0.0152437
781.253	0.0153922
781.331	0.0152440
781.409	0.0153502
781.487	0.0156351
781.565	0.0156253
781.643	0.0156708
781.721	0.0157323
781.799	0.0159190
781.878	0.0160281
781.956	0.0160719
782.034	0.0161287
782.112	0.0161868
782.190	0.0162051
782.268	0.0160963
782.346	0.0163834
782.424	0.0163849
782.503	0.0162669
782.581	0.0163096
782.659	0.0163778
782.737	0.0164833
782.815	0.0162670
782.893	0.0163231
782.971	0.0163139
783.049	0.0163129
783.128	0.0163461
783.206	0.0162756
783.284	0.0160999
783.362	0.0159457
783.440	0.0161126
783.518	0.0159266
783.596	0.0160358
783.674	0.0160097
783.753	0.0160055
783.831	0.0158517
783.909	0.0159342
783.987	0.0158870
784.065	0.0157545
784.143	0.0157869
784.221	0.0158159
784.299	0.0157674
784.378	0.0157303
784.456	0.0158762
784.534	0.0156854
784.612	0.0156959
784.690	0.0156274
784.768	0.0155548
784.846	0.0154859
784.924	0.0155463
785.003	0.0155284
785.081	0.0153831
785.159	0.0155213
785.237	0.0155921
785.315	0.0153765
785.393	0.0154516
785.471	0.0154747
785.549	0.0154423
785.628	0.0153627
785.706	0.0155774
785.784	0.0157392
785.862	0.0155128
785.940	0.0155856
786.018	0.0156388
786.096	0.0156702
786.174	0.0156121
786.253	0.0156863
786.331	0.0156080
786.409	0.0156127
786.487	0.0156747
786.565	0.0155761
786.643	0.0155710
786.721	0.0155666
786.799	0.0156191
786.878	0.0155611
786.956	0.0153616
787.034	0.0154503
787.112	0.0155466
787.190	0.0154391
787.268	0.0154967
787.346	0.0156230
787.424	0.0154527
787.503	0.0154004
787.581	0.0155006
787.659	0.0155906
787.737	0.0155577
787.815	0.0156403
787.893	0.0155591
787.971	0.0155903
788.049	0.0155621
788.128	0.0155392
788.206	0.0155151
788.284	0.0153416
788.362	0.0156096
788.440	0.0156218
788.518	0.0154914
788.596	0.0154108
788.674	0.0155499
788.753	0.0154381
788.831	0.0156979
788.909	0.0155187
788.987	0.0153885
789.065	0.0156364
789.143	0.0154559
789.221	0.0153615
789.299	0.0154385
789.378	0.0156155
789.456	0.0155415
789.534	0.0155148
789.612	0.0154518
789.690	0.0154789
789.768	0.0154943
789.846	0.0154580
789.924	0.0155385
790.003	0.0155423
790.081	0.0155148
790.159	0.0155512
790.237	0.0155648
790.315	0.0155157
790.393	0.0154704
790.471	0.0154853
790.549	0.0154568
790.628	0.0153967
790.706	0.0154350
790.784	0.0154405
790.862	0.0155008
790.940	0.0156927
791.018	0.0155198
791.096	0.0154907
791.174	0.0156979
791.253	0.0156326
791.331	0.0155894
791.409	0.0156207
791.487	0.0153907
791.565	0.0154698
791.643	0.0153977
791.721	0.0153791
791.799	0.0154784
791.878	0.0155806
791.956	0.0155030
792.034	0.0154142
792.112	0.0156242
792.190	0.0155074
792.268	0.0155329
792.346	0.0156391
792.424	0.0156316
792.503	0.0156809
792.581	0.0156947
792.659	0.0158336
792.737	0.0157483
792.815	0.0157581
792.893	0.0158028
792.971	0.0159119
793.049	0.0157375
793.128	0.0159149
793.206	0.0158829
793.284	0.0158987
793.362	0.0160358
793.440	0.0159628
793.518	0.0159659
793.596	0.0160313
793.674	0.0161337
793.753	0.0160798
793.831	0.0160420
793.909	0.0161036
793.987	0.0160600
794.065	0.0161305
794.143	0.0161197
794.221	0.0162112
794.299	0.0159940
794.378	0.0161333
794.456	0.0161014
794.534	0.0161730
794.612	0.0163795
794.690	0.0163974
794.768	0.0162891
794.846	0.0162759
794.924	0.0162888
795.003	0.0161922
795.081	0.0163414
795.159	0.0162320
795.237	0.0160054
795.315	0.0160924
795.393	0.0159585
795.471	0.0159254
795.549	0.0159167
795.628	0.0158801
795.706	0.0158806
795.784	0.0158592
795.862	0.0157153
795.940	0.0158440
796.018	0.0157768
796.096	0.0157977
796.174	0.0157310
796.253	0.0156594
796.331	0.0155660
796.409	0.0156115
796.487	0.0156053
796.565	0.0156825
796.643	0.0155585
796.721	0.0156236
796.799	0.0155892
796.878	0.0156670
796.956	0.0157978
797.034	0.0158002
797.112	0.0157901
797.190	0.0157614
797.268	0.0159212
797.346	0.0158902
797.424	0.0158468
797.503	0.0158704
797.581	0.0159047
797.659	0.0159915
797.737	0.0159859
797.815	0.0160749
797.893	0.0158302
797.971	0.0159017
798.049	0.0160376
798.128	0.0158696
798.206	0.0159399
798.284	0.0158982
798.362	0.0158882
798.440	0.0158493
798.518	0.0157996
798.596	0.0159158
798.674	0.0158673
798.753	0.0158065
798.831	0.0157428
798.909	0.0159274
798.987	0.0159428
799.065	0.0158881
799.143	0.0158898
799.221	0.0158613
799.299	0.0158962
799.378	0.0158781
799.456	0.0156783
799.534	0.0157475
799.612	0.0158571
799.690	0.0155713
799.768	0.0155863
799.846	0.0156212
799.924	0.0154675
800.003	0.0155115
800.081	0.0155289
800.159	0.0156033
800.237	0.0154915
800.315	0.0156351
800.393	0.0154001
800.471	0.0155471
800.549	0.0155027
800.628	0.0155683
800.706	0.0155343
800.784	0.0155302
800.862	0.0154881
800.940	0.0155994
801.018	0.0157447
801.096	0.0156682
801.174	0.0157430
801.253	0.0157147
801.331	0.0157820
801.409	0.0158307
801.487	0.0155357
801.565	0.0158259
801.643	0.0157604
801.721	0.0159286
801.799	0.0158761
801.878	0.0157092
801.956	0.0157682
802.034	0.0157906
802.112	0.0157331
802.190	0.0156538
802.268	0.0155457
802.346	0.0155910
802.424	0.0155167
802.503	0.0154636
802.581	0.0155764
802.659	0.0154360
802.737	0.0154960
802.815	0.0154640
802.893	0.0153844
802.971	0.0153246
803.049	0.0153712
803.128	0.0151307
803.206	0.0153794
803.284	0.0152457
803.362	0.0151161
803.440	0.0150371
803.518	0.0149460
803.596	0.0150184
803.674	0.0149686
803.753	0.0150070
803.831	0.0150526
803.909	0.0149457
803.987	0.0147521
804.065	0.0149774
804.143	0.0147395
804.221	0.0147722
804.299	0.0148872
804.378	0.0148748
804.456	0.0148018
804.534	0.0148048
804.612	0.0148991
804.690	0.0149879
804.768	0.0149264
804.846	0.0151141
804.924	0.0151390
805.003	0.0151752
805.081	0.0153073
805.159	0.0152638
805.237	0.0154007
805.315	0.0153796
805.393	0.0154396
805.471	0.0154985
805.549	0.0154190
805.628	0.0155907
805.706	0.0154324
805.784	0.0155754
805.862	0.0157034
805.940	0.0155739
806.018	0.0155015
806.096	0.0156050
806.174	0.0155914
806.253	0.0156666
806.331	0.0156924
806.409	0.0157555
806.487	0.0157005
806.565	0.0157785
806.643	0.0156414
806.721	0.0156261
806.799	0.0157014
806.878	0.0157946
806.956	0.0156822
807.034	0.0159429
807.112	0.0158865
807.190	0.0157987
807.268	0.0159500
807.346	0.0159227
807.424	0.0160397
807.503	0.0159908
807.581	0.0160315
807.659	0.0162855
807.737	0.0161050
807.815	0.0161823
807.893	0.0161392
807.971	0.0161587
808.049	0.0163348
808.128	0.0160017
808.206	0.0161923
808.284	0.0161574
808.362	0.0161452
808.440	0.0160794
808.518	0.0161309
808.596	0.0163087
808.674	0.0161997
808.753	0.0161881
808.831	0.0162348
808.909	0.0163083
808.987	0.0162207
809.065	0.0159998
809.143	0.0160915
809.221	0.0160052
809.299	0.0159777
809.378	0.0161787
809.456	0.0159980
809.534	0.0158206
809.612	0.0156888
809.690	0.0159120
809.768	0.0157722
809.846	0.0159382
809.924	0.0157555
810.003	0.0157331
810.081	0.0156390
810.159	0.0155795
810.237	0.0155660
810.315	0.0154919
810.393	0.0154884
810.471	0.0154994
810.549	0.0153970
810.628	0.0152602
810.706	0.0154518
810.784	0.0155881
810.862	0.0154950
810.940	0.0155457
811.018	0.0155682
811.096	0.0155897
811.174	0.0156490
811.253	0.0156005
811.331	0.0157201
811.409	0.0157189
811.487	0.0157764
811.565	0.0158120
811.643	0.0156578
811.721	0.0156882
811.799	0.0157111
811.878	0.0156743
811.956	0.0156872
812.034	0.0156897
812.112	0.0156784
812.190	0.0157555
812.268	0.0156796
812.346	0.0154906
812.424	0.0155217
812.503	0.0155888
812.581	0.0157256
812.659	0.0156510
812.737	0.0156534
812.815	0.0157510
812.893	0.0155450
812.971	0.0156602
813.049	0.0155635
813.128	0.0157361
813.206	0.0158213
813.284	0.0157086
813.362	0.0157634
813.440	0.0157446
813.518	0.0158462
813.596	0.0159055
813.674	0.0159618
813.753	0.0159006
813.831	0.0159020
813.909	0.0159309
813.987	0.0159356
814.065	0.0160882
814.143	0.0160923
814.221	0.0161468
814.299	0.0162031
814.378	0.0160239
814.456	0.0160547
814.534	0.0162585
814.612	0.0161227
814.690	0.0161249
814.768	0.0160034
814.846	0.0161590
814.924	0.0160989
815.003	0.0161348
815.081	0.0160545
815.159	0.0161246
815.237	0.0161378
815.315	0.0161005
815.393	0.0160989
815.471	0.0160694
815.549	0.0161804
815.628	0.0161367
815.706	0.0160317
815.784	0.0161209
815.862	0.0160931
815.940	0.0161469
816.018	0.0160818
816.096	0.0160049
816.174	0.0159225
816.253	0.0159728
816.331	0.0159363
816.409	0.0158771
816.487	0.0159517
816.565	0.0158451
816.643	0.0157193
816.721	0.0158606
816.799	0.0157478
816.878	0.0157014
816.956	0.0157175
817.034	0.0157668
817.112	0.0157266
817.190	0.0156507
817.268	0.0155832
817.346	0.0156230
817.424	0.0157287
817.503	0.0157291
817.581	0.0156931
817.659	0.0156437
817.737	0.0157070
817.815	0.0155818
817.893	0.0156229
817.971	0.0155367
818.049	0.0157309
818.128	0.0157249
818.206	0.0155443
818.284	0.0155354
818.362	0.0155936
818.440	0.0155068
818.518	0.0155267
818.596	0.0154290
818.674	0.0155493
818.753	0.0154585
818.831	0.0154121
818.909	0.0153333
818.987	0.0153992
819.065	0.0152617
819.143	0.0151743
819.221	0.0152151
819.299	0.0152077
819.378	0.0151182
819.456	0.0151044
819.534	0.0151266
819.612	0.0150159
819.690	0.0151932
819.768	0.0151765
819.846	0.0151199
819.924	0.0151730
820.003	0.0151606
820.081	0.0151372
820.159	0.0153349
820.237	0.0153111
820.315	0.0153245
820.393	0.0153035
820.471	0.0153139
820.549	0.0153403
820.628	0.0155315
820.706	0.0155452
820.784	0.0156451
820.862	0.0157870
820.940	0.0156943
821.018	0.0157852
821.096	0.0159301
821.174	0.0158855
821.253	0.0161047
821.331	0.0160345
821.409	0.0162444
821.487	0.0163042
821.565	0.0160974
821.643	0.0162503
821.721	0.0164025
821.799	0.0163985
821.878	0.0162852
821.956	0.0164620
822.034	0.0164156
822.112	0.0162680
822.190	0.0163145
822.268	0.0163770
822.346	0.0162457
822.424	0.0163929
822.503	0.0162767
822.581	0.0161903
822.659	0.0161149
822.737	0.0160976
822.815	0.0161839
822.893	0.0159583
822.971	0.0159215
823.049	0.0159694
823.128	0.0157919
823.206	0.0156821
823.284	0.0155647
823.362	0.0156912
823.440	0.0156096
823.518	0.0156474
823.596	0.0154955
823.674	0.0155375
823.753	0.0154211
823.831	0.0156006
823.909	0.0153998
823.987	0.0154284
824.065	0.0154407
824.143	0.0153082
824.221	0.0154436
824.299	0.0155119
824.378	0.0154230
824.456	0.0152910
824.534	0.0153063
824.612	0.0153190
824.690	0.0155686
824.768	0.0154960
824.846	0.0154937
824.924	0.0154315
825.003	0.0154317
825.081	0.0155009
825.159	0.0155191
825.237	0.0155276
825.315	0.0154742
825.393	0.0154935
825.471	0.0154877
825.549	0.0156706
825.628	0.0156828
825.706	0.0156492
825.784	0.0155958
825.862	0.0157475
825.940	0.0157257
826.018	0.0157983
826.096	0.0158921
826.174	0.0157448
826.253	0.0158323
826.331	0.0158674
826.409	0.0158210
826.487	0.0157365
826.565	0.0157912
826.643	0.0156972
826.721	0.0155790
826.799	0.0158367
826.878	0.0157394
826.956	0.0157077
827.034	0.0155662
827.112	0.0156263
827.190	0.0157672
827.268	0.0156235
827.346	0.0154408
827.424	0.0155196
827.503	0.0153129
827.581	0.0154699
827.659	0.0153976
827.737	0.0152906
827.815	0.0153578
827.893	0.0151672
827.971	0.0151779
828.049	0.0152280
828.128	0.0151314
828.206	0.0151732
828.284	0.0150898
828.362	0.0150943
828.440	0.0152139
828.518	0.0152483
828.596	0.0152176
828.674	0.0151891
828.753	0.0152958
828.831	0.0153092
828.909	0.0152853
828.987	0.0153500
829.065	0.0154259
829.143	0.0155420
829.221	0.0155965
829.299	0.0156667
829.378	0.0155750
829.456	0.0156157
829.534	0.0157094
829.612	0.0158254
829.690	0.0158152
829.768	0.0156904
829.846	0.0158238
829.924	0.0159245
830.003	0.0158947
830.081	0.0158908
830.159	0.0160291
830.237	0.0159805
830.315	0.0159435
830.393	0.0159185
830.471	0.0159693
830.549	0.0159466
830.628	0.0158471
830.706	0.0158604
830.784	0.0158794
830.862	0.0157694
830.940	0.0159675
831.018	0.0158475
831.096	0.0158556
831.174	0.0156577
831.253	0.0157203
831.331	0.0158714
831.409	0.0158555
831.487	0.0157949
831.565	0.0158418
831.643	0.0159447
831.721	0.0158119
831.799	0.0158437
831.878	0.0159269
831.956	0.0159546
832.034	0.0160451
832.112	0.0159093
832.190	0.0158913
832.268	0.0159318
832.346	0.0160083
832.424	0.0159358
832.503	0.0159439
832.581	0.0160075
832.659	0.0160040
832.737	0.0160971
832.815	0.0160057
832.893	0.0159876
832.971	0.0161530
833.049	0.0160967
833.128	0.0160464
833.206	0.0160075
833.284	0.0160867
833.362	0.0160547
833.440	0.0161744
833.518	0.0160208
833.596	0.0160755
833.674	0.0161563
833.753	0.0160673
833.831	0.0161057
833.909	0.0159902
833.987	0.0159446
834.065	0.0159435
834.143	0.0160521
834.221	0.0159909
834.299	0.0159428
834.378	0.0159790
834.456	0.0159679
834.534	0.0160123
834.612	0.0160184
834.690	0.0160214
834.768	0.0161108
834.846	0.0160530
834.924	0.0160622
835.003	0.0159404
835.081	0.0160093
835.159	0.0161761
835.237	0.0160865
835.315	0.0160085
835.393	0.0157984
835.471	0.0158818
835.549	0.0159921
835.628	0.0159251
835.706	0.0158194
835.784	0.0157928
835.862	0.0158918
835.940	0.0157896
836.018	0.0156548
836.096	0.0158758
836.174	0.0158044
836.253	0.0158298
836.331	0.0157921
836.409	0.0157256
836.487	0.0156927
836.565	0.0158765
836.643	0.0159132
836.721	0.0158610
836.799	0.0158157
836.878	0.0158310
836.956	0.0158160
837.034	0.0158763
837.112	0.0156841
837.190	0.0157707
837.268	0.0158015
837.346	0.0158258
837.424	0.0159183
837.503	0.0156364
837.581	0.0157665
837.659	0.0157699
837.737	0.0158817
837.815	0.0158395
837.893	0.0157467
837.971	0.0158649
838.049	0.0157896
838.128	0.0157400
838.206	0.0155833
838.284	0.0157836
838.362	0.0156622
838.440	0.0156403
838.518	0.0155587
838.596	0.0156689
838.674	0.0156196
838.753	0.0157091
838.831	0.0155214
838.909	0.0154484
838.987	0.0155659
839.065	0.0154694
839.143	0.0155717
839.221	0.0153790
839.299	0.0154908
839.378	0.0156082
839.456	0.0154960
839.534	0.0153767
839.612	0.0154714
839.690	0.0156043
839.768	0.0155495
839.846	0.0154756
839.924	0.0155533
840.003	0.0155058
840.081	0.0156632
840.159	0.0156544
840.237	0.0155003
840.315	0.0156511
840.393	0.0155894
840.471	0.0155974
840.549	0.0157094
840.628	0.0156384
840.706	0.0157718
840.784	0.0156874
840.862	0.0157323
840.940	0.0158111
841.018	0.0157338
841.096	0.0156136
841.174	0.0157618
841.253	0.0157700
841.331	0.0157687
841.409	0.0157405
841.487	0.0157192
841.565	0.0157242
841.643	0.0158148
841.721	0.0156352
841.799	0.0156362
841.878	0.0156184
841.956	0.0156578
842.034	0.0156449
842.112	0.0154427
842.190	0.0156065
842.268	0.0157742
842.346	0.0155152
842.424	0.0155796
842.503	0.0154574
842.581	0.0156240
842.659	0.0154794
842.737	0.0155341
842.815	0.0153607
842.893	0.0153095
842.971	0.0153578
843.049	0.0153586
843.128	0.0153645
843.206	0.0152442
843.284	0.0151238
843.362	0.0151656
843.440	0.0151956
843.518	0.0152482
843.596	0.0152199
843.674	0.0150362
843.753	0.0152628
843.831	0.0150745
843.909	0.0151101
843.987	0.0152888
844.065	0.0153181
844.143	0.0152606
844.221	0.0153378
844.299	0.0153333
844.378	0.0153250
844.456	0.0154650
844.534	0.0156251
844.612	0.0155943
844.690	0.0155064
844.768	0.0155875
844.846	0.0156248
844.924	0.0156035
845.003	0.0156087
845.081	0.0157480
845.159	0.0157941
845.237	0.0158380
845.315	0.0159299
845.393	0.0159917
845.471	0.0159496
845.549	0.0158977
845.628	0.0159865
845.706	0.0161268
845.784	0.0159967
845.862	0.0159982
845.940	0.0160418
846.018	0.0161166
846.096	0.0161179
846.174	0.0160555
846.253	0.0162019
846.331	0.0161085
846.409	0.0160984
846.487	0.0160761
846.565	0.0161571
846.643	0.0161696
846.721	0.0160949
846.799	0.0161614
846.878	0.0161333
846.956	0.0161259
847.034	0.0161608
847.112	0.0161721
847.190	0.0161579
847.268	0.0160769
847.346	0.0161166
847.424	0.0160900
847.503	0.0160275
847.581	0.0160574
847.659	0.0160316
847.737	0.0161221
847.815	0.0160084
847.893	0.0161230
847.971	0.0159019
848.049	0.0159306
848.128	0.0158452
848.206	0.0159184
848.284	0.0157920
848.362	0.0157931
848.440	0.0158405
848.518	0.0158838
848.596	0.0157556
848.674	0.0159095
848.753	0.0158300
848.831	0.0157640
848.909	0.0157237
848.987	0.0157199
849.065	0.0157233
849.143	0.0156507
849.221	0.0157568
849.299	0.0158722
849.378	0.0159459
849.456	0.0158313
849.534	0.0157999
849.612	0.0159274
849.690	0.0158836
849.768	0.0159297
849.846	0.0159409
849.924	0.0158448
850.003	0.0159106
850.081	0.0158501
850.159	0.0158379
850.237	0.0159750
850.315	0.0156658
850.393	0.0159979
850.471	0.0158695
850.549	0.0157708
850.628	0.0158167
850.706	0.0157198
850.784	0.0156733
850.862	0.0158260
850.940	0.0157012
851.018	0.0156783
851.096	0.0157356
851.174	0.0157404
851.253	0.0157596
851.331	0.0155191
851.409	0.0154577
851.487	0.0156073
851.565	0.0157118
851.643	0.0156241
851.721	0.0154510
851.799	0.0155707
851.878	0.0155967
851.956	0.0158256
852.034	0.0155042
852.112	0.0156123
852.190	0.0155906
852.268	0.0157520
852.346	0.0157446
852.424	0.0156409
852.503	0.0155968
852.581	0.0156818
852.659	0.0157120
852.737	0.0156696
852.815	0.0155467
852.893	0.0157565
852.971	0.0155383
853.049	0.0154665
853.128	0.0155336
853.206	0.0155319
853.284	0.0155313
853.362	0.0155187
853.440	0.0155968
853.518	0.0156303
853.596	0.0156776
853.674	0.0155982
853.753	0.0155834
853.831	0.0155538
853.909	0.0157307
853.987	0.0157405
854.065	0.0155624
854.143	0.0156491
854.221	0.0157941
854.299	0.0157265
854.378	0.0155640
854.456	0.0155161
854.534	0.0156606
854.612	0.0156285
854.690	0.0155090
854.768	0.0156506
854.846	0.0156254
854.924	0.0156876
855.003	0.0155206
855.081	0.0154336
855.159	0.0155785
855.237	0.0156875
855.315	0.0155843
855.393	0.0154584
855.471	0.0155308
855.549	0.0156084
855.628	0.0156317
855.706	0.0156339
855.784	0.0157226
855.862	0.0156281
855.940	0.0157523
856.018	0.0157030
856.096	0.0157039
856.174	0.0157148
856.253	0.0158070
856.331	0.0157586
856.409	0.0157327
856.487	0.0158715
856.565	0.0158601
856.643	0.0158035
856.721	0.0157626
856.799	0.0159545
856.878	0.0157246
856.956	0.0158618
857.034	0.0158618
857.112	0.0157652
857.190	0.0158306
857.268	0.0157932
857.346	0.0158660
857.424	0.0158158
857.503	0.0156859
857.581	0.0156013
857.659	0.0156713
857.737	0.0157861
857.815	0.0156435
857.893	0.0157030
857.971	0.0158166
858.049	0.0157366
858.128	0.0157827
858.206	0.0157037
858.284	0.0157250
858.362	0.0157780
858.440	0.0158588
858.518	0.0159587
858.596	0.0157990
858.674	0.0161034
858.753	0.0159531
858.831	0.0159036
858.909	0.0160397
858.987	0.0158949
859.065	0.0161105
859.143	0.0162902
859.221	0.0160717
859.299	0.0160822
859.378	0.0160839
859.456	0.0161565
859.534	0.0161327
859.612	0.0161246
859.690	0.0160981
859.768	0.0162014
859.846	0.0161948
859.924	0.0162245
860.003	0.0161976
860.081	0.0162197
860.159	0.0162740
860.237	0.0161897
860.315	0.0161403
860.393	0.0162103
860.471	0.0162749
860.549	0.0161906
860.628	0.0161753
860.706	0.0162209
860.784	0.0161450
860.862	0.0160345
860.940	0.0160256
861.018	0.0161400
861.096	0.0160764
861.174	0.0159718
861.253	0.0160180
861.331	0.0159950
861.409	0.0159416
861.487	0.0158591
861.565	0.0159391
861.643	0.0158614
861.721	0.0158263
861.799	0.0158974
861.878	0.0159541
861.956	0.0158057
862.034	0.0157432
862.112	0.0158274
862.190	0.0157023
862.268	0.0157221
862.346	0.0157659
862.424	0.0156617
862.503	0.0156195
862.581	0.0157008
862.659	0.0156113
862.737	0.0154924
862.815	0.0155353
862.893	0.0155132
862.971	0.0156398
863.049	0.0156063
863.128	0.0156094
863.206	0.0155628
863.284	0.0156526
863.362	0.0155623
863.440	0.0155638
863.518	0.0156123
863.596	0.0155003
863.674	0.0155836
863.753	0.0155811
863.831	0.0156713
863.909	0.0156490
863.987	0.0156248
864.065	0.0157005
864.143	0.0156031
864.221	0.0155779
864.299	0.0157056
864.378	0.0156085
864.456	0.0157219
864.534	0.0156361
864.612	0.0157437
864.690	0.0158019
864.768	0.0158796
864.846	0.0157472
864.924	0.0159822
865.003	0.0158063
865.081	0.0158015
865.159	0.0158170
865.237	0.0159273
865.315	0.0159080
865.393	0.0160880
865.471	0.0160764
865.549	0.0157956
865.628	0.0159714
865.706	0.0160228
865.784	0.0159373
865.862	0.0159587
865.940	0.0159034
866.018	0.0159151
866.096	0.0159068
866.174	0.0160902
866.253	0.0160619
866.331	0.0161853
866.409	0.0160740
866.487	0.0159799
866.565	0.0160809
866.643	0.0160674
866.721	0.0161428
866.799	0.0162873
866.878	0.0160454
866.956	0.0160312
867.034	0.0160428
867.112	0.0160755
867.190	0.0160054
867.268	0.0158859
867.346	0.0158169
867.424	0.0158270
867.503	0.0157568
867.581	0.0156588
867.659	0.0156133
867.737	0.0156419
867.815	0.0155724
867.893	0.0154130
867.971	0.0155458
868.049	0.0154169
868.128	0.0153806
868.206	0.0153987
868.284	0.0153596
868.362	0.0154066
868.440	0.0153455
868.518	0.0153329
868.596	0.0152102
868.674	0.0152877
868.753	0.0152112
868.831	0.0152752
868.909	0.0152121
868.987	0.0151283
869.065	0.0152906
869.143	0.0153520
869.221	0.0152454
869.299	0.0152577
869.378	0.0151256
869.456	0.0151829
869.534	0.0152821
869.612	0.0152316
869.690	0.0152323
869.768	0.0153711
869.846	0.0151077
869.924	0.0152650
870.003	0.0154643
870.081	0.0154150
870.159	0.0155318
870.237	0.0155891
870.315	0.0156076
870.393	0.0155612
870.471	0.0156535
870.549	0.0156999
870.628	0.0157069
870.706	0.0156562
870.784	0.0158168
870.862	0.0157672
870.940	0.0158694
871.018	0.0156514
871.096	0.0158385
871.174	0.0159604
871.253	0.0158305
871.331	0.0157358
871.409	0.0158439
871.487	0.0156995
871.565	0.0158321
871.643	0.0157072
871.721	0.0155704
871.799	0.0156947
871.878	0.0155837
871.956	0.0157982
872.034	0.0156083
872.112	0.0156728
872.190	0.0156557
872.268	0.0156678
872.346	0.0156083
872.424	0.0157986
872.503	0.0159489
872.581	0.0157445
872.659	0.0157696
872.737	0.0159063
872.815	0.0160213
872.893	0.0160355
872.971	0.0161414
873.049	0.0162727
873.128	0.0161537
873.206	0.0162566
873.284	0.0163966
873.362	0.0164400
873.440	0.0164761
873.518	0.0165299
873.596	0.0167055
873.674	0.0166837
873.753	0.0166854
873.831	0.0168719
873.909	0.0169460
873.987	0.0168548
874.065	0.0169408
874.143	0.0169239
874.221	0.0169581
874.299	0.0169068
874.378	0.0169998
874.456	0.0170728
874.534	0.0170290
874.612	0.0168505
874.690	0.0168941
874.768	0.0167844
874.846	0.0168025
874.924	0.0166602
875.003	0.0167090
875.081	0.0165650
875.159	0.0165449
875.237	0.0163774
875.315	0.0163326
875.393	0.0163889
875.471	0.0163007
875.549	0.0161061
875.628	0.0160336
875.706	0.0157949
875.784	0.0156673
875.862	0.0156572
875.940	0.0155630
876.018	0.0154985
876.096	0.0154178
876.174	0.0153247
876.253	0.0152005
876.331	0.0151148
876.409	0.0150409
876.487	0.0149966
876.565	0.0148550
876.643	0.0148260
876.721	0.0147821
876.799	0.0147639
876.878	0.0148948
876.956	0.0148221
877.034	0.0146535
877.112	0.0145481
877.190	0.0146042
877.268	0.0146151
877.346	0.0145666
877.424	0.0147417
877.503	0.0146853
877.581	0.0146955
877.659	0.0146862
877.737	0.0149394
877.815	0.0149570
877.893	0.0148885
877.971	0.0148978
878.049	0.0149718
878.128	0.0150475
878.206	0.0152907
878.284	0.0151759
878.362	0.0151493
878.440	0.0152665
878.518	0.0151701
878.596	0.0153677
878.674	0.0153533
878.753	0.0154093
878.831	0.0155560
878.909	0.0155656
878.987	0.0156166
879.065	0.0156486
879.143	0.0158271
879.221	0.0156087
879.299	0.0156913
879.378	0.0157082
879.456	0.0158192
879.534	0.0157881
879.612	0.0158303
879.690	0.0157979
879.768	0.0157121
879.846	0.0158108
879.924	0.0158524
880.003	0.0157150
880.081	0.0157150
880.159	0.0159174
880.237	0.0157939
880.315	0.0156337
880.393	0.0158193
880.471	0.0157201
880.549	0.0157488
880.628	0.0157577
880.706	0.0157173
880.784	0.0157730
880.862	0.0157291
880.940	0.0158674
881.018	0.0157040
881.096	0.0157773
881.174	0.0157426
881.253	0.0156917
881.331	0.0159424
881.409	0.0158656
881.487	0.0158725
881.565	0.0157740
881.643	0.0159338
881.721	0.0159900
881.799	0.0159119
881.878	0.0157767
881.956	0.0158598
882.034	0.0159971
882.112	0.0160053
882.190	0.0158954
882.268	0.0158905
882.346	0.0157914
882.424	0.0160145
882.503	0.0159126
882.581	0.0161099
882.659	0.0159419
882.737	0.0158421
882.815	0.0158524
882.893	0.0158849
882.971	0.0158718
883.049	0.0158562
883.128	0.0158728
883.206	0.0158638
883.284	0.0157484
883.362	0.0157469
883.440	0.0157914
883.518	0.0159445
883.596	0.0158077
883.674	0.0157386
883.753	0.0157566
883.831	0.0158386
883.909	0.0156912
883.987	0.0158090
884.065	0.0158292
884.143	0.0157854
884.221	0.0158398
884.299	0.0158495
884.378	0.0157975
884.456	0.0158020
884.534	0.0159412
884.612	0.0158282
884.690	0.0159471
884.768	0.0159030
884.846	0.0158861
884.924	0.0158356
885.003	0.0158313
885.081	0.0158914
885.159	0.0158791
885.237	0.0158547
885.315	0.0159147
885.393	0.0158913
885.471	0.0158259
885.549	0.0158875
885.628	0.0159817
885.706	0.0158321
885.784	0.0159061
885.862	0.0160422
885.940	0.0159476
886.018	0.0160273
886.096	0.0158713
886.174	0.0157928
886.253	0.0159225
886.331	0.0160399
886.409	0.0158141
886.487	0.0158548
886.565	0.0157816
886.643	0.0157867
886.721	0.0156690
886.799	0.0156498
886.878	0.0156048
886.956	0.0155397
887.034	0.0154471
887.112	0.0155395
887.190	0.0156633
887.268	0.0156317
887.346	0.0155662
887.424	0.0154884
887.503	0.0155093
887.581	0.0154553
887.659	0.0156817
887.737	0.0155951
887.815	0.0154494
887.893	0.0155273
887.971	0.0156300
888.049	0.0156721
888.128	0.0155170
888.206	0.0157179
888.284	0.0157089
888.362	0.0157582
888.440	0.0157307
888.518	0.0156631
888.596	0.0159505
888.674	0.0157967
888.753	0.0157586
888.831	0.0158804
888.909	0.0158883
888.987	0.0158695
889.065	0.0158626
889.143	0.0159652
889.221	0.0157381
889.299	0.0158246
889.378	0.0159884
889.456	0.0158929
889.534	0.0160408
889.612	0.0160092
889.690	0.0160832
889.768	0.0160587
889.846	0.0159364
889.924	0.0160538
890.003	0.0160621
890.081	0.0160866
890.159	0.0160313
890.237	0.0159708
890.315	0.0158581
890.393	0.0161452
890.471	0.0159324
890.549	0.0160446
890.628	0.0158762
890.706	0.0159645
890.784	0.0160106
890.862	0.0160377
890.940	0.0160246
891.018	0.0160287
891.096	0.0160907
891.174	0.0159207
891.253	0.0159651
891.331	0.0160206
891.409	0.0158812
891.487	0.0159480
891.565	0.0160305
891.643	0.0160158
891.721	0.0159895
891.799	0.0158981
891.878	0.0159841
891.956	0.0159862
892.034	0.0160370
892.112	0.0157244
892.190	0.0158566
892.268	0.0159045
892.346	0.0160138
892.424	0.0159991
892.503	0.0159341
892.581	0.0160158
892.659	0.0160135
892.737	0.0158664
892.815	0.0159257
892.893	0.0160259
892.971	0.0158150
893.049	0.0157436
893.128	0.0157676
893.206	0.0158684
893.284	0.0157155
893.362	0.0158471
893.440	0.0157303
893.518	0.0157621
893.596	0.0158079
893.674	0.0156998
893.753	0.0157847
893.831	0.0157711
893.909	0.0156992
893.987	0.0156962
894.065	0.0157411
894.143	0.0157875
894.221	0.0156805
894.299	0.0156335
894.378	0.0156591
894.456	0.0157555
894.534	0.0158120
894.612	0.0158136
894.690	0.0154932
894.768	0.0156123
894.846	0.0156837
894.924	0.0156449
895.003	0.0156980
895.081	0.0156230
895.159	0.0156089
895.237	0.0157018
895.315	0.0156635
895.393	0.0156434
895.471	0.0156387
895.549	0.0156545
895.628	0.0157442
895.706	0.0155933
895.784	0.0157024
895.862	0.0157517
895.940	0.0155436
896.018	0.0155830
896.096	0.0158439
896.174	0.0157405
896.253	0.0158144
896.331	0.0157600
896.409	0.0158169
896.487	0.0156898
896.565	0.0156724
896.643	0.0156429
896.721	0.0157020
896.799	0.0157229
896.878	0.0157877
896.956	0.0157600
897.034	0.0157365
897.112	0.0158792
897.190	0.0157018
897.268	0.0157285
897.346	0.0156981
897.424	0.0157810
897.503	0.0159192
897.581	0.0159182
897.659	0.0158341
897.737	0.0159081
897.815	0.0161050
897.893	0.0162084
897.971	0.0161489
898.049	0.0160651
898.128	0.0161322
898.206	0.0162808
898.284	0.0162389
898.362	0.0162164
898.440	0.0162325
898.518	0.0162305
898.596	0.0162929
898.674	0.0163159
898.753	0.0161885
898.831	0.0163294
898.909	0.0162113
898.987	0.0163168
899.065	0.0163139
899.143	0.0161322
899.221	0.0162433
899.299	0.0161887
899.378	0.0162649
899.456	0.0161526
899.534	0.0160924
899.612	0.0162089
899.690	0.0159715
899.768	0.0159039
899.846	0.0160658
899.924	0.0158452
900.003	0.0159651
900.081	0.0158466
900.159	0.0158176
900.237	0.0156804
900.315	0.0156402
900.393	0.0155355
900.471	0.0155583
900.549	0.0153417
900.628	0.0154166
900.706	0.0152077
900.784	0.0150809
900.862	0.0151804
900.940	0.0150736
901.018	0.0149884
901.096	0.0150194
901.174	0.0149986
901.253	0.0148797
901.331	0.0149376
901.409	0.0147675
901.487	0.0149452
901.565	0.0149001
901.643	0.0148955
901.721	0.0150643
901.799	0.0150941
901.878	0.0149847
901.956	0.0148553
902.034	0.0151318
902.112	0.0151137
902.190	0.0149780
902.268	0.0150436
902.346	0.0150560
902.424	0.0149362
902.503	0.0151205
902.581	0.0151314
902.659	0.0151625
902.737	0.0149845
902.815	0.0151746
902.893	0.0150072
902.971	0.0150657
903.049	0.0151746
903.128	0.0152802
903.206	0.0152431
903.284	0.0153275
903.362	0.0153345
903.440	0.0153669
903.518	0.0154502
903.596	0.0155977
903.674	0.0155723
903.753	0.0155161
903.831	0.0156310
903.909	0.0156388
903.987	0.0156590
904.065	0.0156570
904.143	0.0157266
904.221	0.0156799
904.299	0.0158214
904.378	0.0158818
904.456	0.0157477
904.534	0.0157680
904.612	0.0156796
904.690	0.0157108
904.768	0.0157309
904.846	0.0155728
904.924	0.0156125
905.003	0.0158799
905.081	0.0157894
905.159	0.0156492
905.237	0.0156248
905.315	0.0156641
905.393	0.0156740
905.471	0.0157184
905.549	0.0156083
905.628	0.0155724
905.706	0.0156087
905.784	0.0155791
905.862	0.0155975
905.940	0.0156588
906.018	0.0156504
906.096	0.0156149
906.174	0.0158286
906.253	0.0158636
906.331	0.0157639
906.409	0.0157664
906.487	0.0158468
906.565	0.0156508
906.643	0.0159077
906.721	0.0159739
906.799	0.0159032
906.878	0.0158300
906.956	0.0159613
907.034	0.0160032
907.112	0.0160327
907.190	0.0159947
907.268	0.0159200
907.346	0.0160347
907.424	0.0161897
907.503	0.0160786
907.581	0.0160080
907.659	0.0160938
907.737	0.0160740
907.815	0.0160788
907.893	0.0160677
907.971	0.0160452
908.049	0.0158598
908.128	0.0160563
908.206	0.0158265
908.284	0.0157565
908.362	0.0157887
908.440	0.0157568
908.518	0.0156762
908.596	0.0156771
908.674	0.0157548
908.753	0.0156950
908.831	0.0155952
908.909	0.0156061
908.987	0.0156632
909.065	0.0157412
909.143	0.0157381
909.221	0.0157605
909.299	0.0156451
909.378	0.0157661
909.456	0.0157655
909.534	0.0157938
909.612	0.0156445
909.690	0.0156258
909.768	0.0157084
909.846	0.0158498
909.924	0.0158389
910.003	0.0159427
910.081	0.0158316
910.159	0.0157763
910.237	0.0158378
910.315	0.0157742
910.393	0.0158176
910.471	0.0158927
910.549	0.0158369
910.628	0.0156260
910.706	0.0157819
910.784	0.0157604
910.862	0.0157345
910.940	0.0157946
911.018	0.0156622
911.096	0.0156953
911.174	0.0157359
911.253	0.0157018
911.331	0.0157294
911.409	0.0156989
911.487	0.0156074
911.565	0.0156889
911.643	0.0155518
911.721	0.0156207
911.799	0.0155970
911.878	0.0156702
911.956	0.0156148
912.034	0.0155096
912.112	0.0156161
912.190	0.0155835
912.268	0.0155605
912.346	0.0155530
912.424	0.0155262
912.503	0.0155040
912.581	0.0156078
912.659	0.0155501
912.737	0.0156105
912.815	0.0156231
912.893	0.0157040
912.971	0.0156985
913.049	0.0156843
913.128	0.0156711
913.206	0.0156821
913.284	0.0156541
913.362	0.0158138
913.440	0.0158461
913.518	0.0157601
913.596	0.0157185
913.674	0.0157362
913.753	0.0158113
913.831	0.0157758
913.909	0.0157625
913.987	0.0158540
914.065	0.0159486
914.143	0.0159119
914.221	0.0157874
914.299	0.0159196
914.378	0.0158435
914.456	0.0159923
914.534	0.0159448
914.612	0.0160954
914.690	0.0160365
914.768	0.0159798
914.846	0.0159714
914.924	0.0161862
915.003	0.0160193
915.081	0.0161582
915.159	0.0160116
915.237	0.0159725
915.315	0.0159754
915.393	0.0159305
915.471	0.0159988
915.549	0.0159913
915.628	0.0159943
915.706	0.0159354
915.784	0.0158334
915.862	0.0158801
915.940	0.0159285
916.018	0.0160644
916.096	0.0158579
916.174	0.0158316
916.253	0.0157773
916.331	0.0157770
916.409	0.0156142
916.487	0.0156764
916.565	0.0155671
916.643	0.0156046
916.721	0.0156384
916.799	0.0154459
916.878	0.0154112
916.956	0.0155254
917.034	0.0154422
917.112	0.0153508
917.190	0.0153694
917.268	0.0154562
917.346	0.0153222
917.424	0.0153202
917.503	0.0154615
917.581	0.0153994
917.659	0.0152750
917.737	0.0153616
917.815	0.0154053
917.893	0.0153819
917.971	0.0154046
918.049	0.0154724
918.128	0.0155012
918.206	0.0154961
918.284	0.0155025
918.362	0.0156036
918.440	0.0154895
918.518	0.0154314
918.596	0.0155578
918.674	0.0155925
918.753	0.0156492
918.831	0.0155302
918.909	0.0155767
918.987	0.0157011
919.065	0.0156686
919.143	0.0156835
919.221	0.0159047
919.299	0.0157759
919.378	0.0158160
919.456	0.0158891
919.534	0.0158389
919.612	0.0159331
919.690	0.0159634
919.768	0.0159690
919.846	0.0158430
919.924	0.0160344
920.003	0.0160226
920.081	0.0158805
920.159	0.0158450
920.237	0.0159112
920.315	0.0159466
920.393	0.0158891
920.471	0.0158092
920.549	0.0159061
920.628	0.0159499
920.706	0.0158759
920.784	0.0158934
920.862	0.0158057
920.940	0.0157140
921.018	0.0157026
921.096	0.0158071
921.174	0.0158369
921.253	0.0156752
921.331	0.0158211
921.409	0.0157965
921.487	0.0156742
921.565	0.0157027
921.643	0.0156831
921.721	0.0156882
921.799	0.0156408
921.878	0.0158237
921.956	0.0157661
922.034	0.0156355
922.112	0.0157099
922.190	0.0156864
922.268	0.0156046
922.346	0.0157262
922.424	0.0156468
922.503	0.0156225
922.581	0.0156667
922.659	0.0155912
922.737	0.0154543
922.815	0.0156689
922.893	0.0156091
922.971	0.0156635
923.049	0.0155654
923.128	0.0154736
923.206	0.0154842
923.284	0.0156126
923.362	0.0157092
923.440	0.0155912
923.518	0.0155883
923.596	0.0156781
923.674	0.0155704
923.753	0.0156428
923.831	0.0155673
923.909	0.0154471
923.987	0.0155051
924.065	0.0156890
924.143	0.0157045
924.221	0.0157700
924.299	0.0157208
924.378	0.0156802
924.456	0.0156425
924.534	0.0155808
924.612	0.0157423
924.690	0.0158009
924.768	0.0157322
924.846	0.0157787
924.924	0.0155612
925.003	0.0157526
925.081	0.0158102
925.159	0.0156951
925.237	0.0155979
925.315	0.0156694
925.393	0.0156953
925.471	0.0157828
925.549	0.0154866
925.628	0.0154710
925.706	0.0156733
925.784	0.0156422
925.862	0.0156452
925.940	0.0156356
926.018	0.0156222
926.096	0.0156590
926.174	0.0157404
926.253	0.0156385
926.331	0.0157571
926.409	0.0158656
926.487	0.0157274
926.565	0.0159851
926.643	0.0160463
926.721	0.0158487
926.799	0.0157143
926.878	0.0160305
926.956	0.0161738
927.034	0.0159330
927.112	0.0159077
927.190	0.0160457
927.268	0.0161596
927.346	0.0162064
927.424	0.0162518
927.503	0.0160912
927.581	0.0160943
927.659	0.0162202
927.737	0.0160923
927.815	0.0162868
927.893	0.0160223
927.971	0.0160219
928.049	0.0160981
928.128	0.0159905
928.206	0.0160442
928.284	0.0157958
928.362	0.0159489
928.440	0.0159556
928.518	0.0159083
928.596	0.0158992
928.674	0.0158585
928.753	0.0158103
928.831	0.0158923
928.909	0.0157320
928.987	0.0157706
929.065	0.0158345
929.143	0.0157951
929.221	0.0158506
929.299	0.0157676
929.378	0.0157378
929.456	0.0156255
929.534	0.0157608
929.612	0.0157428
929.690	0.0157132
929.768	0.0156209
929.846	0.0155798
929.924	0.0156818
930.003	0.0157413
930.081	0.0157124
930.159	0.0157991
930.237	0.0156512
930.315	0.0155701
930.393	0.0157547
930.471	0.0156687
930.549	0.0157817
930.628	0.0159703
930.706	0.0157008
930.784	0.0159505
930.862	0.0157606
930.940	0.0157468
931.018	0.0159628
931.096	0.0158414
931.174	0.0158069
931.253	0.0157556
931.331	0.0158429
931.409	0.0156857
931.487	0.0158874
931.565	0.0157410
931.643	0.0157595
931.721	0.0157493
931.799	0.0157523
931.878	0.0157806
931.956	0.0156786
932.034	0.0157277
932.112	0.0158620
932.190	0.0158318
932.268	0.0158632
932.346	0.0158406
932.424	0.0158759
932.503	0.0157676
932.581	0.0158701
932.659	0.0159212
932.737	0.0159101
932.815	0.0159267
932.893	0.0157509
932.971	0.0157986
933.049	0.0158522
933.128	0.0157935
933.206	0.0157487
933.284	0.0157390
933.362	0.0158353
933.440	0.0157053
933.518	0.0157381
933.596	0.0156928
933.674	0.0157067
933.753	0.0156265
933.831	0.0157521
933.909	0.0156946
933.987	0.0157465
934.065	0.0154978
934.143	0.0156012
934.221	0.0158049
934.299	0.0158701
934.378	0.0157339
934.456	0.0156261
934.534	0.0155827
934.612	0.0157468
934.690	0.0157133
934.768	0.0157573
934.846	0.0157355
934.924	0.0157378
935.003	0.0156819
935.081	0.0156445
935.159	0.0157117
935.237	0.0157744
935.315	0.0156513
935.393	0.0156421
935.471	0.0156409
935.549	0.0156660
935.628	0.0156060
935.706	0.0155466
935.784	0.0156667
935.862	0.0157280
935.940	0.0157097
936.018	0.0157601
936.096	0.0157440
936.174	0.0156427
936.253	0.0156071
936.331	0.0155698
936.409	0.0155956
936.487	0.0157140
936.565	0.0156284
936.643	0.0156433
936.721	0.0156306
936.799	0.0156333
936.878	0.0155641
936.956	0.0155811
937.034	0.0155305
937.112	0.0156964
937.190	0.0156972
937.268	0.0156082
937.346	0.0156255
937.424	0.0155754
937.503	0.0155853
937.581	0.0156897
937.659	0.0157564
937.737	0.0156585
937.815	0.0156532
937.893	0.0156149
937.971	0.0156351
938.049	0.0156485
938.128	0.0154633
938.206	0.0155344
938.284	0.0155443
938.362	0.0157059
938.440	0.0156445
938.518	0.0155736
938.596	0.0157236
938.674	0.0156195
938.753	0.0155663
938.831	0.0155353
938.909	0.0154787
938.987	0.0155067
939.065	0.0154600
939.143	0.0154706
939.221	0.0155061
939.299	0.0154597
939.378	0.0154971
939.456	0.0155090
939.534	0.0155443
939.612	0.0154973
939.690	0.0154320
939.768	0.0155814
939.846	0.0155010
939.924	0.0155041
940.003	0.0154382
940.081	0.0154961
940.159	0.0155104
940.237	0.0156747
940.315	0.0155995
940.393	0.0156154
940.471	0.0156610
940.549	0.0156706
940.628	0.0156627
940.706	0.0158145
940.784	0.0157070
940.862	0.0157230
940.940	0.0158583
941.018	0.0158443
941.096	0.0158135
941.174	0.0158724
941.253	0.0159342
941.331	0.0158574
941.409	0.0157993
941.487	0.0159895
941.565	0.0158915
941.643	0.0158137
941.721	0.0160365
941.799	0.0160131
941.878	0.0161712
941.956	0.0160635
942.034	0.0160841
942.112	0.0161933
942.190	0.0160909
942.268	0.0161342
942.346	0.0162586
942.424	0.0162550
942.503	0.0163534
942.581	0.0162656
942.659	0.0161782
942.737	0.0162890
942.815	0.0163364
942.893	0.0163331
942.971	0.0162540
943.049	0.0161752
943.128	0.0161443
943.206	0.0160983
943.284	0.0159370
943.362	0.0160034
943.440	0.0159889
943.518	0.0159441
943.596	0.0157442
943.674	0.0158203
943.753	0.0158031
943.831	0.0157349
943.909	0.0157011
943.987	0.0156818
944.065	0.0157516
944.143	0.0156289
944.221	0.0156288
944.299	0.0157191
944.378	0.0157492
944.456	0.0155885
944.534	0.0158063
944.612	0.0155800
944.690	0.0155910
944.768	0.0157381
944.846	0.0157492
944.924	0.0157407
945.003	0.0156916
945.081	0.0155898
945.159	0.0156641
945.237	0.0158445
945.315	0.0156704
945.393	0.0157535
945.471	0.0159041
945.549	0.0157883
945.628	0.0158591
945.706	0.0158344
945.784	0.0159154
945.862	0.0159841
945.940	0.0159372
946.018	0.0159005
946.096	0.0160864
946.174	0.0158882
946.253	0.0159629
946.331	0.0159415
946.409	0.0159844
946.487	0.0157690
946.565	0.0158652
946.643	0.0157970
946.721	0.0159203
946.799	0.0158454
946.878	0.0157220
946.956	0.0157433
947.034	0.0156239
947.112	0.0157420
947.190	0.0156632
947.268	0.0157314
947.346	0.0157103
947.424	0.0157056
947.503	0.0157653
947.581	0.0155792
947.659	0.0157864
947.737	0.0156883
947.815	0.0154598
947.893	0.0156347
947.971	0.0156552
948.049	0.0154510
948.128	0.0155438
948.206	0.0155651
948.284	0.0154382
948.362	0.0154221
948.440	0.0153622
948.518	0.0153715
948.596	0.0153656
948.674	0.0151821
948.753	0.0153218
948.831	0.0152302
948.909	0.0151385
948.987	0.0152712
949.065	0.0151234
949.143	0.0152122
949.221	0.0152915
949.299	0.0153936
949.378	0.0153147
949.456	0.0152971
949.534	0.0154211
949.612	0.0153403
949.690	0.0153921
949.768	0.0152537
949.846	0.0155054
949.924	0.0154334
