06/29/2022	23:24:37	Ver.	4.1	UNKNOWN
Optical Delay	629.995835	Delta X		0.078125	Sweeps	1	Scan Rate	0/0
Coordinates	Axis 1	NaN	Axis 2	NaN	Axis 3	NaN	Axis 4	NaN	Axis 5	NaN	Axis 6	0.000000
TX Power	0.000000	RX Power	0.000000

629.996	0.0160881
630.074	0.0170589
630.152	0.0171066
630.230	0.0170360
630.308	0.0169727
630.386	0.0169962
630.465	0.0170125
630.543	0.0171910
630.621	0.0170934
630.699	0.0169922
630.777	0.0171191
630.855	0.0171022
630.933	0.0171787
631.011	0.0172377
631.090	0.0173386
631.168	0.0173767
631.246	0.0175321
631.324	0.0175018
631.402	0.0174220
631.480	0.0173811
631.558	0.0173735
631.636	0.0171548
631.715	0.0170465
631.793	0.0170200
631.871	0.0169919
631.949	0.0171208
632.027	0.0169978
632.105	0.0169684
632.183	0.0168340
632.261	0.0168916
632.340	0.0169366
632.418	0.0168802
632.496	0.0168270
632.574	0.0169149
632.652	0.0169342
632.730	0.0169987
632.808	0.0169066
632.886	0.0168962
632.965	0.0169773
633.043	0.0171123
633.121	0.0169144
633.199	0.0167185
633.277	0.0166068
633.355	0.0166293
633.433	0.0165377
633.511	0.0165246
633.590	0.0163644
633.668	0.0161780
633.746	0.0161266
633.824	0.0161589
633.902	0.0162216
633.980	0.0161653
634.058	0.0160934
634.136	0.0160633
634.215	0.0160372
634.293	0.0161364
634.371	0.0160120
634.449	0.0159411
634.527	0.0160818
634.605	0.0161730
634.683	0.0162556
634.761	0.0159059
634.840	0.0158370
634.918	0.0157246
634.996	0.0154115
635.074	0.0153231
635.152	0.0150681
635.230	0.0149660
635.308	0.0149220
635.386	0.0149207
635.465	0.0150970
635.543	0.0148706
635.621	0.0149812
635.699	0.0151012
635.777	0.0151247
635.855	0.0153607
635.933	0.0152447
636.011	0.0154153
636.090	0.0155182
636.168	0.0155264
636.246	0.0155857
636.324	0.0156855
636.402	0.0157567
636.480	0.0160281
636.558	0.0159512
636.636	0.0158495
636.715	0.0158246
636.793	0.0159956
636.871	0.0160455
636.949	0.0159382
637.027	0.0158373
637.105	0.0157557
637.183	0.0158672
637.261	0.0158717
637.340	0.0156732
637.418	0.0156933
637.496	0.0157056
637.574	0.0158350
637.652	0.0157829
637.730	0.0156533
637.808	0.0158826
637.886	0.0159052
637.965	0.0159380
638.043	0.0158957
638.121	0.0160168
638.199	0.0161827
638.277	0.0162683
638.355	0.0162119
638.433	0.0161510
638.511	0.0162101
638.590	0.0163363
638.668	0.0161110
638.746	0.0161277
638.824	0.0161502
638.902	0.0161035
638.980	0.0162569
639.058	0.0161745
639.136	0.0162856
639.215	0.0161922
639.293	0.0162068
639.371	0.0161774
639.449	0.0162067
639.527	0.0161525
639.605	0.0161198
639.683	0.0164136
639.761	0.0163257
639.840	0.0163228
639.918	0.0163728
639.996	0.0163242
640.074	0.0164041
640.152	0.0165735
640.230	0.0164309
640.308	0.0164400
640.386	0.0164890
640.465	0.0166758
640.543	0.0165532
640.621	0.0165421
640.699	0.0165159
640.777	0.0164098
640.855	0.0163898
640.933	0.0164096
641.011	0.0165117
641.090	0.0166019
641.168	0.0165893
641.246	0.0166766
641.324	0.0167471
641.402	0.0166634
641.480	0.0168569
641.558	0.0168649
641.636	0.0168401
641.715	0.0170320
641.793	0.0169405
641.871	0.0170944
641.949	0.0171882
642.027	0.0170779
642.105	0.0172368
642.183	0.0170990
642.261	0.0171781
642.340	0.0170712
642.418	0.0170386
642.496	0.0168824
642.574	0.0169188
642.652	0.0167467
642.730	0.0168389
642.808	0.0169138
642.886	0.0167009
642.965	0.0169427
643.043	0.0169035
643.121	0.0169041
643.199	0.0170040
643.277	0.0169216
643.355	0.0168850
643.433	0.0166360
643.511	0.0166422
643.590	0.0166025
643.668	0.0165192
643.746	0.0164371
643.824	0.0163865
643.902	0.0163324
643.980	0.0162936
644.058	0.0162310
644.136	0.0160754
644.215	0.0160507
644.293	0.0160858
644.371	0.0161680
644.449	0.0160987
644.527	0.0161165
644.605	0.0160861
644.683	0.0160030
644.761	0.0160337
644.840	0.0158387
644.918	0.0159364
644.996	0.0159303
645.074	0.0159708
645.152	0.0159079
645.230	0.0156080
645.308	0.0158089
645.386	0.0159795
645.465	0.0157645
645.543	0.0159099
645.621	0.0159299
645.699	0.0157544
645.777	0.0157624
645.855	0.0157401
645.933	0.0157986
646.011	0.0156599
646.090	0.0156225
646.168	0.0156881
646.246	0.0156094
646.324	0.0156824
646.402	0.0157514
646.480	0.0156931
646.558	0.0157646
646.636	0.0157041
646.715	0.0158881
646.793	0.0159464
646.871	0.0158898
646.949	0.0159678
647.027	0.0160629
647.105	0.0162086
647.183	0.0161595
647.261	0.0161980
647.340	0.0163230
647.418	0.0162765
647.496	0.0161520
647.574	0.0160983
647.652	0.0162505
647.730	0.0161674
647.808	0.0162584
647.886	0.0162727
647.965	0.0162220
648.043	0.0161742
648.121	0.0163213
648.199	0.0163811
648.277	0.0164032
648.355	0.0165022
648.433	0.0164658
648.511	0.0166557
648.590	0.0165771
648.668	0.0165595
648.746	0.0166387
648.824	0.0167899
648.902	0.0167635
648.980	0.0168687
649.058	0.0168523
649.136	0.0166621
649.215	0.0168116
649.293	0.0167753
649.371	0.0167664
649.449	0.0166987
649.527	0.0167733
649.605	0.0167320
649.683	0.0166301
649.761	0.0165075
649.840	0.0165736
649.918	0.0165171
649.996	0.0163528
650.074	0.0163256
650.152	0.0163469
650.230	0.0163309
650.308	0.0163837
650.386	0.0162658
650.465	0.0164362
650.543	0.0162218
650.621	0.0161942
650.699	0.0162495
650.777	0.0162009
650.855	0.0161842
650.933	0.0161787
651.011	0.0162492
651.090	0.0161575
651.168	0.0161411
651.246	0.0161884
651.324	0.0160827
651.402	0.0160811
651.480	0.0160994
651.558	0.0159650
651.636	0.0156750
651.715	0.0156699
651.793	0.0156304
651.871	0.0154343
651.949	0.0153869
652.027	0.0153634
652.105	0.0154067
652.183	0.0153197
652.261	0.0153889
652.340	0.0153580
652.418	0.0155158
652.496	0.0155235
652.574	0.0155305
652.652	0.0155971
652.730	0.0156490
652.808	0.0157037
652.886	0.0156672
652.965	0.0157388
653.043	0.0157201
653.121	0.0155144
653.199	0.0156622
653.277	0.0155812
653.355	0.0155267
653.433	0.0156026
653.511	0.0155859
653.590	0.0154919
653.668	0.0155528
653.746	0.0155623
653.824	0.0156287
653.902	0.0154158
653.980	0.0156828
654.058	0.0157317
654.136	0.0155724
654.215	0.0157417
654.293	0.0157817
654.371	0.0157851
654.449	0.0159129
654.527	0.0158508
654.605	0.0157395
654.683	0.0159003
654.761	0.0159555
654.840	0.0159296
654.918	0.0159800
654.996	0.0159154
655.074	0.0158827
655.152	0.0157842
655.230	0.0158865
655.308	0.0158874
655.386	0.0159957
655.465	0.0159327
655.543	0.0160195
655.621	0.0159969
655.699	0.0160668
655.777	0.0161169
655.855	0.0160254
655.933	0.0161112
656.011	0.0162021
656.090	0.0163165
656.168	0.0163524
656.246	0.0162562
656.324	0.0164032
656.402	0.0166405
656.480	0.0163831
656.558	0.0163748
656.636	0.0166025
656.715	0.0163798
656.793	0.0164544
656.871	0.0165247
656.949	0.0164943
657.027	0.0165008
657.105	0.0164324
657.183	0.0165405
657.261	0.0164922
657.340	0.0165094
657.418	0.0164203
657.496	0.0164529
657.574	0.0164640
657.652	0.0164683
657.730	0.0165430
657.808	0.0164275
657.886	0.0165567
657.965	0.0164730
658.043	0.0165624
658.121	0.0164210
658.199	0.0164494
658.277	0.0164491
658.355	0.0164125
658.433	0.0164756
658.511	0.0163743
658.590	0.0163443
658.668	0.0162903
658.746	0.0163931
658.824	0.0164361
658.902	0.0163597
658.980	0.0162800
659.058	0.0164182
659.136	0.0162248
659.215	0.0161916
659.293	0.0162489
659.371	0.0163322
659.449	0.0162814
659.527	0.0161866
659.605	0.0161877
659.683	0.0162511
659.761	0.0161524
659.840	0.0159866
659.918	0.0159008
659.996	0.0160589
660.074	0.0158601
660.152	0.0157825
660.230	0.0159180
660.308	0.0159936
660.386	0.0158984
660.465	0.0159738
660.543	0.0160133
660.621	0.0160998
660.699	0.0161608
660.777	0.0160858
660.855	0.0160522
660.933	0.0160799
661.011	0.0162001
661.090	0.0163010
661.168	0.0162529
661.246	0.0162611
661.324	0.0160867
661.402	0.0163263
661.480	0.0162485
661.558	0.0162813
661.636	0.0163680
661.715	0.0162962
661.793	0.0163788
661.871	0.0163694
661.949	0.0162777
662.027	0.0163596
662.105	0.0162185
662.183	0.0162434
662.261	0.0161925
662.340	0.0160638
662.418	0.0161370
662.496	0.0161947
662.574	0.0162752
662.652	0.0160407
662.730	0.0161353
662.808	0.0161343
662.886	0.0160754
662.965	0.0161804
663.043	0.0161884
663.121	0.0162510
663.199	0.0162941
663.277	0.0162550
663.355	0.0162144
663.433	0.0164806
663.511	0.0164437
663.590	0.0164417
663.668	0.0165061
663.746	0.0165569
663.824	0.0164822
663.902	0.0163660
663.980	0.0165034
664.058	0.0164059
664.136	0.0163615
664.215	0.0164739
664.293	0.0164616
664.371	0.0164816
664.449	0.0163916
664.527	0.0164047
664.605	0.0164265
664.683	0.0164021
664.761	0.0163236
664.840	0.0162785
664.918	0.0164438
664.996	0.0165444
665.074	0.0165019
665.152	0.0165530
665.230	0.0165292
665.308	0.0163200
665.386	0.0165004
665.465	0.0165862
665.543	0.0165721
665.621	0.0165698
665.699	0.0166323
665.777	0.0166940
665.855	0.0165820
665.933	0.0164703
666.011	0.0163392
666.090	0.0164928
666.168	0.0166370
666.246	0.0164512
666.324	0.0163849
666.402	0.0165350
666.480	0.0165997
666.558	0.0165005
666.636	0.0165021
666.715	0.0166151
666.793	0.0166739
666.871	0.0168248
666.949	0.0168525
667.027	0.0166356
667.105	0.0168388
667.183	0.0169396
667.261	0.0166827
667.340	0.0164442
667.418	0.0165840
667.496	0.0167722
667.574	0.0165582
667.652	0.0164922
667.730	0.0164877
667.808	0.0163873
667.886	0.0163134
667.965	0.0163253
668.043	0.0165465
668.121	0.0164153
668.199	0.0163380
668.277	0.0163096
668.355	0.0164907
668.433	0.0165331
668.511	0.0165517
668.590	0.0166467
668.668	0.0167620
668.746	0.0166486
668.824	0.0166181
668.902	0.0166818
668.980	0.0166699
669.058	0.0166760
669.136	0.0166145
669.215	0.0165929
669.293	0.0166696
669.371	0.0165670
669.449	0.0165464
669.527	0.0165450
669.605	0.0163532
669.683	0.0163992
669.761	0.0162963
669.840	0.0165522
669.918	0.0163495
669.996	0.0162146
670.074	0.0164972
670.152	0.0163785
670.230	0.0163487
670.308	0.0162471
670.386	0.0162254
670.465	0.0162488
670.543	0.0163520
670.621	0.0163583
670.699	0.0163741
670.777	0.0162099
670.855	0.0162869
670.933	0.0163777
671.011	0.0163400
671.090	0.0165756
671.168	0.0164324
671.246	0.0162064
671.324	0.0163522
671.402	0.0163691
671.480	0.0162701
671.558	0.0162032
671.636	0.0163448
671.715	0.0162620
671.793	0.0161478
671.871	0.0160120
671.949	0.0160868
672.027	0.0160236
672.105	0.0159605
672.183	0.0159406
672.261	0.0158963
672.340	0.0158762
672.418	0.0158879
672.496	0.0158614
672.574	0.0160468
672.652	0.0158090
672.730	0.0157564
672.808	0.0159144
672.886	0.0159706
672.965	0.0159040
673.043	0.0160056
673.121	0.0159370
673.199	0.0160036
673.277	0.0158327
673.355	0.0158312
673.433	0.0159871
673.511	0.0159906
673.590	0.0159518
673.668	0.0159834
673.746	0.0160525
673.824	0.0158229
673.902	0.0159217
673.980	0.0159161
674.058	0.0158942
674.136	0.0160538
674.215	0.0159846
674.293	0.0159237
674.371	0.0159744
674.449	0.0158631
674.527	0.0159481
674.605	0.0159954
674.683	0.0160171
674.761	0.0159142
674.840	0.0158743
674.918	0.0159724
674.996	0.0157621
675.074	0.0157053
675.152	0.0156063
675.230	0.0154900
675.308	0.0156693
675.386	0.0153941
675.465	0.0153970
675.543	0.0153309
675.621	0.0153989
675.699	0.0155721
675.777	0.0155840
675.855	0.0156037
675.933	0.0157349
676.011	0.0157455
676.090	0.0157040
676.168	0.0158819
676.246	0.0159888
676.324	0.0160700
676.402	0.0159660
676.480	0.0161385
676.558	0.0161402
676.636	0.0162333
676.715	0.0164115
676.793	0.0163301
676.871	0.0162495
676.949	0.0164065
677.027	0.0165690
677.105	0.0164930
677.183	0.0167297
677.261	0.0166270
677.340	0.0167068
677.418	0.0166522
677.496	0.0168527
677.574	0.0169729
677.652	0.0169518
677.730	0.0170641
677.808	0.0170914
677.886	0.0170987
677.965	0.0171631
678.043	0.0172102
678.121	0.0171976
678.199	0.0172102
678.277	0.0171005
678.355	0.0171054
678.433	0.0172244
678.511	0.0172204
678.590	0.0170475
678.668	0.0170541
678.746	0.0169970
678.824	0.0168908
678.902	0.0170417
678.980	0.0167220
679.058	0.0168345
679.136	0.0169446
679.215	0.0167858
679.293	0.0167157
679.371	0.0167052
679.449	0.0167324
679.527	0.0166682
679.605	0.0166141
679.683	0.0163398
679.761	0.0164687
679.840	0.0164767
679.918	0.0162155
679.996	0.0161891
680.074	0.0164948
680.152	0.0162714
680.230	0.0163458
680.308	0.0164612
680.386	0.0163513
680.465	0.0163147
680.543	0.0163968
680.621	0.0164243
680.699	0.0165115
680.777	0.0164507
680.855	0.0165430
680.933	0.0165291
681.011	0.0166637
681.090	0.0166627
681.168	0.0167126
681.246	0.0166230
681.324	0.0167574
681.402	0.0166769
681.480	0.0167649
681.558	0.0166992
681.636	0.0168410
681.715	0.0167294
681.793	0.0167690
681.871	0.0166370
681.949	0.0166515
682.027	0.0167860
682.105	0.0165449
682.183	0.0165469
682.261	0.0165711
682.340	0.0165880
682.418	0.0164667
682.496	0.0164623
682.574	0.0164190
682.652	0.0165064
682.730	0.0162740
682.808	0.0162257
682.886	0.0162238
682.965	0.0161607
683.043	0.0161711
683.121	0.0163347
683.199	0.0161267
683.277	0.0161113
683.355	0.0158944
683.433	0.0159752
683.511	0.0159930
683.590	0.0159439
683.668	0.0157877
683.746	0.0157777
683.824	0.0156744
683.902	0.0159251
683.980	0.0157063
684.058	0.0157357
684.136	0.0157239
684.215	0.0156243
684.293	0.0155531
684.371	0.0154855
684.449	0.0155040
684.527	0.0156252
684.605	0.0156020
684.683	0.0155557
684.761	0.0154561
684.840	0.0155595
684.918	0.0156401
684.996	0.0155185
685.074	0.0155371
685.152	0.0156211
685.230	0.0157174
685.308	0.0156219
685.386	0.0155752
685.465	0.0156167
685.543	0.0156817
685.621	0.0157114
685.699	0.0157175
685.777	0.0156554
685.855	0.0158837
685.933	0.0158584
686.011	0.0157796
686.090	0.0158204
686.168	0.0159386
686.246	0.0160236
686.324	0.0159834
686.402	0.0159971
686.480	0.0159675
686.558	0.0160973
686.636	0.0161979
686.715	0.0162270
686.793	0.0162147
686.871	0.0162347
686.949	0.0161926
687.027	0.0163774
687.105	0.0162406
687.183	0.0162077
687.261	0.0163299
687.340	0.0162373
687.418	0.0163667
687.496	0.0163394
687.574	0.0163610
687.652	0.0162635
687.730	0.0163576
687.808	0.0164962
687.886	0.0165575
687.965	0.0164917
688.043	0.0165639
688.121	0.0164957
688.199	0.0166223
688.277	0.0166624
688.355	0.0167876
688.433	0.0168883
688.511	0.0167664
688.590	0.0167912
688.668	0.0168967
688.746	0.0168853
688.824	0.0168344
688.902	0.0169043
688.980	0.0169686
689.058	0.0168778
689.136	0.0169879
689.215	0.0171117
689.293	0.0169075
689.371	0.0170380
689.449	0.0169550
689.527	0.0168427
689.605	0.0169453
689.683	0.0168144
689.761	0.0168279
689.840	0.0168052
689.918	0.0167152
689.996	0.0165932
690.074	0.0165952
690.152	0.0166692
690.230	0.0166965
690.308	0.0164502
690.386	0.0161987
690.465	0.0163589
690.543	0.0163597
690.621	0.0162059
690.699	0.0162030
690.777	0.0161133
690.855	0.0160326
690.933	0.0158865
691.011	0.0158712
691.090	0.0158116
691.168	0.0158386
691.246	0.0159162
691.324	0.0157899
691.402	0.0155983
691.480	0.0156656
691.558	0.0157452
691.636	0.0156943
691.715	0.0157706
691.793	0.0157272
691.871	0.0156642
691.949	0.0155935
692.027	0.0156316
692.105	0.0157678
692.183	0.0156875
692.261	0.0157082
692.340	0.0156432
692.418	0.0157275
692.496	0.0157706
692.574	0.0159828
692.652	0.0157652
692.730	0.0158547
692.808	0.0160183
692.886	0.0161287
692.965	0.0160907
693.043	0.0161603
693.121	0.0162300
693.199	0.0160886
693.277	0.0161678
693.355	0.0162998
693.433	0.0164185
693.511	0.0164161
693.590	0.0163248
693.668	0.0164243
693.746	0.0165221
693.824	0.0165241
693.902	0.0164719
693.980	0.0165359
694.058	0.0165021
694.136	0.0165460
694.215	0.0165434
694.293	0.0165011
694.371	0.0163589
694.449	0.0163835
694.527	0.0164725
694.605	0.0164473
694.683	0.0163888
694.761	0.0164153
694.840	0.0162670
694.918	0.0163718
694.996	0.0163412
695.074	0.0163943
695.152	0.0162421
695.230	0.0163919
695.308	0.0163785
695.386	0.0161535
695.465	0.0162924
695.543	0.0163297
695.621	0.0162108
695.699	0.0162441
695.777	0.0162847
695.855	0.0164433
695.933	0.0162402
696.011	0.0161839
696.090	0.0163507
696.168	0.0162680
696.246	0.0162598
696.324	0.0161594
696.402	0.0159700
696.480	0.0158817
696.558	0.0158522
696.636	0.0158009
696.715	0.0156347
696.793	0.0155842
696.871	0.0156572
696.949	0.0156178
697.027	0.0155622
697.105	0.0155499
697.183	0.0156464
697.261	0.0157030
697.340	0.0155506
697.418	0.0158356
697.496	0.0159219
697.574	0.0157844
697.652	0.0157732
697.730	0.0156976
697.808	0.0157181
697.886	0.0156684
697.965	0.0155700
698.043	0.0154770
698.121	0.0153030
698.199	0.0153040
698.277	0.0154147
698.355	0.0153215
698.433	0.0152533
698.511	0.0152412
698.590	0.0151464
698.668	0.0153518
698.746	0.0152535
698.824	0.0154891
698.902	0.0154779
698.980	0.0154633
699.058	0.0156342
699.136	0.0157510
699.215	0.0158000
699.293	0.0159505
699.371	0.0158002
699.449	0.0159700
699.527	0.0159920
699.605	0.0159972
699.683	0.0160940
699.761	0.0160289
699.840	0.0161670
699.918	0.0161430
699.996	0.0161317
700.074	0.0162493
700.152	0.0161631
700.230	0.0160739
700.308	0.0160474
700.386	0.0161967
700.465	0.0162939
700.543	0.0162077
700.621	0.0160175
700.699	0.0162090
700.777	0.0161768
700.855	0.0163449
700.933	0.0162254
701.011	0.0163565
701.090	0.0164134
701.168	0.0162743
701.246	0.0162927
701.324	0.0163228
701.402	0.0163068
701.480	0.0162798
701.558	0.0162016
701.636	0.0162769
701.715	0.0162373
701.793	0.0163201
701.871	0.0164239
701.949	0.0163223
702.027	0.0164697
702.105	0.0164137
702.183	0.0165122
702.261	0.0165342
702.340	0.0165456
702.418	0.0165461
702.496	0.0165078
702.574	0.0165514
702.652	0.0166862
702.730	0.0166136
702.808	0.0167483
702.886	0.0167744
702.965	0.0168998
703.043	0.0167515
703.121	0.0168517
703.199	0.0168949
703.277	0.0168807
703.355	0.0167836
703.433	0.0169122
703.511	0.0170138
703.590	0.0170497
703.668	0.0170631
703.746	0.0170773
703.824	0.0170483
703.902	0.0171140
703.980	0.0170170
704.058	0.0170541
704.136	0.0170705
704.215	0.0171128
704.293	0.0170630
704.371	0.0169722
704.449	0.0170086
704.527	0.0168498
704.605	0.0169666
704.683	0.0168931
704.761	0.0168723
704.840	0.0168824
704.918	0.0168146
704.996	0.0168809
705.074	0.0167945
705.152	0.0168789
705.230	0.0169469
705.308	0.0167166
705.386	0.0166302
705.465	0.0167899
705.543	0.0166799
705.621	0.0166228
705.699	0.0166775
705.777	0.0166808
705.855	0.0167355
705.933	0.0166814
706.011	0.0167322
706.090	0.0165755
706.168	0.0166492
706.246	0.0166775
706.324	0.0165250
706.402	0.0165408
706.480	0.0166123
706.558	0.0166802
706.636	0.0164912
706.715	0.0162639
706.793	0.0163660
706.871	0.0163206
706.949	0.0162029
707.027	0.0162933
707.105	0.0162753
707.183	0.0160026
707.261	0.0160171
707.340	0.0160555
707.418	0.0159015
707.496	0.0157973
707.574	0.0157955
707.652	0.0158196
707.730	0.0157884
707.808	0.0158315
707.886	0.0156879
707.965	0.0158091
708.043	0.0155951
708.121	0.0154599
708.199	0.0154469
708.277	0.0154405
708.355	0.0154963
708.433	0.0155070
708.511	0.0151665
708.590	0.0152542
708.668	0.0151253
708.746	0.0151332
708.824	0.0152000
708.902	0.0149731
708.980	0.0151429
709.058	0.0151000
709.136	0.0151542
709.215	0.0151326
709.293	0.0151618
709.371	0.0152778
709.449	0.0152341
709.527	0.0152866
709.605	0.0152576
709.683	0.0153100
709.761	0.0152966
709.840	0.0153496
709.918	0.0152918
709.996	0.0154454
710.074	0.0153915
710.152	0.0154781
710.230	0.0153805
710.308	0.0154730
710.386	0.0154912
710.465	0.0156277
710.543	0.0156658
710.621	0.0156965
710.699	0.0157729
710.777	0.0158180
710.855	0.0158527
710.933	0.0158983
711.011	0.0159834
711.090	0.0159031
711.168	0.0160772
711.246	0.0162486
711.324	0.0162009
711.402	0.0162232
711.480	0.0163158
711.558	0.0164664
711.636	0.0164494
711.715	0.0163113
711.793	0.0163584
711.871	0.0164434
711.949	0.0164548
712.027	0.0165088
712.105	0.0163454
712.183	0.0162653
712.261	0.0162613
712.340	0.0162422
712.418	0.0161836
712.496	0.0162754
712.574	0.0162004
712.652	0.0163293
712.730	0.0162496
712.808	0.0161526
712.886	0.0161623
712.965	0.0163603
713.043	0.0162882
713.121	0.0163083
713.199	0.0163441
713.277	0.0161509
713.355	0.0162092
713.433	0.0162090
713.511	0.0162637
713.590	0.0164345
713.668	0.0163730
713.746	0.0164372
713.824	0.0162538
713.902	0.0164455
713.980	0.0162905
714.058	0.0164170
714.136	0.0162408
714.215	0.0162885
714.293	0.0162457
714.371	0.0162653
714.449	0.0162778
714.527	0.0162522
714.605	0.0160784
714.683	0.0162486
714.761	0.0162521
714.840	0.0162472
714.918	0.0162485
714.996	0.0161197
715.074	0.0161406
715.152	0.0161251
715.230	0.0161552
715.308	0.0161301
715.386	0.0161866
715.465	0.0161201
715.543	0.0162465
715.621	0.0161184
715.699	0.0162222
715.777	0.0162395
715.855	0.0162167
715.933	0.0162143
716.011	0.0161213
716.090	0.0161558
716.168	0.0158954
716.246	0.0161102
716.324	0.0161592
716.402	0.0161435
716.480	0.0159850
716.558	0.0160735
716.636	0.0160389
716.715	0.0161060
716.793	0.0159057
716.871	0.0159927
716.949	0.0162058
717.027	0.0159426
717.105	0.0160334
717.183	0.0160319
717.261	0.0159727
717.340	0.0160552
717.418	0.0160339
717.496	0.0158645
717.574	0.0161456
717.652	0.0161687
717.730	0.0160618
717.808	0.0160345
717.886	0.0161209
717.965	0.0160535
718.043	0.0159782
718.121	0.0160767
718.199	0.0162742
718.277	0.0163622
718.355	0.0161769
718.433	0.0162267
718.511	0.0163510
718.590	0.0162957
718.668	0.0162997
718.746	0.0163242
718.824	0.0163998
718.902	0.0162967
718.980	0.0161786
719.058	0.0161888
719.136	0.0161852
719.215	0.0161488
719.293	0.0161259
719.371	0.0160387
719.449	0.0160204
719.527	0.0160430
719.605	0.0159909
719.683	0.0157627
719.761	0.0157819
719.840	0.0158303
719.918	0.0158228
719.996	0.0159341
720.074	0.0159174
720.152	0.0157637
720.230	0.0156201
720.308	0.0158643
720.386	0.0160292
720.465	0.0159042
720.543	0.0161361
720.621	0.0162342
720.699	0.0161705
720.777	0.0162716
720.855	0.0162471
720.933	0.0162621
721.011	0.0162153
721.090	0.0161961
721.168	0.0161933
721.246	0.0163768
721.324	0.0162724
721.402	0.0162699
721.480	0.0161811
721.558	0.0161999
721.636	0.0162991
721.715	0.0163113
721.793	0.0162659
721.871	0.0161823
721.949	0.0162686
722.027	0.0160710
722.105	0.0158870
722.183	0.0160525
722.261	0.0160661
722.340	0.0158944
722.418	0.0159853
722.496	0.0159862
722.574	0.0157336
722.652	0.0158461
722.730	0.0159647
722.808	0.0159095
722.886	0.0158002
722.965	0.0157777
723.043	0.0158345
723.121	0.0157166
723.199	0.0156911
723.277	0.0156244
723.355	0.0157300
723.433	0.0157733
723.511	0.0158672
723.590	0.0158845
723.668	0.0159818
723.746	0.0158627
723.824	0.0159174
723.902	0.0159257
723.980	0.0161107
724.058	0.0159830
724.136	0.0160036
724.215	0.0161522
724.293	0.0160538
724.371	0.0160877
724.449	0.0161320
724.527	0.0161511
724.605	0.0162009
724.683	0.0162656
724.761	0.0160239
724.840	0.0162692
724.918	0.0162732
724.996	0.0161303
725.074	0.0161035
725.152	0.0162061
725.230	0.0160381
725.308	0.0160619
725.386	0.0161047
725.465	0.0161225
725.543	0.0161219
725.621	0.0160519
725.699	0.0162229
725.777	0.0162804
725.855	0.0162395
725.933	0.0161487
726.011	0.0162674
726.090	0.0161874
726.168	0.0163205
726.246	0.0164339
726.324	0.0163374
726.402	0.0163563
726.480	0.0164610
726.558	0.0164806
726.636	0.0166253
726.715	0.0165526
726.793	0.0165347
726.871	0.0165691
726.949	0.0164112
727.027	0.0165668
727.105	0.0163873
727.183	0.0164010
727.261	0.0162992
727.340	0.0162924
727.418	0.0162556
727.496	0.0162167
727.574	0.0161868
727.652	0.0162865
727.730	0.0161683
727.808	0.0161219
727.886	0.0161369
727.965	0.0162366
728.043	0.0161816
728.121	0.0161572
728.199	0.0162640
728.277	0.0162135
728.355	0.0163368
728.433	0.0164704
728.511	0.0164883
728.590	0.0166041
728.668	0.0165318
728.746	0.0164859
728.824	0.0165829
728.902	0.0167159
728.980	0.0166001
729.058	0.0167808
729.136	0.0169067
729.215	0.0168162
729.293	0.0167577
729.371	0.0167971
729.449	0.0168858
729.527	0.0167841
729.605	0.0169080
729.683	0.0169422
729.761	0.0168905
729.840	0.0168878
729.918	0.0169065
729.996	0.0169511
730.074	0.0169660
730.152	0.0169131
730.230	0.0168554
730.308	0.0168037
730.386	0.0167110
730.465	0.0167911
730.543	0.0168170
730.621	0.0166103
730.699	0.0166689
730.777	0.0165529
730.855	0.0163573
730.933	0.0164195
731.011	0.0162450
731.090	0.0162513
731.168	0.0160377
731.246	0.0158714
731.324	0.0158679
731.402	0.0157306
731.480	0.0157359
731.558	0.0155693
731.636	0.0154419
731.715	0.0154478
731.793	0.0153667
731.871	0.0151979
731.949	0.0154015
732.027	0.0152531
732.105	0.0153368
732.183	0.0153558
732.261	0.0152754
732.340	0.0153621
732.418	0.0153390
732.496	0.0153614
732.574	0.0155045
732.652	0.0155616
732.730	0.0156367
732.808	0.0155328
732.886	0.0156436
732.965	0.0157124
733.043	0.0157579
733.121	0.0158797
733.199	0.0159447
733.277	0.0159602
733.355	0.0161514
733.433	0.0160722
733.511	0.0161021
733.590	0.0161387
733.668	0.0161611
733.746	0.0162701
733.824	0.0162971
733.902	0.0163566
733.980	0.0163976
734.058	0.0163393
734.136	0.0163895
734.215	0.0163909
734.293	0.0164874
734.371	0.0164234
734.449	0.0163097
734.527	0.0162842
734.605	0.0165627
734.683	0.0164664
734.761	0.0164561
734.840	0.0162975
734.918	0.0164870
734.996	0.0163243
735.074	0.0162551
735.152	0.0162222
735.230	0.0162481
735.308	0.0161269
735.386	0.0160867
735.465	0.0160297
735.543	0.0160992
735.621	0.0159935
735.699	0.0161082
735.777	0.0160694
735.855	0.0160528
735.933	0.0159714
736.011	0.0159834
736.090	0.0159753
736.168	0.0161603
736.246	0.0161245
736.324	0.0161650
736.402	0.0161542
736.480	0.0160144
736.558	0.0161343
736.636	0.0163584
736.715	0.0162418
736.793	0.0162300
736.871	0.0162991
736.949	0.0163664
737.027	0.0163743
737.105	0.0163033
737.183	0.0163763
737.261	0.0164287
737.340	0.0164208
737.418	0.0164850
737.496	0.0162193
737.574	0.0163869
737.652	0.0164461
737.730	0.0163602
737.808	0.0163010
737.886	0.0163184
737.965	0.0163467
738.043	0.0163508
738.121	0.0164085
738.199	0.0162225
738.277	0.0162397
738.355	0.0162815
738.433	0.0161522
738.511	0.0160783
738.590	0.0161444
738.668	0.0160976
738.746	0.0160530
738.824	0.0161684
738.902	0.0160091
738.980	0.0160018
739.058	0.0161049
739.136	0.0159611
739.215	0.0159734
739.293	0.0159371
739.371	0.0161014
739.449	0.0160224
739.527	0.0159373
739.605	0.0159667
739.683	0.0160456
739.761	0.0159686
739.840	0.0159247
739.918	0.0160794
739.996	0.0161081
740.074	0.0160644
740.152	0.0161080
740.230	0.0161237
740.308	0.0161516
740.386	0.0162424
740.465	0.0161311
740.543	0.0162775
740.621	0.0161345
740.699	0.0163454
740.777	0.0163161
740.855	0.0163631
740.933	0.0163859
741.011	0.0163651
741.090	0.0162911
741.168	0.0162279
741.246	0.0163005
741.324	0.0163480
741.402	0.0163752
741.480	0.0162672
741.558	0.0163247
741.636	0.0163760
741.715	0.0164413
741.793	0.0163796
741.871	0.0165199
741.949	0.0163075
742.027	0.0164420
742.105	0.0165071
742.183	0.0164155
742.261	0.0165374
742.340	0.0163625
742.418	0.0164906
742.496	0.0165308
742.574	0.0165305
742.652	0.0164029
742.730	0.0163269
742.808	0.0164460
742.886	0.0165147
742.965	0.0163988
743.043	0.0163709
743.121	0.0163174
743.199	0.0162993
743.277	0.0162829
743.355	0.0162920
743.433	0.0162401
743.511	0.0161638
743.590	0.0161756
743.668	0.0163118
743.746	0.0162274
743.824	0.0163413
743.902	0.0162552
743.980	0.0163251
744.058	0.0163889
744.136	0.0162430
744.215	0.0164362
744.293	0.0164548
744.371	0.0165186
744.449	0.0164603
744.527	0.0164323
744.605	0.0166254
744.683	0.0164298
744.761	0.0164113
744.840	0.0163528
744.918	0.0165040
744.996	0.0165173
745.074	0.0165240
745.152	0.0164056
745.230	0.0165264
745.308	0.0163779
745.386	0.0163198
745.465	0.0164081
745.543	0.0165673
745.621	0.0165050
745.699	0.0163888
745.777	0.0164390
745.855	0.0165195
745.933	0.0166777
746.011	0.0166821
746.090	0.0167182
746.168	0.0166927
746.246	0.0168551
746.324	0.0167484
746.402	0.0169044
746.480	0.0167690
746.558	0.0168855
746.636	0.0167269
746.715	0.0166471
746.793	0.0168133
746.871	0.0169186
746.949	0.0167078
747.027	0.0167833
747.105	0.0167186
747.183	0.0168131
747.261	0.0166194
747.340	0.0164381
747.418	0.0164929
747.496	0.0166926
747.574	0.0164637
747.652	0.0165034
747.730	0.0164944
747.808	0.0163876
747.886	0.0162712
747.965	0.0164298
748.043	0.0163741
748.121	0.0161628
748.199	0.0161523
748.277	0.0160853
748.355	0.0158890
748.433	0.0160159
748.511	0.0159316
748.590	0.0160411
748.668	0.0160085
748.746	0.0160926
748.824	0.0160880
748.902	0.0161457
748.980	0.0161604
749.058	0.0162122
749.136	0.0162422
749.215	0.0162142
749.293	0.0161762
749.371	0.0162762
749.449	0.0163259
749.527	0.0162342
749.605	0.0163079
749.683	0.0164284
749.761	0.0162858
749.840	0.0163657
749.918	0.0165179
749.996	0.0164777
750.074	0.0165578
750.152	0.0164771
750.230	0.0165479
750.308	0.0166135
750.386	0.0166569
750.465	0.0167567
750.543	0.0165739
750.621	0.0166468
750.699	0.0166743
750.777	0.0166222
750.855	0.0165999
750.933	0.0167083
751.011	0.0166436
751.090	0.0166619
751.168	0.0165601
751.246	0.0165741
751.324	0.0164884
751.402	0.0165336
751.480	0.0163699
751.558	0.0164683
751.636	0.0162170
751.715	0.0163219
751.793	0.0163182
751.871	0.0163787
751.949	0.0162786
752.027	0.0163051
752.105	0.0161047
752.183	0.0162737
752.261	0.0163309
752.340	0.0162953
752.418	0.0162109
752.496	0.0163628
752.574	0.0163564
752.652	0.0163621
752.730	0.0163511
752.808	0.0163556
752.886	0.0163939
752.965	0.0164211
753.043	0.0163976
753.121	0.0164194
753.199	0.0164177
753.277	0.0164542
753.355	0.0165492
753.433	0.0165211
753.511	0.0165307
753.590	0.0165652
753.668	0.0165067
753.746	0.0166692
753.824	0.0165617
753.902	0.0165222
753.980	0.0165582
754.058	0.0164977
754.136	0.0165997
754.215	0.0165697
754.293	0.0166454
754.371	0.0165849
754.449	0.0165216
754.527	0.0164951
754.605	0.0165527
754.683	0.0164208
754.761	0.0163825
754.840	0.0164946
754.918	0.0164464
754.996	0.0163905
755.074	0.0164980
755.152	0.0164091
755.230	0.0164439
755.308	0.0164388
755.386	0.0161267
755.465	0.0162815
755.543	0.0164149
755.621	0.0164753
755.699	0.0162976
755.777	0.0162532
755.855	0.0163216
755.933	0.0164201
756.011	0.0163944
756.090	0.0164159
756.168	0.0164202
756.246	0.0162236
756.324	0.0163859
756.402	0.0165081
756.480	0.0166187
756.558	0.0164389
756.636	0.0163554
756.715	0.0163892
756.793	0.0163120
756.871	0.0164506
756.949	0.0164546
757.027	0.0162349
757.105	0.0161832
757.183	0.0162919
757.261	0.0161379
757.340	0.0161330
757.418	0.0160591
757.496	0.0158775
757.574	0.0159907
757.652	0.0160807
757.730	0.0158951
757.808	0.0158041
757.886	0.0157430
757.965	0.0157153
758.043	0.0158076
758.121	0.0158014
758.199	0.0156629
758.277	0.0156889
758.355	0.0155695
758.433	0.0156615
758.511	0.0156104
758.590	0.0156395
758.668	0.0155303
758.746	0.0157325
758.824	0.0154929
758.902	0.0154807
758.980	0.0156209
759.058	0.0155643
759.136	0.0156635
759.215	0.0156418
759.293	0.0155381
759.371	0.0156427
759.449	0.0156595
759.527	0.0157640
759.605	0.0158430
759.683	0.0157288
759.761	0.0156194
759.840	0.0158112
759.918	0.0157890
759.996	0.0157407
760.074	0.0157307
760.152	0.0158813
760.230	0.0158940
760.308	0.0157703
760.386	0.0157596
760.465	0.0160652
760.543	0.0159788
760.621	0.0160699
760.699	0.0160793
760.777	0.0160555
760.855	0.0160789
760.933	0.0162375
761.011	0.0162990
761.090	0.0161868
761.168	0.0163914
761.246	0.0163617
761.324	0.0162154
761.402	0.0164130
761.480	0.0162679
761.558	0.0163306
761.636	0.0163294
761.715	0.0161728
761.793	0.0161893
761.871	0.0163224
761.949	0.0163738
762.027	0.0162435
762.105	0.0163238
762.183	0.0163499
762.261	0.0163826
762.340	0.0164061
762.418	0.0163136
762.496	0.0163487
762.574	0.0163759
762.652	0.0163622
762.730	0.0164317
762.808	0.0162958
762.886	0.0164578
762.965	0.0164584
763.043	0.0164651
763.121	0.0164185
763.199	0.0163504
763.277	0.0163896
763.355	0.0163850
763.433	0.0163086
763.511	0.0163219
763.590	0.0162602
763.668	0.0161911
763.746	0.0163355
763.824	0.0161964
763.902	0.0162063
763.980	0.0161150
764.058	0.0161861
764.136	0.0161280
764.215	0.0161755
764.293	0.0161700
764.371	0.0162432
764.449	0.0163768
764.527	0.0164126
764.605	0.0164115
764.683	0.0163326
764.761	0.0164126
764.840	0.0164166
764.918	0.0166496
764.996	0.0166566
765.074	0.0166349
765.152	0.0166890
765.230	0.0166673
765.308	0.0167450
765.386	0.0167696
765.465	0.0167337
765.543	0.0168257
765.621	0.0168011
765.699	0.0167493
765.777	0.0166575
765.855	0.0168488
765.933	0.0167857
766.011	0.0167795
766.090	0.0167604
766.168	0.0167467
766.246	0.0168136
766.324	0.0167543
766.402	0.0167193
766.480	0.0168236
766.558	0.0168700
766.636	0.0168543
766.715	0.0169781
766.793	0.0167554
766.871	0.0168803
766.949	0.0168345
767.027	0.0168996
767.105	0.0168382
767.183	0.0169521
767.261	0.0170554
767.340	0.0170389
767.418	0.0169827
767.496	0.0169643
767.574	0.0171062
767.652	0.0169888
767.730	0.0169595
767.808	0.0168736
767.886	0.0168679
767.965	0.0168500
768.043	0.0168240
768.121	0.0167046
768.199	0.0165112
768.277	0.0164998
768.355	0.0163856
768.433	0.0161665
768.511	0.0161637
768.590	0.0160609
768.668	0.0159998
768.746	0.0158161
768.824	0.0158255
768.902	0.0157567
768.980	0.0156529
769.058	0.0157566
769.136	0.0156116
769.215	0.0156630
769.293	0.0156816
769.371	0.0157789
769.449	0.0157738
769.527	0.0157912
769.605	0.0158665
769.683	0.0159184
769.761	0.0160110
769.840	0.0158589
769.918	0.0159455
769.996	0.0159525
770.074	0.0158752
770.152	0.0158318
770.230	0.0159650
770.308	0.0160703
770.386	0.0160511
770.465	0.0160580
770.543	0.0159657
770.621	0.0163409
770.699	0.0162885
770.777	0.0164322
770.855	0.0165181
770.933	0.0167850
771.011	0.0167671
771.090	0.0167059
771.168	0.0170139
771.246	0.0170249
771.324	0.0170059
771.402	0.0170411
771.480	0.0171583
771.558	0.0170999
771.636	0.0170628
771.715	0.0170789
771.793	0.0170933
771.871	0.0168603
771.949	0.0167126
772.027	0.0168517
772.105	0.0166616
772.183	0.0164817
772.261	0.0164818
772.340	0.0164444
772.418	0.0163710
772.496	0.0159515
772.574	0.0159209
772.652	0.0160551
772.730	0.0158446
772.808	0.0155057
772.886	0.0154668
772.965	0.0154801
773.043	0.0154237
773.121	0.0153244
773.199	0.0153027
773.277	0.0153731
773.355	0.0154071
773.433	0.0152914
773.511	0.0153239
773.590	0.0154331
773.668	0.0155827
773.746	0.0155045
773.824	0.0154670
773.902	0.0156100
773.980	0.0155640
774.058	0.0157472
774.136	0.0158327
774.215	0.0157465
774.293	0.0159969
774.371	0.0159210
774.449	0.0160880
774.527	0.0161051
774.605	0.0161914
774.683	0.0162300
774.761	0.0162987
774.840	0.0164748
774.918	0.0164300
774.996	0.0165835
775.074	0.0166635
775.152	0.0168942
775.230	0.0168447
775.308	0.0170315
775.386	0.0169614
775.465	0.0169852
775.543	0.0170158
775.621	0.0169528
775.699	0.0169900
775.777	0.0170482
775.855	0.0169682
775.933	0.0167728
776.011	0.0169467
776.090	0.0167906
776.168	0.0166602
776.246	0.0167469
776.324	0.0164886
776.402	0.0165730
776.480	0.0163876
776.558	0.0164518
776.636	0.0162120
776.715	0.0160838
776.793	0.0161670
776.871	0.0160768
776.949	0.0161282
777.027	0.0158877
777.105	0.0160280
777.183	0.0158857
777.261	0.0158231
777.340	0.0159244
777.418	0.0159135
777.496	0.0156702
777.574	0.0159403
777.652	0.0160180
777.730	0.0158951
777.808	0.0158501
777.886	0.0158311
777.965	0.0159444
778.043	0.0159623
778.121	0.0158749
778.199	0.0158658
778.277	0.0159118
778.355	0.0158710
778.433	0.0160101
778.511	0.0160027
778.590	0.0160056
778.668	0.0159608
778.746	0.0161085
778.824	0.0160680
778.902	0.0161615
778.980	0.0162777
779.058	0.0163026
779.136	0.0163007
779.215	0.0165678
779.293	0.0165981
779.371	0.0165878
779.449	0.0166306
779.527	0.0166227
779.605	0.0167085
779.683	0.0167953
779.761	0.0167558
779.840	0.0167747
779.918	0.0168674
779.996	0.0167414
780.074	0.0168505
780.152	0.0166167
780.230	0.0167068
780.308	0.0165501
780.386	0.0166302
780.465	0.0165537
780.543	0.0164105
780.621	0.0163496
780.699	0.0163315
780.777	0.0164091
780.855	0.0161811
780.933	0.0161505
781.011	0.0161623
781.090	0.0159411
781.168	0.0159245
781.246	0.0158431
781.324	0.0159639
781.402	0.0159580
781.480	0.0158796
781.558	0.0159411
781.636	0.0159682
781.715	0.0160088
781.793	0.0159350
781.871	0.0159803
781.949	0.0161238
782.027	0.0161410
782.105	0.0161219
782.183	0.0162928
782.261	0.0163161
782.340	0.0161979
782.418	0.0162341
782.496	0.0162118
782.574	0.0163902
782.652	0.0165395
782.730	0.0162822
782.808	0.0163387
782.886	0.0164209
782.965	0.0164167
783.043	0.0163319
783.121	0.0162751
783.199	0.0162651
783.277	0.0161410
783.355	0.0160891
783.433	0.0161484
783.511	0.0161031
783.590	0.0161535
783.668	0.0160802
783.746	0.0159513
783.824	0.0158273
783.902	0.0158401
783.980	0.0159258
784.058	0.0160485
784.136	0.0158201
784.215	0.0157533
784.293	0.0157909
784.371	0.0159238
784.449	0.0157597
784.527	0.0158597
784.605	0.0159549
784.683	0.0157112
784.761	0.0157803
784.840	0.0158620
784.918	0.0157746
784.996	0.0158607
785.074	0.0158427
785.152	0.0160089
785.230	0.0159009
785.308	0.0158784
785.386	0.0161302
785.465	0.0161161
785.543	0.0159875
785.621	0.0161094
785.699	0.0161742
785.777	0.0162753
785.855	0.0163734
785.933	0.0162572
786.011	0.0162093
786.090	0.0165285
786.168	0.0163290
786.246	0.0162409
786.324	0.0162013
786.402	0.0163057
786.480	0.0162438
786.558	0.0161552
786.636	0.0160517
786.715	0.0162393
786.793	0.0161449
786.871	0.0161592
786.949	0.0160954
787.027	0.0161060
787.105	0.0159283
787.183	0.0160414
787.261	0.0160389
787.340	0.0159026
787.418	0.0159586
787.496	0.0159697
787.574	0.0158832
787.652	0.0159203
787.730	0.0158010
787.808	0.0157712
787.886	0.0159092
787.965	0.0158915
788.043	0.0158463
788.121	0.0159509
788.199	0.0158985
788.277	0.0157593
788.355	0.0160760
788.433	0.0159277
788.511	0.0158210
788.590	0.0157129
788.668	0.0158443
788.746	0.0158854
788.824	0.0159355
788.902	0.0157047
788.980	0.0157078
789.058	0.0158198
789.136	0.0158737
789.215	0.0158277
789.293	0.0158448
789.371	0.0157879
789.449	0.0159129
789.527	0.0157531
789.605	0.0157915
789.683	0.0158011
789.761	0.0158665
789.840	0.0157814
789.918	0.0158085
789.996	0.0158348
790.074	0.0159106
790.152	0.0159167
790.230	0.0159328
790.308	0.0159203
790.386	0.0160409
790.465	0.0160894
790.543	0.0161835
790.621	0.0161842
790.699	0.0162530
790.777	0.0163354
790.855	0.0165548
790.933	0.0165179
791.011	0.0165519
791.090	0.0167732
791.168	0.0167058
791.246	0.0167795
791.324	0.0166871
791.402	0.0167989
791.480	0.0168853
791.558	0.0166917
791.636	0.0168124
791.715	0.0168596
791.793	0.0167791
791.871	0.0170235
791.949	0.0168707
792.027	0.0167545
792.105	0.0166945
792.183	0.0169173
792.261	0.0167419
792.340	0.0167372
792.418	0.0165873
792.496	0.0167072
792.574	0.0166888
792.652	0.0166341
792.730	0.0167387
792.808	0.0166919
792.886	0.0167503
792.965	0.0167133
793.043	0.0165857
793.121	0.0165283
793.199	0.0164405
793.277	0.0162490
793.355	0.0162811
793.433	0.0161182
793.511	0.0158062
793.590	0.0156808
793.668	0.0155378
793.746	0.0153812
793.824	0.0153965
793.902	0.0155289
793.980	0.0154366
794.058	0.0153248
794.136	0.0154138
794.215	0.0153587
794.293	0.0154160
794.371	0.0156001
794.449	0.0155821
794.527	0.0155093
794.605	0.0157319
794.683	0.0157579
794.761	0.0157925
794.840	0.0158559
794.918	0.0161377
794.996	0.0161348
795.074	0.0161333
795.152	0.0162561
795.230	0.0164839
795.308	0.0166291
795.386	0.0166212
795.465	0.0167612
795.543	0.0166669
795.621	0.0167599
795.699	0.0169754
795.777	0.0170670
795.855	0.0169971
795.933	0.0171124
796.011	0.0169579
796.090	0.0169247
796.168	0.0169956
796.246	0.0169167
796.324	0.0169109
796.402	0.0168939
796.480	0.0167965
796.558	0.0167553
796.636	0.0168085
796.715	0.0168202
796.793	0.0167571
796.871	0.0164552
796.949	0.0166147
797.027	0.0166601
797.105	0.0167108
797.183	0.0164239
797.261	0.0162968
797.340	0.0162337
797.418	0.0161857
797.496	0.0162167
797.574	0.0161066
797.652	0.0159720
797.730	0.0159023
797.808	0.0158541
797.886	0.0157674
797.965	0.0157487
798.043	0.0156033
798.121	0.0157755
798.199	0.0157468
798.277	0.0155714
798.355	0.0155744
798.433	0.0156192
798.511	0.0156084
798.590	0.0156274
798.668	0.0156905
798.746	0.0157156
798.824	0.0155050
798.902	0.0156606
798.980	0.0156940
799.058	0.0156971
799.136	0.0157969
799.215	0.0155768
799.293	0.0157941
799.371	0.0156828
799.449	0.0157133
799.527	0.0157215
799.605	0.0157949
799.683	0.0156462
799.761	0.0156378
799.840	0.0156869
799.918	0.0157426
799.996	0.0158362
800.074	0.0157979
800.152	0.0157954
800.230	0.0157643
800.308	0.0157188
800.386	0.0158529
800.465	0.0157716
800.543	0.0158241
800.621	0.0157537
800.699	0.0157820
800.777	0.0157451
800.855	0.0158316
800.933	0.0157397
801.011	0.0158842
801.090	0.0158471
801.168	0.0157761
801.246	0.0158632
801.324	0.0158620
801.402	0.0156847
801.480	0.0157670
801.558	0.0157003
801.636	0.0156451
801.715	0.0156065
801.793	0.0155941
801.871	0.0154694
801.949	0.0154245
802.027	0.0153214
802.105	0.0154682
802.183	0.0154196
802.261	0.0154657
802.340	0.0153059
802.418	0.0153696
802.496	0.0153634
802.574	0.0154862
802.652	0.0154559
802.730	0.0155684
802.808	0.0156840
802.886	0.0157165
802.965	0.0157961
803.043	0.0158130
803.121	0.0158691
803.199	0.0158757
803.277	0.0160439
803.355	0.0159888
803.433	0.0160933
803.511	0.0162987
803.590	0.0163055
803.668	0.0161945
803.746	0.0162627
803.824	0.0163396
803.902	0.0162754
803.980	0.0163542
804.058	0.0162976
804.136	0.0162520
804.215	0.0163488
804.293	0.0163595
804.371	0.0164157
804.449	0.0163749
804.527	0.0163830
804.605	0.0164497
804.683	0.0163575
804.761	0.0164150
804.840	0.0164872
804.918	0.0165486
804.996	0.0166022
805.074	0.0165714
805.152	0.0165382
805.230	0.0166978
805.308	0.0166693
805.386	0.0167117
805.465	0.0169479
805.543	0.0168446
805.621	0.0170685
805.699	0.0170190
805.777	0.0169851
805.855	0.0171772
805.933	0.0172325
806.011	0.0172555
806.090	0.0170651
806.168	0.0170393
806.246	0.0170678
806.324	0.0169817
806.402	0.0169027
806.480	0.0169921
806.558	0.0167751
806.636	0.0166179
806.715	0.0166120
806.793	0.0168260
806.871	0.0167448
806.949	0.0167291
807.027	0.0166943
807.105	0.0166338
807.183	0.0167081
807.261	0.0167472
807.340	0.0165560
807.418	0.0165481
807.496	0.0166065
807.574	0.0165719
807.652	0.0164774
807.730	0.0164697
807.808	0.0164523
807.886	0.0163749
807.965	0.0162370
808.043	0.0161946
808.121	0.0161916
808.199	0.0161330
808.277	0.0160406
808.355	0.0161539
808.433	0.0161486
808.511	0.0160248
808.590	0.0159370
808.668	0.0159885
808.746	0.0158373
808.824	0.0159154
808.902	0.0159004
808.980	0.0158611
809.058	0.0157194
809.136	0.0158046
809.215	0.0157980
809.293	0.0160806
809.371	0.0158749
809.449	0.0159322
809.527	0.0159074
809.605	0.0162267
809.683	0.0161574
809.761	0.0160039
809.840	0.0161961
809.918	0.0161682
809.996	0.0161250
810.074	0.0161832
810.152	0.0160744
810.230	0.0161491
810.308	0.0160698
810.386	0.0158814
810.465	0.0159686
810.543	0.0161454
810.621	0.0159959
810.699	0.0161325
810.777	0.0159910
810.855	0.0160349
810.933	0.0159714
811.011	0.0159794
811.090	0.0161008
811.168	0.0162174
811.246	0.0163111
811.324	0.0161287
811.402	0.0162149
811.480	0.0161317
811.558	0.0163011
811.636	0.0164082
811.715	0.0163852
811.793	0.0164447
811.871	0.0163630
811.949	0.0165960
812.027	0.0164712
812.105	0.0163345
812.183	0.0164464
812.261	0.0165802
812.340	0.0163743
812.418	0.0165410
812.496	0.0163445
812.574	0.0163280
812.652	0.0164159
812.730	0.0164364
812.808	0.0164470
812.886	0.0165359
812.965	0.0164703
813.043	0.0164963
813.121	0.0165031
813.199	0.0164096
813.277	0.0163475
813.355	0.0163071
813.433	0.0165356
813.511	0.0164557
813.590	0.0164565
813.668	0.0165093
813.746	0.0164832
813.824	0.0164334
813.902	0.0162811
813.980	0.0163722
814.058	0.0164949
814.136	0.0164165
814.215	0.0164015
814.293	0.0162913
814.371	0.0161836
814.449	0.0162786
814.527	0.0162235
814.605	0.0161737
814.683	0.0160529
814.761	0.0162176
814.840	0.0159838
814.918	0.0161415
814.996	0.0162300
815.074	0.0160523
815.152	0.0159971
815.230	0.0161469
815.308	0.0161809
815.386	0.0161986
815.465	0.0162177
815.543	0.0161214
815.621	0.0161226
815.699	0.0160119
815.777	0.0161674
815.855	0.0160014
815.933	0.0158123
816.011	0.0160416
816.090	0.0158071
816.168	0.0158820
816.246	0.0157580
816.324	0.0156789
816.402	0.0156491
816.480	0.0156219
816.558	0.0156490
816.636	0.0155738
816.715	0.0156670
816.793	0.0156902
816.871	0.0155490
816.949	0.0155981
817.027	0.0155318
817.105	0.0155655
817.183	0.0157065
817.261	0.0158354
817.340	0.0157252
817.418	0.0157967
817.496	0.0156969
817.574	0.0157609
817.652	0.0157246
817.730	0.0158089
817.808	0.0158722
817.886	0.0159629
817.965	0.0158756
818.043	0.0157751
818.121	0.0159159
818.199	0.0159141
818.277	0.0159817
818.355	0.0160871
818.433	0.0161555
818.511	0.0160708
818.590	0.0161819
818.668	0.0162459
818.746	0.0161696
818.824	0.0163050
818.902	0.0162521
818.980	0.0163815
819.058	0.0162685
819.136	0.0163748
819.215	0.0163909
819.293	0.0164500
819.371	0.0165440
819.449	0.0165734
819.527	0.0165879
819.605	0.0165089
819.683	0.0164989
819.761	0.0165585
819.840	0.0165733
819.918	0.0168114
819.996	0.0166306
820.074	0.0166924
820.152	0.0167399
820.230	0.0167477
820.308	0.0166856
820.386	0.0166626
820.465	0.0167316
820.543	0.0165513
820.621	0.0166186
820.699	0.0164434
820.777	0.0164361
820.855	0.0165443
820.933	0.0163442
821.011	0.0162691
821.090	0.0161927
821.168	0.0161480
821.246	0.0160474
821.324	0.0159357
821.402	0.0158589
821.480	0.0157388
821.558	0.0157651
821.636	0.0156745
821.715	0.0157711
821.793	0.0158092
821.871	0.0157229
821.949	0.0156937
822.027	0.0157625
822.105	0.0158196
822.183	0.0159882
822.261	0.0161312
822.340	0.0158713
822.418	0.0160805
822.496	0.0161120
822.574	0.0161254
822.652	0.0161926
822.730	0.0162746
822.808	0.0162463
822.886	0.0161544
822.965	0.0162563
823.043	0.0162222
823.121	0.0164319
823.199	0.0162492
823.277	0.0161836
823.355	0.0163181
823.433	0.0162939
823.511	0.0160880
823.590	0.0162567
823.668	0.0163412
823.746	0.0162354
823.824	0.0162792
823.902	0.0164067
823.980	0.0163288
824.058	0.0163059
824.136	0.0162092
824.215	0.0161718
824.293	0.0161168
824.371	0.0161008
824.449	0.0161686
824.527	0.0161837
824.605	0.0161911
824.683	0.0159687
824.761	0.0160361
824.840	0.0159263
824.918	0.0159373
824.996	0.0158511
825.074	0.0158266
825.152	0.0159098
825.230	0.0158193
825.308	0.0158079
825.386	0.0159152
825.465	0.0158078
825.543	0.0159007
825.621	0.0158045
825.699	0.0156554
825.777	0.0156847
825.855	0.0156699
825.933	0.0156548
826.011	0.0155823
826.090	0.0157890
826.168	0.0157301
826.246	0.0157690
826.324	0.0157080
826.402	0.0157278
826.480	0.0157517
826.558	0.0159341
826.636	0.0158245
826.715	0.0157784
826.793	0.0159859
826.871	0.0159017
826.949	0.0159239
827.027	0.0159863
827.105	0.0160954
827.183	0.0160851
827.261	0.0161322
827.340	0.0162319
827.418	0.0162448
827.496	0.0161259
827.574	0.0160979
827.652	0.0162228
827.730	0.0162640
827.808	0.0162437
827.886	0.0161971
827.965	0.0161034
828.043	0.0161572
828.121	0.0162004
828.199	0.0162403
828.277	0.0160632
828.355	0.0162466
828.433	0.0160590
828.511	0.0162044
828.590	0.0163352
828.668	0.0160981
828.746	0.0160625
828.824	0.0162149
828.902	0.0162815
828.980	0.0162521
829.058	0.0162708
829.136	0.0163218
829.215	0.0164954
829.293	0.0163477
829.371	0.0163837
829.449	0.0165195
829.527	0.0164924
829.605	0.0165131
829.683	0.0163969
829.761	0.0165345
829.840	0.0166249
829.918	0.0167104
829.996	0.0165776
830.074	0.0166179
830.152	0.0165728
830.230	0.0166687
830.308	0.0167111
830.386	0.0167633
830.465	0.0167441
830.543	0.0166426
830.621	0.0167014
830.699	0.0167889
830.777	0.0166500
830.855	0.0165907
830.933	0.0165657
831.011	0.0165089
831.090	0.0165543
831.168	0.0165276
831.246	0.0165799
831.324	0.0165660
831.402	0.0166442
831.480	0.0165305
831.558	0.0164565
831.636	0.0165353
831.715	0.0166895
831.793	0.0164275
831.871	0.0164984
831.949	0.0166767
832.027	0.0164981
832.105	0.0164919
832.183	0.0165363
832.261	0.0165262
832.340	0.0165594
832.418	0.0164944
832.496	0.0165654
832.574	0.0165774
832.652	0.0166255
832.730	0.0166575
832.808	0.0165775
832.886	0.0166699
832.965	0.0166312
833.043	0.0166724
833.121	0.0165866
833.199	0.0165547
833.277	0.0166364
833.355	0.0165830
833.433	0.0165323
833.511	0.0165004
833.590	0.0164069
833.668	0.0166364
833.746	0.0164079
833.824	0.0163306
833.902	0.0164468
833.980	0.0163756
834.058	0.0164191
834.136	0.0164050
834.215	0.0163322
834.293	0.0163028
834.371	0.0163393
834.449	0.0164025
834.527	0.0163721
834.605	0.0163379
834.683	0.0163068
834.761	0.0163241
834.840	0.0163021
834.918	0.0162736
834.996	0.0162727
835.074	0.0161954
835.152	0.0162234
835.230	0.0161504
835.308	0.0161867
835.386	0.0159731
835.465	0.0160338
835.543	0.0160040
835.621	0.0160476
835.699	0.0161074
835.777	0.0159943
835.855	0.0160373
835.933	0.0160577
836.011	0.0161049
836.090	0.0160346
836.168	0.0159953
836.246	0.0160267
836.324	0.0160699
836.402	0.0160889
836.480	0.0160819
836.558	0.0160684
836.636	0.0160695
836.715	0.0160466
836.793	0.0160757
836.871	0.0159766
836.949	0.0160017
837.027	0.0161046
837.105	0.0161552
837.183	0.0161109
837.261	0.0162000
837.340	0.0162453
837.418	0.0163003
837.496	0.0164262
837.574	0.0163228
837.652	0.0163560
837.730	0.0163917
837.808	0.0165793
837.886	0.0163802
837.965	0.0164528
838.043	0.0164938
838.121	0.0165160
838.199	0.0164387
838.277	0.0164043
838.355	0.0163577
838.433	0.0164732
838.511	0.0162991
838.590	0.0163319
838.668	0.0163900
838.746	0.0163905
838.824	0.0163054
838.902	0.0162109
838.980	0.0161122
839.058	0.0162009
839.136	0.0161096
839.215	0.0160870
839.293	0.0160703
839.371	0.0161299
839.449	0.0159007
839.527	0.0159773
839.605	0.0159251
839.683	0.0158678
839.761	0.0157376
839.840	0.0159017
839.918	0.0158822
839.996	0.0158355
840.074	0.0158262
840.152	0.0159612
840.230	0.0160193
840.308	0.0159435
840.386	0.0161150
840.465	0.0159600
840.543	0.0160627
840.621	0.0159985
840.699	0.0158780
840.777	0.0160487
840.855	0.0161487
840.933	0.0160467
841.011	0.0159089
841.090	0.0158981
841.168	0.0158843
841.246	0.0158192
841.324	0.0160505
841.402	0.0158690
841.480	0.0157173
841.558	0.0158086
841.636	0.0157700
841.715	0.0156307
841.793	0.0156850
841.871	0.0157099
841.949	0.0157386
842.027	0.0157796
842.105	0.0157422
842.183	0.0158643
842.261	0.0158007
842.340	0.0159367
842.418	0.0159550
842.496	0.0158437
842.574	0.0159871
842.652	0.0160822
842.730	0.0160020
842.808	0.0160680
842.886	0.0162062
842.965	0.0162080
843.043	0.0161822
843.121	0.0162788
843.199	0.0162988
843.277	0.0162685
843.355	0.0163983
843.433	0.0164782
843.511	0.0165928
843.590	0.0165827
843.668	0.0165085
843.746	0.0166209
843.824	0.0167204
843.902	0.0168250
843.980	0.0168304
844.058	0.0167238
844.136	0.0167663
844.215	0.0168726
844.293	0.0168164
844.371	0.0167847
844.449	0.0168439
844.527	0.0166835
844.605	0.0166930
844.683	0.0167250
844.761	0.0167350
844.840	0.0167671
844.918	0.0165830
844.996	0.0166201
845.074	0.0166316
845.152	0.0165257
845.230	0.0164622
845.308	0.0165867
845.386	0.0165510
845.465	0.0165172
845.543	0.0163715
845.621	0.0164663
845.699	0.0165807
845.777	0.0164805
845.855	0.0164086
845.933	0.0165472
846.011	0.0164116
846.090	0.0163929
846.168	0.0164113
846.246	0.0164892
846.324	0.0163883
846.402	0.0163255
846.480	0.0163577
846.558	0.0163139
846.636	0.0162791
846.715	0.0162296
846.793	0.0163667
846.871	0.0162862
846.949	0.0161298
847.027	0.0163274
847.105	0.0162823
847.183	0.0162562
847.261	0.0162408
847.340	0.0161680
847.418	0.0162925
847.496	0.0162478
847.574	0.0162794
847.652	0.0161834
847.730	0.0163230
847.808	0.0163375
847.886	0.0163347
847.965	0.0164082
848.043	0.0163695
848.121	0.0163277
848.199	0.0163537
848.277	0.0163661
848.355	0.0162739
848.433	0.0163023
848.511	0.0163613
848.590	0.0162365
848.668	0.0162055
848.746	0.0161416
848.824	0.0161279
848.902	0.0159987
848.980	0.0160676
849.058	0.0159331
849.136	0.0159862
849.215	0.0159424
849.293	0.0158498
849.371	0.0159349
849.449	0.0158511
849.527	0.0159734
849.605	0.0159299
849.683	0.0157904
849.761	0.0157990
849.840	0.0159090
849.918	0.0158971
849.996	0.0160033
850.074	0.0160560
850.152	0.0161153
850.230	0.0161842
850.308	0.0162159
850.386	0.0163290
850.465	0.0163090
850.543	0.0161877
850.621	0.0161694
850.699	0.0162617
850.777	0.0161828
850.855	0.0160860
850.933	0.0161977
851.011	0.0160906
851.090	0.0159879
851.168	0.0159619
851.246	0.0160004
851.324	0.0159196
851.402	0.0161095
851.480	0.0160182
851.558	0.0159234
851.636	0.0159669
851.715	0.0160542
851.793	0.0159304
851.871	0.0160068
851.949	0.0158539
852.027	0.0160012
852.105	0.0160602
852.183	0.0160110
852.261	0.0161594
852.340	0.0160140
852.418	0.0159778
852.496	0.0160582
852.574	0.0159785
852.652	0.0160318
852.730	0.0159824
852.808	0.0160499
852.886	0.0160920
852.965	0.0159911
853.043	0.0162113
853.121	0.0160968
853.199	0.0159962
853.277	0.0161386
853.355	0.0162392
853.433	0.0162220
853.511	0.0161266
853.590	0.0162534
853.668	0.0161452
853.746	0.0161490
853.824	0.0163635
853.902	0.0161797
853.980	0.0161761
854.058	0.0163589
854.136	0.0163388
854.215	0.0162804
854.293	0.0163645
854.371	0.0163373
854.449	0.0163314
854.527	0.0163222
854.605	0.0164226
854.683	0.0163878
854.761	0.0164539
854.840	0.0162292
854.918	0.0163022
854.996	0.0162633
855.074	0.0163060
855.152	0.0163100
855.230	0.0162538
855.308	0.0163451
855.386	0.0162489
855.465	0.0161593
855.543	0.0161607
855.621	0.0162833
855.699	0.0161990
855.777	0.0161514
855.855	0.0161185
855.933	0.0161023
856.011	0.0162415
856.090	0.0161926
856.168	0.0162936
856.246	0.0163100
856.324	0.0162996
856.402	0.0164194
856.480	0.0163241
856.558	0.0162907
856.636	0.0165167
856.715	0.0165440
856.793	0.0164289
856.871	0.0165705
856.949	0.0164968
857.027	0.0166088
857.105	0.0165903
857.183	0.0166626
857.261	0.0165451
857.340	0.0165757
857.418	0.0168809
857.496	0.0168456
857.574	0.0167155
857.652	0.0167529
857.730	0.0168258
857.808	0.0167547
857.886	0.0169032
857.965	0.0168922
858.043	0.0169334
858.121	0.0169769
858.199	0.0169234
858.277	0.0167596
858.355	0.0167472
858.433	0.0167149
858.511	0.0168456
858.590	0.0167836
858.668	0.0167049
858.746	0.0166474
858.824	0.0166210
858.902	0.0166261
858.980	0.0167255
859.058	0.0165226
859.136	0.0164463
859.215	0.0164994
859.293	0.0163960
859.371	0.0163837
859.449	0.0162418
859.527	0.0163271
859.605	0.0162897
859.683	0.0162527
859.761	0.0162199
859.840	0.0160190
859.918	0.0162328
859.996	0.0161265
860.074	0.0159946
860.152	0.0160548
860.230	0.0160941
860.308	0.0160014
860.386	0.0158739
860.465	0.0160370
860.543	0.0158762
860.621	0.0159679
860.699	0.0159418
860.777	0.0158109
860.855	0.0158773
860.933	0.0158792
861.011	0.0157968
861.090	0.0158457
861.168	0.0158309
861.246	0.0156984
861.324	0.0158717
861.402	0.0158965
861.480	0.0158912
861.558	0.0158954
861.636	0.0160850
861.715	0.0160911
861.793	0.0161691
861.871	0.0161509
861.949	0.0160712
862.027	0.0161613
862.105	0.0163043
862.183	0.0163204
862.261	0.0163452
862.340	0.0163137
862.418	0.0164947
862.496	0.0164130
862.574	0.0164921
862.652	0.0165019
862.730	0.0164799
862.808	0.0165472
862.886	0.0166203
862.965	0.0166203
863.043	0.0166551
863.121	0.0167158
863.199	0.0166305
863.277	0.0167289
863.355	0.0164799
863.433	0.0166351
863.511	0.0167515
863.590	0.0167255
863.668	0.0167252
863.746	0.0167508
863.824	0.0166629
863.902	0.0165325
863.980	0.0165551
864.058	0.0165280
864.136	0.0166258
864.215	0.0164838
864.293	0.0165488
864.371	0.0165459
864.449	0.0164880
864.527	0.0164197
864.605	0.0164297
864.683	0.0164007
864.761	0.0164265
864.840	0.0163116
864.918	0.0163844
864.996	0.0162885
865.074	0.0161612
865.152	0.0161244
865.230	0.0160101
865.308	0.0159932
865.386	0.0158624
865.465	0.0158251
865.543	0.0158127
865.621	0.0158466
865.699	0.0157507
865.777	0.0156187
865.855	0.0156918
865.933	0.0156149
866.011	0.0155819
866.090	0.0154858
866.168	0.0155303
866.246	0.0154958
866.324	0.0154192
866.402	0.0154659
866.480	0.0154016
866.558	0.0153363
866.636	0.0154206
866.715	0.0154026
866.793	0.0154559
866.871	0.0154552
866.949	0.0155214
867.027	0.0155679
867.105	0.0155306
867.183	0.0156097
867.261	0.0157111
867.340	0.0156225
867.418	0.0154813
867.496	0.0155285
867.574	0.0156535
867.652	0.0157524
867.730	0.0156739
867.808	0.0156571
867.886	0.0156640
867.965	0.0157248
868.043	0.0158596
868.121	0.0158334
868.199	0.0158807
868.277	0.0159676
868.355	0.0160201
868.433	0.0160117
868.511	0.0161133
868.590	0.0162154
868.668	0.0161392
868.746	0.0162714
868.824	0.0161067
868.902	0.0160876
868.980	0.0161879
869.058	0.0162461
869.136	0.0161744
869.215	0.0163241
869.293	0.0163112
869.371	0.0161601
869.449	0.0160751
869.527	0.0163068
869.605	0.0163318
869.683	0.0161732
869.761	0.0161084
869.840	0.0160410
869.918	0.0161150
869.996	0.0160993
870.074	0.0160843
870.152	0.0160731
870.230	0.0161478
870.308	0.0162246
870.386	0.0163278
870.465	0.0163345
870.543	0.0164017
870.621	0.0164510
870.699	0.0165062
870.777	0.0165455
870.855	0.0166013
870.933	0.0168034
871.011	0.0168835
871.090	0.0169044
871.168	0.0170322
871.246	0.0171387
871.324	0.0170893
871.402	0.0173241
871.480	0.0174670
871.558	0.0174689
871.636	0.0174431
871.715	0.0176025
871.793	0.0175470
871.871	0.0177731
871.949	0.0178242
872.027	0.0178020
872.105	0.0177544
872.183	0.0177747
872.261	0.0178277
872.340	0.0176406
872.418	0.0177110
872.496	0.0175099
872.574	0.0174617
872.652	0.0174599
872.730	0.0171927
872.808	0.0170924
872.886	0.0171793
872.965	0.0170700
873.043	0.0167638
873.121	0.0167987
873.199	0.0167280
873.277	0.0165961
873.355	0.0165155
873.433	0.0164931
873.511	0.0162026
873.590	0.0161307
873.668	0.0161922
873.746	0.0158389
873.824	0.0158552
873.902	0.0158187
873.980	0.0156902
874.058	0.0156387
874.136	0.0157423
874.215	0.0156508
874.293	0.0155156
874.371	0.0154561
874.449	0.0154140
874.527	0.0152935
874.605	0.0153877
874.683	0.0153917
874.761	0.0152944
874.840	0.0153048
874.918	0.0151549
874.996	0.0152390
875.074	0.0152568
875.152	0.0152909
875.230	0.0152110
875.308	0.0153040
875.386	0.0152839
875.465	0.0152806
875.543	0.0152603
875.621	0.0153531
875.699	0.0152559
875.777	0.0153261
875.855	0.0152793
875.933	0.0153857
876.011	0.0153438
876.090	0.0153831
876.168	0.0155613
876.246	0.0156340
876.324	0.0155422
876.402	0.0156386
876.480	0.0156236
876.558	0.0156918
876.636	0.0156461
876.715	0.0158318
876.793	0.0156590
876.871	0.0156969
876.949	0.0157766
877.027	0.0158607
877.105	0.0158616
877.183	0.0159335
877.261	0.0159904
877.340	0.0158869
877.418	0.0159299
877.496	0.0159003
877.574	0.0160906
877.652	0.0158965
877.730	0.0160259
877.808	0.0160542
877.886	0.0160250
877.965	0.0160674
878.043	0.0160664
878.121	0.0161368
878.199	0.0161619
878.277	0.0161993
878.355	0.0161606
878.433	0.0161129
878.511	0.0162991
878.590	0.0163224
878.668	0.0161689
878.746	0.0162496
878.824	0.0164362
878.902	0.0163010
878.980	0.0161720
879.058	0.0163122
879.136	0.0162331
879.215	0.0164462
879.293	0.0165356
879.371	0.0164845
879.449	0.0163354
879.527	0.0163440
879.605	0.0164014
879.683	0.0164833
879.761	0.0164311
879.840	0.0166181
879.918	0.0164648
879.996	0.0162868
880.074	0.0165302
880.152	0.0165918
880.230	0.0164954
880.308	0.0165710
880.386	0.0165242
880.465	0.0165773
880.543	0.0164948
880.621	0.0165870
880.699	0.0166589
880.777	0.0166462
880.855	0.0165954
880.933	0.0164799
881.011	0.0165916
881.090	0.0166084
881.168	0.0165482
881.246	0.0165432
881.324	0.0165824
881.402	0.0165903
881.480	0.0165466
881.558	0.0165128
881.636	0.0165686
881.715	0.0164707
881.793	0.0165308
881.871	0.0164890
881.949	0.0163834
882.027	0.0165730
882.105	0.0164948
882.183	0.0163169
882.261	0.0165222
882.340	0.0164764
882.418	0.0165903
882.496	0.0166304
882.574	0.0164195
882.652	0.0166203
882.730	0.0164318
882.808	0.0166013
882.886	0.0165465
882.965	0.0165060
883.043	0.0166109
883.121	0.0165718
883.199	0.0165197
883.277	0.0166605
883.355	0.0165642
883.433	0.0165914
883.511	0.0165945
883.590	0.0165011
883.668	0.0165909
883.746	0.0165880
883.824	0.0164573
883.902	0.0166925
883.980	0.0164227
884.058	0.0164288
884.136	0.0164561
884.215	0.0163212
884.293	0.0163597
884.371	0.0162341
884.449	0.0162585
884.527	0.0162290
884.605	0.0160661
884.683	0.0161862
884.761	0.0161613
884.840	0.0161586
884.918	0.0160736
884.996	0.0159778
885.074	0.0161258
885.152	0.0158872
885.230	0.0159788
885.308	0.0159861
885.386	0.0159470
885.465	0.0158533
885.543	0.0160683
885.621	0.0161806
885.699	0.0159583
885.777	0.0161430
885.855	0.0161223
885.933	0.0160016
886.011	0.0160513
886.090	0.0160882
886.168	0.0160136
886.246	0.0161176
886.324	0.0160502
886.402	0.0159156
886.480	0.0160858
886.558	0.0160728
886.636	0.0160864
886.715	0.0160352
886.793	0.0159496
886.871	0.0161203
886.949	0.0158327
887.027	0.0161396
887.105	0.0161066
887.183	0.0161696
887.261	0.0162830
887.340	0.0162123
887.418	0.0162254
887.496	0.0163884
887.574	0.0161486
887.652	0.0162750
887.730	0.0163451
887.808	0.0165700
887.886	0.0164787
887.965	0.0163380
888.043	0.0164294
888.121	0.0164950
888.199	0.0164111
888.277	0.0164465
888.355	0.0166442
888.433	0.0165617
888.511	0.0165489
888.590	0.0165740
888.668	0.0165008
888.746	0.0164738
888.824	0.0165282
888.902	0.0164981
888.980	0.0165308
889.058	0.0164088
889.136	0.0165254
889.215	0.0163560
889.293	0.0164133
889.371	0.0163939
889.449	0.0162579
889.527	0.0162675
889.605	0.0161777
889.683	0.0161501
889.761	0.0161065
889.840	0.0160393
889.918	0.0160117
889.996	0.0160110
890.074	0.0160191
890.152	0.0159258
890.230	0.0159623
890.308	0.0159710
890.386	0.0159362
890.465	0.0160542
890.543	0.0160204
890.621	0.0159974
890.699	0.0159658
890.777	0.0158774
890.855	0.0159996
890.933	0.0158961
891.011	0.0158105
891.090	0.0157801
891.168	0.0159309
891.246	0.0159157
891.324	0.0159892
891.402	0.0158795
891.480	0.0158981
891.558	0.0160532
891.636	0.0160102
891.715	0.0160450
891.793	0.0160561
891.871	0.0160484
891.949	0.0161967
892.027	0.0160521
892.105	0.0160839
892.183	0.0160597
892.261	0.0157443
892.340	0.0160848
892.418	0.0160772
892.496	0.0158516
892.574	0.0160678
892.652	0.0160577
892.730	0.0159702
892.808	0.0160213
892.886	0.0160403
892.965	0.0160415
893.043	0.0159777
893.121	0.0161357
893.199	0.0162209
893.277	0.0160156
893.355	0.0161565
893.433	0.0160321
893.511	0.0162094
893.590	0.0163085
893.668	0.0162017
893.746	0.0162193
893.824	0.0162320
893.902	0.0162337
893.980	0.0163145
894.058	0.0164562
894.136	0.0165266
894.215	0.0161685
894.293	0.0164061
894.371	0.0164890
894.449	0.0165374
894.527	0.0164539
894.605	0.0164560
894.683	0.0165919
894.761	0.0166337
894.840	0.0164890
894.918	0.0163583
894.996	0.0164226
895.074	0.0164945
895.152	0.0164785
895.230	0.0164938
895.308	0.0164469
895.386	0.0165965
895.465	0.0165678
895.543	0.0164682
895.621	0.0165288
895.699	0.0165072
895.777	0.0165401
895.855	0.0166257
895.933	0.0166652
896.011	0.0166582
896.090	0.0167672
896.168	0.0167253
896.246	0.0167744
896.324	0.0168595
896.402	0.0169135
896.480	0.0167470
896.558	0.0170121
896.636	0.0169030
896.715	0.0168597
896.793	0.0169753
896.871	0.0169724
896.949	0.0168235
897.027	0.0169457
897.105	0.0168430
897.183	0.0167542
897.261	0.0167343
897.340	0.0167577
897.418	0.0167089
897.496	0.0165330
897.574	0.0165897
897.652	0.0165908
897.730	0.0163769
897.808	0.0164782
897.886	0.0164300
897.965	0.0163043
898.043	0.0162510
898.121	0.0161413
898.199	0.0162363
898.277	0.0160643
898.355	0.0159880
898.433	0.0158638
898.511	0.0157536
898.590	0.0158539
898.668	0.0156761
898.746	0.0156107
898.824	0.0156268
898.902	0.0154673
898.980	0.0155925
899.058	0.0155442
899.136	0.0155456
899.215	0.0154599
899.293	0.0154726
899.371	0.0153893
899.449	0.0153115
899.527	0.0153298
899.605	0.0155151
899.683	0.0156483
899.761	0.0154625
899.840	0.0155606
899.918	0.0155085
899.996	0.0154808
900.074	0.0154063
900.152	0.0154713
900.230	0.0154837
900.308	0.0156074
900.386	0.0155789
900.465	0.0155882
900.543	0.0154910
900.621	0.0156562
900.699	0.0155907
900.777	0.0156902
900.855	0.0156444
900.933	0.0156835
901.011	0.0156208
901.090	0.0156910
901.168	0.0157779
901.246	0.0158114
901.324	0.0158237
901.402	0.0157989
901.480	0.0159602
901.558	0.0160526
901.636	0.0158921
901.715	0.0159309
901.793	0.0160416
901.871	0.0161600
901.949	0.0161582
902.027	0.0160606
902.105	0.0159960
902.183	0.0160503
902.261	0.0161248
902.340	0.0162185
902.418	0.0162267
902.496	0.0161332
902.574	0.0159727
902.652	0.0160711
902.730	0.0162028
902.808	0.0160224
902.886	0.0161120
902.965	0.0161050
903.043	0.0160947
903.121	0.0162036
903.199	0.0162234
903.277	0.0161047
903.355	0.0161642
903.433	0.0161613
903.511	0.0160658
903.590	0.0160072
903.668	0.0159850
903.746	0.0160773
903.824	0.0160569
903.902	0.0160889
903.980	0.0160892
904.058	0.0160803
904.136	0.0162240
904.215	0.0160667
904.293	0.0161849
904.371	0.0161993
904.449	0.0161231
904.527	0.0161712
904.605	0.0162943
904.683	0.0165233
904.761	0.0162373
904.840	0.0163910
904.918	0.0166180
904.996	0.0165794
905.074	0.0165161
905.152	0.0167361
905.230	0.0167120
905.308	0.0166971
905.386	0.0167760
905.465	0.0167551
905.543	0.0168642
905.621	0.0169778
905.699	0.0168486
905.777	0.0168013
905.855	0.0166659
905.933	0.0169159
906.011	0.0167113
906.090	0.0166975
906.168	0.0165931
906.246	0.0165457
906.324	0.0166005
906.402	0.0166225
906.480	0.0165636
906.558	0.0164158
906.636	0.0163469
906.715	0.0164326
906.793	0.0163548
906.871	0.0162823
906.949	0.0161789
907.027	0.0162099
907.105	0.0161562
907.183	0.0160275
907.261	0.0161166
907.340	0.0161274
907.418	0.0160925
907.496	0.0161816
907.574	0.0162195
907.652	0.0161253
907.730	0.0161339
907.808	0.0160663
907.886	0.0161010
907.965	0.0160287
908.043	0.0161464
908.121	0.0161489
908.199	0.0160743
908.277	0.0160603
908.355	0.0160538
908.433	0.0159455
908.511	0.0160969
908.590	0.0162298
908.668	0.0161194
908.746	0.0161074
908.824	0.0160728
908.902	0.0160519
908.980	0.0159731
909.058	0.0160176
909.136	0.0160048
909.215	0.0160044
909.293	0.0161876
909.371	0.0160785
909.449	0.0160561
909.527	0.0161474
909.605	0.0161826
909.683	0.0160300
909.761	0.0160044
909.840	0.0160656
909.918	0.0160849
909.996	0.0162456
910.074	0.0160914
910.152	0.0160536
910.230	0.0159392
910.308	0.0160065
910.386	0.0161352
910.465	0.0160034
910.543	0.0160871
910.621	0.0160886
910.699	0.0162127
910.777	0.0161467
910.855	0.0161654
910.933	0.0162091
911.011	0.0162862
911.090	0.0161838
911.168	0.0161195
911.246	0.0162794
911.324	0.0163357
911.402	0.0162583
911.480	0.0163421
911.558	0.0164511
911.636	0.0163569
911.715	0.0163817
911.793	0.0164021
911.871	0.0165688
911.949	0.0164980
912.027	0.0163845
912.105	0.0165655
912.183	0.0164710
912.261	0.0165302
912.340	0.0166001
912.418	0.0166024
912.496	0.0165751
912.574	0.0165098
912.652	0.0166485
912.730	0.0167295
912.808	0.0166553
912.886	0.0167522
912.965	0.0165368
913.043	0.0165069
913.121	0.0164753
913.199	0.0164860
913.277	0.0164491
913.355	0.0164301
913.433	0.0162829
913.511	0.0163705
913.590	0.0163048
913.668	0.0163114
913.746	0.0162181
913.824	0.0161379
913.902	0.0160571
913.980	0.0160830
914.058	0.0160236
914.136	0.0159108
914.215	0.0159509
914.293	0.0158817
914.371	0.0159628
914.449	0.0158835
914.527	0.0157471
914.605	0.0158242
914.683	0.0158089
914.761	0.0157746
914.840	0.0157686
914.918	0.0158443
914.996	0.0158936
915.074	0.0157670
915.152	0.0156322
915.230	0.0157480
915.308	0.0157061
915.386	0.0157942
915.465	0.0159976
915.543	0.0158418
915.621	0.0158786
915.699	0.0159780
915.777	0.0160851
915.855	0.0162226
915.933	0.0160627
916.011	0.0161148
916.090	0.0163268
916.168	0.0163510
916.246	0.0162587
916.324	0.0163036
916.402	0.0163998
916.480	0.0163404
916.558	0.0163740
916.636	0.0164082
916.715	0.0163442
916.793	0.0163442
916.871	0.0164751
916.949	0.0164054
917.027	0.0164386
917.105	0.0163660
917.183	0.0163741
917.261	0.0164944
917.340	0.0164804
917.418	0.0165005
917.496	0.0165736
917.574	0.0164376
917.652	0.0164713
917.730	0.0163893
917.808	0.0164575
917.886	0.0164064
917.965	0.0163091
918.043	0.0163649
918.121	0.0162486
918.199	0.0162634
918.277	0.0161523
918.355	0.0162811
918.433	0.0161884
918.511	0.0161402
918.590	0.0160629
918.668	0.0160271
918.746	0.0162089
918.824	0.0161265
918.902	0.0160570
918.980	0.0160424
919.058	0.0160024
919.136	0.0160492
919.215	0.0161411
919.293	0.0161034
919.371	0.0160824
919.449	0.0160352
919.527	0.0161957
919.605	0.0160072
919.683	0.0160571
919.761	0.0162019
919.840	0.0160729
919.918	0.0161631
919.996	0.0162437
920.074	0.0159356
920.152	0.0160860
920.230	0.0161388
920.308	0.0160115
920.386	0.0160749
920.465	0.0160411
920.543	0.0159387
920.621	0.0160213
920.699	0.0160739
920.777	0.0160381
920.855	0.0159789
920.933	0.0158700
921.011	0.0160278
921.090	0.0158942
921.168	0.0158826
921.246	0.0158820
921.324	0.0157612
921.402	0.0158804
921.480	0.0159785
921.558	0.0159012
921.636	0.0159049
921.715	0.0158310
921.793	0.0158099
921.871	0.0159631
921.949	0.0158983
922.027	0.0159129
922.105	0.0159825
922.183	0.0159505
922.261	0.0159792
922.340	0.0159888
922.418	0.0160296
922.496	0.0159885
922.574	0.0161371
922.652	0.0161548
922.730	0.0161366
922.808	0.0162003
922.886	0.0162022
922.965	0.0162738
923.043	0.0164064
923.121	0.0163509
923.199	0.0161360
923.277	0.0162971
923.355	0.0161346
923.433	0.0165217
923.511	0.0164626
923.590	0.0164935
923.668	0.0164775
923.746	0.0164751
923.824	0.0165015
923.902	0.0166543
923.980	0.0166352
924.058	0.0166130
924.136	0.0166153
924.215	0.0167561
924.293	0.0167820
924.371	0.0168392
924.449	0.0166605
924.527	0.0167693
924.605	0.0166664
924.683	0.0167868
924.761	0.0167020
924.840	0.0167264
924.918	0.0166620
924.996	0.0165939
925.074	0.0166649
925.152	0.0168968
925.230	0.0166888
925.308	0.0166174
925.386	0.0166404
925.465	0.0164527
925.543	0.0166092
925.621	0.0165533
925.699	0.0165333
925.777	0.0165295
925.855	0.0165524
925.933	0.0164542
926.011	0.0163731
926.090	0.0163113
926.168	0.0163488
926.246	0.0163065
926.324	0.0163695
926.402	0.0162360
926.480	0.0161300
926.558	0.0163003
926.636	0.0159963
926.715	0.0160326
926.793	0.0160461
926.871	0.0160213
926.949	0.0160398
927.027	0.0161153
927.105	0.0160290
927.183	0.0159897
927.261	0.0161389
927.340	0.0159185
927.418	0.0160246
927.496	0.0160057
927.574	0.0161289
927.652	0.0161443
927.730	0.0160689
927.808	0.0162135
927.886	0.0161307
927.965	0.0160446
928.043	0.0160828
928.121	0.0161004
928.199	0.0160262
928.277	0.0160835
928.355	0.0161377
928.433	0.0160175
928.511	0.0160014
928.590	0.0160831
928.668	0.0161117
928.746	0.0160187
928.824	0.0160168
928.902	0.0161299
928.980	0.0161892
929.058	0.0161848
929.136	0.0159346
929.215	0.0160427
929.293	0.0161159
929.371	0.0160989
929.449	0.0161353
929.527	0.0161641
929.605	0.0161214
929.683	0.0160876
929.761	0.0161235
929.840	0.0160030
929.918	0.0161350
929.996	0.0161627
930.074	0.0162004
930.152	0.0160422
930.230	0.0161696
930.308	0.0161649
930.386	0.0161665
930.465	0.0161237
930.543	0.0160561
930.621	0.0160229
930.699	0.0161353
930.777	0.0160839
930.855	0.0161016
930.933	0.0162175
931.011	0.0161104
931.090	0.0162448
931.168	0.0161972
931.246	0.0162653
931.324	0.0163050
931.402	0.0161337
931.480	0.0160789
931.558	0.0162640
931.636	0.0161751
931.715	0.0161827
931.793	0.0161018
931.871	0.0161870
931.949	0.0160625
932.027	0.0161498
932.105	0.0161311
932.183	0.0161155
932.261	0.0161784
932.340	0.0162399
932.418	0.0161649
932.496	0.0160779
932.574	0.0161511
932.652	0.0162408
932.730	0.0162254
932.808	0.0162888
932.886	0.0162358
932.965	0.0163560
933.043	0.0163121
933.121	0.0162803
933.199	0.0163433
933.277	0.0162250
933.355	0.0162241
933.433	0.0162801
933.511	0.0163046
933.590	0.0162127
933.668	0.0162508
933.746	0.0161950
933.824	0.0161821
933.902	0.0161281
933.980	0.0161596
934.058	0.0161480
934.136	0.0162470
934.215	0.0162473
934.293	0.0162595
934.371	0.0162688
934.449	0.0161686
934.527	0.0161509
934.605	0.0162376
934.683	0.0161845
934.761	0.0162108
934.840	0.0162080
934.918	0.0162595
934.996	0.0160330
935.074	0.0159810
935.152	0.0160644
935.230	0.0162566
935.308	0.0161282
935.386	0.0162123
935.465	0.0161515
935.543	0.0162058
935.621	0.0161922
935.699	0.0160948
935.777	0.0161398
935.855	0.0161067
935.933	0.0161371
936.011	0.0161230
936.090	0.0161745
936.168	0.0160887
936.246	0.0160874
936.324	0.0161191
936.402	0.0161172
936.480	0.0160701
936.558	0.0161727
936.636	0.0161140
936.715	0.0162309
936.793	0.0163293
936.871	0.0162555
936.949	0.0161320
937.027	0.0161854
937.105	0.0162781
937.183	0.0162561
937.261	0.0161681
937.340	0.0163741
937.418	0.0161762
937.496	0.0161977
937.574	0.0163112
937.652	0.0163320
937.730	0.0162596
937.808	0.0163929
937.886	0.0163316
937.965	0.0162901
938.043	0.0164829
938.121	0.0164093
938.199	0.0164650
938.277	0.0164797
938.355	0.0164907
938.433	0.0164353
938.511	0.0165153
938.590	0.0164286
938.668	0.0163594
938.746	0.0164811
938.824	0.0164303
938.902	0.0166119
938.980	0.0166048
939.058	0.0164676
939.136	0.0165794
939.215	0.0164255
939.293	0.0165346
939.371	0.0165946
939.449	0.0167181
939.527	0.0166609
939.605	0.0166955
939.683	0.0166354
939.761	0.0166454
939.840	0.0166644
939.918	0.0167593
939.996	0.0166733
940.074	0.0167436
940.152	0.0166046
940.230	0.0165818
940.308	0.0166187
940.386	0.0167392
940.465	0.0165016
940.543	0.0163841
940.621	0.0165585
940.699	0.0165819
940.777	0.0162520
940.855	0.0163879
940.933	0.0164386
941.011	0.0164590
941.090	0.0163783
941.168	0.0163148
941.246	0.0162516
941.324	0.0162959
941.402	0.0162968
941.480	0.0162544
941.558	0.0161697
941.636	0.0162000
941.715	0.0160852
941.793	0.0159578
941.871	0.0160403
941.949	0.0160520
942.027	0.0159322
942.105	0.0158830
942.183	0.0157969
942.261	0.0157841
942.340	0.0158324
942.418	0.0156944
942.496	0.0157291
942.574	0.0158682
942.652	0.0158784
942.730	0.0158797
942.808	0.0157730
942.886	0.0159246
942.965	0.0159113
943.043	0.0157481
943.121	0.0159005
943.199	0.0160903
943.277	0.0160742
943.355	0.0159913
943.433	0.0160953
943.511	0.0160754
943.590	0.0160320
943.668	0.0159755
943.746	0.0160095
943.824	0.0159438
943.902	0.0159954
943.980	0.0159783
944.058	0.0162352
944.136	0.0159766
944.215	0.0158447
944.293	0.0158994
944.371	0.0159099
944.449	0.0160497
944.527	0.0159772
944.605	0.0158897
944.683	0.0159908
944.761	0.0159283
944.840	0.0160876
944.918	0.0160609
944.996	0.0159994
945.074	0.0160284
945.152	0.0160865
945.230	0.0161197
945.308	0.0161595
945.386	0.0160963
945.465	0.0159538
945.543	0.0161455
945.621	0.0161464
945.699	0.0160672
945.777	0.0161335
945.855	0.0160802
945.933	0.0160989
946.011	0.0162049
946.090	0.0162133
946.168	0.0161554
946.246	0.0161057
946.324	0.0161189
946.402	0.0159780
946.480	0.0160333
946.558	0.0159458
946.636	0.0158733
946.715	0.0158024
946.793	0.0158189
946.871	0.0159107
946.949	0.0159945
947.027	0.0159904
947.105	0.0159703
947.183	0.0160663
947.261	0.0160823
947.340	0.0162599
947.418	0.0162809
947.496	0.0163637
947.574	0.0163519
947.652	0.0163109
947.730	0.0164399
947.808	0.0163231
947.886	0.0164026
947.965	0.0162906
948.043	0.0163840
948.121	0.0164451
948.199	0.0162932
948.277	0.0162802
948.355	0.0162564
948.433	0.0161569
948.511	0.0160445
948.590	0.0160082
948.668	0.0159927
948.746	0.0160604
948.824	0.0159718
948.902	0.0159833
948.980	0.0160484
949.058	0.0160229
949.136	0.0160551
949.215	0.0161358
949.293	0.0161142
949.371	0.0160613
949.449	0.0162226
949.527	0.0162538
949.605	0.0161578
949.683	0.0161362
949.761	0.0161642
949.840	0.0161869
949.918	0.0160973
