06/29/2022	23:24:52	Ver.	4.1	UNKNOWN
Optical Delay	629.995835	Delta X		0.078125	Sweeps	1	Scan Rate	0/0
Coordinates	Axis 1	NaN	Axis 2	NaN	Axis 3	NaN	Axis 4	NaN	Axis 5	NaN	Axis 6	0.000000
TX Power	0.000000	RX Power	0.000000

629.996	0.0165393
630.074	0.0171283
630.152	0.0173425
630.230	0.0174352
630.308	0.0173008
630.386	0.0175481
630.465	0.0177103
630.543	0.0176723
630.621	0.0175454
630.699	0.0175642
630.777	0.0174188
630.855	0.0174230
630.933	0.0172642
631.011	0.0172117
631.090	0.0171294
631.168	0.0169547
631.246	0.0168037
631.324	0.0169151
631.402	0.0168028
631.480	0.0167474
631.558	0.0167870
631.636	0.0167474
631.715	0.0168233
631.793	0.0166582
631.871	0.0167198
631.949	0.0167032
632.027	0.0167671
632.105	0.0168346
632.183	0.0167994
632.261	0.0168159
632.340	0.0168839
632.418	0.0168033
632.496	0.0165845
632.574	0.0165937
632.652	0.0164654
632.730	0.0161977
632.808	0.0162671
632.886	0.0161066
632.965	0.0160207
633.043	0.0160210
633.121	0.0159849
633.199	0.0159641
633.277	0.0159005
633.355	0.0157852
633.433	0.0158800
633.511	0.0158586
633.590	0.0159129
633.668	0.0158126
633.746	0.0158604
633.824	0.0160394
633.902	0.0160858
633.980	0.0160622
634.058	0.0160122
634.136	0.0157397
634.215	0.0155435
634.293	0.0153698
634.371	0.0150709
634.449	0.0147735
634.527	0.0146011
634.605	0.0145148
634.683	0.0144678
634.761	0.0145221
634.840	0.0145368
634.918	0.0146812
634.996	0.0147174
635.074	0.0149261
635.152	0.0149882
635.230	0.0152295
635.308	0.0154030
635.386	0.0154589
635.465	0.0154745
635.543	0.0156844
635.621	0.0158027
635.699	0.0158843
635.777	0.0158386
635.855	0.0158157
635.933	0.0158590
636.011	0.0157880
636.090	0.0157307
636.168	0.0159353
636.246	0.0157693
636.324	0.0155751
636.402	0.0155787
636.480	0.0155480
636.558	0.0155489
636.636	0.0153837
636.715	0.0153363
636.793	0.0153870
636.871	0.0154874
636.949	0.0155158
637.027	0.0155544
637.105	0.0154714
637.183	0.0156516
637.261	0.0158016
637.340	0.0158875
637.418	0.0159863
637.496	0.0160220
637.574	0.0162357
637.652	0.0161812
637.730	0.0162097
637.808	0.0163083
637.886	0.0163276
637.965	0.0162154
638.043	0.0162423
638.121	0.0162859
638.199	0.0163093
638.277	0.0161508
638.355	0.0162019
638.433	0.0161729
638.511	0.0162704
638.590	0.0162098
638.668	0.0163706
638.746	0.0162479
638.824	0.0162601
638.902	0.0163936
638.980	0.0164561
639.058	0.0164431
639.136	0.0165157
639.215	0.0165057
639.293	0.0165237
639.371	0.0164317
639.449	0.0166135
639.527	0.0167266
639.605	0.0167027
639.683	0.0168169
639.761	0.0166829
639.840	0.0166300
639.918	0.0167332
639.996	0.0166721
640.074	0.0165065
640.152	0.0165072
640.230	0.0164673
640.308	0.0163725
640.386	0.0164916
640.465	0.0166411
640.543	0.0165498
640.621	0.0166518
640.699	0.0167092
640.777	0.0169114
640.855	0.0166884
640.933	0.0168333
641.011	0.0171264
641.090	0.0169936
641.168	0.0169536
641.246	0.0169536
641.324	0.0171365
641.402	0.0171670
641.480	0.0170914
641.558	0.0169777
641.636	0.0170531
641.715	0.0168434
641.793	0.0167998
641.871	0.0167398
641.949	0.0168938
642.027	0.0166602
642.105	0.0166835
642.183	0.0167058
642.261	0.0167084
642.340	0.0166978
642.418	0.0169459
642.496	0.0167751
642.574	0.0167719
642.652	0.0167216
642.730	0.0165633
642.808	0.0164014
642.886	0.0164289
642.965	0.0162920
643.043	0.0161842
643.121	0.0162051
643.199	0.0161304
643.277	0.0161256
643.355	0.0161613
643.433	0.0160585
643.511	0.0159495
643.590	0.0161286
643.668	0.0160083
643.746	0.0160779
643.824	0.0161689
643.902	0.0160133
643.980	0.0161660
644.058	0.0160105
644.136	0.0162572
644.215	0.0159790
644.293	0.0159605
644.371	0.0159280
644.449	0.0159316
644.527	0.0158425
644.605	0.0158929
644.683	0.0159222
644.761	0.0159061
644.840	0.0159720
644.918	0.0160155
644.996	0.0159431
645.074	0.0156554
645.152	0.0157741
645.230	0.0157668
645.308	0.0158268
645.386	0.0156252
645.465	0.0155463
645.543	0.0156147
645.621	0.0155091
645.699	0.0156512
645.777	0.0155873
645.855	0.0157559
645.933	0.0157059
646.011	0.0156571
646.090	0.0158675
646.168	0.0158106
646.246	0.0159515
646.324	0.0159574
646.402	0.0160495
646.480	0.0162683
646.558	0.0161282
646.636	0.0162698
646.715	0.0162677
646.793	0.0161749
646.871	0.0161025
646.949	0.0161015
647.027	0.0160736
647.105	0.0160994
647.183	0.0160592
647.261	0.0161172
647.340	0.0163116
647.418	0.0163373
647.496	0.0163201
647.574	0.0164525
647.652	0.0162291
647.730	0.0164043
647.808	0.0165385
647.886	0.0164730
647.965	0.0166721
648.043	0.0166336
648.121	0.0167278
648.199	0.0168657
648.277	0.0168427
648.355	0.0168546
648.433	0.0168129
648.511	0.0167547
648.590	0.0168914
648.668	0.0166872
648.746	0.0166125
648.824	0.0167163
648.902	0.0167432
648.980	0.0165928
649.058	0.0165645
649.136	0.0163520
649.215	0.0163892
649.293	0.0163953
649.371	0.0162537
649.449	0.0161822
649.527	0.0162228
649.605	0.0161829
649.683	0.0161356
649.761	0.0160869
649.840	0.0162112
649.918	0.0161672
649.996	0.0161164
650.074	0.0161478
650.152	0.0160255
650.230	0.0162035
650.308	0.0160249
650.386	0.0159779
650.465	0.0160477
650.543	0.0159950
650.621	0.0159492
650.699	0.0160656
650.777	0.0158166
650.855	0.0156561
650.933	0.0154827
651.011	0.0154473
651.090	0.0151777
651.168	0.0151277
651.246	0.0150568
651.324	0.0148587
651.402	0.0148626
651.480	0.0150878
651.558	0.0150926
651.636	0.0152353
651.715	0.0152758
651.793	0.0152682
651.871	0.0154841
651.949	0.0154823
652.027	0.0154683
652.105	0.0155105
652.183	0.0154747
652.261	0.0156314
652.340	0.0154669
652.418	0.0153973
652.496	0.0155268
652.574	0.0155524
652.652	0.0153129
652.730	0.0153673
652.808	0.0153479
652.886	0.0152969
652.965	0.0153279
653.043	0.0154552
653.121	0.0154546
653.199	0.0155014
653.277	0.0154348
653.355	0.0154659
653.433	0.0155585
653.511	0.0155493
653.590	0.0156177
653.668	0.0158399
653.746	0.0157896
653.824	0.0158557
653.902	0.0158986
653.980	0.0161301
654.058	0.0159418
654.136	0.0160652
654.215	0.0159486
654.293	0.0158120
654.371	0.0160179
654.449	0.0159824
654.527	0.0160583
654.605	0.0160726
654.683	0.0158598
654.761	0.0160725
654.840	0.0160167
654.918	0.0158939
654.996	0.0160873
655.074	0.0161392
655.152	0.0160707
655.230	0.0160606
655.308	0.0161997
655.386	0.0162594
655.465	0.0162701
655.543	0.0163307
655.621	0.0164058
655.699	0.0165935
655.777	0.0164840
655.855	0.0164757
655.933	0.0164612
656.011	0.0165883
656.090	0.0166462
656.168	0.0163808
656.246	0.0164181
656.324	0.0163562
656.402	0.0163656
656.480	0.0165141
656.558	0.0163369
656.636	0.0162543
656.715	0.0164244
656.793	0.0164284
656.871	0.0164426
656.949	0.0163781
657.027	0.0163871
657.105	0.0163641
657.183	0.0162611
657.261	0.0164201
657.340	0.0163451
657.418	0.0163828
657.496	0.0164279
657.574	0.0163986
657.652	0.0163922
657.730	0.0162403
657.808	0.0163008
657.886	0.0161965
657.965	0.0163750
658.043	0.0162581
658.121	0.0161572
658.199	0.0161186
658.277	0.0161859
658.355	0.0162566
658.433	0.0161428
658.511	0.0162150
658.590	0.0161810
658.668	0.0162640
658.746	0.0163156
658.824	0.0160762
658.902	0.0160573
658.980	0.0160246
659.058	0.0160638
659.136	0.0159784
659.215	0.0158066
659.293	0.0157544
659.371	0.0159238
659.449	0.0158580
659.527	0.0157482
659.605	0.0157995
659.683	0.0159287
659.761	0.0160055
659.840	0.0159933
659.918	0.0159663
659.996	0.0160024
660.074	0.0159782
660.152	0.0160438
660.230	0.0159734
660.308	0.0160388
660.386	0.0160458
660.465	0.0161077
660.543	0.0162032
660.621	0.0161847
660.699	0.0163328
660.777	0.0163750
660.855	0.0163506
660.933	0.0163554
661.011	0.0164782
661.090	0.0162263
661.168	0.0163483
661.246	0.0164515
661.324	0.0162640
661.402	0.0162811
661.480	0.0160525
661.558	0.0161547
661.636	0.0161272
661.715	0.0160019
661.793	0.0159124
661.871	0.0160419
661.949	0.0160567
662.027	0.0160436
662.105	0.0160468
662.183	0.0159551
662.261	0.0159946
662.340	0.0161523
662.418	0.0162392
662.496	0.0161334
662.574	0.0162279
662.652	0.0163005
662.730	0.0163306
662.808	0.0162399
662.886	0.0162905
662.965	0.0164880
663.043	0.0164908
663.121	0.0165887
663.199	0.0163556
663.277	0.0164262
663.355	0.0163116
663.433	0.0163366
663.511	0.0162762
663.590	0.0162932
663.668	0.0164004
663.746	0.0164223
663.824	0.0162802
663.902	0.0162739
663.980	0.0162457
664.058	0.0161778
664.136	0.0163590
664.215	0.0163426
664.293	0.0162533
664.371	0.0163605
664.449	0.0163441
664.527	0.0164833
664.605	0.0164581
664.683	0.0165439
664.761	0.0164095
664.840	0.0163226
664.918	0.0164832
664.996	0.0163993
665.074	0.0164717
665.152	0.0163557
665.230	0.0164957
665.308	0.0164848
665.386	0.0165587
665.465	0.0166016
665.543	0.0166974
665.621	0.0165712
665.699	0.0164626
665.777	0.0164745
665.855	0.0164790
665.933	0.0165462
666.011	0.0166184
666.090	0.0166496
666.168	0.0166386
666.246	0.0167043
666.324	0.0167462
666.402	0.0167349
666.480	0.0165999
666.558	0.0165076
666.636	0.0166138
666.715	0.0165220
666.793	0.0165964
666.871	0.0163651
666.949	0.0163348
667.027	0.0163306
667.105	0.0162875
667.183	0.0161840
667.261	0.0162535
667.340	0.0163425
667.418	0.0163829
667.496	0.0163348
667.574	0.0163155
667.652	0.0163853
667.730	0.0164000
667.808	0.0164562
667.886	0.0164847
667.965	0.0164022
668.043	0.0164864
668.121	0.0165456
668.199	0.0165863
668.277	0.0165112
668.355	0.0166301
668.433	0.0165151
668.511	0.0165807
668.590	0.0163641
668.668	0.0163489
668.746	0.0163454
668.824	0.0164063
668.902	0.0165318
668.980	0.0162898
669.058	0.0164029
669.136	0.0163234
669.215	0.0162843
669.293	0.0163587
669.371	0.0163868
669.449	0.0162653
669.527	0.0162399
669.605	0.0160742
669.683	0.0161967
669.761	0.0163345
669.840	0.0163306
669.918	0.0163117
669.996	0.0163657
670.074	0.0163942
670.152	0.0162859
670.230	0.0163783
670.308	0.0165468
670.386	0.0163259
670.465	0.0162226
670.543	0.0163050
670.621	0.0163297
670.699	0.0162063
670.777	0.0162529
670.855	0.0161369
670.933	0.0160390
671.011	0.0159882
671.090	0.0159422
671.168	0.0159376
671.246	0.0158953
671.324	0.0159719
671.402	0.0156832
671.480	0.0157690
671.558	0.0158478
671.636	0.0157597
671.715	0.0159061
671.793	0.0157790
671.871	0.0158829
671.949	0.0158809
672.027	0.0159384
672.105	0.0156940
672.183	0.0158767
672.261	0.0156568
672.340	0.0158279
672.418	0.0159123
672.496	0.0156808
672.574	0.0155976
672.652	0.0155998
672.730	0.0155194
672.808	0.0156950
672.886	0.0156015
672.965	0.0156231
673.043	0.0156602
673.121	0.0155074
673.199	0.0156062
673.277	0.0155331
673.355	0.0155810
673.433	0.0155257
673.511	0.0155826
673.590	0.0156126
673.668	0.0158320
673.746	0.0156021
673.824	0.0158787
673.902	0.0158234
673.980	0.0157700
674.058	0.0157413
674.136	0.0158609
674.215	0.0158536
674.293	0.0158266
674.371	0.0157088
674.449	0.0154861
674.527	0.0153500
674.605	0.0153942
674.683	0.0154870
674.761	0.0153024
674.840	0.0153698
674.918	0.0155392
674.996	0.0153461
675.074	0.0154164
675.152	0.0154734
675.230	0.0156528
675.308	0.0157882
675.386	0.0158357
675.465	0.0159887
675.543	0.0159090
675.621	0.0161691
675.699	0.0162814
675.777	0.0163473
675.855	0.0163754
675.933	0.0163462
676.011	0.0164619
676.090	0.0165199
676.168	0.0163710
676.246	0.0165739
676.324	0.0166051
676.402	0.0167102
676.480	0.0166563
676.558	0.0167348
676.636	0.0167994
676.715	0.0167638
676.793	0.0168811
676.871	0.0168523
676.949	0.0168491
677.027	0.0169435
677.105	0.0170505
677.183	0.0171123
677.261	0.0170090
677.340	0.0170564
677.418	0.0168691
677.496	0.0170857
677.574	0.0169756
677.652	0.0170464
677.730	0.0170748
677.808	0.0169434
677.886	0.0168107
677.965	0.0167868
678.043	0.0167793
678.121	0.0167529
678.199	0.0165356
678.277	0.0167213
678.355	0.0165434
678.433	0.0166306
678.511	0.0164875
678.590	0.0165543
678.668	0.0165795
678.746	0.0163311
678.824	0.0165031
678.902	0.0163464
678.980	0.0165520
679.058	0.0162422
679.136	0.0163129
679.215	0.0163049
679.293	0.0163806
679.371	0.0162585
679.449	0.0161398
679.527	0.0162820
679.605	0.0162816
679.683	0.0163990
679.761	0.0163418
679.840	0.0163794
679.918	0.0163963
679.996	0.0164998
680.074	0.0163964
680.152	0.0164771
680.230	0.0165762
680.308	0.0164191
680.386	0.0165533
680.465	0.0166837
680.543	0.0165986
680.621	0.0166398
680.699	0.0166071
680.777	0.0167248
680.855	0.0166481
680.933	0.0165625
681.011	0.0166384
681.090	0.0164710
681.168	0.0166251
681.246	0.0165259
681.324	0.0163620
681.402	0.0163365
681.480	0.0164125
681.558	0.0163098
681.636	0.0162030
681.715	0.0162435
681.793	0.0163168
681.871	0.0161725
681.949	0.0162431
682.027	0.0161893
682.105	0.0160464
682.183	0.0161636
682.261	0.0159525
682.340	0.0159660
682.418	0.0160471
682.496	0.0157922
682.574	0.0158693
682.652	0.0158445
682.730	0.0158872
682.808	0.0157001
682.886	0.0156722
682.965	0.0157165
683.043	0.0157121
683.121	0.0155820
683.199	0.0155361
683.277	0.0156030
683.355	0.0155038
683.433	0.0155816
683.511	0.0155713
683.590	0.0154393
683.668	0.0155132
683.746	0.0155341
683.824	0.0154802
683.902	0.0154213
683.980	0.0155368
684.058	0.0155257
684.136	0.0156138
684.215	0.0154982
684.293	0.0155217
684.371	0.0155107
684.449	0.0154582
684.527	0.0155804
684.605	0.0155595
684.683	0.0155601
684.761	0.0155891
684.840	0.0155611
684.918	0.0156323
684.996	0.0155698
685.074	0.0155726
685.152	0.0157064
685.230	0.0156581
685.308	0.0157298
685.386	0.0159906
685.465	0.0159197
685.543	0.0159092
685.621	0.0158739
685.699	0.0160638
685.777	0.0160799
685.855	0.0160450
685.933	0.0161994
686.011	0.0162706
686.090	0.0161804
686.168	0.0162463
686.246	0.0161813
686.324	0.0162041
686.402	0.0161816
686.480	0.0163318
686.558	0.0160613
686.636	0.0162724
686.715	0.0164089
686.793	0.0163817
686.871	0.0164491
686.949	0.0163274
687.027	0.0162432
687.105	0.0164019
687.183	0.0164877
687.261	0.0165022
687.340	0.0165862
687.418	0.0165527
687.496	0.0166429
687.574	0.0167676
687.652	0.0167281
687.730	0.0168351
687.808	0.0169572
687.886	0.0169875
687.965	0.0169805
688.043	0.0168813
688.121	0.0170696
688.199	0.0170940
688.277	0.0169652
688.355	0.0169607
688.433	0.0167746
688.511	0.0169855
688.590	0.0169196
688.668	0.0169243
688.746	0.0168570
688.824	0.0169109
688.902	0.0167786
688.980	0.0166630
689.058	0.0167191
689.136	0.0165823
689.215	0.0164687
689.293	0.0163043
689.371	0.0163987
689.449	0.0163676
689.527	0.0162004
689.605	0.0162204
689.683	0.0160744
689.761	0.0160513
689.840	0.0160210
689.918	0.0159100
689.996	0.0157668
690.074	0.0158097
690.152	0.0156441
690.230	0.0156924
690.308	0.0155907
690.386	0.0155762
690.465	0.0155225
690.543	0.0154008
690.621	0.0154992
690.699	0.0155316
690.777	0.0154977
690.855	0.0154933
690.933	0.0155389
691.011	0.0155270
691.090	0.0154968
691.168	0.0154375
691.246	0.0154914
691.324	0.0154286
691.402	0.0156293
691.480	0.0155958
691.558	0.0156190
691.636	0.0156894
691.715	0.0157413
691.793	0.0156705
691.871	0.0156081
691.949	0.0157162
692.027	0.0158482
692.105	0.0158752
692.183	0.0159146
692.261	0.0159917
692.340	0.0161366
692.418	0.0160844
692.496	0.0160906
692.574	0.0162106
692.652	0.0162650
692.730	0.0162555
692.808	0.0163679
692.886	0.0162635
692.965	0.0163076
693.043	0.0164812
693.121	0.0164802
693.199	0.0163483
693.277	0.0163985
693.355	0.0164664
693.433	0.0162861
693.511	0.0164404
693.590	0.0162872
693.668	0.0162245
693.746	0.0162395
693.824	0.0161925
693.902	0.0161726
693.980	0.0162141
694.058	0.0161976
694.136	0.0161050
694.215	0.0160400
694.293	0.0161874
694.371	0.0162038
694.449	0.0161933
694.527	0.0162070
694.605	0.0163712
694.683	0.0163417
694.761	0.0163298
694.840	0.0163374
694.918	0.0163526
694.996	0.0164901
695.074	0.0165413
695.152	0.0163976
695.230	0.0163992
695.308	0.0163999
695.386	0.0162676
695.465	0.0161968
695.543	0.0159868
695.621	0.0159236
695.699	0.0157260
695.777	0.0157510
695.855	0.0158644
695.933	0.0154774
696.011	0.0154425
696.090	0.0155162
696.168	0.0154553
696.246	0.0154383
696.324	0.0154208
696.402	0.0154928
696.480	0.0153718
696.558	0.0155234
696.636	0.0156270
696.715	0.0155305
696.793	0.0156193
696.871	0.0156781
696.949	0.0157133
697.027	0.0157790
697.105	0.0153992
697.183	0.0155805
697.261	0.0154536
697.340	0.0153659
697.418	0.0153220
697.496	0.0154309
697.574	0.0153253
697.652	0.0152165
697.730	0.0153198
697.808	0.0152969
697.886	0.0153283
697.965	0.0152745
698.043	0.0153653
698.121	0.0155418
698.199	0.0156213
698.277	0.0156460
698.355	0.0158595
698.433	0.0158771
698.511	0.0159217
698.590	0.0159855
698.668	0.0159762
698.746	0.0159538
698.824	0.0160233
698.902	0.0161018
698.980	0.0161861
699.058	0.0162063
699.136	0.0162277
699.215	0.0162328
699.293	0.0162268
699.371	0.0161807
699.449	0.0161628
699.527	0.0161469
699.605	0.0161784
699.683	0.0162689
699.761	0.0162141
699.840	0.0161502
699.918	0.0161793
699.996	0.0161688
700.074	0.0161989
700.152	0.0162581
700.230	0.0162183
700.308	0.0161196
700.386	0.0162303
700.465	0.0163145
700.543	0.0163004
700.621	0.0162405
700.699	0.0162775
700.777	0.0165163
700.855	0.0162576
700.933	0.0164229
701.011	0.0164240
701.090	0.0164480
701.168	0.0163907
701.246	0.0164293
701.324	0.0164481
701.402	0.0164202
701.480	0.0164182
701.558	0.0164723
701.636	0.0164803
701.715	0.0165362
701.793	0.0164700
701.871	0.0164732
701.949	0.0164799
702.027	0.0166084
702.105	0.0166461
702.183	0.0169226
702.261	0.0169030
702.340	0.0168608
702.418	0.0167497
702.496	0.0169228
702.574	0.0170657
702.652	0.0170445
702.730	0.0170299
702.808	0.0169769
702.886	0.0171169
702.965	0.0172047
703.043	0.0171745
703.121	0.0171624
703.199	0.0172715
703.277	0.0169645
703.355	0.0170744
703.433	0.0171464
703.511	0.0170449
703.590	0.0169846
703.668	0.0170048
703.746	0.0170227
703.824	0.0169733
703.902	0.0169576
703.980	0.0168159
704.058	0.0168026
704.136	0.0166500
704.215	0.0165739
704.293	0.0167362
704.371	0.0167742
704.449	0.0167084
704.527	0.0165102
704.605	0.0164975
704.683	0.0166097
704.761	0.0167102
704.840	0.0165801
704.918	0.0166312
704.996	0.0165906
705.074	0.0164929
705.152	0.0166640
705.230	0.0164768
705.308	0.0166294
705.386	0.0166183
705.465	0.0164463
705.543	0.0164712
705.621	0.0164690
705.699	0.0164607
705.777	0.0163279
705.855	0.0163125
705.933	0.0163267
706.011	0.0162199
706.090	0.0162056
706.168	0.0162362
706.246	0.0160972
706.324	0.0159508
706.402	0.0160583
706.480	0.0158562
706.558	0.0158458
706.636	0.0157487
706.715	0.0156949
706.793	0.0156818
706.871	0.0156860
706.949	0.0155766
707.027	0.0155733
707.105	0.0156441
707.183	0.0153597
707.261	0.0153341
707.340	0.0153677
707.418	0.0154516
707.496	0.0152699
707.574	0.0152427
707.652	0.0152197
707.730	0.0151472
707.808	0.0152184
707.886	0.0150397
707.965	0.0150079
708.043	0.0150154
708.121	0.0149823
708.199	0.0149332
708.277	0.0150606
708.355	0.0150568
708.433	0.0151346
708.511	0.0150843
708.590	0.0150527
708.668	0.0149962
708.746	0.0151254
708.824	0.0153558
708.902	0.0151521
708.980	0.0151434
709.058	0.0152583
709.136	0.0153470
709.215	0.0153355
709.293	0.0153098
709.371	0.0155509
709.449	0.0153630
709.527	0.0154693
709.605	0.0156253
709.683	0.0155006
709.761	0.0155981
709.840	0.0156156
709.918	0.0155000
709.996	0.0154744
710.074	0.0156949
710.152	0.0157008
710.230	0.0157236
710.308	0.0157360
710.386	0.0159409
710.465	0.0159303
710.543	0.0160532
710.621	0.0159479
710.699	0.0159964
710.777	0.0162253
710.855	0.0161214
710.933	0.0161205
711.011	0.0164162
711.090	0.0163612
711.168	0.0163324
711.246	0.0163911
711.324	0.0163023
711.402	0.0163022
711.480	0.0161147
711.558	0.0160890
711.636	0.0161082
711.715	0.0161441
711.793	0.0161745
711.871	0.0163097
711.949	0.0162154
712.027	0.0161680
712.105	0.0160188
712.183	0.0161691
712.261	0.0160782
712.340	0.0162099
712.418	0.0161637
712.496	0.0161819
712.574	0.0161820
712.652	0.0162177
712.730	0.0162263
712.808	0.0162541
712.886	0.0162455
712.965	0.0163843
713.043	0.0163491
713.121	0.0162990
713.199	0.0162068
713.277	0.0162643
713.355	0.0162682
713.433	0.0162925
713.511	0.0162302
713.590	0.0162326
713.668	0.0162061
713.746	0.0161659
713.824	0.0161311
713.902	0.0160526
713.980	0.0161540
714.058	0.0161322
714.136	0.0160046
714.215	0.0161641
714.293	0.0160107
714.371	0.0158888
714.449	0.0160670
714.527	0.0159351
714.605	0.0160345
714.683	0.0160668
714.761	0.0159293
714.840	0.0160041
714.918	0.0159745
714.996	0.0159768
715.074	0.0160780
715.152	0.0161842
715.230	0.0161178
715.308	0.0161037
715.386	0.0161015
715.465	0.0160181
715.543	0.0161582
715.621	0.0160086
715.699	0.0160246
715.777	0.0161211
715.855	0.0160947
715.933	0.0160985
716.011	0.0159955
716.090	0.0159767
716.168	0.0159393
716.246	0.0160219
716.324	0.0159641
716.402	0.0160825
716.480	0.0160918
716.558	0.0160588
716.636	0.0158298
716.715	0.0159237
716.793	0.0159397
716.871	0.0159243
716.949	0.0158998
717.027	0.0158958
717.105	0.0159138
717.183	0.0160397
717.261	0.0160136
717.340	0.0160135
717.418	0.0159708
717.496	0.0160071
717.574	0.0160635
717.652	0.0161346
717.730	0.0162360
717.808	0.0161239
717.886	0.0162334
717.965	0.0162437
718.043	0.0162180
718.121	0.0163659
718.199	0.0163737
718.277	0.0162816
718.355	0.0163826
718.433	0.0163332
718.511	0.0162325
718.590	0.0161948
718.668	0.0161844
718.746	0.0161066
718.824	0.0159647
718.902	0.0160856
718.980	0.0159090
719.058	0.0159638
719.136	0.0159321
719.215	0.0157518
719.293	0.0156650
719.371	0.0157272
719.449	0.0159727
719.527	0.0157214
719.605	0.0159103
719.683	0.0159644
719.761	0.0159926
719.840	0.0160095
719.918	0.0160442
719.996	0.0160886
720.074	0.0161385
720.152	0.0162404
720.230	0.0161787
720.308	0.0161653
720.386	0.0160802
720.465	0.0160079
720.543	0.0162966
720.621	0.0162234
720.699	0.0161369
720.777	0.0161586
720.855	0.0161708
720.933	0.0159283
721.011	0.0157684
721.090	0.0157555
721.168	0.0157873
721.246	0.0158352
721.324	0.0158104
721.402	0.0157512
721.480	0.0157024
721.558	0.0157055
721.636	0.0157247
721.715	0.0158272
721.793	0.0157154
721.871	0.0157137
721.949	0.0157512
722.027	0.0158470
722.105	0.0157952
722.183	0.0157157
722.261	0.0158941
722.340	0.0158410
722.418	0.0157609
722.496	0.0157894
722.574	0.0157929
722.652	0.0159325
722.730	0.0159652
722.808	0.0158421
722.886	0.0160502
722.965	0.0160482
723.043	0.0161182
723.121	0.0161263
723.199	0.0161356
723.277	0.0162814
723.355	0.0161515
723.433	0.0160613
723.511	0.0161772
723.590	0.0160865
723.668	0.0159379
723.746	0.0160307
723.824	0.0161310
723.902	0.0159753
723.980	0.0160789
724.058	0.0160380
724.136	0.0160403
724.215	0.0159563
724.293	0.0159082
724.371	0.0160297
724.449	0.0159288
724.527	0.0158532
724.605	0.0159829
724.683	0.0159821
724.761	0.0159354
724.840	0.0160313
724.918	0.0160971
724.996	0.0160577
725.074	0.0159014
725.152	0.0159885
725.230	0.0160593
725.308	0.0160966
725.386	0.0160949
725.465	0.0160793
725.543	0.0161169
725.621	0.0161529
725.699	0.0163155
725.777	0.0162419
725.855	0.0161562
725.933	0.0164241
726.011	0.0164175
726.090	0.0164277
726.168	0.0166608
726.246	0.0165382
726.324	0.0165143
726.402	0.0166175
726.480	0.0165625
726.558	0.0166259
726.636	0.0165734
726.715	0.0166003
726.793	0.0166241
726.871	0.0165118
726.949	0.0165651
727.027	0.0165176
727.105	0.0165296
727.183	0.0163528
727.261	0.0164082
727.340	0.0164744
727.418	0.0164086
727.496	0.0163554
727.574	0.0165162
727.652	0.0163130
727.730	0.0162308
727.808	0.0162786
727.886	0.0162186
727.965	0.0163338
728.043	0.0163296
728.121	0.0163337
728.199	0.0164493
728.277	0.0164455
728.355	0.0163566
728.433	0.0163596
728.511	0.0163980
728.590	0.0166386
728.668	0.0165540
728.746	0.0163995
728.824	0.0165641
728.902	0.0166555
728.980	0.0165913
729.058	0.0165395
729.136	0.0166806
729.215	0.0166570
729.293	0.0166351
729.371	0.0166597
729.449	0.0167645
729.527	0.0166284
729.605	0.0166514
729.683	0.0167175
729.761	0.0165082
729.840	0.0163947
729.918	0.0165281
729.996	0.0164470
730.074	0.0163562
730.152	0.0164423
730.230	0.0163345
730.308	0.0162501
730.386	0.0160727
730.465	0.0162482
730.543	0.0160818
730.621	0.0159872
730.699	0.0159155
730.777	0.0157262
730.855	0.0158488
730.933	0.0157047
731.011	0.0156444
731.090	0.0155756
731.168	0.0153719
731.246	0.0154359
731.324	0.0154136
731.402	0.0153822
731.480	0.0152975
731.558	0.0152342
731.636	0.0151261
731.715	0.0151938
731.793	0.0151556
731.871	0.0150867
731.949	0.0149285
732.027	0.0150578
732.105	0.0152327
732.183	0.0151862
732.261	0.0153001
732.340	0.0151272
732.418	0.0151600
732.496	0.0153787
732.574	0.0153569
732.652	0.0155059
732.730	0.0155164
732.808	0.0154053
732.886	0.0156664
732.965	0.0158137
733.043	0.0156492
733.121	0.0157196
733.199	0.0158691
733.277	0.0158266
733.355	0.0161090
733.433	0.0162067
733.511	0.0161478
733.590	0.0162670
733.668	0.0163545
733.746	0.0162934
733.824	0.0164659
733.902	0.0165379
733.980	0.0165939
734.058	0.0168441
734.136	0.0169035
734.215	0.0168758
734.293	0.0167637
734.371	0.0167846
734.449	0.0167802
734.527	0.0167736
734.605	0.0167244
734.683	0.0166579
734.761	0.0163959
734.840	0.0164677
734.918	0.0164862
734.996	0.0162376
735.074	0.0160752
735.152	0.0160509
735.230	0.0159875
735.308	0.0158017
735.386	0.0157563
735.465	0.0157015
735.543	0.0155448
735.621	0.0156195
735.699	0.0155661
735.777	0.0156822
735.855	0.0156674
735.933	0.0154803
736.011	0.0155779
736.090	0.0157422
736.168	0.0157385
736.246	0.0157167
736.324	0.0158485
736.402	0.0157870
736.480	0.0158984
736.558	0.0159875
736.636	0.0160052
736.715	0.0160368
736.793	0.0160773
736.871	0.0160260
736.949	0.0161297
737.027	0.0160854
737.105	0.0160598
737.183	0.0161677
737.261	0.0161636
737.340	0.0161473
737.418	0.0162743
737.496	0.0163256
737.574	0.0163127
737.652	0.0163279
737.730	0.0164356
737.808	0.0162475
737.886	0.0163225
737.965	0.0162672
738.043	0.0164256
738.121	0.0163924
738.199	0.0162762
738.277	0.0163129
738.355	0.0162875
738.433	0.0162714
738.511	0.0162623
738.590	0.0161950
738.668	0.0163187
738.746	0.0162345
738.824	0.0160851
738.902	0.0161062
738.980	0.0161898
739.058	0.0161238
739.136	0.0159490
739.215	0.0158434
739.293	0.0158987
739.371	0.0160117
739.449	0.0159952
739.527	0.0161319
739.605	0.0159908
739.683	0.0160779
739.761	0.0160437
739.840	0.0159653
739.918	0.0160432
739.996	0.0162396
740.074	0.0160448
740.152	0.0161700
740.230	0.0161102
740.308	0.0161189
740.386	0.0162037
740.465	0.0162721
740.543	0.0162645
740.621	0.0162809
740.699	0.0164672
740.777	0.0163735
740.855	0.0164734
740.933	0.0164612
741.011	0.0165350
741.090	0.0163995
741.168	0.0164233
741.246	0.0165054
741.324	0.0163960
741.402	0.0165367
741.480	0.0166165
741.558	0.0165873
741.636	0.0166991
741.715	0.0166515
741.793	0.0165281
741.871	0.0167747
741.949	0.0166986
742.027	0.0166429
742.105	0.0167020
742.183	0.0166958
742.261	0.0165302
742.340	0.0165352
742.418	0.0165623
742.496	0.0164947
742.574	0.0164950
742.652	0.0165685
742.730	0.0164353
742.808	0.0164117
742.886	0.0164198
742.965	0.0163883
743.043	0.0162137
743.121	0.0161409
743.199	0.0161442
743.277	0.0162198
743.355	0.0162152
743.433	0.0160802
743.511	0.0161290
743.590	0.0159863
743.668	0.0162137
743.746	0.0161083
743.824	0.0162075
743.902	0.0162640
743.980	0.0161045
744.058	0.0161474
744.136	0.0162463
744.215	0.0163150
744.293	0.0163649
744.371	0.0163418
744.449	0.0164066
744.527	0.0162856
744.605	0.0164234
744.683	0.0165064
744.761	0.0163400
744.840	0.0165041
744.918	0.0164574
744.996	0.0162060
745.074	0.0164552
745.152	0.0165829
745.230	0.0164404
745.308	0.0164620
745.386	0.0165425
745.465	0.0163634
745.543	0.0165573
745.621	0.0163831
745.699	0.0165079
745.777	0.0165904
745.855	0.0163969
745.933	0.0164283
746.011	0.0163892
746.090	0.0164679
746.168	0.0164468
746.246	0.0163697
746.324	0.0164360
746.402	0.0165491
746.480	0.0164323
746.558	0.0164260
746.636	0.0164282
746.715	0.0163911
746.793	0.0165274
746.871	0.0164124
746.949	0.0164234
747.027	0.0164426
747.105	0.0163743
747.183	0.0164397
747.261	0.0164376
747.340	0.0162986
747.418	0.0163708
747.496	0.0164750
747.574	0.0163210
747.652	0.0162318
747.730	0.0162360
747.808	0.0162099
747.886	0.0161224
747.965	0.0163456
748.043	0.0162469
748.121	0.0160322
748.199	0.0160179
748.277	0.0160481
748.355	0.0161617
748.433	0.0160867
748.511	0.0161044
748.590	0.0162896
748.668	0.0161221
748.746	0.0159544
748.824	0.0161207
748.902	0.0161381
748.980	0.0160976
749.058	0.0161083
749.136	0.0161406
749.215	0.0161294
749.293	0.0162376
749.371	0.0161858
749.449	0.0161874
749.527	0.0161969
749.605	0.0162051
749.683	0.0161188
749.761	0.0163371
749.840	0.0162299
749.918	0.0162493
749.996	0.0162447
750.074	0.0163458
750.152	0.0163605
750.230	0.0163269
750.308	0.0164838
750.386	0.0165824
750.465	0.0165881
750.543	0.0165871
750.621	0.0166254
750.699	0.0166229
750.777	0.0166225
750.855	0.0166483
750.933	0.0166151
751.011	0.0165495
751.090	0.0166001
751.168	0.0165977
751.246	0.0166723
751.324	0.0166611
751.402	0.0165890
751.480	0.0166705
751.558	0.0164639
751.636	0.0164951
751.715	0.0164372
751.793	0.0163942
751.871	0.0163247
751.949	0.0163201
752.027	0.0162673
752.105	0.0161221
752.183	0.0162214
752.261	0.0163248
752.340	0.0162247
752.418	0.0161687
752.496	0.0163165
752.574	0.0163351
752.652	0.0163028
752.730	0.0163879
752.808	0.0163390
752.886	0.0162899
752.965	0.0164899
753.043	0.0166380
753.121	0.0164314
753.199	0.0165177
753.277	0.0165182
753.355	0.0165467
753.433	0.0163091
753.511	0.0164204
753.590	0.0164974
753.668	0.0165062
753.746	0.0163949
753.824	0.0164198
753.902	0.0164345
753.980	0.0163692
754.058	0.0163051
754.136	0.0163186
754.215	0.0161557
754.293	0.0161388
754.371	0.0162212
754.449	0.0161873
754.527	0.0161710
754.605	0.0161517
754.683	0.0161161
754.761	0.0161028
754.840	0.0160629
754.918	0.0160465
754.996	0.0160128
755.074	0.0160119
755.152	0.0161205
755.230	0.0160567
755.308	0.0159467
755.386	0.0159316
755.465	0.0159901
755.543	0.0161266
755.621	0.0161246
755.699	0.0160650
755.777	0.0160690
755.855	0.0160876
755.933	0.0161459
756.011	0.0161971
756.090	0.0162282
756.168	0.0161401
756.246	0.0162919
756.324	0.0162233
756.402	0.0162197
756.480	0.0161247
756.558	0.0161620
756.636	0.0163656
756.715	0.0162212
756.793	0.0161328
756.871	0.0161985
756.949	0.0159151
757.027	0.0160027
757.105	0.0159190
757.183	0.0159893
757.261	0.0159161
757.340	0.0159105
757.418	0.0158129
757.496	0.0158758
757.574	0.0158132
757.652	0.0158199
757.730	0.0159613
757.808	0.0159282
757.886	0.0157034
757.965	0.0155614
758.043	0.0156510
758.121	0.0155981
758.199	0.0156268
758.277	0.0157440
758.355	0.0156158
758.433	0.0154574
758.511	0.0156097
758.590	0.0156451
758.668	0.0155132
758.746	0.0154856
758.824	0.0156717
758.902	0.0155227
758.980	0.0155180
759.058	0.0153827
759.136	0.0154293
759.215	0.0155566
759.293	0.0156441
759.371	0.0154701
759.449	0.0156643
759.527	0.0154476
759.605	0.0155988
759.683	0.0156441
759.761	0.0158076
759.840	0.0157690
759.918	0.0158546
759.996	0.0158639
760.074	0.0158788
760.152	0.0160272
760.230	0.0159839
760.308	0.0161657
760.386	0.0162054
760.465	0.0162894
760.543	0.0163250
760.621	0.0162931
760.699	0.0162296
760.777	0.0162309
760.855	0.0160866
760.933	0.0162047
761.011	0.0161679
761.090	0.0162201
761.168	0.0162276
761.246	0.0161141
761.324	0.0160625
761.402	0.0158746
761.480	0.0161291
761.558	0.0162221
761.636	0.0161714
761.715	0.0161520
761.793	0.0160703
761.871	0.0161767
761.949	0.0162181
762.027	0.0162469
762.105	0.0163106
762.183	0.0163856
762.261	0.0164568
762.340	0.0164546
762.418	0.0165623
762.496	0.0164758
762.574	0.0165395
762.652	0.0164880
762.730	0.0164350
762.808	0.0162637
762.886	0.0163253
762.965	0.0164325
763.043	0.0163132
763.121	0.0162189
763.199	0.0162815
763.277	0.0163978
763.355	0.0163343
763.433	0.0163535
763.511	0.0162650
763.590	0.0162469
763.668	0.0164458
763.746	0.0163950
763.824	0.0164057
763.902	0.0164384
763.980	0.0165276
764.058	0.0164751
764.136	0.0164697
764.215	0.0165337
764.293	0.0164660
764.371	0.0164585
764.449	0.0164381
764.527	0.0164830
764.605	0.0164358
764.683	0.0165144
764.761	0.0165690
764.840	0.0166800
764.918	0.0165188
764.996	0.0167357
765.074	0.0167642
765.152	0.0167310
765.230	0.0167164
765.308	0.0168040
765.386	0.0168366
765.465	0.0168630
765.543	0.0167179
765.621	0.0166532
765.699	0.0168241
765.777	0.0167615
765.855	0.0166771
765.933	0.0167230
766.011	0.0166210
766.090	0.0167156
766.168	0.0166786
766.246	0.0166959
766.324	0.0166480
766.402	0.0166937
766.480	0.0167606
766.558	0.0167124
766.636	0.0168860
766.715	0.0166941
766.793	0.0167516
766.871	0.0167094
766.949	0.0166481
767.027	0.0167434
767.105	0.0166419
767.183	0.0166043
767.261	0.0166000
767.340	0.0165058
767.418	0.0164271
767.496	0.0164492
767.574	0.0162324
767.652	0.0162216
767.730	0.0161944
767.808	0.0160749
767.886	0.0159566
767.965	0.0157841
768.043	0.0157424
768.121	0.0158038
768.199	0.0158767
768.277	0.0158433
768.355	0.0157204
768.433	0.0156897
768.511	0.0157365
768.590	0.0157120
768.668	0.0157294
768.746	0.0157793
768.824	0.0158685
768.902	0.0158929
768.980	0.0159087
769.058	0.0158880
769.136	0.0159508
769.215	0.0159768
769.293	0.0160165
769.371	0.0158829
769.449	0.0160149
769.527	0.0160264
769.605	0.0159335
769.683	0.0159553
769.761	0.0160972
769.840	0.0159970
769.918	0.0161465
769.996	0.0162807
770.074	0.0163107
770.152	0.0165294
770.230	0.0165726
770.308	0.0166553
770.386	0.0168536
770.465	0.0168340
770.543	0.0169254
770.621	0.0170513
770.699	0.0168914
770.777	0.0169765
770.855	0.0169843
770.933	0.0170374
771.011	0.0171473
771.090	0.0169250
771.168	0.0169234
771.246	0.0167629
771.324	0.0167626
771.402	0.0164194
771.480	0.0162785
771.558	0.0164097
771.636	0.0162132
771.715	0.0160374
771.793	0.0158257
771.871	0.0156901
771.949	0.0155857
772.027	0.0154518
772.105	0.0153837
772.183	0.0151398
772.261	0.0151913
772.340	0.0150293
772.418	0.0149857
772.496	0.0151945
772.574	0.0152071
772.652	0.0152177
772.730	0.0150770
772.808	0.0152073
772.886	0.0153642
772.965	0.0153946
773.043	0.0155024
773.121	0.0156969
773.199	0.0155984
773.277	0.0158136
773.355	0.0159556
773.433	0.0159468
773.511	0.0161570
773.590	0.0162086
773.668	0.0163342
773.746	0.0163250
773.824	0.0165202
773.902	0.0167768
773.980	0.0167052
774.058	0.0166969
774.136	0.0167153
774.215	0.0167418
774.293	0.0168158
774.371	0.0169047
774.449	0.0168427
774.527	0.0168438
774.605	0.0169308
774.683	0.0168503
774.761	0.0169569
774.840	0.0168621
774.918	0.0168105
774.996	0.0168925
775.074	0.0167286
775.152	0.0166000
775.230	0.0166425
775.308	0.0165260
775.386	0.0166238
775.465	0.0164955
775.543	0.0164371
775.621	0.0163831
775.699	0.0162582
775.777	0.0161915
775.855	0.0162933
775.933	0.0161984
776.011	0.0160525
776.090	0.0158904
776.168	0.0159533
776.246	0.0158396
776.324	0.0158540
776.402	0.0159174
776.480	0.0158353
776.558	0.0158151
776.636	0.0157420
776.715	0.0157471
776.793	0.0157940
776.871	0.0156741
776.949	0.0156261
777.027	0.0156457
777.105	0.0158115
777.183	0.0157948
777.261	0.0156842
777.340	0.0159017
777.418	0.0157709
777.496	0.0157053
777.574	0.0158063
777.652	0.0157245
777.730	0.0158601
777.808	0.0159205
777.886	0.0159029
777.965	0.0158323
778.043	0.0158305
778.121	0.0158791
778.199	0.0159774
778.277	0.0160164
778.355	0.0161243
778.433	0.0161652
778.511	0.0162415
778.590	0.0164775
778.668	0.0163821
778.746	0.0166774
778.824	0.0165868
778.902	0.0164581
778.980	0.0165955
779.058	0.0166693
779.136	0.0166673
779.215	0.0166512
779.293	0.0167240
779.371	0.0166869
779.449	0.0167757
779.527	0.0167593
779.605	0.0166280
779.683	0.0166911
779.761	0.0164687
779.840	0.0166397
779.918	0.0164370
779.996	0.0165274
780.074	0.0165118
780.152	0.0164607
780.230	0.0165269
780.308	0.0163261
780.386	0.0162501
780.465	0.0162918
780.543	0.0160899
780.621	0.0162761
780.699	0.0161385
780.777	0.0159930
780.855	0.0159631
780.933	0.0159843
781.011	0.0157931
781.090	0.0158192
781.168	0.0157763
781.246	0.0158172
781.324	0.0157639
781.402	0.0158820
781.480	0.0158395
781.558	0.0157741
781.636	0.0157912
781.715	0.0156894
781.793	0.0158819
781.871	0.0159148
781.949	0.0157676
782.027	0.0158229
782.105	0.0158777
782.183	0.0158736
782.261	0.0159796
782.340	0.0159699
782.418	0.0159765
782.496	0.0159557
782.574	0.0160271
782.652	0.0160931
782.730	0.0159801
782.808	0.0159990
782.886	0.0160960
782.965	0.0162023
783.043	0.0160023
783.121	0.0160603
783.199	0.0160128
783.277	0.0162816
783.355	0.0162090
783.433	0.0160110
783.511	0.0161327
783.590	0.0160806
783.668	0.0161575
783.746	0.0161846
783.824	0.0159438
783.902	0.0159808
783.980	0.0160663
784.058	0.0159222
784.136	0.0157257
784.215	0.0157862
784.293	0.0158099
784.371	0.0157076
784.449	0.0158468
784.527	0.0158261
784.605	0.0157250
784.683	0.0155974
784.761	0.0158992
784.840	0.0158431
784.918	0.0157864
784.996	0.0158872
785.074	0.0158920
785.152	0.0159824
785.230	0.0158967
785.308	0.0160055
785.386	0.0160546
785.465	0.0159295
785.543	0.0158311
785.621	0.0159163
785.699	0.0160410
785.777	0.0159453
785.855	0.0159949
785.933	0.0159186
786.011	0.0158377
786.090	0.0158891
786.168	0.0158668
786.246	0.0159466
786.324	0.0160113
786.402	0.0159221
786.480	0.0158630
786.558	0.0158383
786.636	0.0158987
786.715	0.0158256
786.793	0.0159212
786.871	0.0159987
786.949	0.0158895
787.027	0.0160199
787.105	0.0159982
787.183	0.0159510
787.261	0.0157845
787.340	0.0157282
787.418	0.0158862
787.496	0.0158443
787.574	0.0157272
787.652	0.0156526
787.730	0.0156980
787.808	0.0155360
787.886	0.0156076
787.965	0.0155209
788.043	0.0154953
788.121	0.0155501
788.199	0.0156139
788.277	0.0155111
788.355	0.0156498
788.433	0.0154631
788.511	0.0156001
788.590	0.0156303
788.668	0.0156292
788.746	0.0155830
788.824	0.0154942
788.902	0.0156207
788.980	0.0156860
789.058	0.0157070
789.136	0.0158403
789.215	0.0159309
789.293	0.0158503
789.371	0.0158459
789.449	0.0158165
789.527	0.0158990
789.605	0.0160966
789.683	0.0161111
789.761	0.0161413
789.840	0.0162606
789.918	0.0163452
789.996	0.0163776
790.074	0.0164907
790.152	0.0164844
790.230	0.0166040
790.308	0.0166349
790.386	0.0167789
790.465	0.0169562
790.543	0.0168416
790.621	0.0168624
790.699	0.0168584
790.777	0.0167929
790.855	0.0167818
790.933	0.0168452
791.011	0.0167818
791.090	0.0167928
791.168	0.0167777
791.246	0.0167329
791.324	0.0166911
791.402	0.0167049
791.480	0.0165363
791.558	0.0164972
791.636	0.0164237
791.715	0.0166814
791.793	0.0165125
791.871	0.0166560
791.949	0.0167005
792.027	0.0167733
792.105	0.0168781
792.183	0.0169929
792.261	0.0168433
792.340	0.0167384
792.418	0.0166376
792.496	0.0165630
792.574	0.0164324
792.652	0.0162154
792.730	0.0158964
792.808	0.0157542
792.886	0.0157202
792.965	0.0155377
793.043	0.0153970
793.121	0.0153316
793.199	0.0152419
793.277	0.0152471
793.355	0.0152242
793.433	0.0153466
793.511	0.0153661
793.590	0.0154932
793.668	0.0155194
793.746	0.0156631
793.824	0.0156567
793.902	0.0157121
793.980	0.0157639
794.058	0.0158277
794.136	0.0159428
794.215	0.0159587
794.293	0.0161759
794.371	0.0163141
794.449	0.0164867
794.527	0.0166015
794.605	0.0167002
794.683	0.0169488
794.761	0.0167786
794.840	0.0168584
794.918	0.0168713
794.996	0.0169901
795.074	0.0169433
795.152	0.0170622
795.230	0.0169321
795.308	0.0169464
795.386	0.0168508
795.465	0.0168452
795.543	0.0167851
795.621	0.0166965
795.699	0.0165310
795.777	0.0165681
795.855	0.0163656
795.933	0.0164403
796.011	0.0164352
796.090	0.0164574
796.168	0.0164735
796.246	0.0163175
796.324	0.0163808
796.402	0.0162575
796.480	0.0162007
796.558	0.0160442
796.636	0.0160227
796.715	0.0161355
796.793	0.0160126
796.871	0.0158992
796.949	0.0158801
797.027	0.0157755
797.105	0.0156390
797.183	0.0157211
797.261	0.0156326
797.340	0.0154371
797.418	0.0155179
797.496	0.0155856
797.574	0.0154065
797.652	0.0153591
797.730	0.0153650
797.808	0.0154355
797.886	0.0153512
797.965	0.0154382
798.043	0.0154311
798.121	0.0154893
798.199	0.0154185
798.277	0.0155092
798.355	0.0154922
798.433	0.0154124
798.511	0.0156056
798.590	0.0156918
798.668	0.0155698
798.746	0.0156876
798.824	0.0157242
798.902	0.0156882
798.980	0.0157622
799.058	0.0158042
799.136	0.0159232
799.215	0.0159446
799.293	0.0158952
799.371	0.0157049
799.449	0.0157930
799.527	0.0158804
799.605	0.0159589
799.683	0.0157312
799.761	0.0157470
799.840	0.0157520
799.918	0.0157436
799.996	0.0157987
800.074	0.0156752
800.152	0.0158094
800.230	0.0157869
800.308	0.0156876
800.386	0.0157090
800.465	0.0157523
800.543	0.0157225
800.621	0.0157066
800.699	0.0155917
800.777	0.0156086
800.855	0.0155682
800.933	0.0154723
801.011	0.0155692
801.090	0.0153664
801.168	0.0154274
801.246	0.0153864
801.324	0.0152831
801.402	0.0151384
801.480	0.0152627
801.558	0.0154068
801.636	0.0153301
801.715	0.0152768
801.793	0.0154395
801.871	0.0155077
801.949	0.0155884
802.027	0.0156165
802.105	0.0157297
802.183	0.0156696
802.261	0.0158737
802.340	0.0160229
802.418	0.0161652
802.496	0.0161491
802.574	0.0161417
802.652	0.0163381
802.730	0.0164310
802.808	0.0163862
802.886	0.0162389
802.965	0.0165186
803.043	0.0163897
803.121	0.0163926
803.199	0.0164661
803.277	0.0164695
803.355	0.0164447
803.433	0.0164439
803.511	0.0165366
803.590	0.0164520
803.668	0.0163840
803.746	0.0164968
803.824	0.0165089
803.902	0.0164484
803.980	0.0165986
804.058	0.0166022
804.136	0.0166090
804.215	0.0166712
804.293	0.0166514
804.371	0.0167820
804.449	0.0168172
804.527	0.0168450
804.605	0.0168311
804.683	0.0167510
804.761	0.0167588
804.840	0.0168369
804.918	0.0167069
804.996	0.0168999
805.074	0.0170198
805.152	0.0168119
805.230	0.0169979
805.308	0.0169832
805.386	0.0169057
805.465	0.0168655
805.543	0.0167744
805.621	0.0166286
805.699	0.0165665
805.777	0.0164918
805.855	0.0163838
805.933	0.0164624
806.011	0.0164610
806.090	0.0164088
806.168	0.0163902
806.246	0.0164931
806.324	0.0165205
806.402	0.0164938
806.480	0.0164890
806.558	0.0164949
806.636	0.0164739
806.715	0.0163788
806.793	0.0164845
806.871	0.0162464
806.949	0.0164236
807.027	0.0163251
807.105	0.0162380
807.183	0.0163284
807.261	0.0162354
807.340	0.0161992
807.418	0.0161818
807.496	0.0161004
807.574	0.0161325
807.652	0.0159639
807.730	0.0161002
807.808	0.0160617
807.886	0.0160796
807.965	0.0158695
808.043	0.0159219
808.121	0.0159729
808.199	0.0157365
808.277	0.0156777
808.355	0.0157542
808.433	0.0157622
808.511	0.0158066
808.590	0.0156586
808.668	0.0157819
808.746	0.0157980
808.824	0.0159314
808.902	0.0159728
808.980	0.0160017
809.058	0.0160953
809.136	0.0160699
809.215	0.0160164
809.293	0.0160840
809.371	0.0161221
809.449	0.0160469
809.527	0.0159956
809.605	0.0160509
809.683	0.0159776
809.761	0.0160488
809.840	0.0160814
809.918	0.0160160
809.996	0.0159423
810.074	0.0160538
810.152	0.0160358
810.230	0.0160206
810.308	0.0161356
810.386	0.0160120
810.465	0.0160675
810.543	0.0161366
810.621	0.0160780
810.699	0.0162749
810.777	0.0161963
810.855	0.0163264
810.933	0.0162616
811.011	0.0162940
811.090	0.0163840
811.168	0.0162169
811.246	0.0163060
811.324	0.0163836
811.402	0.0162151
811.480	0.0163404
811.558	0.0162188
811.636	0.0162893
811.715	0.0162304
811.793	0.0162631
811.871	0.0162706
811.949	0.0163229
812.027	0.0163443
812.105	0.0163238
812.183	0.0163012
812.261	0.0163792
812.340	0.0163689
812.418	0.0163373
812.496	0.0162695
812.574	0.0163716
812.652	0.0162923
812.730	0.0163335
812.808	0.0163461
812.886	0.0162588
812.965	0.0162676
813.043	0.0163590
813.121	0.0161387
813.199	0.0163081
813.277	0.0162951
813.355	0.0162489
813.433	0.0162581
813.511	0.0161315
813.590	0.0161497
813.668	0.0162048
813.746	0.0161552
813.824	0.0160841
813.902	0.0162487
813.980	0.0161115
814.058	0.0161987
814.136	0.0161694
814.215	0.0162946
814.293	0.0162328
814.371	0.0161377
814.449	0.0162025
814.527	0.0161917
814.605	0.0161577
814.683	0.0162378
814.761	0.0163567
814.840	0.0160815
814.918	0.0161898
814.996	0.0161277
815.074	0.0160966
815.152	0.0159013
815.230	0.0158482
815.308	0.0156387
815.386	0.0159158
815.465	0.0157255
815.543	0.0156814
815.621	0.0156991
815.699	0.0157314
815.777	0.0155179
815.855	0.0155360
815.933	0.0155950
816.011	0.0155299
816.090	0.0155337
816.168	0.0155209
816.246	0.0154111
816.324	0.0156730
816.402	0.0156680
816.480	0.0155765
816.558	0.0154765
816.636	0.0155476
816.715	0.0156381
816.793	0.0156270
816.871	0.0156486
816.949	0.0155856
817.027	0.0155864
817.105	0.0157072
817.183	0.0158117
817.261	0.0158756
817.340	0.0158430
817.418	0.0159425
817.496	0.0159709
817.574	0.0159406
817.652	0.0160735
817.730	0.0161263
817.808	0.0162351
817.886	0.0162524
817.965	0.0162493
818.043	0.0162721
818.121	0.0164066
818.199	0.0163905
818.277	0.0163549
818.355	0.0162883
818.433	0.0163776
818.511	0.0164508
818.590	0.0166434
818.668	0.0165041
818.746	0.0164823
818.824	0.0165126
818.902	0.0166403
818.980	0.0164755
819.058	0.0166430
819.136	0.0166405
819.215	0.0165429
819.293	0.0166418
819.371	0.0165554
819.449	0.0166193
819.527	0.0165000
819.605	0.0165752
819.683	0.0165485
819.761	0.0163907
819.840	0.0164333
819.918	0.0163399
819.996	0.0164400
820.074	0.0163636
820.152	0.0163106
820.230	0.0161039
820.308	0.0160168
820.386	0.0159695
820.465	0.0160432
820.543	0.0158440
820.621	0.0157451
820.699	0.0159010
820.777	0.0158169
820.855	0.0154573
820.933	0.0156381
821.011	0.0157137
821.090	0.0158644
821.168	0.0159347
821.246	0.0159411
821.324	0.0158474
821.402	0.0158386
821.480	0.0159084
821.558	0.0159444
821.636	0.0159763
821.715	0.0160902
821.793	0.0160361
821.871	0.0160246
821.949	0.0161151
822.027	0.0162809
822.105	0.0162108
822.183	0.0161413
822.261	0.0161606
822.340	0.0161305
822.418	0.0161641
822.496	0.0160452
822.574	0.0160558
822.652	0.0160539
822.730	0.0161607
822.808	0.0161160
822.886	0.0162649
822.965	0.0160486
823.043	0.0159808
823.121	0.0161348
823.199	0.0161094
823.277	0.0161153
823.355	0.0160388
823.433	0.0160827
823.511	0.0159390
823.590	0.0159248
823.668	0.0158952
823.746	0.0158343
823.824	0.0158287
823.902	0.0158670
823.980	0.0159330
824.058	0.0160192
824.136	0.0159007
824.215	0.0158270
824.293	0.0157367
824.371	0.0157681
824.449	0.0157523
824.527	0.0157679
824.605	0.0156567
824.683	0.0158386
824.761	0.0157998
824.840	0.0155975
824.918	0.0155846
824.996	0.0155279
825.074	0.0155121
825.152	0.0154900
825.230	0.0155939
825.308	0.0154498
825.386	0.0156255
825.465	0.0156374
825.543	0.0157676
825.621	0.0157088
825.699	0.0156796
825.777	0.0157336
825.855	0.0157632
825.933	0.0158598
826.011	0.0159576
826.090	0.0159565
826.168	0.0158215
826.246	0.0158804
826.324	0.0159776
826.402	0.0159684
826.480	0.0159848
826.558	0.0160583
826.636	0.0159671
826.715	0.0159359
826.793	0.0162498
826.871	0.0162872
826.949	0.0161396
827.027	0.0162574
827.105	0.0161162
827.183	0.0161860
827.261	0.0161703
827.340	0.0161468
827.418	0.0162074
827.496	0.0162223
827.574	0.0163811
827.652	0.0162817
827.730	0.0162732
827.808	0.0161443
827.886	0.0161247
827.965	0.0163281
828.043	0.0164092
828.121	0.0163235
828.199	0.0163705
828.277	0.0165063
828.355	0.0163745
828.433	0.0164532
828.511	0.0163957
828.590	0.0163236
828.668	0.0163952
828.746	0.0164667
828.824	0.0162836
828.902	0.0164549
828.980	0.0164178
829.058	0.0165234
829.136	0.0165322
829.215	0.0165455
829.293	0.0165919
829.371	0.0165176
829.449	0.0164185
829.527	0.0165064
829.605	0.0165573
829.683	0.0166999
829.761	0.0166254
829.840	0.0164655
829.918	0.0165632
829.996	0.0166167
830.074	0.0166872
830.152	0.0164979
830.230	0.0166451
830.308	0.0166158
830.386	0.0165730
830.465	0.0165311
830.543	0.0166375
830.621	0.0166123
830.699	0.0166946
830.777	0.0165862
830.855	0.0165530
830.933	0.0164769
831.011	0.0165403
831.090	0.0165897
831.168	0.0165598
831.246	0.0163182
831.324	0.0164506
831.402	0.0165225
831.480	0.0164793
831.558	0.0164476
831.636	0.0164404
831.715	0.0165436
831.793	0.0163970
831.871	0.0163418
831.949	0.0164867
832.027	0.0164533
832.105	0.0164637
832.183	0.0164242
832.261	0.0165063
832.340	0.0164859
832.418	0.0164854
832.496	0.0164947
832.574	0.0164339
832.652	0.0164779
832.730	0.0163829
832.808	0.0164914
832.886	0.0163582
832.965	0.0163606
833.043	0.0164142
833.121	0.0163406
833.199	0.0163381
833.277	0.0163858
833.355	0.0163093
833.433	0.0163828
833.511	0.0164513
833.590	0.0163400
833.668	0.0164761
833.746	0.0166058
833.824	0.0165500
833.902	0.0165595
833.980	0.0163719
834.058	0.0164109
834.136	0.0164449
834.215	0.0163104
834.293	0.0163578
834.371	0.0161925
834.449	0.0162450
834.527	0.0162101
834.605	0.0160925
834.683	0.0160880
834.761	0.0161420
834.840	0.0160474
834.918	0.0160756
834.996	0.0160775
835.074	0.0160366
835.152	0.0160204
835.230	0.0159743
835.308	0.0159538
835.386	0.0159088
835.465	0.0161253
835.543	0.0160007
835.621	0.0160376
835.699	0.0161042
835.777	0.0158514
835.855	0.0159948
835.933	0.0159424
836.011	0.0158748
836.090	0.0159884
836.168	0.0159543
836.246	0.0159350
836.324	0.0159193
836.402	0.0158532
836.480	0.0159048
836.558	0.0159763
836.636	0.0160844
836.715	0.0159194
836.793	0.0160703
836.871	0.0160226
836.949	0.0161824
837.027	0.0161201
837.105	0.0162846
837.183	0.0162120
837.261	0.0161225
837.340	0.0161167
837.418	0.0162911
837.496	0.0161780
837.574	0.0164323
837.652	0.0163027
837.730	0.0161147
837.808	0.0162234
837.886	0.0162698
837.965	0.0163386
838.043	0.0162791
838.121	0.0162583
838.199	0.0162955
838.277	0.0162344
838.355	0.0162367
838.433	0.0163032
838.511	0.0161648
838.590	0.0161926
838.668	0.0160714
838.746	0.0160609
838.824	0.0159163
838.902	0.0158855
838.980	0.0158418
839.058	0.0158239
839.136	0.0156888
839.215	0.0157327
839.293	0.0158586
839.371	0.0157975
839.449	0.0158072
839.527	0.0159203
839.605	0.0157785
839.683	0.0158176
839.761	0.0157622
839.840	0.0158326
839.918	0.0157959
839.996	0.0157743
840.074	0.0158746
840.152	0.0158595
840.230	0.0157246
840.308	0.0156935
840.386	0.0157110
840.465	0.0158379
840.543	0.0156794
840.621	0.0156819
840.699	0.0155462
840.777	0.0156377
840.855	0.0157527
840.933	0.0154510
841.011	0.0155238
841.090	0.0155231
841.168	0.0155911
841.246	0.0156390
841.324	0.0154986
841.402	0.0156125
841.480	0.0158813
841.558	0.0156853
841.636	0.0157603
841.715	0.0158976
841.793	0.0158854
841.871	0.0159048
841.949	0.0159084
842.027	0.0160654
842.105	0.0162558
842.183	0.0161919
842.261	0.0162238
842.340	0.0162705
842.418	0.0164242
842.496	0.0164773
842.574	0.0165823
842.652	0.0166885
842.730	0.0166316
842.808	0.0167226
842.886	0.0167260
842.965	0.0167742
843.043	0.0168701
843.121	0.0169194
843.199	0.0170047
843.277	0.0168628
843.355	0.0169425
843.433	0.0169628
843.511	0.0168771
843.590	0.0168606
843.668	0.0167306
843.746	0.0166292
843.824	0.0165862
843.902	0.0166768
843.980	0.0165919
844.058	0.0166363
844.136	0.0165668
844.215	0.0165245
844.293	0.0165666
844.371	0.0164284
844.449	0.0164883
844.527	0.0164510
844.605	0.0163342
844.683	0.0162149
844.761	0.0164846
844.840	0.0164785
844.918	0.0165345
844.996	0.0164513
845.074	0.0163640
845.152	0.0164712
845.230	0.0162445
845.308	0.0165005
845.386	0.0163965
845.465	0.0164112
845.543	0.0161186
845.621	0.0161812
845.699	0.0163312
845.777	0.0162403
845.855	0.0161322
845.933	0.0160701
846.011	0.0162389
846.090	0.0161402
846.168	0.0161501
846.246	0.0160173
846.324	0.0161633
846.402	0.0162771
846.480	0.0162662
846.558	0.0161549
846.636	0.0162040
846.715	0.0162028
846.793	0.0162064
846.871	0.0162014
846.949	0.0163544
847.027	0.0162471
847.105	0.0162590
847.183	0.0163472
847.261	0.0163396
847.340	0.0164684
847.418	0.0162671
847.496	0.0162992
847.574	0.0164081
847.652	0.0163410
847.730	0.0162311
847.808	0.0163036
847.886	0.0162721
847.965	0.0162460
848.043	0.0160366
848.121	0.0159703
848.199	0.0160168
848.277	0.0159280
848.355	0.0160608
848.433	0.0157909
848.511	0.0158309
848.590	0.0157446
848.668	0.0156709
848.746	0.0158412
848.824	0.0159151
848.902	0.0158596
848.980	0.0157906
849.058	0.0157978
849.136	0.0158969
849.215	0.0159463
849.293	0.0159908
849.371	0.0159550
849.449	0.0159962
849.527	0.0160593
849.605	0.0159902
849.683	0.0161546
849.761	0.0161414
849.840	0.0160083
849.918	0.0160388
849.996	0.0160635
850.074	0.0161546
850.152	0.0160465
850.230	0.0159724
850.308	0.0158760
850.386	0.0157606
850.465	0.0159953
850.543	0.0158907
850.621	0.0157610
850.699	0.0157787
850.777	0.0155746
850.855	0.0157738
850.933	0.0157986
851.011	0.0157606
851.090	0.0159111
851.168	0.0158945
851.246	0.0159925
851.324	0.0160130
851.402	0.0159587
851.480	0.0160892
851.558	0.0160250
851.636	0.0162143
851.715	0.0163303
851.793	0.0163323
851.871	0.0161508
851.949	0.0162107
852.027	0.0161295
852.105	0.0161787
852.183	0.0162320
852.261	0.0162465
852.340	0.0161460
852.418	0.0161279
852.496	0.0162769
852.574	0.0163022
852.652	0.0162500
852.730	0.0162117
852.808	0.0162690
852.886	0.0162284
852.965	0.0162727
853.043	0.0161528
853.121	0.0162013
853.199	0.0162836
853.277	0.0161922
853.355	0.0163079
853.433	0.0163046
853.511	0.0163239
853.590	0.0162815
853.668	0.0163872
853.746	0.0163294
853.824	0.0163739
853.902	0.0165009
853.980	0.0163982
854.058	0.0164001
854.136	0.0164363
854.215	0.0163847
854.293	0.0164069
854.371	0.0163243
854.449	0.0162284
854.527	0.0160995
854.605	0.0161094
854.683	0.0161471
854.761	0.0160501
854.840	0.0161034
854.918	0.0160306
854.996	0.0158613
855.074	0.0161394
855.152	0.0160503
855.230	0.0160140
855.308	0.0161015
855.386	0.0161348
855.465	0.0160716
855.543	0.0162518
855.621	0.0162969
855.699	0.0162572
855.777	0.0163146
855.855	0.0162469
855.933	0.0162892
856.011	0.0162838
856.090	0.0164561
856.168	0.0163483
856.246	0.0163317
856.324	0.0163712
856.402	0.0165311
856.480	0.0163819
856.558	0.0164072
856.636	0.0164501
856.715	0.0167103
856.793	0.0167364
856.871	0.0167491
856.949	0.0168444
857.027	0.0169068
857.105	0.0167400
857.183	0.0168151
857.261	0.0169405
857.340	0.0167478
857.418	0.0168546
857.496	0.0167967
857.574	0.0166616
857.652	0.0166958
857.730	0.0166357
857.808	0.0166211
857.886	0.0167081
857.965	0.0165998
858.043	0.0165642
858.121	0.0164275
858.199	0.0165170
858.277	0.0163635
858.355	0.0164069
858.433	0.0164174
858.511	0.0162933
858.590	0.0162079
858.668	0.0161774
858.746	0.0162789
858.824	0.0162036
858.902	0.0162215
858.980	0.0159528
859.058	0.0160565
859.136	0.0159290
859.215	0.0159405
859.293	0.0159097
859.371	0.0160436
859.449	0.0159033
859.527	0.0159348
859.605	0.0159589
859.683	0.0158640
859.761	0.0158916
859.840	0.0158604
859.918	0.0158678
859.996	0.0159026
860.074	0.0157629
860.152	0.0158435
860.230	0.0158275
860.308	0.0158247
860.386	0.0158337
860.465	0.0156165
860.543	0.0157322
860.621	0.0159359
860.699	0.0158368
860.777	0.0159100
860.855	0.0159557
860.933	0.0160383
861.011	0.0159917
861.090	0.0161010
861.168	0.0160692
861.246	0.0160801
861.324	0.0161655
861.402	0.0161319
861.480	0.0162440
861.558	0.0162969
861.636	0.0162870
861.715	0.0165984
861.793	0.0164722
861.871	0.0163042
861.949	0.0165453
862.027	0.0167547
862.105	0.0165835
862.183	0.0164664
862.261	0.0166868
862.340	0.0165681
862.418	0.0165830
862.496	0.0166874
862.574	0.0165546
862.652	0.0166029
862.730	0.0163535
862.808	0.0163757
862.886	0.0165143
862.965	0.0164966
863.043	0.0163261
863.121	0.0163319
863.199	0.0165130
863.277	0.0164644
863.355	0.0162978
863.433	0.0164603
863.511	0.0163458
863.590	0.0162286
863.668	0.0162553
863.746	0.0161691
863.824	0.0163857
863.902	0.0162301
863.980	0.0161382
864.058	0.0162309
864.136	0.0159383
864.215	0.0158649
864.293	0.0160078
864.371	0.0160719
864.449	0.0159245
864.527	0.0157662
864.605	0.0156686
864.683	0.0158273
864.761	0.0157943
864.840	0.0156853
864.918	0.0156626
864.996	0.0155042
865.074	0.0154720
865.152	0.0154245
865.230	0.0153821
865.308	0.0154269
865.386	0.0152559
865.465	0.0151879
865.543	0.0154004
865.621	0.0153350
865.699	0.0151841
865.777	0.0152243
865.855	0.0153407
865.933	0.0152823
866.011	0.0152711
866.090	0.0153299
866.168	0.0152383
866.246	0.0153415
866.324	0.0155874
866.402	0.0154936
866.480	0.0154007
866.558	0.0156306
866.636	0.0156579
866.715	0.0155816
866.793	0.0156595
866.871	0.0156463
866.949	0.0156095
867.027	0.0158175
867.105	0.0158119
867.183	0.0156382
867.261	0.0158286
867.340	0.0158809
867.418	0.0158543
867.496	0.0159608
867.574	0.0160462
867.652	0.0159581
867.730	0.0161070
867.808	0.0161063
867.886	0.0160699
867.965	0.0161388
868.043	0.0160887
868.121	0.0162861
868.199	0.0162077
868.277	0.0160978
868.355	0.0161552
868.433	0.0161607
868.511	0.0161304
868.590	0.0161072
868.668	0.0161268
868.746	0.0161097
868.824	0.0161240
868.902	0.0161874
868.980	0.0161992
869.058	0.0162267
869.136	0.0161594
869.215	0.0161485
869.293	0.0162077
869.371	0.0162515
869.449	0.0164294
869.527	0.0162534
869.605	0.0164147
869.683	0.0164188
869.761	0.0164515
869.840	0.0164526
869.918	0.0166519
869.996	0.0168381
870.074	0.0168208
870.152	0.0169070
870.230	0.0169760
870.308	0.0170467
870.386	0.0172551
870.465	0.0172796
870.543	0.0174108
870.621	0.0175212
870.699	0.0174513
870.777	0.0175936
870.855	0.0177358
870.933	0.0178616
871.011	0.0179483
871.090	0.0178278
871.168	0.0178960
871.246	0.0179587
871.324	0.0179829
871.402	0.0178732
871.480	0.0178113
871.558	0.0177449
871.636	0.0175195
871.715	0.0175613
871.793	0.0175137
871.871	0.0172058
871.949	0.0172353
872.027	0.0171695
872.105	0.0169836
872.183	0.0168272
872.261	0.0166650
872.340	0.0167508
872.418	0.0165759
872.496	0.0164355
872.574	0.0164410
872.652	0.0162082
872.730	0.0162450
872.808	0.0161784
872.886	0.0161037
872.965	0.0158891
873.043	0.0158654
873.121	0.0159848
873.199	0.0160122
873.277	0.0155943
873.355	0.0157880
873.433	0.0155560
873.511	0.0155711
873.590	0.0156995
873.668	0.0154428
873.746	0.0154613
873.824	0.0153915
873.902	0.0154994
873.980	0.0153998
874.058	0.0153289
874.136	0.0152903
874.215	0.0153269
874.293	0.0152738
874.371	0.0153216
874.449	0.0152271
874.527	0.0150477
874.605	0.0151306
874.683	0.0152979
874.761	0.0152473
874.840	0.0151859
874.918	0.0150952
874.996	0.0150643
875.074	0.0151749
875.152	0.0150764
875.230	0.0151816
875.308	0.0152233
875.386	0.0151918
875.465	0.0152934
875.543	0.0153662
875.621	0.0153617
875.699	0.0153858
875.777	0.0153869
875.855	0.0155151
875.933	0.0155514
876.011	0.0157887
876.090	0.0156577
876.168	0.0155667
876.246	0.0157330
876.324	0.0157295
876.402	0.0156660
876.480	0.0157281
876.558	0.0156873
876.636	0.0158158
876.715	0.0158543
876.793	0.0158081
876.871	0.0158842
876.949	0.0159869
877.027	0.0161586
877.105	0.0159033
877.183	0.0160120
877.261	0.0161131
877.340	0.0161110
877.418	0.0161336
877.496	0.0161525
877.574	0.0160867
877.652	0.0161166
877.730	0.0163136
877.808	0.0163077
877.886	0.0160828
877.965	0.0161417
878.043	0.0162871
878.121	0.0161945
878.199	0.0160445
878.277	0.0161985
878.355	0.0161594
878.433	0.0161693
878.511	0.0161517
878.590	0.0163417
878.668	0.0162474
878.746	0.0162667
878.824	0.0162339
878.902	0.0162847
878.980	0.0163769
879.058	0.0164870
879.136	0.0163029
879.215	0.0164597
879.293	0.0165145
879.371	0.0165512
879.449	0.0166299
879.527	0.0165322
879.605	0.0166298
879.683	0.0166947
879.761	0.0167545
879.840	0.0166336
879.918	0.0165881
879.996	0.0166622
880.074	0.0166695
880.152	0.0165363
880.230	0.0165339
880.308	0.0166747
880.386	0.0164955
880.465	0.0164294
880.543	0.0166076
880.621	0.0164307
880.699	0.0164433
880.777	0.0163985
880.855	0.0164517
880.933	0.0164326
881.011	0.0165858
881.090	0.0164265
881.168	0.0163203
881.246	0.0162948
881.324	0.0162196
881.402	0.0163808
881.480	0.0162833
881.558	0.0163941
881.636	0.0163349
881.715	0.0165508
881.793	0.0163593
881.871	0.0163264
881.949	0.0162902
882.027	0.0164465
882.105	0.0164663
882.183	0.0165617
882.261	0.0163663
882.340	0.0165266
882.418	0.0164937
882.496	0.0164809
882.574	0.0165240
882.652	0.0166123
882.730	0.0164906
882.808	0.0164930
882.886	0.0164943
882.965	0.0163945
883.043	0.0163857
883.121	0.0163870
883.199	0.0164227
883.277	0.0163086
883.355	0.0163241
883.433	0.0161977
883.511	0.0160503
883.590	0.0161466
883.668	0.0161507
883.746	0.0160347
883.824	0.0163248
883.902	0.0161118
883.980	0.0159612
884.058	0.0159891
884.136	0.0159259
884.215	0.0158170
884.293	0.0157509
884.371	0.0157822
884.449	0.0158861
884.527	0.0158915
884.605	0.0159495
884.683	0.0158982
884.761	0.0157940
884.840	0.0159620
884.918	0.0158102
884.996	0.0158453
885.074	0.0158442
885.152	0.0159108
885.230	0.0157308
885.308	0.0159473
885.386	0.0158552
885.465	0.0159473
885.543	0.0158652
885.621	0.0158645
885.699	0.0157912
885.777	0.0158908
885.855	0.0159978
885.933	0.0157768
886.011	0.0158463
886.090	0.0160756
886.168	0.0159315
886.246	0.0160263
886.324	0.0161566
886.402	0.0162387
886.480	0.0160563
886.558	0.0162057
886.636	0.0161550
886.715	0.0163805
886.793	0.0162643
886.871	0.0162753
886.949	0.0163306
887.027	0.0163458
887.105	0.0164056
887.183	0.0164227
887.261	0.0164917
887.340	0.0163815
887.418	0.0164494
887.496	0.0165145
887.574	0.0164570
887.652	0.0165968
887.730	0.0165266
887.808	0.0165594
887.886	0.0165178
887.965	0.0163746
888.043	0.0164048
888.121	0.0163297
888.199	0.0164098
888.277	0.0162861
888.355	0.0162814
888.433	0.0162096
888.511	0.0162974
888.590	0.0163628
888.668	0.0161723
888.746	0.0160641
888.824	0.0160866
888.902	0.0160979
888.980	0.0161529
889.058	0.0160572
889.136	0.0159617
889.215	0.0159628
889.293	0.0158421
889.371	0.0159192
889.449	0.0158579
889.527	0.0160191
889.605	0.0158829
889.683	0.0159672
889.761	0.0160570
889.840	0.0160729
889.918	0.0160515
889.996	0.0159197
890.074	0.0160031
890.152	0.0160599
890.230	0.0158791
890.308	0.0159263
890.386	0.0159291
890.465	0.0158894
890.543	0.0159660
890.621	0.0157841
890.699	0.0158949
890.777	0.0158251
890.855	0.0158616
890.933	0.0160522
891.011	0.0159124
891.090	0.0159310
891.168	0.0160537
891.246	0.0160507
891.324	0.0161578
891.402	0.0161613
891.480	0.0161110
891.558	0.0161324
891.636	0.0161852
891.715	0.0159952
891.793	0.0161230
891.871	0.0161886
891.949	0.0161251
892.027	0.0161238
892.105	0.0160810
892.183	0.0161561
892.261	0.0162866
892.340	0.0162218
892.418	0.0163194
892.496	0.0163348
892.574	0.0162084
892.652	0.0163121
892.730	0.0163247
892.808	0.0163040
892.886	0.0163168
892.965	0.0162945
893.043	0.0163470
893.121	0.0165394
893.199	0.0163943
893.277	0.0164392
893.355	0.0165516
893.433	0.0166438
893.511	0.0165507
893.590	0.0164059
893.668	0.0166435
893.746	0.0165747
893.824	0.0165036
893.902	0.0165649
893.980	0.0165384
894.058	0.0164645
894.136	0.0165348
894.215	0.0163628
894.293	0.0164140
894.371	0.0163390
894.449	0.0162070
894.527	0.0163660
894.605	0.0163826
894.683	0.0163603
894.761	0.0164298
894.840	0.0164471
894.918	0.0164339
894.996	0.0166476
895.074	0.0166505
895.152	0.0165220
895.230	0.0166464
895.308	0.0166253
895.386	0.0166965
895.465	0.0167947
895.543	0.0168240
895.621	0.0168028
895.699	0.0168282
895.777	0.0167995
895.855	0.0168958
895.933	0.0170202
896.011	0.0167746
896.090	0.0168401
896.168	0.0168122
896.246	0.0168533
896.324	0.0169334
896.402	0.0168683
896.480	0.0167159
896.558	0.0166287
896.636	0.0165638
896.715	0.0165737
896.793	0.0164820
896.871	0.0164780
896.949	0.0164514
897.027	0.0162412
897.105	0.0162256
897.183	0.0162516
897.261	0.0160583
897.340	0.0161543
897.418	0.0159849
897.496	0.0159428
897.574	0.0159092
897.652	0.0158337
897.730	0.0158005
897.808	0.0157835
897.886	0.0157047
897.965	0.0156375
898.043	0.0156190
898.121	0.0155405
898.199	0.0154129
898.277	0.0155070
898.355	0.0154556
898.433	0.0154287
898.511	0.0152422
898.590	0.0152893
898.668	0.0152708
898.746	0.0152266
898.824	0.0153056
898.902	0.0152820
898.980	0.0152634
899.058	0.0151950
899.136	0.0153504
899.215	0.0153669
899.293	0.0153942
899.371	0.0154053
899.449	0.0153078
899.527	0.0153986
899.605	0.0154648
899.683	0.0155420
899.761	0.0155708
899.840	0.0154520
899.918	0.0154699
899.996	0.0154031
900.074	0.0155711
900.152	0.0155982
900.230	0.0155929
900.308	0.0153572
900.386	0.0155642
900.465	0.0157095
900.543	0.0157223
900.621	0.0157852
900.699	0.0156589
900.777	0.0158327
900.855	0.0158208
900.933	0.0158442
901.011	0.0159233
901.090	0.0159292
901.168	0.0160879
901.246	0.0159757
901.324	0.0160352
901.402	0.0160620
901.480	0.0161193
901.558	0.0159997
901.636	0.0159805
901.715	0.0159486
901.793	0.0160011
901.871	0.0161040
901.949	0.0160728
902.027	0.0161256
902.105	0.0159398
902.183	0.0159585
902.261	0.0160248
902.340	0.0160172
902.418	0.0159694
902.496	0.0160403
902.574	0.0160847
902.652	0.0160228
902.730	0.0160927
902.808	0.0160479
902.886	0.0159062
902.965	0.0160873
903.043	0.0161103
903.121	0.0160096
903.199	0.0160047
903.277	0.0160683
903.355	0.0159982
903.433	0.0160132
903.511	0.0159586
903.590	0.0160173
903.668	0.0159839
903.746	0.0161841
903.824	0.0161951
903.902	0.0161934
903.980	0.0162472
904.058	0.0164387
904.136	0.0165129
904.215	0.0165318
904.293	0.0165054
904.371	0.0166550
904.449	0.0166063
904.527	0.0167346
904.605	0.0166971
904.683	0.0168458
904.761	0.0167339
904.840	0.0167986
904.918	0.0168371
904.996	0.0167624
905.074	0.0166705
905.152	0.0168000
905.230	0.0167075
905.308	0.0166570
905.386	0.0164680
905.465	0.0165244
905.543	0.0164472
905.621	0.0164881
905.699	0.0163791
905.777	0.0162158
905.855	0.0161838
905.933	0.0162065
906.011	0.0161920
906.090	0.0160535
906.168	0.0160361
906.246	0.0160323
906.324	0.0160380
906.402	0.0159662
906.480	0.0159316
906.558	0.0161395
906.636	0.0159810
906.715	0.0160579
906.793	0.0160579
906.871	0.0160086
906.949	0.0160471
907.027	0.0161475
907.105	0.0160133
907.183	0.0160052
907.261	0.0162201
907.340	0.0163084
907.418	0.0161641
907.496	0.0161864
907.574	0.0161033
907.652	0.0161005
907.730	0.0161155
907.808	0.0161792
907.886	0.0162360
907.965	0.0160152
908.043	0.0160565
908.121	0.0161152
908.199	0.0161190
908.277	0.0160877
908.355	0.0160728
908.433	0.0161852
908.511	0.0160768
908.590	0.0159492
908.668	0.0159514
908.746	0.0160243
908.824	0.0160572
908.902	0.0159158
908.980	0.0160390
909.058	0.0161198
909.136	0.0161184
909.215	0.0159690
909.293	0.0160868
909.371	0.0161447
909.449	0.0161733
909.527	0.0159950
909.605	0.0159320
909.683	0.0160001
909.761	0.0159695
909.840	0.0160568
909.918	0.0160307
909.996	0.0160177
910.074	0.0161081
910.152	0.0159965
910.230	0.0159437
910.308	0.0161903
910.386	0.0161210
910.465	0.0161407
910.543	0.0162328
910.621	0.0162650
910.699	0.0161610
910.777	0.0160733
910.855	0.0163377
910.933	0.0162212
911.011	0.0162814
911.090	0.0163863
911.168	0.0164171
911.246	0.0164779
911.324	0.0163981
911.402	0.0164564
911.480	0.0164198
911.558	0.0164017
911.636	0.0164420
911.715	0.0165658
911.793	0.0164529
911.871	0.0165581
911.949	0.0164972
912.027	0.0165895
912.105	0.0166394
912.183	0.0164744
912.261	0.0164577
912.340	0.0163241
912.418	0.0165218
912.496	0.0163745
912.574	0.0163496
912.652	0.0163809
912.730	0.0162251
912.808	0.0162961
912.886	0.0161929
912.965	0.0161804
913.043	0.0162657
913.121	0.0160753
913.199	0.0161324
913.277	0.0161781
913.355	0.0161388
913.433	0.0160613
913.511	0.0159974
913.590	0.0159423
913.668	0.0157484
913.746	0.0157326
913.824	0.0157887
913.902	0.0159348
913.980	0.0156908
914.058	0.0156246
914.136	0.0156078
914.215	0.0156454
914.293	0.0156384
914.371	0.0156518
914.449	0.0155617
914.527	0.0156438
914.605	0.0158385
914.683	0.0156716
914.761	0.0156693
914.840	0.0157942
914.918	0.0158059
914.996	0.0158516
915.074	0.0159255
915.152	0.0159596
915.230	0.0159903
915.308	0.0160313
915.386	0.0162764
915.465	0.0161615
915.543	0.0162075
915.621	0.0162000
915.699	0.0162839
915.777	0.0161980
915.855	0.0163387
915.933	0.0163150
916.011	0.0163155
916.090	0.0162988
916.168	0.0161993
916.246	0.0161810
916.324	0.0162308
916.402	0.0162055
916.480	0.0162617
916.558	0.0162514
916.636	0.0163206
916.715	0.0163385
916.793	0.0162681
916.871	0.0163816
916.949	0.0163901
917.027	0.0163615
917.105	0.0162717
917.183	0.0161617
917.261	0.0162869
917.340	0.0163126
917.418	0.0162183
917.496	0.0161375
917.574	0.0160860
917.652	0.0160962
917.730	0.0160972
917.808	0.0161536
917.886	0.0160822
917.965	0.0160204
918.043	0.0160429
918.121	0.0160388
918.199	0.0159456
918.277	0.0161092
918.355	0.0161177
918.433	0.0160680
918.511	0.0160427
918.590	0.0159554
918.668	0.0161382
918.746	0.0160947
918.824	0.0161677
918.902	0.0161639
918.980	0.0160072
919.058	0.0158553
919.136	0.0161043
919.215	0.0160846
919.293	0.0160418
919.371	0.0159336
919.449	0.0159376
919.527	0.0160069
919.605	0.0159264
919.683	0.0159460
919.761	0.0158901
919.840	0.0160199
919.918	0.0157894
919.996	0.0158826
920.074	0.0159207
920.152	0.0157734
920.230	0.0156725
920.308	0.0157448
920.386	0.0156654
920.465	0.0158503
920.543	0.0156389
920.621	0.0157921
920.699	0.0156376
920.777	0.0157084
920.855	0.0158518
920.933	0.0155987
921.011	0.0157557
921.090	0.0157420
921.168	0.0158627
921.246	0.0158185
921.324	0.0159422
921.402	0.0158096
921.480	0.0159891
921.558	0.0160824
921.636	0.0159010
921.715	0.0162656
921.793	0.0160844
921.871	0.0160963
921.949	0.0160558
922.027	0.0161376
922.105	0.0163211
922.183	0.0163322
922.261	0.0162421
922.340	0.0161420
922.418	0.0164133
922.496	0.0164263
922.574	0.0163444
922.652	0.0165005
922.730	0.0163887
922.808	0.0163369
922.886	0.0165042
922.965	0.0164297
923.043	0.0164848
923.121	0.0165373
923.199	0.0166417
923.277	0.0166200
923.355	0.0166906
923.433	0.0167003
923.511	0.0167589
923.590	0.0167094
923.668	0.0166872
923.746	0.0167822
923.824	0.0168055
923.902	0.0167209
923.980	0.0166472
924.058	0.0166451
924.136	0.0167385
924.215	0.0165849
924.293	0.0166003
924.371	0.0166956
924.449	0.0165761
924.527	0.0166055
924.605	0.0165503
924.683	0.0165964
924.761	0.0165676
924.840	0.0166193
924.918	0.0164586
924.996	0.0164487
925.074	0.0165646
925.152	0.0164776
925.230	0.0164861
925.308	0.0163306
925.386	0.0162634
925.465	0.0163246
925.543	0.0161640
925.621	0.0161226
925.699	0.0160615
925.777	0.0159201
925.855	0.0159969
925.933	0.0159184
926.011	0.0158640
926.090	0.0157974
926.168	0.0158253
926.246	0.0158783
926.324	0.0158749
926.402	0.0156700
926.480	0.0158088
926.558	0.0158281
926.636	0.0158554
926.715	0.0158292
926.793	0.0159845
926.871	0.0159167
926.949	0.0158972
927.027	0.0159509
927.105	0.0158465
927.183	0.0157893
927.261	0.0158479
927.340	0.0158723
927.418	0.0158288
927.496	0.0158921
927.574	0.0160084
927.652	0.0161102
927.730	0.0159602
927.808	0.0161266
927.886	0.0160485
927.965	0.0161390
928.043	0.0161668
928.121	0.0161534
928.199	0.0160593
928.277	0.0162578
928.355	0.0162281
928.433	0.0161863
928.511	0.0161398
928.590	0.0161240
928.668	0.0162946
928.746	0.0160112
928.824	0.0160129
928.902	0.0160501
928.980	0.0160376
929.058	0.0160526
929.136	0.0160576
929.215	0.0160094
929.293	0.0160909
929.371	0.0159767
929.449	0.0159464
929.527	0.0159995
929.605	0.0161219
929.683	0.0162096
929.761	0.0161664
929.840	0.0160843
929.918	0.0161150
929.996	0.0160435
930.074	0.0159686
930.152	0.0162052
930.230	0.0161641
930.308	0.0162556
930.386	0.0161742
930.465	0.0162594
930.543	0.0160919
930.621	0.0161792
930.699	0.0162709
930.777	0.0162402
930.855	0.0162024
930.933	0.0163213
931.011	0.0162761
931.090	0.0162986
931.168	0.0162772
931.246	0.0163746
931.324	0.0163057
931.402	0.0161573
931.480	0.0163155
931.558	0.0163134
931.636	0.0163609
931.715	0.0163226
931.793	0.0163877
931.871	0.0164127
931.949	0.0163800
932.027	0.0164442
932.105	0.0165234
932.183	0.0161835
932.261	0.0163956
932.340	0.0163983
932.418	0.0163793
932.496	0.0163740
932.574	0.0164061
932.652	0.0163194
932.730	0.0164127
932.808	0.0163209
932.886	0.0163775
932.965	0.0162907
933.043	0.0161070
933.121	0.0160126
933.199	0.0162687
933.277	0.0161288
933.355	0.0161537
933.433	0.0162358
933.511	0.0161854
933.590	0.0161325
933.668	0.0162765
933.746	0.0161488
933.824	0.0160493
933.902	0.0160803
933.980	0.0161868
934.058	0.0161803
934.136	0.0161541
934.215	0.0161253
934.293	0.0160599
934.371	0.0160149
934.449	0.0161116
934.527	0.0161492
934.605	0.0160775
934.683	0.0160824
934.761	0.0161604
934.840	0.0161130
934.918	0.0160446
934.996	0.0161258
935.074	0.0161012
935.152	0.0159961
935.230	0.0160401
935.308	0.0160087
935.386	0.0161319
935.465	0.0161559
935.543	0.0160623
935.621	0.0159409
935.699	0.0160917
935.777	0.0161243
935.855	0.0160138
935.933	0.0161669
936.011	0.0162440
936.090	0.0161119
936.168	0.0161279
936.246	0.0161874
936.324	0.0161285
936.402	0.0161363
936.480	0.0160825
936.558	0.0161075
936.636	0.0161001
936.715	0.0159543
936.793	0.0161573
936.871	0.0160526
936.949	0.0161640
937.027	0.0159807
937.105	0.0160678
937.183	0.0162957
937.261	0.0162118
937.340	0.0162045
937.418	0.0162403
937.496	0.0160448
937.574	0.0161446
937.652	0.0161440
937.730	0.0162250
937.808	0.0161936
937.886	0.0161763
937.965	0.0162339
938.043	0.0163914
938.121	0.0163596
938.199	0.0162114
938.277	0.0164424
938.355	0.0164478
938.433	0.0165408
938.511	0.0166370
938.590	0.0164728
938.668	0.0164914
938.746	0.0165859
938.824	0.0165931
938.902	0.0164995
938.980	0.0165631
939.058	0.0165013
939.136	0.0165381
939.215	0.0165190
939.293	0.0165072
939.371	0.0166200
939.449	0.0165132
939.527	0.0162944
939.605	0.0163883
939.683	0.0162854
939.761	0.0162755
939.840	0.0163602
939.918	0.0161671
939.996	0.0162077
940.074	0.0161053
940.152	0.0162572
940.230	0.0162589
940.308	0.0163494
940.386	0.0159966
940.465	0.0160466
940.543	0.0161469
940.621	0.0161502
940.699	0.0160676
940.777	0.0161385
940.855	0.0158218
940.933	0.0159602
941.011	0.0159161
941.090	0.0158730
941.168	0.0158607
941.246	0.0157918
941.324	0.0157162
941.402	0.0156594
941.480	0.0158095
941.558	0.0157073
941.636	0.0156607
941.715	0.0156204
941.793	0.0156776
941.871	0.0156373
941.949	0.0156108
942.027	0.0157133
942.105	0.0159126
942.183	0.0157677
942.261	0.0158762
942.340	0.0159636
942.418	0.0159710
942.496	0.0161220
942.574	0.0160902
942.652	0.0162270
942.730	0.0160406
942.808	0.0161105
942.886	0.0161116
942.965	0.0161325
943.043	0.0160929
943.121	0.0159719
943.199	0.0160567
943.277	0.0161681
943.355	0.0159726
943.433	0.0159095
943.511	0.0159148
943.590	0.0159918
943.668	0.0159880
943.746	0.0159827
943.824	0.0160309
943.902	0.0160816
943.980	0.0159952
944.058	0.0160534
944.136	0.0161134
944.215	0.0161311
944.293	0.0160291
944.371	0.0160384
944.449	0.0160230
944.527	0.0160368
944.605	0.0160344
944.683	0.0160148
944.761	0.0160133
944.840	0.0160954
944.918	0.0160650
944.996	0.0159937
945.074	0.0159454
945.152	0.0159319
945.230	0.0160542
945.308	0.0159727
945.386	0.0158332
945.465	0.0157480
945.543	0.0158457
945.621	0.0158976
945.699	0.0157822
945.777	0.0156996
945.855	0.0158231
945.933	0.0158934
946.011	0.0159015
946.090	0.0157802
946.168	0.0158865
946.246	0.0159673
946.324	0.0161350
946.402	0.0161849
946.480	0.0161401
946.558	0.0162498
946.636	0.0163137
946.715	0.0162759
946.793	0.0165133
946.871	0.0163286
946.949	0.0164845
947.027	0.0163146
947.105	0.0164077
947.183	0.0162777
947.261	0.0164594
947.340	0.0164422
947.418	0.0162954
947.496	0.0162890
947.574	0.0165163
947.652	0.0162564
947.730	0.0162578
947.808	0.0162125
947.886	0.0163631
947.965	0.0161346
948.043	0.0159927
948.121	0.0161406
948.199	0.0162415
948.277	0.0161855
948.355	0.0162400
948.433	0.0161440
948.511	0.0160956
948.590	0.0161395
948.668	0.0160989
948.746	0.0162550
948.824	0.0161329
948.902	0.0162352
948.980	0.0162146
949.058	0.0160714
949.136	0.0159266
949.215	0.0161203
949.293	0.0161092
949.371	0.0161916
949.449	0.0161259
949.527	0.0160280
949.605	0.0161481
949.683	0.0162016
949.761	0.0161580
949.840	0.0163148
949.918	0.0163792
