06/29/2022	23:25:22	Ver.	4.1	UNKNOWN
Optical Delay	629.995835	Delta X		0.078125	Sweeps	1	Scan Rate	0/0
Coordinates	Axis 1	NaN	Axis 2	NaN	Axis 3	NaN	Axis 4	NaN	Axis 5	NaN	Axis 6	0.000000
TX Power	0.000000	RX Power	0.000000

629.996	0.0182859
630.074	0.0172154
630.152	0.0172485
630.230	0.0172350
630.308	0.0174073
630.386	0.0174357
630.465	0.0174401
630.543	0.0175654
630.621	0.0174612
630.699	0.0176481
630.777	0.0175796
630.855	0.0176322
630.933	0.0174478
631.011	0.0172967
631.090	0.0170601
631.168	0.0169471
631.246	0.0168802
631.324	0.0167479
631.402	0.0164818
631.480	0.0166007
631.558	0.0165685
631.636	0.0165164
631.715	0.0166083
631.793	0.0167912
631.871	0.0167427
631.949	0.0168129
632.027	0.0169358
632.105	0.0170514
632.183	0.0172832
632.261	0.0173308
632.340	0.0173208
632.418	0.0173786
632.496	0.0172259
632.574	0.0170153
632.652	0.0166803
632.730	0.0163271
632.808	0.0157922
632.886	0.0153928
632.965	0.0151879
633.043	0.0150713
633.121	0.0150023
633.199	0.0150804
633.277	0.0152769
633.355	0.0154116
633.433	0.0157388
633.511	0.0159133
633.590	0.0162295
633.668	0.0164676
633.746	0.0166294
633.824	0.0168690
633.902	0.0170210
633.980	0.0171773
634.058	0.0172120
634.136	0.0171073
634.215	0.0171362
634.293	0.0171788
634.371	0.0171732
634.449	0.0169889
634.527	0.0170016
634.605	0.0168721
634.683	0.0169420
634.761	0.0168302
634.840	0.0169154
634.918	0.0168856
634.996	0.0167698
635.074	0.0166848
635.152	0.0167794
635.230	0.0169042
635.308	0.0168832
635.386	0.0169769
635.465	0.0172002
635.543	0.0174876
635.621	0.0175630
635.699	0.0176414
635.777	0.0176794
635.855	0.0177950
635.933	0.0179371
636.011	0.0179146
636.090	0.0180415
636.168	0.0181168
636.246	0.0182224
636.324	0.0180987
636.402	0.0180609
636.480	0.0179860
636.558	0.0179699
636.636	0.0179857
636.715	0.0180740
636.793	0.0178162
636.871	0.0176926
636.949	0.0176958
637.027	0.0177682
637.105	0.0176623
637.183	0.0174866
637.261	0.0176093
637.340	0.0176521
637.418	0.0176045
637.496	0.0176846
637.574	0.0177442
637.652	0.0177808
637.730	0.0177993
637.808	0.0179305
637.886	0.0180477
637.965	0.0179836
638.043	0.0180729
638.121	0.0182380
638.199	0.0180904
638.277	0.0179962
638.355	0.0178370
638.433	0.0179118
638.511	0.0177065
638.590	0.0176637
638.668	0.0176722
638.746	0.0174889
638.824	0.0175544
638.902	0.0177100
638.980	0.0177426
639.058	0.0176863
639.136	0.0178040
639.215	0.0178650
639.293	0.0180293
639.371	0.0180412
639.449	0.0181126
639.527	0.0183128
639.605	0.0182356
639.683	0.0182999
639.761	0.0181405
639.840	0.0182399
639.918	0.0182224
639.996	0.0180414
640.074	0.0179868
640.152	0.0179527
640.230	0.0177835
640.308	0.0176959
640.386	0.0176537
640.465	0.0179160
640.543	0.0175851
640.621	0.0178946
640.699	0.0180386
640.777	0.0179273
640.855	0.0179388
640.933	0.0180400
641.011	0.0180512
641.090	0.0179581
641.168	0.0179292
641.246	0.0177042
641.324	0.0175006
641.402	0.0173025
641.480	0.0170776
641.558	0.0168815
641.636	0.0168991
641.715	0.0167862
641.793	0.0167567
641.871	0.0168674
641.949	0.0170084
642.027	0.0169556
642.105	0.0169080
642.183	0.0169736
642.261	0.0170486
642.340	0.0170309
642.418	0.0169574
642.496	0.0168523
642.574	0.0169122
642.652	0.0166618
642.730	0.0167157
642.808	0.0166388
642.886	0.0166650
642.965	0.0165837
643.043	0.0166435
643.121	0.0167707
643.199	0.0166953
643.277	0.0166743
643.355	0.0166687
643.433	0.0166047
643.511	0.0165464
643.590	0.0164534
643.668	0.0163055
643.746	0.0163666
643.824	0.0161975
643.902	0.0163618
643.980	0.0162111
644.058	0.0163942
644.136	0.0163818
644.215	0.0163570
644.293	0.0166180
644.371	0.0165898
644.449	0.0165582
644.527	0.0167569
644.605	0.0169746
644.683	0.0171130
644.761	0.0174178
644.840	0.0173591
644.918	0.0174763
644.996	0.0175867
645.074	0.0175786
645.152	0.0174269
645.230	0.0172478
645.308	0.0174277
645.386	0.0173932
645.465	0.0172905
645.543	0.0173518
645.621	0.0172605
645.699	0.0173948
645.777	0.0174773
645.855	0.0175646
645.933	0.0176561
646.011	0.0176634
646.090	0.0176917
646.168	0.0177145
646.246	0.0176820
646.324	0.0179114
646.402	0.0178630
646.480	0.0179695
646.558	0.0180671
646.636	0.0181063
646.715	0.0180780
646.793	0.0180934
646.871	0.0181484
646.949	0.0179730
647.027	0.0179055
647.105	0.0178890
647.183	0.0178200
647.261	0.0177931
647.340	0.0175833
647.418	0.0175133
647.496	0.0175161
647.574	0.0172249
647.652	0.0174000
647.730	0.0172625
647.808	0.0171728
647.886	0.0171036
647.965	0.0171159
648.043	0.0170620
648.121	0.0170264
648.199	0.0169673
648.277	0.0171039
648.355	0.0170998
648.433	0.0171825
648.511	0.0170414
648.590	0.0171090
648.668	0.0171005
648.746	0.0170361
648.824	0.0171072
648.902	0.0171376
648.980	0.0172496
649.058	0.0171976
649.136	0.0170351
649.215	0.0170296
649.293	0.0168925
649.371	0.0167113
649.449	0.0165426
649.527	0.0164343
649.605	0.0161752
649.683	0.0159917
649.761	0.0159571
649.840	0.0160577
649.918	0.0162514
649.996	0.0163917
650.074	0.0163111
650.152	0.0164883
650.230	0.0166638
650.308	0.0168063
650.386	0.0167536
650.465	0.0168589
650.543	0.0168475
650.621	0.0168242
650.699	0.0167776
650.777	0.0169536
650.855	0.0169836
650.933	0.0168456
651.011	0.0167307
651.090	0.0165340
651.168	0.0165154
651.246	0.0166460
651.324	0.0165728
651.402	0.0165725
651.480	0.0166000
651.558	0.0164757
651.636	0.0165659
651.715	0.0167594
651.793	0.0168400
651.871	0.0169176
651.949	0.0168908
652.027	0.0171429
652.105	0.0171548
652.183	0.0171588
652.261	0.0172088
652.340	0.0172544
652.418	0.0171709
652.496	0.0171779
652.574	0.0174431
652.652	0.0173080
652.730	0.0172671
652.808	0.0174099
652.886	0.0172278
652.965	0.0171961
653.043	0.0171980
653.121	0.0170500
653.199	0.0172149
653.277	0.0172624
653.355	0.0172648
653.433	0.0171992
653.511	0.0172552
653.590	0.0173721
653.668	0.0174343
653.746	0.0174687
653.824	0.0174381
653.902	0.0175935
653.980	0.0176286
654.058	0.0177713
654.136	0.0178430
654.215	0.0178104
654.293	0.0177940
654.371	0.0176923
654.449	0.0177863
654.527	0.0176154
654.605	0.0176488
654.683	0.0176266
654.761	0.0176703
654.840	0.0174842
654.918	0.0173735
654.996	0.0174123
655.074	0.0173790
655.152	0.0172821
655.230	0.0173456
655.308	0.0173810
655.386	0.0174043
655.465	0.0173806
655.543	0.0173470
655.621	0.0173061
655.699	0.0172134
655.777	0.0172990
655.855	0.0172485
655.933	0.0170744
656.011	0.0172771
656.090	0.0172216
656.168	0.0171564
656.246	0.0172396
656.324	0.0172369
656.402	0.0171616
656.480	0.0172313
656.558	0.0173035
656.636	0.0172215
656.715	0.0173382
656.793	0.0172947
656.871	0.0172852
656.949	0.0174509
657.027	0.0174528
657.105	0.0173956
657.183	0.0174530
657.261	0.0173492
657.340	0.0172372
657.418	0.0170557
657.496	0.0171062
657.574	0.0169373
657.652	0.0169218
657.730	0.0169083
657.808	0.0168709
657.886	0.0168774
657.965	0.0168995
658.043	0.0169164
658.121	0.0170750
658.199	0.0170200
658.277	0.0170953
658.355	0.0172684
658.433	0.0171155
658.511	0.0171420
658.590	0.0173205
658.668	0.0174393
658.746	0.0173559
658.824	0.0173312
658.902	0.0175455
658.980	0.0175042
659.058	0.0176292
659.136	0.0176464
659.215	0.0176707
659.293	0.0176776
659.371	0.0176432
659.449	0.0177447
659.527	0.0177883
659.605	0.0176609
659.683	0.0175243
659.761	0.0175515
659.840	0.0174621
659.918	0.0174387
659.996	0.0173772
660.074	0.0173476
660.152	0.0171168
660.230	0.0171959
660.308	0.0172609
660.386	0.0172722
660.465	0.0171500
660.543	0.0171675
660.621	0.0172483
660.699	0.0174353
660.777	0.0173389
660.855	0.0174139
660.933	0.0175237
661.011	0.0176618
661.090	0.0174984
661.168	0.0176551
661.246	0.0176608
661.324	0.0177646
661.402	0.0176633
661.480	0.0175415
661.558	0.0176626
661.636	0.0178089
661.715	0.0176265
661.793	0.0175286
661.871	0.0175745
661.949	0.0174796
662.027	0.0176223
662.105	0.0174612
662.183	0.0174980
662.261	0.0173595
662.340	0.0172528
662.418	0.0173836
662.496	0.0172508
662.574	0.0172552
662.652	0.0173503
662.730	0.0173254
662.808	0.0173488
662.886	0.0174989
662.965	0.0175513
663.043	0.0174991
663.121	0.0175835
663.199	0.0175557
663.277	0.0174859
663.355	0.0174689
663.433	0.0176094
663.511	0.0175515
663.590	0.0176233
663.668	0.0175703
663.746	0.0175169
663.824	0.0176533
663.902	0.0176843
663.980	0.0175909
664.058	0.0177032
664.136	0.0174992
664.215	0.0175351
664.293	0.0175468
664.371	0.0177356
664.449	0.0176369
664.527	0.0177207
664.605	0.0177446
664.683	0.0177442
664.761	0.0176431
664.840	0.0177936
664.918	0.0177245
664.996	0.0175094
665.074	0.0175288
665.152	0.0174050
665.230	0.0173090
665.308	0.0172802
665.386	0.0171754
665.465	0.0170058
665.543	0.0169773
665.621	0.0169170
665.699	0.0169689
665.777	0.0169893
665.855	0.0172359
665.933	0.0172506
666.011	0.0173978
666.090	0.0174706
666.168	0.0174592
666.246	0.0177107
666.324	0.0177268
666.402	0.0176754
666.480	0.0177087
666.558	0.0179162
666.636	0.0178488
666.715	0.0177957
666.793	0.0178387
666.871	0.0179417
666.949	0.0176628
667.027	0.0176890
667.105	0.0177052
667.183	0.0176269
667.261	0.0176424
667.340	0.0176797
667.418	0.0176739
667.496	0.0175278
667.574	0.0173481
667.652	0.0174785
667.730	0.0174865
667.808	0.0173955
667.886	0.0174387
667.965	0.0175214
668.043	0.0174928
668.121	0.0174597
668.199	0.0175013
668.277	0.0174071
668.355	0.0176397
668.433	0.0175294
668.511	0.0175552
668.590	0.0175864
668.668	0.0176772
668.746	0.0174394
668.824	0.0173907
668.902	0.0174147
668.980	0.0174511
669.058	0.0171844
669.136	0.0172695
669.215	0.0172253
669.293	0.0170328
669.371	0.0170545
669.449	0.0171663
669.527	0.0169673
669.605	0.0168144
669.683	0.0168644
669.761	0.0168125
669.840	0.0170071
669.918	0.0169666
669.996	0.0167802
670.074	0.0169486
670.152	0.0169061
670.230	0.0168299
670.308	0.0168089
670.386	0.0167497
670.465	0.0168183
670.543	0.0168139
670.621	0.0165824
670.699	0.0166195
670.777	0.0165276
670.855	0.0164897
670.933	0.0164226
671.011	0.0164133
671.090	0.0163956
671.168	0.0164312
671.246	0.0164986
671.324	0.0163139
671.402	0.0162903
671.480	0.0161325
671.558	0.0162802
671.636	0.0163427
671.715	0.0162661
671.793	0.0164538
671.871	0.0164529
671.949	0.0163718
672.027	0.0166370
672.105	0.0166019
672.183	0.0167413
672.261	0.0168520
672.340	0.0170615
672.418	0.0170924
672.496	0.0172417
672.574	0.0170615
672.652	0.0171098
672.730	0.0171983
672.808	0.0171407
672.886	0.0169494
672.965	0.0169836
673.043	0.0168932
673.121	0.0168616
673.199	0.0169390
673.277	0.0167661
673.355	0.0168595
673.433	0.0169359
673.511	0.0170255
673.590	0.0172768
673.668	0.0173205
673.746	0.0174690
673.824	0.0177222
673.902	0.0178310
673.980	0.0179962
674.058	0.0180299
674.136	0.0181826
674.215	0.0181999
674.293	0.0181075
674.371	0.0182679
674.449	0.0181885
674.527	0.0181380
674.605	0.0180534
674.683	0.0180843
674.761	0.0181616
674.840	0.0181164
674.918	0.0181081
674.996	0.0180726
675.074	0.0178397
675.152	0.0180801
675.230	0.0182020
675.308	0.0180898
675.386	0.0179996
675.465	0.0179852
675.543	0.0180430
675.621	0.0180275
675.699	0.0180044
675.777	0.0179844
675.855	0.0178519
675.933	0.0178444
676.011	0.0178389
676.090	0.0177406
676.168	0.0176506
676.246	0.0176276
676.324	0.0176814
676.402	0.0176253
676.480	0.0175872
676.558	0.0176656
676.636	0.0176334
676.715	0.0174067
676.793	0.0176160
676.871	0.0174675
676.949	0.0175722
677.027	0.0174900
677.105	0.0175739
677.183	0.0175195
677.261	0.0176130
677.340	0.0176943
677.418	0.0175945
677.496	0.0176847
677.574	0.0176882
677.652	0.0176691
677.730	0.0175861
677.808	0.0175785
677.886	0.0176112
677.965	0.0177727
678.043	0.0177989
678.121	0.0177468
678.199	0.0177237
678.277	0.0177326
678.355	0.0176917
678.433	0.0176220
678.511	0.0176104
678.590	0.0176827
678.668	0.0177812
678.746	0.0177515
678.824	0.0176928
678.902	0.0177653
678.980	0.0176910
679.058	0.0177066
679.136	0.0177804
679.215	0.0176991
679.293	0.0176667
679.371	0.0177010
679.449	0.0176826
679.527	0.0175361
679.605	0.0176331
679.683	0.0175443
679.761	0.0175739
679.840	0.0174757
679.918	0.0174789
679.996	0.0175443
680.074	0.0172962
680.152	0.0173911
680.230	0.0173930
680.308	0.0172697
680.386	0.0174144
680.465	0.0172747
680.543	0.0172227
680.621	0.0171887
680.699	0.0171803
680.777	0.0169781
680.855	0.0169699
680.933	0.0169270
681.011	0.0168002
681.090	0.0168414
681.168	0.0168213
681.246	0.0167072
681.324	0.0166616
681.402	0.0166615
681.480	0.0168607
681.558	0.0166248
681.636	0.0167126
681.715	0.0167976
681.793	0.0167403
681.871	0.0166364
681.949	0.0166411
682.027	0.0166695
682.105	0.0166103
682.183	0.0165256
682.261	0.0166834
682.340	0.0166712
682.418	0.0165527
682.496	0.0166440
682.574	0.0165078
682.652	0.0165617
682.730	0.0165557
682.808	0.0165009
682.886	0.0167002
682.965	0.0166641
683.043	0.0166327
683.121	0.0166077
683.199	0.0166380
683.277	0.0167782
683.355	0.0167006
683.433	0.0167022
683.511	0.0168234
683.590	0.0168302
683.668	0.0169870
683.746	0.0169543
683.824	0.0169662
683.902	0.0170490
683.980	0.0170534
684.058	0.0170850
684.136	0.0172847
684.215	0.0171922
684.293	0.0172118
684.371	0.0173566
684.449	0.0173695
684.527	0.0174377
684.605	0.0174389
684.683	0.0175743
684.761	0.0174622
684.840	0.0175760
684.918	0.0172930
684.996	0.0174046
685.074	0.0174978
685.152	0.0174810
685.230	0.0174075
685.308	0.0175504
685.386	0.0175260
685.465	0.0175491
685.543	0.0176130
685.621	0.0177206
685.699	0.0176265
685.777	0.0177245
685.855	0.0177548
685.933	0.0178688
686.011	0.0178178
686.090	0.0178099
686.168	0.0180244
686.246	0.0179913
686.324	0.0179115
686.402	0.0180578
686.480	0.0180770
686.558	0.0180830
686.636	0.0180341
686.715	0.0179765
686.793	0.0178574
686.871	0.0179508
686.949	0.0177490
687.027	0.0177374
687.105	0.0176633
687.183	0.0176098
687.261	0.0176160
687.340	0.0176270
687.418	0.0175462
687.496	0.0174546
687.574	0.0172945
687.652	0.0173478
687.730	0.0173064
687.808	0.0171729
687.886	0.0172837
687.965	0.0171910
688.043	0.0171517
688.121	0.0170356
688.199	0.0169444
688.277	0.0169969
688.355	0.0170393
688.433	0.0169983
688.511	0.0169415
688.590	0.0167735
688.668	0.0168179
688.746	0.0168534
688.824	0.0169061
688.902	0.0166540
688.980	0.0167353
689.058	0.0167996
689.136	0.0166926
689.215	0.0167120
689.293	0.0169097
689.371	0.0167944
689.449	0.0167554
689.527	0.0168020
689.605	0.0168375
689.683	0.0168775
689.761	0.0169406
689.840	0.0167628
689.918	0.0168954
689.996	0.0169167
690.074	0.0169211
690.152	0.0170074
690.230	0.0169712
690.308	0.0171175
690.386	0.0172058
690.465	0.0172775
690.543	0.0173363
690.621	0.0173824
690.699	0.0173737
690.777	0.0175359
690.855	0.0175198
690.933	0.0174758
691.011	0.0175806
691.090	0.0175886
691.168	0.0175482
691.246	0.0176274
691.324	0.0176980
691.402	0.0176084
691.480	0.0176591
691.558	0.0176646
691.636	0.0175027
691.715	0.0175053
691.793	0.0174196
691.871	0.0175101
691.949	0.0172985
692.027	0.0173373
692.105	0.0174281
692.183	0.0173698
692.261	0.0173627
692.340	0.0173688
692.418	0.0173763
692.496	0.0174693
692.574	0.0175152
692.652	0.0175249
692.730	0.0174252
692.808	0.0174382
692.886	0.0175340
692.965	0.0175922
693.043	0.0175909
693.121	0.0175545
693.199	0.0173631
693.277	0.0177043
693.355	0.0176722
693.433	0.0175654
693.511	0.0175910
693.590	0.0174627
693.668	0.0175191
693.746	0.0174003
693.824	0.0173061
693.902	0.0172274
693.980	0.0170860
694.058	0.0168924
694.136	0.0167550
694.215	0.0166763
694.293	0.0166132
694.371	0.0165041
694.449	0.0163316
694.527	0.0164484
694.605	0.0163184
694.683	0.0163473
694.761	0.0164020
694.840	0.0164653
694.918	0.0163489
694.996	0.0163662
695.074	0.0165010
695.152	0.0166047
695.230	0.0165804
695.308	0.0165475
695.386	0.0165343
695.465	0.0165900
695.543	0.0166664
695.621	0.0165495
695.699	0.0166501
695.777	0.0165148
695.855	0.0166085
695.933	0.0165852
696.011	0.0163618
696.090	0.0164193
696.168	0.0165186
696.246	0.0163947
696.324	0.0164384
696.402	0.0166443
696.480	0.0168273
696.558	0.0167311
696.636	0.0168543
696.715	0.0169357
696.793	0.0170046
696.871	0.0170619
696.949	0.0171118
697.027	0.0171997
697.105	0.0172311
697.183	0.0173376
697.261	0.0173251
697.340	0.0173364
697.418	0.0172720
697.496	0.0172579
697.574	0.0173704
697.652	0.0172463
697.730	0.0172993
697.808	0.0171643
697.886	0.0172080
697.965	0.0172534
698.043	0.0172636
698.121	0.0173349
698.199	0.0173440
698.277	0.0173737
698.355	0.0172409
698.433	0.0173405
698.511	0.0173391
698.590	0.0175309
698.668	0.0174885
698.746	0.0176928
698.824	0.0176465
698.902	0.0177294
698.980	0.0177188
699.058	0.0176579
699.136	0.0178749
699.215	0.0177225
699.293	0.0178794
699.371	0.0178579
699.449	0.0178247
699.527	0.0177809
699.605	0.0178207
699.683	0.0178471
699.761	0.0178667
699.840	0.0179356
699.918	0.0179597
699.996	0.0178464
700.074	0.0178188
700.152	0.0179224
700.230	0.0177766
700.308	0.0179787
700.386	0.0179160
700.465	0.0178482
700.543	0.0179285
700.621	0.0179255
700.699	0.0179739
700.777	0.0179898
700.855	0.0179287
700.933	0.0180387
701.011	0.0179674
701.090	0.0179202
701.168	0.0180180
701.246	0.0181005
701.324	0.0180856
701.402	0.0180878
701.480	0.0182448
701.558	0.0182043
701.636	0.0182195
701.715	0.0181549
701.793	0.0182442
701.871	0.0182361
701.949	0.0182143
702.027	0.0179909
702.105	0.0180788
702.183	0.0181979
702.261	0.0181472
702.340	0.0179468
702.418	0.0179492
702.496	0.0180107
702.574	0.0178415
702.652	0.0179954
702.730	0.0178255
702.808	0.0177235
702.886	0.0176791
702.965	0.0177231
703.043	0.0176407
703.121	0.0176658
703.199	0.0177418
703.277	0.0177002
703.355	0.0177006
703.433	0.0175456
703.511	0.0174858
703.590	0.0177434
703.668	0.0176814
703.746	0.0174369
703.824	0.0174839
703.902	0.0176149
703.980	0.0176231
704.058	0.0176254
704.136	0.0174268
704.215	0.0174315
704.293	0.0174077
704.371	0.0172575
704.449	0.0171900
704.527	0.0171002
704.605	0.0171434
704.683	0.0170393
704.761	0.0169218
704.840	0.0167179
704.918	0.0167729
704.996	0.0166894
705.074	0.0166091
705.152	0.0163969
705.230	0.0164391
705.308	0.0164166
705.386	0.0163600
705.465	0.0164742
705.543	0.0162468
705.621	0.0162511
705.699	0.0163276
705.777	0.0161134
705.855	0.0161551
705.933	0.0162965
706.011	0.0161514
706.090	0.0161841
706.168	0.0160262
706.246	0.0162142
706.324	0.0160853
706.402	0.0160835
706.480	0.0160324
706.558	0.0160869
706.636	0.0160641
706.715	0.0161938
706.793	0.0162641
706.871	0.0161620
706.949	0.0163268
707.027	0.0162046
707.105	0.0161953
707.183	0.0163634
707.261	0.0164674
707.340	0.0164603
707.418	0.0164611
707.496	0.0166690
707.574	0.0165569
707.652	0.0166676
707.730	0.0167049
707.808	0.0166753
707.886	0.0166106
707.965	0.0168089
708.043	0.0167068
708.121	0.0168079
708.199	0.0169467
708.277	0.0167944
708.355	0.0169691
708.433	0.0168624
708.511	0.0169077
708.590	0.0169700
708.668	0.0170209
708.746	0.0170547
708.824	0.0171102
708.902	0.0170822
708.980	0.0172301
709.058	0.0171873
709.136	0.0172626
709.215	0.0174698
709.293	0.0173639
709.371	0.0173595
709.449	0.0175445
709.527	0.0173885
709.605	0.0172405
709.683	0.0172954
709.761	0.0173956
709.840	0.0172277
709.918	0.0171668
709.996	0.0172519
710.074	0.0171614
710.152	0.0169370
710.230	0.0171285
710.308	0.0171910
710.386	0.0172324
710.465	0.0171673
710.543	0.0171618
710.621	0.0172011
710.699	0.0173758
710.777	0.0173220
710.855	0.0173073
710.933	0.0174552
711.011	0.0176057
711.090	0.0174271
711.168	0.0174001
711.246	0.0176559
711.324	0.0177551
711.402	0.0175941
711.480	0.0176210
711.558	0.0177636
711.636	0.0176105
711.715	0.0174668
711.793	0.0176471
711.871	0.0175562
711.949	0.0174565
712.027	0.0173573
712.105	0.0174313
712.183	0.0173236
712.261	0.0173399
712.340	0.0172743
712.418	0.0171519
712.496	0.0171128
712.574	0.0171842
712.652	0.0171847
712.730	0.0170062
712.808	0.0168982
712.886	0.0169154
712.965	0.0169755
713.043	0.0170736
713.121	0.0170335
713.199	0.0173343
713.277	0.0171191
713.355	0.0170784
713.433	0.0172632
713.511	0.0171695
713.590	0.0172048
713.668	0.0172919
713.746	0.0172959
713.824	0.0173486
713.902	0.0173566
713.980	0.0173415
714.058	0.0173202
714.136	0.0172077
714.215	0.0172473
714.293	0.0172606
714.371	0.0171415
714.449	0.0171326
714.527	0.0171290
714.605	0.0173174
714.683	0.0172924
714.761	0.0173335
714.840	0.0173196
714.918	0.0174425
714.996	0.0174177
715.074	0.0174823
715.152	0.0174494
715.230	0.0174506
715.308	0.0175265
715.386	0.0174963
715.465	0.0174679
715.543	0.0175056
715.621	0.0175142
715.699	0.0175200
715.777	0.0175555
715.855	0.0175019
715.933	0.0173563
716.011	0.0174186
716.090	0.0175223
716.168	0.0173683
716.246	0.0172334
716.324	0.0173199
716.402	0.0171842
716.480	0.0171421
716.558	0.0171838
716.636	0.0170892
716.715	0.0170750
716.793	0.0170483
716.871	0.0169810
716.949	0.0170039
717.027	0.0169262
717.105	0.0167709
717.183	0.0167712
717.261	0.0166637
717.340	0.0167509
717.418	0.0168523
717.496	0.0166722
717.574	0.0168751
717.652	0.0169522
717.730	0.0168979
717.808	0.0168951
717.886	0.0172197
717.965	0.0173327
718.043	0.0173627
718.121	0.0174917
718.199	0.0174161
718.277	0.0176374
718.355	0.0177219
718.433	0.0177216
718.511	0.0178551
718.590	0.0178396
718.668	0.0178316
718.746	0.0178431
718.824	0.0175721
718.902	0.0175347
718.980	0.0174214
719.058	0.0173751
719.136	0.0171048
719.215	0.0170754
719.293	0.0171260
719.371	0.0168680
719.449	0.0167969
719.527	0.0167994
719.605	0.0166778
719.683	0.0166076
719.761	0.0165917
719.840	0.0165089
719.918	0.0166674
719.996	0.0167239
720.074	0.0166444
720.152	0.0166802
720.230	0.0167372
720.308	0.0167385
720.386	0.0167185
720.465	0.0168456
720.543	0.0167006
720.621	0.0168163
720.699	0.0167965
720.777	0.0168476
720.855	0.0168224
720.933	0.0169007
721.011	0.0170498
721.090	0.0171376
721.168	0.0172163
721.246	0.0173205
721.324	0.0173359
721.402	0.0175190
721.480	0.0173712
721.558	0.0175487
721.636	0.0175413
721.715	0.0175031
721.793	0.0176711
721.871	0.0177673
721.949	0.0176255
722.027	0.0174958
722.105	0.0176274
722.183	0.0175580
722.261	0.0176030
722.340	0.0174540
722.418	0.0173814
722.496	0.0171482
722.574	0.0171992
722.652	0.0171921
722.730	0.0170191
722.808	0.0169724
722.886	0.0170036
722.965	0.0169550
723.043	0.0169115
723.121	0.0168773
723.199	0.0168108
723.277	0.0167200
723.355	0.0168066
723.433	0.0167810
723.511	0.0168114
723.590	0.0167155
723.668	0.0168604
723.746	0.0167483
723.824	0.0167250
723.902	0.0169000
723.980	0.0169601
724.058	0.0169867
724.136	0.0170148
724.215	0.0171960
724.293	0.0174312
724.371	0.0173049
724.449	0.0176196
724.527	0.0176151
724.605	0.0176448
724.683	0.0178667
724.761	0.0178113
724.840	0.0177625
724.918	0.0180021
724.996	0.0180302
725.074	0.0180187
725.152	0.0179885
725.230	0.0180795
725.308	0.0181013
725.386	0.0180330
725.465	0.0181789
725.543	0.0180926
725.621	0.0181155
725.699	0.0181378
725.777	0.0181377
725.855	0.0180255
725.933	0.0181064
726.011	0.0180860
726.090	0.0181321
726.168	0.0181855
726.246	0.0181776
726.324	0.0180753
726.402	0.0180930
726.480	0.0178625
726.558	0.0180531
726.636	0.0180581
726.715	0.0179016
726.793	0.0178678
726.871	0.0181118
726.949	0.0178228
727.027	0.0178517
727.105	0.0176133
727.183	0.0175613
727.261	0.0174892
727.340	0.0174577
727.418	0.0172045
727.496	0.0171602
727.574	0.0172665
727.652	0.0172078
727.730	0.0170373
727.808	0.0170299
727.886	0.0169648
727.965	0.0168755
728.043	0.0167549
728.121	0.0167960
728.199	0.0166562
728.277	0.0166573
728.355	0.0165279
728.433	0.0165035
728.511	0.0164993
728.590	0.0165397
728.668	0.0165059
728.746	0.0164809
728.824	0.0164334
728.902	0.0163930
728.980	0.0164277
729.058	0.0164560
729.136	0.0163839
729.215	0.0164893
729.293	0.0164088
729.371	0.0165084
729.449	0.0166902
729.527	0.0168621
729.605	0.0168066
729.683	0.0168311
729.761	0.0168923
729.840	0.0169913
729.918	0.0169458
729.996	0.0170071
730.074	0.0169437
730.152	0.0169942
730.230	0.0169913
730.308	0.0169466
730.386	0.0170595
730.465	0.0169612
730.543	0.0169821
730.621	0.0168755
730.699	0.0168153
730.777	0.0167920
730.855	0.0167371
730.933	0.0168419
731.011	0.0167110
731.090	0.0168251
731.168	0.0167558
731.246	0.0166957
731.324	0.0167418
731.402	0.0167874
731.480	0.0168687
731.558	0.0167238
731.636	0.0168336
731.715	0.0167492
731.793	0.0168013
731.871	0.0169118
731.949	0.0169758
732.027	0.0169252
732.105	0.0170255
732.183	0.0172137
732.261	0.0171579
732.340	0.0172523
732.418	0.0174632
732.496	0.0174597
732.574	0.0175339
732.652	0.0175600
732.730	0.0176470
732.808	0.0177870
732.886	0.0179072
732.965	0.0177711
733.043	0.0177333
733.121	0.0179417
733.199	0.0177467
733.277	0.0175983
733.355	0.0177238
733.433	0.0176774
733.511	0.0177092
733.590	0.0176128
733.668	0.0176266
733.746	0.0176725
733.824	0.0175548
733.902	0.0175787
733.980	0.0175880
734.058	0.0177048
734.136	0.0177522
734.215	0.0177089
734.293	0.0176643
734.371	0.0176063
734.449	0.0175983
734.527	0.0175160
734.605	0.0176662
734.683	0.0176978
734.761	0.0175228
734.840	0.0175420
734.918	0.0174976
734.996	0.0174055
735.074	0.0172958
735.152	0.0171258
735.230	0.0172304
735.308	0.0172795
735.386	0.0171500
735.465	0.0170593
735.543	0.0170608
735.621	0.0170074
735.699	0.0168641
735.777	0.0169246
735.855	0.0170583
735.933	0.0170603
736.011	0.0170684
736.090	0.0169518
736.168	0.0170097
736.246	0.0172150
736.324	0.0173418
736.402	0.0173005
736.480	0.0173435
736.558	0.0174236
736.636	0.0174402
736.715	0.0174771
736.793	0.0174123
736.871	0.0175179
736.949	0.0175916
737.027	0.0175332
737.105	0.0174477
737.183	0.0174242
737.261	0.0175259
737.340	0.0176531
737.418	0.0174063
737.496	0.0175126
737.574	0.0176350
737.652	0.0175858
737.730	0.0174412
737.808	0.0173993
737.886	0.0175731
737.965	0.0175145
738.043	0.0175202
738.121	0.0175910
738.199	0.0177905
738.277	0.0176569
738.355	0.0176338
738.433	0.0175648
738.511	0.0178621
738.590	0.0176457
738.668	0.0175242
738.746	0.0176942
738.824	0.0176241
738.902	0.0176189
738.980	0.0175987
739.058	0.0176920
739.136	0.0175719
739.215	0.0176042
739.293	0.0175853
739.371	0.0175022
739.449	0.0176012
739.527	0.0175002
739.605	0.0175340
739.683	0.0174954
739.761	0.0174680
739.840	0.0176083
739.918	0.0174860
739.996	0.0174755
740.074	0.0175165
740.152	0.0175693
740.230	0.0174920
740.308	0.0174767
740.386	0.0175597
740.465	0.0176470
740.543	0.0174619
740.621	0.0174895
740.699	0.0177374
740.777	0.0176902
740.855	0.0176781
740.933	0.0177078
741.011	0.0175906
741.090	0.0175476
741.168	0.0174694
741.246	0.0175474
741.324	0.0175062
741.402	0.0174303
741.480	0.0173671
741.558	0.0174048
741.636	0.0174846
741.715	0.0175433
741.793	0.0174608
741.871	0.0175492
741.949	0.0175155
742.027	0.0174837
742.105	0.0174301
742.183	0.0174004
742.261	0.0173725
742.340	0.0174834
742.418	0.0174504
742.496	0.0172778
742.574	0.0174278
742.652	0.0175378
742.730	0.0172633
742.808	0.0174015
742.886	0.0173099
742.965	0.0175401
743.043	0.0174737
743.121	0.0172556
743.199	0.0173429
743.277	0.0174634
743.355	0.0174551
743.433	0.0174123
743.511	0.0174217
743.590	0.0173305
743.668	0.0174777
743.746	0.0175699
743.824	0.0174951
743.902	0.0175828
743.980	0.0175071
744.058	0.0173511
744.136	0.0173965
744.215	0.0174326
744.293	0.0175277
744.371	0.0174467
744.449	0.0174435
744.527	0.0173501
744.605	0.0173918
744.683	0.0172811
744.761	0.0172202
744.840	0.0174533
744.918	0.0172449
744.996	0.0172101
745.074	0.0172664
745.152	0.0172253
745.230	0.0171843
745.308	0.0171844
745.386	0.0171160
745.465	0.0171818
745.543	0.0171008
745.621	0.0171951
745.699	0.0171433
745.777	0.0171828
745.855	0.0172759
745.933	0.0171139
746.011	0.0170612
746.090	0.0172998
746.168	0.0172736
746.246	0.0173220
746.324	0.0174122
746.402	0.0173669
746.480	0.0175550
746.558	0.0174539
746.636	0.0176273
746.715	0.0175807
746.793	0.0176714
746.871	0.0176907
746.949	0.0177550
747.027	0.0176964
747.105	0.0177142
747.183	0.0176790
747.261	0.0178590
747.340	0.0177045
747.418	0.0174831
747.496	0.0176755
747.574	0.0176219
747.652	0.0175810
747.730	0.0175676
747.808	0.0175043
747.886	0.0174657
747.965	0.0175153
748.043	0.0174010
748.121	0.0174451
748.199	0.0172957
748.277	0.0172720
748.355	0.0172387
748.433	0.0173034
748.511	0.0173089
748.590	0.0173170
748.668	0.0173090
748.746	0.0172823
748.824	0.0172428
748.902	0.0172405
748.980	0.0172405
749.058	0.0172572
749.136	0.0173194
749.215	0.0173333
749.293	0.0173566
749.371	0.0173357
749.449	0.0173766
749.527	0.0173315
749.605	0.0174357
749.683	0.0175117
749.761	0.0176579
749.840	0.0176520
749.918	0.0175916
749.996	0.0177435
750.074	0.0178757
750.152	0.0179023
750.230	0.0180596
750.308	0.0179124
750.386	0.0177692
750.465	0.0179733
750.543	0.0181738
750.621	0.0180358
750.699	0.0178571
750.777	0.0180588
750.855	0.0180339
750.933	0.0180032
751.011	0.0180182
751.090	0.0179730
751.168	0.0180020
751.246	0.0178442
751.324	0.0179330
751.402	0.0179153
751.480	0.0178490
751.558	0.0176859
751.636	0.0177785
751.715	0.0177490
751.793	0.0176824
751.871	0.0175600
751.949	0.0176575
752.027	0.0175896
752.105	0.0176063
752.183	0.0175368
752.261	0.0174609
752.340	0.0174476
752.418	0.0174686
752.496	0.0175175
752.574	0.0174052
752.652	0.0173684
752.730	0.0173762
752.808	0.0173770
752.886	0.0173244
752.965	0.0173264
753.043	0.0171706
753.121	0.0172326
753.199	0.0172724
753.277	0.0171359
753.355	0.0170869
753.433	0.0171487
753.511	0.0170984
753.590	0.0168157
753.668	0.0169179
753.746	0.0167509
753.824	0.0167857
753.902	0.0166693
753.980	0.0167382
754.058	0.0168730
754.136	0.0167139
754.215	0.0166256
754.293	0.0166842
754.371	0.0167677
754.449	0.0167766
754.527	0.0166942
754.605	0.0168889
754.683	0.0170100
754.761	0.0168532
754.840	0.0168890
754.918	0.0168787
754.996	0.0170061
755.074	0.0171236
755.152	0.0168456
755.230	0.0169559
755.308	0.0170015
755.386	0.0168331
755.465	0.0169235
755.543	0.0168940
755.621	0.0168254
755.699	0.0168839
755.777	0.0167706
755.855	0.0169255
755.933	0.0169524
756.011	0.0168509
756.090	0.0168575
756.168	0.0169173
756.246	0.0169698
756.324	0.0169427
756.402	0.0169682
756.480	0.0170418
756.558	0.0168387
756.636	0.0169937
756.715	0.0170541
756.793	0.0168256
756.871	0.0168327
756.949	0.0169011
757.027	0.0169531
757.105	0.0167921
757.183	0.0167958
757.261	0.0168537
757.340	0.0168699
757.418	0.0168021
757.496	0.0167731
757.574	0.0166579
757.652	0.0167104
757.730	0.0167557
757.808	0.0166264
757.886	0.0167252
757.965	0.0168748
758.043	0.0168752
758.121	0.0167860
758.199	0.0169088
758.277	0.0168636
758.355	0.0168710
758.433	0.0169722
758.511	0.0170488
758.590	0.0171043
758.668	0.0171396
758.746	0.0172612
758.824	0.0171079
758.902	0.0171310
758.980	0.0171511
759.058	0.0171217
759.136	0.0170587
759.215	0.0169724
759.293	0.0170149
759.371	0.0169672
759.449	0.0171651
759.527	0.0169122
759.605	0.0170794
759.683	0.0170354
759.761	0.0169959
759.840	0.0172848
759.918	0.0172069
759.996	0.0173006
760.074	0.0173939
760.152	0.0173841
760.230	0.0174475
760.308	0.0175375
760.386	0.0175622
760.465	0.0176698
760.543	0.0177450
760.621	0.0179195
760.699	0.0179106
760.777	0.0179298
760.855	0.0178316
760.933	0.0177953
761.011	0.0178677
761.090	0.0178335
761.168	0.0179811
761.246	0.0179085
761.324	0.0178531
761.402	0.0177686
761.480	0.0177860
761.558	0.0177656
761.636	0.0178425
761.715	0.0176088
761.793	0.0178301
761.871	0.0178548
761.949	0.0180199
762.027	0.0179613
762.105	0.0180811
762.183	0.0181077
762.261	0.0181232
762.340	0.0182339
762.418	0.0182771
762.496	0.0182505
762.574	0.0182188
762.652	0.0183520
762.730	0.0184047
762.808	0.0183681
762.886	0.0180581
762.965	0.0179966
763.043	0.0180595
763.121	0.0180457
763.199	0.0179429
763.277	0.0178770
763.355	0.0181054
763.433	0.0177082
763.511	0.0176881
763.590	0.0177475
763.668	0.0176776
763.746	0.0174987
763.824	0.0175683
763.902	0.0175725
763.980	0.0177033
764.058	0.0176263
764.136	0.0173666
764.215	0.0175418
764.293	0.0174171
764.371	0.0174800
764.449	0.0174767
764.527	0.0174553
764.605	0.0176243
764.683	0.0176226
764.761	0.0176006
764.840	0.0174820
764.918	0.0176783
764.996	0.0174319
765.074	0.0174932
765.152	0.0174150
765.230	0.0174988
765.308	0.0174120
765.386	0.0172617
765.465	0.0173059
765.543	0.0171861
765.621	0.0170281
765.699	0.0169982
765.777	0.0169000
765.855	0.0167926
765.933	0.0168382
766.011	0.0168059
766.090	0.0168816
766.168	0.0167079
766.246	0.0168270
766.324	0.0166788
766.402	0.0170971
766.480	0.0168999
766.558	0.0170210
766.636	0.0169917
766.715	0.0170456
766.793	0.0173210
766.871	0.0175725
766.949	0.0175810
767.027	0.0176041
767.105	0.0177846
767.183	0.0179597
767.261	0.0180137
767.340	0.0179308
767.418	0.0179941
767.496	0.0180796
767.574	0.0179753
767.652	0.0179776
767.730	0.0179284
767.808	0.0178275
767.886	0.0177210
767.965	0.0177052
768.043	0.0175262
768.121	0.0176173
768.199	0.0174120
768.277	0.0172111
768.355	0.0173100
768.433	0.0170507
768.511	0.0171336
768.590	0.0171947
768.668	0.0171022
768.746	0.0172243
768.824	0.0174183
768.902	0.0174905
768.980	0.0174148
769.058	0.0174403
769.136	0.0174890
769.215	0.0174179
769.293	0.0173756
769.371	0.0174664
769.449	0.0175697
769.527	0.0173696
769.605	0.0173586
769.683	0.0172829
769.761	0.0172032
769.840	0.0171513
769.918	0.0171927
769.996	0.0170600
770.074	0.0170712
770.152	0.0169831
770.230	0.0168268
770.308	0.0167442
770.386	0.0166960
770.465	0.0166315
770.543	0.0168033
770.621	0.0167371
770.699	0.0166680
770.777	0.0167783
770.855	0.0167580
770.933	0.0167550
771.011	0.0167176
771.090	0.0168153
771.168	0.0169972
771.246	0.0169864
771.324	0.0171026
771.402	0.0171974
771.480	0.0171289
771.558	0.0171822
771.636	0.0173729
771.715	0.0174252
771.793	0.0174946
771.871	0.0174857
771.949	0.0175133
772.027	0.0175019
772.105	0.0174998
772.183	0.0176049
772.261	0.0177418
772.340	0.0177073
772.418	0.0178569
772.496	0.0178542
772.574	0.0178220
772.652	0.0179234
772.730	0.0178843
772.808	0.0179566
772.886	0.0178383
772.965	0.0178443
773.043	0.0178962
773.121	0.0178845
773.199	0.0178858
773.277	0.0178166
773.355	0.0177640
773.433	0.0177930
773.511	0.0176146
773.590	0.0173827
773.668	0.0174999
773.746	0.0174240
773.824	0.0174137
773.902	0.0172751
773.980	0.0172693
774.058	0.0171397
774.136	0.0171193
774.215	0.0171001
774.293	0.0169292
774.371	0.0168701
774.449	0.0169975
774.527	0.0169572
774.605	0.0168487
774.683	0.0167049
774.761	0.0168643
774.840	0.0168704
774.918	0.0168765
774.996	0.0166640
775.074	0.0169122
775.152	0.0169093
775.230	0.0168951
775.308	0.0167690
775.386	0.0167944
775.465	0.0170619
775.543	0.0169675
775.621	0.0169936
775.699	0.0171204
775.777	0.0170304
775.855	0.0171198
775.933	0.0171664
776.011	0.0172472
776.090	0.0172105
776.168	0.0172845
776.246	0.0173156
776.324	0.0173034
776.402	0.0172541
776.480	0.0173098
776.558	0.0172434
776.636	0.0172228
776.715	0.0173203
776.793	0.0172682
776.871	0.0172771
776.949	0.0173138
777.027	0.0173993
777.105	0.0172820
777.183	0.0172044
777.261	0.0172303
777.340	0.0172719
777.418	0.0172063
777.496	0.0172936
777.574	0.0171920
777.652	0.0172541
777.730	0.0174423
777.808	0.0173349
777.886	0.0173859
777.965	0.0174181
778.043	0.0173433
778.121	0.0172896
778.199	0.0172865
778.277	0.0174879
778.355	0.0174030
778.433	0.0174014
778.511	0.0174284
778.590	0.0174149
778.668	0.0174048
778.746	0.0174806
778.824	0.0174293
778.902	0.0174445
778.980	0.0173891
779.058	0.0171475
779.136	0.0172858
779.215	0.0171471
779.293	0.0172421
779.371	0.0171277
779.449	0.0171220
779.527	0.0170001
779.605	0.0169695
779.683	0.0170662
779.761	0.0171310
779.840	0.0169824
779.918	0.0170224
779.996	0.0170601
780.074	0.0171098
780.152	0.0170617
780.230	0.0170662
780.308	0.0171913
780.386	0.0171709
780.465	0.0169808
780.543	0.0171178
780.621	0.0173029
780.699	0.0172154
780.777	0.0172034
780.855	0.0172390
780.933	0.0172923
781.011	0.0171439
781.090	0.0170928
781.168	0.0169919
781.246	0.0169583
781.324	0.0170143
781.402	0.0169255
781.480	0.0168970
781.558	0.0168070
781.636	0.0166461
781.715	0.0167352
781.793	0.0167066
781.871	0.0167517
781.949	0.0165938
782.027	0.0165771
782.105	0.0164829
782.183	0.0165466
782.261	0.0166475
782.340	0.0165398
782.418	0.0166951
782.496	0.0168166
782.574	0.0167803
782.652	0.0168848
782.730	0.0169518
782.808	0.0170598
782.886	0.0169585
782.965	0.0169910
783.043	0.0170625
783.121	0.0171797
783.199	0.0172510
783.277	0.0173042
783.355	0.0174171
783.433	0.0174458
783.511	0.0172791
783.590	0.0172832
783.668	0.0173260
783.746	0.0174277
783.824	0.0173915
783.902	0.0172941
783.980	0.0174420
784.058	0.0174326
784.136	0.0174341
784.215	0.0174132
784.293	0.0172697
784.371	0.0171787
784.449	0.0172928
784.527	0.0171598
784.605	0.0172384
784.683	0.0171051
784.761	0.0171652
784.840	0.0171074
784.918	0.0170402
784.996	0.0169135
785.074	0.0170171
785.152	0.0169385
785.230	0.0169686
785.308	0.0169369
785.386	0.0170560
785.465	0.0170576
785.543	0.0170699
785.621	0.0170370
785.699	0.0170982
785.777	0.0170088
785.855	0.0169756
785.933	0.0168798
786.011	0.0169728
786.090	0.0169164
786.168	0.0169174
786.246	0.0168342
786.324	0.0168463
786.402	0.0168412
786.480	0.0167168
786.558	0.0167898
786.636	0.0168098
786.715	0.0168729
786.793	0.0169097
786.871	0.0168186
786.949	0.0167888
787.027	0.0168661
787.105	0.0169022
787.183	0.0167506
787.261	0.0169145
787.340	0.0169547
787.418	0.0168679
787.496	0.0169602
787.574	0.0168163
787.652	0.0168076
787.730	0.0168861
787.808	0.0168436
787.886	0.0168967
787.965	0.0170497
788.043	0.0170049
788.121	0.0170894
788.199	0.0172589
788.277	0.0172314
788.355	0.0176673
788.433	0.0175824
788.511	0.0177869
788.590	0.0178654
788.668	0.0178107
788.746	0.0178482
788.824	0.0179309
788.902	0.0180833
788.980	0.0180042
789.058	0.0180602
789.136	0.0179919
789.215	0.0179106
789.293	0.0179471
789.371	0.0179099
789.449	0.0178632
789.527	0.0178410
789.605	0.0179235
789.683	0.0179165
789.761	0.0177498
789.840	0.0176681
789.918	0.0175117
789.996	0.0175208
790.074	0.0176166
790.152	0.0175105
790.230	0.0176914
790.308	0.0176250
790.386	0.0175465
790.465	0.0176499
790.543	0.0175047
790.621	0.0177265
790.699	0.0175729
790.777	0.0175899
790.855	0.0174838
790.933	0.0175110
791.011	0.0172256
791.090	0.0170081
791.168	0.0166087
791.246	0.0165931
791.324	0.0162988
791.402	0.0162129
791.480	0.0160416
791.558	0.0160621
791.636	0.0161430
791.715	0.0162077
791.793	0.0163131
791.871	0.0163468
791.949	0.0165267
792.027	0.0168726
792.105	0.0170263
792.183	0.0169756
792.261	0.0171912
792.340	0.0173505
792.418	0.0176341
792.496	0.0176705
792.574	0.0178351
792.652	0.0181554
792.730	0.0180987
792.808	0.0183132
792.886	0.0184863
792.965	0.0184174
793.043	0.0185327
793.121	0.0185736
793.199	0.0186481
793.277	0.0186389
793.355	0.0186446
793.433	0.0185132
793.511	0.0185368
793.590	0.0182740
793.668	0.0180021
793.746	0.0180345
793.824	0.0177982
793.902	0.0177401
793.980	0.0175658
794.058	0.0173635
794.136	0.0172253
794.215	0.0172288
794.293	0.0169821
794.371	0.0168901
794.449	0.0166407
794.527	0.0167132
794.605	0.0166907
794.683	0.0165183
794.761	0.0164993
794.840	0.0164252
794.918	0.0163676
794.996	0.0164862
795.074	0.0163203
795.152	0.0164329
795.230	0.0164861
795.308	0.0163086
795.386	0.0163937
795.465	0.0164245
795.543	0.0164239
795.621	0.0164344
795.699	0.0164883
795.777	0.0165094
795.855	0.0164838
795.933	0.0166337
796.011	0.0165803
796.090	0.0167030
796.168	0.0167416
796.246	0.0167046
796.324	0.0167548
796.402	0.0167184
796.480	0.0166969
796.558	0.0168563
796.636	0.0169198
796.715	0.0169949
796.793	0.0169477
796.871	0.0169950
796.949	0.0169311
797.027	0.0168676
797.105	0.0170103
797.183	0.0169012
797.261	0.0169431
797.340	0.0170267
797.418	0.0170280
797.496	0.0170646
797.574	0.0169380
797.652	0.0169550
797.730	0.0170336
797.808	0.0169329
797.886	0.0168134
797.965	0.0168681
798.043	0.0167455
798.121	0.0169119
798.199	0.0169682
798.277	0.0168798
798.355	0.0168140
798.433	0.0169102
798.511	0.0169430
798.590	0.0168858
798.668	0.0168746
798.746	0.0168993
798.824	0.0168596
798.902	0.0167601
798.980	0.0167609
799.058	0.0167661
799.136	0.0166448
799.215	0.0165673
799.293	0.0166142
799.371	0.0166467
799.449	0.0165179
799.527	0.0164221
799.605	0.0164540
799.683	0.0162927
799.761	0.0164432
799.840	0.0164227
799.918	0.0164181
799.996	0.0164381
800.074	0.0166402
800.152	0.0165300
800.230	0.0166106
800.308	0.0167402
800.386	0.0168247
800.465	0.0169971
800.543	0.0168880
800.621	0.0171374
800.699	0.0172524
800.777	0.0172948
800.855	0.0174703
800.933	0.0175430
801.011	0.0175201
801.090	0.0176424
801.168	0.0176792
801.246	0.0177753
801.324	0.0176216
801.402	0.0177853
801.480	0.0178895
801.558	0.0177090
801.636	0.0177945
801.715	0.0177862
801.793	0.0178533
801.871	0.0177833
801.949	0.0179886
802.027	0.0178077
802.105	0.0178722
802.183	0.0180247
802.261	0.0179490
802.340	0.0178373
802.418	0.0179371
802.496	0.0178189
802.574	0.0177728
802.652	0.0177520
802.730	0.0178996
802.808	0.0177302
802.886	0.0177386
802.965	0.0177310
803.043	0.0177199
803.121	0.0176151
803.199	0.0176675
803.277	0.0177043
803.355	0.0175994
803.433	0.0176532
803.511	0.0178716
803.590	0.0178329
803.668	0.0178056
803.746	0.0178239
803.824	0.0176599
803.902	0.0177553
803.980	0.0177081
804.058	0.0176740
804.136	0.0175555
804.215	0.0173986
804.293	0.0174981
804.371	0.0174911
804.449	0.0174894
804.527	0.0175422
804.605	0.0177095
804.683	0.0176590
804.761	0.0178201
804.840	0.0178403
804.918	0.0180589
804.996	0.0179881
805.074	0.0179725
805.152	0.0179916
805.230	0.0178546
805.308	0.0176427
805.386	0.0175115
805.465	0.0174249
805.543	0.0173977
805.621	0.0173312
805.699	0.0171150
805.777	0.0171294
805.855	0.0170522
805.933	0.0171552
806.011	0.0169601
806.090	0.0169228
806.168	0.0168682
806.246	0.0170049
806.324	0.0169223
806.402	0.0167326
806.480	0.0167878
806.558	0.0167098
806.636	0.0168885
806.715	0.0168579
806.793	0.0168384
806.871	0.0169151
806.949	0.0168773
807.027	0.0170371
807.105	0.0170396
807.183	0.0171121
807.261	0.0171478
807.340	0.0172095
807.418	0.0171720
807.496	0.0171878
807.574	0.0172370
807.652	0.0171323
807.730	0.0172453
807.808	0.0172499
807.886	0.0173319
807.965	0.0174159
808.043	0.0173284
808.121	0.0173149
808.199	0.0172218
808.277	0.0171258
808.355	0.0172881
808.433	0.0173418
808.511	0.0173379
808.590	0.0173554
808.668	0.0173151
808.746	0.0172395
808.824	0.0172221
808.902	0.0173435
808.980	0.0172926
809.058	0.0173047
809.136	0.0173730
809.215	0.0174131
809.293	0.0173489
809.371	0.0172958
809.449	0.0175066
809.527	0.0174854
809.605	0.0177230
809.683	0.0175200
809.761	0.0175574
809.840	0.0174790
809.918	0.0174388
809.996	0.0174866
810.074	0.0175765
810.152	0.0174805
810.230	0.0174019
810.308	0.0175057
810.386	0.0174718
810.465	0.0173964
810.543	0.0174010
810.621	0.0173665
810.699	0.0173817
810.777	0.0175344
810.855	0.0175920
810.933	0.0173572
811.011	0.0172933
811.090	0.0174787
811.168	0.0174176
811.246	0.0175101
811.324	0.0174325
811.402	0.0174701
811.480	0.0173757
811.558	0.0173653
811.636	0.0173336
811.715	0.0173801
811.793	0.0174903
811.871	0.0172564
811.949	0.0172705
812.027	0.0172823
812.105	0.0173632
812.183	0.0172297
812.261	0.0173820
812.340	0.0173642
812.418	0.0174735
812.496	0.0172748
812.574	0.0173331
812.652	0.0173671
812.730	0.0172978
812.808	0.0172153
812.886	0.0171155
812.965	0.0172139
813.043	0.0172667
813.121	0.0171287
813.199	0.0170993
813.277	0.0170580
813.355	0.0171155
813.433	0.0171017
813.511	0.0169273
813.590	0.0169474
813.668	0.0168049
813.746	0.0167378
813.824	0.0167027
813.902	0.0168216
813.980	0.0166459
814.058	0.0166310
814.136	0.0166537
814.215	0.0165613
814.293	0.0166497
814.371	0.0166946
814.449	0.0166855
814.527	0.0166303
814.605	0.0166861
814.683	0.0167878
814.761	0.0168131
814.840	0.0168967
814.918	0.0168609
814.996	0.0168124
815.074	0.0168703
815.152	0.0167768
815.230	0.0170085
815.308	0.0169738
815.386	0.0168608
815.465	0.0169295
815.543	0.0171171
815.621	0.0171239
815.699	0.0172006
815.777	0.0173579
815.855	0.0173794
815.933	0.0173954
816.011	0.0173648
816.090	0.0173237
816.168	0.0172530
816.246	0.0172118
816.324	0.0171084
816.402	0.0172364
816.480	0.0172758
816.558	0.0171487
816.636	0.0172565
816.715	0.0170567
816.793	0.0171546
816.871	0.0170203
816.949	0.0172075
817.027	0.0171923
817.105	0.0171673
817.183	0.0172144
817.261	0.0172372
817.340	0.0171465
817.418	0.0171015
817.496	0.0171836
817.574	0.0172562
817.652	0.0174183
817.730	0.0174155
817.808	0.0174153
817.886	0.0172791
817.965	0.0173165
818.043	0.0173322
818.121	0.0172456
818.199	0.0173881
818.277	0.0174643
818.355	0.0171216
818.433	0.0171725
818.511	0.0172617
818.590	0.0172703
818.668	0.0172349
818.746	0.0172409
818.824	0.0173495
818.902	0.0172391
818.980	0.0169471
819.058	0.0170998
819.136	0.0170879
819.215	0.0170639
819.293	0.0171210
819.371	0.0169521
819.449	0.0171017
819.527	0.0170736
819.605	0.0171612
819.683	0.0171228
819.761	0.0170086
819.840	0.0170544
819.918	0.0172910
819.996	0.0171632
820.074	0.0171459
820.152	0.0173371
820.230	0.0173309
820.308	0.0173725
820.386	0.0173904
820.465	0.0174061
820.543	0.0175012
820.621	0.0175470
820.699	0.0174116
820.777	0.0174430
820.855	0.0173779
820.933	0.0173460
821.011	0.0172632
821.090	0.0172836
821.168	0.0173901
821.246	0.0172333
821.324	0.0173905
821.402	0.0175372
821.480	0.0174113
821.558	0.0173467
821.636	0.0172385
821.715	0.0172091
821.793	0.0173115
821.871	0.0171423
821.949	0.0172004
822.027	0.0170684
822.105	0.0171635
822.183	0.0170856
822.261	0.0171027
822.340	0.0172911
822.418	0.0171289
822.496	0.0171010
822.574	0.0169828
822.652	0.0170624
822.730	0.0170161
822.808	0.0169141
822.886	0.0169279
822.965	0.0169381
823.043	0.0169707
823.121	0.0170444
823.199	0.0168520
823.277	0.0169269
823.355	0.0169924
823.433	0.0170605
823.511	0.0169164
823.590	0.0171181
823.668	0.0170504
823.746	0.0170481
823.824	0.0172064
823.902	0.0174063
823.980	0.0172525
824.058	0.0172236
824.136	0.0171729
824.215	0.0172844
824.293	0.0172922
824.371	0.0171702
824.449	0.0171378
824.527	0.0171986
824.605	0.0170324
824.683	0.0172781
824.761	0.0171291
824.840	0.0170837
824.918	0.0171436
824.996	0.0171657
825.074	0.0172221
825.152	0.0172243
825.230	0.0173413
825.308	0.0173050
825.386	0.0173808
825.465	0.0174416
825.543	0.0175220
825.621	0.0174006
825.699	0.0174895
825.777	0.0174495
825.855	0.0174985
825.933	0.0175800
826.011	0.0175659
826.090	0.0175791
826.168	0.0175185
826.246	0.0176656
826.324	0.0176231
826.402	0.0176418
826.480	0.0177825
826.558	0.0175311
826.636	0.0177011
826.715	0.0177100
826.793	0.0177386
826.871	0.0178629
826.949	0.0178130
827.027	0.0177930
827.105	0.0177457
827.183	0.0176740
827.261	0.0176688
827.340	0.0177874
827.418	0.0177554
827.496	0.0177816
827.574	0.0176506
827.652	0.0177293
827.730	0.0177539
827.808	0.0177227
827.886	0.0177218
827.965	0.0178870
828.043	0.0178709
828.121	0.0177811
828.199	0.0177682
828.277	0.0178025
828.355	0.0177923
828.433	0.0178374
828.511	0.0176914
828.590	0.0177325
828.668	0.0177211
828.746	0.0177614
828.824	0.0176232
828.902	0.0177158
828.980	0.0177658
829.058	0.0176934
829.136	0.0177115
829.215	0.0175169
829.293	0.0176987
829.371	0.0178169
829.449	0.0176564
829.527	0.0177932
829.605	0.0178056
829.683	0.0177103
829.761	0.0176557
829.840	0.0176704
829.918	0.0178416
829.996	0.0179115
830.074	0.0176076
830.152	0.0177166
830.230	0.0178231
830.308	0.0176500
830.386	0.0176804
830.465	0.0177125
830.543	0.0176702
830.621	0.0175799
830.699	0.0175188
830.777	0.0176861
830.855	0.0176362
830.933	0.0175339
831.011	0.0175497
831.090	0.0174428
831.168	0.0174683
831.246	0.0174309
831.324	0.0174341
831.402	0.0174984
831.480	0.0171475
831.558	0.0173426
831.636	0.0173465
831.715	0.0171298
831.793	0.0171171
831.871	0.0172504
831.949	0.0171101
832.027	0.0170988
832.105	0.0170982
832.183	0.0169927
832.261	0.0170302
832.340	0.0169622
832.418	0.0171146
832.496	0.0170919
832.574	0.0170261
832.652	0.0169238
832.730	0.0168756
832.808	0.0170374
832.886	0.0170344
832.965	0.0169005
833.043	0.0169779
833.121	0.0169777
833.199	0.0168874
833.277	0.0169746
833.355	0.0169845
833.433	0.0170287
833.511	0.0170186
833.590	0.0171483
833.668	0.0171543
833.746	0.0171620
833.824	0.0172826
833.902	0.0172235
833.980	0.0173714
834.058	0.0173360
834.136	0.0172073
834.215	0.0171537
834.293	0.0171452
834.371	0.0172562
834.449	0.0170576
834.527	0.0170863
834.605	0.0171780
834.683	0.0169515
834.761	0.0170819
834.840	0.0171497
834.918	0.0171767
834.996	0.0171351
835.074	0.0169980
835.152	0.0171821
835.230	0.0171017
835.308	0.0172312
835.386	0.0172580
835.465	0.0173336
835.543	0.0175395
835.621	0.0173342
835.699	0.0172784
835.777	0.0174584
835.855	0.0173027
835.933	0.0173616
836.011	0.0172787
836.090	0.0172971
836.168	0.0173903
836.246	0.0173438
836.324	0.0173241
836.402	0.0173309
836.480	0.0172141
836.558	0.0173176
836.636	0.0171798
836.715	0.0173248
836.793	0.0173322
836.871	0.0172243
836.949	0.0172402
837.027	0.0172576
837.105	0.0170356
837.183	0.0172290
837.261	0.0171487
837.340	0.0171642
837.418	0.0171906
837.496	0.0173048
837.574	0.0172997
837.652	0.0171844
837.730	0.0172070
837.808	0.0173470
837.886	0.0172643
837.965	0.0174458
838.043	0.0175147
838.121	0.0174207
838.199	0.0175095
838.277	0.0173881
838.355	0.0172960
838.433	0.0172486
838.511	0.0173072
838.590	0.0173037
838.668	0.0172173
838.746	0.0169431
838.824	0.0169769
838.902	0.0167606
838.980	0.0168269
839.058	0.0167554
839.136	0.0166450
839.215	0.0165656
839.293	0.0166341
839.371	0.0167017
839.449	0.0168118
839.527	0.0166695
839.605	0.0166743
839.683	0.0167681
839.761	0.0169205
839.840	0.0170223
839.918	0.0169663
839.996	0.0170779
840.074	0.0171547
840.152	0.0174169
840.230	0.0174535
840.308	0.0174213
840.386	0.0174641
840.465	0.0176714
840.543	0.0177758
840.621	0.0179131
840.699	0.0177277
840.777	0.0178393
840.855	0.0178822
840.933	0.0179453
841.011	0.0180199
841.090	0.0180668
841.168	0.0180929
841.246	0.0180277
841.324	0.0180054
841.402	0.0181601
841.480	0.0180569
841.558	0.0180530
841.636	0.0178067
841.715	0.0179771
841.793	0.0179781
841.871	0.0180652
841.949	0.0177613
842.027	0.0177574
842.105	0.0179081
842.183	0.0177914
842.261	0.0176985
842.340	0.0176247
842.418	0.0176305
842.496	0.0175568
842.574	0.0176000
842.652	0.0175656
842.730	0.0175966
842.808	0.0174007
842.886	0.0174325
842.965	0.0172690
843.043	0.0174320
843.121	0.0174038
843.199	0.0173859
843.277	0.0172097
843.355	0.0172729
843.433	0.0173233
843.511	0.0173940
843.590	0.0171738
843.668	0.0171395
843.746	0.0172036
843.824	0.0173567
843.902	0.0171693
843.980	0.0171852
844.058	0.0172002
844.136	0.0173115
844.215	0.0171288
844.293	0.0171898
844.371	0.0172169
844.449	0.0171079
844.527	0.0172538
844.605	0.0171966
844.683	0.0172001
844.761	0.0173224
844.840	0.0173230
844.918	0.0172528
844.996	0.0172652
845.074	0.0174120
845.152	0.0173113
845.230	0.0172774
845.308	0.0173657
845.386	0.0172955
845.465	0.0174018
845.543	0.0174571
845.621	0.0173483
845.699	0.0173705
845.777	0.0175158
845.855	0.0174374
845.933	0.0173819
846.011	0.0173376
846.090	0.0173730
846.168	0.0173792
846.246	0.0172980
846.324	0.0174456
846.402	0.0173132
846.480	0.0173575
846.558	0.0172029
846.636	0.0172720
846.715	0.0172636
846.793	0.0172636
846.871	0.0171032
846.949	0.0169794
847.027	0.0171188
847.105	0.0170667
847.183	0.0170477
847.261	0.0170807
847.340	0.0170814
847.418	0.0170379
847.496	0.0171486
847.574	0.0172623
847.652	0.0172661
847.730	0.0172737
847.808	0.0172282
847.886	0.0171519
847.965	0.0172826
848.043	0.0172701
848.121	0.0171982
848.199	0.0173863
848.277	0.0173486
848.355	0.0172428
848.433	0.0173345
848.511	0.0173496
848.590	0.0172412
848.668	0.0172816
848.746	0.0170937
848.824	0.0170566
848.902	0.0172393
848.980	0.0171521
849.058	0.0170685
849.136	0.0171650
849.215	0.0171049
849.293	0.0173038
849.371	0.0171511
849.449	0.0172553
849.527	0.0175040
849.605	0.0173814
849.683	0.0174480
849.761	0.0172933
849.840	0.0173740
849.918	0.0172903
849.996	0.0174493
850.074	0.0173258
850.152	0.0173866
850.230	0.0174262
850.308	0.0172684
850.386	0.0173328
850.465	0.0173288
850.543	0.0172231
850.621	0.0172190
850.699	0.0173896
850.777	0.0172575
850.855	0.0172645
850.933	0.0172991
851.011	0.0172521
851.090	0.0171336
851.168	0.0171857
851.246	0.0172581
851.324	0.0172369
851.402	0.0172007
851.480	0.0171984
851.558	0.0172775
851.636	0.0172298
851.715	0.0172499
851.793	0.0172993
851.871	0.0173405
851.949	0.0173614
852.027	0.0172702
852.105	0.0174229
852.183	0.0173823
852.261	0.0173100
852.340	0.0175404
852.418	0.0173822
852.496	0.0173087
852.574	0.0173408
852.652	0.0172964
852.730	0.0172597
852.808	0.0172557
852.886	0.0172801
852.965	0.0172463
853.043	0.0172520
853.121	0.0172408
853.199	0.0171537
853.277	0.0171315
853.355	0.0171175
853.433	0.0172915
853.511	0.0170503
853.590	0.0171252
853.668	0.0172108
853.746	0.0172283
853.824	0.0172765
853.902	0.0172582
853.980	0.0172513
854.058	0.0172455
854.136	0.0173705
854.215	0.0174422
854.293	0.0173622
854.371	0.0174281
854.449	0.0174203
854.527	0.0175005
854.605	0.0174635
854.683	0.0174690
854.761	0.0174808
854.840	0.0174941
854.918	0.0175430
854.996	0.0173906
855.074	0.0174681
855.152	0.0175353
855.230	0.0174183
855.308	0.0174564
855.386	0.0174544
855.465	0.0175443
855.543	0.0175621
855.621	0.0175095
855.699	0.0174718
855.777	0.0173975
855.855	0.0174034
855.933	0.0174313
856.011	0.0174332
856.090	0.0173945
856.168	0.0172775
856.246	0.0174049
856.324	0.0172296
856.402	0.0173103
856.480	0.0172772
856.558	0.0173486
856.636	0.0172980
856.715	0.0172471
856.793	0.0172628
856.871	0.0173327
856.949	0.0173217
857.027	0.0173617
857.105	0.0173379
857.183	0.0173286
857.261	0.0173470
857.340	0.0172758
857.418	0.0172574
857.496	0.0172020
857.574	0.0172919
857.652	0.0173798
857.730	0.0172810
857.808	0.0172460
857.886	0.0173560
857.965	0.0172029
858.043	0.0172581
858.121	0.0172557
858.199	0.0172253
858.277	0.0171780
858.355	0.0171364
858.433	0.0171210
858.511	0.0171107
858.590	0.0171348
858.668	0.0171658
858.746	0.0172224
858.824	0.0171722
858.902	0.0174033
858.980	0.0173450
859.058	0.0173309
859.136	0.0173067
859.215	0.0174788
859.293	0.0174578
859.371	0.0174805
859.449	0.0175047
859.527	0.0174554
859.605	0.0175293
859.683	0.0175869
859.761	0.0176746
859.840	0.0175485
859.918	0.0175531
859.996	0.0177257
860.074	0.0177306
860.152	0.0176579
860.230	0.0176937
860.308	0.0177498
860.386	0.0178057
860.465	0.0176978
860.543	0.0179150
860.621	0.0178287
860.699	0.0179490
860.777	0.0179430
860.855	0.0177200
860.933	0.0176119
861.011	0.0177228
861.090	0.0177796
861.168	0.0176299
861.246	0.0176242
861.324	0.0174883
861.402	0.0175636
861.480	0.0174628
861.558	0.0174800
861.636	0.0174594
861.715	0.0174593
861.793	0.0175262
861.871	0.0173000
861.949	0.0172015
862.027	0.0173939
862.105	0.0172999
862.183	0.0171119
862.261	0.0170056
862.340	0.0170405
862.418	0.0170732
862.496	0.0170266
862.574	0.0171751
862.652	0.0170084
862.730	0.0169019
862.808	0.0169016
862.886	0.0168760
862.965	0.0168388
863.043	0.0167806
863.121	0.0168254
863.199	0.0168993
863.277	0.0167567
863.355	0.0168822
863.433	0.0169517
863.511	0.0168649
863.590	0.0166404
863.668	0.0167442
863.746	0.0167248
863.824	0.0166634
863.902	0.0168645
863.980	0.0168131
864.058	0.0167393
864.136	0.0167619
864.215	0.0167186
864.293	0.0167424
864.371	0.0166376
864.449	0.0168125
864.527	0.0167736
864.605	0.0168157
864.683	0.0168597
864.761	0.0169244
864.840	0.0169909
864.918	0.0169930
864.996	0.0168694
865.074	0.0169647
865.152	0.0171289
865.230	0.0170513
865.308	0.0169395
865.386	0.0171194
865.465	0.0170246
865.543	0.0172635
865.621	0.0172010
865.699	0.0170464
865.777	0.0170457
865.855	0.0171425
865.933	0.0172488
866.011	0.0170915
866.090	0.0171198
866.168	0.0171680
866.246	0.0172208
866.324	0.0171309
866.402	0.0172109
866.480	0.0173575
866.558	0.0173582
866.636	0.0173464
866.715	0.0173697
866.793	0.0174094
866.871	0.0174867
866.949	0.0174799
867.027	0.0174693
867.105	0.0175394
867.183	0.0175742
867.261	0.0176262
867.340	0.0176240
867.418	0.0176112
867.496	0.0176289
867.574	0.0176326
867.652	0.0177453
867.730	0.0177531
867.808	0.0178560
867.886	0.0179266
867.965	0.0179321
868.043	0.0181188
868.121	0.0182407
868.199	0.0181262
868.277	0.0182224
868.355	0.0183936
868.433	0.0184769
868.511	0.0185582
868.590	0.0185822
868.668	0.0186653
868.746	0.0187812
868.824	0.0189391
868.902	0.0189237
868.980	0.0189200
869.058	0.0190000
869.136	0.0188690
869.215	0.0189680
869.293	0.0190189
869.371	0.0188037
869.449	0.0188921
869.527	0.0187885
869.605	0.0188070
869.683	0.0186481
869.761	0.0187762
869.840	0.0186269
869.918	0.0185811
869.996	0.0184348
870.074	0.0182868
870.152	0.0181657
870.230	0.0182202
870.308	0.0180460
870.386	0.0179402
870.465	0.0178371
870.543	0.0177209
870.621	0.0176965
870.699	0.0175522
870.777	0.0174110
870.855	0.0172941
870.933	0.0171819
871.011	0.0170215
871.090	0.0170939
871.168	0.0170217
871.246	0.0169703
871.324	0.0169001
871.402	0.0168976
871.480	0.0167708
871.558	0.0167464
871.636	0.0167001
871.715	0.0166628
871.793	0.0167207
871.871	0.0164619
871.949	0.0162971
872.027	0.0164007
872.105	0.0164116
872.183	0.0163737
872.261	0.0163879
872.340	0.0163433
872.418	0.0163536
872.496	0.0162450
872.574	0.0162601
872.652	0.0161592
872.730	0.0162664
872.808	0.0161828
872.886	0.0161708
872.965	0.0161246
873.043	0.0159737
873.121	0.0159828
873.199	0.0160469
873.277	0.0160481
873.355	0.0159875
873.433	0.0159915
873.511	0.0157742
873.590	0.0159644
873.668	0.0158080
873.746	0.0160183
873.824	0.0158923
873.902	0.0159325
873.980	0.0160213
874.058	0.0160563
874.136	0.0160496
874.215	0.0161719
874.293	0.0162319
874.371	0.0161299
874.449	0.0162766
874.527	0.0163465
874.605	0.0162334
874.683	0.0163564
874.761	0.0162931
874.840	0.0164327
874.918	0.0166939
874.996	0.0165550
875.074	0.0165601
875.152	0.0167538
875.230	0.0168035
875.308	0.0168556
875.386	0.0169614
875.465	0.0169491
875.543	0.0169942
875.621	0.0170184
875.699	0.0170331
875.777	0.0171213
875.855	0.0171221
875.933	0.0172962
876.011	0.0172527
876.090	0.0174568
876.168	0.0172980
876.246	0.0173359
876.324	0.0173457
876.402	0.0173665
876.480	0.0173888
876.558	0.0174393
876.636	0.0173780
876.715	0.0174281
876.793	0.0173749
876.871	0.0175016
876.949	0.0174911
877.027	0.0175942
877.105	0.0174984
877.183	0.0176216
877.261	0.0176614
877.340	0.0175083
877.418	0.0175638
877.496	0.0175821
877.574	0.0176543
877.652	0.0177390
877.730	0.0175510
877.808	0.0175173
877.886	0.0176472
877.965	0.0176395
878.043	0.0176389
878.121	0.0176601
878.199	0.0177021
878.277	0.0176785
878.355	0.0176269
878.433	0.0177180
878.511	0.0176532
878.590	0.0176961
878.668	0.0177522
878.746	0.0177532
878.824	0.0177625
878.902	0.0177542
878.980	0.0178091
879.058	0.0178753
879.136	0.0178206
879.215	0.0178590
879.293	0.0178407
879.371	0.0178127
879.449	0.0179335
879.527	0.0178313
879.605	0.0177059
879.683	0.0176756
879.761	0.0177669
879.840	0.0177242
879.918	0.0177056
879.996	0.0176519
880.074	0.0177509
880.152	0.0177445
880.230	0.0177100
880.308	0.0177466
880.386	0.0176965
880.465	0.0178017
880.543	0.0177150
880.621	0.0178162
880.699	0.0176455
880.777	0.0177020
880.855	0.0176933
880.933	0.0176959
881.011	0.0176521
881.090	0.0176311
881.168	0.0175653
881.246	0.0175166
881.324	0.0174653
881.402	0.0173982
881.480	0.0173428
881.558	0.0172491
881.636	0.0171871
881.715	0.0172268
881.793	0.0172594
881.871	0.0170354
881.949	0.0171700
882.027	0.0170975
882.105	0.0170132
882.183	0.0170766
882.261	0.0170696
882.340	0.0169624
882.418	0.0169905
882.496	0.0168515
882.574	0.0170531
882.652	0.0169191
882.730	0.0170252
882.808	0.0170587
882.886	0.0170658
882.965	0.0169366
883.043	0.0169600
883.121	0.0171004
883.199	0.0170301
883.277	0.0170695
883.355	0.0172057
883.433	0.0169504
883.511	0.0170746
883.590	0.0170623
883.668	0.0170821
883.746	0.0171696
883.824	0.0170873
883.902	0.0170783
883.980	0.0171054
884.058	0.0170887
884.136	0.0170251
884.215	0.0170947
884.293	0.0170184
884.371	0.0171719
884.449	0.0171440
884.527	0.0171631
884.605	0.0173288
884.683	0.0174774
884.761	0.0174514
884.840	0.0175031
884.918	0.0175724
884.996	0.0175871
885.074	0.0176554
885.152	0.0176112
885.230	0.0175780
885.308	0.0176930
885.386	0.0176751
885.465	0.0176275
885.543	0.0175983
885.621	0.0174844
885.699	0.0174535
885.777	0.0176140
885.855	0.0176015
885.933	0.0174590
886.011	0.0175109
886.090	0.0175084
886.168	0.0175381
886.246	0.0174454
886.324	0.0174908
886.402	0.0174407
886.480	0.0172894
886.558	0.0172426
886.636	0.0173042
886.715	0.0173278
886.793	0.0172429
886.871	0.0172755
886.949	0.0171563
887.027	0.0171391
887.105	0.0171195
887.183	0.0170770
887.261	0.0170602
887.340	0.0171114
887.418	0.0170380
887.496	0.0169344
887.574	0.0168096
887.652	0.0168575
887.730	0.0168390
887.808	0.0168337
887.886	0.0167966
887.965	0.0167876
888.043	0.0168504
888.121	0.0168863
888.199	0.0168513
888.277	0.0169634
888.355	0.0169130
888.433	0.0169170
888.511	0.0169672
888.590	0.0168462
888.668	0.0167719
888.746	0.0169437
888.824	0.0170812
888.902	0.0169186
888.980	0.0172300
889.058	0.0170932
889.136	0.0171373
889.215	0.0171477
889.293	0.0173528
889.371	0.0174575
889.449	0.0174794
889.527	0.0175684
889.605	0.0174131
889.683	0.0174943
889.761	0.0175892
889.840	0.0176594
889.918	0.0176720
889.996	0.0176039
890.074	0.0176161
890.152	0.0175252
890.230	0.0173257
890.308	0.0173989
890.386	0.0174461
890.465	0.0172626
890.543	0.0173138
890.621	0.0172607
890.699	0.0172559
890.777	0.0172674
890.855	0.0173279
890.933	0.0172805
891.011	0.0171686
891.090	0.0172816
891.168	0.0173490
891.246	0.0172873
891.324	0.0174559
891.402	0.0174445
891.480	0.0174187
891.558	0.0174037
891.636	0.0174708
891.715	0.0174628
891.793	0.0173976
891.871	0.0173028
891.949	0.0174274
892.027	0.0172711
892.105	0.0172888
892.183	0.0174364
892.261	0.0174213
892.340	0.0173943
892.418	0.0174603
892.496	0.0174002
892.574	0.0175632
892.652	0.0173520
892.730	0.0174631
892.808	0.0175385
892.886	0.0174935
892.965	0.0175444
893.043	0.0177153
893.121	0.0177730
893.199	0.0176218
893.277	0.0178069
893.355	0.0178265
893.433	0.0179114
893.511	0.0178764
893.590	0.0179223
893.668	0.0181016
893.746	0.0179874
893.824	0.0179293
893.902	0.0180672
893.980	0.0180076
894.058	0.0180086
894.136	0.0179572
894.215	0.0179621
894.293	0.0178938
894.371	0.0177850
894.449	0.0179476
894.527	0.0178850
894.605	0.0176553
894.683	0.0175980
894.761	0.0177464
894.840	0.0174583
894.918	0.0174075
894.996	0.0173675
895.074	0.0173917
895.152	0.0173288
895.230	0.0173338
895.308	0.0172701
895.386	0.0172612
895.465	0.0170427
895.543	0.0170682
895.621	0.0172483
895.699	0.0170528
895.777	0.0171057
895.855	0.0169626
895.933	0.0169534
896.011	0.0168798
896.090	0.0169626
896.168	0.0168877
896.246	0.0167725
896.324	0.0167277
896.402	0.0167500
896.480	0.0167243
896.558	0.0167496
896.636	0.0167383
896.715	0.0166649
896.793	0.0165835
896.871	0.0165916
896.949	0.0163282
897.027	0.0164064
897.105	0.0164128
897.183	0.0163538
897.261	0.0163639
897.340	0.0164345
897.418	0.0163219
897.496	0.0163746
897.574	0.0164639
897.652	0.0162611
897.730	0.0164127
897.808	0.0164301
897.886	0.0163631
897.965	0.0164050
898.043	0.0165062
898.121	0.0165470
898.199	0.0163580
898.277	0.0164812
898.355	0.0165188
898.433	0.0164542
898.511	0.0165215
898.590	0.0165434
898.668	0.0164757
898.746	0.0164878
898.824	0.0164711
898.902	0.0165948
898.980	0.0166697
899.058	0.0168050
899.136	0.0167768
899.215	0.0168252
899.293	0.0169124
899.371	0.0168098
899.449	0.0169150
899.527	0.0171424
899.605	0.0172215
899.683	0.0172484
899.761	0.0172268
899.840	0.0171180
899.918	0.0170734
899.996	0.0172172
900.074	0.0172084
900.152	0.0172024
900.230	0.0171524
900.308	0.0172086
900.386	0.0172157
900.465	0.0172803
900.543	0.0172131
900.621	0.0173306
900.699	0.0174570
900.777	0.0173212
900.855	0.0174184
900.933	0.0175346
901.011	0.0172884
901.090	0.0174644
901.168	0.0175178
901.246	0.0174409
901.324	0.0174034
901.402	0.0174313
901.480	0.0173082
901.558	0.0173578
901.636	0.0172333
901.715	0.0172293
901.793	0.0173044
901.871	0.0170269
901.949	0.0172646
902.027	0.0172311
902.105	0.0171871
902.183	0.0172820
902.261	0.0173307
902.340	0.0173795
902.418	0.0175163
902.496	0.0176308
902.574	0.0175378
902.652	0.0175980
902.730	0.0176299
902.808	0.0178567
902.886	0.0178551
902.965	0.0178426
903.043	0.0178771
903.121	0.0179995
903.199	0.0181178
903.277	0.0179675
903.355	0.0180261
903.433	0.0181637
903.511	0.0180775
903.590	0.0180727
903.668	0.0179370
903.746	0.0180357
903.824	0.0178077
903.902	0.0178279
903.980	0.0175689
904.058	0.0177520
904.136	0.0176706
904.215	0.0176392
904.293	0.0175906
904.371	0.0174107
904.449	0.0175316
904.527	0.0174099
904.605	0.0172489
904.683	0.0173545
904.761	0.0173615
904.840	0.0173214
904.918	0.0172983
904.996	0.0172602
905.074	0.0172710
905.152	0.0172215
905.230	0.0172836
905.308	0.0172395
905.386	0.0173657
905.465	0.0173507
905.543	0.0173743
905.621	0.0171970
905.699	0.0173235
905.777	0.0172395
905.855	0.0171842
905.933	0.0172475
906.011	0.0170561
906.090	0.0170121
906.168	0.0170779
906.246	0.0169625
906.324	0.0169478
906.402	0.0169155
906.480	0.0170306
906.558	0.0168604
906.636	0.0168185
906.715	0.0169387
906.793	0.0168607
906.871	0.0168669
906.949	0.0168577
907.027	0.0169585
907.105	0.0169504
907.183	0.0169733
907.261	0.0170750
907.340	0.0171196
907.418	0.0171592
907.496	0.0171013
907.574	0.0171734
907.652	0.0171305
907.730	0.0173864
907.808	0.0174812
907.886	0.0174846
907.965	0.0174077
908.043	0.0174023
908.121	0.0174880
908.199	0.0174079
908.277	0.0175742
908.355	0.0175079
908.433	0.0176304
908.511	0.0174008
908.590	0.0175593
908.668	0.0177306
908.746	0.0176805
908.824	0.0176413
908.902	0.0176048
908.980	0.0176507
909.058	0.0175746
909.136	0.0176949
909.215	0.0176628
909.293	0.0175749
909.371	0.0176163
909.449	0.0175393
909.527	0.0175768
909.605	0.0174297
909.683	0.0173629
909.761	0.0174506
909.840	0.0174786
909.918	0.0175899
909.996	0.0175996
910.074	0.0173999
910.152	0.0175178
910.230	0.0175422
910.308	0.0175475
910.386	0.0177045
910.465	0.0175671
910.543	0.0175066
910.621	0.0175319
910.699	0.0175745
910.777	0.0175113
910.855	0.0176492
910.933	0.0174848
911.011	0.0175284
911.090	0.0174267
911.168	0.0174286
911.246	0.0173549
911.324	0.0174641
911.402	0.0174739
911.480	0.0174486
911.558	0.0174259
911.636	0.0174502
911.715	0.0174196
911.793	0.0172931
911.871	0.0173526
911.949	0.0174203
912.027	0.0172247
912.105	0.0173313
912.183	0.0172236
912.261	0.0171570
912.340	0.0170647
912.418	0.0170352
912.496	0.0169444
912.574	0.0169038
912.652	0.0169975
912.730	0.0169738
912.808	0.0171568
912.886	0.0170719
912.965	0.0170998
913.043	0.0171329
913.121	0.0171091
913.199	0.0171121
913.277	0.0170858
913.355	0.0171146
913.433	0.0172440
913.511	0.0171960
913.590	0.0172502
913.668	0.0172035
913.746	0.0171609
913.824	0.0172507
913.902	0.0172701
913.980	0.0173072
914.058	0.0172300
914.136	0.0172433
914.215	0.0173185
914.293	0.0172436
914.371	0.0172699
914.449	0.0172401
914.527	0.0171377
914.605	0.0170624
914.683	0.0171571
914.761	0.0172173
914.840	0.0171836
914.918	0.0169432
914.996	0.0171992
915.074	0.0171729
915.152	0.0172393
915.230	0.0173180
915.308	0.0172990
915.386	0.0172566
915.465	0.0172263
915.543	0.0172722
915.621	0.0171314
915.699	0.0172268
915.777	0.0171198
915.855	0.0170765
915.933	0.0171082
916.011	0.0171310
916.090	0.0170917
916.168	0.0171344
916.246	0.0170118
916.324	0.0170251
916.402	0.0170193
916.480	0.0171190
916.558	0.0171068
916.636	0.0169775
916.715	0.0170557
916.793	0.0170637
916.871	0.0170285
916.949	0.0168915
917.027	0.0170608
917.105	0.0170541
917.183	0.0171437
917.261	0.0170611
917.340	0.0170332
917.418	0.0171902
917.496	0.0171127
917.574	0.0169572
917.652	0.0170784
917.730	0.0171209
917.808	0.0171066
917.886	0.0169923
917.965	0.0169480
918.043	0.0168716
918.121	0.0168175
918.199	0.0168976
918.277	0.0168211
918.355	0.0168923
918.433	0.0167758
918.511	0.0169025
918.590	0.0168185
918.668	0.0167369
918.746	0.0168319
918.824	0.0167065
918.902	0.0167200
918.980	0.0167849
919.058	0.0167309
919.136	0.0169205
919.215	0.0168587
919.293	0.0169496
919.371	0.0169659
919.449	0.0169787
919.527	0.0170586
919.605	0.0172153
919.683	0.0172446
919.761	0.0172551
919.840	0.0173888
919.918	0.0173871
919.996	0.0173986
920.074	0.0173988
920.152	0.0175854
920.230	0.0175552
920.308	0.0177511
920.386	0.0176923
920.465	0.0179113
920.543	0.0178444
920.621	0.0178201
920.699	0.0180078
920.777	0.0180339
920.855	0.0178207
920.933	0.0180178
921.011	0.0179052
921.090	0.0179798
921.168	0.0180865
921.246	0.0181437
921.324	0.0182416
921.402	0.0180990
921.480	0.0181425
921.558	0.0180787
921.636	0.0181666
921.715	0.0183569
921.793	0.0181820
921.871	0.0180764
921.949	0.0180286
922.027	0.0181184
922.105	0.0182233
922.183	0.0180054
922.261	0.0178874
922.340	0.0179095
922.418	0.0179916
922.496	0.0179410
922.574	0.0178817
922.652	0.0177483
922.730	0.0176889
922.808	0.0176247
922.886	0.0176160
922.965	0.0174675
923.043	0.0175184
923.121	0.0174563
923.199	0.0174046
923.277	0.0172527
923.355	0.0172603
923.433	0.0171058
923.511	0.0170721
923.590	0.0171555
923.668	0.0171625
923.746	0.0170245
923.824	0.0171059
923.902	0.0169616
923.980	0.0169099
924.058	0.0169396
924.136	0.0171097
924.215	0.0169042
924.293	0.0168463
924.371	0.0169522
924.449	0.0169054
924.527	0.0170557
924.605	0.0170177
924.683	0.0169418
924.761	0.0169337
924.840	0.0169850
924.918	0.0169421
924.996	0.0169024
925.074	0.0169268
925.152	0.0170011
925.230	0.0169388
925.308	0.0170224
925.386	0.0171935
925.465	0.0170035
925.543	0.0168646
925.621	0.0170248
925.699	0.0170736
925.777	0.0171720
925.855	0.0169144
925.933	0.0171440
926.011	0.0171504
926.090	0.0171486
926.168	0.0172038
926.246	0.0172922
926.324	0.0173578
926.402	0.0173132
926.480	0.0172949
926.558	0.0172755
926.636	0.0174201
926.715	0.0174630
926.793	0.0173716
926.871	0.0171066
926.949	0.0173219
927.027	0.0172479
927.105	0.0172085
927.183	0.0171753
927.261	0.0171552
927.340	0.0171996
927.418	0.0172889
927.496	0.0172238
927.574	0.0171358
927.652	0.0171292
927.730	0.0172251
927.808	0.0172906
927.886	0.0173446
927.965	0.0175024
928.043	0.0174319
928.121	0.0174960
928.199	0.0175563
928.277	0.0176480
928.355	0.0175626
928.433	0.0175722
928.511	0.0175790
928.590	0.0176384
928.668	0.0176256
928.746	0.0176030
928.824	0.0176591
928.902	0.0176817
928.980	0.0178153
929.058	0.0177647
929.136	0.0177563
929.215	0.0177316
929.293	0.0177811
929.371	0.0176843
929.449	0.0174457
929.527	0.0175928
929.605	0.0175700
929.683	0.0175024
929.761	0.0173788
929.840	0.0173579
929.918	0.0174736
929.996	0.0174317
930.074	0.0173793
930.152	0.0173717
930.230	0.0173849
930.308	0.0173128
930.386	0.0172746
930.465	0.0175060
930.543	0.0173470
930.621	0.0174606
930.699	0.0173780
930.777	0.0173117
930.855	0.0173369
930.933	0.0173657
931.011	0.0173415
931.090	0.0173356
931.168	0.0174397
931.246	0.0174941
931.324	0.0173458
931.402	0.0172007
931.480	0.0174019
931.558	0.0173814
931.636	0.0172469
931.715	0.0172600
931.793	0.0173167
931.871	0.0172210
931.949	0.0174146
932.027	0.0174603
932.105	0.0172412
932.183	0.0173615
932.261	0.0172966
932.340	0.0173938
932.418	0.0173705
932.496	0.0173159
932.574	0.0172836
932.652	0.0172220
932.730	0.0171647
932.808	0.0172333
932.886	0.0171938
932.965	0.0171079
933.043	0.0171472
933.121	0.0171876
933.199	0.0170143
933.277	0.0170592
933.355	0.0170518
933.433	0.0169299
933.511	0.0170174
933.590	0.0170966
933.668	0.0169950
933.746	0.0170776
933.824	0.0172456
933.902	0.0169955
933.980	0.0171058
934.058	0.0172542
934.136	0.0171703
934.215	0.0170172
934.293	0.0171111
934.371	0.0170973
934.449	0.0171112
934.527	0.0171458
934.605	0.0172240
934.683	0.0171635
934.761	0.0172179
934.840	0.0170939
934.918	0.0172445
934.996	0.0172186
935.074	0.0171951
935.152	0.0173194
935.230	0.0171969
935.308	0.0173060
935.386	0.0172935
935.465	0.0171918
935.543	0.0173153
935.621	0.0173190
935.699	0.0171657
935.777	0.0174123
935.855	0.0173061
935.933	0.0171293
936.011	0.0171339
936.090	0.0172822
936.168	0.0172928
936.246	0.0173341
936.324	0.0172889
936.402	0.0172903
936.480	0.0173152
936.558	0.0174431
936.636	0.0175029
936.715	0.0176350
936.793	0.0176693
936.871	0.0176450
936.949	0.0175542
937.027	0.0176956
937.105	0.0176540
937.183	0.0176623
937.261	0.0177693
937.340	0.0177094
937.418	0.0177013
937.496	0.0175577
937.574	0.0177393
937.652	0.0175851
937.730	0.0175098
937.808	0.0175499
937.886	0.0176487
937.965	0.0176012
938.043	0.0173605
938.121	0.0175208
938.199	0.0175076
938.277	0.0173818
938.355	0.0174660
938.433	0.0174648
938.511	0.0174687
938.590	0.0173795
938.668	0.0173449
938.746	0.0175308
938.824	0.0172900
938.902	0.0174153
938.980	0.0173615
939.058	0.0174363
939.136	0.0173209
939.215	0.0171035
939.293	0.0170681
939.371	0.0171463
939.449	0.0171540
939.527	0.0169264
939.605	0.0169474
939.683	0.0168805
939.761	0.0167029
939.840	0.0166997
939.918	0.0166840
939.996	0.0165822
940.074	0.0166574
940.152	0.0166483
940.230	0.0165981
940.308	0.0167147
940.386	0.0166514
940.465	0.0167912
940.543	0.0166093
940.621	0.0168150
940.699	0.0166409
940.777	0.0167028
940.855	0.0168239
940.933	0.0168105
941.011	0.0168365
941.090	0.0168373
941.168	0.0168137
941.246	0.0169669
941.324	0.0168642
941.402	0.0167687
941.480	0.0168093
941.558	0.0167694
941.636	0.0168245
941.715	0.0167953
941.793	0.0168398
941.871	0.0169026
941.949	0.0168938
942.027	0.0169437
942.105	0.0169555
942.183	0.0169796
942.261	0.0169285
942.340	0.0169541
942.418	0.0169559
942.496	0.0169987
942.574	0.0170264
942.652	0.0171754
942.730	0.0170667
942.808	0.0171082
942.886	0.0172236
942.965	0.0170955
943.043	0.0172388
943.121	0.0171764
943.199	0.0171922
943.277	0.0170817
943.355	0.0172053
943.433	0.0171063
943.511	0.0171930
943.590	0.0172173
943.668	0.0171158
943.746	0.0169933
943.824	0.0171101
943.902	0.0169954
943.980	0.0170424
944.058	0.0170531
944.136	0.0170296
944.215	0.0171193
944.293	0.0171358
944.371	0.0172631
944.449	0.0173135
944.527	0.0173232
944.605	0.0174834
944.683	0.0175885
944.761	0.0175871
944.840	0.0175718
944.918	0.0174824
944.996	0.0177111
945.074	0.0177075
945.152	0.0177739
945.230	0.0177331
945.308	0.0178603
945.386	0.0178055
945.465	0.0177998
945.543	0.0178865
945.621	0.0179401
945.699	0.0178000
945.777	0.0178170
945.855	0.0178156
945.933	0.0176949
946.011	0.0176659
946.090	0.0178032
946.168	0.0177639
946.246	0.0176872
946.324	0.0177116
946.402	0.0176877
946.480	0.0175826
946.558	0.0176025
946.636	0.0175926
946.715	0.0176044
946.793	0.0176255
946.871	0.0176549
946.949	0.0176153
947.027	0.0175217
947.105	0.0176092
947.183	0.0175862
947.261	0.0176023
947.340	0.0175552
947.418	0.0174894
947.496	0.0174161
947.574	0.0175474
947.652	0.0173566
947.730	0.0173992
947.808	0.0174692
947.886	0.0174686
947.965	0.0174086
948.043	0.0175129
948.121	0.0174737
948.199	0.0175138
948.277	0.0175703
948.355	0.0173524
948.433	0.0176337
948.511	0.0176472
948.590	0.0174561
948.668	0.0175278
948.746	0.0175177
948.824	0.0176378
948.902	0.0175787
948.980	0.0176382
949.058	0.0175424
949.136	0.0174870
949.215	0.0176371
949.293	0.0175130
949.371	0.0174000
949.449	0.0174271
949.527	0.0174214
949.605	0.0174692
949.683	0.0174130
949.761	0.0173962
949.840	0.0174358
949.918	0.0174094
