06/29/2022	22:48:40	Ver.	4.1	UNKNOWN
Optical Delay	630.002507	Delta X		0.078125	Sweeps	1	Scan Rate	0/0
Coordinates	Axis 1	NaN	Axis 2	NaN	Axis 3	NaN	Axis 4	NaN	Axis 5	NaN	Axis 6	0.000000
TX Power	0.000000	RX Power	0.000000

630.003	0.0164926
630.081	0.0165897
630.159	0.0166063
630.237	0.0165652
630.315	0.0164243
630.393	0.0164563
630.471	0.0164602
630.549	0.0166302
630.628	0.0164709
630.706	0.0164417
630.784	0.0165635
630.862	0.0166023
630.940	0.0165072
631.018	0.0164329
631.096	0.0165556
631.174	0.0163771
631.253	0.0164402
631.331	0.0165193
631.409	0.0164895
631.487	0.0164419
631.565	0.0165782
631.643	0.0164764
631.721	0.0165453
631.799	0.0163898
631.878	0.0164522
631.956	0.0165221
632.034	0.0164796
632.112	0.0166187
632.190	0.0165018
632.268	0.0164665
632.346	0.0164138
632.424	0.0164787
632.503	0.0166444
632.581	0.0164933
632.659	0.0163799
632.737	0.0163883
632.815	0.0164795
632.893	0.0165359
632.971	0.0164919
633.049	0.0166099
633.128	0.0165974
633.206	0.0165759
633.284	0.0164880
633.362	0.0165408
633.440	0.0165236
633.518	0.0165450
633.596	0.0165083
633.674	0.0164683
633.753	0.0165625
633.831	0.0165427
633.909	0.0165826
633.987	0.0165609
634.065	0.0165115
634.143	0.0164967
634.221	0.0165192
634.299	0.0164252
634.378	0.0164964
634.456	0.0165247
634.534	0.0166288
634.612	0.0164716
634.690	0.0164796
634.768	0.0163925
634.846	0.0165391
634.924	0.0165654
635.003	0.0165315
635.081	0.0164497
635.159	0.0165604
635.237	0.0165883
635.315	0.0164138
635.393	0.0163646
635.471	0.0164828
635.549	0.0164866
635.628	0.0164362
635.706	0.0164852
635.784	0.0164925
635.862	0.0165341
635.940	0.0166308
636.018	0.0166556
636.096	0.0166228
636.174	0.0165008
636.253	0.0166755
636.331	0.0164001
636.409	0.0163941
636.487	0.0165461
636.565	0.0166428
636.643	0.0165874
636.721	0.0165094
636.799	0.0165295
636.878	0.0165612
636.956	0.0164785
637.034	0.0165502
637.112	0.0164764
637.190	0.0164328
637.268	0.0164832
637.346	0.0164890
637.424	0.0164377
637.503	0.0165226
637.581	0.0164874
637.659	0.0164598
637.737	0.0163937
637.815	0.0164823
637.893	0.0164962
637.971	0.0165279
638.049	0.0165647
638.128	0.0164822
638.206	0.0164313
638.284	0.0165730
638.362	0.0164914
638.440	0.0165786
638.518	0.0163945
638.596	0.0164960
638.674	0.0165327
638.753	0.0164604
638.831	0.0164085
638.909	0.0164787
638.987	0.0164423
639.065	0.0164677
639.143	0.0163917
639.221	0.0164516
639.299	0.0164068
639.378	0.0165328
639.456	0.0165639
639.534	0.0164996
639.612	0.0164945
639.690	0.0164364
639.768	0.0166080
639.846	0.0164586
639.924	0.0165124
640.003	0.0164909
640.081	0.0164990
640.159	0.0164916
640.237	0.0163814
640.315	0.0163866
640.393	0.0163961
640.471	0.0164345
640.549	0.0165651
640.628	0.0165712
640.706	0.0164400
640.784	0.0164932
640.862	0.0167201
640.940	0.0166230
641.018	0.0164964
641.096	0.0165149
641.174	0.0164996
641.253	0.0165446
641.331	0.0165828
641.409	0.0164542
641.487	0.0165284
641.565	0.0165330
641.643	0.0166443
641.721	0.0166589
641.799	0.0165172
641.878	0.0164317
641.956	0.0165800
642.034	0.0165587
642.112	0.0164480
642.190	0.0166202
642.268	0.0165897
642.346	0.0163872
642.424	0.0162971
642.503	0.0164020
642.581	0.0165498
642.659	0.0164211
642.737	0.0164487
642.815	0.0165638
642.893	0.0165128
642.971	0.0166117
643.049	0.0163997
643.128	0.0164040
643.206	0.0167276
643.284	0.0165874
643.362	0.0164713
643.440	0.0165338
643.518	0.0165096
643.596	0.0164396
643.674	0.0165166
643.753	0.0165147
643.831	0.0165258
643.909	0.0164402
643.987	0.0163521
644.065	0.0165131
644.143	0.0165936
644.221	0.0165392
644.299	0.0166532
644.378	0.0165620
644.456	0.0164642
644.534	0.0166028
644.612	0.0165926
644.690	0.0165705
644.768	0.0164597
644.846	0.0164479
644.924	0.0164295
645.003	0.0164224
645.081	0.0164656
645.159	0.0165379
645.237	0.0165121
645.315	0.0165743
645.393	0.0166651
645.471	0.0165583
645.549	0.0164921
645.628	0.0164043
645.706	0.0164976
645.784	0.0165118
645.862	0.0166203
645.940	0.0163412
646.018	0.0164059
646.096	0.0165468
646.174	0.0165182
646.253	0.0165246
646.331	0.0164203
646.409	0.0164275
646.487	0.0164970
646.565	0.0164212
646.643	0.0163732
646.721	0.0165380
646.799	0.0165551
646.878	0.0166278
646.956	0.0164497
647.034	0.0165749
647.112	0.0165682
647.190	0.0166582
647.268	0.0164603
647.346	0.0165446
647.424	0.0166007
647.503	0.0164702
647.581	0.0163454
647.659	0.0164918
647.737	0.0164584
647.815	0.0164002
647.893	0.0164761
647.971	0.0164720
648.049	0.0164230
648.128	0.0164763
648.206	0.0164987
648.284	0.0165406
648.362	0.0165660
648.440	0.0164656
648.518	0.0165338
648.596	0.0164601
648.674	0.0163340
648.753	0.0163622
648.831	0.0166080
648.909	0.0164989
648.987	0.0164536
649.065	0.0165335
649.143	0.0164479
649.221	0.0164604
649.299	0.0164374
649.378	0.0164933
649.456	0.0164326
649.534	0.0164274
649.612	0.0164301
649.690	0.0164836
649.768	0.0163820
649.846	0.0164806
649.924	0.0165118
650.003	0.0165665
650.081	0.0165643
650.159	0.0164761
650.237	0.0165167
650.315	0.0164397
650.393	0.0164877
650.471	0.0165152
650.549	0.0165305
650.628	0.0165544
650.706	0.0164188
650.784	0.0164403
650.862	0.0163719
650.940	0.0163746
651.018	0.0164902
651.096	0.0165130
651.174	0.0166584
651.253	0.0165350
651.331	0.0164749
651.409	0.0164421
651.487	0.0164906
651.565	0.0164339
651.643	0.0165021
651.721	0.0165807
651.799	0.0166333
651.878	0.0163864
651.956	0.0164890
652.034	0.0164594
652.112	0.0164145
652.190	0.0164806
652.268	0.0165353
652.346	0.0165191
652.424	0.0163506
652.503	0.0163943
652.581	0.0163837
652.659	0.0164080
652.737	0.0164556
652.815	0.0165402
652.893	0.0165268
652.971	0.0164664
653.049	0.0164405
653.128	0.0164644
653.206	0.0162871
653.284	0.0164807
653.362	0.0164684
653.440	0.0163824
653.518	0.0163699
653.596	0.0164044
653.674	0.0165697
653.753	0.0164978
653.831	0.0165599
653.909	0.0164544
653.987	0.0163772
654.065	0.0163806
654.143	0.0163749
654.221	0.0164520
654.299	0.0163787
654.378	0.0165085
654.456	0.0165293
654.534	0.0164604
654.612	0.0164594
654.690	0.0164001
654.768	0.0164138
654.846	0.0164928
654.924	0.0164603
655.003	0.0164516
655.081	0.0164123
655.159	0.0164289
655.237	0.0165643
655.315	0.0164057
655.393	0.0162957
655.471	0.0164480
655.549	0.0165748
655.628	0.0164811
655.706	0.0167093
655.784	0.0166579
655.862	0.0165096
655.940	0.0164510
656.018	0.0164738
656.096	0.0164613
656.174	0.0166050
656.253	0.0165997
656.331	0.0165304
656.409	0.0163540
656.487	0.0164667
656.565	0.0166063
656.643	0.0165957
656.721	0.0164748
656.799	0.0165064
656.878	0.0164674
656.956	0.0166119
657.034	0.0165537
657.112	0.0163949
657.190	0.0165614
657.268	0.0165724
657.346	0.0164514
657.424	0.0165555
657.503	0.0165164
657.581	0.0163477
657.659	0.0163786
657.737	0.0165719
657.815	0.0165099
657.893	0.0165041
657.971	0.0164591
658.049	0.0164505
658.128	0.0164982
658.206	0.0165068
658.284	0.0164286
658.362	0.0164871
658.440	0.0165625
658.518	0.0166193
658.596	0.0165457
658.674	0.0165771
658.753	0.0163816
658.831	0.0164639
658.909	0.0166254
658.987	0.0163984
659.065	0.0163886
659.143	0.0164139
659.221	0.0164046
659.299	0.0164604
659.378	0.0164928
659.456	0.0164243
659.534	0.0163358
659.612	0.0165839
659.690	0.0163223
659.768	0.0164528
659.846	0.0164645
659.924	0.0165559
660.003	0.0163905
660.081	0.0165269
660.159	0.0164700
660.237	0.0164606
660.315	0.0164433
660.393	0.0164539
660.471	0.0166144
660.549	0.0164342
660.628	0.0165252
660.706	0.0165672
660.784	0.0163713
660.862	0.0163432
660.940	0.0165884
661.018	0.0164851
661.096	0.0165378
661.174	0.0164234
661.253	0.0164897
661.331	0.0164644
661.409	0.0164860
661.487	0.0163467
661.565	0.0165205
661.643	0.0165096
661.721	0.0165015
661.799	0.0165125
661.878	0.0164659
661.956	0.0166332
662.034	0.0164540
662.112	0.0165097
662.190	0.0164398
662.268	0.0165479
662.346	0.0165355
662.424	0.0163149
662.503	0.0164977
662.581	0.0164662
662.659	0.0165988
662.737	0.0163574
662.815	0.0163394
662.893	0.0165314
662.971	0.0164948
663.049	0.0163627
663.128	0.0163743
663.206	0.0165708
663.284	0.0164877
663.362	0.0164228
663.440	0.0164674
663.518	0.0166068
663.596	0.0164387
663.674	0.0164116
663.753	0.0164489
663.831	0.0164676
663.909	0.0164341
663.987	0.0164330
664.065	0.0165665
664.143	0.0164325
664.221	0.0164086
664.299	0.0164336
664.378	0.0165334
664.456	0.0164591
664.534	0.0165630
664.612	0.0165356
664.690	0.0164435
664.768	0.0164104
664.846	0.0164024
664.924	0.0163645
665.003	0.0164215
665.081	0.0164996
665.159	0.0165207
665.237	0.0165057
665.315	0.0165759
665.393	0.0164236
665.471	0.0164882
665.549	0.0164996
665.628	0.0164541
665.706	0.0164869
665.784	0.0164588
665.862	0.0165334
665.940	0.0165377
666.018	0.0163941
666.096	0.0164176
666.174	0.0164778
666.253	0.0165242
666.331	0.0165970
666.409	0.0164686
666.487	0.0164617
666.565	0.0164954
666.643	0.0165510
666.721	0.0164604
666.799	0.0164825
666.878	0.0164879
666.956	0.0164863
667.034	0.0164549
667.112	0.0163950
667.190	0.0164790
667.268	0.0165217
667.346	0.0166679
667.424	0.0164384
667.503	0.0164928
667.581	0.0164372
667.659	0.0164114
667.737	0.0164525
667.815	0.0165345
667.893	0.0165665
667.971	0.0165186
668.049	0.0165508
668.128	0.0164462
668.206	0.0164890
668.284	0.0164692
668.362	0.0163912
668.440	0.0165601
668.518	0.0166193
668.596	0.0165352
668.674	0.0164645
668.753	0.0163291
668.831	0.0163519
668.909	0.0164621
668.987	0.0164168
669.065	0.0164341
669.143	0.0165393
669.221	0.0164555
669.299	0.0165347
669.378	0.0165640
669.456	0.0164186
669.534	0.0165261
669.612	0.0163376
669.690	0.0164890
669.768	0.0164593
669.846	0.0166608
669.924	0.0164714
670.003	0.0164336
670.081	0.0165138
670.159	0.0164998
670.237	0.0163730
670.315	0.0164626
670.393	0.0165514
670.471	0.0165617
670.549	0.0165240
670.628	0.0165105
670.706	0.0164161
670.784	0.0165062
670.862	0.0166016
670.940	0.0165264
671.018	0.0165156
671.096	0.0166558
671.174	0.0165301
671.253	0.0164282
671.331	0.0164771
671.409	0.0164597
671.487	0.0165932
671.565	0.0163516
671.643	0.0164945
671.721	0.0164836
671.799	0.0164012
671.878	0.0165772
671.956	0.0165619
672.034	0.0165126
672.112	0.0164104
672.190	0.0165086
672.268	0.0166099
672.346	0.0164974
672.424	0.0163756
672.503	0.0164873
672.581	0.0164471
672.659	0.0166384
672.737	0.0166245
672.815	0.0164098
672.893	0.0165241
672.971	0.0163637
673.049	0.0165014
673.128	0.0165159
673.206	0.0164175
673.284	0.0166335
673.362	0.0166227
673.440	0.0164532
673.518	0.0165245
673.596	0.0166850
673.674	0.0165181
673.753	0.0163462
673.831	0.0166101
673.909	0.0164985
673.987	0.0164790
674.065	0.0165717
674.143	0.0163599
674.221	0.0166264
674.299	0.0165498
674.378	0.0164561
674.456	0.0164314
674.534	0.0165467
674.612	0.0165524
674.690	0.0164523
674.768	0.0164890
674.846	0.0166264
674.924	0.0165044
675.003	0.0164385
675.081	0.0166694
675.159	0.0166439
675.237	0.0163331
675.315	0.0165947
675.393	0.0166360
675.471	0.0166250
675.549	0.0165760
675.628	0.0164098
675.706	0.0164253
675.784	0.0163740
675.862	0.0166122
675.940	0.0164928
676.018	0.0163898
676.096	0.0164470
676.174	0.0164350
676.253	0.0164479
676.331	0.0163651
676.409	0.0164121
676.487	0.0165588
676.565	0.0165397
676.643	0.0164254
676.721	0.0163773
676.799	0.0166827
676.878	0.0165525
676.956	0.0165943
677.034	0.0164497
677.112	0.0164905
677.190	0.0164099
677.268	0.0164786
677.346	0.0165437
677.424	0.0165186
677.503	0.0165115
677.581	0.0165567
677.659	0.0165592
677.737	0.0164577
677.815	0.0164458
677.893	0.0163593
677.971	0.0166385
678.049	0.0165739
678.128	0.0165519
678.206	0.0164529
678.284	0.0164503
678.362	0.0164278
678.440	0.0163854
678.518	0.0166090
678.596	0.0164723
678.674	0.0163576
678.753	0.0165536
678.831	0.0165726
678.909	0.0165466
678.987	0.0165978
679.065	0.0165141
679.143	0.0163229
679.221	0.0165520
679.299	0.0165558
679.378	0.0165803
679.456	0.0165714
679.534	0.0165999
679.612	0.0165512
679.690	0.0163914
679.768	0.0165100
679.846	0.0165671
679.924	0.0166391
680.003	0.0165439
680.081	0.0164746
680.159	0.0164565
680.237	0.0165266
680.315	0.0165853
680.393	0.0164384
680.471	0.0165086
680.549	0.0165742
680.628	0.0165596
680.706	0.0164960
680.784	0.0163268
680.862	0.0165306
680.940	0.0165257
681.018	0.0166399
681.096	0.0165216
681.174	0.0164545
681.253	0.0166686
681.331	0.0165318
681.409	0.0164215
681.487	0.0166523
681.565	0.0165034
681.643	0.0165668
681.721	0.0165849
681.799	0.0164230
681.878	0.0165282
681.956	0.0165188
682.034	0.0165184
682.112	0.0164558
682.190	0.0164921
682.268	0.0163692
682.346	0.0165817
682.424	0.0165871
682.503	0.0165318
682.581	0.0165298
682.659	0.0165913
682.737	0.0166695
682.815	0.0164260
682.893	0.0164619
682.971	0.0166241
683.049	0.0163939
683.128	0.0165693
683.206	0.0164394
683.284	0.0165609
683.362	0.0163476
683.440	0.0165759
683.518	0.0165524
683.596	0.0164899
683.674	0.0165144
683.753	0.0164346
683.831	0.0165320
683.909	0.0166564
683.987	0.0165194
684.065	0.0165358
684.143	0.0165511
684.221	0.0165129
684.299	0.0164704
684.378	0.0165882
684.456	0.0166235
684.534	0.0165063
684.612	0.0162459
684.690	0.0165019
684.768	0.0164808
684.846	0.0163913
684.924	0.0165936
685.003	0.0164664
685.081	0.0164150
685.159	0.0164761
685.237	0.0165868
685.315	0.0166192
685.393	0.0164799
685.471	0.0165096
685.549	0.0164570
685.628	0.0166579
685.706	0.0166231
685.784	0.0165057
685.862	0.0164255
685.940	0.0165370
686.018	0.0164344
686.096	0.0166424
686.174	0.0164614
686.253	0.0165009
686.331	0.0165390
686.409	0.0165764
686.487	0.0164618
686.565	0.0165481
686.643	0.0164839
686.721	0.0164103
686.799	0.0165155
686.878	0.0165662
686.956	0.0165265
687.034	0.0163478
687.112	0.0164632
687.190	0.0166366
687.268	0.0165008
687.346	0.0165820
687.424	0.0164143
687.503	0.0165341
687.581	0.0165625
687.659	0.0165124
687.737	0.0164676
687.815	0.0164337
687.893	0.0164182
687.971	0.0165744
688.049	0.0167384
688.128	0.0164902
688.206	0.0164507
688.284	0.0165263
688.362	0.0163071
688.440	0.0163654
688.518	0.0165014
688.596	0.0165391
688.674	0.0164733
688.753	0.0165305
688.831	0.0164674
688.909	0.0164264
688.987	0.0165283
689.065	0.0164297
689.143	0.0165405
689.221	0.0165086
689.299	0.0165170
689.378	0.0164291
689.456	0.0164231
689.534	0.0166403
689.612	0.0165716
689.690	0.0164915
689.768	0.0164370
689.846	0.0165260
689.924	0.0165697
690.003	0.0164109
690.081	0.0164143
690.159	0.0164791
690.237	0.0166014
690.315	0.0165128
690.393	0.0166990
690.471	0.0165012
690.549	0.0164511
690.628	0.0163931
690.706	0.0166680
690.784	0.0165710
690.862	0.0164577
690.940	0.0164671
691.018	0.0165646
691.096	0.0164130
691.174	0.0164741
691.253	0.0164004
691.331	0.0165553
691.409	0.0164922
691.487	0.0164188
691.565	0.0165497
691.643	0.0163882
691.721	0.0164464
691.799	0.0164941
691.878	0.0165244
691.956	0.0165160
692.034	0.0165088
692.112	0.0164333
692.190	0.0164932
692.268	0.0165182
692.346	0.0165143
692.424	0.0164455
692.503	0.0164227
692.581	0.0163715
692.659	0.0166379
692.737	0.0165957
692.815	0.0166290
692.893	0.0165167
692.971	0.0164336
693.049	0.0165353
693.128	0.0165295
693.206	0.0165821
693.284	0.0165121
693.362	0.0165150
693.440	0.0164541
693.518	0.0165331
693.596	0.0164945
693.674	0.0164266
693.753	0.0164825
693.831	0.0166762
693.909	0.0164833
693.987	0.0163940
694.065	0.0165586
694.143	0.0165198
694.221	0.0166254
694.299	0.0165000
694.378	0.0163441
694.456	0.0165637
694.534	0.0164686
694.612	0.0165643
694.690	0.0164774
694.768	0.0166007
694.846	0.0164668
694.924	0.0165413
695.003	0.0164854
695.081	0.0165252
695.159	0.0164622
695.237	0.0166560
695.315	0.0165562
695.393	0.0164417
695.471	0.0164388
695.549	0.0164542
695.628	0.0164172
695.706	0.0164597
695.784	0.0165537
695.862	0.0164792
695.940	0.0166160
696.018	0.0165217
696.096	0.0165060
696.174	0.0164780
696.253	0.0164744
696.331	0.0164951
696.409	0.0165255
696.487	0.0164822
696.565	0.0164915
696.643	0.0165696
696.721	0.0165833
696.799	0.0165430
696.878	0.0165479
696.956	0.0165000
697.034	0.0165223
697.112	0.0164608
697.190	0.0166673
697.268	0.0166006
697.346	0.0165488
697.424	0.0164523
697.503	0.0164665
697.581	0.0165949
697.659	0.0164252
697.737	0.0165449
697.815	0.0166369
697.893	0.0166104
697.971	0.0164915
698.049	0.0165126
698.128	0.0165253
698.206	0.0164870
698.284	0.0165486
698.362	0.0166744
698.440	0.0166351
698.518	0.0166292
698.596	0.0163908
698.674	0.0165305
698.753	0.0166119
698.831	0.0164995
698.909	0.0165327
698.987	0.0164783
699.065	0.0165025
699.143	0.0165129
699.221	0.0165496
699.299	0.0164060
699.378	0.0163835
699.456	0.0165421
699.534	0.0164780
699.612	0.0165938
699.690	0.0164442
699.768	0.0165245
699.846	0.0165511
699.924	0.0165211
700.003	0.0166447
700.081	0.0165933
700.159	0.0164301
700.237	0.0164626
700.315	0.0168085
700.393	0.0166162
700.471	0.0164691
700.549	0.0164891
700.628	0.0165006
700.706	0.0165706
700.784	0.0164872
700.862	0.0164259
700.940	0.0163525
701.018	0.0165822
701.096	0.0165144
701.174	0.0164071
701.253	0.0165059
701.331	0.0165202
701.409	0.0163981
701.487	0.0165911
701.565	0.0163784
701.643	0.0163911
701.721	0.0166256
701.799	0.0165584
701.878	0.0165728
701.956	0.0164439
702.034	0.0164553
702.112	0.0164569
702.190	0.0165495
702.268	0.0165199
702.346	0.0164174
702.424	0.0165611
702.503	0.0164432
702.581	0.0164561
702.659	0.0164365
702.737	0.0164452
702.815	0.0165038
702.893	0.0164429
702.971	0.0165573
703.049	0.0165121
703.128	0.0165190
703.206	0.0163919
703.284	0.0166039
703.362	0.0165405
703.440	0.0165598
703.518	0.0165734
703.596	0.0165293
703.674	0.0165437
703.753	0.0163618
703.831	0.0164981
703.909	0.0164651
703.987	0.0164030
704.065	0.0166368
704.143	0.0165068
704.221	0.0163484
704.299	0.0165202
704.378	0.0166259
704.456	0.0166253
704.534	0.0164393
704.612	0.0165170
704.690	0.0164542
704.768	0.0164894
704.846	0.0165240
704.924	0.0165717
705.003	0.0167558
705.081	0.0165167
705.159	0.0165506
705.237	0.0165077
705.315	0.0165247
705.393	0.0164974
705.471	0.0165188
705.549	0.0166326
705.628	0.0165424
705.706	0.0163843
705.784	0.0164642
705.862	0.0165652
705.940	0.0164286
706.018	0.0164806
706.096	0.0164109
706.174	0.0164466
706.253	0.0164778
706.331	0.0164379
706.409	0.0164739
706.487	0.0164339
706.565	0.0164886
706.643	0.0165372
706.721	0.0165209
706.799	0.0165019
706.878	0.0164675
706.956	0.0165780
707.034	0.0166679
707.112	0.0165623
707.190	0.0164137
707.268	0.0164801
707.346	0.0166235
707.424	0.0164868
707.503	0.0164510
707.581	0.0164965
707.659	0.0164068
707.737	0.0165018
707.815	0.0164609
707.893	0.0165127
707.971	0.0165114
708.049	0.0165761
708.128	0.0165157
708.206	0.0165464
708.284	0.0164146
708.362	0.0165165
708.440	0.0165024
708.518	0.0165218
708.596	0.0164258
708.674	0.0165795
708.753	0.0165178
708.831	0.0164024
708.909	0.0165077
708.987	0.0165682
709.065	0.0164501
709.143	0.0165125
709.221	0.0165146
709.299	0.0165859
709.378	0.0165461
709.456	0.0164458
709.534	0.0164754
709.612	0.0166622
709.690	0.0164464
709.768	0.0164483
709.846	0.0164446
709.924	0.0165096
710.003	0.0163728
710.081	0.0164294
710.159	0.0163914
710.237	0.0162307
710.315	0.0164916
710.393	0.0163577
710.471	0.0164942
710.549	0.0165422
710.628	0.0163586
710.706	0.0164076
710.784	0.0164262
710.862	0.0164987
710.940	0.0164998
711.018	0.0164273
711.096	0.0163580
711.174	0.0164275
711.253	0.0164994
711.331	0.0163997
711.409	0.0165101
711.487	0.0165775
711.565	0.0165524
711.643	0.0165853
711.721	0.0165186
711.799	0.0165225
711.878	0.0165933
711.956	0.0166193
712.034	0.0165852
712.112	0.0165647
712.190	0.0166067
712.268	0.0166579
712.346	0.0166000
712.424	0.0165479
712.503	0.0166738
712.581	0.0167870
712.659	0.0166684
712.737	0.0165887
712.815	0.0166830
712.893	0.0167664
712.971	0.0166380
713.049	0.0165720
713.128	0.0165688
713.206	0.0166751
713.284	0.0165633
713.362	0.0166087
713.440	0.0166533
713.518	0.0165198
713.596	0.0163439
713.674	0.0164713
713.753	0.0165048
713.831	0.0162663
713.909	0.0163608
713.987	0.0165072
714.065	0.0163862
714.143	0.0163827
714.221	0.0164448
714.299	0.0165234
714.378	0.0163892
714.456	0.0164738
714.534	0.0164145
714.612	0.0163637
714.690	0.0164172
714.768	0.0163114
714.846	0.0164391
714.924	0.0164635
715.003	0.0165444
715.081	0.0165649
715.159	0.0165118
715.237	0.0165479
715.315	0.0165207
715.393	0.0165690
715.471	0.0165098
715.549	0.0163831
715.628	0.0164376
715.706	0.0166412
715.784	0.0165125
715.862	0.0163673
715.940	0.0164499
716.018	0.0163942
716.096	0.0164904
716.174	0.0163864
716.253	0.0165446
716.331	0.0163967
716.409	0.0162888
716.487	0.0164169
716.565	0.0162667
716.643	0.0163033
716.721	0.0163205
716.799	0.0162257
716.878	0.0162685
716.956	0.0163744
717.034	0.0162855
717.112	0.0162556
717.190	0.0162819
717.268	0.0164249
717.346	0.0164824
717.424	0.0165321
717.503	0.0166646
717.581	0.0168822
717.659	0.0170157
717.737	0.0172516
717.815	0.0170618
717.893	0.0171428
717.971	0.0173473
718.049	0.0173330
718.128	0.0173221
718.206	0.0170642
718.284	0.0170026
718.362	0.0169888
718.440	0.0168806
718.518	0.0165910
718.596	0.0163622
718.674	0.0159721
718.753	0.0157730
718.831	0.0157241
718.909	0.0154557
718.987	0.0151991
719.065	0.0151860
719.143	0.0150256
719.221	0.0151849
719.299	0.0150106
719.378	0.0152086
719.456	0.0153240
719.534	0.0155499
719.612	0.0157179
719.690	0.0160078
719.768	0.0161918
719.846	0.0166625
719.924	0.0170143
720.003	0.0172884
720.081	0.0174940
720.159	0.0176768
720.237	0.0179749
720.315	0.0182559
720.393	0.0183322
720.471	0.0184643
720.549	0.0185239
720.628	0.0185685
720.706	0.0185461
720.784	0.0184633
720.862	0.0182836
720.940	0.0180390
721.018	0.0178500
721.096	0.0176601
721.174	0.0172134
721.253	0.0168352
721.331	0.0162526
721.409	0.0158913
721.487	0.0153514
721.565	0.0149171
721.643	0.0144178
721.721	0.0138894
721.799	0.0136607
721.878	0.0135525
721.956	0.0131548
722.034	0.0133215
722.112	0.0135058
722.190	0.0136330
722.268	0.0138412
722.346	0.0142272
722.424	0.0145766
722.503	0.0149706
722.581	0.0156357
722.659	0.0160247
722.737	0.0166358
722.815	0.0172935
722.893	0.0179797
722.971	0.0186829
723.049	0.0191821
723.128	0.0196122
723.206	0.0199585
723.284	0.0201469
723.362	0.0203131
723.440	0.0201621
723.518	0.0200998
723.596	0.0197867
723.674	0.0194704
723.753	0.0191100
723.831	0.0186194
723.909	0.0182151
723.987	0.0178288
724.065	0.0174520
724.143	0.0171304
724.221	0.0166898
724.299	0.0161705
724.378	0.0157968
724.456	0.0153144
724.534	0.0148413
724.612	0.0143304
724.690	0.0138759
724.768	0.0135123
724.846	0.0129594
724.924	0.0126104
725.003	0.0123934
725.081	0.0124379
725.159	0.0124319
725.237	0.0126038
725.315	0.0129750
725.393	0.0132220
725.471	0.0137482
725.549	0.0143061
725.628	0.0148820
725.706	0.0156753
725.784	0.0166441
725.862	0.0173950
725.940	0.0180776
726.018	0.0188832
726.096	0.0194180
726.174	0.0199449
726.253	0.0203432
726.331	0.0205735
726.409	0.0208157
726.487	0.0206351
726.565	0.0204984
726.643	0.0201202
726.721	0.0196907
726.799	0.0192817
726.878	0.0188336
726.956	0.0184128
727.034	0.0178648
727.112	0.0172424
727.190	0.0166811
727.268	0.0162402
727.346	0.0157481
727.424	0.0153584
727.503	0.0150315
727.581	0.0145301
727.659	0.0141240
727.737	0.0138224
727.815	0.0136127
727.893	0.0133923
727.971	0.0135052
728.049	0.0137365
728.128	0.0137260
728.206	0.0138757
728.284	0.0142437
728.362	0.0146179
728.440	0.0149167
728.518	0.0152737
728.596	0.0154886
728.674	0.0159893
728.753	0.0161674
728.831	0.0166061
728.909	0.0168877
728.987	0.0169295
729.065	0.0172974
729.143	0.0173896
729.221	0.0174987
729.299	0.0175790
729.378	0.0175069
729.456	0.0175757
729.534	0.0176419
729.612	0.0175069
729.690	0.0175087
729.768	0.0176458
729.846	0.0175582
729.924	0.0176748
730.003	0.0179768
730.081	0.0179347
730.159	0.0179675
730.237	0.0179484
730.315	0.0180574
730.393	0.0181038
730.471	0.0179842
730.549	0.0178014
730.628	0.0176620
730.706	0.0172807
730.784	0.0170188
730.862	0.0166710
730.940	0.0163747
731.018	0.0160249
731.096	0.0157034
731.174	0.0154369
731.253	0.0152631
731.331	0.0148870
731.409	0.0147878
731.487	0.0147599
731.565	0.0145559
731.643	0.0147720
731.721	0.0148693
731.799	0.0150477
731.878	0.0151952
731.956	0.0154716
732.034	0.0157142
732.112	0.0159109
732.190	0.0160562
732.268	0.0163417
732.346	0.0162878
732.424	0.0164185
732.503	0.0165439
732.581	0.0166565
732.659	0.0167079
732.737	0.0165870
732.815	0.0164204
732.893	0.0165118
732.971	0.0166660
733.049	0.0166833
733.128	0.0166540
733.206	0.0166279
733.284	0.0166824
733.362	0.0167274
733.440	0.0168459
733.518	0.0168097
733.596	0.0169638
733.674	0.0170856
733.753	0.0171721
733.831	0.0171748
733.909	0.0172742
733.987	0.0172847
734.065	0.0174627
734.143	0.0174768
734.221	0.0174583
734.299	0.0175063
734.378	0.0176791
734.456	0.0176578
734.534	0.0176016
734.612	0.0175954
734.690	0.0176007
734.768	0.0173303
734.846	0.0173947
734.924	0.0173791
735.003	0.0171986
735.081	0.0168819
735.159	0.0167657
735.237	0.0165282
735.315	0.0163339
735.393	0.0160533
735.471	0.0157499
735.549	0.0156915
735.628	0.0154398
735.706	0.0152006
735.784	0.0151553
735.862	0.0149380
735.940	0.0147952
736.018	0.0150091
736.096	0.0148312
736.174	0.0147979
736.253	0.0152086
736.331	0.0152657
736.409	0.0154967
736.487	0.0155789
736.565	0.0157717
736.643	0.0161193
736.721	0.0162844
736.799	0.0164361
736.878	0.0167366
736.956	0.0168462
737.034	0.0168194
737.112	0.0168913
737.190	0.0169788
737.268	0.0169952
737.346	0.0171446
737.424	0.0169594
737.503	0.0168355
737.581	0.0168729
737.659	0.0167468
737.737	0.0166053
737.815	0.0165892
737.893	0.0164817
737.971	0.0163124
738.049	0.0162991
738.128	0.0164225
738.206	0.0164030
738.284	0.0164471
738.362	0.0165094
738.440	0.0167027
738.518	0.0168510
738.596	0.0170663
738.674	0.0172527
738.753	0.0172795
738.831	0.0172461
738.909	0.0174390
738.987	0.0173870
739.065	0.0172890
739.143	0.0172375
739.221	0.0169803
739.299	0.0169344
739.378	0.0167210
739.456	0.0164709
739.534	0.0163517
739.612	0.0163013
739.690	0.0160606
739.768	0.0160935
739.846	0.0158366
739.924	0.0158868
740.003	0.0159089
740.081	0.0158961
740.159	0.0159921
740.237	0.0160979
740.315	0.0161691
740.393	0.0162933
740.471	0.0162548
740.549	0.0163568
740.628	0.0166351
740.706	0.0165776
740.784	0.0167785
740.862	0.0167951
740.940	0.0169325
741.018	0.0168845
741.096	0.0167357
741.174	0.0168019
741.253	0.0168304
741.331	0.0166899
741.409	0.0164941
741.487	0.0164530
741.565	0.0162263
741.643	0.0160944
741.721	0.0160348
741.799	0.0159228
741.878	0.0158492
741.956	0.0156299
742.034	0.0155843
742.112	0.0155260
742.190	0.0155050
742.268	0.0155991
742.346	0.0156568
742.424	0.0156128
742.503	0.0157576
742.581	0.0158852
742.659	0.0159596
742.737	0.0161913
742.815	0.0163081
742.893	0.0164912
742.971	0.0165768
743.049	0.0167039
743.128	0.0167657
743.206	0.0170059
743.284	0.0171454
743.362	0.0171396
743.440	0.0172414
743.518	0.0172753
743.596	0.0174280
743.674	0.0174280
743.753	0.0176585
743.831	0.0176186
743.909	0.0176347
743.987	0.0177608
744.065	0.0176179
744.143	0.0175229
744.221	0.0175335
744.299	0.0176929
744.378	0.0176204
744.456	0.0173254
744.534	0.0173862
744.612	0.0170917
744.690	0.0170660
744.768	0.0170066
744.846	0.0167618
744.924	0.0164485
745.003	0.0164128
745.081	0.0161459
745.159	0.0159352
745.237	0.0157736
745.315	0.0155109
745.393	0.0154117
745.471	0.0154631
745.549	0.0150002
745.628	0.0151463
745.706	0.0152104
745.784	0.0153249
745.862	0.0155064
745.940	0.0155268
746.018	0.0156537
746.096	0.0158758
746.174	0.0160850
746.253	0.0161404
746.331	0.0162219
746.409	0.0164122
746.487	0.0164348
746.565	0.0166980
746.643	0.0167815
746.721	0.0168429
746.799	0.0168387
746.878	0.0168058
746.956	0.0169714
747.034	0.0169187
747.112	0.0168473
747.190	0.0168222
747.268	0.0166898
747.346	0.0167071
747.424	0.0166786
747.503	0.0166763
747.581	0.0165329
747.659	0.0165223
747.737	0.0165462
747.815	0.0165402
747.893	0.0165491
747.971	0.0166395
748.049	0.0166140
748.128	0.0164594
748.206	0.0167045
748.284	0.0166817
748.362	0.0166123
748.440	0.0168131
748.518	0.0168134
748.596	0.0168104
748.674	0.0167615
748.753	0.0169527
748.831	0.0170248
748.909	0.0170335
748.987	0.0171080
749.065	0.0171210
749.143	0.0172300
749.221	0.0170391
749.299	0.0171518
749.378	0.0170699
749.456	0.0169368
749.534	0.0170586
749.612	0.0168310
749.690	0.0167104
749.768	0.0165186
749.846	0.0164960
749.924	0.0164396
750.003	0.0163258
750.081	0.0161509
750.159	0.0160484
750.237	0.0160332
750.315	0.0159196
750.393	0.0158654
750.471	0.0158446
750.549	0.0156913
750.628	0.0159107
750.706	0.0158152
750.784	0.0158034
750.862	0.0158656
750.940	0.0158795
751.018	0.0159261
751.096	0.0159880
751.174	0.0162936
751.253	0.0162131
751.331	0.0161463
751.409	0.0164252
751.487	0.0163586
751.565	0.0164365
751.643	0.0166290
751.721	0.0167271
751.799	0.0165220
751.878	0.0166376
751.956	0.0166601
752.034	0.0167636
752.112	0.0167999
752.190	0.0168006
752.268	0.0167570
752.346	0.0167559
752.424	0.0169193
752.503	0.0168016
752.581	0.0166899
752.659	0.0168126
752.737	0.0165996
752.815	0.0166236
752.893	0.0166227
752.971	0.0165373
753.049	0.0163853
753.128	0.0164615
753.206	0.0163007
753.284	0.0162701
753.362	0.0163908
753.440	0.0162780
753.518	0.0162594
753.596	0.0162965
753.674	0.0163651
753.753	0.0161884
753.831	0.0163641
753.909	0.0164804
753.987	0.0164799
754.065	0.0164877
754.143	0.0164653
754.221	0.0165514
754.299	0.0166425
754.378	0.0167181
754.456	0.0168523
754.534	0.0168097
754.612	0.0167285
754.690	0.0167484
754.768	0.0167452
754.846	0.0168329
754.924	0.0168250
755.003	0.0167699
755.081	0.0166533
755.159	0.0166167
755.237	0.0168230
755.315	0.0166470
755.393	0.0165318
755.471	0.0165795
755.549	0.0166055
755.628	0.0164591
755.706	0.0164552
755.784	0.0165273
755.862	0.0163747
755.940	0.0164928
756.018	0.0163615
756.096	0.0162756
756.174	0.0164356
756.253	0.0162852
756.331	0.0162959
756.409	0.0163921
756.487	0.0163800
756.565	0.0163644
756.643	0.0163563
756.721	0.0164909
756.799	0.0164630
756.878	0.0164331
756.956	0.0163488
757.034	0.0163500
757.112	0.0166181
757.190	0.0164812
757.268	0.0165057
757.346	0.0165955
757.424	0.0165051
757.503	0.0166913
757.581	0.0166982
757.659	0.0165617
757.737	0.0165460
757.815	0.0168037
757.893	0.0165849
757.971	0.0164228
758.049	0.0165982
758.128	0.0164011
758.206	0.0163433
758.284	0.0161140
758.362	0.0160777
758.440	0.0161639
758.518	0.0160704
758.596	0.0159447
758.674	0.0160168
758.753	0.0160741
758.831	0.0159396
758.909	0.0160393
758.987	0.0161610
759.065	0.0164079
759.143	0.0163556
759.221	0.0165241
759.299	0.0166652
759.378	0.0168597
759.456	0.0167835
759.534	0.0169813
759.612	0.0169210
759.690	0.0169782
759.768	0.0168826
759.846	0.0170763
759.924	0.0170379
760.003	0.0169682
760.081	0.0169624
760.159	0.0168419
760.237	0.0168597
760.315	0.0166497
760.393	0.0166821
760.471	0.0163995
760.549	0.0163112
760.628	0.0163797
760.706	0.0164081
760.784	0.0163679
760.862	0.0163271
760.940	0.0163227
761.018	0.0161703
761.096	0.0162366
761.174	0.0163332
761.253	0.0161684
761.331	0.0162739
761.409	0.0161447
761.487	0.0161836
761.565	0.0161570
761.643	0.0161884
761.721	0.0162321
761.799	0.0163771
761.878	0.0163595
761.956	0.0163653
762.034	0.0164974
762.112	0.0164999
762.190	0.0164272
762.268	0.0164947
762.346	0.0165945
762.424	0.0167081
762.503	0.0165240
762.581	0.0167460
762.659	0.0168318
762.737	0.0166830
762.815	0.0167421
762.893	0.0168708
762.971	0.0167280
763.049	0.0167385
763.128	0.0166953
763.206	0.0167324
763.284	0.0165264
763.362	0.0166044
763.440	0.0164858
763.518	0.0163924
763.596	0.0163438
763.674	0.0164241
763.753	0.0162784
763.831	0.0162686
763.909	0.0161427
763.987	0.0160741
764.065	0.0161458
764.143	0.0162012
764.221	0.0160763
764.299	0.0161898
764.378	0.0162498
764.456	0.0162241
764.534	0.0162003
764.612	0.0161794
764.690	0.0162351
764.768	0.0164894
764.846	0.0165513
764.924	0.0164696
765.003	0.0164706
765.081	0.0165088
765.159	0.0164944
765.237	0.0165247
765.315	0.0166081
765.393	0.0165794
765.471	0.0165693
765.549	0.0164596
765.628	0.0164935
765.706	0.0165202
765.784	0.0164271
765.862	0.0164651
765.940	0.0163773
766.018	0.0162242
766.096	0.0164110
766.174	0.0164708
766.253	0.0164822
766.331	0.0164439
766.409	0.0163799
766.487	0.0163689
766.565	0.0165369
766.643	0.0166132
766.721	0.0166427
766.799	0.0166792
766.878	0.0167470
766.956	0.0166203
767.034	0.0164998
767.112	0.0166584
767.190	0.0166486
767.268	0.0167032
767.346	0.0166550
767.424	0.0165569
767.503	0.0163770
767.581	0.0165251
767.659	0.0163477
767.737	0.0163967
767.815	0.0162901
767.893	0.0162310
767.971	0.0165587
768.049	0.0165472
768.128	0.0164182
768.206	0.0163844
768.284	0.0166830
768.362	0.0165692
768.440	0.0165271
768.518	0.0167550
768.596	0.0167310
768.674	0.0166968
768.753	0.0166978
768.831	0.0164986
768.909	0.0166462
768.987	0.0165646
769.065	0.0164841
769.143	0.0163390
769.221	0.0164282
769.299	0.0163984
769.378	0.0162862
769.456	0.0163555
769.534	0.0162124
769.612	0.0162453
769.690	0.0162232
769.768	0.0160563
769.846	0.0160468
769.924	0.0160310
770.003	0.0161299
770.081	0.0161294
770.159	0.0161562
770.237	0.0161406
770.315	0.0162149
770.393	0.0162400
770.471	0.0163281
770.549	0.0163807
770.628	0.0164442
770.706	0.0166264
770.784	0.0167526
770.862	0.0166892
770.940	0.0167168
771.018	0.0165950
771.096	0.0167385
771.174	0.0167948
771.253	0.0168696
771.331	0.0167831
771.409	0.0168211
771.487	0.0168285
771.565	0.0167168
771.643	0.0168031
771.721	0.0166851
771.799	0.0166952
771.878	0.0167918
771.956	0.0166825
772.034	0.0168317
772.112	0.0165984
772.190	0.0166281
772.268	0.0167000
772.346	0.0167374
772.424	0.0167525
772.503	0.0167718
772.581	0.0169181
772.659	0.0168354
772.737	0.0168838
772.815	0.0169934
772.893	0.0165932
772.971	0.0165476
773.049	0.0166597
773.128	0.0165702
773.206	0.0163524
773.284	0.0164404
773.362	0.0163208
773.440	0.0161974
773.518	0.0161447
773.596	0.0161876
773.674	0.0161426
773.753	0.0160941
773.831	0.0159635
773.909	0.0160249
773.987	0.0161037
774.065	0.0162941
774.143	0.0161891
774.221	0.0162909
774.299	0.0163194
774.378	0.0163889
774.456	0.0165879
774.534	0.0164411
774.612	0.0163700
774.690	0.0163525
774.768	0.0165034
774.846	0.0165297
774.924	0.0164020
775.003	0.0164513
775.081	0.0165224
775.159	0.0167204
775.237	0.0165984
775.315	0.0166189
775.393	0.0166359
775.471	0.0166434
775.549	0.0166490
775.628	0.0167293
775.706	0.0167134
775.784	0.0166972
775.862	0.0166519
775.940	0.0166104
776.018	0.0164906
776.096	0.0164681
776.174	0.0164507
776.253	0.0163632
776.331	0.0163266
776.409	0.0164316
776.487	0.0164659
776.565	0.0163201
776.643	0.0165005
776.721	0.0162616
776.799	0.0164284
776.878	0.0164703
776.956	0.0165670
777.034	0.0164051
777.112	0.0165651
777.190	0.0164672
777.268	0.0165083
777.346	0.0166489
777.424	0.0165704
777.503	0.0165413
777.581	0.0164149
777.659	0.0164292
777.737	0.0164771
777.815	0.0165034
777.893	0.0164612
777.971	0.0164150
778.049	0.0163990
778.128	0.0164143
778.206	0.0164460
778.284	0.0163775
778.362	0.0163420
778.440	0.0164222
778.518	0.0164661
778.596	0.0163302
778.674	0.0163519
778.753	0.0165871
778.831	0.0164119
778.909	0.0165572
778.987	0.0165704
779.065	0.0165009
779.143	0.0165589
779.221	0.0166068
779.299	0.0166924
779.378	0.0165637
779.456	0.0166100
779.534	0.0165685
779.612	0.0165813
779.690	0.0166455
779.768	0.0166981
779.846	0.0166167
779.924	0.0164619
780.003	0.0165737
780.081	0.0166676
780.159	0.0165136
780.237	0.0167029
780.315	0.0164449
780.393	0.0163951
780.471	0.0164710
780.549	0.0165395
780.628	0.0163355
780.706	0.0162020
780.784	0.0162505
780.862	0.0162945
780.940	0.0163144
781.018	0.0162836
781.096	0.0162786
781.174	0.0161512
781.253	0.0163044
781.331	0.0163461
781.409	0.0163943
781.487	0.0163920
781.565	0.0164733
781.643	0.0165244
781.721	0.0163576
781.799	0.0163839
781.878	0.0163377
781.956	0.0163668
782.034	0.0164294
782.112	0.0163082
782.190	0.0163400
782.268	0.0165163
782.346	0.0164825
782.424	0.0163651
782.503	0.0165132
782.581	0.0165713
782.659	0.0164783
782.737	0.0166074
782.815	0.0167051
782.893	0.0167027
782.971	0.0165488
783.049	0.0165704
783.128	0.0166917
783.206	0.0166826
783.284	0.0166521
783.362	0.0166515
783.440	0.0166702
783.518	0.0167023
783.596	0.0165995
783.674	0.0164837
783.753	0.0165199
783.831	0.0163771
783.909	0.0164745
783.987	0.0164946
784.065	0.0164631
784.143	0.0164799
784.221	0.0165238
784.299	0.0164546
784.378	0.0164560
784.456	0.0165473
784.534	0.0166631
784.612	0.0166380
784.690	0.0167085
784.768	0.0165726
784.846	0.0165861
784.924	0.0165210
785.003	0.0167059
785.081	0.0165770
785.159	0.0166158
785.237	0.0164917
785.315	0.0165364
785.393	0.0165131
785.471	0.0165729
785.549	0.0164957
785.628	0.0164590
785.706	0.0165077
785.784	0.0164071
785.862	0.0163844
785.940	0.0163895
786.018	0.0164173
786.096	0.0164950
786.174	0.0164842
786.253	0.0164713
786.331	0.0164260
786.409	0.0164801
786.487	0.0163794
786.565	0.0163981
786.643	0.0164483
786.721	0.0162962
786.799	0.0163741
786.878	0.0165157
786.956	0.0164572
787.034	0.0163549
787.112	0.0164485
787.190	0.0165098
787.268	0.0164363
787.346	0.0165470
787.424	0.0165181
787.503	0.0163757
787.581	0.0165683
787.659	0.0164700
787.737	0.0164568
787.815	0.0165638
787.893	0.0165905
787.971	0.0165257
788.049	0.0164634
788.128	0.0164058
788.206	0.0164149
788.284	0.0164063
788.362	0.0164261
788.440	0.0165648
788.518	0.0165916
788.596	0.0164594
788.674	0.0165025
788.753	0.0164574
788.831	0.0164938
788.909	0.0164864
788.987	0.0164077
789.065	0.0165001
789.143	0.0164220
789.221	0.0164319
789.299	0.0164594
789.378	0.0164875
789.456	0.0163917
789.534	0.0163973
789.612	0.0163839
789.690	0.0163249
789.768	0.0163802
789.846	0.0165333
789.924	0.0163750
790.003	0.0164024
790.081	0.0162733
790.159	0.0163712
790.237	0.0164891
790.315	0.0164875
790.393	0.0162850
790.471	0.0166557
790.549	0.0165221
790.628	0.0166138
790.706	0.0165681
790.784	0.0166173
790.862	0.0167139
790.940	0.0166589
791.018	0.0166139
791.096	0.0166360
791.174	0.0167656
791.253	0.0166103
791.331	0.0165295
791.409	0.0166001
791.487	0.0165365
791.565	0.0164548
791.643	0.0165398
791.721	0.0163501
791.799	0.0163900
791.878	0.0163671
791.956	0.0164554
792.034	0.0162851
792.112	0.0162765
792.190	0.0163655
792.268	0.0162631
792.346	0.0162260
792.424	0.0162494
792.503	0.0162705
792.581	0.0161576
792.659	0.0162740
792.737	0.0163289
792.815	0.0163332
792.893	0.0163027
792.971	0.0163833
793.049	0.0163831
793.128	0.0164112
793.206	0.0164697
793.284	0.0165038
793.362	0.0163555
793.440	0.0164301
793.518	0.0164867
793.596	0.0163246
793.674	0.0165181
793.753	0.0166079
793.831	0.0164642
793.909	0.0163607
793.987	0.0164698
794.065	0.0162827
794.143	0.0163662
794.221	0.0163737
794.299	0.0163774
794.378	0.0162431
794.456	0.0161768
794.534	0.0163403
794.612	0.0164316
794.690	0.0163580
794.768	0.0163512
794.846	0.0163592
794.924	0.0163947
795.003	0.0165836
795.081	0.0163780
795.159	0.0163630
795.237	0.0164147
795.315	0.0165543
795.393	0.0165361
795.471	0.0165734
795.549	0.0165241
795.628	0.0165468
795.706	0.0165421
795.784	0.0165581
795.862	0.0165215
795.940	0.0166335
796.018	0.0166584
796.096	0.0164503
796.174	0.0164375
796.253	0.0163948
796.331	0.0164082
796.409	0.0164098
796.487	0.0164119
796.565	0.0164815
796.643	0.0162792
796.721	0.0164289
796.799	0.0163631
796.878	0.0162787
796.956	0.0163888
797.034	0.0163564
797.112	0.0163428
797.190	0.0163181
797.268	0.0164102
797.346	0.0164875
797.424	0.0163912
797.503	0.0163846
797.581	0.0165150
797.659	0.0164982
797.737	0.0164249
797.815	0.0164814
797.893	0.0165676
797.971	0.0165791
798.049	0.0166158
798.128	0.0165485
798.206	0.0164743
798.284	0.0164597
798.362	0.0165746
798.440	0.0165056
798.518	0.0164954
798.596	0.0163434
798.674	0.0164672
798.753	0.0164148
798.831	0.0163416
798.909	0.0164812
798.987	0.0164311
799.065	0.0165494
799.143	0.0165969
799.221	0.0164017
799.299	0.0165984
799.378	0.0165767
799.456	0.0164174
799.534	0.0164980
799.612	0.0165637
799.690	0.0166127
799.768	0.0165073
799.846	0.0165180
799.924	0.0165140
800.003	0.0165862
800.081	0.0166000
800.159	0.0165437
800.237	0.0165152
800.315	0.0164043
800.393	0.0163123
800.471	0.0162385
800.549	0.0164047
800.628	0.0162866
800.706	0.0162286
800.784	0.0162185
800.862	0.0162530
800.940	0.0162120
801.018	0.0161152
801.096	0.0162400
801.174	0.0162735
801.253	0.0161750
801.331	0.0162613
801.409	0.0163030
801.487	0.0163982
801.565	0.0163128
801.643	0.0163573
801.721	0.0164763
801.799	0.0165710
801.878	0.0165628
801.956	0.0165076
802.034	0.0165009
802.112	0.0165878
802.190	0.0167165
802.268	0.0167624
802.346	0.0165960
802.424	0.0165639
802.503	0.0166846
802.581	0.0165646
802.659	0.0163927
802.737	0.0165928
802.815	0.0166011
802.893	0.0164018
802.971	0.0164326
803.049	0.0165312
803.128	0.0165102
803.206	0.0163217
803.284	0.0163901
803.362	0.0164354
803.440	0.0164487
803.518	0.0165125
803.596	0.0165010
803.674	0.0163650
803.753	0.0164255
803.831	0.0163295
803.909	0.0165450
803.987	0.0165678
804.065	0.0165538
804.143	0.0166886
804.221	0.0166644
804.299	0.0165510
804.378	0.0164500
804.456	0.0165546
804.534	0.0165656
804.612	0.0164753
804.690	0.0165712
804.768	0.0166917
804.846	0.0166222
804.924	0.0165195
805.003	0.0164818
805.081	0.0163870
805.159	0.0165598
805.237	0.0165437
805.315	0.0162005
805.393	0.0164281
805.471	0.0165225
805.549	0.0165486
805.628	0.0165612
805.706	0.0165523
805.784	0.0164889
805.862	0.0166531
805.940	0.0165373
806.018	0.0165238
806.096	0.0166039
806.174	0.0165078
806.253	0.0165329
806.331	0.0165139
806.409	0.0164787
806.487	0.0163630
806.565	0.0165749
806.643	0.0163809
806.721	0.0164216
806.799	0.0163931
806.878	0.0163301
806.956	0.0164030
807.034	0.0163149
807.112	0.0163078
807.190	0.0162865
807.268	0.0162770
807.346	0.0162749
807.424	0.0162846
807.503	0.0162709
807.581	0.0163051
807.659	0.0164311
807.737	0.0163696
807.815	0.0163463
807.893	0.0163529
807.971	0.0163517
808.049	0.0163755
808.128	0.0164503
808.206	0.0165169
808.284	0.0163661
808.362	0.0164288
808.440	0.0165679
808.518	0.0165401
808.596	0.0166737
808.674	0.0166180
808.753	0.0165128
808.831	0.0165778
808.909	0.0165013
808.987	0.0166402
809.065	0.0166582
809.143	0.0165897
809.221	0.0164803
809.299	0.0166329
809.378	0.0166570
809.456	0.0166031
809.534	0.0165052
809.612	0.0165423
809.690	0.0166908
809.768	0.0164462
809.846	0.0164160
809.924	0.0164806
810.003	0.0165922
810.081	0.0165732
810.159	0.0166325
810.237	0.0165749
810.315	0.0165140
810.393	0.0166881
810.471	0.0165982
810.549	0.0165982
810.628	0.0166467
810.706	0.0165880
810.784	0.0166663
810.862	0.0165970
810.940	0.0166153
811.018	0.0164302
811.096	0.0163126
811.174	0.0164431
811.253	0.0165694
811.331	0.0164982
811.409	0.0163716
811.487	0.0164523
811.565	0.0164259
811.643	0.0164765
811.721	0.0164250
811.799	0.0163061
811.878	0.0163442
811.956	0.0163789
812.034	0.0162667
812.112	0.0162949
812.190	0.0162516
812.268	0.0162399
812.346	0.0162306
812.424	0.0161849
812.503	0.0162659
812.581	0.0164141
812.659	0.0164082
812.737	0.0163181
812.815	0.0162341
812.893	0.0163267
812.971	0.0163826
813.049	0.0164639
813.128	0.0163788
813.206	0.0164578
813.284	0.0164663
813.362	0.0164416
813.440	0.0165487
813.518	0.0165083
813.596	0.0165844
813.674	0.0164389
813.753	0.0164027
813.831	0.0164452
813.909	0.0164624
813.987	0.0165009
814.065	0.0164853
814.143	0.0164754
814.221	0.0163667
814.299	0.0165263
814.378	0.0164929
814.456	0.0164870
814.534	0.0164449
814.612	0.0164249
814.690	0.0163860
814.768	0.0164764
814.846	0.0164713
814.924	0.0163995
815.003	0.0163063
815.081	0.0163686
815.159	0.0164154
815.237	0.0164252
815.315	0.0164551
815.393	0.0164075
815.471	0.0164079
815.549	0.0164275
815.628	0.0163614
815.706	0.0161983
815.784	0.0162712
815.862	0.0163440
815.940	0.0163185
816.018	0.0163224
816.096	0.0164795
816.174	0.0162679
816.253	0.0163400
816.331	0.0164493
816.409	0.0165019
816.487	0.0166527
816.565	0.0167757
816.643	0.0166120
816.721	0.0167288
816.799	0.0168939
816.878	0.0169499
816.956	0.0170000
817.034	0.0168775
817.112	0.0169036
817.190	0.0169030
817.268	0.0167939
817.346	0.0168880
817.424	0.0166769
817.503	0.0167313
817.581	0.0166930
817.659	0.0164674
817.737	0.0165543
817.815	0.0163371
817.893	0.0163130
817.971	0.0164257
818.049	0.0162523
818.128	0.0161371
818.206	0.0159771
818.284	0.0158464
818.362	0.0159156
818.440	0.0159629
818.518	0.0158121
818.596	0.0158031
818.674	0.0159417
818.753	0.0159835
818.831	0.0160418
818.909	0.0159100
818.987	0.0160390
819.065	0.0161297
819.143	0.0162691
819.221	0.0164114
819.299	0.0165007
819.378	0.0164301
819.456	0.0166518
819.534	0.0168684
819.612	0.0169073
819.690	0.0168910
819.768	0.0167103
819.846	0.0169863
819.924	0.0169300
820.003	0.0169289
820.081	0.0167822
820.159	0.0169189
820.237	0.0168200
820.315	0.0168023
820.393	0.0167535
820.471	0.0165261
820.549	0.0164838
820.628	0.0165620
820.706	0.0164997
820.784	0.0164473
820.862	0.0163372
820.940	0.0162709
821.018	0.0163137
821.096	0.0161382
821.174	0.0161608
821.253	0.0161597
821.331	0.0161290
821.409	0.0160445
821.487	0.0158377
821.565	0.0159915
821.643	0.0161312
821.721	0.0160171
821.799	0.0160630
821.878	0.0160783
821.956	0.0162772
822.034	0.0162136
822.112	0.0163013
822.190	0.0164407
822.268	0.0165165
822.346	0.0165073
822.424	0.0165431
822.503	0.0166856
822.581	0.0168089
822.659	0.0169608
822.737	0.0168915
822.815	0.0169148
822.893	0.0170142
822.971	0.0167976
823.049	0.0168438
823.128	0.0168491
823.206	0.0169336
823.284	0.0167681
823.362	0.0167767
823.440	0.0166899
823.518	0.0167227
823.596	0.0166020
823.674	0.0164505
823.753	0.0166151
823.831	0.0164547
823.909	0.0165013
823.987	0.0164541
824.065	0.0164321
824.143	0.0162061
824.221	0.0161957
824.299	0.0161540
824.378	0.0163764
824.456	0.0163448
824.534	0.0161340
824.612	0.0162839
824.690	0.0161976
824.768	0.0160287
824.846	0.0161923
824.924	0.0161514
825.003	0.0160928
825.081	0.0160791
825.159	0.0160152
825.237	0.0163092
825.315	0.0160707
825.393	0.0161726
825.471	0.0162207
825.549	0.0163677
825.628	0.0164130
825.706	0.0163522
825.784	0.0162287
825.862	0.0166544
825.940	0.0165625
826.018	0.0167075
826.096	0.0165177
826.174	0.0165385
826.253	0.0167504
826.331	0.0167149
826.409	0.0167294
826.487	0.0167212
826.565	0.0167412
826.643	0.0168865
826.721	0.0167484
826.799	0.0168966
826.878	0.0166940
826.956	0.0165144
827.034	0.0166205
827.112	0.0166540
827.190	0.0166571
827.268	0.0166434
827.346	0.0165642
827.424	0.0165479
827.503	0.0165292
827.581	0.0164265
827.659	0.0164640
827.737	0.0163772
827.815	0.0163109
827.893	0.0163667
827.971	0.0162788
828.049	0.0162728
828.128	0.0162645
828.206	0.0161939
828.284	0.0161851
828.362	0.0160701
828.440	0.0162312
828.518	0.0161061
828.596	0.0162796
828.674	0.0161987
828.753	0.0162364
828.831	0.0163351
828.909	0.0163486
828.987	0.0163432
829.065	0.0164639
829.143	0.0163467
829.221	0.0164744
829.299	0.0166225
829.378	0.0167112
829.456	0.0165179
829.534	0.0164828
829.612	0.0166451
829.690	0.0166389
829.768	0.0167219
829.846	0.0166772
829.924	0.0165930
830.003	0.0166699
830.081	0.0166427
830.159	0.0166267
830.237	0.0166531
830.315	0.0166235
830.393	0.0165382
830.471	0.0165545
830.549	0.0165783
830.628	0.0164477
830.706	0.0165196
830.784	0.0166391
830.862	0.0165031
830.940	0.0165279
831.018	0.0165036
831.096	0.0165049
831.174	0.0164162
831.253	0.0163441
831.331	0.0165020
831.409	0.0164407
831.487	0.0163622
831.565	0.0164113
831.643	0.0163418
831.721	0.0162778
831.799	0.0164236
831.878	0.0162948
831.956	0.0163491
832.034	0.0164651
832.112	0.0165051
832.190	0.0163653
832.268	0.0163937
832.346	0.0164149
832.424	0.0164077
832.503	0.0163847
832.581	0.0163757
832.659	0.0164105
832.737	0.0161564
832.815	0.0163037
832.893	0.0164519
832.971	0.0163740
833.049	0.0164747
833.128	0.0163624
833.206	0.0163398
833.284	0.0164969
833.362	0.0164719
833.440	0.0163011
833.518	0.0163172
833.596	0.0163768
833.674	0.0163268
833.753	0.0164326
833.831	0.0163754
833.909	0.0164915
833.987	0.0165015
834.065	0.0164923
834.143	0.0165425
834.221	0.0165597
834.299	0.0165230
834.378	0.0164541
834.456	0.0166932
834.534	0.0164989
834.612	0.0164355
834.690	0.0165932
834.768	0.0166999
834.846	0.0166940
834.924	0.0165401
835.003	0.0166077
835.081	0.0166043
835.159	0.0166135
835.237	0.0167155
835.315	0.0167073
835.393	0.0167117
835.471	0.0166402
835.549	0.0166734
835.628	0.0166568
835.706	0.0166726
835.784	0.0166060
835.862	0.0165699
835.940	0.0164822
836.018	0.0164424
836.096	0.0163519
836.174	0.0165897
836.253	0.0164283
836.331	0.0164229
836.409	0.0164152
836.487	0.0163539
836.565	0.0163779
836.643	0.0163595
836.721	0.0164301
836.799	0.0163834
836.878	0.0165835
836.956	0.0164456
837.034	0.0165122
837.112	0.0165537
837.190	0.0165822
837.268	0.0164618
837.346	0.0163456
837.424	0.0162998
837.503	0.0163249
837.581	0.0164411
837.659	0.0163795
837.737	0.0163129
837.815	0.0163096
837.893	0.0164307
837.971	0.0163127
838.049	0.0163921
838.128	0.0163625
838.206	0.0162073
838.284	0.0162166
838.362	0.0163765
838.440	0.0164275
838.518	0.0163330
838.596	0.0164335
838.674	0.0164589
838.753	0.0164822
838.831	0.0164007
838.909	0.0164880
838.987	0.0164244
839.065	0.0162486
839.143	0.0163075
839.221	0.0163860
839.299	0.0164664
839.378	0.0163914
839.456	0.0163444
839.534	0.0162990
839.612	0.0162489
839.690	0.0162948
839.768	0.0164353
839.846	0.0164520
839.924	0.0164661
840.003	0.0164661
840.081	0.0163851
840.159	0.0164505
840.237	0.0166174
840.315	0.0167921
840.393	0.0166330
840.471	0.0166223
840.549	0.0166230
840.628	0.0167216
840.706	0.0167474
840.784	0.0167511
840.862	0.0166880
840.940	0.0167765
841.018	0.0167410
841.096	0.0165746
841.174	0.0166797
841.253	0.0166693
841.331	0.0165996
841.409	0.0166507
841.487	0.0165754
841.565	0.0165681
841.643	0.0165652
841.721	0.0162823
841.799	0.0163062
841.878	0.0163969
841.956	0.0163509
842.034	0.0163490
842.112	0.0163392
842.190	0.0162148
842.268	0.0162746
842.346	0.0162542
842.424	0.0162103
842.503	0.0161509
842.581	0.0163425
842.659	0.0161925
842.737	0.0161272
842.815	0.0163201
842.893	0.0162422
842.971	0.0162159
843.049	0.0163196
843.128	0.0162074
843.206	0.0161504
843.284	0.0162453
843.362	0.0163794
843.440	0.0163338
843.518	0.0164214
843.596	0.0163121
843.674	0.0164226
843.753	0.0165009
843.831	0.0163586
843.909	0.0164655
843.987	0.0164320
844.065	0.0166052
844.143	0.0165922
844.221	0.0166446
844.299	0.0166811
844.378	0.0166075
844.456	0.0166229
844.534	0.0165589
844.612	0.0167320
844.690	0.0165813
844.768	0.0166598
844.846	0.0165941
844.924	0.0165498
845.003	0.0166575
845.081	0.0165520
845.159	0.0165717
845.237	0.0166161
845.315	0.0165021
845.393	0.0164929
845.471	0.0166155
845.549	0.0166061
845.628	0.0166265
845.706	0.0166017
845.784	0.0165067
845.862	0.0164741
845.940	0.0164838
846.018	0.0166660
846.096	0.0165549
846.174	0.0165722
846.253	0.0166664
846.331	0.0164570
846.409	0.0165191
846.487	0.0164333
846.565	0.0165295
846.643	0.0164947
846.721	0.0163988
846.799	0.0164275
846.878	0.0163441
846.956	0.0162257
847.034	0.0163409
847.112	0.0162121
847.190	0.0162269
847.268	0.0163288
847.346	0.0164127
847.424	0.0162309
847.503	0.0163315
847.581	0.0163152
847.659	0.0162453
847.737	0.0162392
847.815	0.0163280
847.893	0.0163235
847.971	0.0162688
848.049	0.0163960
848.128	0.0163984
848.206	0.0165969
848.284	0.0164029
848.362	0.0163784
848.440	0.0164088
848.518	0.0165130
848.596	0.0164756
848.674	0.0165304
848.753	0.0164635
848.831	0.0164481
848.909	0.0164635
848.987	0.0164706
849.065	0.0164749
849.143	0.0164304
849.221	0.0165603
849.299	0.0165495
849.378	0.0164606
849.456	0.0163783
849.534	0.0164560
849.612	0.0165128
849.690	0.0163366
849.768	0.0164780
849.846	0.0166425
849.924	0.0164993
850.003	0.0164931
850.081	0.0165043
850.159	0.0164827
850.237	0.0163596
850.315	0.0164712
850.393	0.0164620
850.471	0.0163971
850.549	0.0165093
850.628	0.0164845
850.706	0.0163831
850.784	0.0165327
850.862	0.0166734
850.940	0.0165559
851.018	0.0165774
851.096	0.0164781
851.174	0.0166105
851.253	0.0165658
851.331	0.0165207
851.409	0.0165353
851.487	0.0166235
851.565	0.0164971
851.643	0.0166270
851.721	0.0165781
851.799	0.0166112
851.878	0.0164046
851.956	0.0165320
852.034	0.0164010
852.112	0.0163119
852.190	0.0165916
852.268	0.0164557
852.346	0.0164706
852.424	0.0164544
852.503	0.0162712
852.581	0.0164777
852.659	0.0164939
852.737	0.0165400
852.815	0.0164071
852.893	0.0164374
852.971	0.0165123
853.049	0.0163459
853.128	0.0163046
853.206	0.0162996
853.284	0.0165542
853.362	0.0164387
853.440	0.0163091
853.518	0.0163885
853.596	0.0162340
853.674	0.0164108
853.753	0.0163448
853.831	0.0164217
853.909	0.0163638
853.987	0.0163283
854.065	0.0163190
854.143	0.0163422
854.221	0.0163220
854.299	0.0164489
854.378	0.0164102
854.456	0.0163958
854.534	0.0163463
854.612	0.0162851
854.690	0.0164243
854.768	0.0163952
854.846	0.0163807
854.924	0.0164559
855.003	0.0163891
855.081	0.0164371
855.159	0.0165004
855.237	0.0164776
855.315	0.0163914
855.393	0.0165172
855.471	0.0165870
855.549	0.0164361
855.628	0.0165067
855.706	0.0165675
855.784	0.0166352
855.862	0.0166005
855.940	0.0166792
856.018	0.0166905
856.096	0.0167197
856.174	0.0167881
856.253	0.0167340
856.331	0.0168301
856.409	0.0167513
856.487	0.0167632
856.565	0.0167587
856.643	0.0166292
856.721	0.0167364
856.799	0.0168040
856.878	0.0167017
856.956	0.0165956
857.034	0.0166045
857.112	0.0166397
857.190	0.0165466
857.268	0.0165562
857.346	0.0166144
857.424	0.0165178
857.503	0.0166626
857.581	0.0165138
857.659	0.0164396
857.737	0.0165080
857.815	0.0164651
857.893	0.0163538
857.971	0.0165066
858.049	0.0163116
858.128	0.0164684
858.206	0.0163628
858.284	0.0164526
858.362	0.0164051
858.440	0.0164176
858.518	0.0163281
858.596	0.0163036
858.674	0.0164077
858.753	0.0164317
858.831	0.0165078
858.909	0.0163728
858.987	0.0163087
859.065	0.0165167
859.143	0.0162987
859.221	0.0163493
859.299	0.0164706
859.378	0.0164629
859.456	0.0164246
859.534	0.0165392
859.612	0.0164149
859.690	0.0164104
859.768	0.0163760
859.846	0.0164433
859.924	0.0165165
860.003	0.0163400
860.081	0.0164935
860.159	0.0165009
860.237	0.0164629
860.315	0.0164774
860.393	0.0165204
860.471	0.0164186
860.549	0.0163607
860.628	0.0163358
860.706	0.0164025
860.784	0.0163917
860.862	0.0163826
860.940	0.0164152
861.018	0.0164925
861.096	0.0164777
861.174	0.0163321
861.253	0.0163225
861.331	0.0164912
861.409	0.0166138
861.487	0.0165602
861.565	0.0165148
861.643	0.0166149
861.721	0.0165266
861.799	0.0166228
861.878	0.0165037
861.956	0.0166375
862.034	0.0165530
862.112	0.0165015
862.190	0.0165579
862.268	0.0165149
862.346	0.0166073
862.424	0.0164349
862.503	0.0165445
862.581	0.0165632
862.659	0.0164828
862.737	0.0164664
862.815	0.0166319
862.893	0.0166570
862.971	0.0165955
863.049	0.0164549
863.128	0.0163336
863.206	0.0164829
863.284	0.0165736
863.362	0.0165350
863.440	0.0163406
863.518	0.0165428
863.596	0.0164415
863.674	0.0163686
863.753	0.0163290
863.831	0.0162376
863.909	0.0164354
863.987	0.0163067
864.065	0.0163227
864.143	0.0162389
864.221	0.0162881
864.299	0.0163341
864.378	0.0163377
864.456	0.0163513
864.534	0.0162901
864.612	0.0163734
864.690	0.0165190
864.768	0.0164719
864.846	0.0163696
864.924	0.0165882
865.003	0.0166366
865.081	0.0163783
865.159	0.0165632
865.237	0.0166730
865.315	0.0164908
865.393	0.0166455
865.471	0.0165148
865.549	0.0165400
865.628	0.0166431
865.706	0.0165492
865.784	0.0166460
865.862	0.0165797
865.940	0.0166184
866.018	0.0164908
866.096	0.0166034
866.174	0.0166008
866.253	0.0164627
866.331	0.0164778
866.409	0.0165086
866.487	0.0164626
866.565	0.0164166
866.643	0.0163673
866.721	0.0165852
866.799	0.0166517
866.878	0.0164368
866.956	0.0163788
867.034	0.0164513
867.112	0.0165073
867.190	0.0164826
867.268	0.0166149
867.346	0.0166058
867.424	0.0164941
867.503	0.0166413
867.581	0.0164090
867.659	0.0166302
867.737	0.0165746
867.815	0.0166002
867.893	0.0165337
867.971	0.0166251
868.049	0.0166490
868.128	0.0166424
868.206	0.0165694
868.284	0.0166822
868.362	0.0166438
868.440	0.0166613
868.518	0.0165366
868.596	0.0166008
868.674	0.0164631
868.753	0.0165462
868.831	0.0165372
868.909	0.0164688
868.987	0.0166325
869.065	0.0163828
869.143	0.0162924
869.221	0.0164961
869.299	0.0165132
869.378	0.0164227
869.456	0.0163776
869.534	0.0164189
869.612	0.0163851
869.690	0.0164254
869.768	0.0164517
869.846	0.0163548
869.924	0.0164505
870.003	0.0163426
870.081	0.0164116
870.159	0.0164223
870.237	0.0163621
870.315	0.0165961
870.393	0.0165121
870.471	0.0164234
870.549	0.0164488
870.628	0.0164783
870.706	0.0165565
870.784	0.0165574
870.862	0.0166027
870.940	0.0165629
871.018	0.0165343
871.096	0.0164597
871.174	0.0164816
871.253	0.0165280
871.331	0.0164598
871.409	0.0164339
871.487	0.0165249
871.565	0.0164974
871.643	0.0164050
871.721	0.0163889
871.799	0.0163708
871.878	0.0165001
871.956	0.0163751
872.034	0.0165880
872.112	0.0165851
872.190	0.0163526
872.268	0.0165636
872.346	0.0163530
872.424	0.0164706
872.503	0.0165307
872.581	0.0164948
872.659	0.0164782
872.737	0.0166766
872.815	0.0166057
872.893	0.0164787
872.971	0.0165873
873.049	0.0166151
873.128	0.0165622
873.206	0.0166194
873.284	0.0167798
873.362	0.0166925
873.440	0.0165424
873.518	0.0165236
873.596	0.0167389
873.674	0.0167204
873.753	0.0165951
873.831	0.0165543
873.909	0.0164932
873.987	0.0165307
874.065	0.0165570
874.143	0.0165736
874.221	0.0165209
874.299	0.0163846
874.378	0.0164520
874.456	0.0164973
874.534	0.0162778
874.612	0.0164985
874.690	0.0163914
874.768	0.0163898
874.846	0.0164465
874.924	0.0165499
875.003	0.0164182
875.081	0.0164471
875.159	0.0164544
875.237	0.0163403
875.315	0.0163281
875.393	0.0163916
875.471	0.0165266
875.549	0.0163902
875.628	0.0163799
875.706	0.0165695
875.784	0.0164198
875.862	0.0165278
875.940	0.0165948
876.018	0.0165089
876.096	0.0165868
876.174	0.0164407
876.253	0.0165170
876.331	0.0165878
876.409	0.0164957
876.487	0.0165652
876.565	0.0166155
876.643	0.0164383
876.721	0.0166747
876.799	0.0165398
876.878	0.0164344
876.956	0.0164886
877.034	0.0165238
877.112	0.0165655
877.190	0.0163976
877.268	0.0164555
877.346	0.0162656
877.424	0.0163342
877.503	0.0163902
877.581	0.0164766
877.659	0.0164381
877.737	0.0163286
877.815	0.0163290
877.893	0.0164844
877.971	0.0163120
878.049	0.0161633
878.128	0.0164765
878.206	0.0164973
878.284	0.0163020
878.362	0.0163940
878.440	0.0164885
878.518	0.0165766
878.596	0.0165813
878.674	0.0164980
878.753	0.0166607
878.831	0.0165600
878.909	0.0166140
878.987	0.0165871
879.065	0.0165192
879.143	0.0166354
879.221	0.0165679
879.299	0.0166350
879.378	0.0165287
879.456	0.0165583
879.534	0.0166707
879.612	0.0165808
879.690	0.0166281
879.768	0.0165504
879.846	0.0164807
879.924	0.0165162
880.003	0.0165299
880.081	0.0166069
880.159	0.0165310
880.237	0.0164388
880.315	0.0165784
880.393	0.0164907
880.471	0.0163728
880.549	0.0164756
880.628	0.0164299
880.706	0.0166004
880.784	0.0167088
880.862	0.0165749
880.940	0.0164391
881.018	0.0165894
881.096	0.0166059
881.174	0.0165745
881.253	0.0165835
881.331	0.0166759
881.409	0.0165950
881.487	0.0165843
881.565	0.0166184
881.643	0.0166399
881.721	0.0166255
881.799	0.0165458
881.878	0.0165402
881.956	0.0165507
882.034	0.0164085
882.112	0.0164182
882.190	0.0165150
882.268	0.0165377
882.346	0.0164131
882.424	0.0165607
882.503	0.0164597
882.581	0.0164589
882.659	0.0164476
882.737	0.0164262
882.815	0.0164444
882.893	0.0162779
882.971	0.0163550
883.049	0.0163895
883.128	0.0164888
883.206	0.0163176
883.284	0.0163704
883.362	0.0162939
883.440	0.0164613
883.518	0.0164297
883.596	0.0165085
883.674	0.0164525
883.753	0.0163387
883.831	0.0163708
883.909	0.0162657
883.987	0.0165339
884.065	0.0165390
884.143	0.0165241
884.221	0.0164841
884.299	0.0164706
884.378	0.0166520
884.456	0.0165617
884.534	0.0164749
884.612	0.0165122
884.690	0.0164040
884.768	0.0164989
884.846	0.0165289
884.924	0.0165257
885.003	0.0165916
885.081	0.0165868
885.159	0.0165912
885.237	0.0164947
885.315	0.0165003
885.393	0.0165917
885.471	0.0165692
885.549	0.0167327
885.628	0.0164746
885.706	0.0166129
885.784	0.0166654
885.862	0.0164521
885.940	0.0166550
886.018	0.0166553
886.096	0.0167010
886.174	0.0167274
886.253	0.0165240
886.331	0.0165874
886.409	0.0168572
886.487	0.0166020
886.565	0.0166798
886.643	0.0166135
886.721	0.0165395
886.799	0.0166730
886.878	0.0166646
886.956	0.0166098
887.034	0.0166737
887.112	0.0166452
887.190	0.0164852
887.268	0.0164625
887.346	0.0165327
887.424	0.0166329
887.503	0.0164863
887.581	0.0163931
887.659	0.0163896
887.737	0.0164396
887.815	0.0163731
887.893	0.0163825
887.971	0.0162825
888.049	0.0161400
888.128	0.0164566
888.206	0.0164908
888.284	0.0161687
888.362	0.0163243
888.440	0.0164958
888.518	0.0164033
888.596	0.0164082
888.674	0.0165939
888.753	0.0164125
888.831	0.0164325
888.909	0.0164433
888.987	0.0164132
889.065	0.0164626
889.143	0.0165652
889.221	0.0164726
889.299	0.0164923
889.378	0.0165418
889.456	0.0164877
889.534	0.0166862
889.612	0.0166241
889.690	0.0165533
889.768	0.0165932
889.846	0.0165868
889.924	0.0165981
890.003	0.0165363
890.081	0.0165434
890.159	0.0165726
890.237	0.0166421
890.315	0.0166257
890.393	0.0165663
890.471	0.0165020
890.549	0.0166431
890.628	0.0164761
890.706	0.0165761
890.784	0.0164767
890.862	0.0163560
890.940	0.0164574
891.018	0.0164642
891.096	0.0166130
891.174	0.0163509
891.253	0.0163810
891.331	0.0163413
891.409	0.0164498
891.487	0.0164203
891.565	0.0164178
891.643	0.0164610
891.721	0.0163686
891.799	0.0164166
891.878	0.0164599
891.956	0.0165492
892.034	0.0164505
892.112	0.0165149
892.190	0.0164597
892.268	0.0163747
892.346	0.0163665
892.424	0.0163312
892.503	0.0163853
892.581	0.0164597
892.659	0.0164832
892.737	0.0165171
892.815	0.0165930
892.893	0.0165079
892.971	0.0164714
893.049	0.0164835
893.128	0.0164941
893.206	0.0165586
893.284	0.0166338
893.362	0.0165965
893.440	0.0166133
893.518	0.0164958
893.596	0.0166251
893.674	0.0165614
893.753	0.0164752
893.831	0.0166645
893.909	0.0165813
893.987	0.0164661
894.065	0.0165453
894.143	0.0165150
894.221	0.0165528
894.299	0.0165305
894.378	0.0164454
894.456	0.0163612
894.534	0.0165446
894.612	0.0164446
894.690	0.0163004
894.768	0.0164910
894.846	0.0165205
894.924	0.0164897
895.003	0.0164031
895.081	0.0165075
895.159	0.0164744
895.237	0.0164320
895.315	0.0165132
895.393	0.0165875
895.471	0.0164874
895.549	0.0166520
895.628	0.0164832
895.706	0.0163737
895.784	0.0165039
895.862	0.0164989
895.940	0.0165326
896.018	0.0164647
896.096	0.0164146
896.174	0.0163737
896.253	0.0165211
896.331	0.0164265
896.409	0.0163401
896.487	0.0165294
896.565	0.0163798
896.643	0.0163907
896.721	0.0165566
896.799	0.0165040
896.878	0.0164278
896.956	0.0165005
897.034	0.0165358
897.112	0.0164160
897.190	0.0164391
897.268	0.0165845
897.346	0.0165674
897.424	0.0164006
897.503	0.0165298
897.581	0.0164539
897.659	0.0164766
897.737	0.0164153
897.815	0.0165977
897.893	0.0164928
897.971	0.0162993
898.049	0.0164181
898.128	0.0165081
898.206	0.0163895
898.284	0.0165389
898.362	0.0165111
898.440	0.0163020
898.518	0.0164244
898.596	0.0164373
898.674	0.0164558
898.753	0.0162363
898.831	0.0163083
898.909	0.0162934
898.987	0.0164077
899.065	0.0162353
899.143	0.0163295
899.221	0.0161742
899.299	0.0162850
899.378	0.0164548
899.456	0.0162833
899.534	0.0164722
899.612	0.0162996
899.690	0.0163461
899.768	0.0163454
899.846	0.0164005
899.924	0.0163909
900.003	0.0165562
900.081	0.0165720
900.159	0.0166206
900.237	0.0166326
900.315	0.0165035
900.393	0.0165778
900.471	0.0165686
900.549	0.0165715
900.628	0.0164880
900.706	0.0166167
900.784	0.0166582
900.862	0.0167016
900.940	0.0165737
901.018	0.0166736
901.096	0.0166010
901.174	0.0166169
901.253	0.0164991
901.331	0.0166718
901.409	0.0165499
901.487	0.0165170
901.565	0.0165984
901.643	0.0164264
901.721	0.0164262
901.799	0.0163461
901.878	0.0162971
901.956	0.0164598
902.034	0.0163712
902.112	0.0163493
902.190	0.0164278
902.268	0.0163229
902.346	0.0163419
902.424	0.0164700
902.503	0.0164163
902.581	0.0163721
902.659	0.0163740
902.737	0.0163615
902.815	0.0164240
902.893	0.0165252
902.971	0.0165466
903.049	0.0164345
903.128	0.0163523
903.206	0.0165526
903.284	0.0164807
903.362	0.0165096
903.440	0.0165249
903.518	0.0163389
903.596	0.0165079
903.674	0.0165868
903.753	0.0164465
903.831	0.0163730
903.909	0.0164628
903.987	0.0165550
904.065	0.0164736
904.143	0.0164182
904.221	0.0164059
904.299	0.0164108
904.378	0.0165878
904.456	0.0165212
904.534	0.0164103
904.612	0.0164847
904.690	0.0165069
904.768	0.0164682
904.846	0.0165546
904.924	0.0164149
905.003	0.0163929
905.081	0.0165304
905.159	0.0162743
905.237	0.0164490
905.315	0.0164389
905.393	0.0164235
905.471	0.0164709
905.549	0.0165672
905.628	0.0163510
905.706	0.0165189
905.784	0.0163892
905.862	0.0164765
905.940	0.0164783
906.018	0.0163785
906.096	0.0164630
906.174	0.0164716
906.253	0.0164653
906.331	0.0164657
906.409	0.0165656
906.487	0.0164129
906.565	0.0165537
906.643	0.0165796
906.721	0.0165988
906.799	0.0166108
906.878	0.0165617
906.956	0.0164861
907.034	0.0164568
907.112	0.0164880
907.190	0.0164921
907.268	0.0165505
907.346	0.0165685
907.424	0.0164563
907.503	0.0165593
907.581	0.0164990
907.659	0.0164817
907.737	0.0165292
907.815	0.0165103
907.893	0.0165594
907.971	0.0164365
908.049	0.0164675
908.128	0.0164378
908.206	0.0164024
908.284	0.0165086
908.362	0.0163926
908.440	0.0163399
908.518	0.0164703
908.596	0.0165082
908.674	0.0166172
908.753	0.0164738
908.831	0.0165900
908.909	0.0165088
908.987	0.0165676
909.065	0.0164582
909.143	0.0164519
909.221	0.0165794
909.299	0.0166616
909.378	0.0163811
909.456	0.0165559
909.534	0.0165517
909.612	0.0164426
909.690	0.0164982
909.768	0.0166179
909.846	0.0164931
909.924	0.0164574
910.003	0.0164338
910.081	0.0164671
910.159	0.0164237
910.237	0.0163745
910.315	0.0164668
910.393	0.0163620
910.471	0.0165242
910.549	0.0164283
910.628	0.0165417
910.706	0.0164143
910.784	0.0162218
910.862	0.0164980
910.940	0.0164889
911.018	0.0165351
911.096	0.0164094
911.174	0.0164150
911.253	0.0165329
911.331	0.0164016
911.409	0.0166046
911.487	0.0165426
911.565	0.0163945
911.643	0.0165260
911.721	0.0166682
911.799	0.0166203
911.878	0.0166119
911.956	0.0166293
912.034	0.0166195
912.112	0.0165698
912.190	0.0165631
912.268	0.0165742
912.346	0.0165221
912.424	0.0165849
912.503	0.0164861
912.581	0.0165204
912.659	0.0164594
912.737	0.0164902
912.815	0.0162396
912.893	0.0164005
912.971	0.0163558
913.049	0.0164407
913.128	0.0164365
913.206	0.0162219
913.284	0.0164031
913.362	0.0164413
913.440	0.0161905
913.518	0.0163071
913.596	0.0164174
913.674	0.0162798
913.753	0.0163950
913.831	0.0163696
913.909	0.0165191
913.987	0.0164529
914.065	0.0166073
914.143	0.0166338
914.221	0.0166718
914.299	0.0166326
914.378	0.0168269
914.456	0.0167384
914.534	0.0168794
914.612	0.0170660
914.690	0.0169260
914.768	0.0169688
914.846	0.0169447
914.924	0.0168892
915.003	0.0167302
915.081	0.0167548
915.159	0.0166713
915.237	0.0164577
915.315	0.0164893
915.393	0.0163442
915.471	0.0161686
915.549	0.0161703
915.628	0.0161880
915.706	0.0161335
915.784	0.0161426
915.862	0.0160471
915.940	0.0161552
916.018	0.0161388
916.096	0.0162193
916.174	0.0162614
916.253	0.0160976
916.331	0.0161713
916.409	0.0163135
916.487	0.0162430
916.565	0.0162602
916.643	0.0163261
916.721	0.0163726
916.799	0.0164845
916.878	0.0164247
916.956	0.0164544
917.034	0.0164457
917.112	0.0164777
917.190	0.0166008
917.268	0.0166269
917.346	0.0167951
917.424	0.0168732
917.503	0.0168301
917.581	0.0167967
917.659	0.0169902
917.737	0.0169674
917.815	0.0168980
917.893	0.0168788
917.971	0.0166061
918.049	0.0167658
918.128	0.0166760
918.206	0.0165015
918.284	0.0165906
918.362	0.0163555
918.440	0.0163036
918.518	0.0162543
918.596	0.0161815
918.674	0.0161143
918.753	0.0162011
918.831	0.0161595
918.909	0.0159398
918.987	0.0160414
919.065	0.0160517
919.143	0.0160109
919.221	0.0162063
919.299	0.0161574
919.378	0.0161990
919.456	0.0162740
919.534	0.0163547
919.612	0.0164035
919.690	0.0164951
919.768	0.0164172
919.846	0.0164967
919.924	0.0164199
920.003	0.0166949
920.081	0.0166396
920.159	0.0166692
920.237	0.0166026
920.315	0.0166219
920.393	0.0165199
920.471	0.0165955
920.549	0.0164489
920.628	0.0165433
920.706	0.0165846
920.784	0.0167307
920.862	0.0165824
920.940	0.0165074
921.018	0.0165775
921.096	0.0165263
921.174	0.0165418
921.253	0.0164413
921.331	0.0164554
921.409	0.0163595
921.487	0.0164498
921.565	0.0164600
921.643	0.0163847
921.721	0.0164410
921.799	0.0163931
921.878	0.0163914
921.956	0.0166001
922.034	0.0164223
922.112	0.0164208
922.190	0.0162963
922.268	0.0164035
922.346	0.0164297
922.424	0.0163857
922.503	0.0164511
922.581	0.0163949
922.659	0.0165012
922.737	0.0164220
922.815	0.0162358
922.893	0.0164966
922.971	0.0163959
923.049	0.0164209
923.128	0.0163287
923.206	0.0164188
923.284	0.0162875
923.362	0.0163676
923.440	0.0164658
923.518	0.0163867
923.596	0.0163934
923.674	0.0164635
923.753	0.0164328
923.831	0.0163595
923.909	0.0164356
923.987	0.0165732
924.065	0.0164572
924.143	0.0164480
924.221	0.0164341
924.299	0.0164664
924.378	0.0165430
924.456	0.0164648
924.534	0.0165566
924.612	0.0163500
924.690	0.0164494
924.768	0.0165879
924.846	0.0164393
924.924	0.0164539
925.003	0.0163635
925.081	0.0163918
925.159	0.0164717
925.237	0.0164989
925.315	0.0165245
925.393	0.0164131
925.471	0.0164218
925.549	0.0164981
925.628	0.0166081
925.706	0.0166503
925.784	0.0164880
925.862	0.0165804
925.940	0.0166852
926.018	0.0165707
926.096	0.0166125
926.174	0.0166839
926.253	0.0165976
926.331	0.0166036
926.409	0.0167090
926.487	0.0166658
926.565	0.0164802
926.643	0.0164856
926.721	0.0165068
926.799	0.0164446
926.878	0.0165234
926.956	0.0164936
927.034	0.0163013
927.112	0.0163711
927.190	0.0166214
927.268	0.0164153
927.346	0.0164194
927.424	0.0164397
927.503	0.0165405
927.581	0.0164510
927.659	0.0163177
927.737	0.0164117
927.815	0.0164881
927.893	0.0164783
927.971	0.0164243
928.049	0.0165443
928.128	0.0165683
928.206	0.0165756
928.284	0.0165126
928.362	0.0165916
928.440	0.0165288
928.518	0.0166347
928.596	0.0166128
928.674	0.0166351
928.753	0.0165356
928.831	0.0165221
928.909	0.0165604
928.987	0.0165008
929.065	0.0166248
929.143	0.0165144
929.221	0.0165601
929.299	0.0164962
929.378	0.0164255
929.456	0.0164593
929.534	0.0164940
929.612	0.0163349
929.690	0.0163173
929.768	0.0163819
929.846	0.0163385
929.924	0.0162909
930.003	0.0163550
930.081	0.0163064
930.159	0.0163361
930.237	0.0164128
930.315	0.0164910
930.393	0.0165607
930.471	0.0165157
930.549	0.0166641
930.628	0.0165961
930.706	0.0167337
930.784	0.0166184
930.862	0.0166830
930.940	0.0166639
931.018	0.0165430
931.096	0.0165961
931.174	0.0165098
931.253	0.0165614
931.331	0.0164167
931.409	0.0165578
931.487	0.0165468
931.565	0.0166051
931.643	0.0164284
931.721	0.0165928
931.799	0.0164371
931.878	0.0164339
931.956	0.0165282
932.034	0.0164925
932.112	0.0166104
932.190	0.0165214
932.268	0.0166013
932.346	0.0165314
932.424	0.0164956
932.503	0.0165850
932.581	0.0165366
932.659	0.0164040
932.737	0.0163407
932.815	0.0164566
932.893	0.0163577
932.971	0.0165084
933.049	0.0164907
933.128	0.0163433
933.206	0.0163099
933.284	0.0165552
933.362	0.0164922
933.440	0.0164804
933.518	0.0163570
933.596	0.0164880
933.674	0.0164491
933.753	0.0163982
933.831	0.0163034
933.909	0.0165110
933.987	0.0165728
934.065	0.0166500
934.143	0.0165137
934.221	0.0165237
934.299	0.0165307
934.378	0.0164908
934.456	0.0163620
934.534	0.0164610
934.612	0.0165098
934.690	0.0163950
934.768	0.0163914
934.846	0.0164400
934.924	0.0164191
935.003	0.0166325
935.081	0.0165794
935.159	0.0164684
935.237	0.0164742
935.315	0.0165163
935.393	0.0165156
935.471	0.0164500
935.549	0.0165046
935.628	0.0164167
935.706	0.0163581
935.784	0.0165170
935.862	0.0164417
935.940	0.0164245
936.018	0.0164326
936.096	0.0165269
936.174	0.0165656
936.253	0.0164588
936.331	0.0164236
936.409	0.0165631
936.487	0.0165108
936.565	0.0164504
936.643	0.0163602
936.721	0.0163791
936.799	0.0162870
936.878	0.0163458
936.956	0.0163218
937.034	0.0163892
937.112	0.0162779
937.190	0.0163265
937.268	0.0163044
937.346	0.0163766
937.424	0.0162694
937.503	0.0163748
937.581	0.0164349
937.659	0.0163297
937.737	0.0163651
937.815	0.0163719
937.893	0.0164281
937.971	0.0164793
938.049	0.0164362
938.128	0.0166309
938.206	0.0164561
938.284	0.0165121
938.362	0.0165231
938.440	0.0165935
938.518	0.0164729
938.596	0.0166581
938.674	0.0165385
938.753	0.0166608
938.831	0.0166200
938.909	0.0166740
938.987	0.0165600
939.065	0.0165094
939.143	0.0166021
939.221	0.0166762
939.299	0.0166307
939.378	0.0165575
939.456	0.0165293
939.534	0.0164544
939.612	0.0165774
939.690	0.0164554
939.768	0.0165171
939.846	0.0165371
939.924	0.0163901
940.003	0.0164292
940.081	0.0164573
940.159	0.0164489
940.237	0.0164819
940.315	0.0162520
940.393	0.0164262
940.471	0.0163754
940.549	0.0164481
940.628	0.0165433
940.706	0.0164339
940.784	0.0164252
940.862	0.0165034
940.940	0.0163584
941.018	0.0162981
941.096	0.0164259
941.174	0.0165132
941.253	0.0164614
941.331	0.0164883
941.409	0.0165530
941.487	0.0164869
941.565	0.0164830
941.643	0.0165810
941.721	0.0165790
941.799	0.0164432
941.878	0.0165582
941.956	0.0165362
942.034	0.0164948
942.112	0.0165804
942.190	0.0165642
942.268	0.0164515
942.346	0.0163200
942.424	0.0164405
942.503	0.0166296
942.581	0.0166463
942.659	0.0165237
942.737	0.0164259
942.815	0.0164032
942.893	0.0163222
942.971	0.0164280
943.049	0.0165539
943.128	0.0165043
943.206	0.0163818
943.284	0.0164429
943.362	0.0164327
943.440	0.0164842
943.518	0.0164432
943.596	0.0165585
943.674	0.0165253
943.753	0.0164390
943.831	0.0165244
943.909	0.0165986
943.987	0.0165710
944.065	0.0164626
944.143	0.0166356
944.221	0.0164323
944.299	0.0163813
944.378	0.0166015
944.456	0.0163602
944.534	0.0164281
944.612	0.0165230
944.690	0.0164556
944.768	0.0163840
944.846	0.0165498
944.924	0.0164191
945.003	0.0166158
945.081	0.0165185
945.159	0.0165036
945.237	0.0165677
945.315	0.0165197
945.393	0.0165120
945.471	0.0165125
945.549	0.0166926
945.628	0.0165315
945.706	0.0166283
945.784	0.0166718
945.862	0.0166131
945.940	0.0167232
946.018	0.0165282
946.096	0.0164523
946.174	0.0165396
946.253	0.0165924
946.331	0.0165161
946.409	0.0166071
946.487	0.0165186
946.565	0.0165265
946.643	0.0164432
946.721	0.0164225
946.799	0.0166299
946.878	0.0164996
946.956	0.0165030
947.034	0.0166081
947.112	0.0163998
947.190	0.0164239
947.268	0.0165449
947.346	0.0164361
947.424	0.0165464
947.503	0.0164021
947.581	0.0164281
947.659	0.0164230
947.737	0.0165384
947.815	0.0163998
947.893	0.0164408
947.971	0.0164525
948.049	0.0164107
948.128	0.0165621
948.206	0.0165076
948.284	0.0164455
948.362	0.0165818
948.440	0.0164902
948.518	0.0164664
948.596	0.0165217
948.674	0.0165095
948.753	0.0164810
948.831	0.0165542
948.909	0.0164711
948.987	0.0165947
949.065	0.0165446
949.143	0.0165816
949.221	0.0165919
949.299	0.0163924
949.378	0.0166248
949.456	0.0164792
949.534	0.0165437
949.612	0.0164771
949.690	0.0164964
949.768	0.0164798
949.846	0.0164578
949.924	0.0165557
