06/29/2022	22:41:04	Ver.	4.1	UNKNOWN
Optical Delay	630.002507	Delta X		0.078125	Sweeps	1	Scan Rate	0/0
Coordinates	Axis 1	NaN	Axis 2	NaN	Axis 3	NaN	Axis 4	NaN	Axis 5	NaN	Axis 6	0.000000
TX Power	0.000000	RX Power	0.000000

630.003	0.0155576
630.081	0.0156394
630.159	0.0155394
630.237	0.0156109
630.315	0.0156138
630.393	0.0156168
630.471	0.0156059
630.549	0.0155445
630.628	0.0155859
630.706	0.0155276
630.784	0.0155091
630.862	0.0157070
630.940	0.0155749
631.018	0.0155730
631.096	0.0154645
631.174	0.0154639
631.253	0.0155616
631.331	0.0155461
631.409	0.0155011
631.487	0.0154989
631.565	0.0156204
631.643	0.0155032
631.721	0.0155017
631.799	0.0156441
631.878	0.0154916
631.956	0.0156262
632.034	0.0155454
632.112	0.0155473
632.190	0.0155792
632.268	0.0155911
632.346	0.0154988
632.424	0.0154440
632.503	0.0157175
632.581	0.0155256
632.659	0.0155445
632.737	0.0154993
632.815	0.0154617
632.893	0.0154797
632.971	0.0156097
633.049	0.0155351
633.128	0.0153359
633.206	0.0155299
633.284	0.0155593
633.362	0.0155853
633.440	0.0156327
633.518	0.0155627
633.596	0.0154475
633.674	0.0155544
633.753	0.0157034
633.831	0.0155119
633.909	0.0154408
633.987	0.0156266
634.065	0.0155817
634.143	0.0155296
634.221	0.0155690
634.299	0.0154956
634.378	0.0155198
634.456	0.0156891
634.534	0.0155350
634.612	0.0155597
634.690	0.0156020
634.768	0.0153808
634.846	0.0156172
634.924	0.0155832
635.003	0.0155794
635.081	0.0155711
635.159	0.0156005
635.237	0.0154917
635.315	0.0155627
635.393	0.0155657
635.471	0.0155242
635.549	0.0156093
635.628	0.0156389
635.706	0.0156360
635.784	0.0155795
635.862	0.0155852
635.940	0.0156160
636.018	0.0154832
636.096	0.0154018
636.174	0.0154032
636.253	0.0156095
636.331	0.0155640
636.409	0.0154272
636.487	0.0156318
636.565	0.0156549
636.643	0.0154732
636.721	0.0156106
636.799	0.0155634
636.878	0.0155115
636.956	0.0154844
637.034	0.0155505
637.112	0.0155166
637.190	0.0154087
637.268	0.0155512
637.346	0.0155782
637.424	0.0154960
637.503	0.0155839
637.581	0.0155998
637.659	0.0154905
637.737	0.0155853
637.815	0.0155035
637.893	0.0156314
637.971	0.0155264
638.049	0.0156584
638.128	0.0155602
638.206	0.0156097
638.284	0.0156277
638.362	0.0155859
638.440	0.0156796
638.518	0.0156308
638.596	0.0156663
638.674	0.0155441
638.753	0.0155437
638.831	0.0156567
638.909	0.0155935
638.987	0.0156493
639.065	0.0157226
639.143	0.0154765
639.221	0.0155244
639.299	0.0155663
639.378	0.0155061
639.456	0.0155469
639.534	0.0155921
639.612	0.0155885
639.690	0.0156023
639.768	0.0155295
639.846	0.0154256
639.924	0.0156535
640.003	0.0155138
640.081	0.0155701
640.159	0.0155024
640.237	0.0155010
640.315	0.0155840
640.393	0.0154270
640.471	0.0155315
640.549	0.0155618
640.628	0.0156445
640.706	0.0155675
640.784	0.0154924
640.862	0.0154634
640.940	0.0154317
641.018	0.0155082
641.096	0.0154816
641.174	0.0154049
641.253	0.0156328
641.331	0.0155809
641.409	0.0155184
641.487	0.0155571
641.565	0.0155851
641.643	0.0155294
641.721	0.0156506
641.799	0.0155116
641.878	0.0155103
641.956	0.0155930
642.034	0.0155139
642.112	0.0155414
642.190	0.0155420
642.268	0.0155428
642.346	0.0154210
642.424	0.0154578
642.503	0.0155057
642.581	0.0156112
642.659	0.0155315
642.737	0.0155426
642.815	0.0154326
642.893	0.0156321
642.971	0.0155126
643.049	0.0155248
643.128	0.0155589
643.206	0.0154726
643.284	0.0155067
643.362	0.0155400
643.440	0.0155567
643.518	0.0154975
643.596	0.0155066
643.674	0.0155991
643.753	0.0154601
643.831	0.0155151
643.909	0.0154661
643.987	0.0156535
644.065	0.0156104
644.143	0.0156107
644.221	0.0155362
644.299	0.0155373
644.378	0.0155587
644.456	0.0155731
644.534	0.0154696
644.612	0.0156808
644.690	0.0154968
644.768	0.0154851
644.846	0.0154390
644.924	0.0153632
645.003	0.0155557
645.081	0.0155683
645.159	0.0155181
645.237	0.0156730
645.315	0.0156275
645.393	0.0154576
645.471	0.0154706
645.549	0.0154974
645.628	0.0156220
645.706	0.0154562
645.784	0.0154478
645.862	0.0155175
645.940	0.0155158
646.018	0.0154822
646.096	0.0155986
646.174	0.0156938
646.253	0.0154756
646.331	0.0155367
646.409	0.0154568
646.487	0.0154903
646.565	0.0155659
646.643	0.0155679
646.721	0.0155540
646.799	0.0155904
646.878	0.0155130
646.956	0.0154317
647.034	0.0155987
647.112	0.0155587
647.190	0.0155537
647.268	0.0154977
647.346	0.0155029
647.424	0.0155819
647.503	0.0155462
647.581	0.0156440
647.659	0.0155707
647.737	0.0155885
647.815	0.0156125
647.893	0.0155562
647.971	0.0155134
648.049	0.0156799
648.128	0.0157075
648.206	0.0157066
648.284	0.0155741
648.362	0.0153999
648.440	0.0155068
648.518	0.0156327
648.596	0.0156568
648.674	0.0156884
648.753	0.0155640
648.831	0.0156064
648.909	0.0155997
648.987	0.0156297
649.065	0.0155901
649.143	0.0156496
649.221	0.0155820
649.299	0.0155910
649.378	0.0155801
649.456	0.0155946
649.534	0.0154796
649.612	0.0155107
649.690	0.0155202
649.768	0.0155482
649.846	0.0155794
649.924	0.0155719
650.003	0.0154704
650.081	0.0154472
650.159	0.0155782
650.237	0.0156101
650.315	0.0156002
650.393	0.0155225
650.471	0.0155449
650.549	0.0154414
650.628	0.0155122
650.706	0.0155132
650.784	0.0156115
650.862	0.0155622
650.940	0.0154897
651.018	0.0155145
651.096	0.0154579
651.174	0.0156145
651.253	0.0156196
651.331	0.0155984
651.409	0.0155773
651.487	0.0154877
651.565	0.0155692
651.643	0.0154074
651.721	0.0155122
651.799	0.0156191
651.878	0.0157212
651.956	0.0156158
652.034	0.0155191
652.112	0.0155738
652.190	0.0154137
652.268	0.0154967
652.346	0.0154517
652.424	0.0154954
652.503	0.0156056
652.581	0.0155511
652.659	0.0155048
652.737	0.0156043
652.815	0.0155391
652.893	0.0156694
652.971	0.0155295
653.049	0.0154286
653.128	0.0155344
653.206	0.0154671
653.284	0.0156839
653.362	0.0155852
653.440	0.0154654
653.518	0.0155991
653.596	0.0156530
653.674	0.0155680
653.753	0.0154041
653.831	0.0155589
653.909	0.0155326
653.987	0.0155698
654.065	0.0156081
654.143	0.0157197
654.221	0.0155500
654.299	0.0156419
654.378	0.0155312
654.456	0.0155305
654.534	0.0156175
654.612	0.0156383
654.690	0.0155970
654.768	0.0155981
654.846	0.0155079
654.924	0.0156227
655.003	0.0155122
655.081	0.0157745
655.159	0.0155213
655.237	0.0155682
655.315	0.0156638
655.393	0.0155817
655.471	0.0157217
655.549	0.0156997
655.628	0.0156661
655.706	0.0155806
655.784	0.0156396
655.862	0.0154546
655.940	0.0155849
656.018	0.0156992
656.096	0.0155918
656.174	0.0155415
656.253	0.0155605
656.331	0.0154839
656.409	0.0156380
656.487	0.0155396
656.565	0.0156289
656.643	0.0156552
656.721	0.0154907
656.799	0.0155537
656.878	0.0156081
656.956	0.0155594
657.034	0.0154684
657.112	0.0156202
657.190	0.0155766
657.268	0.0156298
657.346	0.0156748
657.424	0.0153801
657.503	0.0156131
657.581	0.0157158
657.659	0.0153924
657.737	0.0153989
657.815	0.0156772
657.893	0.0155046
657.971	0.0155234
658.049	0.0155566
658.128	0.0156387
658.206	0.0154919
658.284	0.0155498
658.362	0.0155742
658.440	0.0154015
658.518	0.0155222
658.596	0.0155487
658.674	0.0154868
658.753	0.0155019
658.831	0.0156625
658.909	0.0156445
658.987	0.0155101
659.065	0.0155278
659.143	0.0154613
659.221	0.0154843
659.299	0.0155512
659.378	0.0155347
659.456	0.0155652
659.534	0.0154412
659.612	0.0156374
659.690	0.0155199
659.768	0.0157533
659.846	0.0155880
659.924	0.0155942
660.003	0.0156573
660.081	0.0155933
660.159	0.0155481
660.237	0.0154940
660.315	0.0156062
660.393	0.0155393
660.471	0.0156643
660.549	0.0154854
660.628	0.0155851
660.706	0.0155306
660.784	0.0156058
660.862	0.0155100
660.940	0.0155247
661.018	0.0156068
661.096	0.0156586
661.174	0.0154922
661.253	0.0155080
661.331	0.0156843
661.409	0.0155567
661.487	0.0156139
661.565	0.0156129
661.643	0.0155202
661.721	0.0154890
661.799	0.0155289
661.878	0.0155396
661.956	0.0155231
662.034	0.0156224
662.112	0.0154970
662.190	0.0155309
662.268	0.0154224
662.346	0.0155341
662.424	0.0155280
662.503	0.0156485
662.581	0.0155772
662.659	0.0155628
662.737	0.0155228
662.815	0.0156908
662.893	0.0156578
662.971	0.0156195
663.049	0.0156396
663.128	0.0155634
663.206	0.0154908
663.284	0.0155482
663.362	0.0156716
663.440	0.0155437
663.518	0.0155157
663.596	0.0156358
663.674	0.0156371
663.753	0.0155638
663.831	0.0155057
663.909	0.0155578
663.987	0.0155064
664.065	0.0155024
664.143	0.0155316
664.221	0.0155477
664.299	0.0156924
664.378	0.0155631
664.456	0.0155479
664.534	0.0156765
664.612	0.0156334
664.690	0.0156057
664.768	0.0155303
664.846	0.0155450
664.924	0.0155776
665.003	0.0154500
665.081	0.0155805
665.159	0.0156599
665.237	0.0155296
665.315	0.0156557
665.393	0.0155463
665.471	0.0155515
665.549	0.0155359
665.628	0.0155372
665.706	0.0155270
665.784	0.0154799
665.862	0.0156519
665.940	0.0157424
666.018	0.0155804
666.096	0.0155043
666.174	0.0155960
666.253	0.0155412
666.331	0.0155447
666.409	0.0155500
666.487	0.0155460
666.565	0.0155434
666.643	0.0154531
666.721	0.0156660
666.799	0.0156185
666.878	0.0154788
666.956	0.0155006
667.034	0.0154466
667.112	0.0155075
667.190	0.0155868
667.268	0.0156186
667.346	0.0155740
667.424	0.0154739
667.503	0.0156380
667.581	0.0155764
667.659	0.0155110
667.737	0.0154272
667.815	0.0155227
667.893	0.0154052
667.971	0.0155680
668.049	0.0155845
668.128	0.0156152
668.206	0.0155138
668.284	0.0155241
668.362	0.0155062
668.440	0.0154021
668.518	0.0155386
668.596	0.0155674
668.674	0.0155922
668.753	0.0155611
668.831	0.0154831
668.909	0.0153537
668.987	0.0154935
669.065	0.0155773
669.143	0.0156282
669.221	0.0156316
669.299	0.0157347
669.378	0.0155774
669.456	0.0154658
669.534	0.0154520
669.612	0.0156602
669.690	0.0156952
669.768	0.0155377
669.846	0.0154936
669.924	0.0154376
670.003	0.0155934
670.081	0.0156797
670.159	0.0156638
670.237	0.0155882
670.315	0.0156590
670.393	0.0155162
670.471	0.0155657
670.549	0.0154771
670.628	0.0154396
670.706	0.0155492
670.784	0.0154681
670.862	0.0156236
670.940	0.0155061
671.018	0.0154953
671.096	0.0156133
671.174	0.0155027
671.253	0.0155688
671.331	0.0155786
671.409	0.0154616
671.487	0.0154595
671.565	0.0155363
671.643	0.0156270
671.721	0.0156049
671.799	0.0156467
671.878	0.0155891
671.956	0.0155679
672.034	0.0154769
672.112	0.0155959
672.190	0.0154649
672.268	0.0155452
672.346	0.0155952
672.424	0.0154612
672.503	0.0154884
672.581	0.0155541
672.659	0.0155824
672.737	0.0154808
672.815	0.0155943
672.893	0.0154414
672.971	0.0154232
673.049	0.0155965
673.128	0.0155668
673.206	0.0156168
673.284	0.0154110
673.362	0.0155898
673.440	0.0156261
673.518	0.0155745
673.596	0.0154650
673.674	0.0156287
673.753	0.0155469
673.831	0.0155477
673.909	0.0156480
673.987	0.0154871
674.065	0.0155308
674.143	0.0155569
674.221	0.0154572
674.299	0.0153730
674.378	0.0155145
674.456	0.0155425
674.534	0.0154900
674.612	0.0156100
674.690	0.0155423
674.768	0.0155853
674.846	0.0154768
674.924	0.0156305
675.003	0.0154862
675.081	0.0155811
675.159	0.0156065
675.237	0.0154506
675.315	0.0154321
675.393	0.0156155
675.471	0.0155946
675.549	0.0155802
675.628	0.0154715
675.706	0.0155151
675.784	0.0154568
675.862	0.0154197
675.940	0.0155640
676.018	0.0156771
676.096	0.0155803
676.174	0.0154150
676.253	0.0154793
676.331	0.0155766
676.409	0.0155610
676.487	0.0156608
676.565	0.0155163
676.643	0.0156218
676.721	0.0155118
676.799	0.0154367
676.878	0.0154920
676.956	0.0156321
677.034	0.0154922
677.112	0.0154744
677.190	0.0154668
677.268	0.0155694
677.346	0.0154480
677.424	0.0155733
677.503	0.0154784
677.581	0.0155512
677.659	0.0156102
677.737	0.0154789
677.815	0.0156155
677.893	0.0155102
677.971	0.0155901
678.049	0.0155807
678.128	0.0155625
678.206	0.0154648
678.284	0.0154104
678.362	0.0154662
678.440	0.0156874
678.518	0.0156535
678.596	0.0155422
678.674	0.0155032
678.753	0.0156110
678.831	0.0156731
678.909	0.0157322
678.987	0.0154910
679.065	0.0154279
679.143	0.0155801
679.221	0.0156335
679.299	0.0155687
679.378	0.0155031
679.456	0.0155235
679.534	0.0154701
679.612	0.0155286
679.690	0.0156207
679.768	0.0154741
679.846	0.0156294
679.924	0.0154630
680.003	0.0155199
680.081	0.0156489
680.159	0.0155177
680.237	0.0155444
680.315	0.0155875
680.393	0.0154802
680.471	0.0155992
680.549	0.0156239
680.628	0.0155191
680.706	0.0156500
680.784	0.0156837
680.862	0.0155504
680.940	0.0154325
681.018	0.0155143
681.096	0.0155157
681.174	0.0155069
681.253	0.0155522
681.331	0.0155002
681.409	0.0155567
681.487	0.0154659
681.565	0.0156111
681.643	0.0155750
681.721	0.0155690
681.799	0.0155817
681.878	0.0154974
681.956	0.0155894
682.034	0.0154969
682.112	0.0155807
682.190	0.0155746
682.268	0.0155169
682.346	0.0155779
682.424	0.0155532
682.503	0.0154619
682.581	0.0155400
682.659	0.0156864
682.737	0.0155109
682.815	0.0154518
682.893	0.0156059
682.971	0.0156255
683.049	0.0154753
683.128	0.0156131
683.206	0.0154994
683.284	0.0156219
683.362	0.0156604
683.440	0.0156281
683.518	0.0155779
683.596	0.0153252
683.674	0.0154780
683.753	0.0155943
683.831	0.0156519
683.909	0.0154786
683.987	0.0155817
684.065	0.0154924
684.143	0.0156844
684.221	0.0155029
684.299	0.0154343
684.378	0.0155061
684.456	0.0154940
684.534	0.0155268
684.612	0.0156261
684.690	0.0155545
684.768	0.0156306
684.846	0.0155542
684.924	0.0154870
685.003	0.0153899
685.081	0.0154490
685.159	0.0154958
685.237	0.0154931
685.315	0.0156773
685.393	0.0156554
685.471	0.0155003
685.549	0.0155520
685.628	0.0154008
685.706	0.0156429
685.784	0.0155956
685.862	0.0153999
685.940	0.0155458
686.018	0.0155554
686.096	0.0155019
686.174	0.0155659
686.253	0.0156448
686.331	0.0155057
686.409	0.0152573
686.487	0.0154955
686.565	0.0156505
686.643	0.0155890
686.721	0.0154134
686.799	0.0154459
686.878	0.0156184
686.956	0.0156158
687.034	0.0155762
687.112	0.0155932
687.190	0.0154509
687.268	0.0156503
687.346	0.0156265
687.424	0.0155111
687.503	0.0155470
687.581	0.0156177
687.659	0.0156167
687.737	0.0154565
687.815	0.0155545
687.893	0.0155140
687.971	0.0155932
688.049	0.0155669
688.128	0.0155545
688.206	0.0155794
688.284	0.0155532
688.362	0.0155984
688.440	0.0154881
688.518	0.0154120
688.596	0.0154493
688.674	0.0155632
688.753	0.0155518
688.831	0.0154845
688.909	0.0155519
688.987	0.0155698
689.065	0.0156092
689.143	0.0154234
689.221	0.0154517
689.299	0.0155867
689.378	0.0155428
689.456	0.0156161
689.534	0.0155257
689.612	0.0154864
689.690	0.0154075
689.768	0.0156041
689.846	0.0154649
689.924	0.0155855
690.003	0.0154777
690.081	0.0154617
690.159	0.0156270
690.237	0.0155835
690.315	0.0155081
690.393	0.0155820
690.471	0.0155824
690.549	0.0155645
690.628	0.0156447
690.706	0.0154741
690.784	0.0154990
690.862	0.0155746
690.940	0.0155181
691.018	0.0154295
691.096	0.0155276
691.174	0.0156102
691.253	0.0155742
691.331	0.0155836
691.409	0.0156614
691.487	0.0155274
691.565	0.0155856
691.643	0.0156113
691.721	0.0155518
691.799	0.0155960
691.878	0.0153806
691.956	0.0154897
692.034	0.0155167
692.112	0.0154889
692.190	0.0155175
692.268	0.0157351
692.346	0.0154437
692.424	0.0156346
692.503	0.0156213
692.581	0.0156122
692.659	0.0155698
692.737	0.0155898
692.815	0.0156251
692.893	0.0156351
692.971	0.0155921
693.049	0.0154409
693.128	0.0156379
693.206	0.0155681
693.284	0.0156140
693.362	0.0155074
693.440	0.0155058
693.518	0.0156731
693.596	0.0153269
693.674	0.0155598
693.753	0.0154352
693.831	0.0155981
693.909	0.0155790
693.987	0.0156229
694.065	0.0155778
694.143	0.0155400
694.221	0.0153892
694.299	0.0156303
694.378	0.0157372
694.456	0.0154879
694.534	0.0154995
694.612	0.0156738
694.690	0.0154548
694.768	0.0155421
694.846	0.0156150
694.924	0.0156306
695.003	0.0156850
695.081	0.0154690
695.159	0.0155373
695.237	0.0155626
695.315	0.0155002
695.393	0.0155855
695.471	0.0155784
695.549	0.0155463
695.628	0.0154940
695.706	0.0155604
695.784	0.0155657
695.862	0.0155754
695.940	0.0155276
696.018	0.0155138
696.096	0.0153983
696.174	0.0154207
696.253	0.0155487
696.331	0.0157282
696.409	0.0155753
696.487	0.0155772
696.565	0.0155849
696.643	0.0155958
696.721	0.0155210
696.799	0.0155670
696.878	0.0154338
696.956	0.0155874
697.034	0.0154532
697.112	0.0156403
697.190	0.0157158
697.268	0.0156680
697.346	0.0154915
697.424	0.0155894
697.503	0.0155602
697.581	0.0156798
697.659	0.0154426
697.737	0.0155003
697.815	0.0154374
697.893	0.0155843
697.971	0.0155567
698.049	0.0155291
698.128	0.0155090
698.206	0.0154098
698.284	0.0154942
698.362	0.0157022
698.440	0.0156242
698.518	0.0155726
698.596	0.0157101
698.674	0.0156800
698.753	0.0155422
698.831	0.0156452
698.909	0.0156796
698.987	0.0155288
699.065	0.0155016
699.143	0.0157216
699.221	0.0155514
699.299	0.0155820
699.378	0.0156364
699.456	0.0155270
699.534	0.0155463
699.612	0.0155149
699.690	0.0156137
699.768	0.0156940
699.846	0.0155820
699.924	0.0155925
700.003	0.0154977
700.081	0.0156000
700.159	0.0156184
700.237	0.0155524
700.315	0.0156416
700.393	0.0155152
700.471	0.0155203
700.549	0.0156405
700.628	0.0155972
700.706	0.0154786
700.784	0.0155693
700.862	0.0155736
700.940	0.0156773
701.018	0.0156232
701.096	0.0155112
701.174	0.0156046
701.253	0.0155368
701.331	0.0154675
701.409	0.0154639
701.487	0.0155492
701.565	0.0156466
701.643	0.0155579
701.721	0.0154910
701.799	0.0155460
701.878	0.0155605
701.956	0.0155538
702.034	0.0154910
702.112	0.0154876
702.190	0.0155206
702.268	0.0154999
702.346	0.0155071
702.424	0.0156428
702.503	0.0156229
702.581	0.0155391
702.659	0.0155217
702.737	0.0156564
702.815	0.0156606
702.893	0.0156713
702.971	0.0156427
703.049	0.0156116
703.128	0.0156789
703.206	0.0157250
703.284	0.0155362
703.362	0.0156018
703.440	0.0155455
703.518	0.0156562
703.596	0.0155056
703.674	0.0155666
703.753	0.0156500
703.831	0.0156192
703.909	0.0156526
703.987	0.0156006
704.065	0.0155130
704.143	0.0156506
704.221	0.0156700
704.299	0.0155804
704.378	0.0156477
704.456	0.0157615
704.534	0.0155681
704.612	0.0154747
704.690	0.0156856
704.768	0.0155631
704.846	0.0156577
704.924	0.0156696
705.003	0.0156924
705.081	0.0157041
705.159	0.0156512
705.237	0.0155536
705.315	0.0156057
705.393	0.0156017
705.471	0.0155020
705.549	0.0156860
705.628	0.0156020
705.706	0.0157336
705.784	0.0156577
705.862	0.0155261
705.940	0.0156374
706.018	0.0156706
706.096	0.0155592
706.174	0.0156511
706.253	0.0157290
706.331	0.0156518
706.409	0.0155364
706.487	0.0156287
706.565	0.0154829
706.643	0.0153682
706.721	0.0157149
706.799	0.0156647
706.878	0.0155325
706.956	0.0156139
707.034	0.0156981
707.112	0.0156726
707.190	0.0155818
707.268	0.0156496
707.346	0.0155524
707.424	0.0155685
707.503	0.0156011
707.581	0.0155522
707.659	0.0155132
707.737	0.0154430
707.815	0.0155009
707.893	0.0155928
707.971	0.0155437
708.049	0.0154948
708.128	0.0154833
708.206	0.0156854
708.284	0.0155453
708.362	0.0154908
708.440	0.0155305
708.518	0.0154767
708.596	0.0155148
708.674	0.0156385
708.753	0.0154241
708.831	0.0154205
708.909	0.0154515
708.987	0.0155353
709.065	0.0155941
709.143	0.0155882
709.221	0.0156422
709.299	0.0155076
709.378	0.0154910
709.456	0.0155212
709.534	0.0156156
709.612	0.0155172
709.690	0.0154999
709.768	0.0154296
709.846	0.0157185
709.924	0.0155400
710.003	0.0156030
710.081	0.0156334
710.159	0.0155844
710.237	0.0157063
710.315	0.0155814
710.393	0.0155976
710.471	0.0154855
710.549	0.0155350
710.628	0.0155433
710.706	0.0155900
710.784	0.0156523
710.862	0.0155853
710.940	0.0154591
711.018	0.0156617
711.096	0.0154369
711.174	0.0155460
711.253	0.0154463
711.331	0.0154197
711.409	0.0156767
711.487	0.0153901
711.565	0.0154936
711.643	0.0155397
711.721	0.0154841
711.799	0.0155946
711.878	0.0156541
711.956	0.0155658
712.034	0.0154387
712.112	0.0156149
712.190	0.0156562
712.268	0.0154789
712.346	0.0154981
712.424	0.0155763
712.503	0.0154610
712.581	0.0154665
712.659	0.0154901
712.737	0.0154910
712.815	0.0153664
712.893	0.0155605
712.971	0.0154012
713.049	0.0155910
713.128	0.0154826
713.206	0.0155582
713.284	0.0155223
713.362	0.0155516
713.440	0.0156281
713.518	0.0154524
713.596	0.0154722
713.674	0.0155025
713.753	0.0155927
713.831	0.0155312
713.909	0.0155791
713.987	0.0155104
714.065	0.0154950
714.143	0.0156611
714.221	0.0155880
714.299	0.0153576
714.378	0.0155374
714.456	0.0156055
714.534	0.0155022
714.612	0.0154614
714.690	0.0153551
714.768	0.0154958
714.846	0.0154316
714.924	0.0155343
715.003	0.0156285
715.081	0.0154956
715.159	0.0155291
715.237	0.0154021
715.315	0.0155017
715.393	0.0155057
715.471	0.0154706
715.549	0.0155161
715.628	0.0153938
715.706	0.0154249
715.784	0.0155726
715.862	0.0155605
715.940	0.0154697
716.018	0.0155389
716.096	0.0154938
716.174	0.0153970
716.253	0.0155789
716.331	0.0155172
716.409	0.0157601
716.487	0.0155701
716.565	0.0155053
716.643	0.0155779
716.721	0.0155275
716.799	0.0155956
716.878	0.0156113
716.956	0.0156473
717.034	0.0156390
717.112	0.0157352
717.190	0.0156918
717.268	0.0154793
717.346	0.0156851
717.424	0.0156979
717.503	0.0154899
717.581	0.0156208
717.659	0.0155619
717.737	0.0155277
717.815	0.0157021
717.893	0.0157230
717.971	0.0156320
718.049	0.0156967
718.128	0.0155882
718.206	0.0155704
718.284	0.0155780
718.362	0.0157219
718.440	0.0155451
718.518	0.0154607
718.596	0.0155420
718.674	0.0155233
718.753	0.0155989
718.831	0.0155788
718.909	0.0155649
718.987	0.0153983
719.065	0.0154685
719.143	0.0155324
719.221	0.0154639
719.299	0.0154862
719.378	0.0155544
719.456	0.0155431
719.534	0.0155283
719.612	0.0155456
719.690	0.0155083
719.768	0.0155259
719.846	0.0155347
719.924	0.0155848
720.003	0.0155596
720.081	0.0155268
720.159	0.0157272
720.237	0.0155494
720.315	0.0154456
720.393	0.0155108
720.471	0.0154436
720.549	0.0154453
720.628	0.0155399
720.706	0.0155799
720.784	0.0156470
720.862	0.0155468
720.940	0.0156061
721.018	0.0156833
721.096	0.0155898
721.174	0.0156157
721.253	0.0154479
721.331	0.0155788
721.409	0.0156995
721.487	0.0156016
721.565	0.0157967
721.643	0.0157548
721.721	0.0155891
721.799	0.0157598
721.878	0.0155930
721.956	0.0154855
722.034	0.0156790
722.112	0.0155917
722.190	0.0155812
722.268	0.0157185
722.346	0.0157622
722.424	0.0156194
722.503	0.0155400
722.581	0.0155501
722.659	0.0154353
722.737	0.0154510
722.815	0.0153993
722.893	0.0154579
722.971	0.0154741
723.049	0.0154831
723.128	0.0155153
723.206	0.0154417
723.284	0.0152744
723.362	0.0154372
723.440	0.0155051
723.518	0.0156349
723.596	0.0155064
723.674	0.0154130
723.753	0.0156062
723.831	0.0155551
723.909	0.0156270
723.987	0.0158080
724.065	0.0157028
724.143	0.0155598
724.221	0.0156998
724.299	0.0156476
724.378	0.0156611
724.456	0.0156107
724.534	0.0156752
724.612	0.0157407
724.690	0.0155597
724.768	0.0155748
724.846	0.0157139
724.924	0.0155095
725.003	0.0155366
725.081	0.0156107
725.159	0.0154852
725.237	0.0154483
725.315	0.0155783
725.393	0.0154038
725.471	0.0154955
725.549	0.0155518
725.628	0.0153826
725.706	0.0155100
725.784	0.0154565
725.862	0.0153082
725.940	0.0154237
726.018	0.0155463
726.096	0.0154946
726.174	0.0155222
726.253	0.0155369
726.331	0.0154831
726.409	0.0154122
726.487	0.0154272
726.565	0.0154161
726.643	0.0155504
726.721	0.0155978
726.799	0.0154272
726.878	0.0155392
726.956	0.0156014
727.034	0.0156459
727.112	0.0156367
727.190	0.0155677
727.268	0.0155323
727.346	0.0153888
727.424	0.0155119
727.503	0.0155703
727.581	0.0156091
727.659	0.0155834
727.737	0.0154991
727.815	0.0155183
727.893	0.0154707
727.971	0.0156461
728.049	0.0156792
728.128	0.0154308
728.206	0.0155093
728.284	0.0156173
728.362	0.0154601
728.440	0.0154449
728.518	0.0155160
728.596	0.0155988
728.674	0.0155469
728.753	0.0154879
728.831	0.0155853
728.909	0.0153845
728.987	0.0155062
729.065	0.0156754
729.143	0.0155280
729.221	0.0155421
729.299	0.0155444
729.378	0.0156275
729.456	0.0154416
729.534	0.0155018
729.612	0.0155212
729.690	0.0154338
729.768	0.0154218
729.846	0.0154275
729.924	0.0153033
730.003	0.0154778
730.081	0.0155193
730.159	0.0154780
730.237	0.0153899
730.315	0.0155390
730.393	0.0155443
730.471	0.0155280
730.549	0.0157486
730.628	0.0155445
730.706	0.0155615
730.784	0.0156334
730.862	0.0156638
730.940	0.0156226
731.018	0.0157198
731.096	0.0156104
731.174	0.0155498
731.253	0.0156776
731.331	0.0157064
731.409	0.0156000
731.487	0.0156815
731.565	0.0157042
731.643	0.0155269
731.721	0.0157930
731.799	0.0157457
731.878	0.0156317
731.956	0.0156393
732.034	0.0156703
732.112	0.0156232
732.190	0.0156033
732.268	0.0156123
732.346	0.0155600
732.424	0.0156501
732.503	0.0156326
732.581	0.0155607
732.659	0.0156423
732.737	0.0155917
732.815	0.0154531
732.893	0.0155504
732.971	0.0155214
733.049	0.0155056
733.128	0.0155859
733.206	0.0154330
733.284	0.0154413
733.362	0.0155598
733.440	0.0155281
733.518	0.0154519
733.596	0.0154645
733.674	0.0154837
733.753	0.0155945
733.831	0.0155674
733.909	0.0154490
733.987	0.0155146
734.065	0.0155370
734.143	0.0156139
734.221	0.0155948
734.299	0.0156094
734.378	0.0156937
734.456	0.0153938
734.534	0.0155989
734.612	0.0155685
734.690	0.0155170
734.768	0.0154853
734.846	0.0156336
734.924	0.0155258
735.003	0.0154901
735.081	0.0155788
735.159	0.0154879
735.237	0.0154407
735.315	0.0154420
735.393	0.0156390
735.471	0.0154362
735.549	0.0154646
735.628	0.0155073
735.706	0.0154374
735.784	0.0155351
735.862	0.0155787
735.940	0.0154372
736.018	0.0155504
736.096	0.0155132
736.174	0.0156163
736.253	0.0155384
736.331	0.0156638
736.409	0.0156943
736.487	0.0155122
736.565	0.0155370
736.643	0.0157166
736.721	0.0156097
736.799	0.0155798
736.878	0.0156673
736.956	0.0154881
737.034	0.0156046
737.112	0.0155391
737.190	0.0155402
737.268	0.0154363
737.346	0.0153156
737.424	0.0153875
737.503	0.0154790
737.581	0.0154677
737.659	0.0154649
737.737	0.0156187
737.815	0.0155252
737.893	0.0154999
737.971	0.0154269
738.049	0.0155259
738.128	0.0156171
738.206	0.0156096
738.284	0.0155753
738.362	0.0157468
738.440	0.0155618
738.518	0.0155299
738.596	0.0156499
738.674	0.0155322
738.753	0.0154530
738.831	0.0156459
738.909	0.0154691
738.987	0.0153696
739.065	0.0154176
739.143	0.0155726
739.221	0.0153266
739.299	0.0153580
739.378	0.0153960
739.456	0.0153593
739.534	0.0154153
739.612	0.0155633
739.690	0.0154854
739.768	0.0155003
739.846	0.0154015
739.924	0.0155626
740.003	0.0155067
740.081	0.0153973
740.159	0.0155570
740.237	0.0156800
740.315	0.0157119
740.393	0.0155772
740.471	0.0156870
740.549	0.0156210
740.628	0.0156844
740.706	0.0155873
740.784	0.0156432
740.862	0.0155839
740.940	0.0155697
741.018	0.0155439
741.096	0.0155849
741.174	0.0155247
741.253	0.0154519
741.331	0.0155552
741.409	0.0154456
741.487	0.0155346
741.565	0.0154914
741.643	0.0156732
741.721	0.0153691
741.799	0.0155444
741.878	0.0155982
741.956	0.0156217
742.034	0.0155763
742.112	0.0155493
742.190	0.0155701
742.268	0.0155437
742.346	0.0156750
742.424	0.0156817
742.503	0.0154877
742.581	0.0156190
742.659	0.0156113
742.737	0.0156120
742.815	0.0155782
742.893	0.0156046
742.971	0.0156158
743.049	0.0155302
743.128	0.0155685
743.206	0.0155540
743.284	0.0155414
743.362	0.0155272
743.440	0.0156184
743.518	0.0154905
743.596	0.0154520
743.674	0.0154631
743.753	0.0155784
743.831	0.0156134
743.909	0.0154659
743.987	0.0153094
744.065	0.0153350
744.143	0.0153906
744.221	0.0154915
744.299	0.0154624
744.378	0.0155636
744.456	0.0154748
744.534	0.0155319
744.612	0.0156116
744.690	0.0155628
744.768	0.0156593
744.846	0.0154786
744.924	0.0155315
745.003	0.0155585
745.081	0.0155179
745.159	0.0156487
745.237	0.0155707
745.315	0.0154589
745.393	0.0156016
745.471	0.0155168
745.549	0.0155497
745.628	0.0154578
745.706	0.0153561
745.784	0.0154256
745.862	0.0153704
745.940	0.0153384
746.018	0.0155604
746.096	0.0154831
746.174	0.0155515
746.253	0.0155547
746.331	0.0155395
746.409	0.0156554
746.487	0.0156393
746.565	0.0156284
746.643	0.0156254
746.721	0.0156317
746.799	0.0157097
746.878	0.0155548
746.956	0.0155937
747.034	0.0155875
747.112	0.0155510
747.190	0.0155109
747.268	0.0155605
747.346	0.0153560
747.424	0.0154458
747.503	0.0155070
747.581	0.0154572
747.659	0.0155536
747.737	0.0154996
747.815	0.0153458
747.893	0.0156091
747.971	0.0154901
748.049	0.0154355
748.128	0.0155857
748.206	0.0156347
748.284	0.0155671
748.362	0.0154328
748.440	0.0155774
748.518	0.0154988
748.596	0.0155568
748.674	0.0155435
748.753	0.0155856
748.831	0.0154330
748.909	0.0155168
748.987	0.0155508
749.065	0.0154462
749.143	0.0155548
749.221	0.0156837
749.299	0.0156856
749.378	0.0156444
749.456	0.0155854
749.534	0.0153843
749.612	0.0157384
749.690	0.0156198
749.768	0.0155749
749.846	0.0154685
749.924	0.0155434
750.003	0.0156683
750.081	0.0156470
750.159	0.0156264
750.237	0.0156368
750.315	0.0156302
750.393	0.0153451
750.471	0.0154244
750.549	0.0154682
750.628	0.0155746
750.706	0.0154813
750.784	0.0155183
750.862	0.0154551
750.940	0.0154953
751.018	0.0155238
751.096	0.0153632
751.174	0.0154900
751.253	0.0154202
751.331	0.0153913
751.409	0.0156122
751.487	0.0154018
751.565	0.0155444
751.643	0.0155894
751.721	0.0154868
751.799	0.0154458
751.878	0.0154990
751.956	0.0155700
752.034	0.0155932
752.112	0.0155196
752.190	0.0156033
752.268	0.0155518
752.346	0.0155498
752.424	0.0154720
752.503	0.0156790
752.581	0.0155370
752.659	0.0155280
752.737	0.0155161
752.815	0.0155946
752.893	0.0156116
752.971	0.0156154
753.049	0.0155505
753.128	0.0156416
753.206	0.0156908
753.284	0.0155424
753.362	0.0155564
753.440	0.0157515
753.518	0.0153476
753.596	0.0154434
753.674	0.0155679
753.753	0.0155342
753.831	0.0156593
753.909	0.0156178
753.987	0.0156431
754.065	0.0155619
754.143	0.0156307
754.221	0.0155869
754.299	0.0155028
754.378	0.0155276
754.456	0.0154568
754.534	0.0155811
754.612	0.0154765
754.690	0.0154705
754.768	0.0155062
754.846	0.0155884
754.924	0.0156012
755.003	0.0154510
755.081	0.0156084
755.159	0.0155616
755.237	0.0155079
755.315	0.0155817
755.393	0.0156653
755.471	0.0155235
755.549	0.0156670
755.628	0.0156134
755.706	0.0156025
755.784	0.0155990
755.862	0.0156547
755.940	0.0155894
756.018	0.0156129
756.096	0.0155492
756.174	0.0155670
756.253	0.0155696
756.331	0.0156348
756.409	0.0154827
756.487	0.0155797
756.565	0.0155368
756.643	0.0155387
756.721	0.0155820
756.799	0.0154485
756.878	0.0155244
756.956	0.0154681
757.034	0.0154772
757.112	0.0154783
757.190	0.0156123
757.268	0.0154982
757.346	0.0156123
757.424	0.0157693
757.503	0.0155614
757.581	0.0154635
757.659	0.0155456
757.737	0.0156049
757.815	0.0156331
757.893	0.0154435
757.971	0.0156503
758.049	0.0156158
758.128	0.0154607
758.206	0.0155014
758.284	0.0155307
758.362	0.0154285
758.440	0.0154884
758.518	0.0154536
758.596	0.0154705
758.674	0.0155270
758.753	0.0156760
758.831	0.0156484
758.909	0.0154642
758.987	0.0155767
759.065	0.0155873
759.143	0.0156383
759.221	0.0157066
759.299	0.0156028
759.378	0.0156206
759.456	0.0154952
759.534	0.0156286
759.612	0.0156861
759.690	0.0154931
759.768	0.0155769
759.846	0.0155721
759.924	0.0154571
760.003	0.0155014
760.081	0.0155148
760.159	0.0156273
760.237	0.0156331
760.315	0.0156435
760.393	0.0155100
760.471	0.0156466
760.549	0.0155000
760.628	0.0155729
760.706	0.0156209
760.784	0.0155914
760.862	0.0154927
760.940	0.0155239
761.018	0.0155849
761.096	0.0155870
761.174	0.0155360
761.253	0.0154199
761.331	0.0155030
761.409	0.0154028
761.487	0.0156302
761.565	0.0156055
761.643	0.0154779
761.721	0.0155103
761.799	0.0155254
761.878	0.0156860
761.956	0.0156885
762.034	0.0155969
762.112	0.0155770
762.190	0.0155345
762.268	0.0156187
762.346	0.0156232
762.424	0.0156221
762.503	0.0155074
762.581	0.0155887
762.659	0.0156753
762.737	0.0154935
762.815	0.0155141
762.893	0.0155212
762.971	0.0154454
763.049	0.0154375
763.128	0.0154858
763.206	0.0156111
763.284	0.0156203
763.362	0.0154935
763.440	0.0154237
763.518	0.0154758
763.596	0.0155130
763.674	0.0155335
763.753	0.0156219
763.831	0.0156314
763.909	0.0154750
763.987	0.0155430
764.065	0.0156582
764.143	0.0154872
764.221	0.0155534
764.299	0.0155014
764.378	0.0154781
764.456	0.0154549
764.534	0.0155595
764.612	0.0154760
764.690	0.0154785
764.768	0.0155137
764.846	0.0155302
764.924	0.0154480
765.003	0.0154889
765.081	0.0155609
765.159	0.0155643
765.237	0.0154308
765.315	0.0156174
765.393	0.0155311
765.471	0.0154796
765.549	0.0155087
765.628	0.0156084
765.706	0.0155883
765.784	0.0156770
765.862	0.0156303
765.940	0.0155384
766.018	0.0156087
766.096	0.0155782
766.174	0.0156696
766.253	0.0155177
766.331	0.0155373
766.409	0.0154390
766.487	0.0155727
766.565	0.0155545
766.643	0.0154817
766.721	0.0155029
766.799	0.0154137
766.878	0.0154372
766.956	0.0154266
767.034	0.0155225
767.112	0.0154951
767.190	0.0154607
767.268	0.0155667
767.346	0.0156355
767.424	0.0155752
767.503	0.0155943
767.581	0.0154722
767.659	0.0155019
767.737	0.0155465
767.815	0.0155357
767.893	0.0156812
767.971	0.0157365
768.049	0.0156517
768.128	0.0156557
768.206	0.0154342
768.284	0.0155304
768.362	0.0155879
768.440	0.0155384
768.518	0.0154198
768.596	0.0155487
768.674	0.0156107
768.753	0.0155491
768.831	0.0155159
768.909	0.0155457
768.987	0.0154972
769.065	0.0155514
769.143	0.0156326
769.221	0.0155952
769.299	0.0156347
769.378	0.0154475
769.456	0.0155895
769.534	0.0154980
769.612	0.0155747
769.690	0.0156590
769.768	0.0155380
769.846	0.0155408
769.924	0.0155337
770.003	0.0155791
770.081	0.0154274
770.159	0.0155659
770.237	0.0155747
770.315	0.0154537
770.393	0.0155363
770.471	0.0154916
770.549	0.0155046
770.628	0.0155813
770.706	0.0154992
770.784	0.0155100
770.862	0.0154829
770.940	0.0154996
771.018	0.0154359
771.096	0.0155109
771.174	0.0155013
771.253	0.0155456
771.331	0.0156587
771.409	0.0155640
771.487	0.0154617
771.565	0.0153967
771.643	0.0156077
771.721	0.0156483
771.799	0.0155319
771.878	0.0155955
771.956	0.0155010
772.034	0.0155704
772.112	0.0156046
772.190	0.0155788
772.268	0.0155380
772.346	0.0154554
772.424	0.0155129
772.503	0.0155573
772.581	0.0155487
772.659	0.0156594
772.737	0.0156190
772.815	0.0154849
772.893	0.0156049
772.971	0.0155531
773.049	0.0155106
773.128	0.0155962
773.206	0.0155297
773.284	0.0155970
773.362	0.0156262
773.440	0.0155862
773.518	0.0156519
773.596	0.0157352
773.674	0.0155341
773.753	0.0156177
773.831	0.0156450
773.909	0.0155613
773.987	0.0155587
774.065	0.0155692
774.143	0.0155952
774.221	0.0156123
774.299	0.0156459
774.378	0.0155995
774.456	0.0155182
774.534	0.0155712
774.612	0.0155534
774.690	0.0155843
774.768	0.0154996
774.846	0.0156298
774.924	0.0155453
775.003	0.0156065
775.081	0.0156425
775.159	0.0155894
775.237	0.0156037
775.315	0.0154934
775.393	0.0155604
775.471	0.0155822
775.549	0.0153473
775.628	0.0154534
775.706	0.0156052
775.784	0.0155254
775.862	0.0155663
775.940	0.0156158
776.018	0.0155771
776.096	0.0155728
776.174	0.0156094
776.253	0.0154736
776.331	0.0155504
776.409	0.0155343
776.487	0.0156065
776.565	0.0156567
776.643	0.0155985
776.721	0.0155743
776.799	0.0155919
776.878	0.0156946
776.956	0.0156384
777.034	0.0155662
777.112	0.0156401
777.190	0.0155080
777.268	0.0156454
777.346	0.0156013
777.424	0.0157309
777.503	0.0156379
777.581	0.0154620
777.659	0.0155907
777.737	0.0154218
777.815	0.0155856
777.893	0.0155040
777.971	0.0153976
778.049	0.0154380
778.128	0.0155256
778.206	0.0156571
778.284	0.0154420
778.362	0.0154338
778.440	0.0153587
778.518	0.0155337
778.596	0.0154959
778.674	0.0156915
778.753	0.0156183
778.831	0.0155294
778.909	0.0155675
778.987	0.0155782
779.065	0.0155795
779.143	0.0156009
779.221	0.0155123
779.299	0.0154970
779.378	0.0155604
779.456	0.0155565
779.534	0.0155762
779.612	0.0155837
779.690	0.0155197
779.768	0.0156146
779.846	0.0156545
779.924	0.0155023
780.003	0.0154388
780.081	0.0154977
780.159	0.0156168
780.237	0.0155383
780.315	0.0155706
780.393	0.0155758
780.471	0.0156194
780.549	0.0156205
780.628	0.0154603
780.706	0.0156028
780.784	0.0154828
780.862	0.0154449
780.940	0.0156712
781.018	0.0157111
781.096	0.0156747
781.174	0.0155388
781.253	0.0157520
781.331	0.0156108
781.409	0.0156106
781.487	0.0156273
781.565	0.0157481
781.643	0.0156761
781.721	0.0155174
781.799	0.0155348
781.878	0.0155808
781.956	0.0155299
782.034	0.0156019
782.112	0.0156269
782.190	0.0157016
782.268	0.0154875
782.346	0.0155033
782.424	0.0156239
782.503	0.0156010
782.581	0.0155397
782.659	0.0155900
782.737	0.0156137
782.815	0.0156359
782.893	0.0155431
782.971	0.0155406
783.049	0.0154739
783.128	0.0154001
783.206	0.0156004
783.284	0.0157156
783.362	0.0155387
783.440	0.0156191
783.518	0.0154221
783.596	0.0155379
783.674	0.0154582
783.753	0.0155272
783.831	0.0154981
783.909	0.0153998
783.987	0.0154770
784.065	0.0156476
784.143	0.0155866
784.221	0.0154814
784.299	0.0156737
784.378	0.0156407
784.456	0.0153974
784.534	0.0156450
784.612	0.0155879
784.690	0.0156889
784.768	0.0156393
784.846	0.0155854
784.924	0.0155044
785.003	0.0156843
785.081	0.0155883
785.159	0.0154646
785.237	0.0155112
785.315	0.0156180
785.393	0.0155466
785.471	0.0156220
785.549	0.0156057
785.628	0.0155331
785.706	0.0155179
785.784	0.0156279
785.862	0.0155962
785.940	0.0155508
786.018	0.0155599
786.096	0.0156300
786.174	0.0155106
786.253	0.0154238
786.331	0.0155117
786.409	0.0156548
786.487	0.0157012
786.565	0.0155914
786.643	0.0154959
786.721	0.0155920
786.799	0.0154948
786.878	0.0154635
786.956	0.0156742
787.034	0.0157584
787.112	0.0155460
787.190	0.0156492
787.268	0.0156838
787.346	0.0156371
787.424	0.0156381
787.503	0.0155457
787.581	0.0155466
787.659	0.0155940
787.737	0.0155612
787.815	0.0155248
787.893	0.0155570
787.971	0.0155556
788.049	0.0155698
788.128	0.0155260
788.206	0.0155103
788.284	0.0154922
788.362	0.0156072
788.440	0.0154845
788.518	0.0154556
788.596	0.0156267
788.674	0.0155689
788.753	0.0156203
788.831	0.0155632
788.909	0.0155576
788.987	0.0156830
789.065	0.0155069
789.143	0.0155882
789.221	0.0156540
789.299	0.0156185
789.378	0.0155458
789.456	0.0155397
789.534	0.0154801
789.612	0.0155391
789.690	0.0155457
789.768	0.0156741
789.846	0.0154948
789.924	0.0155642
790.003	0.0155382
790.081	0.0155200
790.159	0.0156060
790.237	0.0155513
790.315	0.0156239
790.393	0.0157333
790.471	0.0156573
790.549	0.0157116
790.628	0.0156297
790.706	0.0156741
790.784	0.0155370
790.862	0.0155831
790.940	0.0156400
791.018	0.0155953
791.096	0.0154974
791.174	0.0156194
791.253	0.0155943
791.331	0.0155306
791.409	0.0154316
791.487	0.0155862
791.565	0.0156174
791.643	0.0155585
791.721	0.0156634
791.799	0.0156057
791.878	0.0153751
791.956	0.0155376
792.034	0.0155415
792.112	0.0155315
792.190	0.0156110
792.268	0.0154748
792.346	0.0155519
792.424	0.0154431
792.503	0.0155322
792.581	0.0154214
792.659	0.0155099
792.737	0.0156557
792.815	0.0155817
792.893	0.0155814
792.971	0.0156262
793.049	0.0156182
793.128	0.0154038
793.206	0.0155306
793.284	0.0155013
793.362	0.0154298
793.440	0.0153813
793.518	0.0155689
793.596	0.0156641
793.674	0.0154719
793.753	0.0155831
793.831	0.0156071
793.909	0.0154803
793.987	0.0155961
794.065	0.0155931
794.143	0.0155270
794.221	0.0155533
794.299	0.0156310
794.378	0.0154832
794.456	0.0156407
794.534	0.0155009
794.612	0.0155302
794.690	0.0155478
794.768	0.0154971
794.846	0.0155547
794.924	0.0156419
795.003	0.0155135
795.081	0.0155481
795.159	0.0154893
795.237	0.0155065
795.315	0.0155150
795.393	0.0154452
795.471	0.0155202
795.549	0.0155813
795.628	0.0154346
795.706	0.0155043
795.784	0.0155812
795.862	0.0156136
795.940	0.0156229
796.018	0.0156458
796.096	0.0154757
796.174	0.0155819
796.253	0.0155586
796.331	0.0155833
796.409	0.0156360
796.487	0.0157160
796.565	0.0154431
796.643	0.0156062
796.721	0.0155513
796.799	0.0155338
796.878	0.0155332
796.956	0.0154971
797.034	0.0155759
797.112	0.0155803
797.190	0.0155221
797.268	0.0156166
797.346	0.0154897
797.424	0.0154234
797.503	0.0155518
797.581	0.0157620
797.659	0.0156232
797.737	0.0154868
797.815	0.0155849
797.893	0.0155881
797.971	0.0156094
798.049	0.0155357
798.128	0.0155163
798.206	0.0156284
798.284	0.0156096
798.362	0.0156332
798.440	0.0155600
798.518	0.0155586
798.596	0.0155052
798.674	0.0156158
798.753	0.0155210
798.831	0.0156247
798.909	0.0155328
798.987	0.0155585
799.065	0.0157331
799.143	0.0156313
799.221	0.0156488
799.299	0.0155723
799.378	0.0153878
799.456	0.0155332
799.534	0.0155979
799.612	0.0156071
799.690	0.0155367
799.768	0.0156252
799.846	0.0155384
799.924	0.0156290
800.003	0.0155531
800.081	0.0156091
800.159	0.0156206
800.237	0.0153352
800.315	0.0154259
800.393	0.0155423
800.471	0.0154301
800.549	0.0153764
800.628	0.0155642
800.706	0.0156068
800.784	0.0156616
800.862	0.0155611
800.940	0.0154203
801.018	0.0155045
801.096	0.0154906
801.174	0.0155550
801.253	0.0155733
801.331	0.0154769
801.409	0.0155145
801.487	0.0156768
801.565	0.0155831
801.643	0.0156008
801.721	0.0156715
801.799	0.0155255
801.878	0.0154332
801.956	0.0154867
802.034	0.0156600
802.112	0.0155850
802.190	0.0155096
802.268	0.0154980
802.346	0.0156116
802.424	0.0157001
802.503	0.0157436
802.581	0.0154796
802.659	0.0156528
802.737	0.0155543
802.815	0.0156404
802.893	0.0156190
802.971	0.0156067
803.049	0.0154662
803.128	0.0155329
803.206	0.0156372
803.284	0.0156966
803.362	0.0156297
803.440	0.0155083
803.518	0.0153883
803.596	0.0154784
803.674	0.0155297
803.753	0.0155547
803.831	0.0156425
803.909	0.0156605
803.987	0.0155154
804.065	0.0156081
804.143	0.0155604
804.221	0.0154143
804.299	0.0155611
804.378	0.0156608
804.456	0.0155844
804.534	0.0154108
804.612	0.0155260
804.690	0.0156103
804.768	0.0155541
804.846	0.0155396
804.924	0.0155567
805.003	0.0153727
805.081	0.0155805
805.159	0.0154864
805.237	0.0155072
805.315	0.0155488
805.393	0.0154619
805.471	0.0154483
805.549	0.0154362
805.628	0.0155238
805.706	0.0154854
805.784	0.0155370
805.862	0.0155482
805.940	0.0156591
806.018	0.0155071
806.096	0.0154665
806.174	0.0155839
806.253	0.0155016
806.331	0.0154139
806.409	0.0154846
806.487	0.0155968
806.565	0.0155549
806.643	0.0153737
806.721	0.0155491
806.799	0.0155219
806.878	0.0155259
806.956	0.0154787
807.034	0.0154475
807.112	0.0155288
807.190	0.0155887
807.268	0.0156066
807.346	0.0154999
807.424	0.0155106
807.503	0.0156048
807.581	0.0156181
807.659	0.0155994
807.737	0.0155930
807.815	0.0156197
807.893	0.0155701
807.971	0.0156472
808.049	0.0155062
808.128	0.0156497
808.206	0.0155251
808.284	0.0156175
808.362	0.0156257
808.440	0.0154026
808.518	0.0155954
808.596	0.0154227
808.674	0.0154541
808.753	0.0154106
808.831	0.0156383
808.909	0.0154193
808.987	0.0154260
809.065	0.0156782
809.143	0.0154836
809.221	0.0154459
809.299	0.0156551
809.378	0.0155486
809.456	0.0156116
809.534	0.0154804
809.612	0.0156419
809.690	0.0156025
809.768	0.0154486
809.846	0.0155014
809.924	0.0156248
810.003	0.0155668
810.081	0.0155093
810.159	0.0154881
810.237	0.0155608
810.315	0.0155249
810.393	0.0154913
810.471	0.0155297
810.549	0.0155872
810.628	0.0155303
810.706	0.0156815
810.784	0.0155803
810.862	0.0156516
810.940	0.0153828
811.018	0.0156096
811.096	0.0155769
811.174	0.0155465
811.253	0.0153896
811.331	0.0155234
811.409	0.0155295
811.487	0.0156064
811.565	0.0156017
811.643	0.0154259
811.721	0.0154833
811.799	0.0154244
811.878	0.0155317
811.956	0.0154643
812.034	0.0154930
812.112	0.0154911
812.190	0.0154996
812.268	0.0154581
812.346	0.0154607
812.424	0.0155541
812.503	0.0154919
812.581	0.0153835
812.659	0.0154977
812.737	0.0154280
812.815	0.0155781
812.893	0.0155695
812.971	0.0156527
813.049	0.0155193
813.128	0.0155755
813.206	0.0156026
813.284	0.0154639
813.362	0.0155878
813.440	0.0156248
813.518	0.0156103
813.596	0.0156144
813.674	0.0156134
813.753	0.0156094
813.831	0.0157076
813.909	0.0157150
813.987	0.0156293
814.065	0.0155227
814.143	0.0156075
814.221	0.0156274
814.299	0.0156953
814.378	0.0155415
814.456	0.0155790
814.534	0.0157607
814.612	0.0155602
814.690	0.0155442
814.768	0.0156796
814.846	0.0155789
814.924	0.0155862
815.003	0.0156680
815.081	0.0155373
815.159	0.0156064
815.237	0.0154710
815.315	0.0153591
815.393	0.0155158
815.471	0.0155897
815.549	0.0155446
815.628	0.0154982
815.706	0.0155015
815.784	0.0155422
815.862	0.0153681
815.940	0.0154684
816.018	0.0154171
816.096	0.0155703
816.174	0.0154367
816.253	0.0154596
816.331	0.0154991
816.409	0.0155832
816.487	0.0155998
816.565	0.0156100
816.643	0.0154253
816.721	0.0156435
816.799	0.0155026
816.878	0.0155341
816.956	0.0156310
817.034	0.0155708
817.112	0.0156458
817.190	0.0157030
817.268	0.0156640
817.346	0.0156279
817.424	0.0155342
817.503	0.0155328
817.581	0.0156055
817.659	0.0155170
817.737	0.0156545
817.815	0.0156335
817.893	0.0156039
817.971	0.0156918
818.049	0.0156454
818.128	0.0156435
818.206	0.0155009
818.284	0.0153839
818.362	0.0155199
818.440	0.0156769
818.518	0.0155324
818.596	0.0156318
818.674	0.0157480
818.753	0.0157177
818.831	0.0155772
818.909	0.0155080
818.987	0.0156217
819.065	0.0156208
819.143	0.0155264
819.221	0.0154312
819.299	0.0154885
819.378	0.0155196
819.456	0.0155965
819.534	0.0156664
819.612	0.0156018
819.690	0.0154857
819.768	0.0155140
819.846	0.0155640
819.924	0.0155296
820.003	0.0155422
820.081	0.0155446
820.159	0.0155995
820.237	0.0155656
820.315	0.0154936
820.393	0.0155562
820.471	0.0155054
820.549	0.0155831
820.628	0.0154681
820.706	0.0155162
820.784	0.0154990
820.862	0.0155010
820.940	0.0154063
821.018	0.0155454
821.096	0.0155700
821.174	0.0156076
821.253	0.0155407
821.331	0.0155795
821.409	0.0155898
821.487	0.0155514
821.565	0.0156277
821.643	0.0156765
821.721	0.0154881
821.799	0.0155365
821.878	0.0154956
821.956	0.0155584
822.034	0.0154913
822.112	0.0154388
822.190	0.0154281
822.268	0.0155739
822.346	0.0155757
822.424	0.0155607
822.503	0.0155341
822.581	0.0154544
822.659	0.0155423
822.737	0.0155905
822.815	0.0155288
822.893	0.0155410
822.971	0.0154401
823.049	0.0154885
823.128	0.0154552
823.206	0.0155584
823.284	0.0155854
823.362	0.0155767
823.440	0.0155421
823.518	0.0156087
823.596	0.0155305
823.674	0.0154915
823.753	0.0154015
823.831	0.0154957
823.909	0.0155913
823.987	0.0155022
824.065	0.0157086
824.143	0.0155592
824.221	0.0155721
824.299	0.0154932
824.378	0.0156617
824.456	0.0156910
824.534	0.0156834
824.612	0.0156252
824.690	0.0154139
824.768	0.0155050
824.846	0.0155145
824.924	0.0155844
825.003	0.0155227
825.081	0.0155330
825.159	0.0155295
825.237	0.0154936
825.315	0.0154494
825.393	0.0156462
825.471	0.0155695
825.549	0.0155979
825.628	0.0154928
825.706	0.0154836
825.784	0.0155410
825.862	0.0155811
825.940	0.0155419
826.018	0.0155190
826.096	0.0154644
826.174	0.0156308
826.253	0.0155058
826.331	0.0154086
826.409	0.0154292
826.487	0.0156170
826.565	0.0156189
826.643	0.0155454
826.721	0.0155851
826.799	0.0157013
826.878	0.0156047
826.956	0.0155584
827.034	0.0155721
827.112	0.0155469
827.190	0.0155150
827.268	0.0155180
827.346	0.0155089
827.424	0.0156528
827.503	0.0155933
827.581	0.0155056
827.659	0.0155783
827.737	0.0155532
827.815	0.0156561
827.893	0.0156773
827.971	0.0155800
828.049	0.0155351
828.128	0.0156484
828.206	0.0154205
828.284	0.0155726
828.362	0.0156042
828.440	0.0154893
828.518	0.0155322
828.596	0.0156412
828.674	0.0156257
828.753	0.0156218
828.831	0.0154781
828.909	0.0155274
828.987	0.0155409
829.065	0.0156319
829.143	0.0155851
829.221	0.0156613
829.299	0.0155592
829.378	0.0154301
829.456	0.0155659
829.534	0.0156646
829.612	0.0155483
829.690	0.0155131
829.768	0.0155738
829.846	0.0156555
829.924	0.0156132
830.003	0.0156017
830.081	0.0156234
830.159	0.0155466
830.237	0.0156117
830.315	0.0157503
830.393	0.0155584
830.471	0.0155022
830.549	0.0154396
830.628	0.0155248
830.706	0.0156232
830.784	0.0156087
830.862	0.0155215
830.940	0.0156087
831.018	0.0156905
831.096	0.0155490
831.174	0.0155803
831.253	0.0155585
831.331	0.0154559
831.409	0.0155196
831.487	0.0156291
831.565	0.0156806
831.643	0.0155391
831.721	0.0156191
831.799	0.0155932
831.878	0.0155711
831.956	0.0156181
832.034	0.0155606
832.112	0.0155671
832.190	0.0156129
832.268	0.0154453
832.346	0.0154564
832.424	0.0156155
832.503	0.0154655
832.581	0.0154564
832.659	0.0154884
832.737	0.0156242
832.815	0.0155794
832.893	0.0154037
832.971	0.0154892
833.049	0.0156249
833.128	0.0156117
833.206	0.0155603
833.284	0.0155138
833.362	0.0156265
833.440	0.0157343
833.518	0.0156649
833.596	0.0154724
833.674	0.0155643
833.753	0.0156019
833.831	0.0155798
833.909	0.0156372
833.987	0.0156899
834.065	0.0157227
834.143	0.0157647
834.221	0.0157160
834.299	0.0157526
834.378	0.0156062
834.456	0.0156106
834.534	0.0156823
834.612	0.0156240
834.690	0.0155967
834.768	0.0155503
834.846	0.0156333
834.924	0.0154372
835.003	0.0156413
835.081	0.0154939
835.159	0.0155896
835.237	0.0155637
835.315	0.0154919
835.393	0.0155047
835.471	0.0154510
835.549	0.0154130
835.628	0.0154626
835.706	0.0154343
835.784	0.0154760
835.862	0.0153863
835.940	0.0154006
836.018	0.0155621
836.096	0.0155729
836.174	0.0153648
836.253	0.0155836
836.331	0.0154622
836.409	0.0154225
836.487	0.0155544
836.565	0.0155882
836.643	0.0155673
836.721	0.0155405
836.799	0.0155645
836.878	0.0155131
836.956	0.0155559
837.034	0.0155708
837.112	0.0157477
837.190	0.0156555
837.268	0.0156179
837.346	0.0158012
837.424	0.0157140
837.503	0.0155448
837.581	0.0156452
837.659	0.0157778
837.737	0.0156620
837.815	0.0157001
837.893	0.0156116
837.971	0.0157552
838.049	0.0156503
838.128	0.0156463
838.206	0.0154938
838.284	0.0156171
838.362	0.0157556
838.440	0.0156258
838.518	0.0157581
838.596	0.0156668
838.674	0.0155078
838.753	0.0156595
838.831	0.0154768
838.909	0.0155589
838.987	0.0156529
839.065	0.0155745
839.143	0.0156136
839.221	0.0155447
839.299	0.0156822
839.378	0.0154493
839.456	0.0154693
839.534	0.0155151
839.612	0.0155001
839.690	0.0155832
839.768	0.0153319
839.846	0.0153902
839.924	0.0154213
840.003	0.0153987
840.081	0.0153491
840.159	0.0154372
840.237	0.0154836
840.315	0.0154305
840.393	0.0154780
840.471	0.0153281
840.549	0.0153452
840.628	0.0154944
840.706	0.0153693
840.784	0.0154801
840.862	0.0154346
840.940	0.0156318
841.018	0.0155154
841.096	0.0156342
841.174	0.0155674
841.253	0.0155901
841.331	0.0156667
841.409	0.0156835
841.487	0.0155861
841.565	0.0155860
841.643	0.0157622
841.721	0.0156518
841.799	0.0156659
841.878	0.0158127
841.956	0.0157377
842.034	0.0158954
842.112	0.0156211
842.190	0.0157180
842.268	0.0157516
842.346	0.0157022
842.424	0.0156601
842.503	0.0157110
842.581	0.0157378
842.659	0.0157298
842.737	0.0156897
842.815	0.0156874
842.893	0.0157253
842.971	0.0155631
843.049	0.0156107
843.128	0.0156182
843.206	0.0155413
843.284	0.0155442
843.362	0.0155060
843.440	0.0155145
843.518	0.0154443
843.596	0.0153905
843.674	0.0153472
843.753	0.0150947
843.831	0.0153061
843.909	0.0153513
843.987	0.0153181
844.065	0.0152218
844.143	0.0152260
844.221	0.0153791
844.299	0.0152863
844.378	0.0153300
844.456	0.0153143
844.534	0.0153295
844.612	0.0154159
844.690	0.0154247
844.768	0.0154105
844.846	0.0155765
844.924	0.0155776
845.003	0.0154012
845.081	0.0155426
845.159	0.0155560
845.237	0.0155348
845.315	0.0156170
845.393	0.0155939
845.471	0.0157454
845.549	0.0157291
845.628	0.0156599
845.706	0.0157704
845.784	0.0157030
845.862	0.0156153
845.940	0.0157032
846.018	0.0158655
846.096	0.0157374
846.174	0.0157139
846.253	0.0157896
846.331	0.0157977
846.409	0.0158012
846.487	0.0156857
846.565	0.0157349
846.643	0.0157375
846.721	0.0157397
846.799	0.0156812
846.878	0.0156097
846.956	0.0155879
847.034	0.0156028
847.112	0.0155835
847.190	0.0156965
847.268	0.0154991
847.346	0.0154903
847.424	0.0155114
847.503	0.0156479
847.581	0.0154987
847.659	0.0155267
847.737	0.0153799
847.815	0.0153822
847.893	0.0153470
847.971	0.0153172
848.049	0.0153799
848.128	0.0152228
848.206	0.0153835
848.284	0.0154072
848.362	0.0154010
848.440	0.0151459
848.518	0.0154616
848.596	0.0154053
848.674	0.0154861
848.753	0.0154800
848.831	0.0153687
848.909	0.0153341
848.987	0.0155191
849.065	0.0154848
849.143	0.0154176
849.221	0.0155740
849.299	0.0154970
849.378	0.0156155
849.456	0.0156261
849.534	0.0156065
849.612	0.0156795
849.690	0.0155650
849.768	0.0155560
849.846	0.0156664
849.924	0.0158170
850.003	0.0156930
850.081	0.0156786
850.159	0.0157818
850.237	0.0157793
850.315	0.0157561
850.393	0.0158212
850.471	0.0158019
850.549	0.0158674
850.628	0.0158181
850.706	0.0157924
850.784	0.0157441
850.862	0.0157410
850.940	0.0155795
851.018	0.0156769
851.096	0.0156354
851.174	0.0155933
851.253	0.0156582
851.331	0.0158232
851.409	0.0156587
851.487	0.0155299
851.565	0.0155247
851.643	0.0154707
851.721	0.0155189
851.799	0.0154517
851.878	0.0154660
851.956	0.0154249
852.034	0.0152930
852.112	0.0153720
852.190	0.0153668
852.268	0.0154861
852.346	0.0154792
852.424	0.0154633
852.503	0.0154687
852.581	0.0153883
852.659	0.0154213
852.737	0.0154934
852.815	0.0155154
852.893	0.0154968
852.971	0.0154086
853.049	0.0154369
853.128	0.0154929
853.206	0.0155292
853.284	0.0154500
853.362	0.0156177
853.440	0.0156512
853.518	0.0154031
853.596	0.0155021
853.674	0.0155093
853.753	0.0155311
853.831	0.0155798
853.909	0.0155851
853.987	0.0155324
854.065	0.0155660
854.143	0.0155827
854.221	0.0156154
854.299	0.0155822
854.378	0.0156638
854.456	0.0156327
854.534	0.0156781
854.612	0.0156724
854.690	0.0156300
854.768	0.0157115
854.846	0.0156033
854.924	0.0156008
855.003	0.0155894
855.081	0.0156356
855.159	0.0156186
855.237	0.0155663
855.315	0.0156609
855.393	0.0156377
855.471	0.0156926
855.549	0.0155807
855.628	0.0155070
855.706	0.0154459
855.784	0.0155192
855.862	0.0155777
855.940	0.0156741
856.018	0.0156055
856.096	0.0154402
856.174	0.0153863
856.253	0.0155895
856.331	0.0154165
856.409	0.0156455
856.487	0.0154946
856.565	0.0155586
856.643	0.0153983
856.721	0.0154678
856.799	0.0155933
856.878	0.0154209
856.956	0.0156129
857.034	0.0156046
857.112	0.0155358
857.190	0.0153796
857.268	0.0154235
857.346	0.0154359
857.424	0.0155180
857.503	0.0156315
857.581	0.0155962
857.659	0.0154949
857.737	0.0156921
857.815	0.0155746
857.893	0.0154044
857.971	0.0155552
858.049	0.0156306
858.128	0.0156377
858.206	0.0156584
858.284	0.0155754
858.362	0.0155531
858.440	0.0157090
858.518	0.0157458
858.596	0.0156554
858.674	0.0155866
858.753	0.0156579
858.831	0.0156728
858.909	0.0156126
858.987	0.0156767
859.065	0.0157938
859.143	0.0157327
859.221	0.0156786
859.299	0.0156049
859.378	0.0156401
859.456	0.0156061
859.534	0.0157384
859.612	0.0156239
859.690	0.0154763
859.768	0.0156474
859.846	0.0156613
859.924	0.0156176
860.003	0.0155814
860.081	0.0155357
860.159	0.0155998
860.237	0.0155663
860.315	0.0155389
860.393	0.0154319
860.471	0.0156098
860.549	0.0155929
860.628	0.0155036
860.706	0.0155629
860.784	0.0154723
860.862	0.0155013
860.940	0.0154613
861.018	0.0153999
861.096	0.0153556
861.174	0.0154160
861.253	0.0155274
861.331	0.0153774
861.409	0.0153307
861.487	0.0154736
861.565	0.0154594
861.643	0.0154941
861.721	0.0154252
861.799	0.0154971
861.878	0.0153516
861.956	0.0154451
862.034	0.0154377
862.112	0.0154002
862.190	0.0154958
862.268	0.0154122
862.346	0.0155398
862.424	0.0156116
862.503	0.0155534
862.581	0.0154844
862.659	0.0155258
862.737	0.0156419
862.815	0.0157009
862.893	0.0156562
862.971	0.0155058
863.049	0.0156418
863.128	0.0158186
863.206	0.0156220
863.284	0.0156565
863.362	0.0156177
863.440	0.0157046
863.518	0.0157545
863.596	0.0158138
863.674	0.0156944
863.753	0.0158555
863.831	0.0158052
863.909	0.0157406
863.987	0.0158480
864.065	0.0157076
864.143	0.0156074
864.221	0.0155499
864.299	0.0156231
864.378	0.0156219
864.456	0.0156803
864.534	0.0156328
864.612	0.0155889
864.690	0.0155481
864.768	0.0155848
864.846	0.0156549
864.924	0.0154433
865.003	0.0154915
865.081	0.0154391
865.159	0.0154566
865.237	0.0152857
865.315	0.0153950
865.393	0.0154468
865.471	0.0154542
865.549	0.0153322
865.628	0.0155009
865.706	0.0154219
865.784	0.0152370
865.862	0.0154381
865.940	0.0153316
866.018	0.0154469
866.096	0.0154182
866.174	0.0155145
866.253	0.0153419
866.331	0.0153217
866.409	0.0154572
866.487	0.0154099
866.565	0.0154031
866.643	0.0153423
866.721	0.0153735
866.799	0.0154471
866.878	0.0154308
866.956	0.0154562
867.034	0.0154465
867.112	0.0155556
867.190	0.0155208
867.268	0.0153843
867.346	0.0155822
867.424	0.0156856
867.503	0.0154881
867.581	0.0154647
867.659	0.0156483
867.737	0.0155518
867.815	0.0156532
867.893	0.0157788
867.971	0.0156876
868.049	0.0157647
868.128	0.0157240
868.206	0.0157024
868.284	0.0156742
868.362	0.0157777
868.440	0.0157110
868.518	0.0158185
868.596	0.0156683
868.674	0.0156705
868.753	0.0157765
868.831	0.0155476
868.909	0.0156724
868.987	0.0157093
869.065	0.0155901
869.143	0.0156802
869.221	0.0155994
869.299	0.0157307
869.378	0.0154690
869.456	0.0155095
869.534	0.0154790
869.612	0.0154050
869.690	0.0155280
869.768	0.0155026
869.846	0.0154958
869.924	0.0156134
870.003	0.0155291
870.081	0.0154683
870.159	0.0155786
870.237	0.0154798
870.315	0.0155151
870.393	0.0154865
870.471	0.0154424
870.549	0.0155087
870.628	0.0156701
870.706	0.0154089
870.784	0.0153815
870.862	0.0154932
870.940	0.0155099
871.018	0.0154707
871.096	0.0155698
871.174	0.0154021
871.253	0.0155060
871.331	0.0155231
871.409	0.0154102
871.487	0.0155581
871.565	0.0155384
871.643	0.0154853
871.721	0.0154778
871.799	0.0155283
871.878	0.0154636
871.956	0.0155351
872.034	0.0154430
872.112	0.0155813
872.190	0.0154258
872.268	0.0155312
872.346	0.0155254
872.424	0.0155610
872.503	0.0154538
872.581	0.0156423
872.659	0.0156447
872.737	0.0154641
872.815	0.0155062
872.893	0.0156716
872.971	0.0155825
873.049	0.0156872
873.128	0.0157977
873.206	0.0156348
873.284	0.0158318
873.362	0.0156846
873.440	0.0156771
873.518	0.0157447
873.596	0.0156071
873.674	0.0156556
873.753	0.0156860
873.831	0.0156292
873.909	0.0156256
873.987	0.0157132
874.065	0.0156633
874.143	0.0157080
874.221	0.0156889
874.299	0.0155662
874.378	0.0157067
874.456	0.0156216
874.534	0.0156163
874.612	0.0158183
874.690	0.0156759
874.768	0.0156409
874.846	0.0157232
874.924	0.0156522
875.003	0.0155994
875.081	0.0155939
875.159	0.0156139
875.237	0.0154579
875.315	0.0154775
875.393	0.0154649
875.471	0.0155511
875.549	0.0155872
875.628	0.0156306
875.706	0.0155251
875.784	0.0154528
875.862	0.0153096
875.940	0.0155225
876.018	0.0154077
876.096	0.0155033
876.174	0.0155041
876.253	0.0153539
876.331	0.0155827
876.409	0.0153969
876.487	0.0153800
876.565	0.0155322
876.643	0.0153439
876.721	0.0154711
876.799	0.0156027
876.878	0.0154871
876.956	0.0155431
877.034	0.0155345
877.112	0.0154703
877.190	0.0153793
877.268	0.0153940
877.346	0.0154202
877.424	0.0154700
877.503	0.0154532
877.581	0.0154268
877.659	0.0155204
877.737	0.0154620
877.815	0.0154092
877.893	0.0155417
877.971	0.0155508
878.049	0.0155224
878.128	0.0154529
878.206	0.0156468
878.284	0.0156068
878.362	0.0156283
878.440	0.0155770
878.518	0.0155094
878.596	0.0157410
878.674	0.0157040
878.753	0.0155305
878.831	0.0156123
878.909	0.0157995
878.987	0.0156059
879.065	0.0156023
879.143	0.0155882
879.221	0.0157687
879.299	0.0157398
879.378	0.0157114
879.456	0.0158046
879.534	0.0156029
879.612	0.0156306
879.690	0.0156287
879.768	0.0156978
879.846	0.0156091
879.924	0.0156354
880.003	0.0156711
880.081	0.0156948
880.159	0.0154970
880.237	0.0155242
880.315	0.0156019
880.393	0.0156476
880.471	0.0155077
880.549	0.0154974
880.628	0.0154934
880.706	0.0155602
880.784	0.0155025
880.862	0.0155104
880.940	0.0154499
881.018	0.0154988
881.096	0.0155585
881.174	0.0152641
881.253	0.0153572
881.331	0.0155152
881.409	0.0154204
881.487	0.0152850
881.565	0.0153904
881.643	0.0154442
881.721	0.0153999
881.799	0.0154066
881.878	0.0154587
881.956	0.0156180
882.034	0.0156350
882.112	0.0153801
882.190	0.0155506
882.268	0.0155196
882.346	0.0154886
882.424	0.0155276
882.503	0.0155179
882.581	0.0154684
882.659	0.0156453
882.737	0.0156110
882.815	0.0155547
882.893	0.0155875
882.971	0.0156502
883.049	0.0155919
883.128	0.0156846
883.206	0.0158069
883.284	0.0155356
883.362	0.0155391
883.440	0.0156246
883.518	0.0155087
883.596	0.0154448
883.674	0.0155093
883.753	0.0155590
883.831	0.0155082
883.909	0.0156057
883.987	0.0155389
884.065	0.0155134
884.143	0.0155560
884.221	0.0156084
884.299	0.0153799
884.378	0.0154330
884.456	0.0155204
884.534	0.0155315
884.612	0.0156796
884.690	0.0155099
884.768	0.0156567
884.846	0.0155182
884.924	0.0155700
885.003	0.0154919
885.081	0.0155570
885.159	0.0155180
885.237	0.0156112
885.315	0.0155930
885.393	0.0156908
885.471	0.0155339
885.549	0.0156142
885.628	0.0155946
885.706	0.0156301
885.784	0.0156006
885.862	0.0155973
885.940	0.0156657
886.018	0.0155860
886.096	0.0156390
886.174	0.0156882
886.253	0.0154440
886.331	0.0155559
886.409	0.0155195
886.487	0.0156178
886.565	0.0155598
886.643	0.0154005
886.721	0.0156371
886.799	0.0155547
886.878	0.0155134
886.956	0.0155425
887.034	0.0155063
887.112	0.0155859
887.190	0.0154967
887.268	0.0154045
887.346	0.0154417
887.424	0.0154848
887.503	0.0154419
887.581	0.0154051
887.659	0.0155632
887.737	0.0154974
887.815	0.0153197
887.893	0.0153873
887.971	0.0153533
888.049	0.0154319
888.128	0.0156310
888.206	0.0156293
888.284	0.0155265
888.362	0.0154691
888.440	0.0155052
888.518	0.0156203
888.596	0.0156145
888.674	0.0155883
888.753	0.0155779
888.831	0.0154614
888.909	0.0156471
888.987	0.0155676
889.065	0.0155063
889.143	0.0155296
889.221	0.0155032
889.299	0.0155443
889.378	0.0155764
889.456	0.0156686
889.534	0.0156189
889.612	0.0154437
889.690	0.0155518
889.768	0.0154908
889.846	0.0153928
889.924	0.0154697
890.003	0.0154570
890.081	0.0155488
890.159	0.0154636
890.237	0.0155231
890.315	0.0154761
890.393	0.0155511
890.471	0.0155027
890.549	0.0156260
890.628	0.0157205
890.706	0.0155880
890.784	0.0154539
890.862	0.0154758
890.940	0.0156068
891.018	0.0156369
891.096	0.0155346
891.174	0.0156333
891.253	0.0156103
891.331	0.0154921
891.409	0.0155691
891.487	0.0157301
891.565	0.0153994
891.643	0.0155011
891.721	0.0156013
891.799	0.0157162
891.878	0.0155437
891.956	0.0156283
892.034	0.0156087
892.112	0.0156955
892.190	0.0156269
892.268	0.0155910
892.346	0.0156838
892.424	0.0156818
892.503	0.0155941
892.581	0.0156106
892.659	0.0155512
892.737	0.0156199
892.815	0.0155701
892.893	0.0156562
892.971	0.0154697
893.049	0.0155373
893.128	0.0156577
893.206	0.0154861
893.284	0.0156113
893.362	0.0154306
893.440	0.0155523
893.518	0.0155515
893.596	0.0154522
893.674	0.0155921
893.753	0.0154922
893.831	0.0154217
893.909	0.0154410
893.987	0.0155235
894.065	0.0155830
894.143	0.0154434
894.221	0.0155115
894.299	0.0155968
894.378	0.0154403
894.456	0.0154649
894.534	0.0155862
894.612	0.0153029
894.690	0.0154208
894.768	0.0155164
894.846	0.0154432
894.924	0.0155251
895.003	0.0154780
895.081	0.0156196
895.159	0.0154469
895.237	0.0155477
895.315	0.0157213
895.393	0.0155535
895.471	0.0155152
895.549	0.0154669
895.628	0.0156273
895.706	0.0157391
895.784	0.0156750
895.862	0.0157190
895.940	0.0155742
896.018	0.0155703
896.096	0.0156387
896.174	0.0157475
896.253	0.0156523
896.331	0.0155814
896.409	0.0155071
896.487	0.0156744
896.565	0.0157127
896.643	0.0156109
896.721	0.0156049
896.799	0.0155640
896.878	0.0155450
896.956	0.0155542
897.034	0.0154909
897.112	0.0155320
897.190	0.0156094
897.268	0.0156480
897.346	0.0155684
897.424	0.0156542
897.503	0.0156263
897.581	0.0156675
897.659	0.0155534
897.737	0.0155109
897.815	0.0155112
897.893	0.0154864
897.971	0.0154652
898.049	0.0155771
898.128	0.0156099
898.206	0.0154517
898.284	0.0155558
898.362	0.0155335
898.440	0.0155445
898.518	0.0157498
898.596	0.0156164
898.674	0.0154840
898.753	0.0154744
898.831	0.0155209
898.909	0.0156055
898.987	0.0156859
899.065	0.0156646
899.143	0.0155614
899.221	0.0156866
899.299	0.0156081
899.378	0.0156071
899.456	0.0155929
899.534	0.0155694
899.612	0.0154985
899.690	0.0155420
899.768	0.0155989
899.846	0.0153987
899.924	0.0155057
900.003	0.0155499
900.081	0.0156162
900.159	0.0156181
900.237	0.0156591
900.315	0.0154107
900.393	0.0155460
900.471	0.0155621
900.549	0.0155775
900.628	0.0155799
900.706	0.0154372
900.784	0.0154463
900.862	0.0155015
900.940	0.0155696
901.018	0.0155129
901.096	0.0154791
901.174	0.0155183
901.253	0.0154137
901.331	0.0153481
901.409	0.0155298
901.487	0.0156406
901.565	0.0155627
901.643	0.0154427
901.721	0.0154713
901.799	0.0155181
901.878	0.0155240
901.956	0.0156036
902.034	0.0155775
902.112	0.0155749
902.190	0.0155782
902.268	0.0155643
902.346	0.0155670
902.424	0.0156376
902.503	0.0155087
902.581	0.0155433
902.659	0.0155663
902.737	0.0156425
902.815	0.0155870
902.893	0.0155479
902.971	0.0156432
903.049	0.0156474
903.128	0.0153559
903.206	0.0154778
903.284	0.0155615
903.362	0.0156747
903.440	0.0156259
903.518	0.0155029
903.596	0.0156344
903.674	0.0155209
903.753	0.0155305
903.831	0.0155656
903.909	0.0154807
903.987	0.0156963
904.065	0.0157050
904.143	0.0155981
904.221	0.0155220
904.299	0.0154783
904.378	0.0155398
904.456	0.0155557
904.534	0.0156342
904.612	0.0155033
904.690	0.0155099
904.768	0.0154955
904.846	0.0155329
904.924	0.0155599
905.003	0.0155808
905.081	0.0156015
905.159	0.0155262
905.237	0.0155182
905.315	0.0156024
905.393	0.0156476
905.471	0.0155508
905.549	0.0154903
905.628	0.0154517
905.706	0.0155733
905.784	0.0153706
905.862	0.0153449
905.940	0.0155532
906.018	0.0154864
906.096	0.0154952
906.174	0.0155640
906.253	0.0155110
906.331	0.0155032
906.409	0.0155350
906.487	0.0154695
906.565	0.0155441
906.643	0.0155008
906.721	0.0154184
906.799	0.0155125
906.878	0.0155275
906.956	0.0154533
907.034	0.0154164
907.112	0.0155492
907.190	0.0154998
907.268	0.0154107
907.346	0.0154208
907.424	0.0155344
907.503	0.0154842
907.581	0.0156503
907.659	0.0155022
907.737	0.0155050
907.815	0.0155709
907.893	0.0155399
907.971	0.0155791
908.049	0.0156126
908.128	0.0155952
908.206	0.0157037
908.284	0.0154668
908.362	0.0155093
908.440	0.0156615
908.518	0.0156601
908.596	0.0156101
908.674	0.0154765
908.753	0.0155175
908.831	0.0156239
908.909	0.0156001
908.987	0.0156526
909.065	0.0155951
909.143	0.0155197
909.221	0.0155061
909.299	0.0156322
909.378	0.0156819
909.456	0.0155331
909.534	0.0155996
909.612	0.0155791
909.690	0.0155985
909.768	0.0156105
909.846	0.0155145
909.924	0.0155007
910.003	0.0154958
910.081	0.0154792
910.159	0.0154903
910.237	0.0154825
910.315	0.0154639
910.393	0.0156116
910.471	0.0156425
910.549	0.0155673
910.628	0.0155267
910.706	0.0155888
910.784	0.0155532
910.862	0.0155119
910.940	0.0156235
911.018	0.0154666
911.096	0.0155786
911.174	0.0155540
911.253	0.0155018
911.331	0.0157409
911.409	0.0154772
911.487	0.0154502
911.565	0.0155320
911.643	0.0155514
911.721	0.0155936
911.799	0.0156038
911.878	0.0155787
911.956	0.0155000
912.034	0.0154508
912.112	0.0155162
912.190	0.0156409
912.268	0.0153923
912.346	0.0154904
912.424	0.0156065
912.503	0.0154793
912.581	0.0155215
912.659	0.0155038
912.737	0.0154764
912.815	0.0156296
912.893	0.0154873
912.971	0.0154501
913.049	0.0156306
913.128	0.0156676
913.206	0.0156617
913.284	0.0155166
913.362	0.0154454
913.440	0.0156065
913.518	0.0156346
913.596	0.0156433
913.674	0.0156134
913.753	0.0155273
913.831	0.0155510
913.909	0.0156351
913.987	0.0155976
914.065	0.0155402
914.143	0.0155835
914.221	0.0156470
914.299	0.0155284
914.378	0.0156819
914.456	0.0156422
914.534	0.0155468
914.612	0.0156631
914.690	0.0155257
914.768	0.0156608
914.846	0.0157411
914.924	0.0157498
915.003	0.0155889
915.081	0.0156698
915.159	0.0154723
915.237	0.0155906
915.315	0.0156609
915.393	0.0155450
915.471	0.0156261
915.549	0.0155344
915.628	0.0155880
915.706	0.0156371
915.784	0.0154975
915.862	0.0155996
915.940	0.0157096
916.018	0.0155463
916.096	0.0155692
916.174	0.0154741
916.253	0.0155070
916.331	0.0153966
916.409	0.0156211
916.487	0.0155708
916.565	0.0155195
916.643	0.0155763
916.721	0.0155729
916.799	0.0155968
916.878	0.0154812
916.956	0.0156718
917.034	0.0156601
917.112	0.0156444
917.190	0.0154925
917.268	0.0155643
917.346	0.0155705
917.424	0.0155102
917.503	0.0155112
917.581	0.0154904
917.659	0.0155404
917.737	0.0155757
917.815	0.0155638
917.893	0.0155171
917.971	0.0155637
918.049	0.0156261
918.128	0.0154726
918.206	0.0155450
918.284	0.0155322
918.362	0.0155553
918.440	0.0156389
918.518	0.0155769
918.596	0.0155202
918.674	0.0155430
918.753	0.0156663
918.831	0.0155198
918.909	0.0154171
918.987	0.0155625
919.065	0.0155846
919.143	0.0156050
919.221	0.0154385
919.299	0.0156664
919.378	0.0155773
919.456	0.0156079
919.534	0.0155727
919.612	0.0157375
919.690	0.0155166
919.768	0.0155828
919.846	0.0157121
919.924	0.0155960
920.003	0.0155289
920.081	0.0155389
920.159	0.0155149
920.237	0.0155286
920.315	0.0154808
920.393	0.0155087
920.471	0.0154409
920.549	0.0153706
920.628	0.0155272
920.706	0.0155812
920.784	0.0155056
920.862	0.0155348
920.940	0.0154460
921.018	0.0154868
921.096	0.0154528
921.174	0.0156235
921.253	0.0155302
921.331	0.0154835
921.409	0.0154566
921.487	0.0154330
921.565	0.0155655
921.643	0.0155305
921.721	0.0155524
921.799	0.0155748
921.878	0.0156017
921.956	0.0156140
922.034	0.0155062
922.112	0.0156141
922.190	0.0156432
922.268	0.0155679
922.346	0.0156436
922.424	0.0156654
922.503	0.0156222
922.581	0.0156406
922.659	0.0155402
922.737	0.0155170
922.815	0.0155946
922.893	0.0155951
922.971	0.0155773
923.049	0.0155125
923.128	0.0156149
923.206	0.0156630
923.284	0.0153725
923.362	0.0154868
923.440	0.0156712
923.518	0.0154675
923.596	0.0155219
923.674	0.0154874
923.753	0.0154745
923.831	0.0154318
923.909	0.0154292
923.987	0.0155970
924.065	0.0154179
924.143	0.0154833
924.221	0.0154828
924.299	0.0155592
924.378	0.0155152
924.456	0.0154923
924.534	0.0155043
924.612	0.0155046
924.690	0.0155101
924.768	0.0154361
924.846	0.0156721
924.924	0.0156126
925.003	0.0155095
925.081	0.0154998
925.159	0.0155537
925.237	0.0155108
925.315	0.0156149
925.393	0.0155094
925.471	0.0155179
925.549	0.0155852
925.628	0.0154382
925.706	0.0155953
925.784	0.0155450
925.862	0.0156403
925.940	0.0156278
926.018	0.0155640
926.096	0.0154842
926.174	0.0155813
926.253	0.0156241
926.331	0.0156339
926.409	0.0156348
926.487	0.0154655
926.565	0.0155779
926.643	0.0156778
926.721	0.0152890
926.799	0.0155196
926.878	0.0155560
926.956	0.0155472
927.034	0.0154755
927.112	0.0155553
927.190	0.0155449
927.268	0.0155261
927.346	0.0154025
927.424	0.0155962
927.503	0.0155379
927.581	0.0155907
927.659	0.0154513
927.737	0.0155090
927.815	0.0154341
927.893	0.0155375
927.971	0.0154593
928.049	0.0154668
928.128	0.0156431
928.206	0.0155514
928.284	0.0155456
928.362	0.0155403
928.440	0.0155527
928.518	0.0155967
928.596	0.0154883
928.674	0.0154832
928.753	0.0155075
928.831	0.0156758
928.909	0.0155463
928.987	0.0154652
929.065	0.0156077
929.143	0.0154478
929.221	0.0155396
929.299	0.0155473
929.378	0.0156187
929.456	0.0156011
929.534	0.0154234
929.612	0.0154467
929.690	0.0156137
929.768	0.0155517
929.846	0.0155090
929.924	0.0154956
930.003	0.0154805
930.081	0.0155200
930.159	0.0156258
930.237	0.0156118
930.315	0.0154983
930.393	0.0155033
930.471	0.0155819
930.549	0.0156370
930.628	0.0154578
930.706	0.0157533
930.784	0.0155394
930.862	0.0154900
930.940	0.0155635
931.018	0.0155730
931.096	0.0156654
931.174	0.0156902
931.253	0.0154801
931.331	0.0155325
931.409	0.0155094
931.487	0.0154476
931.565	0.0155575
931.643	0.0154888
931.721	0.0154871
931.799	0.0155830
931.878	0.0155405
931.956	0.0154497
932.034	0.0155105
932.112	0.0155226
932.190	0.0154928
932.268	0.0154926
932.346	0.0156152
932.424	0.0155344
932.503	0.0155318
932.581	0.0154045
932.659	0.0156474
932.737	0.0157099
932.815	0.0155808
932.893	0.0157116
932.971	0.0155698
933.049	0.0154627
933.128	0.0155531
933.206	0.0155959
933.284	0.0155210
933.362	0.0157536
933.440	0.0156796
933.518	0.0156109
933.596	0.0155264
933.674	0.0155448
933.753	0.0157145
933.831	0.0156622
933.909	0.0155621
933.987	0.0155775
934.065	0.0156078
934.143	0.0157158
934.221	0.0156544
934.299	0.0156041
934.378	0.0155896
934.456	0.0155339
934.534	0.0155922
934.612	0.0155865
934.690	0.0155160
934.768	0.0155272
934.846	0.0155449
934.924	0.0156580
935.003	0.0154821
935.081	0.0154859
935.159	0.0155893
935.237	0.0154042
935.315	0.0156514
935.393	0.0155757
935.471	0.0155728
935.549	0.0155701
935.628	0.0155344
935.706	0.0155503
935.784	0.0153871
935.862	0.0155692
935.940	0.0154856
936.018	0.0156519
936.096	0.0155967
936.174	0.0156133
936.253	0.0155055
936.331	0.0156743
936.409	0.0156558
936.487	0.0155519
936.565	0.0155945
936.643	0.0156451
936.721	0.0155094
936.799	0.0156116
936.878	0.0156746
936.956	0.0155782
937.034	0.0156603
937.112	0.0155147
937.190	0.0155750
937.268	0.0154868
937.346	0.0155325
937.424	0.0156094
937.503	0.0155824
937.581	0.0155334
937.659	0.0154944
937.737	0.0156011
937.815	0.0156181
937.893	0.0156348
937.971	0.0156601
938.049	0.0156465
938.128	0.0157520
938.206	0.0155724
938.284	0.0155833
938.362	0.0155744
938.440	0.0156474
938.518	0.0156503
938.596	0.0156471
938.674	0.0156704
938.753	0.0156309
938.831	0.0156351
938.909	0.0154762
938.987	0.0155493
939.065	0.0156042
939.143	0.0155761
939.221	0.0155056
939.299	0.0155643
939.378	0.0156554
939.456	0.0154844
939.534	0.0155289
939.612	0.0156295
939.690	0.0156199
939.768	0.0156517
939.846	0.0154517
939.924	0.0154710
940.003	0.0154281
940.081	0.0155971
940.159	0.0154576
940.237	0.0155041
940.315	0.0155623
940.393	0.0154480
940.471	0.0154639
940.549	0.0155566
940.628	0.0154923
940.706	0.0153455
940.784	0.0155283
940.862	0.0154551
940.940	0.0154949
941.018	0.0153864
941.096	0.0153817
941.174	0.0156404
941.253	0.0154183
941.331	0.0154089
941.409	0.0155153
941.487	0.0153985
941.565	0.0155172
941.643	0.0154422
941.721	0.0154813
941.799	0.0155952
941.878	0.0154794
941.956	0.0154886
942.034	0.0154099
942.112	0.0154792
942.190	0.0155653
942.268	0.0155456
942.346	0.0155064
942.424	0.0154612
942.503	0.0155614
942.581	0.0157082
942.659	0.0157494
942.737	0.0156046
942.815	0.0155994
942.893	0.0155473
942.971	0.0156449
943.049	0.0156510
943.128	0.0155676
943.206	0.0155826
943.284	0.0154474
943.362	0.0155814
943.440	0.0156753
943.518	0.0156796
943.596	0.0154578
943.674	0.0153813
943.753	0.0155589
943.831	0.0155617
943.909	0.0154920
943.987	0.0154603
944.065	0.0156306
944.143	0.0154929
944.221	0.0155342
944.299	0.0155733
944.378	0.0155952
944.456	0.0155731
944.534	0.0154861
944.612	0.0154383
944.690	0.0154372
944.768	0.0154324
944.846	0.0155239
944.924	0.0154416
945.003	0.0155549
945.081	0.0154431
945.159	0.0153587
945.237	0.0155756
945.315	0.0155672
945.393	0.0154793
945.471	0.0155489
945.549	0.0157507
945.628	0.0155423
945.706	0.0154755
945.784	0.0155656
945.862	0.0154733
945.940	0.0154256
946.018	0.0156700
946.096	0.0156721
946.174	0.0155513
946.253	0.0155480
946.331	0.0155090
946.409	0.0155696
946.487	0.0156223
946.565	0.0156778
946.643	0.0155589
946.721	0.0156640
946.799	0.0157185
946.878	0.0157454
946.956	0.0155350
947.034	0.0156001
947.112	0.0155929
947.190	0.0155674
947.268	0.0156537
947.346	0.0156953
947.424	0.0156498
947.503	0.0154961
947.581	0.0155421
947.659	0.0156944
947.737	0.0156947
947.815	0.0156325
947.893	0.0155775
947.971	0.0155399
948.049	0.0156250
948.128	0.0155137
948.206	0.0154301
948.284	0.0154288
948.362	0.0154601
948.440	0.0154218
948.518	0.0154198
948.596	0.0156087
948.674	0.0154765
948.753	0.0155175
948.831	0.0154942
948.909	0.0155431
948.987	0.0155299
949.065	0.0154619
949.143	0.0154288
949.221	0.0155895
949.299	0.0154346
949.378	0.0154572
949.456	0.0155953
949.534	0.0155313
949.612	0.0155738
949.690	0.0155532
949.768	0.0154591
949.846	0.0155129
949.924	0.0154474
