06/29/2022	22:49:15	Ver.	4.1	UNKNOWN
Optical Delay	629.995835	Delta X		0.078125	Sweeps	1	Scan Rate	0/0
Coordinates	Axis 1	NaN	Axis 2	NaN	Axis 3	NaN	Axis 4	NaN	Axis 5	NaN	Axis 6	0.000000
TX Power	0.000000	RX Power	0.000000

629.996	0.0160514
630.074	0.0161397
630.152	0.0160753
630.230	0.0160802
630.308	0.0160335
630.386	0.0160897
630.465	0.0160957
630.543	0.0161086
630.621	0.0160937
630.699	0.0160431
630.777	0.0160892
630.855	0.0161176
630.933	0.0161471
631.011	0.0159457
631.090	0.0161030
631.168	0.0161952
631.246	0.0160361
631.324	0.0160300
631.402	0.0159944
631.480	0.0160920
631.558	0.0159518
631.636	0.0160207
631.715	0.0161355
631.793	0.0159964
631.871	0.0161803
631.949	0.0159661
632.027	0.0160420
632.105	0.0160592
632.183	0.0160635
632.261	0.0160388
632.340	0.0161706
632.418	0.0161973
632.496	0.0160442
632.574	0.0160361
632.652	0.0160740
632.730	0.0160727
632.808	0.0161349
632.886	0.0159975
632.965	0.0159476
633.043	0.0160863
633.121	0.0161433
633.199	0.0160057
633.277	0.0159575
633.355	0.0160651
633.433	0.0161413
633.511	0.0160416
633.590	0.0159863
633.668	0.0161210
633.746	0.0161242
633.824	0.0159715
633.902	0.0160557
633.980	0.0160178
634.058	0.0162411
634.136	0.0160212
634.215	0.0159387
634.293	0.0159727
634.371	0.0159625
634.449	0.0159837
634.527	0.0160030
634.605	0.0160534
634.683	0.0160081
634.761	0.0161237
634.840	0.0161585
634.918	0.0160711
634.996	0.0159029
635.074	0.0160045
635.152	0.0160408
635.230	0.0160810
635.308	0.0159749
635.386	0.0160941
635.465	0.0161250
635.543	0.0160294
635.621	0.0160805
635.699	0.0160526
635.777	0.0159624
635.855	0.0160892
635.933	0.0158697
636.011	0.0161158
636.090	0.0160353
636.168	0.0161370
636.246	0.0160345
636.324	0.0160326
636.402	0.0161426
636.480	0.0161143
636.558	0.0161099
636.636	0.0160979
636.715	0.0160678
636.793	0.0159692
636.871	0.0162404
636.949	0.0160867
637.027	0.0160538
637.105	0.0159824
637.183	0.0161115
637.261	0.0160303
637.340	0.0160315
637.418	0.0159872
637.496	0.0159656
637.574	0.0160848
637.652	0.0161246
637.730	0.0160564
637.808	0.0160266
637.886	0.0160166
637.965	0.0159927
638.043	0.0160305
638.121	0.0160795
638.199	0.0161484
638.277	0.0161172
638.355	0.0159361
638.433	0.0160165
638.511	0.0161181
638.590	0.0159583
638.668	0.0159867
638.746	0.0160566
638.824	0.0159711
638.902	0.0160762
638.980	0.0160693
639.058	0.0161017
639.136	0.0160312
639.215	0.0161304
639.293	0.0161012
639.371	0.0160135
639.449	0.0159785
639.527	0.0160116
639.605	0.0160597
639.683	0.0162329
639.761	0.0159833
639.840	0.0161028
639.918	0.0160431
639.996	0.0160448
640.074	0.0160159
640.152	0.0160089
640.230	0.0162770
640.308	0.0161338
640.386	0.0160159
640.465	0.0160917
640.543	0.0160121
640.621	0.0160932
640.699	0.0160992
640.777	0.0160512
640.855	0.0161109
640.933	0.0160876
641.011	0.0163566
641.090	0.0160500
641.168	0.0161060
641.246	0.0160090
641.324	0.0159806
641.402	0.0160670
641.480	0.0160995
641.558	0.0160944
641.636	0.0161629
641.715	0.0160424
641.793	0.0161147
641.871	0.0161014
641.949	0.0161446
642.027	0.0161343
642.105	0.0161755
642.183	0.0160436
642.261	0.0162119
642.340	0.0161575
642.418	0.0159713
642.496	0.0160096
642.574	0.0161528
642.652	0.0160098
642.730	0.0160023
642.808	0.0160146
642.886	0.0162145
642.965	0.0161614
643.043	0.0159325
643.121	0.0159866
643.199	0.0160567
643.277	0.0161056
643.355	0.0160287
643.433	0.0160161
643.511	0.0160510
643.590	0.0162249
643.668	0.0161137
643.746	0.0159894
643.824	0.0161755
643.902	0.0160525
643.980	0.0161166
644.058	0.0161129
644.136	0.0160278
644.215	0.0161224
644.293	0.0161691
644.371	0.0160259
644.449	0.0160516
644.527	0.0160625
644.605	0.0160190
644.683	0.0159987
644.761	0.0161297
644.840	0.0160971
644.918	0.0161170
644.996	0.0160908
645.074	0.0160545
645.152	0.0160162
645.230	0.0160164
645.308	0.0160506
645.386	0.0159870
645.465	0.0160934
645.543	0.0160958
645.621	0.0158595
645.699	0.0160486
645.777	0.0160080
645.855	0.0160714
645.933	0.0159564
646.011	0.0161816
646.090	0.0159524
646.168	0.0159236
646.246	0.0160824
646.324	0.0161063
646.402	0.0160982
646.480	0.0160107
646.558	0.0160768
646.636	0.0161069
646.715	0.0160595
646.793	0.0160847
646.871	0.0161375
646.949	0.0161370
647.027	0.0159533
647.105	0.0159894
647.183	0.0161260
647.261	0.0161723
647.340	0.0160891
647.418	0.0161721
647.496	0.0160650
647.574	0.0159666
647.652	0.0160718
647.730	0.0161061
647.808	0.0162051
647.886	0.0160679
647.965	0.0160243
648.043	0.0160902
648.121	0.0160825
648.199	0.0162309
648.277	0.0161213
648.355	0.0160595
648.433	0.0160714
648.511	0.0160423
648.590	0.0161320
648.668	0.0160228
648.746	0.0161190
648.824	0.0160545
648.902	0.0160226
648.980	0.0161378
649.058	0.0160064
649.136	0.0159840
649.215	0.0161224
649.293	0.0161384
649.371	0.0160562
649.449	0.0159916
649.527	0.0161292
649.605	0.0161472
649.683	0.0161217
649.761	0.0160569
649.840	0.0161989
649.918	0.0162099
649.996	0.0161642
650.074	0.0160173
650.152	0.0160529
650.230	0.0160716
650.308	0.0161549
650.386	0.0160229
650.465	0.0161138
650.543	0.0161311
650.621	0.0160647
650.699	0.0161935
650.777	0.0160167
650.855	0.0160992
650.933	0.0161294
651.011	0.0161654
651.090	0.0160151
651.168	0.0161393
651.246	0.0160554
651.324	0.0161408
651.402	0.0161768
651.480	0.0161636
651.558	0.0160799
651.636	0.0160941
651.715	0.0161131
651.793	0.0159801
651.871	0.0160258
651.949	0.0161519
652.027	0.0161487
652.105	0.0160597
652.183	0.0161666
652.261	0.0160979
652.340	0.0160580
652.418	0.0160770
652.496	0.0159608
652.574	0.0162054
652.652	0.0160065
652.730	0.0160455
652.808	0.0161056
652.886	0.0160951
652.965	0.0161874
653.043	0.0162297
653.121	0.0160606
653.199	0.0161260
653.277	0.0158967
653.355	0.0162811
653.433	0.0160124
653.511	0.0162846
653.590	0.0160821
653.668	0.0160937
653.746	0.0161762
653.824	0.0161495
653.902	0.0161317
653.980	0.0160515
654.058	0.0161038
654.136	0.0161841
654.215	0.0162522
654.293	0.0160716
654.371	0.0161300
654.449	0.0161058
654.527	0.0161602
654.605	0.0160587
654.683	0.0160104
654.761	0.0160991
654.840	0.0159700
654.918	0.0161664
654.996	0.0162685
655.074	0.0160471
655.152	0.0161087
655.230	0.0161458
655.308	0.0160467
655.386	0.0160265
655.465	0.0159380
655.543	0.0161666
655.621	0.0162003
655.699	0.0160452
655.777	0.0161333
655.855	0.0161475
655.933	0.0160790
656.011	0.0161021
656.090	0.0160668
656.168	0.0159534
656.246	0.0161191
656.324	0.0160754
656.402	0.0159562
656.480	0.0159719
656.558	0.0160995
656.636	0.0159985
656.715	0.0160572
656.793	0.0161017
656.871	0.0161520
656.949	0.0160395
657.027	0.0160287
657.105	0.0160821
657.183	0.0161591
657.261	0.0160895
657.340	0.0160550
657.418	0.0160365
657.496	0.0160657
657.574	0.0160655
657.652	0.0161501
657.730	0.0160992
657.808	0.0159305
657.886	0.0160640
657.965	0.0161673
658.043	0.0158996
658.121	0.0161545
658.199	0.0160040
658.277	0.0161234
658.355	0.0160520
658.433	0.0160571
658.511	0.0159978
658.590	0.0160994
658.668	0.0162678
658.746	0.0160172
658.824	0.0160742
658.902	0.0160709
658.980	0.0162061
659.058	0.0160690
659.136	0.0160904
659.215	0.0159316
659.293	0.0161773
659.371	0.0160390
659.449	0.0160680
659.527	0.0161720
659.605	0.0160074
659.683	0.0160220
659.761	0.0162402
659.840	0.0162058
659.918	0.0160555
659.996	0.0161329
660.074	0.0161523
660.152	0.0160678
660.230	0.0160056
660.308	0.0161533
660.386	0.0161276
660.465	0.0161082
660.543	0.0160427
660.621	0.0161022
660.699	0.0160021
660.777	0.0161880
660.855	0.0161545
660.933	0.0159819
661.011	0.0161594
661.090	0.0159972
661.168	0.0161983
661.246	0.0161839
661.324	0.0161121
661.402	0.0162344
661.480	0.0161374
661.558	0.0160522
661.636	0.0160965
661.715	0.0160701
661.793	0.0161517
661.871	0.0161066
661.949	0.0159586
662.027	0.0161228
662.105	0.0160640
662.183	0.0159638
662.261	0.0160764
662.340	0.0160535
662.418	0.0160831
662.496	0.0161922
662.574	0.0159602
662.652	0.0161269
662.730	0.0160725
662.808	0.0160542
662.886	0.0160973
662.965	0.0161034
663.043	0.0160189
663.121	0.0162013
663.199	0.0159507
663.277	0.0160838
663.355	0.0162614
663.433	0.0161109
663.511	0.0161326
663.590	0.0161217
663.668	0.0160693
663.746	0.0160722
663.824	0.0161284
663.902	0.0162193
663.980	0.0159629
664.058	0.0162064
664.136	0.0161404
664.215	0.0159899
664.293	0.0161504
664.371	0.0161529
664.449	0.0160643
664.527	0.0163022
664.605	0.0161390
664.683	0.0160688
664.761	0.0160747
664.840	0.0161576
664.918	0.0160493
664.996	0.0160938
665.074	0.0160547
665.152	0.0160100
665.230	0.0159993
665.308	0.0160628
665.386	0.0161381
665.465	0.0161279
665.543	0.0161447
665.621	0.0160642
665.699	0.0160201
665.777	0.0161249
665.855	0.0161842
665.933	0.0161877
666.011	0.0159726
666.090	0.0161624
666.168	0.0161221
666.246	0.0160936
666.324	0.0161088
666.402	0.0161305
666.480	0.0161500
666.558	0.0161110
666.636	0.0161409
666.715	0.0160693
666.793	0.0161739
666.871	0.0160973
666.949	0.0160170
667.027	0.0161642
667.105	0.0160598
667.183	0.0161604
667.261	0.0161060
667.340	0.0160805
667.418	0.0161220
667.496	0.0160137
667.574	0.0161968
667.652	0.0162328
667.730	0.0162342
667.808	0.0160965
667.886	0.0159898
667.965	0.0161322
668.043	0.0162719
668.121	0.0162045
668.199	0.0160975
668.277	0.0160960
668.355	0.0161417
668.433	0.0162678
668.511	0.0161753
668.590	0.0160409
668.668	0.0161977
668.746	0.0160934
668.824	0.0160585
668.902	0.0160398
668.980	0.0160815
669.058	0.0161293
669.136	0.0161874
669.215	0.0161981
669.293	0.0161456
669.371	0.0161486
669.449	0.0162040
669.527	0.0161752
669.605	0.0161896
669.683	0.0160836
669.761	0.0162283
669.840	0.0160924
669.918	0.0160107
669.996	0.0161565
670.074	0.0161555
670.152	0.0161124
670.230	0.0161778
670.308	0.0160204
670.386	0.0162132
670.465	0.0162422
670.543	0.0161633
670.621	0.0161434
670.699	0.0162333
670.777	0.0160441
670.855	0.0161598
670.933	0.0162585
671.011	0.0161128
671.090	0.0160284
671.168	0.0161352
671.246	0.0161602
671.324	0.0160713
671.402	0.0161453
671.480	0.0160436
671.558	0.0160606
671.636	0.0161056
671.715	0.0161295
671.793	0.0161196
671.871	0.0161323
671.949	0.0160930
672.027	0.0161976
672.105	0.0162188
672.183	0.0161415
672.261	0.0162035
672.340	0.0161310
672.418	0.0161953
672.496	0.0162196
672.574	0.0162730
672.652	0.0162514
672.730	0.0159722
672.808	0.0160419
672.886	0.0161113
672.965	0.0160699
673.043	0.0161375
673.121	0.0161258
673.199	0.0161092
673.277	0.0159733
673.355	0.0160493
673.433	0.0159826
673.511	0.0160948
673.590	0.0161555
673.668	0.0162003
673.746	0.0161415
673.824	0.0160506
673.902	0.0160683
673.980	0.0161781
674.058	0.0161863
674.136	0.0161321
674.215	0.0161437
674.293	0.0159830
674.371	0.0160316
674.449	0.0161930
674.527	0.0161853
674.605	0.0160031
674.683	0.0159851
674.761	0.0161034
674.840	0.0161617
674.918	0.0161800
674.996	0.0161901
675.074	0.0159228
675.152	0.0160986
675.230	0.0161212
675.308	0.0161343
675.386	0.0160520
675.465	0.0159853
675.543	0.0161076
675.621	0.0160748
675.699	0.0160838
675.777	0.0162017
675.855	0.0160913
675.933	0.0160390
676.011	0.0161076
676.090	0.0161287
676.168	0.0162275
676.246	0.0161501
676.324	0.0160532
676.402	0.0161082
676.480	0.0162232
676.558	0.0161926
676.636	0.0160635
676.715	0.0160611
676.793	0.0160874
676.871	0.0160307
676.949	0.0161796
677.027	0.0160578
677.105	0.0161238
677.183	0.0160935
677.261	0.0161416
677.340	0.0162788
677.418	0.0160638
677.496	0.0161190
677.574	0.0161762
677.652	0.0162100
677.730	0.0161411
677.808	0.0162096
677.886	0.0160698
677.965	0.0161378
678.043	0.0161443
678.121	0.0160192
678.199	0.0160336
678.277	0.0161091
678.355	0.0162069
678.433	0.0162168
678.511	0.0162338
678.590	0.0160540
678.668	0.0160541
678.746	0.0161255
678.824	0.0159612
678.902	0.0161781
678.980	0.0161397
679.058	0.0160863
679.136	0.0160469
679.215	0.0161856
679.293	0.0160808
679.371	0.0160931
679.449	0.0160279
679.527	0.0161246
679.605	0.0161788
679.683	0.0161378
679.761	0.0161667
679.840	0.0161655
679.918	0.0161719
679.996	0.0161372
680.074	0.0161102
680.152	0.0160305
680.230	0.0160963
680.308	0.0162057
680.386	0.0160862
680.465	0.0161196
680.543	0.0160457
680.621	0.0161094
680.699	0.0162209
680.777	0.0163464
680.855	0.0163110
680.933	0.0160941
681.011	0.0160899
681.090	0.0163224
681.168	0.0161354
681.246	0.0160803
681.324	0.0160845
681.402	0.0161198
681.480	0.0162355
681.558	0.0161451
681.636	0.0160419
681.715	0.0160515
681.793	0.0162372
681.871	0.0160737
681.949	0.0162098
682.027	0.0161686
682.105	0.0160663
682.183	0.0161142
682.261	0.0160966
682.340	0.0161351
682.418	0.0161877
682.496	0.0162581
682.574	0.0162124
682.652	0.0160593
682.730	0.0160864
682.808	0.0160868
682.886	0.0161349
682.965	0.0161556
683.043	0.0161071
683.121	0.0160751
683.199	0.0159854
683.277	0.0161237
683.355	0.0162904
683.433	0.0161632
683.511	0.0160419
683.590	0.0160847
683.668	0.0161855
683.746	0.0161449
683.824	0.0162371
683.902	0.0161596
683.980	0.0161266
684.058	0.0160965
684.136	0.0161627
684.215	0.0160541
684.293	0.0161507
684.371	0.0161323
684.449	0.0160891
684.527	0.0159985
684.605	0.0160209
684.683	0.0160253
684.761	0.0160521
684.840	0.0161150
684.918	0.0160944
684.996	0.0160916
685.074	0.0161703
685.152	0.0159983
685.230	0.0162077
685.308	0.0161467
685.386	0.0160934
685.465	0.0161134
685.543	0.0161194
685.621	0.0159411
685.699	0.0161203
685.777	0.0161221
685.855	0.0160569
685.933	0.0159424
686.011	0.0160468
686.090	0.0162572
686.168	0.0161562
686.246	0.0159870
686.324	0.0160082
686.402	0.0160684
686.480	0.0161480
686.558	0.0162296
686.636	0.0161268
686.715	0.0161894
686.793	0.0161425
686.871	0.0161269
686.949	0.0161279
687.027	0.0161015
687.105	0.0161469
687.183	0.0160609
687.261	0.0161118
687.340	0.0160363
687.418	0.0160871
687.496	0.0160205
687.574	0.0161569
687.652	0.0160012
687.730	0.0160395
687.808	0.0160360
687.886	0.0161073
687.965	0.0160361
688.043	0.0160933
688.121	0.0160073
688.199	0.0160682
688.277	0.0162163
688.355	0.0161284
688.433	0.0161407
688.511	0.0159628
688.590	0.0160658
688.668	0.0160160
688.746	0.0160796
688.824	0.0161536
688.902	0.0161459
688.980	0.0162203
689.058	0.0161691
689.136	0.0160008
689.215	0.0160004
689.293	0.0160985
689.371	0.0161342
689.449	0.0160597
689.527	0.0159032
689.605	0.0161261
689.683	0.0161628
689.761	0.0161736
689.840	0.0161717
689.918	0.0161323
689.996	0.0161597
690.074	0.0161136
690.152	0.0160377
690.230	0.0159251
690.308	0.0161658
690.386	0.0160932
690.465	0.0160999
690.543	0.0159429
690.621	0.0160715
690.699	0.0160941
690.777	0.0162140
690.855	0.0161179
690.933	0.0160019
691.011	0.0159509
691.090	0.0161192
691.168	0.0160297
691.246	0.0160829
691.324	0.0159357
691.402	0.0160805
691.480	0.0161689
691.558	0.0161606
691.636	0.0160604
691.715	0.0159974
691.793	0.0160880
691.871	0.0161493
691.949	0.0160819
692.027	0.0160631
692.105	0.0162150
692.183	0.0161070
692.261	0.0161434
692.340	0.0161730
692.418	0.0160569
692.496	0.0160581
692.574	0.0160314
692.652	0.0160844
692.730	0.0161800
692.808	0.0159352
692.886	0.0160913
692.965	0.0160333
693.043	0.0160834
693.121	0.0160827
693.199	0.0161076
693.277	0.0160648
693.355	0.0160786
693.433	0.0162442
693.511	0.0161658
693.590	0.0160934
693.668	0.0161423
693.746	0.0159912
693.824	0.0161111
693.902	0.0161481
693.980	0.0160313
694.058	0.0161744
694.136	0.0162081
694.215	0.0160984
694.293	0.0160855
694.371	0.0160613
694.449	0.0162171
694.527	0.0160204
694.605	0.0161470
694.683	0.0160802
694.761	0.0159815
694.840	0.0160390
694.918	0.0160926
694.996	0.0161327
695.074	0.0161136
695.152	0.0160523
695.230	0.0161720
695.308	0.0161195
695.386	0.0161034
695.465	0.0161347
695.543	0.0161458
695.621	0.0161675
695.699	0.0161407
695.777	0.0162106
695.855	0.0160704
695.933	0.0160886
696.011	0.0160451
696.090	0.0160240
696.168	0.0160573
696.246	0.0160492
696.324	0.0161001
696.402	0.0160862
696.480	0.0161522
696.558	0.0161275
696.636	0.0161083
696.715	0.0161189
696.793	0.0161614
696.871	0.0160928
696.949	0.0162037
697.027	0.0159814
697.105	0.0160149
697.183	0.0161811
697.261	0.0161189
697.340	0.0160898
697.418	0.0160448
697.496	0.0161418
697.574	0.0162676
697.652	0.0160722
697.730	0.0161748
697.808	0.0161330
697.886	0.0160430
697.965	0.0161915
698.043	0.0161927
698.121	0.0160793
698.199	0.0162690
698.277	0.0160612
698.355	0.0161430
698.433	0.0159824
698.511	0.0161062
698.590	0.0162334
698.668	0.0161098
698.746	0.0161040
698.824	0.0160774
698.902	0.0161286
698.980	0.0161198
699.058	0.0161882
699.136	0.0160928
699.215	0.0161808
699.293	0.0161501
699.371	0.0161890
699.449	0.0161255
699.527	0.0159894
699.605	0.0161359
699.683	0.0161214
699.761	0.0161147
699.840	0.0160837
699.918	0.0161604
699.996	0.0160746
700.074	0.0160831
700.152	0.0160061
700.230	0.0160179
700.308	0.0160889
700.386	0.0161929
700.465	0.0160448
700.543	0.0160325
700.621	0.0161191
700.699	0.0162264
700.777	0.0162259
700.855	0.0160593
700.933	0.0159874
701.011	0.0161052
701.090	0.0162060
701.168	0.0160215
701.246	0.0161217
701.324	0.0161367
701.402	0.0161539
701.480	0.0160670
701.558	0.0161159
701.636	0.0160162
701.715	0.0160396
701.793	0.0160322
701.871	0.0160197
701.949	0.0161715
702.027	0.0160983
702.105	0.0161865
702.183	0.0160811
702.261	0.0161641
702.340	0.0161474
702.418	0.0160015
702.496	0.0161285
702.574	0.0161529
702.652	0.0162753
702.730	0.0160711
702.808	0.0160087
702.886	0.0159975
702.965	0.0159805
703.043	0.0161192
703.121	0.0160709
703.199	0.0160336
703.277	0.0160492
703.355	0.0161769
703.433	0.0159758
703.511	0.0160394
703.590	0.0159883
703.668	0.0160509
703.746	0.0161593
703.824	0.0159654
703.902	0.0161007
703.980	0.0160603
704.058	0.0160126
704.136	0.0161089
704.215	0.0160907
704.293	0.0161008
704.371	0.0161589
704.449	0.0159898
704.527	0.0160095
704.605	0.0161764
704.683	0.0160613
704.761	0.0160731
704.840	0.0160507
704.918	0.0160971
704.996	0.0160203
705.074	0.0161774
705.152	0.0160921
705.230	0.0160577
705.308	0.0162002
705.386	0.0160783
705.465	0.0161777
705.543	0.0159924
705.621	0.0161835
705.699	0.0160705
705.777	0.0161005
705.855	0.0161534
705.933	0.0161459
706.011	0.0161035
706.090	0.0160956
706.168	0.0160412
706.246	0.0162225
706.324	0.0160513
706.402	0.0160044
706.480	0.0161635
706.558	0.0160973
706.636	0.0161356
706.715	0.0162713
706.793	0.0161408
706.871	0.0160060
706.949	0.0161126
707.027	0.0161176
707.105	0.0160969
707.183	0.0159056
707.261	0.0160764
707.340	0.0162119
707.418	0.0160755
707.496	0.0161900
707.574	0.0161570
707.652	0.0161723
707.730	0.0159285
707.808	0.0160256
707.886	0.0161320
707.965	0.0160748
708.043	0.0160863
708.121	0.0159329
708.199	0.0160320
708.277	0.0161110
708.355	0.0160912
708.433	0.0160623
708.511	0.0160722
708.590	0.0160094
708.668	0.0160773
708.746	0.0161481
708.824	0.0161520
708.902	0.0159460
708.980	0.0159970
709.058	0.0161423
709.136	0.0159910
709.215	0.0161182
709.293	0.0159750
709.371	0.0160657
709.449	0.0159724
709.527	0.0160171
709.605	0.0159377
709.683	0.0159137
709.761	0.0161160
709.840	0.0160417
709.918	0.0161014
709.996	0.0160465
710.074	0.0159730
710.152	0.0160709
710.230	0.0161964
710.308	0.0160526
710.386	0.0160044
710.465	0.0160995
710.543	0.0161792
710.621	0.0161466
710.699	0.0161854
710.777	0.0162591
710.855	0.0161015
710.933	0.0162115
711.011	0.0162535
711.090	0.0161711
711.168	0.0161856
711.246	0.0161494
711.324	0.0161961
711.402	0.0160918
711.480	0.0161414
711.558	0.0161955
711.636	0.0161381
711.715	0.0162263
711.793	0.0161727
711.871	0.0161105
711.949	0.0160680
712.027	0.0162216
712.105	0.0162234
712.183	0.0161052
712.261	0.0161709
712.340	0.0160801
712.418	0.0159901
712.496	0.0160577
712.574	0.0161096
712.652	0.0159256
712.730	0.0159475
712.808	0.0161480
712.886	0.0160748
712.965	0.0160475
713.043	0.0160513
713.121	0.0160183
713.199	0.0160058
713.277	0.0159422
713.355	0.0159605
713.433	0.0158530
713.511	0.0159675
713.590	0.0160232
713.668	0.0159171
713.746	0.0159299
713.824	0.0159255
713.902	0.0159702
713.980	0.0160530
714.058	0.0159383
714.136	0.0159251
714.215	0.0158607
714.293	0.0160265
714.371	0.0161216
714.449	0.0161330
714.527	0.0160911
714.605	0.0160664
714.683	0.0161135
714.761	0.0162469
714.840	0.0162426
714.918	0.0161610
714.996	0.0162812
715.074	0.0162664
715.152	0.0161449
715.230	0.0161951
715.308	0.0160492
715.386	0.0159605
715.465	0.0160284
715.543	0.0158836
715.621	0.0157852
715.699	0.0158278
715.777	0.0157501
715.855	0.0156508
715.933	0.0157120
716.011	0.0158278
716.090	0.0160602
716.168	0.0162041
716.246	0.0161915
716.324	0.0163828
716.402	0.0163027
716.480	0.0165828
716.558	0.0164256
716.636	0.0163542
716.715	0.0164034
716.793	0.0164298
716.871	0.0163837
716.949	0.0163306
717.027	0.0161154
717.105	0.0161409
717.183	0.0160829
717.261	0.0159750
717.340	0.0160255
717.418	0.0160213
717.496	0.0161523
717.574	0.0160809
717.652	0.0162609
717.730	0.0162573
717.808	0.0165080
717.886	0.0166887
717.965	0.0165948
718.043	0.0166615
718.121	0.0167037
718.199	0.0164748
718.277	0.0163647
718.355	0.0160695
718.433	0.0160217
718.511	0.0157415
718.590	0.0153954
718.668	0.0152750
718.746	0.0150839
718.824	0.0146436
718.902	0.0147363
718.980	0.0145870
719.058	0.0146540
719.136	0.0145544
719.215	0.0147523
719.293	0.0151983
719.371	0.0155777
719.449	0.0160417
719.527	0.0161906
719.605	0.0166205
719.683	0.0170433
719.761	0.0174445
719.840	0.0177539
719.918	0.0179098
719.996	0.0180260
720.074	0.0180770
720.152	0.0180709
720.230	0.0179993
720.308	0.0179881
720.386	0.0176651
720.465	0.0175831
720.543	0.0173606
720.621	0.0170087
720.699	0.0167699
720.777	0.0165664
720.855	0.0164531
720.933	0.0160410
721.011	0.0158878
721.090	0.0156375
721.168	0.0153834
721.246	0.0151257
721.324	0.0147623
721.402	0.0144958
721.480	0.0141685
721.558	0.0139848
721.636	0.0139394
721.715	0.0138944
721.793	0.0140060
721.871	0.0137472
721.949	0.0137578
722.027	0.0138999
722.105	0.0141293
722.183	0.0143584
722.261	0.0147279
722.340	0.0150440
722.418	0.0153165
722.496	0.0157021
722.574	0.0162060
722.652	0.0166436
722.730	0.0169878
722.808	0.0175802
722.886	0.0182832
722.965	0.0185511
723.043	0.0189291
723.121	0.0192829
723.199	0.0193537
723.277	0.0193870
723.355	0.0193488
723.433	0.0192673
723.511	0.0191460
723.590	0.0187745
723.668	0.0183582
723.746	0.0180468
723.824	0.0176372
723.902	0.0172053
723.980	0.0167900
724.058	0.0163721
724.136	0.0158153
724.215	0.0152985
724.293	0.0150471
724.371	0.0144936
724.449	0.0140947
724.527	0.0135581
724.605	0.0129800
724.683	0.0127728
724.761	0.0124776
724.840	0.0121743
724.918	0.0120670
724.996	0.0120653
725.074	0.0122010
725.152	0.0124384
725.230	0.0129446
725.308	0.0134246
725.386	0.0138577
725.465	0.0144192
725.543	0.0150973
725.621	0.0157271
725.699	0.0164941
725.777	0.0172704
725.855	0.0177074
725.933	0.0181164
726.011	0.0184188
726.090	0.0189125
726.168	0.0190051
726.246	0.0190489
726.324	0.0192499
726.402	0.0189364
726.480	0.0188489
726.558	0.0186741
726.636	0.0185726
726.715	0.0184122
726.793	0.0182079
726.871	0.0180222
726.949	0.0180293
727.027	0.0177812
727.105	0.0176320
727.183	0.0173969
727.261	0.0172670
727.340	0.0170485
727.418	0.0167371
727.496	0.0162372
727.574	0.0156871
727.652	0.0154606
727.730	0.0149849
727.808	0.0143736
727.886	0.0136989
727.965	0.0133223
728.043	0.0129999
728.121	0.0124386
728.199	0.0121053
728.277	0.0118868
728.355	0.0119115
728.433	0.0118691
728.511	0.0121701
728.590	0.0125245
728.668	0.0130344
728.746	0.0136568
728.824	0.0143150
728.902	0.0149518
728.980	0.0157492
729.058	0.0163822
729.136	0.0171053
729.215	0.0175929
729.293	0.0181810
729.371	0.0185025
729.449	0.0185678
729.527	0.0188401
729.605	0.0188581
729.683	0.0189481
729.761	0.0188378
729.840	0.0186581
729.918	0.0185252
729.996	0.0184224
730.074	0.0183360
730.152	0.0180944
730.230	0.0179132
730.308	0.0178592
730.386	0.0176776
730.465	0.0173962
730.543	0.0173038
730.621	0.0171491
730.699	0.0167426
730.777	0.0165133
730.855	0.0162100
730.933	0.0156727
731.011	0.0152991
731.090	0.0148779
731.168	0.0144076
731.246	0.0141148
731.324	0.0137279
731.402	0.0134953
731.480	0.0135472
731.558	0.0134521
731.636	0.0135974
731.715	0.0138440
731.793	0.0141715
731.871	0.0144164
731.949	0.0148147
732.027	0.0152275
732.105	0.0155402
732.183	0.0157253
732.261	0.0160246
732.340	0.0161299
732.418	0.0163480
732.496	0.0162066
732.574	0.0160358
732.652	0.0160405
732.730	0.0158907
732.808	0.0156573
732.886	0.0155409
732.965	0.0154803
733.043	0.0156971
733.121	0.0157787
733.199	0.0158682
733.277	0.0160968
733.355	0.0162095
733.433	0.0169634
733.511	0.0172662
733.590	0.0176468
733.668	0.0182471
733.746	0.0185352
733.824	0.0188148
733.902	0.0189605
733.980	0.0190565
734.058	0.0189205
734.136	0.0188373
734.215	0.0186900
734.293	0.0182432
734.371	0.0177111
734.449	0.0174054
734.527	0.0167591
734.605	0.0162148
734.683	0.0158578
734.761	0.0153442
734.840	0.0150815
734.918	0.0145901
734.996	0.0144751
735.074	0.0143410
735.152	0.0142859
735.230	0.0142506
735.308	0.0141552
735.386	0.0142302
735.465	0.0142709
735.543	0.0144032
735.621	0.0144924
735.699	0.0147200
735.777	0.0149497
735.855	0.0150005
735.933	0.0150418
736.011	0.0151984
736.090	0.0151065
736.168	0.0152498
736.246	0.0152984
736.324	0.0154144
736.402	0.0155266
736.480	0.0154359
736.558	0.0156008
736.636	0.0155708
736.715	0.0157140
736.793	0.0159009
736.871	0.0159138
736.949	0.0160126
737.027	0.0160670
737.105	0.0162445
737.183	0.0164765
737.261	0.0167871
737.340	0.0168821
737.418	0.0170325
737.496	0.0171833
737.574	0.0172286
737.652	0.0174462
737.730	0.0175767
737.808	0.0175339
737.886	0.0174059
737.965	0.0174111
738.043	0.0172125
738.121	0.0169247
738.199	0.0167679
738.277	0.0165632
738.355	0.0164612
738.433	0.0162597
738.511	0.0161541
738.590	0.0161511
738.668	0.0159207
738.746	0.0157829
738.824	0.0158472
738.902	0.0157556
738.980	0.0156190
739.058	0.0154557
739.136	0.0154895
739.215	0.0154919
739.293	0.0154491
739.371	0.0153121
739.449	0.0155280
739.527	0.0155206
739.605	0.0155231
739.683	0.0156836
739.761	0.0156759
739.840	0.0157951
739.918	0.0158586
739.996	0.0157507
740.074	0.0159445
740.152	0.0159505
740.230	0.0160838
740.308	0.0161342
740.386	0.0162082
740.465	0.0163878
740.543	0.0162310
740.621	0.0160772
740.699	0.0163165
740.777	0.0163841
740.855	0.0165449
740.933	0.0163200
741.011	0.0163401
741.090	0.0164070
741.168	0.0164459
741.246	0.0163364
741.324	0.0162877
741.402	0.0161122
741.480	0.0161541
741.558	0.0159001
741.636	0.0158672
741.715	0.0156556
741.793	0.0155766
741.871	0.0155265
741.949	0.0153983
742.027	0.0153560
742.105	0.0153088
742.183	0.0152258
742.261	0.0152676
742.340	0.0151895
742.418	0.0152074
742.496	0.0153632
742.574	0.0155141
742.652	0.0155400
742.730	0.0156968
742.808	0.0157635
742.886	0.0159275
742.965	0.0159402
743.043	0.0161997
743.121	0.0162823
743.199	0.0164319
743.277	0.0166804
743.355	0.0168479
743.433	0.0168344
743.511	0.0170033
743.590	0.0170947
743.668	0.0171754
743.746	0.0173419
743.824	0.0173256
743.902	0.0174178
743.980	0.0173540
744.058	0.0172652
744.136	0.0172398
744.215	0.0171712
744.293	0.0170766
744.371	0.0168409
744.449	0.0168121
744.527	0.0165750
744.605	0.0164322
744.683	0.0164442
744.761	0.0161883
744.840	0.0160504
744.918	0.0158910
744.996	0.0158393
745.074	0.0156500
745.152	0.0154897
745.230	0.0154858
745.308	0.0151984
745.386	0.0152332
745.465	0.0149862
745.543	0.0151003
745.621	0.0150648
745.699	0.0150748
745.777	0.0151117
745.855	0.0151543
745.933	0.0151393
746.011	0.0151701
746.090	0.0153336
746.168	0.0153855
746.246	0.0154226
746.324	0.0153899
746.402	0.0154999
746.480	0.0155984
746.558	0.0158418
746.636	0.0158596
746.715	0.0159190
746.793	0.0161527
746.871	0.0162067
746.949	0.0162756
747.027	0.0164268
747.105	0.0163895
747.183	0.0164075
747.261	0.0164459
747.340	0.0164396
747.418	0.0164719
747.496	0.0164458
747.574	0.0162955
747.652	0.0164081
747.730	0.0163887
747.808	0.0164733
747.886	0.0163943
747.965	0.0164165
748.043	0.0163628
748.121	0.0163424
748.199	0.0163694
748.277	0.0163779
748.355	0.0164563
748.433	0.0165006
748.511	0.0166109
748.590	0.0166973
748.668	0.0166977
748.746	0.0167861
748.824	0.0168076
748.902	0.0166159
748.980	0.0169370
749.058	0.0169341
749.136	0.0168618
749.215	0.0167567
749.293	0.0166598
749.371	0.0164790
749.449	0.0163161
749.527	0.0161585
749.605	0.0160091
749.683	0.0156673
749.761	0.0156239
749.840	0.0153673
749.918	0.0152934
749.996	0.0152058
750.074	0.0152052
750.152	0.0150517
750.230	0.0150549
750.308	0.0151963
750.386	0.0150674
750.465	0.0151394
750.543	0.0154321
750.621	0.0152592
750.699	0.0152174
750.777	0.0156393
750.855	0.0156561
750.933	0.0158743
751.011	0.0159700
751.090	0.0162302
751.168	0.0163830
751.246	0.0163326
751.324	0.0163231
751.402	0.0165243
751.480	0.0162814
751.558	0.0165028
751.636	0.0163328
751.715	0.0163207
751.793	0.0162504
751.871	0.0162715
751.949	0.0160909
752.027	0.0160568
752.105	0.0159308
752.183	0.0159907
752.261	0.0160556
752.340	0.0160220
752.418	0.0160487
752.496	0.0161741
752.574	0.0161211
752.652	0.0163064
752.730	0.0164857
752.808	0.0164410
752.886	0.0164017
752.965	0.0163393
753.043	0.0164166
753.121	0.0164025
753.199	0.0163103
753.277	0.0161869
753.355	0.0161590
753.433	0.0159751
753.511	0.0160031
753.590	0.0159222
753.668	0.0159227
753.746	0.0157457
753.824	0.0158062
753.902	0.0157361
753.980	0.0157264
754.058	0.0158635
754.136	0.0159560
754.215	0.0160436
754.293	0.0161116
754.371	0.0163088
754.449	0.0163126
754.527	0.0164111
754.605	0.0163081
754.683	0.0164452
754.761	0.0165145
754.840	0.0164377
754.918	0.0163528
754.996	0.0162930
755.074	0.0162077
755.152	0.0162580
755.230	0.0161263
755.308	0.0159835
755.386	0.0160090
755.465	0.0160707
755.543	0.0160216
755.621	0.0159348
755.699	0.0157333
755.777	0.0158485
755.855	0.0157576
755.933	0.0157272
756.011	0.0159066
756.090	0.0159563
756.168	0.0159263
756.246	0.0161349
756.324	0.0160920
756.402	0.0159666
756.480	0.0163757
756.558	0.0163789
756.636	0.0161394
756.715	0.0162620
756.793	0.0162511
756.871	0.0162169
756.949	0.0161989
757.027	0.0160687
757.105	0.0158497
757.183	0.0159217
757.261	0.0158686
757.340	0.0157532
757.418	0.0156103
757.496	0.0156363
757.574	0.0156326
757.652	0.0157024
757.730	0.0157521
757.808	0.0157586
757.886	0.0156683
757.965	0.0159823
758.043	0.0158163
758.121	0.0158720
758.199	0.0158554
758.277	0.0160133
758.355	0.0160358
758.433	0.0160184
758.511	0.0161514
758.590	0.0160965
758.668	0.0160093
758.746	0.0161297
758.824	0.0162280
758.902	0.0161197
758.980	0.0163073
759.058	0.0163896
759.136	0.0162751
759.215	0.0162598
759.293	0.0163641
759.371	0.0163173
759.449	0.0162354
759.527	0.0162966
759.605	0.0163951
759.683	0.0163812
759.761	0.0165318
759.840	0.0164827
759.918	0.0165501
759.996	0.0165437
760.074	0.0165197
760.152	0.0164072
760.230	0.0164895
760.308	0.0163798
760.386	0.0162650
760.465	0.0162797
760.543	0.0162582
760.621	0.0160946
760.699	0.0160551
760.777	0.0159742
760.855	0.0158711
760.933	0.0156563
761.011	0.0157613
761.090	0.0157230
761.168	0.0157249
761.246	0.0156184
761.324	0.0157066
761.402	0.0156719
761.480	0.0156273
761.558	0.0157231
761.636	0.0158121
761.715	0.0160307
761.793	0.0162267
761.871	0.0163457
761.949	0.0162154
762.027	0.0165455
762.105	0.0164411
762.183	0.0164411
762.261	0.0164338
762.340	0.0165648
762.418	0.0163863
762.496	0.0166454
762.574	0.0162763
762.652	0.0163440
762.730	0.0160938
762.808	0.0160244
762.886	0.0158283
762.965	0.0159472
763.043	0.0157295
763.121	0.0157195
763.199	0.0157029
763.277	0.0156760
763.355	0.0157622
763.433	0.0157159
763.511	0.0157715
763.590	0.0159695
763.668	0.0159877
763.746	0.0160120
763.824	0.0160100
763.902	0.0159333
763.980	0.0161081
764.058	0.0161403
764.136	0.0160256
764.215	0.0160611
764.293	0.0161490
764.371	0.0161055
764.449	0.0160663
764.527	0.0161756
764.605	0.0159315
764.683	0.0159219
764.761	0.0159077
764.840	0.0159116
764.918	0.0157832
764.996	0.0157907
765.074	0.0157857
765.152	0.0157760
765.230	0.0158688
765.308	0.0158805
765.386	0.0160939
765.465	0.0161244
765.543	0.0160403
765.621	0.0162289
765.699	0.0163057
765.777	0.0162894
765.855	0.0163564
765.933	0.0161797
766.011	0.0162544
766.090	0.0164040
766.168	0.0163338
766.246	0.0163097
766.324	0.0162638
766.402	0.0162169
766.480	0.0161956
766.558	0.0162244
766.636	0.0162019
766.715	0.0160773
766.793	0.0161500
766.871	0.0159296
766.949	0.0160384
767.027	0.0159365
767.105	0.0159110
767.183	0.0159126
767.261	0.0159904
767.340	0.0160629
767.418	0.0160043
767.496	0.0162067
767.574	0.0162276
767.652	0.0161659
767.730	0.0162014
767.808	0.0162635
767.886	0.0163879
767.965	0.0163119
768.043	0.0163923
768.121	0.0163944
768.199	0.0163254
768.277	0.0163157
768.355	0.0162506
768.433	0.0160924
768.511	0.0160947
768.590	0.0159577
768.668	0.0160289
768.746	0.0158899
768.824	0.0159563
768.902	0.0159042
768.980	0.0158294
769.058	0.0158212
769.136	0.0157921
769.215	0.0157894
769.293	0.0157134
769.371	0.0157653
769.449	0.0157332
769.527	0.0158541
769.605	0.0157095
769.683	0.0158984
769.761	0.0158989
769.840	0.0158372
769.918	0.0159481
769.996	0.0158752
770.074	0.0159999
770.152	0.0159724
770.230	0.0161919
770.308	0.0160884
770.386	0.0160269
770.465	0.0160870
770.543	0.0161945
770.621	0.0161290
770.699	0.0162768
770.777	0.0163256
770.855	0.0163568
770.933	0.0162981
771.011	0.0162152
771.090	0.0164815
771.168	0.0164925
771.246	0.0163652
771.324	0.0164936
771.402	0.0164973
771.480	0.0164333
771.558	0.0164996
771.636	0.0165660
771.715	0.0164828
771.793	0.0163978
771.871	0.0162653
771.949	0.0162533
772.027	0.0161913
772.105	0.0162075
772.183	0.0161352
772.261	0.0161045
772.340	0.0162244
772.418	0.0160800
772.496	0.0161187
772.574	0.0162202
772.652	0.0160182
772.730	0.0160150
772.808	0.0159869
772.886	0.0159750
772.965	0.0160154
773.043	0.0159467
773.121	0.0158284
773.199	0.0158862
773.277	0.0158785
773.355	0.0157977
773.433	0.0158276
773.511	0.0156860
773.590	0.0157972
773.668	0.0156438
773.746	0.0155768
773.824	0.0156886
773.902	0.0156999
773.980	0.0158130
774.058	0.0157156
774.136	0.0159038
774.215	0.0160273
774.293	0.0159441
774.371	0.0161068
774.449	0.0162922
774.527	0.0161421
774.605	0.0162496
774.683	0.0164270
774.761	0.0163421
774.840	0.0163781
774.918	0.0164265
774.996	0.0164124
775.074	0.0163896
775.152	0.0163424
775.230	0.0165086
775.308	0.0163821
775.386	0.0163853
775.465	0.0163928
775.543	0.0162543
775.621	0.0161670
775.699	0.0160623
775.777	0.0161091
775.855	0.0159904
775.933	0.0159340
776.011	0.0160371
776.090	0.0160100
776.168	0.0159447
776.246	0.0159663
776.324	0.0159502
776.402	0.0160003
776.480	0.0161297
776.558	0.0162976
776.636	0.0162604
776.715	0.0161195
776.793	0.0160589
776.871	0.0162257
776.949	0.0160911
777.027	0.0161471
777.105	0.0160635
777.183	0.0159149
777.261	0.0159225
777.340	0.0158752
777.418	0.0159136
777.496	0.0158414
777.574	0.0160065
777.652	0.0158691
777.730	0.0157508
777.808	0.0157572
777.886	0.0157272
777.965	0.0159158
778.043	0.0159585
778.121	0.0159526
778.199	0.0159096
778.277	0.0161247
778.355	0.0160738
778.433	0.0162090
778.511	0.0162657
778.590	0.0163573
778.668	0.0163754
778.746	0.0164637
778.824	0.0164701
778.902	0.0162738
778.980	0.0163426
779.058	0.0163225
779.136	0.0163126
779.215	0.0162537
779.293	0.0162144
779.371	0.0163280
779.449	0.0160831
779.527	0.0162938
779.605	0.0161846
779.683	0.0161848
779.761	0.0162746
779.840	0.0161433
779.918	0.0161065
779.996	0.0159659
780.074	0.0161629
780.152	0.0160521
780.230	0.0160999
780.308	0.0160340
780.386	0.0162067
780.465	0.0160802
780.543	0.0157572
780.621	0.0159085
780.699	0.0161299
780.777	0.0158820
780.855	0.0158640
780.933	0.0159575
781.011	0.0158509
781.090	0.0158655
781.168	0.0157874
781.246	0.0159038
781.324	0.0159705
781.402	0.0157665
781.480	0.0157747
781.558	0.0159107
781.636	0.0158697
781.715	0.0158244
781.793	0.0158043
781.871	0.0157825
781.949	0.0158209
782.027	0.0158558
782.105	0.0159925
782.183	0.0161459
782.261	0.0161279
782.340	0.0161726
782.418	0.0163002
782.496	0.0164065
782.574	0.0162578
782.652	0.0162952
782.730	0.0163967
782.808	0.0163750
782.886	0.0165779
782.965	0.0165105
783.043	0.0164151
783.121	0.0164426
783.199	0.0162974
783.277	0.0164592
783.355	0.0162084
783.433	0.0161735
783.511	0.0161209
783.590	0.0161707
783.668	0.0161443
783.746	0.0160226
783.824	0.0160027
783.902	0.0158874
783.980	0.0158832
784.058	0.0159829
784.136	0.0160143
784.215	0.0159996
784.293	0.0160225
784.371	0.0159839
784.449	0.0160071
784.527	0.0161867
784.605	0.0160583
784.683	0.0159673
784.761	0.0160957
784.840	0.0161071
784.918	0.0161169
784.996	0.0160072
785.074	0.0160767
785.152	0.0160803
785.230	0.0162011
785.308	0.0161107
785.386	0.0160013
785.465	0.0160104
785.543	0.0159483
785.621	0.0158715
785.699	0.0158145
785.777	0.0159086
785.855	0.0160282
785.933	0.0159816
786.011	0.0160260
786.090	0.0158211
786.168	0.0161029
786.246	0.0160992
786.324	0.0160976
786.402	0.0160338
786.480	0.0159570
786.558	0.0159724
786.636	0.0159917
786.715	0.0161344
786.793	0.0160781
786.871	0.0160616
786.949	0.0159963
787.027	0.0161980
787.105	0.0161001
787.183	0.0160353
787.261	0.0162988
787.340	0.0162244
787.418	0.0162440
787.496	0.0162033
787.574	0.0161533
787.652	0.0161882
787.730	0.0160741
787.808	0.0160823
787.886	0.0161827
787.965	0.0160919
788.043	0.0159589
788.121	0.0158822
788.199	0.0160917
788.277	0.0160900
788.355	0.0159048
788.433	0.0161236
788.511	0.0159769
788.590	0.0161039
788.668	0.0161910
788.746	0.0161105
788.824	0.0161765
788.902	0.0159737
788.980	0.0161479
789.058	0.0161539
789.136	0.0160090
789.215	0.0159821
789.293	0.0159930
789.371	0.0161005
789.449	0.0158439
789.527	0.0158434
789.605	0.0159735
789.683	0.0158392
789.761	0.0158539
789.840	0.0159042
789.918	0.0159307
789.996	0.0160752
790.074	0.0159543
790.152	0.0159784
790.230	0.0160306
790.308	0.0160996
790.386	0.0161493
790.465	0.0162142
790.543	0.0162457
790.621	0.0162951
790.699	0.0164160
790.777	0.0163028
790.855	0.0163442
790.933	0.0162617
791.011	0.0162579
791.090	0.0162808
791.168	0.0163059
791.246	0.0161064
791.324	0.0161648
791.402	0.0159827
791.480	0.0159920
791.558	0.0160984
791.636	0.0158154
791.715	0.0157915
791.793	0.0158694
791.871	0.0158438
791.949	0.0158873
792.027	0.0156945
792.105	0.0157373
792.183	0.0157697
792.261	0.0158642
792.340	0.0158977
792.418	0.0161049
792.496	0.0160213
792.574	0.0160516
792.652	0.0161200
792.730	0.0161173
792.808	0.0161082
792.886	0.0161822
792.965	0.0163107
793.043	0.0162439
793.121	0.0161646
793.199	0.0161332
793.277	0.0161462
793.355	0.0160134
793.433	0.0159302
793.511	0.0160011
793.590	0.0161306
793.668	0.0160011
793.746	0.0159127
793.824	0.0159784
793.902	0.0160193
793.980	0.0160569
794.058	0.0159396
794.136	0.0159432
794.215	0.0160191
794.293	0.0160490
794.371	0.0160305
794.449	0.0161689
794.527	0.0161420
794.605	0.0160855
794.683	0.0162137
794.761	0.0161220
794.840	0.0161249
794.918	0.0160304
794.996	0.0162212
795.074	0.0161969
795.152	0.0162312
795.230	0.0162857
795.308	0.0160729
795.386	0.0161095
795.465	0.0161809
795.543	0.0160473
795.621	0.0161053
795.699	0.0161261
795.777	0.0161704
795.855	0.0162160
795.933	0.0159824
796.011	0.0160538
796.090	0.0160153
796.168	0.0161084
796.246	0.0158923
796.324	0.0160966
796.402	0.0160493
796.480	0.0159673
796.558	0.0159659
796.636	0.0159879
796.715	0.0161412
796.793	0.0160719
796.871	0.0160517
796.949	0.0160500
797.027	0.0160434
797.105	0.0161298
797.183	0.0160862
797.261	0.0161040
797.340	0.0162045
797.418	0.0160978
797.496	0.0160600
797.574	0.0160575
797.652	0.0161800
797.730	0.0162749
797.808	0.0161027
797.886	0.0161678
797.965	0.0162218
798.043	0.0161699
798.121	0.0159950
798.199	0.0160586
798.277	0.0161442
798.355	0.0162205
798.433	0.0161414
798.511	0.0160471
798.590	0.0161751
798.668	0.0161506
798.746	0.0160913
798.824	0.0161293
798.902	0.0162254
798.980	0.0161130
799.058	0.0161807
799.136	0.0162622
799.215	0.0163063
799.293	0.0162135
799.371	0.0163793
799.449	0.0163088
799.527	0.0161433
799.605	0.0162163
799.683	0.0162664
799.761	0.0163033
799.840	0.0162103
799.918	0.0161829
799.996	0.0160841
800.074	0.0159827
800.152	0.0159747
800.230	0.0158977
800.308	0.0158234
800.386	0.0157928
800.465	0.0159065
800.543	0.0158682
800.621	0.0156371
800.699	0.0156557
800.777	0.0158195
800.855	0.0158132
800.933	0.0157280
801.011	0.0157638
801.090	0.0158232
801.168	0.0159598
801.246	0.0160644
801.324	0.0160255
801.402	0.0159431
801.480	0.0161377
801.558	0.0162434
801.636	0.0160909
801.715	0.0162234
801.793	0.0162206
801.871	0.0162634
801.949	0.0164857
802.027	0.0163576
802.105	0.0164005
802.183	0.0163883
802.261	0.0163409
802.340	0.0162353
802.418	0.0161929
802.496	0.0160213
802.574	0.0160651
802.652	0.0161230
802.730	0.0161604
802.808	0.0160190
802.886	0.0160609
802.965	0.0160901
803.043	0.0161203
803.121	0.0160475
803.199	0.0160204
803.277	0.0160785
803.355	0.0160382
803.433	0.0160743
803.511	0.0161976
803.590	0.0160587
803.668	0.0160977
803.746	0.0161832
803.824	0.0161278
803.902	0.0160725
803.980	0.0162398
804.058	0.0161493
804.136	0.0161018
804.215	0.0161875
804.293	0.0161181
804.371	0.0160857
804.449	0.0161435
804.527	0.0160706
804.605	0.0159675
804.683	0.0160452
804.761	0.0160947
804.840	0.0161369
804.918	0.0160605
804.996	0.0161253
805.074	0.0161331
805.152	0.0161407
805.230	0.0160122
805.308	0.0161153
805.386	0.0163376
805.465	0.0163529
805.543	0.0161689
805.621	0.0160004
805.699	0.0161381
805.777	0.0162045
805.855	0.0162261
805.933	0.0161685
806.011	0.0160237
806.090	0.0161339
806.168	0.0162458
806.246	0.0161468
806.324	0.0161015
806.402	0.0159818
806.480	0.0160740
806.558	0.0160751
806.636	0.0158530
806.715	0.0160590
806.793	0.0159438
806.871	0.0158637
806.949	0.0159956
807.027	0.0158167
807.105	0.0159246
807.183	0.0158340
807.261	0.0159646
807.340	0.0159814
807.418	0.0159018
807.496	0.0160880
807.574	0.0162424
807.652	0.0159239
807.730	0.0160856
807.808	0.0161725
807.886	0.0161760
807.965	0.0161498
808.043	0.0161198
808.121	0.0161570
808.199	0.0163236
808.277	0.0162492
808.355	0.0161798
808.433	0.0162124
808.511	0.0161274
808.590	0.0162070
808.668	0.0161450
808.746	0.0161002
808.824	0.0161562
808.902	0.0160028
808.980	0.0160393
809.058	0.0160659
809.136	0.0161262
809.215	0.0160467
809.293	0.0158644
809.371	0.0161819
809.449	0.0161777
809.527	0.0161106
809.605	0.0160153
809.683	0.0160645
809.761	0.0162093
809.840	0.0162284
809.918	0.0161186
809.996	0.0161456
810.074	0.0162182
810.152	0.0163268
810.230	0.0163334
810.308	0.0162331
810.386	0.0162813
810.465	0.0162283
810.543	0.0161746
810.621	0.0163094
810.699	0.0162793
810.777	0.0162386
810.855	0.0160532
810.933	0.0158779
811.011	0.0160645
811.090	0.0161600
811.168	0.0159906
811.246	0.0160098
811.324	0.0159698
811.402	0.0158682
811.480	0.0160645
811.558	0.0158366
811.636	0.0158416
811.715	0.0157935
811.793	0.0160479
811.871	0.0160431
811.949	0.0159520
812.027	0.0159408
812.105	0.0159868
812.183	0.0160579
812.261	0.0160511
812.340	0.0159789
812.418	0.0159493
812.496	0.0158823
812.574	0.0160004
812.652	0.0159923
812.730	0.0161583
812.808	0.0161366
812.886	0.0161113
812.965	0.0162177
813.043	0.0161881
813.121	0.0160985
813.199	0.0162847
813.277	0.0162152
813.355	0.0162084
813.433	0.0162397
813.511	0.0160671
813.590	0.0161566
813.668	0.0162608
813.746	0.0163634
813.824	0.0163207
813.902	0.0161503
813.980	0.0161465
814.058	0.0161394
814.136	0.0160593
814.215	0.0161536
814.293	0.0161181
814.371	0.0161181
814.449	0.0161359
814.527	0.0161274
814.605	0.0160528
814.683	0.0161717
814.761	0.0161972
814.840	0.0160139
814.918	0.0160628
814.996	0.0160639
815.074	0.0160223
815.152	0.0159692
815.230	0.0160183
815.308	0.0158058
815.386	0.0159789
815.465	0.0160585
815.543	0.0159145
815.621	0.0159277
815.699	0.0158936
815.777	0.0159544
815.855	0.0160326
815.933	0.0160658
816.011	0.0160255
816.090	0.0160699
816.168	0.0161100
816.246	0.0162251
816.324	0.0162032
816.402	0.0163854
816.480	0.0164429
816.558	0.0165424
816.636	0.0163171
816.715	0.0164658
816.793	0.0165301
816.871	0.0165396
816.949	0.0164893
817.027	0.0165574
817.105	0.0165018
817.183	0.0164420
817.261	0.0162419
817.340	0.0161348
817.418	0.0162360
817.496	0.0163183
817.574	0.0161079
817.652	0.0159401
817.730	0.0159315
817.808	0.0157420
817.886	0.0157507
817.965	0.0156322
818.043	0.0156187
818.121	0.0155613
818.199	0.0155556
818.277	0.0154394
818.355	0.0153232
818.433	0.0154848
818.511	0.0154819
818.590	0.0155999
818.668	0.0156563
818.746	0.0156547
818.824	0.0158697
818.902	0.0160068
818.980	0.0159023
819.058	0.0160881
819.136	0.0162225
819.215	0.0163207
819.293	0.0164012
819.371	0.0165382
819.449	0.0165402
819.527	0.0167001
819.605	0.0166204
819.683	0.0165030
819.761	0.0165295
819.840	0.0165660
819.918	0.0165692
819.996	0.0164950
820.074	0.0164183
820.152	0.0164754
820.230	0.0164063
820.308	0.0163393
820.386	0.0161315
820.465	0.0161932
820.543	0.0161800
820.621	0.0160420
820.699	0.0159872
820.777	0.0158730
820.855	0.0159906
820.933	0.0159252
821.011	0.0158730
821.090	0.0157987
821.168	0.0156197
821.246	0.0157177
821.324	0.0155529
821.402	0.0154560
821.480	0.0156593
821.558	0.0156992
821.636	0.0156351
821.715	0.0156120
821.793	0.0155486
821.871	0.0155021
821.949	0.0156615
822.027	0.0158958
822.105	0.0158533
822.183	0.0157458
822.261	0.0160168
822.340	0.0160318
822.418	0.0160928
822.496	0.0162816
822.574	0.0163135
822.652	0.0163309
822.730	0.0164902
822.808	0.0165894
822.886	0.0164986
822.965	0.0167060
823.043	0.0166501
823.121	0.0166228
823.199	0.0166906
823.277	0.0166653
823.355	0.0165958
823.433	0.0166553
823.511	0.0166074
823.590	0.0165214
823.668	0.0164657
823.746	0.0164114
823.824	0.0162838
823.902	0.0161405
823.980	0.0161575
824.058	0.0161410
824.136	0.0160062
824.215	0.0158759
824.293	0.0158356
824.371	0.0157570
824.449	0.0156405
824.527	0.0155431
824.605	0.0155966
824.683	0.0155143
824.761	0.0156410
824.840	0.0156735
824.918	0.0156721
824.996	0.0156005
825.074	0.0156694
825.152	0.0157851
825.230	0.0157532
825.308	0.0155547
825.386	0.0158258
825.465	0.0158300
825.543	0.0157381
825.621	0.0160370
825.699	0.0160178
825.777	0.0159636
825.855	0.0160392
825.933	0.0160989
826.011	0.0161750
826.090	0.0162209
826.168	0.0162578
826.246	0.0163813
826.324	0.0164465
826.402	0.0162266
826.480	0.0164701
826.558	0.0164994
826.636	0.0163794
826.715	0.0165012
826.793	0.0165075
826.871	0.0164519
826.949	0.0165668
827.027	0.0164188
827.105	0.0164384
827.183	0.0164876
827.261	0.0164977
827.340	0.0164172
827.418	0.0163239
827.496	0.0162094
827.574	0.0162404
827.652	0.0160860
827.730	0.0159589
827.808	0.0158828
827.886	0.0157336
827.965	0.0156763
828.043	0.0159731
828.121	0.0158355
828.199	0.0158500
828.277	0.0158408
828.355	0.0157593
828.433	0.0158237
828.511	0.0156953
828.590	0.0157182
828.668	0.0159744
828.746	0.0157417
828.824	0.0157632
828.902	0.0158923
828.980	0.0157430
829.058	0.0157899
829.136	0.0158450
829.215	0.0158045
829.293	0.0158323
829.371	0.0160534
829.449	0.0159224
829.527	0.0160412
829.605	0.0160653
829.683	0.0162153
829.761	0.0162605
829.840	0.0162584
829.918	0.0162755
829.996	0.0163560
830.074	0.0163401
830.152	0.0162743
830.230	0.0163381
830.308	0.0163445
830.386	0.0164403
830.465	0.0162950
830.543	0.0163689
830.621	0.0163638
830.699	0.0162804
830.777	0.0164056
830.855	0.0162196
830.933	0.0161248
831.011	0.0161841
831.090	0.0161132
831.168	0.0160926
831.246	0.0161195
831.324	0.0159941
831.402	0.0158745
831.480	0.0159267
831.558	0.0161256
831.636	0.0160003
831.715	0.0160570
831.793	0.0160391
831.871	0.0159521
831.949	0.0160423
832.027	0.0159283
832.105	0.0159934
832.183	0.0160479
832.261	0.0160846
832.340	0.0160149
832.418	0.0160703
832.496	0.0159217
832.574	0.0160012
832.652	0.0158799
832.730	0.0160436
832.808	0.0160500
832.886	0.0159383
832.965	0.0159118
833.043	0.0159235
833.121	0.0159029
833.199	0.0159961
833.277	0.0159767
833.355	0.0160201
833.433	0.0161160
833.511	0.0160144
833.590	0.0161290
833.668	0.0162699
833.746	0.0161702
833.824	0.0161867
833.902	0.0161958
833.980	0.0162505
834.058	0.0162667
834.136	0.0163783
834.215	0.0163493
834.293	0.0162731
834.371	0.0162924
834.449	0.0163094
834.527	0.0162708
834.605	0.0162019
834.683	0.0164007
834.761	0.0162354
834.840	0.0163011
834.918	0.0161430
834.996	0.0161626
835.074	0.0162239
835.152	0.0161952
835.230	0.0160960
835.308	0.0160345
835.386	0.0162229
835.465	0.0161795
835.543	0.0161074
835.621	0.0160684
835.699	0.0161898
835.777	0.0160083
835.855	0.0161396
835.933	0.0161948
836.011	0.0161660
836.090	0.0160805
836.168	0.0159939
836.246	0.0158768
836.324	0.0160991
836.402	0.0160686
836.480	0.0159616
836.558	0.0159263
836.636	0.0160106
836.715	0.0158385
836.793	0.0159631
836.871	0.0157986
836.949	0.0158937
837.027	0.0159010
837.105	0.0159138
837.183	0.0159302
837.261	0.0158039
837.340	0.0158812
837.418	0.0159101
837.496	0.0159507
837.574	0.0159148
837.652	0.0158364
837.730	0.0160214
837.808	0.0160281
837.886	0.0160088
837.965	0.0159694
838.043	0.0161176
838.121	0.0161195
838.199	0.0161539
838.277	0.0160297
838.355	0.0160487
838.433	0.0160639
838.511	0.0162865
838.590	0.0161896
838.668	0.0160637
838.746	0.0159446
838.824	0.0161593
838.902	0.0161774
838.980	0.0160297
839.058	0.0159762
839.136	0.0161116
839.215	0.0160738
839.293	0.0159571
839.371	0.0160583
839.449	0.0160104
839.527	0.0159840
839.605	0.0160754
839.683	0.0159825
839.761	0.0159797
839.840	0.0159318
839.918	0.0160789
839.996	0.0159615
840.074	0.0160646
840.152	0.0160995
840.230	0.0160687
840.308	0.0161246
840.386	0.0163296
840.465	0.0160809
840.543	0.0161108
840.621	0.0162002
840.699	0.0161674
840.777	0.0161671
840.855	0.0162410
840.933	0.0162885
841.011	0.0162856
841.090	0.0161181
841.168	0.0161115
841.246	0.0160651
841.324	0.0161280
841.402	0.0160520
841.480	0.0161768
841.558	0.0161835
841.636	0.0160166
841.715	0.0160084
841.793	0.0160343
841.871	0.0159154
841.949	0.0159679
842.027	0.0159444
842.105	0.0158727
842.183	0.0158607
842.261	0.0158279
842.340	0.0159480
842.418	0.0159351
842.496	0.0158434
842.574	0.0158344
842.652	0.0159713
842.730	0.0159138
842.808	0.0160644
842.886	0.0159807
842.965	0.0158741
843.043	0.0160873
843.121	0.0160407
843.199	0.0160318
843.277	0.0159458
843.355	0.0160619
843.433	0.0160253
843.511	0.0160671
843.590	0.0158855
843.668	0.0159983
843.746	0.0161254
843.824	0.0160693
843.902	0.0161043
843.980	0.0160384
844.058	0.0160883
844.136	0.0161146
844.215	0.0161714
844.293	0.0162461
844.371	0.0161852
844.449	0.0162016
844.527	0.0162798
844.605	0.0162556
844.683	0.0162658
844.761	0.0163624
844.840	0.0161119
844.918	0.0163663
844.996	0.0163171
845.074	0.0162808
845.152	0.0162523
845.230	0.0162182
845.308	0.0162222
845.386	0.0161284
845.465	0.0163101
845.543	0.0162357
845.621	0.0160630
845.699	0.0160565
845.777	0.0160897
845.855	0.0160803
845.933	0.0160063
846.011	0.0159773
846.090	0.0159663
846.168	0.0158543
846.246	0.0159477
846.324	0.0159861
846.402	0.0159258
846.480	0.0160608
846.558	0.0157983
846.636	0.0159619
846.715	0.0160938
846.793	0.0159090
846.871	0.0157883
846.949	0.0159270
847.027	0.0158118
847.105	0.0158436
847.183	0.0157777
847.261	0.0158852
847.340	0.0157993
847.418	0.0160347
847.496	0.0158900
847.574	0.0159684
847.652	0.0159203
847.730	0.0160077
847.808	0.0160490
847.886	0.0160961
847.965	0.0160718
848.043	0.0160786
848.121	0.0161313
848.199	0.0162158
848.277	0.0161850
848.355	0.0161150
848.433	0.0163139
848.511	0.0163200
848.590	0.0163000
848.668	0.0161977
848.746	0.0164035
848.824	0.0162785
848.902	0.0162989
848.980	0.0163604
849.058	0.0162651
849.136	0.0162059
849.215	0.0163638
849.293	0.0162241
849.371	0.0162643
849.449	0.0162383
849.527	0.0162376
849.605	0.0162113
849.683	0.0162071
849.761	0.0160702
849.840	0.0159977
849.918	0.0160090
849.996	0.0161079
850.074	0.0160507
850.152	0.0160856
850.230	0.0160665
850.308	0.0160877
850.386	0.0159521
850.465	0.0160757
850.543	0.0160314
850.621	0.0160906
850.699	0.0160907
850.777	0.0160031
850.855	0.0159483
850.933	0.0159882
851.011	0.0159634
851.090	0.0160306
851.168	0.0161108
851.246	0.0159634
851.324	0.0159173
851.402	0.0160377
851.480	0.0161201
851.558	0.0161289
851.636	0.0160776
851.715	0.0160172
851.793	0.0160396
851.871	0.0160135
851.949	0.0160789
852.027	0.0160058
852.105	0.0159266
852.183	0.0159184
852.261	0.0159694
852.340	0.0159522
852.418	0.0158740
852.496	0.0161572
852.574	0.0160416
852.652	0.0159873
852.730	0.0159951
852.808	0.0160040
852.886	0.0160414
852.965	0.0159645
853.043	0.0160180
853.121	0.0161449
853.199	0.0160561
853.277	0.0160677
853.355	0.0159912
853.433	0.0158576
853.511	0.0160736
853.590	0.0160766
853.668	0.0161438
853.746	0.0160152
853.824	0.0160963
853.902	0.0160566
853.980	0.0160186
854.058	0.0159732
854.136	0.0161720
854.215	0.0160713
854.293	0.0160109
854.371	0.0161361
854.449	0.0161530
854.527	0.0160971
854.605	0.0161679
854.683	0.0160992
854.761	0.0161462
854.840	0.0161889
854.918	0.0161153
854.996	0.0161163
855.074	0.0161208
855.152	0.0161982
855.230	0.0161852
855.308	0.0160026
855.386	0.0162799
855.465	0.0162057
855.543	0.0161230
855.621	0.0161144
855.699	0.0161457
855.777	0.0161801
855.855	0.0161923
855.933	0.0162363
856.011	0.0162258
856.090	0.0161228
856.168	0.0162128
856.246	0.0162193
856.324	0.0160107
856.402	0.0161980
856.480	0.0162884
856.558	0.0160953
856.636	0.0160853
856.715	0.0161839
856.793	0.0162645
856.871	0.0162014
856.949	0.0160920
857.027	0.0160404
857.105	0.0162063
857.183	0.0162366
857.261	0.0162060
857.340	0.0161044
857.418	0.0160609
857.496	0.0159896
857.574	0.0159176
857.652	0.0159612
857.730	0.0159391
857.808	0.0159798
857.886	0.0159159
857.965	0.0160268
858.043	0.0159673
858.121	0.0159376
858.199	0.0158952
858.277	0.0159051
858.355	0.0160059
858.433	0.0161834
858.511	0.0159096
858.590	0.0160835
858.668	0.0161842
858.746	0.0159441
858.824	0.0161478
858.902	0.0160475
858.980	0.0159592
859.058	0.0161494
859.136	0.0159663
859.215	0.0158675
859.293	0.0159562
859.371	0.0160801
859.449	0.0160041
859.527	0.0159808
859.605	0.0160520
859.683	0.0160607
859.761	0.0161030
859.840	0.0160262
859.918	0.0160779
859.996	0.0160791
860.074	0.0161586
860.152	0.0159670
860.230	0.0159981
860.308	0.0162255
860.386	0.0161153
860.465	0.0162706
860.543	0.0162315
860.621	0.0162189
860.699	0.0162857
860.777	0.0162147
860.855	0.0163649
860.933	0.0162633
861.011	0.0161784
861.090	0.0161364
861.168	0.0161693
861.246	0.0161175
861.324	0.0160735
861.402	0.0160925
861.480	0.0159482
861.558	0.0160960
861.636	0.0162749
861.715	0.0160244
861.793	0.0160001
861.871	0.0160601
861.949	0.0160606
862.027	0.0158940
862.105	0.0161014
862.183	0.0161704
862.261	0.0160191
862.340	0.0161918
862.418	0.0161672
862.496	0.0160336
862.574	0.0159087
862.652	0.0160629
862.730	0.0161462
862.808	0.0160780
862.886	0.0160081
862.965	0.0158978
863.043	0.0160213
863.121	0.0159757
863.199	0.0159965
863.277	0.0159423
863.355	0.0159103
863.433	0.0158921
863.511	0.0159129
863.590	0.0160499
863.668	0.0159669
863.746	0.0160410
863.824	0.0159595
863.902	0.0158822
863.980	0.0160343
864.058	0.0160460
864.136	0.0160609
864.215	0.0160142
864.293	0.0161205
864.371	0.0161201
864.449	0.0161397
864.527	0.0161855
864.605	0.0160583
864.683	0.0161269
864.761	0.0162260
864.840	0.0162154
864.918	0.0162260
864.996	0.0162558
865.074	0.0161880
865.152	0.0163997
865.230	0.0162897
865.308	0.0163094
865.386	0.0162641
865.465	0.0162773
865.543	0.0162729
865.621	0.0161908
865.699	0.0162395
865.777	0.0161071
865.855	0.0160783
865.933	0.0161325
866.011	0.0161759
866.090	0.0161435
866.168	0.0161108
866.246	0.0160861
866.324	0.0160184
866.402	0.0159785
866.480	0.0160384
866.558	0.0158823
866.636	0.0160953
866.715	0.0160410
866.793	0.0160252
866.871	0.0159512
866.949	0.0158920
867.027	0.0160812
867.105	0.0159406
867.183	0.0160856
867.261	0.0161390
867.340	0.0160331
867.418	0.0161792
867.496	0.0161449
867.574	0.0162162
867.652	0.0160121
867.730	0.0161855
867.808	0.0162384
867.886	0.0160676
867.965	0.0160687
868.043	0.0161178
868.121	0.0162868
868.199	0.0161838
868.277	0.0160004
868.355	0.0161723
868.433	0.0162093
868.511	0.0161840
868.590	0.0160032
868.668	0.0162199
868.746	0.0160852
868.824	0.0159813
868.902	0.0160437
868.980	0.0160518
869.058	0.0161670
869.136	0.0160764
869.215	0.0159637
869.293	0.0160247
869.371	0.0160487
869.449	0.0160856
869.527	0.0159079
869.605	0.0159387
869.683	0.0160919
869.761	0.0160168
869.840	0.0160332
869.918	0.0160248
869.996	0.0162223
870.074	0.0159982
870.152	0.0158858
870.230	0.0160310
870.308	0.0162642
870.386	0.0160297
870.465	0.0161278
870.543	0.0160738
870.621	0.0161585
870.699	0.0161751
870.777	0.0160513
870.855	0.0160130
870.933	0.0160870
871.011	0.0161165
871.090	0.0160997
871.168	0.0162220
871.246	0.0161739
871.324	0.0160737
871.402	0.0161273
871.480	0.0162283
871.558	0.0162009
871.636	0.0162157
871.715	0.0161564
871.793	0.0162480
871.871	0.0162317
871.949	0.0161613
872.027	0.0161602
872.105	0.0162276
872.183	0.0162202
872.261	0.0161409
872.340	0.0162190
872.418	0.0161520
872.496	0.0161765
872.574	0.0161639
872.652	0.0161689
872.730	0.0161218
872.808	0.0162578
872.886	0.0161362
872.965	0.0160628
873.043	0.0160860
873.121	0.0161758
873.199	0.0160149
873.277	0.0161691
873.355	0.0161504
873.433	0.0162847
873.511	0.0161044
873.590	0.0161153
873.668	0.0161288
873.746	0.0162213
873.824	0.0160513
873.902	0.0161221
873.980	0.0160181
874.058	0.0159628
874.136	0.0160743
874.215	0.0161671
874.293	0.0159644
874.371	0.0160998
874.449	0.0160853
874.527	0.0161483
874.605	0.0160799
874.683	0.0159969
874.761	0.0160722
874.840	0.0161451
874.918	0.0159005
874.996	0.0159560
875.074	0.0161131
875.152	0.0160934
875.230	0.0161584
875.308	0.0161182
875.386	0.0160490
875.465	0.0158704
875.543	0.0161607
875.621	0.0161845
875.699	0.0161045
875.777	0.0162231
875.855	0.0161200
875.933	0.0162416
876.011	0.0162663
876.090	0.0160990
876.168	0.0162055
876.246	0.0162772
876.324	0.0162569
876.402	0.0161139
876.480	0.0162674
876.558	0.0162547
876.636	0.0161776
876.715	0.0162492
876.793	0.0161134
876.871	0.0160773
876.949	0.0160331
877.027	0.0161948
877.105	0.0161150
877.183	0.0160913
877.261	0.0160617
877.340	0.0161385
877.418	0.0159861
877.496	0.0159563
877.574	0.0159874
877.652	0.0159451
877.730	0.0159757
877.808	0.0158670
877.886	0.0159746
877.965	0.0159447
878.043	0.0159618
878.121	0.0160129
878.199	0.0159921
878.277	0.0160052
878.355	0.0158720
878.433	0.0159795
878.511	0.0160515
878.590	0.0160925
878.668	0.0161336
878.746	0.0161066
878.824	0.0161469
878.902	0.0162714
878.980	0.0161655
879.058	0.0162017
879.136	0.0161131
879.215	0.0159791
879.293	0.0159546
879.371	0.0162149
879.449	0.0162148
879.527	0.0160043
879.605	0.0160483
879.683	0.0161550
879.761	0.0159505
879.840	0.0161066
879.918	0.0160397
879.996	0.0161143
880.074	0.0162287
880.152	0.0161658
880.230	0.0160767
880.308	0.0159267
880.386	0.0162341
880.465	0.0161460
880.543	0.0160954
880.621	0.0161843
880.699	0.0162897
880.777	0.0162044
880.855	0.0160413
880.933	0.0162037
881.011	0.0162305
881.090	0.0161347
881.168	0.0161728
881.246	0.0162687
881.324	0.0161822
881.402	0.0162545
881.480	0.0162646
881.558	0.0162183
881.636	0.0162460
881.715	0.0161874
881.793	0.0162515
881.871	0.0160774
881.949	0.0161490
882.027	0.0162264
882.105	0.0161208
882.183	0.0160515
882.261	0.0160224
882.340	0.0159489
882.418	0.0161595
882.496	0.0160864
882.574	0.0160796
882.652	0.0159978
882.730	0.0161408
882.808	0.0160609
882.886	0.0160712
882.965	0.0160163
883.043	0.0161685
883.121	0.0160462
883.199	0.0161980
883.277	0.0160696
883.355	0.0160545
883.433	0.0160603
883.511	0.0161015
883.590	0.0161146
883.668	0.0160493
883.746	0.0160625
883.824	0.0161580
883.902	0.0160946
883.980	0.0160975
884.058	0.0160172
884.136	0.0160378
884.215	0.0161071
884.293	0.0160191
884.371	0.0161797
884.449	0.0159806
884.527	0.0160164
884.605	0.0159741
884.683	0.0160737
884.761	0.0161194
884.840	0.0160399
884.918	0.0159299
884.996	0.0160329
885.074	0.0159851
885.152	0.0160251
885.230	0.0161083
885.308	0.0161191
885.386	0.0161365
885.465	0.0162569
885.543	0.0161430
885.621	0.0159734
885.699	0.0161594
885.777	0.0160295
885.855	0.0161124
885.933	0.0160918
886.011	0.0161916
886.090	0.0163936
886.168	0.0161696
886.246	0.0161462
886.324	0.0161814
886.402	0.0162854
886.480	0.0162251
886.558	0.0161994
886.636	0.0162993
886.715	0.0162297
886.793	0.0161870
886.871	0.0161649
886.949	0.0162205
887.027	0.0161486
887.105	0.0160718
887.183	0.0161779
887.261	0.0162533
887.340	0.0161549
887.418	0.0161491
887.496	0.0160694
887.574	0.0160546
887.652	0.0160627
887.730	0.0159364
887.808	0.0159970
887.886	0.0159533
887.965	0.0159193
888.043	0.0158568
888.121	0.0159356
888.199	0.0159850
888.277	0.0159444
888.355	0.0159495
888.433	0.0159730
888.511	0.0159401
888.590	0.0160281
888.668	0.0160612
888.746	0.0160661
888.824	0.0160606
888.902	0.0159623
888.980	0.0160081
889.058	0.0161536
889.136	0.0160603
889.215	0.0160601
889.293	0.0161675
889.371	0.0161596
889.449	0.0159858
889.527	0.0161504
889.605	0.0161921
889.683	0.0162297
889.761	0.0161052
889.840	0.0160536
889.918	0.0162650
889.996	0.0162404
890.074	0.0160972
890.152	0.0163230
890.230	0.0162264
890.308	0.0162842
890.386	0.0161945
890.465	0.0162168
890.543	0.0162358
890.621	0.0162923
890.699	0.0161607
890.777	0.0161781
890.855	0.0161856
890.933	0.0161858
891.011	0.0162458
891.090	0.0160396
891.168	0.0160755
891.246	0.0161523
891.324	0.0161814
891.402	0.0159776
891.480	0.0160059
891.558	0.0160143
891.636	0.0160445
891.715	0.0159183
891.793	0.0161375
891.871	0.0162797
891.949	0.0160668
892.027	0.0160769
892.105	0.0161434
892.183	0.0160854
892.261	0.0161113
892.340	0.0160120
892.418	0.0159994
892.496	0.0160147
892.574	0.0160305
892.652	0.0160775
892.730	0.0161603
892.808	0.0160316
892.886	0.0161150
892.965	0.0161482
893.043	0.0161068
893.121	0.0161465
893.199	0.0161926
893.277	0.0161559
893.355	0.0161701
893.433	0.0161945
893.511	0.0162231
893.590	0.0161977
893.668	0.0161685
893.746	0.0163088
893.824	0.0162785
893.902	0.0161264
893.980	0.0160976
894.058	0.0162516
894.136	0.0161450
894.215	0.0162246
894.293	0.0161329
894.371	0.0161835
894.449	0.0161564
894.527	0.0159820
894.605	0.0159662
894.683	0.0160056
894.761	0.0159950
894.840	0.0161280
894.918	0.0158719
894.996	0.0158977
895.074	0.0160747
895.152	0.0161168
895.230	0.0161220
895.308	0.0160748
895.386	0.0159702
895.465	0.0160808
895.543	0.0160912
895.621	0.0161401
895.699	0.0162077
895.777	0.0161250
895.855	0.0161370
895.933	0.0161827
896.011	0.0162094
896.090	0.0161939
896.168	0.0162543
896.246	0.0160346
896.324	0.0161518
896.402	0.0161847
896.480	0.0161959
896.558	0.0162569
896.636	0.0160191
896.715	0.0161545
896.793	0.0160912
896.871	0.0161282
896.949	0.0160899
897.027	0.0159328
897.105	0.0161903
897.183	0.0162310
897.261	0.0160310
897.340	0.0161749
897.418	0.0162505
897.496	0.0161658
897.574	0.0162995
897.652	0.0162295
897.730	0.0161559
897.808	0.0161388
897.886	0.0162392
897.965	0.0161790
898.043	0.0161942
898.121	0.0161697
898.199	0.0161738
898.277	0.0161216
898.355	0.0161165
898.433	0.0161082
898.511	0.0159213
898.590	0.0160263
898.668	0.0159365
898.746	0.0159217
898.824	0.0158497
898.902	0.0158881
898.980	0.0160484
899.058	0.0159317
899.136	0.0159486
899.215	0.0159580
899.293	0.0159133
899.371	0.0160421
899.449	0.0160981
899.527	0.0160452
899.605	0.0160204
899.683	0.0161372
899.761	0.0160963
899.840	0.0161340
899.918	0.0162393
899.996	0.0160760
900.074	0.0161031
900.152	0.0160678
900.230	0.0161733
900.308	0.0161787
900.386	0.0161768
900.465	0.0162368
900.543	0.0162937
900.621	0.0162282
900.699	0.0162191
900.777	0.0163112
900.855	0.0161702
900.933	0.0162016
901.011	0.0162514
901.090	0.0160930
901.168	0.0162325
901.246	0.0161480
901.324	0.0162148
901.402	0.0161701
901.480	0.0160494
901.558	0.0161012
901.636	0.0161346
901.715	0.0160132
901.793	0.0160372
901.871	0.0160767
901.949	0.0160822
902.027	0.0160268
902.105	0.0160125
902.183	0.0161313
902.261	0.0160202
902.340	0.0159722
902.418	0.0161221
902.496	0.0160997
902.574	0.0160248
902.652	0.0161612
902.730	0.0161858
902.808	0.0160819
902.886	0.0160287
902.965	0.0160661
903.043	0.0161974
903.121	0.0161143
903.199	0.0161169
903.277	0.0160264
903.355	0.0161777
903.433	0.0160314
903.511	0.0160264
903.590	0.0160720
903.668	0.0160970
903.746	0.0160051
903.824	0.0159869
903.902	0.0159856
903.980	0.0159982
904.058	0.0160447
904.136	0.0160380
904.215	0.0160789
904.293	0.0160468
904.371	0.0161338
904.449	0.0161515
904.527	0.0161785
904.605	0.0159581
904.683	0.0160996
904.761	0.0162432
904.840	0.0160835
904.918	0.0160971
904.996	0.0160376
905.074	0.0160908
905.152	0.0161638
905.230	0.0162056
905.308	0.0161003
905.386	0.0160986
905.465	0.0160831
905.543	0.0160790
905.621	0.0160779
905.699	0.0161522
905.777	0.0160791
905.855	0.0161420
905.933	0.0161244
906.011	0.0162178
906.090	0.0162708
906.168	0.0160522
906.246	0.0160717
906.324	0.0162062
906.402	0.0161121
906.480	0.0161240
906.558	0.0162281
906.636	0.0160404
906.715	0.0161613
906.793	0.0161682
906.871	0.0162227
906.949	0.0161552
907.027	0.0161902
907.105	0.0161151
907.183	0.0160339
907.261	0.0161073
907.340	0.0159354
907.418	0.0160233
907.496	0.0160804
907.574	0.0159376
907.652	0.0160046
907.730	0.0159799
907.808	0.0160220
907.886	0.0159666
907.965	0.0161227
908.043	0.0162165
908.121	0.0159022
908.199	0.0161169
908.277	0.0161016
908.355	0.0161629
908.433	0.0161085
908.511	0.0160384
908.590	0.0160442
908.668	0.0160210
908.746	0.0160881
908.824	0.0160490
908.902	0.0161081
908.980	0.0160404
909.058	0.0160644
909.136	0.0161291
909.215	0.0160944
909.293	0.0161827
909.371	0.0160892
909.449	0.0162620
909.527	0.0161140
909.605	0.0160970
909.683	0.0160433
909.761	0.0161179
909.840	0.0162396
909.918	0.0162096
909.996	0.0162205
910.074	0.0161274
910.152	0.0160848
910.230	0.0160109
910.308	0.0160857
910.386	0.0161004
910.465	0.0159988
910.543	0.0159096
910.621	0.0159005
910.699	0.0160378
910.777	0.0160719
910.855	0.0160498
910.933	0.0159673
911.011	0.0161538
911.090	0.0162448
911.168	0.0162707
911.246	0.0163239
911.324	0.0161629
911.402	0.0162440
911.480	0.0161898
911.558	0.0162340
911.636	0.0162695
911.715	0.0161115
911.793	0.0161985
911.871	0.0161201
911.949	0.0161149
912.027	0.0161523
912.105	0.0159742
912.183	0.0160206
912.261	0.0160310
912.340	0.0160362
912.418	0.0160051
912.496	0.0157910
912.574	0.0159519
912.652	0.0159621
912.730	0.0160368
912.808	0.0161070
912.886	0.0160185
912.965	0.0160007
913.043	0.0160918
913.121	0.0160092
913.199	0.0160373
913.277	0.0162003
913.355	0.0160822
913.433	0.0160605
913.511	0.0159617
913.590	0.0161175
913.668	0.0160224
913.746	0.0162012
913.824	0.0161320
913.902	0.0160336
913.980	0.0162518
914.058	0.0161694
914.136	0.0161402
914.215	0.0163697
914.293	0.0163556
914.371	0.0163805
914.449	0.0162794
914.527	0.0163582
914.605	0.0163804
914.683	0.0163013
914.761	0.0163654
914.840	0.0163792
914.918	0.0162292
914.996	0.0161110
915.074	0.0160603
915.152	0.0159969
915.230	0.0159982
915.308	0.0159308
915.386	0.0159164
915.465	0.0159766
915.543	0.0156593
915.621	0.0158412
915.699	0.0158990
915.777	0.0157490
915.855	0.0158726
915.933	0.0158761
916.011	0.0158563
916.090	0.0158097
916.168	0.0158566
916.246	0.0158264
916.324	0.0158357
916.402	0.0159663
916.480	0.0160502
916.558	0.0159516
916.636	0.0160059
916.715	0.0159397
916.793	0.0161275
916.871	0.0161205
916.949	0.0161217
917.027	0.0162488
917.105	0.0162109
917.183	0.0161839
917.261	0.0163403
917.340	0.0165557
917.418	0.0164908
917.496	0.0166473
917.574	0.0164769
917.652	0.0165036
917.730	0.0166335
917.808	0.0164220
917.886	0.0164010
917.965	0.0164043
918.043	0.0163130
918.121	0.0161095
918.199	0.0160152
918.277	0.0159117
918.355	0.0158147
918.433	0.0157417
918.511	0.0156976
918.590	0.0156200
918.668	0.0155801
918.746	0.0156053
918.824	0.0157240
918.902	0.0156222
918.980	0.0156787
919.058	0.0156409
919.136	0.0157799
919.215	0.0157837
919.293	0.0157491
919.371	0.0159119
919.449	0.0159807
919.527	0.0158221
919.605	0.0160724
919.683	0.0160514
919.761	0.0159948
919.840	0.0160940
919.918	0.0160045
919.996	0.0161832
920.074	0.0160876
920.152	0.0160146
920.230	0.0159784
920.308	0.0161658
920.386	0.0162975
920.465	0.0163734
920.543	0.0164722
920.621	0.0164213
920.699	0.0164027
920.777	0.0163343
920.855	0.0164037
920.933	0.0163782
921.011	0.0163691
921.090	0.0163833
921.168	0.0163442
921.246	0.0163198
921.324	0.0160983
921.402	0.0160873
921.480	0.0159766
921.558	0.0160004
921.636	0.0159079
921.715	0.0159059
921.793	0.0160029
921.871	0.0157639
921.949	0.0159544
922.027	0.0159225
922.105	0.0157599
922.183	0.0159402
922.261	0.0161060
922.340	0.0160448
922.418	0.0162218
922.496	0.0159075
922.574	0.0160758
922.652	0.0161231
922.730	0.0159531
922.808	0.0160556
922.886	0.0159273
922.965	0.0159150
923.043	0.0156651
923.121	0.0159492
923.199	0.0159380
923.277	0.0159512
923.355	0.0160356
923.433	0.0160135
923.511	0.0161936
923.590	0.0160736
923.668	0.0161295
923.746	0.0161671
923.824	0.0162061
923.902	0.0163248
923.980	0.0165022
924.058	0.0163922
924.136	0.0162148
924.215	0.0161557
924.293	0.0162695
924.371	0.0162808
924.449	0.0162399
924.527	0.0159307
924.605	0.0160750
924.683	0.0159837
924.761	0.0159582
924.840	0.0160461
924.918	0.0161105
924.996	0.0160938
925.074	0.0161200
925.152	0.0160596
925.230	0.0160730
925.308	0.0161263
925.386	0.0163010
925.465	0.0162943
925.543	0.0163087
925.621	0.0162608
925.699	0.0163412
925.777	0.0162219
925.855	0.0162563
925.933	0.0161321
926.011	0.0161480
926.090	0.0160139
926.168	0.0160996
926.246	0.0159177
926.324	0.0158378
926.402	0.0158890
926.480	0.0158457
926.558	0.0158822
926.636	0.0158362
926.715	0.0158355
926.793	0.0158614
926.871	0.0158539
926.949	0.0159489
927.027	0.0160210
927.105	0.0159245
927.183	0.0159548
927.261	0.0160455
927.340	0.0160713
927.418	0.0162334
927.496	0.0162177
927.574	0.0162077
927.652	0.0161111
927.730	0.0161480
927.808	0.0162802
927.886	0.0162134
927.965	0.0162505
928.043	0.0162663
928.121	0.0162025
928.199	0.0160876
928.277	0.0161760
928.355	0.0161771
928.433	0.0161918
928.511	0.0160464
928.590	0.0160425
928.668	0.0161176
928.746	0.0161604
928.824	0.0162686
928.902	0.0162750
928.980	0.0163148
929.058	0.0160902
929.136	0.0159768
929.215	0.0161409
929.293	0.0161730
929.371	0.0161560
929.449	0.0160207
929.527	0.0160739
929.605	0.0159500
929.683	0.0159528
929.761	0.0160181
929.840	0.0157835
929.918	0.0157404
929.996	0.0158689
930.074	0.0159985
930.152	0.0158622
930.230	0.0158523
930.308	0.0160050
930.386	0.0160043
930.465	0.0159232
930.543	0.0161297
930.621	0.0160794
930.699	0.0160555
930.777	0.0160680
930.855	0.0161065
930.933	0.0161684
931.011	0.0162087
931.090	0.0162370
931.168	0.0161864
931.246	0.0162479
931.324	0.0161779
931.402	0.0161161
931.480	0.0160072
931.558	0.0161472
931.636	0.0162264
931.715	0.0160801
931.793	0.0161176
931.871	0.0161829
931.949	0.0160860
932.027	0.0161848
932.105	0.0161545
932.183	0.0161046
932.261	0.0160289
932.340	0.0160241
932.418	0.0160739
932.496	0.0161749
932.574	0.0161369
932.652	0.0161352
932.730	0.0161533
932.808	0.0161003
932.886	0.0160365
932.965	0.0159422
933.043	0.0160246
933.121	0.0160691
933.199	0.0160370
933.277	0.0161578
933.355	0.0161127
933.433	0.0160226
933.511	0.0160222
933.590	0.0161877
933.668	0.0159557
933.746	0.0160958
933.824	0.0162174
933.902	0.0162141
933.980	0.0160948
934.058	0.0160731
934.136	0.0160676
934.215	0.0160097
934.293	0.0161081
934.371	0.0160763
934.449	0.0158751
934.527	0.0161407
934.605	0.0160484
934.683	0.0161790
934.761	0.0161698
934.840	0.0160638
934.918	0.0161270
934.996	0.0161728
935.074	0.0161081
935.152	0.0161153
935.230	0.0160658
935.308	0.0161502
935.386	0.0161365
935.465	0.0160908
935.543	0.0160584
935.621	0.0160503
935.699	0.0160907
935.777	0.0160541
935.855	0.0160768
935.933	0.0160107
936.011	0.0161088
936.090	0.0161443
936.168	0.0161284
936.246	0.0161499
936.324	0.0159244
936.402	0.0159805
936.480	0.0160632
936.558	0.0159849
936.636	0.0159726
936.715	0.0161539
936.793	0.0160402
936.871	0.0161611
936.949	0.0160770
937.027	0.0160714
937.105	0.0158538
937.183	0.0158624
937.261	0.0159392
937.340	0.0159045
937.418	0.0158370
937.496	0.0158911
937.574	0.0160793
937.652	0.0161531
937.730	0.0160789
937.808	0.0159887
937.886	0.0160567
937.965	0.0161920
938.043	0.0161187
938.121	0.0160875
938.199	0.0160704
938.277	0.0160961
938.355	0.0160046
938.433	0.0161824
938.511	0.0161442
938.590	0.0161343
938.668	0.0161697
938.746	0.0162196
938.824	0.0160822
938.902	0.0162386
938.980	0.0161827
939.058	0.0160746
939.136	0.0161405
939.215	0.0161189
939.293	0.0160743
939.371	0.0161502
939.449	0.0160299
939.527	0.0160841
939.605	0.0160892
939.683	0.0160231
939.761	0.0160683
939.840	0.0160162
939.918	0.0160522
939.996	0.0159814
940.074	0.0160233
940.152	0.0161065
940.230	0.0160627
940.308	0.0160110
940.386	0.0159528
940.465	0.0160468
940.543	0.0160919
940.621	0.0159504
940.699	0.0159997
940.777	0.0161031
940.855	0.0161642
940.933	0.0161510
941.011	0.0161417
941.090	0.0161678
941.168	0.0162341
941.246	0.0161385
941.324	0.0162105
941.402	0.0161580
941.480	0.0162113
941.558	0.0161237
941.636	0.0160295
941.715	0.0161353
941.793	0.0160842
941.871	0.0161070
941.949	0.0161508
942.027	0.0159937
942.105	0.0160695
942.183	0.0159188
942.261	0.0161787
942.340	0.0161319
942.418	0.0161058
942.496	0.0161620
942.574	0.0160437
942.652	0.0160528
942.730	0.0160728
942.808	0.0161658
942.886	0.0160979
942.965	0.0160136
943.043	0.0160162
943.121	0.0158617
943.199	0.0160610
943.277	0.0160603
943.355	0.0159394
943.433	0.0159654
943.511	0.0159450
943.590	0.0159231
943.668	0.0160744
943.746	0.0160351
943.824	0.0158978
943.902	0.0159432
943.980	0.0160923
944.058	0.0161771
944.136	0.0160405
944.215	0.0161956
944.293	0.0160668
944.371	0.0162119
944.449	0.0160571
944.527	0.0161207
944.605	0.0160360
944.683	0.0159445
944.761	0.0160866
944.840	0.0161995
944.918	0.0161115
944.996	0.0162602
945.074	0.0161005
945.152	0.0161791
945.230	0.0160352
945.308	0.0161095
945.386	0.0161154
945.465	0.0160811
945.543	0.0161520
945.621	0.0161852
945.699	0.0161578
945.777	0.0161395
945.855	0.0162235
945.933	0.0162416
946.011	0.0161586
946.090	0.0161761
946.168	0.0162789
946.246	0.0161506
946.324	0.0162415
946.402	0.0162453
946.480	0.0160325
946.558	0.0161890
946.636	0.0161082
946.715	0.0162411
946.793	0.0161535
946.871	0.0162788
946.949	0.0158987
947.027	0.0159904
947.105	0.0160107
947.183	0.0160007
947.261	0.0159641
947.340	0.0159632
947.418	0.0159597
947.496	0.0158604
947.574	0.0159395
947.652	0.0160562
947.730	0.0160763
947.808	0.0160847
947.886	0.0159095
947.965	0.0160102
948.043	0.0161174
948.121	0.0160841
948.199	0.0160954
948.277	0.0159727
948.355	0.0160611
948.433	0.0159503
948.511	0.0160607
948.590	0.0162199
948.668	0.0161604
948.746	0.0161059
948.824	0.0161913
948.902	0.0160966
948.980	0.0160599
949.058	0.0161505
949.136	0.0161321
949.215	0.0161446
949.293	0.0160503
949.371	0.0160751
949.449	0.0160894
949.527	0.0162701
949.605	0.0161804
949.683	0.0161049
949.761	0.0161372
949.840	0.0160868
949.918	0.0160961
