06/29/2022	22:51:00	Ver.	4.1	UNKNOWN
Optical Delay	630.002507	Delta X		0.078125	Sweeps	1	Scan Rate	0/0
Coordinates	Axis 1	NaN	Axis 2	NaN	Axis 3	NaN	Axis 4	NaN	Axis 5	NaN	Axis 6	0.000000
TX Power	0.000000	RX Power	0.000000

630.003	0.0160339
630.081	0.0159474
630.159	0.0160651
630.237	0.0159061
630.315	0.0158763
630.393	0.0161326
630.471	0.0158253
630.549	0.0159563
630.628	0.0160783
630.706	0.0160701
630.784	0.0160712
630.862	0.0160146
630.940	0.0161168
631.018	0.0160775
631.096	0.0159745
631.174	0.0158986
631.253	0.0159391
631.331	0.0159908
631.409	0.0160183
631.487	0.0159616
631.565	0.0159500
631.643	0.0158186
631.721	0.0159500
631.799	0.0160495
631.878	0.0159875
631.956	0.0160570
632.034	0.0160548
632.112	0.0160848
632.190	0.0159743
632.268	0.0159785
632.346	0.0159647
632.424	0.0159676
632.503	0.0159434
632.581	0.0159813
632.659	0.0160487
632.737	0.0161379
632.815	0.0160701
632.893	0.0161054
632.971	0.0160075
633.049	0.0158595
633.128	0.0161446
633.206	0.0159792
633.284	0.0159660
633.362	0.0160473
633.440	0.0160138
633.518	0.0159850
633.596	0.0159442
633.674	0.0160711
633.753	0.0159446
633.831	0.0160049
633.909	0.0161006
633.987	0.0160465
634.065	0.0159707
634.143	0.0161608
634.221	0.0161870
634.299	0.0159772
634.378	0.0159617
634.456	0.0158539
634.534	0.0161432
634.612	0.0159379
634.690	0.0160982
634.768	0.0159760
634.846	0.0159954
634.924	0.0159363
635.003	0.0159212
635.081	0.0161068
635.159	0.0160544
635.237	0.0159664
635.315	0.0160983
635.393	0.0161546
635.471	0.0160516
635.549	0.0162166
635.628	0.0159709
635.706	0.0160872
635.784	0.0159300
635.862	0.0159874
635.940	0.0160089
636.018	0.0159103
636.096	0.0159485
636.174	0.0160354
636.253	0.0160044
636.331	0.0160102
636.409	0.0159562
636.487	0.0158838
636.565	0.0158727
636.643	0.0159394
636.721	0.0160589
636.799	0.0159177
636.878	0.0159890
636.956	0.0159460
637.034	0.0159050
637.112	0.0159206
637.190	0.0160355
637.268	0.0161536
637.346	0.0159055
637.424	0.0160245
637.503	0.0160641
637.581	0.0159998
637.659	0.0159528
637.737	0.0159283
637.815	0.0160935
637.893	0.0161118
637.971	0.0159856
638.049	0.0159736
638.128	0.0160233
638.206	0.0160197
638.284	0.0159341
638.362	0.0160609
638.440	0.0159780
638.518	0.0159711
638.596	0.0159909
638.674	0.0159229
638.753	0.0160150
638.831	0.0159770
638.909	0.0160388
638.987	0.0159904
639.065	0.0159245
639.143	0.0160907
639.221	0.0160423
639.299	0.0160169
639.378	0.0158894
639.456	0.0160566
639.534	0.0159006
639.612	0.0159179
639.690	0.0160236
639.768	0.0160332
639.846	0.0161353
639.924	0.0159614
640.003	0.0160346
640.081	0.0160542
640.159	0.0159630
640.237	0.0159676
640.315	0.0158936
640.393	0.0161432
640.471	0.0159078
640.549	0.0158942
640.628	0.0160250
640.706	0.0160186
640.784	0.0161369
640.862	0.0160352
640.940	0.0159522
641.018	0.0159620
641.096	0.0159644
641.174	0.0160036
641.253	0.0160374
641.331	0.0159724
641.409	0.0160918
641.487	0.0160104
641.565	0.0160011
641.643	0.0160074
641.721	0.0160798
641.799	0.0160670
641.878	0.0159573
641.956	0.0158904
642.034	0.0160270
642.112	0.0160867
642.190	0.0160211
642.268	0.0161813
642.346	0.0158826
642.424	0.0159343
642.503	0.0160558
642.581	0.0159885
642.659	0.0161146
642.737	0.0162029
642.815	0.0159774
642.893	0.0160484
642.971	0.0160027
643.049	0.0159504
643.128	0.0160093
643.206	0.0159919
643.284	0.0160145
643.362	0.0162322
643.440	0.0161584
643.518	0.0160899
643.596	0.0159214
643.674	0.0159496
643.753	0.0159917
643.831	0.0160321
643.909	0.0160619
643.987	0.0159514
644.065	0.0158975
644.143	0.0160502
644.221	0.0162094
644.299	0.0160835
644.378	0.0159958
644.456	0.0159695
644.534	0.0160488
644.612	0.0160613
644.690	0.0160200
644.768	0.0159920
644.846	0.0159866
644.924	0.0162003
645.003	0.0159866
645.081	0.0159790
645.159	0.0159460
645.237	0.0160104
645.315	0.0160204
645.393	0.0160919
645.471	0.0159888
645.549	0.0159832
645.628	0.0159825
645.706	0.0160102
645.784	0.0159428
645.862	0.0159886
645.940	0.0159367
646.018	0.0159529
646.096	0.0161727
646.174	0.0159598
646.253	0.0160518
646.331	0.0160053
646.409	0.0159757
646.487	0.0159857
646.565	0.0160565
646.643	0.0160779
646.721	0.0160527
646.799	0.0161153
646.878	0.0160996
646.956	0.0159703
647.034	0.0158913
647.112	0.0160525
647.190	0.0160360
647.268	0.0158855
647.346	0.0159349
647.424	0.0160193
647.503	0.0160878
647.581	0.0159669
647.659	0.0158992
647.737	0.0159198
647.815	0.0160682
647.893	0.0161375
647.971	0.0159670
648.049	0.0160374
648.128	0.0160012
648.206	0.0160015
648.284	0.0160858
648.362	0.0160660
648.440	0.0160248
648.518	0.0160880
648.596	0.0159895
648.674	0.0161665
648.753	0.0160201
648.831	0.0160175
648.909	0.0158859
648.987	0.0159831
649.065	0.0160101
649.143	0.0158601
649.221	0.0159302
649.299	0.0159100
649.378	0.0160015
649.456	0.0160255
649.534	0.0160401
649.612	0.0159613
649.690	0.0160146
649.768	0.0160700
649.846	0.0159406
649.924	0.0159833
650.003	0.0158481
650.081	0.0158540
650.159	0.0159809
650.237	0.0159238
650.315	0.0160931
650.393	0.0159886
650.471	0.0160793
650.549	0.0159729
650.628	0.0160080
650.706	0.0160101
650.784	0.0161217
650.862	0.0160551
650.940	0.0159034
651.018	0.0161228
651.096	0.0160491
651.174	0.0161092
651.253	0.0160217
651.331	0.0161275
651.409	0.0159582
651.487	0.0159461
651.565	0.0160045
651.643	0.0160210
651.721	0.0160146
651.799	0.0160197
651.878	0.0159665
651.956	0.0159386
652.034	0.0159805
652.112	0.0160827
652.190	0.0161034
652.268	0.0158343
652.346	0.0159954
652.424	0.0159993
652.503	0.0161471
652.581	0.0159797
652.659	0.0159513
652.737	0.0161745
652.815	0.0160007
652.893	0.0159330
652.971	0.0160760
653.049	0.0159911
653.128	0.0161507
653.206	0.0160563
653.284	0.0160827
653.362	0.0159278
653.440	0.0159796
653.518	0.0160709
653.596	0.0160078
653.674	0.0159851
653.753	0.0159780
653.831	0.0159661
653.909	0.0160748
653.987	0.0161027
654.065	0.0159087
654.143	0.0160180
654.221	0.0161144
654.299	0.0160278
654.378	0.0160795
654.456	0.0159953
654.534	0.0159440
654.612	0.0160519
654.690	0.0161191
654.768	0.0160375
654.846	0.0160192
654.924	0.0158991
655.003	0.0160513
655.081	0.0160158
655.159	0.0159692
655.237	0.0161646
655.315	0.0159998
655.393	0.0160702
655.471	0.0159387
655.549	0.0159266
655.628	0.0160180
655.706	0.0159618
655.784	0.0158836
655.862	0.0158405
655.940	0.0160300
656.018	0.0159209
656.096	0.0160389
656.174	0.0160960
656.253	0.0161153
656.331	0.0158593
656.409	0.0158411
656.487	0.0160613
656.565	0.0160821
656.643	0.0159368
656.721	0.0159668
656.799	0.0160213
656.878	0.0160416
656.956	0.0159886
657.034	0.0159861
657.112	0.0159934
657.190	0.0159516
657.268	0.0159875
657.346	0.0159927
657.424	0.0160487
657.503	0.0159653
657.581	0.0159418
657.659	0.0159326
657.737	0.0159821
657.815	0.0160564
657.893	0.0159194
657.971	0.0161371
658.049	0.0159339
658.128	0.0160895
658.206	0.0159875
658.284	0.0160170
658.362	0.0161556
658.440	0.0158859
658.518	0.0159766
658.596	0.0160965
658.674	0.0160865
658.753	0.0159396
658.831	0.0159436
658.909	0.0159791
658.987	0.0160953
659.065	0.0160316
659.143	0.0160730
659.221	0.0160339
659.299	0.0160874
659.378	0.0158922
659.456	0.0159903
659.534	0.0159305
659.612	0.0160407
659.690	0.0161678
659.768	0.0160812
659.846	0.0159378
659.924	0.0159924
660.003	0.0160558
660.081	0.0159300
660.159	0.0159899
660.237	0.0160120
660.315	0.0160020
660.393	0.0160427
660.471	0.0160022
660.549	0.0159923
660.628	0.0159417
660.706	0.0158862
660.784	0.0159664
660.862	0.0159879
660.940	0.0160576
661.018	0.0160297
661.096	0.0158982
661.174	0.0160141
661.253	0.0159065
661.331	0.0157996
661.409	0.0159980
661.487	0.0159264
661.565	0.0158832
661.643	0.0159020
661.721	0.0159876
661.799	0.0160121
661.878	0.0159823
661.956	0.0160680
662.034	0.0159422
662.112	0.0159106
662.190	0.0160881
662.268	0.0160544
662.346	0.0159082
662.424	0.0160231
662.503	0.0160342
662.581	0.0159079
662.659	0.0159434
662.737	0.0160282
662.815	0.0160628
662.893	0.0158871
662.971	0.0159235
663.049	0.0159583
663.128	0.0160821
663.206	0.0160189
663.284	0.0160060
663.362	0.0159360
663.440	0.0159351
663.518	0.0160128
663.596	0.0161269
663.674	0.0160099
663.753	0.0159291
663.831	0.0159566
663.909	0.0160348
663.987	0.0160556
664.065	0.0159516
664.143	0.0159243
664.221	0.0158993
664.299	0.0160612
664.378	0.0160402
664.456	0.0159758
664.534	0.0160288
664.612	0.0159780
664.690	0.0159673
664.768	0.0159571
664.846	0.0159023
664.924	0.0160165
665.003	0.0160761
665.081	0.0160097
665.159	0.0161181
665.237	0.0160489
665.315	0.0160037
665.393	0.0159558
665.471	0.0159622
665.549	0.0160008
665.628	0.0160542
665.706	0.0159988
665.784	0.0159586
665.862	0.0161292
665.940	0.0160794
666.018	0.0158768
666.096	0.0159437
666.174	0.0159468
666.253	0.0161039
666.331	0.0159157
666.409	0.0160281
666.487	0.0160477
666.565	0.0161376
666.643	0.0159782
666.721	0.0160732
666.799	0.0161803
666.878	0.0160708
666.956	0.0158927
667.034	0.0160171
667.112	0.0160609
667.190	0.0159948
667.268	0.0159742
667.346	0.0159892
667.424	0.0159385
667.503	0.0160778
667.581	0.0160228
667.659	0.0159525
667.737	0.0160307
667.815	0.0159231
667.893	0.0158935
667.971	0.0159702
668.049	0.0160194
668.128	0.0161063
668.206	0.0159353
668.284	0.0160449
668.362	0.0159099
668.440	0.0159181
668.518	0.0160133
668.596	0.0159445
668.674	0.0159378
668.753	0.0160442
668.831	0.0160513
668.909	0.0159978
668.987	0.0158864
669.065	0.0160042
669.143	0.0160816
669.221	0.0160406
669.299	0.0160107
669.378	0.0159602
669.456	0.0160933
669.534	0.0160534
669.612	0.0160159
669.690	0.0159937
669.768	0.0160226
669.846	0.0160409
669.924	0.0160483
670.003	0.0160349
670.081	0.0160430
670.159	0.0159650
670.237	0.0159598
670.315	0.0159521
670.393	0.0159004
670.471	0.0159498
670.549	0.0160135
670.628	0.0160295
670.706	0.0160196
670.784	0.0158644
670.862	0.0160078
670.940	0.0160860
671.018	0.0159130
671.096	0.0158875
671.174	0.0159734
671.253	0.0158852
671.331	0.0159975
671.409	0.0162245
671.487	0.0161436
671.565	0.0159843
671.643	0.0161060
671.721	0.0159972
671.799	0.0159463
671.878	0.0160274
671.956	0.0161234
672.034	0.0160143
672.112	0.0159913
672.190	0.0159411
672.268	0.0160987
672.346	0.0159507
672.424	0.0159652
672.503	0.0160683
672.581	0.0160066
672.659	0.0159884
672.737	0.0158835
672.815	0.0158384
672.893	0.0159501
672.971	0.0160378
673.049	0.0159541
673.128	0.0159064
673.206	0.0159583
673.284	0.0159804
673.362	0.0159048
673.440	0.0159907
673.518	0.0159171
673.596	0.0160790
673.674	0.0158759
673.753	0.0160333
673.831	0.0160497
673.909	0.0159161
673.987	0.0157595
674.065	0.0159650
674.143	0.0159677
674.221	0.0160325
674.299	0.0160110
674.378	0.0159697
674.456	0.0161561
674.534	0.0159451
674.612	0.0158646
674.690	0.0159827
674.768	0.0159921
674.846	0.0160110
674.924	0.0159997
675.003	0.0160059
675.081	0.0159457
675.159	0.0160828
675.237	0.0160326
675.315	0.0159383
675.393	0.0159744
675.471	0.0159039
675.549	0.0160903
675.628	0.0161169
675.706	0.0161411
675.784	0.0160542
675.862	0.0159046
675.940	0.0159535
676.018	0.0159235
676.096	0.0160248
676.174	0.0160717
676.253	0.0159579
676.331	0.0159364
676.409	0.0159013
676.487	0.0159698
676.565	0.0159354
676.643	0.0160804
676.721	0.0159663
676.799	0.0159696
676.878	0.0160155
676.956	0.0159654
677.034	0.0160250
677.112	0.0159859
677.190	0.0160249
677.268	0.0159413
677.346	0.0158967
677.424	0.0159575
677.503	0.0161221
677.581	0.0160379
677.659	0.0160023
677.737	0.0158687
677.815	0.0159135
677.893	0.0160572
677.971	0.0158207
678.049	0.0160813
678.128	0.0160914
678.206	0.0159722
678.284	0.0160351
678.362	0.0159710
678.440	0.0160760
678.518	0.0159978
678.596	0.0159678
678.674	0.0159409
678.753	0.0159515
678.831	0.0160806
678.909	0.0160072
678.987	0.0158250
679.065	0.0159442
679.143	0.0160864
679.221	0.0160759
679.299	0.0160577
679.378	0.0160683
679.456	0.0159550
679.534	0.0159161
679.612	0.0159303
679.690	0.0160137
679.768	0.0159869
679.846	0.0159605
679.924	0.0158974
680.003	0.0160110
680.081	0.0159800
680.159	0.0160322
680.237	0.0160679
680.315	0.0160665
680.393	0.0160537
680.471	0.0160727
680.549	0.0159795
680.628	0.0160714
680.706	0.0160624
680.784	0.0160941
680.862	0.0160326
680.940	0.0158169
681.018	0.0160007
681.096	0.0160950
681.174	0.0160848
681.253	0.0159470
681.331	0.0160734
681.409	0.0160763
681.487	0.0160416
681.565	0.0160204
681.643	0.0160035
681.721	0.0161137
681.799	0.0159604
681.878	0.0159570
681.956	0.0158790
682.034	0.0159566
682.112	0.0160386
682.190	0.0159381
682.268	0.0160129
682.346	0.0159743
682.424	0.0158189
682.503	0.0159869
682.581	0.0159396
682.659	0.0159221
682.737	0.0160716
682.815	0.0160567
682.893	0.0160508
682.971	0.0158797
683.049	0.0159435
683.128	0.0160262
683.206	0.0159461
683.284	0.0160502
683.362	0.0160508
683.440	0.0159064
683.518	0.0159988
683.596	0.0159129
683.674	0.0158607
683.753	0.0159148
683.831	0.0160060
683.909	0.0159692
683.987	0.0159731
684.065	0.0160184
684.143	0.0159332
684.221	0.0159245
684.299	0.0160027
684.378	0.0160159
684.456	0.0159936
684.534	0.0160699
684.612	0.0159309
684.690	0.0158622
684.768	0.0159930
684.846	0.0160825
684.924	0.0161246
685.003	0.0160529
685.081	0.0158994
685.159	0.0158705
685.237	0.0159546
685.315	0.0161068
685.393	0.0159599
685.471	0.0159591
685.549	0.0159224
685.628	0.0159730
685.706	0.0160466
685.784	0.0160381
685.862	0.0159222
685.940	0.0159761
686.018	0.0160542
686.096	0.0158234
686.174	0.0158286
686.253	0.0159409
686.331	0.0160754
686.409	0.0159090
686.487	0.0160033
686.565	0.0160098
686.643	0.0159045
686.721	0.0159522
686.799	0.0159203
686.878	0.0159768
686.956	0.0160110
687.034	0.0158698
687.112	0.0159912
687.190	0.0159212
687.268	0.0159576
687.346	0.0160619
687.424	0.0160712
687.503	0.0159535
687.581	0.0160551
687.659	0.0159147
687.737	0.0160300
687.815	0.0159846
687.893	0.0159505
687.971	0.0159502
688.049	0.0158591
688.128	0.0160615
688.206	0.0160241
688.284	0.0160896
688.362	0.0161134
688.440	0.0159017
688.518	0.0159880
688.596	0.0159479
688.674	0.0158504
688.753	0.0160423
688.831	0.0161104
688.909	0.0159798
688.987	0.0159180
689.065	0.0160270
689.143	0.0159895
689.221	0.0160949
689.299	0.0159005
689.378	0.0158990
689.456	0.0161224
689.534	0.0160955
689.612	0.0160430
689.690	0.0160841
689.768	0.0159508
689.846	0.0160365
689.924	0.0161179
690.003	0.0159829
690.081	0.0159312
690.159	0.0158721
690.237	0.0159888
690.315	0.0158749
690.393	0.0159309
690.471	0.0160744
690.549	0.0160688
690.628	0.0159187
690.706	0.0160554
690.784	0.0160973
690.862	0.0159350
690.940	0.0158882
691.018	0.0159560
691.096	0.0160262
691.174	0.0160396
691.253	0.0159816
691.331	0.0159232
691.409	0.0161953
691.487	0.0160869
691.565	0.0161321
691.643	0.0159442
691.721	0.0160236
691.799	0.0159389
691.878	0.0159217
691.956	0.0161260
692.034	0.0160577
692.112	0.0159235
692.190	0.0159665
692.268	0.0160629
692.346	0.0160083
692.424	0.0160532
692.503	0.0160448
692.581	0.0159925
692.659	0.0159879
692.737	0.0160160
692.815	0.0159657
692.893	0.0160229
692.971	0.0160005
693.049	0.0160137
693.128	0.0160387
693.206	0.0159915
693.284	0.0160143
693.362	0.0160098
693.440	0.0159743
693.518	0.0160091
693.596	0.0160323
693.674	0.0159370
693.753	0.0159277
693.831	0.0159785
693.909	0.0160371
693.987	0.0159432
694.065	0.0159927
694.143	0.0158778
694.221	0.0159489
694.299	0.0160644
694.378	0.0160165
694.456	0.0160247
694.534	0.0160872
694.612	0.0160118
694.690	0.0159060
694.768	0.0159554
694.846	0.0159541
694.924	0.0161467
695.003	0.0159911
695.081	0.0159354
695.159	0.0160573
695.237	0.0160481
695.315	0.0159592
695.393	0.0158283
695.471	0.0160144
695.549	0.0159719
695.628	0.0160425
695.706	0.0160889
695.784	0.0160580
695.862	0.0159888
695.940	0.0159801
696.018	0.0159222
696.096	0.0159686
696.174	0.0158897
696.253	0.0160056
696.331	0.0160098
696.409	0.0158989
696.487	0.0161103
696.565	0.0159753
696.643	0.0159537
696.721	0.0158897
696.799	0.0159046
696.878	0.0159811
696.956	0.0159900
697.034	0.0160447
697.112	0.0159773
697.190	0.0159722
697.268	0.0160114
697.346	0.0159231
697.424	0.0158795
697.503	0.0159645
697.581	0.0159768
697.659	0.0159916
697.737	0.0160502
697.815	0.0159043
697.893	0.0160263
697.971	0.0161233
698.049	0.0160268
698.128	0.0158701
698.206	0.0159766
698.284	0.0158701
698.362	0.0158971
698.440	0.0160509
698.518	0.0160303
698.596	0.0158273
698.674	0.0159816
698.753	0.0160384
698.831	0.0160360
698.909	0.0160258
698.987	0.0159797
699.065	0.0160888
699.143	0.0159570
699.221	0.0159389
699.299	0.0159821
699.378	0.0158888
699.456	0.0160105
699.534	0.0159545
699.612	0.0160771
699.690	0.0159653
699.768	0.0160494
699.846	0.0160122
699.924	0.0160633
700.003	0.0159147
700.081	0.0158659
700.159	0.0160013
700.237	0.0159695
700.315	0.0159153
700.393	0.0159512
700.471	0.0159955
700.549	0.0160203
700.628	0.0159488
700.706	0.0160759
700.784	0.0159718
700.862	0.0159796
700.940	0.0159827
701.018	0.0160765
701.096	0.0159966
701.174	0.0160336
701.253	0.0159605
701.331	0.0159879
701.409	0.0160921
701.487	0.0159882
701.565	0.0159863
701.643	0.0159878
701.721	0.0161060
701.799	0.0159452
701.878	0.0160096
701.956	0.0161570
702.034	0.0160713
702.112	0.0160217
702.190	0.0159981
702.268	0.0160504
702.346	0.0160187
702.424	0.0160809
702.503	0.0160641
702.581	0.0160023
702.659	0.0159725
702.737	0.0159865
702.815	0.0160253
702.893	0.0159600
702.971	0.0159821
703.049	0.0161556
703.128	0.0159863
703.206	0.0160678
703.284	0.0159660
703.362	0.0159644
703.440	0.0161231
703.518	0.0160708
703.596	0.0160638
703.674	0.0159679
703.753	0.0160381
703.831	0.0160033
703.909	0.0160187
703.987	0.0159988
704.065	0.0160617
704.143	0.0160114
704.221	0.0160234
704.299	0.0159135
704.378	0.0159818
704.456	0.0159850
704.534	0.0159601
704.612	0.0159711
704.690	0.0158820
704.768	0.0158406
704.846	0.0157972
704.924	0.0158447
705.003	0.0158985
705.081	0.0159352
705.159	0.0158179
705.237	0.0158202
705.315	0.0158578
705.393	0.0158418
705.471	0.0159225
705.549	0.0159183
705.628	0.0158054
705.706	0.0158792
705.784	0.0159161
705.862	0.0158574
705.940	0.0160031
706.018	0.0160383
706.096	0.0158067
706.174	0.0157906
706.253	0.0159995
706.331	0.0158825
706.409	0.0159871
706.487	0.0159001
706.565	0.0159647
706.643	0.0161522
706.721	0.0159472
706.799	0.0159505
706.878	0.0159814
706.956	0.0160686
707.034	0.0160099
707.112	0.0160298
707.190	0.0160212
707.268	0.0161620
707.346	0.0161394
707.424	0.0160738
707.503	0.0161797
707.581	0.0159459
707.659	0.0160164
707.737	0.0160276
707.815	0.0161697
707.893	0.0160222
707.971	0.0160686
708.049	0.0161145
708.128	0.0161539
708.206	0.0162498
708.284	0.0162256
708.362	0.0160033
708.440	0.0159939
708.518	0.0160818
708.596	0.0161192
708.674	0.0160779
708.753	0.0159891
708.831	0.0159337
708.909	0.0159018
708.987	0.0160152
709.065	0.0158459
709.143	0.0158539
709.221	0.0159755
709.299	0.0160606
709.378	0.0159159
709.456	0.0160117
709.534	0.0160114
709.612	0.0159766
709.690	0.0160531
709.768	0.0159936
709.846	0.0159702
709.924	0.0160416
710.003	0.0160182
710.081	0.0159074
710.159	0.0159583
710.237	0.0158767
710.315	0.0158030
710.393	0.0157688
710.471	0.0158155
710.549	0.0159468
710.628	0.0158433
710.706	0.0158881
710.784	0.0159116
710.862	0.0159290
710.940	0.0160146
711.018	0.0159042
711.096	0.0161250
711.174	0.0161260
711.253	0.0161421
711.331	0.0161796
711.409	0.0162315
711.487	0.0162659
711.565	0.0162470
711.643	0.0160905
711.721	0.0160934
711.799	0.0160058
711.878	0.0160386
711.956	0.0159556
712.034	0.0158727
712.112	0.0157727
712.190	0.0158348
712.268	0.0158091
712.346	0.0158260
712.424	0.0158560
712.503	0.0160150
712.581	0.0161641
712.659	0.0162630
712.737	0.0163850
712.815	0.0164303
712.893	0.0165119
712.971	0.0165398
713.049	0.0164570
713.128	0.0163094
713.206	0.0161763
713.284	0.0160908
713.362	0.0160146
713.440	0.0158585
713.518	0.0156560
713.596	0.0156452
713.674	0.0154788
713.753	0.0154713
713.831	0.0154841
713.909	0.0155624
713.987	0.0157061
714.065	0.0157668
714.143	0.0159054
714.221	0.0161456
714.299	0.0162102
714.378	0.0162185
714.456	0.0163908
714.534	0.0164328
714.612	0.0163467
714.690	0.0163927
714.768	0.0163937
714.846	0.0162693
714.924	0.0161597
715.003	0.0158851
715.081	0.0159195
715.159	0.0158548
715.237	0.0157288
715.315	0.0156373
715.393	0.0157160
715.471	0.0157664
715.549	0.0156976
715.628	0.0159747
715.706	0.0160864
715.784	0.0161135
715.862	0.0163197
715.940	0.0163324
716.018	0.0165541
716.096	0.0166879
716.174	0.0168559
716.253	0.0168365
716.331	0.0165654
716.409	0.0165124
716.487	0.0163175
716.565	0.0161227
716.643	0.0159816
716.721	0.0158711
716.799	0.0156927
716.878	0.0156173
716.956	0.0154523
717.034	0.0153794
717.112	0.0153234
717.190	0.0153900
717.268	0.0152816
717.346	0.0156171
717.424	0.0155784
717.503	0.0157568
717.581	0.0159602
717.659	0.0160109
717.737	0.0160023
717.815	0.0161685
717.893	0.0162729
717.971	0.0162592
718.049	0.0161979
718.128	0.0162694
718.206	0.0163557
718.284	0.0162396
718.362	0.0161967
718.440	0.0160900
718.518	0.0159016
718.596	0.0158134
718.674	0.0158041
718.753	0.0156365
718.831	0.0154234
718.909	0.0154315
718.987	0.0154568
719.065	0.0155504
719.143	0.0156359
719.221	0.0156538
719.299	0.0160081
719.378	0.0161396
719.456	0.0162839
719.534	0.0164125
719.612	0.0167924
719.690	0.0169019
719.768	0.0170906
719.846	0.0170300
719.924	0.0169284
720.003	0.0170477
720.081	0.0168600
720.159	0.0167875
720.237	0.0166396
720.315	0.0163862
720.393	0.0162454
720.471	0.0160352
720.549	0.0159469
720.628	0.0155711
720.706	0.0154607
720.784	0.0153240
720.862	0.0150394
720.940	0.0150326
721.018	0.0149809
721.096	0.0146951
721.174	0.0147037
721.253	0.0146265
721.331	0.0146971
721.409	0.0147103
721.487	0.0148533
721.565	0.0149348
721.643	0.0149818
721.721	0.0149682
721.799	0.0151003
721.878	0.0152274
721.956	0.0152431
722.034	0.0155804
722.112	0.0155623
722.190	0.0156591
722.268	0.0160982
722.346	0.0163503
722.424	0.0165011
722.503	0.0168624
722.581	0.0170724
722.659	0.0173373
722.737	0.0176185
722.815	0.0178748
722.893	0.0179108
722.971	0.0180454
723.049	0.0179576
723.128	0.0179373
723.206	0.0178428
723.284	0.0177879
723.362	0.0175590
723.440	0.0172031
723.518	0.0168872
723.596	0.0167940
723.674	0.0167690
723.753	0.0165392
723.831	0.0163656
723.909	0.0161636
723.987	0.0160448
724.065	0.0158538
724.143	0.0157289
724.221	0.0153245
724.299	0.0153065
724.378	0.0149434
724.456	0.0149208
724.534	0.0145039
724.612	0.0140561
724.690	0.0138734
724.768	0.0134328
724.846	0.0131706
724.924	0.0129519
725.003	0.0128317
725.081	0.0128574
725.159	0.0130219
725.237	0.0131467
725.315	0.0134972
725.393	0.0138857
725.471	0.0144952
725.549	0.0150479
725.628	0.0156335
725.706	0.0161231
725.784	0.0166033
725.862	0.0169762
725.940	0.0172946
726.018	0.0176275
726.096	0.0178221
726.174	0.0180853
726.253	0.0181992
726.331	0.0183045
726.409	0.0183635
726.487	0.0185853
726.565	0.0183384
726.643	0.0183842
726.721	0.0183385
726.799	0.0184164
726.878	0.0180775
726.956	0.0181276
727.034	0.0179066
727.112	0.0178096
727.190	0.0175117
727.268	0.0173641
727.346	0.0172501
727.424	0.0169624
727.503	0.0167956
727.581	0.0164294
727.659	0.0161524
727.737	0.0160344
727.815	0.0158786
727.893	0.0155990
727.971	0.0152533
728.049	0.0150426
728.128	0.0148947
728.206	0.0147677
728.284	0.0145416
728.362	0.0140920
728.440	0.0139996
728.518	0.0136882
728.596	0.0132666
728.674	0.0129340
728.753	0.0126181
728.831	0.0125201
728.909	0.0123316
728.987	0.0120881
729.065	0.0121471
729.143	0.0121531
729.221	0.0124106
729.299	0.0127991
729.378	0.0130999
729.456	0.0137321
729.534	0.0142858
729.612	0.0151151
729.690	0.0160546
729.768	0.0166030
729.846	0.0174519
729.924	0.0183626
730.003	0.0192038
730.081	0.0197458
730.159	0.0203500
730.237	0.0206593
730.315	0.0209827
730.393	0.0210269
730.471	0.0210690
730.549	0.0207848
730.628	0.0203857
730.706	0.0197007
730.784	0.0190733
730.862	0.0185444
730.940	0.0180005
731.018	0.0172681
731.096	0.0168361
731.174	0.0163459
731.253	0.0160487
731.331	0.0157119
731.409	0.0155012
731.487	0.0153504
731.565	0.0153018
731.643	0.0152126
731.721	0.0149841
731.799	0.0150243
731.878	0.0149342
731.956	0.0148283
732.034	0.0146484
732.112	0.0145965
732.190	0.0145037
732.268	0.0142091
732.346	0.0140482
732.424	0.0137929
732.503	0.0135980
732.581	0.0131968
732.659	0.0129530
732.737	0.0127441
732.815	0.0124070
732.893	0.0119395
732.971	0.0119825
733.049	0.0119382
733.128	0.0120457
733.206	0.0123150
733.284	0.0126925
733.362	0.0134308
733.440	0.0142219
733.518	0.0149386
733.596	0.0160855
733.674	0.0170001
733.753	0.0178386
733.831	0.0188611
733.909	0.0197855
733.987	0.0204792
734.065	0.0210849
734.143	0.0214301
734.221	0.0217884
734.299	0.0218008
734.378	0.0215443
734.456	0.0210335
734.534	0.0205926
734.612	0.0199485
734.690	0.0190089
734.768	0.0180793
734.846	0.0173197
734.924	0.0163387
735.003	0.0157383
735.081	0.0151436
735.159	0.0146713
735.237	0.0143759
735.315	0.0141180
735.393	0.0140116
735.471	0.0140894
735.549	0.0140894
735.628	0.0144196
735.706	0.0144030
735.784	0.0145818
735.862	0.0146633
735.940	0.0148040
736.018	0.0148861
736.096	0.0149091
736.174	0.0148744
736.253	0.0149024
736.331	0.0145506
736.409	0.0145632
736.487	0.0144293
736.565	0.0141566
736.643	0.0140334
736.721	0.0138344
736.799	0.0137922
736.878	0.0135716
736.956	0.0135918
737.034	0.0136776
737.112	0.0138776
737.190	0.0142195
737.268	0.0145110
737.346	0.0145775
737.424	0.0152132
737.503	0.0156573
737.581	0.0162012
737.659	0.0168177
737.737	0.0173793
737.815	0.0177461
737.893	0.0182635
737.971	0.0185407
738.049	0.0189584
738.128	0.0193616
738.206	0.0194243
738.284	0.0194384
738.362	0.0196281
738.440	0.0194246
738.518	0.0192637
738.596	0.0189723
738.674	0.0187724
738.753	0.0184542
738.831	0.0179878
738.909	0.0176060
738.987	0.0173778
739.065	0.0167128
739.143	0.0161032
739.221	0.0155703
739.299	0.0152061
739.378	0.0146413
739.456	0.0143517
739.534	0.0139732
739.612	0.0137667
739.690	0.0136464
739.768	0.0135833
739.846	0.0136115
739.924	0.0139143
740.003	0.0141860
740.081	0.0143189
740.159	0.0147449
740.237	0.0150402
740.315	0.0152927
740.393	0.0155753
740.471	0.0155898
740.549	0.0156356
740.628	0.0156448
740.706	0.0157983
740.784	0.0156557
740.862	0.0155590
740.940	0.0154894
741.018	0.0155814
741.096	0.0155447
741.174	0.0153640
741.253	0.0155548
741.331	0.0155612
741.409	0.0156247
741.487	0.0156719
741.565	0.0156701
741.643	0.0158148
741.721	0.0158190
741.799	0.0159198
741.878	0.0161092
741.956	0.0161097
742.034	0.0163110
742.112	0.0163602
742.190	0.0166486
742.268	0.0167510
742.346	0.0169019
742.424	0.0170924
742.503	0.0170267
742.581	0.0171621
742.659	0.0171853
742.737	0.0171441
742.815	0.0170864
742.893	0.0169567
742.971	0.0168185
743.049	0.0167581
743.128	0.0166204
743.206	0.0165652
743.284	0.0163571
743.362	0.0160449
743.440	0.0159686
743.518	0.0157215
743.596	0.0155286
743.674	0.0154716
743.753	0.0153143
743.831	0.0154327
743.909	0.0155627
743.987	0.0156201
744.065	0.0156879
744.143	0.0159206
744.221	0.0162060
744.299	0.0161997
744.378	0.0162792
744.456	0.0164769
744.534	0.0164358
744.612	0.0164535
744.690	0.0165412
744.768	0.0166316
744.846	0.0163273
744.924	0.0163786
745.003	0.0161690
745.081	0.0161498
745.159	0.0161720
745.237	0.0157955
745.315	0.0157806
745.393	0.0155759
745.471	0.0153918
745.549	0.0153258
745.628	0.0152047
745.706	0.0150308
745.784	0.0150536
745.862	0.0150214
745.940	0.0150415
746.018	0.0150614
746.096	0.0150904
746.174	0.0150881
746.253	0.0153170
746.331	0.0153796
746.409	0.0153998
746.487	0.0156637
746.565	0.0158714
746.643	0.0159072
746.721	0.0159901
746.799	0.0160342
746.878	0.0162563
746.956	0.0162226
747.034	0.0162507
747.112	0.0161038
747.190	0.0160850
747.268	0.0161126
747.346	0.0160337
747.424	0.0158923
747.503	0.0157914
747.581	0.0158386
747.659	0.0158029
747.737	0.0157773
747.815	0.0158081
747.893	0.0159223
747.971	0.0161034
748.049	0.0161852
748.128	0.0161804
748.206	0.0164828
748.284	0.0166460
748.362	0.0169776
748.440	0.0170425
748.518	0.0173276
748.596	0.0172601
748.674	0.0175506
748.753	0.0176293
748.831	0.0176207
748.909	0.0174449
748.987	0.0173347
749.065	0.0171278
749.143	0.0170650
749.221	0.0167983
749.299	0.0163670
749.378	0.0161876
749.456	0.0157576
749.534	0.0157035
749.612	0.0153988
749.690	0.0151997
749.768	0.0149931
749.846	0.0149876
749.924	0.0148061
750.003	0.0146933
750.081	0.0144794
750.159	0.0144958
750.237	0.0146571
750.315	0.0148373
750.393	0.0148026
750.471	0.0149111
750.549	0.0150880
750.628	0.0152103
750.706	0.0153694
750.784	0.0156751
750.862	0.0158688
750.940	0.0158328
751.018	0.0158991
751.096	0.0160876
751.174	0.0161485
751.253	0.0159784
751.331	0.0159923
751.409	0.0159459
751.487	0.0160007
751.565	0.0160359
751.643	0.0160764
751.721	0.0160973
751.799	0.0160201
751.878	0.0161433
751.956	0.0162390
752.034	0.0163471
752.112	0.0163208
752.190	0.0163069
752.268	0.0164882
752.346	0.0165612
752.424	0.0165126
752.503	0.0164933
752.581	0.0165975
752.659	0.0167178
752.737	0.0165430
752.815	0.0166193
752.893	0.0164803
752.971	0.0162928
753.049	0.0164816
753.128	0.0163876
753.206	0.0161712
753.284	0.0160309
753.362	0.0160515
753.440	0.0159407
753.518	0.0158304
753.596	0.0157197
753.674	0.0157735
753.753	0.0158730
753.831	0.0158637
753.909	0.0158607
753.987	0.0159701
754.065	0.0160272
754.143	0.0160532
754.221	0.0160250
754.299	0.0161856
754.378	0.0163779
754.456	0.0162659
754.534	0.0163489
754.612	0.0163410
754.690	0.0164855
754.768	0.0164941
754.846	0.0163934
754.924	0.0163560
755.003	0.0163835
755.081	0.0162495
755.159	0.0160889
755.237	0.0159669
755.315	0.0158227
755.393	0.0157477
755.471	0.0157182
755.549	0.0157173
755.628	0.0155031
755.706	0.0154114
755.784	0.0152933
755.862	0.0153416
755.940	0.0154422
756.018	0.0155193
756.096	0.0154935
756.174	0.0156844
756.253	0.0158705
756.331	0.0159612
756.409	0.0160028
756.487	0.0160512
756.565	0.0162217
756.643	0.0161457
756.721	0.0163351
756.799	0.0164040
756.878	0.0162140
756.956	0.0161723
757.034	0.0161835
757.112	0.0161153
757.190	0.0159122
757.268	0.0158701
757.346	0.0158283
757.424	0.0157259
757.503	0.0155155
757.581	0.0155544
757.659	0.0155868
757.737	0.0154780
757.815	0.0156342
757.893	0.0156201
757.971	0.0158006
758.049	0.0159255
758.128	0.0158773
758.206	0.0158321
758.284	0.0159779
758.362	0.0158310
758.440	0.0157685
758.518	0.0158706
758.596	0.0158572
758.674	0.0159111
758.753	0.0157982
758.831	0.0159274
758.909	0.0159297
758.987	0.0158775
759.065	0.0160754
759.143	0.0160714
759.221	0.0160530
759.299	0.0162543
759.378	0.0164857
759.456	0.0165082
759.534	0.0167626
759.612	0.0167323
759.690	0.0169415
759.768	0.0170997
759.846	0.0171872
759.924	0.0170890
760.003	0.0170416
760.081	0.0170860
760.159	0.0168698
760.237	0.0168885
760.315	0.0166489
760.393	0.0164943
760.471	0.0163348
760.549	0.0160008
760.628	0.0159045
760.706	0.0158667
760.784	0.0156216
760.862	0.0154560
760.940	0.0155106
761.018	0.0152880
761.096	0.0151804
761.174	0.0153018
761.253	0.0153596
761.331	0.0152337
761.409	0.0151920
761.487	0.0153419
761.565	0.0153893
761.643	0.0154994
761.721	0.0155648
761.799	0.0155589
761.878	0.0156920
761.956	0.0158048
762.034	0.0156715
762.112	0.0156904
762.190	0.0157492
762.268	0.0158896
762.346	0.0156876
762.424	0.0156658
762.503	0.0156825
762.581	0.0156610
762.659	0.0158642
762.737	0.0157037
762.815	0.0157496
762.893	0.0159863
762.971	0.0158915
763.049	0.0158443
763.128	0.0160688
763.206	0.0161382
763.284	0.0161352
763.362	0.0162823
763.440	0.0163100
763.518	0.0163349
763.596	0.0163596
763.674	0.0164397
763.753	0.0162361
763.831	0.0163362
763.909	0.0163659
763.987	0.0160814
764.065	0.0161145
764.143	0.0160079
764.221	0.0161161
764.299	0.0159452
764.378	0.0160370
764.456	0.0160191
764.534	0.0160044
764.612	0.0160452
764.690	0.0159467
764.768	0.0161228
764.846	0.0160288
764.924	0.0160262
765.003	0.0161620
765.081	0.0160791
765.159	0.0162438
765.237	0.0160237
765.315	0.0162196
765.393	0.0162644
765.471	0.0164056
765.549	0.0163729
765.628	0.0162310
765.706	0.0162691
765.784	0.0163374
765.862	0.0161645
765.940	0.0161174
766.018	0.0159843
766.096	0.0158829
766.174	0.0157602
766.253	0.0157143
766.331	0.0155341
766.409	0.0155344
766.487	0.0155596
766.565	0.0154615
766.643	0.0155565
766.721	0.0155175
766.799	0.0156366
766.878	0.0157928
766.956	0.0158202
767.034	0.0158643
767.112	0.0159064
767.190	0.0159727
767.268	0.0161745
767.346	0.0161901
767.424	0.0162600
767.503	0.0163158
767.581	0.0164655
767.659	0.0163982
767.737	0.0163722
767.815	0.0164425
767.893	0.0163567
767.971	0.0163707
768.049	0.0163824
768.128	0.0162306
768.206	0.0160564
768.284	0.0161027
768.362	0.0160201
768.440	0.0158482
768.518	0.0158263
768.596	0.0159665
768.674	0.0159710
768.753	0.0160427
768.831	0.0159007
768.909	0.0159926
768.987	0.0159334
769.065	0.0160567
769.143	0.0160089
769.221	0.0160105
769.299	0.0160847
769.378	0.0160735
769.456	0.0159394
769.534	0.0159158
769.612	0.0157783
769.690	0.0157581
769.768	0.0157566
769.846	0.0155873
769.924	0.0156886
770.003	0.0156750
770.081	0.0153497
770.159	0.0154916
770.237	0.0154388
770.315	0.0156252
770.393	0.0155914
770.471	0.0156612
770.549	0.0157063
770.628	0.0159272
770.706	0.0160040
770.784	0.0160516
770.862	0.0162486
770.940	0.0162900
771.018	0.0164004
771.096	0.0165602
771.174	0.0164800
771.253	0.0166444
771.331	0.0165684
771.409	0.0166867
771.487	0.0166160
771.565	0.0166454
771.643	0.0165874
771.721	0.0164832
771.799	0.0166512
771.878	0.0165161
771.956	0.0162596
772.034	0.0162801
772.112	0.0162904
772.190	0.0161964
772.268	0.0162098
772.346	0.0161221
772.424	0.0158697
772.503	0.0158416
772.581	0.0158980
772.659	0.0157695
772.737	0.0159341
772.815	0.0159204
772.893	0.0157256
772.971	0.0157287
773.049	0.0157464
773.128	0.0158350
773.206	0.0158635
773.284	0.0159531
773.362	0.0159052
773.440	0.0159737
773.518	0.0158543
773.596	0.0158285
773.674	0.0159345
773.753	0.0158409
773.831	0.0158607
773.909	0.0158134
773.987	0.0158087
774.065	0.0157350
774.143	0.0157964
774.221	0.0157562
774.299	0.0157565
774.378	0.0158338
774.456	0.0157255
774.534	0.0158193
774.612	0.0158976
774.690	0.0158680
774.768	0.0159489
774.846	0.0160783
774.924	0.0159108
775.003	0.0160381
775.081	0.0160875
775.159	0.0161617
775.237	0.0162286
775.315	0.0161192
775.393	0.0161423
775.471	0.0163030
775.549	0.0164130
775.628	0.0162339
775.706	0.0162205
775.784	0.0162895
775.862	0.0162626
775.940	0.0161506
776.018	0.0160665
776.096	0.0160715
776.174	0.0162595
776.253	0.0162109
776.331	0.0162023
776.409	0.0161397
776.487	0.0161522
776.565	0.0162625
776.643	0.0163850
776.721	0.0162960
776.799	0.0162252
776.878	0.0163887
776.956	0.0163519
777.034	0.0162447
777.112	0.0162237
777.190	0.0161701
777.268	0.0160659
777.346	0.0161291
777.424	0.0159660
777.503	0.0157643
777.581	0.0158311
777.659	0.0157980
777.737	0.0156344
777.815	0.0156612
777.893	0.0156600
777.971	0.0154636
778.049	0.0154720
778.128	0.0155231
778.206	0.0155292
778.284	0.0155036
778.362	0.0156063
778.440	0.0156174
778.518	0.0157060
778.596	0.0158051
778.674	0.0158091
778.753	0.0159688
778.831	0.0160403
778.909	0.0160288
778.987	0.0160033
779.065	0.0162438
779.143	0.0162312
779.221	0.0162739
779.299	0.0163871
779.378	0.0165025
779.456	0.0165768
779.534	0.0165027
779.612	0.0164485
779.690	0.0165031
779.768	0.0164530
779.846	0.0164947
779.924	0.0163019
780.003	0.0161691
780.081	0.0162071
780.159	0.0163062
780.237	0.0160092
780.315	0.0159112
780.393	0.0161647
780.471	0.0160399
780.549	0.0160242
780.628	0.0159756
780.706	0.0160133
780.784	0.0160369
780.862	0.0159200
780.940	0.0159480
781.018	0.0157677
781.096	0.0157185
781.174	0.0158665
781.253	0.0156877
781.331	0.0155191
781.409	0.0154365
781.487	0.0155304
781.565	0.0153513
781.643	0.0152930
781.721	0.0153255
781.799	0.0152638
781.878	0.0152531
781.956	0.0152787
782.034	0.0154638
782.112	0.0155785
782.190	0.0156586
782.268	0.0156619
782.346	0.0159431
782.424	0.0159674
782.503	0.0162016
782.581	0.0164539
782.659	0.0165041
782.737	0.0166125
782.815	0.0168745
782.893	0.0169508
782.971	0.0169151
783.049	0.0168832
783.128	0.0168983
783.206	0.0168719
783.284	0.0168102
783.362	0.0166174
783.440	0.0165070
783.518	0.0165866
783.596	0.0164032
783.674	0.0163877
783.753	0.0163244
783.831	0.0162182
783.909	0.0160764
783.987	0.0160184
784.065	0.0158286
784.143	0.0160007
784.221	0.0160006
784.299	0.0157829
784.378	0.0158647
784.456	0.0159176
784.534	0.0158031
784.612	0.0157845
784.690	0.0156642
784.768	0.0158501
784.846	0.0159338
784.924	0.0157543
785.003	0.0158882
785.081	0.0157015
785.159	0.0157210
785.237	0.0155610
785.315	0.0156339
785.393	0.0156108
785.471	0.0155442
785.549	0.0154944
785.628	0.0155424
785.706	0.0153311
785.784	0.0153291
785.862	0.0153282
785.940	0.0154684
786.018	0.0154065
786.096	0.0154974
786.174	0.0154809
786.253	0.0156070
786.331	0.0157442
786.409	0.0159493
786.487	0.0160975
786.565	0.0161013
786.643	0.0162534
786.721	0.0163641
786.799	0.0163068
786.878	0.0165350
786.956	0.0167603
787.034	0.0166511
787.112	0.0165707
787.190	0.0165762
787.268	0.0167175
787.346	0.0165088
787.424	0.0163329
787.503	0.0163065
787.581	0.0162861
787.659	0.0160899
787.737	0.0160804
787.815	0.0159610
787.893	0.0157434
787.971	0.0157121
788.049	0.0158975
788.128	0.0159715
788.206	0.0157720
788.284	0.0158154
788.362	0.0159145
788.440	0.0159811
788.518	0.0159855
788.596	0.0161867
788.674	0.0160706
788.753	0.0159559
788.831	0.0160761
788.909	0.0160547
788.987	0.0162106
789.065	0.0161157
789.143	0.0159451
789.221	0.0159251
789.299	0.0158463
789.378	0.0156924
789.456	0.0156119
789.534	0.0154270
789.612	0.0153835
789.690	0.0153428
789.768	0.0152686
789.846	0.0153376
789.924	0.0154204
790.003	0.0154276
790.081	0.0153893
790.159	0.0155666
790.237	0.0157191
790.315	0.0159506
790.393	0.0160729
790.471	0.0161165
790.549	0.0162582
790.628	0.0162192
790.706	0.0162998
790.784	0.0166587
790.862	0.0164491
790.940	0.0164411
791.018	0.0166817
791.096	0.0166436
791.174	0.0164433
791.253	0.0162605
791.331	0.0163335
791.409	0.0163095
791.487	0.0163346
791.565	0.0163669
791.643	0.0160978
791.721	0.0160564
791.799	0.0160623
791.878	0.0160249
791.956	0.0158844
792.034	0.0160294
792.112	0.0158910
792.190	0.0159776
792.268	0.0159999
792.346	0.0158460
792.424	0.0158684
792.503	0.0159090
792.581	0.0158734
792.659	0.0158871
792.737	0.0157502
792.815	0.0155688
792.893	0.0156983
792.971	0.0156326
793.049	0.0157169
793.128	0.0155573
793.206	0.0155933
793.284	0.0155392
793.362	0.0154519
793.440	0.0154330
793.518	0.0154388
793.596	0.0154441
793.674	0.0154967
793.753	0.0155050
793.831	0.0156343
793.909	0.0156355
793.987	0.0158038
794.065	0.0159944
794.143	0.0159978
794.221	0.0159628
794.299	0.0161568
794.378	0.0161940
794.456	0.0162656
794.534	0.0162736
794.612	0.0164804
794.690	0.0162883
794.768	0.0165275
794.846	0.0164753
794.924	0.0164380
795.003	0.0164842
795.081	0.0163610
795.159	0.0163243
795.237	0.0164202
795.315	0.0162877
795.393	0.0161890
795.471	0.0164289
795.549	0.0161843
795.628	0.0161124
795.706	0.0161320
795.784	0.0161124
795.862	0.0161254
795.940	0.0161850
796.018	0.0161298
796.096	0.0159343
796.174	0.0159742
796.253	0.0161214
796.331	0.0160674
796.409	0.0161142
796.487	0.0161391
796.565	0.0159418
796.643	0.0159920
796.721	0.0159774
796.799	0.0161025
796.878	0.0158681
796.956	0.0158661
797.034	0.0157505
797.112	0.0158210
797.190	0.0156939
797.268	0.0156827
797.346	0.0156414
797.424	0.0156673
797.503	0.0156943
797.581	0.0156629
797.659	0.0155084
797.737	0.0155693
797.815	0.0156532
797.893	0.0155121
797.971	0.0155358
798.049	0.0157896
798.128	0.0159634
798.206	0.0158604
798.284	0.0159035
798.362	0.0160496
798.440	0.0160488
798.518	0.0160074
798.596	0.0161464
798.674	0.0161642
798.753	0.0162509
798.831	0.0161483
798.909	0.0160548
798.987	0.0163177
799.065	0.0162720
799.143	0.0161987
799.221	0.0162549
799.299	0.0162548
799.378	0.0162886
799.456	0.0161901
799.534	0.0162308
799.612	0.0162756
799.690	0.0160577
799.768	0.0162140
799.846	0.0162162
799.924	0.0163199
800.003	0.0162501
800.081	0.0162466
800.159	0.0162563
800.237	0.0161995
800.315	0.0160132
800.393	0.0161641
800.471	0.0161237
800.549	0.0161099
800.628	0.0160540
800.706	0.0160316
800.784	0.0159853
800.862	0.0158598
800.940	0.0158638
801.018	0.0156876
801.096	0.0158140
801.174	0.0157140
801.253	0.0157800
801.331	0.0156344
801.409	0.0156691
801.487	0.0158730
801.565	0.0157375
801.643	0.0157031
801.721	0.0157176
801.799	0.0157837
801.878	0.0157880
801.956	0.0159366
802.034	0.0158136
802.112	0.0158556
802.190	0.0159601
802.268	0.0160672
802.346	0.0161613
802.424	0.0161015
802.503	0.0161757
802.581	0.0161034
802.659	0.0161451
802.737	0.0162437
802.815	0.0161974
802.893	0.0161898
802.971	0.0162968
803.049	0.0162910
803.128	0.0163259
803.206	0.0164361
803.284	0.0163483
803.362	0.0164158
803.440	0.0163831
803.518	0.0163420
803.596	0.0162446
803.674	0.0163232
803.753	0.0163993
803.831	0.0162641
803.909	0.0161852
803.987	0.0160438
804.065	0.0160678
804.143	0.0161529
804.221	0.0160404
804.299	0.0159443
804.378	0.0159384
804.456	0.0158755
804.534	0.0158626
804.612	0.0158652
804.690	0.0157310
804.768	0.0156969
804.846	0.0157016
804.924	0.0156206
805.003	0.0156364
805.081	0.0156647
805.159	0.0156641
805.237	0.0156602
805.315	0.0156383
805.393	0.0156569
805.471	0.0158001
805.549	0.0157104
805.628	0.0157072
805.706	0.0157905
805.784	0.0157748
805.862	0.0158847
805.940	0.0158586
806.018	0.0159925
806.096	0.0160751
806.174	0.0160057
806.253	0.0160546
806.331	0.0161752
806.409	0.0162587
806.487	0.0163853
806.565	0.0162537
806.643	0.0162666
806.721	0.0164735
806.799	0.0164104
806.878	0.0163821
806.956	0.0162731
807.034	0.0164201
807.112	0.0163937
807.190	0.0162457
807.268	0.0163437
807.346	0.0163170
807.424	0.0163703
807.503	0.0163103
807.581	0.0163217
807.659	0.0161667
807.737	0.0161583
807.815	0.0161785
807.893	0.0161273
807.971	0.0160812
808.049	0.0160629
808.128	0.0159820
808.206	0.0159029
808.284	0.0158795
808.362	0.0158447
808.440	0.0158707
808.518	0.0157546
808.596	0.0157849
808.674	0.0158422
808.753	0.0157249
808.831	0.0156896
808.909	0.0157767
808.987	0.0156378
809.065	0.0157483
809.143	0.0157426
809.221	0.0156854
809.299	0.0157052
809.378	0.0157715
809.456	0.0158540
809.534	0.0159448
809.612	0.0159951
809.690	0.0160824
809.768	0.0160515
809.846	0.0162278
809.924	0.0162019
810.003	0.0161776
810.081	0.0162794
810.159	0.0160444
810.237	0.0162273
810.315	0.0161806
810.393	0.0163413
810.471	0.0161698
810.549	0.0161480
810.628	0.0161392
810.706	0.0161009
810.784	0.0160670
810.862	0.0160954
810.940	0.0161149
811.018	0.0160934
811.096	0.0160347
811.174	0.0158985
811.253	0.0159875
811.331	0.0159646
811.409	0.0159441
811.487	0.0161401
811.565	0.0159943
811.643	0.0160519
811.721	0.0161169
811.799	0.0160993
811.878	0.0159399
811.956	0.0160478
812.034	0.0160108
812.112	0.0160901
812.190	0.0158402
812.268	0.0158787
812.346	0.0159258
812.424	0.0160051
812.503	0.0159569
812.581	0.0158271
812.659	0.0157407
812.737	0.0157082
812.815	0.0157590
812.893	0.0157808
812.971	0.0157262
813.049	0.0158868
813.128	0.0158366
813.206	0.0159782
813.284	0.0160613
813.362	0.0159749
813.440	0.0158375
813.518	0.0158434
813.596	0.0160403
813.674	0.0160580
813.753	0.0160655
813.831	0.0160728
813.909	0.0161438
813.987	0.0162031
814.065	0.0161198
814.143	0.0162745
814.221	0.0161967
814.299	0.0161938
814.378	0.0159623
814.456	0.0161485
814.534	0.0161322
814.612	0.0160957
814.690	0.0160693
814.768	0.0160029
814.846	0.0158665
814.924	0.0160696
815.003	0.0159682
815.081	0.0159823
815.159	0.0159749
815.237	0.0159040
815.315	0.0159856
815.393	0.0159659
815.471	0.0159985
815.549	0.0159691
815.628	0.0159885
815.706	0.0159790
815.784	0.0161414
815.862	0.0161046
815.940	0.0160712
816.018	0.0159834
816.096	0.0159310
816.174	0.0161762
816.253	0.0161343
816.331	0.0158073
816.409	0.0160181
816.487	0.0158725
816.565	0.0157521
816.643	0.0158655
816.721	0.0158553
816.799	0.0157648
816.878	0.0158730
816.956	0.0158536
817.034	0.0159676
817.112	0.0158586
817.190	0.0158254
817.268	0.0158252
817.346	0.0158643
817.424	0.0158457
817.503	0.0156899
817.581	0.0158039
817.659	0.0159463
817.737	0.0157629
817.815	0.0158424
817.893	0.0157559
817.971	0.0158571
818.049	0.0157993
818.128	0.0157948
818.206	0.0156916
818.284	0.0158113
818.362	0.0158189
818.440	0.0159571
818.518	0.0158435
818.596	0.0158469
818.674	0.0160696
818.753	0.0161584
818.831	0.0162620
818.909	0.0162231
818.987	0.0163272
819.065	0.0164484
819.143	0.0163840
819.221	0.0164211
819.299	0.0164822
819.378	0.0163504
819.456	0.0164652
819.534	0.0164067
819.612	0.0164319
819.690	0.0163420
819.768	0.0163051
819.846	0.0161954
819.924	0.0162138
820.003	0.0162756
820.081	0.0163235
820.159	0.0161076
820.237	0.0160728
820.315	0.0160570
820.393	0.0160088
820.471	0.0159740
820.549	0.0159267
820.628	0.0157917
820.706	0.0157609
820.784	0.0156462
820.862	0.0155547
820.940	0.0156270
821.018	0.0155888
821.096	0.0154640
821.174	0.0154581
821.253	0.0156867
821.331	0.0155218
821.409	0.0153394
821.487	0.0154159
821.565	0.0154411
821.643	0.0155285
821.721	0.0155340
821.799	0.0153978
821.878	0.0155585
821.956	0.0155312
822.034	0.0156211
822.112	0.0156749
822.190	0.0156720
822.268	0.0159509
822.346	0.0160149
822.424	0.0160706
822.503	0.0161327
822.581	0.0163506
822.659	0.0166532
822.737	0.0165088
822.815	0.0165233
822.893	0.0166669
822.971	0.0167256
823.049	0.0167879
823.128	0.0167997
823.206	0.0166467
823.284	0.0167684
823.362	0.0167281
823.440	0.0168001
823.518	0.0166457
823.596	0.0165639
823.674	0.0165835
823.753	0.0164562
823.831	0.0164091
823.909	0.0163445
823.987	0.0162296
824.065	0.0161644
824.143	0.0161684
824.221	0.0160219
824.299	0.0159192
824.378	0.0157410
824.456	0.0155701
824.534	0.0154080
824.612	0.0154243
824.690	0.0153497
824.768	0.0153648
824.846	0.0152331
824.924	0.0150890
825.003	0.0152392
825.081	0.0151901
825.159	0.0151031
825.237	0.0151738
825.315	0.0150731
825.393	0.0151241
825.471	0.0152096
825.549	0.0153753
825.628	0.0153470
825.706	0.0152880
825.784	0.0155127
825.862	0.0155876
825.940	0.0155672
826.018	0.0158566
826.096	0.0159550
826.174	0.0159972
826.253	0.0162923
826.331	0.0162063
826.409	0.0164391
826.487	0.0164616
826.565	0.0164957
826.643	0.0167093
826.721	0.0167719
826.799	0.0167674
826.878	0.0168517
826.956	0.0169550
827.034	0.0168769
827.112	0.0168120
827.190	0.0169411
827.268	0.0169508
827.346	0.0168723
827.424	0.0168925
827.503	0.0168138
827.581	0.0167894
827.659	0.0168045
827.737	0.0166918
827.815	0.0165422
827.893	0.0165217
827.971	0.0163055
828.049	0.0161497
828.128	0.0159603
828.206	0.0159110
828.284	0.0157423
828.362	0.0156213
828.440	0.0155615
828.518	0.0154606
828.596	0.0152084
828.674	0.0152824
828.753	0.0150495
828.831	0.0151121
828.909	0.0150871
828.987	0.0151113
829.065	0.0150677
829.143	0.0149527
829.221	0.0149822
829.299	0.0150696
829.378	0.0151385
829.456	0.0151789
829.534	0.0153181
829.612	0.0152238
829.690	0.0154139
829.768	0.0155299
829.846	0.0155787
829.924	0.0157140
830.003	0.0159563
830.081	0.0160220
830.159	0.0161259
830.237	0.0163777
830.315	0.0164918
830.393	0.0165298
830.471	0.0166051
830.549	0.0167547
830.628	0.0166049
830.706	0.0167403
830.784	0.0168296
830.862	0.0167416
830.940	0.0168722
831.018	0.0167249
831.096	0.0167005
831.174	0.0166541
831.253	0.0165431
831.331	0.0165559
831.409	0.0165154
831.487	0.0165138
831.565	0.0163387
831.643	0.0164652
831.721	0.0164436
831.799	0.0163584
831.878	0.0162691
831.956	0.0162360
832.034	0.0160612
832.112	0.0160255
832.190	0.0159638
832.268	0.0159426
832.346	0.0157646
832.424	0.0157795
832.503	0.0157373
832.581	0.0156007
832.659	0.0155529
832.737	0.0154858
832.815	0.0153873
832.893	0.0154960
832.971	0.0153436
833.049	0.0152281
833.128	0.0152968
833.206	0.0153137
833.284	0.0153433
833.362	0.0154234
833.440	0.0154367
833.518	0.0154738
833.596	0.0156348
833.674	0.0158597
833.753	0.0157796
833.831	0.0159929
833.909	0.0159555
833.987	0.0160057
834.065	0.0162604
834.143	0.0161405
834.221	0.0161404
834.299	0.0163409
834.378	0.0164544
834.456	0.0162486
834.534	0.0164479
834.612	0.0165879
834.690	0.0164027
834.768	0.0164270
834.846	0.0165585
834.924	0.0164543
835.003	0.0163741
835.081	0.0164755
835.159	0.0163874
835.237	0.0163051
835.315	0.0163220
835.393	0.0163545
835.471	0.0162124
835.549	0.0161511
835.628	0.0160749
835.706	0.0161048
835.784	0.0160623
835.862	0.0160308
835.940	0.0159103
836.018	0.0158183
836.096	0.0159647
836.174	0.0158813
836.253	0.0157339
836.331	0.0156803
836.409	0.0158006
836.487	0.0157251
836.565	0.0157379
836.643	0.0156236
836.721	0.0156575
836.799	0.0157874
836.878	0.0158012
836.956	0.0156792
837.034	0.0155128
837.112	0.0156863
837.190	0.0157394
837.268	0.0158608
837.346	0.0158112
837.424	0.0158811
837.503	0.0158067
837.581	0.0158506
837.659	0.0159069
837.737	0.0158627
837.815	0.0158761
837.893	0.0159373
837.971	0.0160774
838.049	0.0160911
838.128	0.0159742
838.206	0.0160318
838.284	0.0159303
838.362	0.0161858
838.440	0.0163821
838.518	0.0160454
838.596	0.0162053
838.674	0.0161595
838.753	0.0163826
838.831	0.0163558
838.909	0.0165009
838.987	0.0163618
839.065	0.0163276
839.143	0.0164942
839.221	0.0163488
839.299	0.0163554
839.378	0.0162958
839.456	0.0163863
839.534	0.0162572
839.612	0.0160709
839.690	0.0161261
839.768	0.0160302
839.846	0.0160327
839.924	0.0160780
840.003	0.0157002
840.081	0.0160423
840.159	0.0160006
840.237	0.0157095
840.315	0.0158455
840.393	0.0158058
840.471	0.0157677
840.549	0.0158556
840.628	0.0157043
840.706	0.0157969
840.784	0.0158159
840.862	0.0158776
840.940	0.0160103
841.018	0.0158858
841.096	0.0158551
841.174	0.0158604
841.253	0.0159409
841.331	0.0160236
841.409	0.0159945
841.487	0.0160228
841.565	0.0160296
841.643	0.0160564
841.721	0.0159503
841.799	0.0158705
841.878	0.0161274
841.956	0.0161559
842.034	0.0159444
842.112	0.0159747
842.190	0.0159843
842.268	0.0160432
842.346	0.0159425
842.424	0.0160606
842.503	0.0160454
842.581	0.0159171
842.659	0.0161005
842.737	0.0161774
842.815	0.0161407
842.893	0.0160490
842.971	0.0160506
843.049	0.0161444
843.128	0.0160807
843.206	0.0160735
843.284	0.0162286
843.362	0.0161029
843.440	0.0159692
843.518	0.0161858
843.596	0.0161492
843.674	0.0159544
843.753	0.0161227
843.831	0.0160290
843.909	0.0158894
843.987	0.0159320
844.065	0.0160870
844.143	0.0159171
844.221	0.0161220
844.299	0.0158968
844.378	0.0160083
844.456	0.0159315
844.534	0.0160145
844.612	0.0159982
844.690	0.0159098
844.768	0.0160526
844.846	0.0160869
844.924	0.0161343
845.003	0.0161642
845.081	0.0161014
845.159	0.0160193
845.237	0.0161552
845.315	0.0162405
845.393	0.0161803
845.471	0.0160995
845.549	0.0161935
845.628	0.0161755
845.706	0.0160590
845.784	0.0160876
845.862	0.0160924
845.940	0.0160687
846.018	0.0160298
846.096	0.0160316
846.174	0.0158781
846.253	0.0159384
846.331	0.0159607
846.409	0.0159435
846.487	0.0160529
846.565	0.0159819
846.643	0.0158710
846.721	0.0157572
846.799	0.0158459
846.878	0.0159286
846.956	0.0158137
847.034	0.0157736
847.112	0.0158713
847.190	0.0159170
847.268	0.0158043
847.346	0.0157713
847.424	0.0159877
847.503	0.0158131
847.581	0.0159815
847.659	0.0159594
847.737	0.0157014
847.815	0.0157992
847.893	0.0159379
847.971	0.0159577
848.049	0.0160616
848.128	0.0159642
848.206	0.0159550
848.284	0.0159715
848.362	0.0160065
848.440	0.0161001
848.518	0.0160732
848.596	0.0160063
848.674	0.0159843
848.753	0.0159055
848.831	0.0158953
848.909	0.0162125
848.987	0.0160892
849.065	0.0161259
849.143	0.0160336
849.221	0.0160482
849.299	0.0161743
849.378	0.0162894
849.456	0.0161584
849.534	0.0161850
849.612	0.0162975
849.690	0.0162278
849.768	0.0163290
849.846	0.0162868
849.924	0.0162684
850.003	0.0162737
850.081	0.0162357
850.159	0.0162667
850.237	0.0161435
850.315	0.0161617
850.393	0.0160223
850.471	0.0161444
850.549	0.0161026
850.628	0.0160880
850.706	0.0161308
850.784	0.0159770
850.862	0.0161155
850.940	0.0160905
851.018	0.0160038
851.096	0.0159990
851.174	0.0161227
851.253	0.0161325
851.331	0.0159247
851.409	0.0159670
851.487	0.0158256
851.565	0.0159370
851.643	0.0158029
851.721	0.0157523
851.799	0.0158867
851.878	0.0156846
851.956	0.0156772
852.034	0.0156648
852.112	0.0157539
852.190	0.0156859
852.268	0.0156441
852.346	0.0155688
852.424	0.0156003
852.503	0.0157844
852.581	0.0158551
852.659	0.0157316
852.737	0.0157565
852.815	0.0158344
852.893	0.0158054
852.971	0.0160390
853.049	0.0159666
853.128	0.0159663
853.206	0.0159327
853.284	0.0159711
853.362	0.0159509
853.440	0.0160372
853.518	0.0159853
853.596	0.0160741
853.674	0.0159954
853.753	0.0159931
853.831	0.0159283
853.909	0.0158797
853.987	0.0160975
854.065	0.0158954
854.143	0.0159672
854.221	0.0160851
854.299	0.0160529
854.378	0.0160743
854.456	0.0160657
854.534	0.0162607
854.612	0.0162231
854.690	0.0160625
854.768	0.0161173
854.846	0.0162386
854.924	0.0160732
855.003	0.0161034
855.081	0.0162237
855.159	0.0161501
855.237	0.0160361
855.315	0.0161171
855.393	0.0162358
855.471	0.0162791
855.549	0.0162061
855.628	0.0162109
855.706	0.0163988
855.784	0.0160103
855.862	0.0159487
855.940	0.0160957
856.018	0.0160679
856.096	0.0160312
856.174	0.0161289
856.253	0.0159719
856.331	0.0161020
856.409	0.0161007
856.487	0.0158038
856.565	0.0158869
856.643	0.0160686
856.721	0.0160509
856.799	0.0160094
856.878	0.0159854
856.956	0.0159068
857.034	0.0161365
857.112	0.0160591
857.190	0.0157857
857.268	0.0161069
857.346	0.0159607
857.424	0.0160113
857.503	0.0158834
857.581	0.0160255
857.659	0.0159692
857.737	0.0158445
857.815	0.0157841
857.893	0.0159161
857.971	0.0159429
858.049	0.0159420
858.128	0.0159896
858.206	0.0158076
858.284	0.0160400
858.362	0.0159759
858.440	0.0159885
858.518	0.0159437
858.596	0.0160548
858.674	0.0159689
858.753	0.0158646
858.831	0.0160189
858.909	0.0159161
858.987	0.0160026
859.065	0.0160542
859.143	0.0159140
859.221	0.0159936
859.299	0.0160204
859.378	0.0159200
859.456	0.0160097
859.534	0.0159800
859.612	0.0159599
859.690	0.0159729
859.768	0.0161333
859.846	0.0159669
859.924	0.0158034
860.003	0.0158690
860.081	0.0159560
860.159	0.0158859
860.237	0.0160076
860.315	0.0158079
860.393	0.0159515
860.471	0.0159685
860.549	0.0159589
860.628	0.0160681
860.706	0.0159779
860.784	0.0159876
860.862	0.0160167
860.940	0.0160988
861.018	0.0159800
861.096	0.0160551
861.174	0.0162511
861.253	0.0161280
861.331	0.0160954
861.409	0.0161396
861.487	0.0160864
861.565	0.0161404
861.643	0.0161926
861.721	0.0162444
861.799	0.0162047
861.878	0.0162772
861.956	0.0161197
862.034	0.0160579
862.112	0.0161355
862.190	0.0161426
862.268	0.0161732
862.346	0.0161827
862.424	0.0160871
862.503	0.0161040
862.581	0.0160072
862.659	0.0160056
862.737	0.0162038
862.815	0.0160062
862.893	0.0160877
862.971	0.0160423
863.049	0.0160439
863.128	0.0159015
863.206	0.0160085
863.284	0.0159534
863.362	0.0159424
863.440	0.0159158
863.518	0.0158755
863.596	0.0159081
863.674	0.0160055
863.753	0.0160175
863.831	0.0159180
863.909	0.0157991
863.987	0.0159125
864.065	0.0159595
864.143	0.0156863
864.221	0.0157392
864.299	0.0159667
864.378	0.0159615
864.456	0.0159272
864.534	0.0158712
864.612	0.0159917
864.690	0.0158772
864.768	0.0158267
864.846	0.0159785
864.924	0.0159772
865.003	0.0159158
865.081	0.0161373
865.159	0.0159174
865.237	0.0160085
865.315	0.0160049
865.393	0.0160020
865.471	0.0160243
865.549	0.0160830
865.628	0.0160886
865.706	0.0159274
865.784	0.0159672
865.862	0.0161949
865.940	0.0161824
866.018	0.0160780
866.096	0.0160387
866.174	0.0160829
866.253	0.0160771
866.331	0.0160622
866.409	0.0160282
866.487	0.0159460
866.565	0.0160115
866.643	0.0161330
866.721	0.0160604
866.799	0.0158717
866.878	0.0159986
866.956	0.0160131
867.034	0.0159320
867.112	0.0160422
867.190	0.0158671
867.268	0.0161950
867.346	0.0159451
867.424	0.0159516
867.503	0.0159430
867.581	0.0160946
867.659	0.0160084
867.737	0.0161256
867.815	0.0160780
867.893	0.0161453
867.971	0.0160587
868.049	0.0161499
868.128	0.0161136
868.206	0.0160643
868.284	0.0160989
868.362	0.0160343
868.440	0.0161178
868.518	0.0162281
868.596	0.0160686
868.674	0.0161601
868.753	0.0160764
868.831	0.0160815
868.909	0.0160688
868.987	0.0160561
869.065	0.0161803
869.143	0.0159271
869.221	0.0161579
869.299	0.0161163
869.378	0.0159326
869.456	0.0159195
869.534	0.0158298
869.612	0.0158901
869.690	0.0160219
869.768	0.0160034
869.846	0.0158965
869.924	0.0160391
870.003	0.0159955
870.081	0.0159097
870.159	0.0160367
870.237	0.0158078
870.315	0.0159340
870.393	0.0159785
870.471	0.0159678
870.549	0.0159276
870.628	0.0158773
870.706	0.0158797
870.784	0.0158064
870.862	0.0158371
870.940	0.0158330
871.018	0.0157882
871.096	0.0159084
871.174	0.0159578
871.253	0.0157810
871.331	0.0159983
871.409	0.0160062
871.487	0.0160336
871.565	0.0160759
871.643	0.0159790
871.721	0.0160118
871.799	0.0161338
871.878	0.0160316
871.956	0.0161703
872.034	0.0161369
872.112	0.0161133
872.190	0.0161543
872.268	0.0160595
872.346	0.0160718
872.424	0.0161529
872.503	0.0161046
872.581	0.0160408
872.659	0.0160962
872.737	0.0161314
872.815	0.0162008
872.893	0.0160438
872.971	0.0160345
873.049	0.0161169
873.128	0.0161274
873.206	0.0161183
873.284	0.0161647
873.362	0.0162378
873.440	0.0162296
873.518	0.0160569
873.596	0.0159724
873.674	0.0160872
873.753	0.0161229
873.831	0.0161871
873.909	0.0159966
873.987	0.0160551
874.065	0.0160205
874.143	0.0161550
874.221	0.0159374
874.299	0.0158853
874.378	0.0159151
874.456	0.0161040
874.534	0.0161015
874.612	0.0161068
874.690	0.0159382
874.768	0.0158640
874.846	0.0159505
874.924	0.0158890
875.003	0.0159801
875.081	0.0160831
875.159	0.0159784
875.237	0.0160576
875.315	0.0160083
875.393	0.0159558
875.471	0.0159964
875.549	0.0159905
875.628	0.0160158
875.706	0.0159622
875.784	0.0157611
875.862	0.0159872
875.940	0.0160577
876.018	0.0160860
876.096	0.0160253
876.174	0.0160539
876.253	0.0160091
876.331	0.0160448
876.409	0.0160178
876.487	0.0158857
876.565	0.0158665
876.643	0.0158759
876.721	0.0158884
876.799	0.0159248
876.878	0.0159589
876.956	0.0158561
877.034	0.0159076
877.112	0.0158746
877.190	0.0160127
877.268	0.0159290
877.346	0.0160303
877.424	0.0160581
877.503	0.0161299
877.581	0.0158965
877.659	0.0159694
877.737	0.0159460
877.815	0.0158981
877.893	0.0160192
877.971	0.0159517
878.049	0.0158849
878.128	0.0159672
878.206	0.0159731
878.284	0.0160311
878.362	0.0158752
878.440	0.0158488
878.518	0.0159334
878.596	0.0160043
878.674	0.0159650
878.753	0.0158744
878.831	0.0159382
878.909	0.0160111
878.987	0.0159637
879.065	0.0160517
879.143	0.0159853
879.221	0.0158839
879.299	0.0160820
879.378	0.0159769
879.456	0.0161136
879.534	0.0159269
879.612	0.0160925
879.690	0.0160999
879.768	0.0160485
879.846	0.0160952
879.924	0.0161065
880.003	0.0159897
880.081	0.0161513
880.159	0.0160851
880.237	0.0161053
880.315	0.0159514
880.393	0.0160364
880.471	0.0160218
880.549	0.0161613
880.628	0.0160780
880.706	0.0161270
880.784	0.0161620
880.862	0.0160815
880.940	0.0160941
881.018	0.0161794
881.096	0.0161146
881.174	0.0160873
881.253	0.0160516
881.331	0.0162030
881.409	0.0161572
881.487	0.0161515
881.565	0.0161482
881.643	0.0160287
881.721	0.0160344
881.799	0.0160661
881.878	0.0159893
881.956	0.0160225
882.034	0.0160737
882.112	0.0159781
882.190	0.0159209
882.268	0.0159025
882.346	0.0159450
882.424	0.0158919
882.503	0.0158781
882.581	0.0158237
882.659	0.0159742
882.737	0.0160256
882.815	0.0158855
882.893	0.0158656
882.971	0.0160377
883.049	0.0159845
883.128	0.0158473
883.206	0.0159604
883.284	0.0159110
883.362	0.0160012
883.440	0.0160765
883.518	0.0159354
883.596	0.0159202
883.674	0.0160870
883.753	0.0160028
883.831	0.0160290
883.909	0.0160004
883.987	0.0160489
884.065	0.0159322
884.143	0.0158755
884.221	0.0160152
884.299	0.0158376
884.378	0.0158364
884.456	0.0159674
884.534	0.0158465
884.612	0.0159396
884.690	0.0160098
884.768	0.0159727
884.846	0.0159589
884.924	0.0159857
885.003	0.0160535
885.081	0.0161108
885.159	0.0160519
885.237	0.0162569
885.315	0.0161154
885.393	0.0160364
885.471	0.0160963
885.549	0.0161424
885.628	0.0159418
885.706	0.0159986
885.784	0.0159885
885.862	0.0161102
885.940	0.0160450
886.018	0.0161203
886.096	0.0161689
886.174	0.0161265
886.253	0.0160552
886.331	0.0159807
886.409	0.0160105
886.487	0.0160761
886.565	0.0160036
886.643	0.0159106
886.721	0.0160055
886.799	0.0160619
886.878	0.0159616
886.956	0.0160110
887.034	0.0160212
887.112	0.0160275
887.190	0.0160583
887.268	0.0159880
887.346	0.0160102
887.424	0.0159685
887.503	0.0160402
887.581	0.0159685
887.659	0.0159397
887.737	0.0158093
887.815	0.0158770
887.893	0.0160331
887.971	0.0160712
888.049	0.0158685
888.128	0.0157983
888.206	0.0159177
888.284	0.0158985
888.362	0.0159363
888.440	0.0158986
888.518	0.0159583
888.596	0.0158389
888.674	0.0158813
888.753	0.0159790
888.831	0.0159480
888.909	0.0159497
888.987	0.0157983
889.065	0.0159333
889.143	0.0160148
889.221	0.0159334
889.299	0.0160532
889.378	0.0158318
889.456	0.0159455
889.534	0.0158479
889.612	0.0159207
889.690	0.0160360
889.768	0.0159522
889.846	0.0159679
889.924	0.0160603
890.003	0.0160957
890.081	0.0161868
890.159	0.0160054
890.237	0.0159647
890.315	0.0160009
890.393	0.0159154
890.471	0.0160904
890.549	0.0159939
890.628	0.0160428
890.706	0.0159995
890.784	0.0160506
890.862	0.0160368
890.940	0.0159499
891.018	0.0159244
891.096	0.0160545
891.174	0.0160137
891.253	0.0159237
891.331	0.0160749
891.409	0.0158746
891.487	0.0158443
891.565	0.0159121
891.643	0.0159467
891.721	0.0160568
891.799	0.0159631
891.878	0.0161040
891.956	0.0160711
892.034	0.0158555
892.112	0.0161353
892.190	0.0161506
892.268	0.0160338
892.346	0.0159842
892.424	0.0160620
892.503	0.0161033
892.581	0.0161179
892.659	0.0160604
892.737	0.0159653
892.815	0.0160839
892.893	0.0158637
892.971	0.0161263
893.049	0.0160879
893.128	0.0159139
893.206	0.0159874
893.284	0.0160004
893.362	0.0159213
893.440	0.0159370
893.518	0.0159583
893.596	0.0158356
893.674	0.0159112
893.753	0.0160396
893.831	0.0161093
893.909	0.0158823
893.987	0.0159061
894.065	0.0159290
894.143	0.0160547
894.221	0.0159258
894.299	0.0158936
894.378	0.0159113
894.456	0.0160415
894.534	0.0157108
894.612	0.0159335
894.690	0.0159305
894.768	0.0158025
894.846	0.0158314
894.924	0.0158205
895.003	0.0158646
895.081	0.0158051
895.159	0.0157860
895.237	0.0158690
895.315	0.0157948
895.393	0.0158244
895.471	0.0158385
895.549	0.0158849
895.628	0.0159626
895.706	0.0157291
895.784	0.0158221
895.862	0.0158505
895.940	0.0159547
896.018	0.0158621
896.096	0.0159609
896.174	0.0159252
896.253	0.0159744
896.331	0.0159363
896.409	0.0160658
896.487	0.0161131
896.565	0.0162753
896.643	0.0163231
896.721	0.0161034
896.799	0.0161806
896.878	0.0161993
896.956	0.0161642
897.034	0.0160844
897.112	0.0160323
897.190	0.0162197
897.268	0.0161327
897.346	0.0161886
897.424	0.0161700
897.503	0.0161427
897.581	0.0162090
897.659	0.0159622
897.737	0.0160229
897.815	0.0160729
897.893	0.0161559
897.971	0.0161932
898.049	0.0161512
898.128	0.0159496
898.206	0.0159948
898.284	0.0160085
898.362	0.0160429
898.440	0.0160088
898.518	0.0160500
898.596	0.0161498
898.674	0.0159486
898.753	0.0159336
898.831	0.0160198
898.909	0.0160924
898.987	0.0159332
899.065	0.0159844
899.143	0.0159190
899.221	0.0158923
899.299	0.0158485
899.378	0.0158997
899.456	0.0159418
899.534	0.0159072
899.612	0.0159146
899.690	0.0159808
899.768	0.0158868
899.846	0.0157989
899.924	0.0157455
900.003	0.0159086
900.081	0.0158707
900.159	0.0158366
900.237	0.0158743
900.315	0.0159539
900.393	0.0158354
900.471	0.0159380
900.549	0.0159386
900.628	0.0159431
900.706	0.0160974
900.784	0.0159001
900.862	0.0159660
900.940	0.0160922
901.018	0.0161555
901.096	0.0160543
901.174	0.0159494
901.253	0.0160366
901.331	0.0161352
901.409	0.0159821
901.487	0.0160159
901.565	0.0159557
901.643	0.0160812
901.721	0.0161361
901.799	0.0159910
901.878	0.0159516
901.956	0.0161024
902.034	0.0161205
902.112	0.0160805
902.190	0.0160493
902.268	0.0161241
902.346	0.0159892
902.424	0.0159013
902.503	0.0160978
902.581	0.0159631
902.659	0.0159087
902.737	0.0160221
902.815	0.0158596
902.893	0.0158622
902.971	0.0159524
903.049	0.0160784
903.128	0.0158726
903.206	0.0158810
903.284	0.0160276
903.362	0.0159213
903.440	0.0159644
903.518	0.0160681
903.596	0.0159293
903.674	0.0158980
903.753	0.0159806
903.831	0.0158559
903.909	0.0159882
903.987	0.0159962
904.065	0.0160424
904.143	0.0161246
904.221	0.0160659
904.299	0.0160094
904.378	0.0160910
904.456	0.0158819
904.534	0.0160247
904.612	0.0160139
904.690	0.0161419
904.768	0.0160484
904.846	0.0159304
904.924	0.0160227
905.003	0.0160373
905.081	0.0159544
905.159	0.0159229
905.237	0.0160503
905.315	0.0160410
905.393	0.0160378
905.471	0.0160178
905.549	0.0161235
905.628	0.0161251
905.706	0.0161332
905.784	0.0161636
905.862	0.0162587
905.940	0.0161047
906.018	0.0159703
906.096	0.0161308
906.174	0.0161196
906.253	0.0161055
906.331	0.0161189
906.409	0.0161059
906.487	0.0160248
906.565	0.0159750
906.643	0.0160065
906.721	0.0159180
906.799	0.0158049
906.878	0.0157648
906.956	0.0157630
907.034	0.0158472
907.112	0.0157977
907.190	0.0157864
907.268	0.0158004
907.346	0.0159132
907.424	0.0159515
907.503	0.0158784
907.581	0.0158627
907.659	0.0160518
907.737	0.0159728
907.815	0.0159866
907.893	0.0159772
907.971	0.0158412
908.049	0.0160004
908.128	0.0159840
908.206	0.0159116
908.284	0.0159940
908.362	0.0160028
908.440	0.0159472
908.518	0.0159415
908.596	0.0159572
908.674	0.0159510
908.753	0.0161222
908.831	0.0159772
908.909	0.0160194
908.987	0.0160661
909.065	0.0160220
909.143	0.0161030
909.221	0.0162244
909.299	0.0160777
909.378	0.0160398
909.456	0.0160963
909.534	0.0161746
909.612	0.0160932
909.690	0.0161937
909.768	0.0162801
909.846	0.0161726
909.924	0.0160802
910.003	0.0161399
910.081	0.0160563
910.159	0.0161462
910.237	0.0160160
910.315	0.0160964
910.393	0.0161963
910.471	0.0161041
910.549	0.0159852
910.628	0.0159538
910.706	0.0158599
910.784	0.0159598
910.862	0.0159464
910.940	0.0159327
911.018	0.0160332
911.096	0.0159612
911.174	0.0158772
911.253	0.0158720
911.331	0.0159692
911.409	0.0158592
911.487	0.0159003
911.565	0.0159543
911.643	0.0158801
911.721	0.0157719
911.799	0.0157052
911.878	0.0157900
911.956	0.0158903
912.034	0.0158715
912.112	0.0157573
912.190	0.0158410
912.268	0.0156795
912.346	0.0158842
912.424	0.0159192
912.503	0.0158424
912.581	0.0157553
912.659	0.0159484
912.737	0.0159563
912.815	0.0160098
912.893	0.0161008
912.971	0.0161243
913.049	0.0159635
913.128	0.0160602
913.206	0.0161182
913.284	0.0160206
913.362	0.0159679
913.440	0.0160423
913.518	0.0159926
913.596	0.0160821
913.674	0.0159898
913.753	0.0160853
913.831	0.0161126
913.909	0.0161133
913.987	0.0160775
914.065	0.0160630
914.143	0.0161174
914.221	0.0161298
914.299	0.0161690
914.378	0.0162567
914.456	0.0161095
914.534	0.0161002
914.612	0.0161308
914.690	0.0159196
914.768	0.0159467
914.846	0.0160619
914.924	0.0159762
915.003	0.0158946
915.081	0.0156877
915.159	0.0157848
915.237	0.0157300
915.315	0.0158675
915.393	0.0157169
915.471	0.0157047
915.549	0.0157161
915.628	0.0156988
915.706	0.0157750
915.784	0.0156975
915.862	0.0159168
915.940	0.0157950
916.018	0.0157623
916.096	0.0158788
916.174	0.0159219
916.253	0.0157594
916.331	0.0160439
916.409	0.0159209
916.487	0.0158905
916.565	0.0159194
916.643	0.0159033
916.721	0.0160214
916.799	0.0161024
916.878	0.0161647
916.956	0.0160466
917.034	0.0161250
917.112	0.0162181
917.190	0.0161969
917.268	0.0161864
917.346	0.0160793
917.424	0.0161395
917.503	0.0162330
917.581	0.0163190
917.659	0.0161949
917.737	0.0161008
917.815	0.0162959
917.893	0.0164277
917.971	0.0161890
918.049	0.0162064
918.128	0.0162418
918.206	0.0162505
918.284	0.0161272
918.362	0.0159834
918.440	0.0160276
918.518	0.0158470
918.596	0.0157617
918.674	0.0156733
918.753	0.0157024
918.831	0.0156454
918.909	0.0157649
918.987	0.0156572
919.065	0.0156690
919.143	0.0155224
919.221	0.0154901
919.299	0.0154753
919.378	0.0157311
919.456	0.0157261
919.534	0.0156773
919.612	0.0157294
919.690	0.0158036
919.768	0.0158241
919.846	0.0158352
919.924	0.0159455
920.003	0.0159781
920.081	0.0159370
920.159	0.0160078
920.237	0.0160637
920.315	0.0161326
920.393	0.0159785
920.471	0.0160072
920.549	0.0161176
920.628	0.0161266
920.706	0.0161302
920.784	0.0161935
920.862	0.0161385
920.940	0.0160642
921.018	0.0161977
921.096	0.0160543
921.174	0.0162159
921.253	0.0162216
921.331	0.0163039
921.409	0.0162701
921.487	0.0162735
921.565	0.0162987
921.643	0.0164256
921.721	0.0163767
921.799	0.0163634
921.878	0.0162657
921.956	0.0163552
922.034	0.0162425
922.112	0.0162524
922.190	0.0160467
922.268	0.0160779
922.346	0.0158379
922.424	0.0158576
922.503	0.0157501
922.581	0.0156032
922.659	0.0156283
922.737	0.0155338
922.815	0.0155178
922.893	0.0155479
922.971	0.0155293
923.049	0.0156519
923.128	0.0155994
923.206	0.0156132
923.284	0.0155615
923.362	0.0157351
923.440	0.0157978
923.518	0.0156808
923.596	0.0159011
923.674	0.0158595
923.753	0.0159016
923.831	0.0157755
923.909	0.0161355
923.987	0.0162009
924.065	0.0160956
924.143	0.0161424
924.221	0.0160851
924.299	0.0159861
924.378	0.0160576
924.456	0.0160836
924.534	0.0161861
924.612	0.0161218
924.690	0.0160110
924.768	0.0160382
924.846	0.0158871
924.924	0.0160957
925.003	0.0160683
925.081	0.0160301
925.159	0.0160162
925.237	0.0160728
925.315	0.0161409
925.393	0.0162933
925.471	0.0164006
925.549	0.0162627
925.628	0.0163360
925.706	0.0164929
925.784	0.0163941
925.862	0.0165600
925.940	0.0164126
926.018	0.0162597
926.096	0.0163192
926.174	0.0162780
926.253	0.0159461
926.331	0.0159504
926.409	0.0158884
926.487	0.0156995
926.565	0.0155575
926.643	0.0154588
926.721	0.0154104
926.799	0.0153112
926.878	0.0154327
926.956	0.0154755
927.034	0.0155176
927.112	0.0155750
927.190	0.0157746
927.268	0.0157312
927.346	0.0157433
927.424	0.0158292
927.503	0.0159589
927.581	0.0159358
927.659	0.0161410
927.737	0.0161502
927.815	0.0160072
927.893	0.0161343
927.971	0.0162362
928.049	0.0161569
928.128	0.0161397
928.206	0.0161696
928.284	0.0162902
928.362	0.0162930
928.440	0.0161275
928.518	0.0161160
928.596	0.0161470
928.674	0.0161117
928.753	0.0160641
928.831	0.0161012
928.909	0.0161136
928.987	0.0160084
929.065	0.0160525
929.143	0.0160230
929.221	0.0159484
929.299	0.0160953
929.378	0.0161059
929.456	0.0161282
929.534	0.0160905
929.612	0.0160373
929.690	0.0161468
929.768	0.0161859
929.846	0.0160411
929.924	0.0160409
930.003	0.0160434
930.081	0.0162470
930.159	0.0161877
930.237	0.0160340
930.315	0.0159254
930.393	0.0160057
930.471	0.0160379
930.549	0.0159200
930.628	0.0157184
930.706	0.0158332
930.784	0.0156528
930.862	0.0158266
930.940	0.0156963
931.018	0.0156588
931.096	0.0157393
931.174	0.0157192
931.253	0.0157136
931.331	0.0157156
931.409	0.0157905
931.487	0.0158668
931.565	0.0159312
931.643	0.0158923
931.721	0.0161026
931.799	0.0159380
931.878	0.0159962
931.956	0.0160313
932.034	0.0160789
932.112	0.0161282
932.190	0.0162067
932.268	0.0161960
932.346	0.0161240
932.424	0.0161662
932.503	0.0161919
932.581	0.0161822
932.659	0.0161173
932.737	0.0162085
932.815	0.0160664
932.893	0.0160306
932.971	0.0160955
933.049	0.0159616
933.128	0.0160498
933.206	0.0160110
933.284	0.0160258
933.362	0.0158920
933.440	0.0159792
933.518	0.0160254
933.596	0.0160445
933.674	0.0160824
933.753	0.0161160
933.831	0.0161946
933.909	0.0161008
933.987	0.0161485
934.065	0.0162171
934.143	0.0161800
934.221	0.0161278
934.299	0.0160879
934.378	0.0161490
934.456	0.0161871
934.534	0.0161712
934.612	0.0161143
934.690	0.0160948
934.768	0.0159890
934.846	0.0158970
934.924	0.0159966
935.003	0.0159528
935.081	0.0158374
935.159	0.0158729
935.237	0.0160175
935.315	0.0159390
935.393	0.0158311
935.471	0.0158652
935.549	0.0159840
935.628	0.0160345
935.706	0.0160762
935.784	0.0160091
935.862	0.0160769
935.940	0.0161786
936.018	0.0161304
936.096	0.0162200
936.174	0.0159551
936.253	0.0162203
936.331	0.0161944
936.409	0.0160004
936.487	0.0161728
936.565	0.0160919
936.643	0.0159528
936.721	0.0160262
936.799	0.0161037
936.878	0.0160015
936.956	0.0158866
937.034	0.0159899
937.112	0.0159445
937.190	0.0157982
937.268	0.0158839
937.346	0.0159094
937.424	0.0158651
937.503	0.0158643
937.581	0.0159793
937.659	0.0159476
937.737	0.0158986
937.815	0.0159000
937.893	0.0158138
937.971	0.0159558
938.049	0.0160164
938.128	0.0159594
938.206	0.0160979
938.284	0.0160779
938.362	0.0160598
938.440	0.0160777
938.518	0.0161965
938.596	0.0161398
938.674	0.0161375
938.753	0.0161906
938.831	0.0162353
938.909	0.0161966
938.987	0.0159791
939.065	0.0160699
939.143	0.0160772
939.221	0.0159275
939.299	0.0158913
939.378	0.0159054
939.456	0.0158556
939.534	0.0157661
939.612	0.0157387
939.690	0.0159846
939.768	0.0159629
939.846	0.0159356
939.924	0.0159555
940.003	0.0158463
940.081	0.0159670
940.159	0.0160131
940.237	0.0161599
940.315	0.0159892
940.393	0.0161012
940.471	0.0161491
940.549	0.0161553
940.628	0.0160159
940.706	0.0161380
940.784	0.0161984
940.862	0.0160661
940.940	0.0161025
941.018	0.0161716
941.096	0.0160596
941.174	0.0159940
941.253	0.0159282
941.331	0.0159539
941.409	0.0160336
941.487	0.0160781
941.565	0.0160922
941.643	0.0160423
941.721	0.0159786
941.799	0.0159692
941.878	0.0159917
941.956	0.0161005
942.034	0.0160448
942.112	0.0161633
942.190	0.0159943
942.268	0.0161129
942.346	0.0160756
942.424	0.0159617
942.503	0.0161459
942.581	0.0161279
942.659	0.0160906
942.737	0.0161951
942.815	0.0160059
942.893	0.0160015
942.971	0.0160093
943.049	0.0160419
943.128	0.0159119
943.206	0.0160413
943.284	0.0161389
943.362	0.0160806
943.440	0.0158301
943.518	0.0160359
943.596	0.0159483
943.674	0.0158456
943.753	0.0159844
943.831	0.0159311
943.909	0.0160601
943.987	0.0160165
944.065	0.0159702
944.143	0.0159937
944.221	0.0158174
944.299	0.0158705
944.378	0.0159229
944.456	0.0159939
944.534	0.0159375
944.612	0.0159936
944.690	0.0159261
944.768	0.0158884
944.846	0.0160197
944.924	0.0160859
945.003	0.0159808
945.081	0.0158674
945.159	0.0160027
945.237	0.0159357
945.315	0.0158984
945.393	0.0160133
945.471	0.0160461
945.549	0.0160338
945.628	0.0159350
945.706	0.0161288
945.784	0.0162468
945.862	0.0161131
945.940	0.0160929
946.018	0.0160901
946.096	0.0161915
946.174	0.0160263
946.253	0.0161928
946.331	0.0163286
946.409	0.0162652
946.487	0.0162733
946.565	0.0161955
946.643	0.0161505
946.721	0.0160835
946.799	0.0160982
946.878	0.0161203
946.956	0.0160799
947.034	0.0160050
947.112	0.0161113
947.190	0.0159537
947.268	0.0158622
947.346	0.0160664
947.424	0.0159177
947.503	0.0159837
947.581	0.0160023
947.659	0.0160679
947.737	0.0159021
947.815	0.0160857
947.893	0.0160307
947.971	0.0160488
948.049	0.0160495
948.128	0.0160222
948.206	0.0160323
948.284	0.0161417
948.362	0.0161373
948.440	0.0159665
948.518	0.0159319
948.596	0.0160303
948.674	0.0160904
948.753	0.0159805
948.831	0.0160044
948.909	0.0160290
948.987	0.0160132
949.065	0.0159184
949.143	0.0159476
949.221	0.0160352
949.299	0.0158961
949.378	0.0161195
949.456	0.0158929
949.534	0.0159646
949.612	0.0160675
949.690	0.0161152
949.768	0.0160400
949.846	0.0159560
949.924	0.0160678
