06/29/2022	22:55:25	Ver.	4.1	UNKNOWN
Optical Delay	630.002507	Delta X		0.078125	Sweeps	1	Scan Rate	0/0
Coordinates	Axis 1	NaN	Axis 2	NaN	Axis 3	NaN	Axis 4	NaN	Axis 5	NaN	Axis 6	0.000000
TX Power	0.000000	RX Power	0.000000

630.003	0.0160217
630.081	0.0159075
630.159	0.0160249
630.237	0.0159444
630.315	0.0159895
630.393	0.0161035
630.471	0.0158915
630.549	0.0160202
630.628	0.0160201
630.706	0.0159677
630.784	0.0161644
630.862	0.0160258
630.940	0.0160719
631.018	0.0159319
631.096	0.0160513
631.174	0.0159785
631.253	0.0160467
631.331	0.0159012
631.409	0.0160561
631.487	0.0159709
631.565	0.0160416
631.643	0.0160867
631.721	0.0160728
631.799	0.0160390
631.878	0.0160512
631.956	0.0160384
632.034	0.0159463
632.112	0.0161137
632.190	0.0161221
632.268	0.0159235
632.346	0.0159647
632.424	0.0160827
632.503	0.0160477
632.581	0.0160564
632.659	0.0161526
632.737	0.0159575
632.815	0.0159703
632.893	0.0159151
632.971	0.0160502
633.049	0.0161409
633.128	0.0159019
633.206	0.0161067
633.284	0.0160563
633.362	0.0159287
633.440	0.0159730
633.518	0.0160252
633.596	0.0159151
633.674	0.0158766
633.753	0.0161716
633.831	0.0161436
633.909	0.0159438
633.987	0.0160227
634.065	0.0160574
634.143	0.0159920
634.221	0.0160291
634.299	0.0161564
634.378	0.0161622
634.456	0.0160420
634.534	0.0160414
634.612	0.0160322
634.690	0.0159679
634.768	0.0160577
634.846	0.0159856
634.924	0.0160884
635.003	0.0160490
635.081	0.0159309
635.159	0.0160551
635.237	0.0161344
635.315	0.0159694
635.393	0.0160321
635.471	0.0159893
635.549	0.0160486
635.628	0.0159669
635.706	0.0159640
635.784	0.0160428
635.862	0.0161025
635.940	0.0160090
636.018	0.0160980
636.096	0.0159482
636.174	0.0160455
636.253	0.0160809
636.331	0.0161307
636.409	0.0160168
636.487	0.0161013
636.565	0.0160544
636.643	0.0159996
636.721	0.0159828
636.799	0.0160035
636.878	0.0158517
636.956	0.0159734
637.034	0.0159220
637.112	0.0160658
637.190	0.0160606
637.268	0.0160688
637.346	0.0160238
637.424	0.0160217
637.503	0.0160704
637.581	0.0160370
637.659	0.0160918
637.737	0.0160506
637.815	0.0159978
637.893	0.0159676
637.971	0.0160316
638.049	0.0160641
638.128	0.0160326
638.206	0.0160934
638.284	0.0159545
638.362	0.0160546
638.440	0.0160420
638.518	0.0160317
638.596	0.0160793
638.674	0.0159803
638.753	0.0159497
638.831	0.0160228
638.909	0.0160590
638.987	0.0159573
639.065	0.0159224
639.143	0.0160579
639.221	0.0160915
639.299	0.0160353
639.378	0.0160216
639.456	0.0159743
639.534	0.0160642
639.612	0.0159917
639.690	0.0160685
639.768	0.0160265
639.846	0.0160062
639.924	0.0160159
640.003	0.0161254
640.081	0.0161176
640.159	0.0159113
640.237	0.0161193
640.315	0.0160110
640.393	0.0159837
640.471	0.0159216
640.549	0.0161365
640.628	0.0161196
640.706	0.0160280
640.784	0.0159914
640.862	0.0159987
640.940	0.0161074
641.018	0.0160825
641.096	0.0160444
641.174	0.0161180
641.253	0.0160368
641.331	0.0161684
641.409	0.0160197
641.487	0.0160388
641.565	0.0159657
641.643	0.0158572
641.721	0.0159756
641.799	0.0160455
641.878	0.0160191
641.956	0.0159547
642.034	0.0160227
642.112	0.0160812
642.190	0.0158928
642.268	0.0159372
642.346	0.0160287
642.424	0.0159631
642.503	0.0160383
642.581	0.0162400
642.659	0.0159642
642.737	0.0160292
642.815	0.0159190
642.893	0.0160045
642.971	0.0160162
643.049	0.0161118
643.128	0.0160968
643.206	0.0159815
643.284	0.0160941
643.362	0.0159831
643.440	0.0161182
643.518	0.0160798
643.596	0.0160039
643.674	0.0160388
643.753	0.0160260
643.831	0.0159743
643.909	0.0160246
643.987	0.0161323
644.065	0.0161555
644.143	0.0160404
644.221	0.0160175
644.299	0.0159959
644.378	0.0160365
644.456	0.0160128
644.534	0.0159991
644.612	0.0160393
644.690	0.0159750
644.768	0.0160873
644.846	0.0162138
644.924	0.0160697
645.003	0.0159716
645.081	0.0158439
645.159	0.0160155
645.237	0.0160573
645.315	0.0160432
645.393	0.0159009
645.471	0.0158645
645.549	0.0161550
645.628	0.0160987
645.706	0.0160787
645.784	0.0159762
645.862	0.0160148
645.940	0.0159443
646.018	0.0159796
646.096	0.0161484
646.174	0.0160227
646.253	0.0159880
646.331	0.0159010
646.409	0.0160499
646.487	0.0161323
646.565	0.0160389
646.643	0.0161465
646.721	0.0160085
646.799	0.0159710
646.878	0.0160799
646.956	0.0159722
647.034	0.0160236
647.112	0.0159633
647.190	0.0160018
647.268	0.0160122
647.346	0.0159216
647.424	0.0160863
647.503	0.0160493
647.581	0.0159917
647.659	0.0161136
647.737	0.0159262
647.815	0.0159839
647.893	0.0160021
647.971	0.0160544
648.049	0.0159348
648.128	0.0160632
648.206	0.0160629
648.284	0.0160708
648.362	0.0160207
648.440	0.0160923
648.518	0.0160592
648.596	0.0161810
648.674	0.0161653
648.753	0.0160274
648.831	0.0160726
648.909	0.0159672
648.987	0.0161970
649.065	0.0161141
649.143	0.0159871
649.221	0.0160833
649.299	0.0161710
649.378	0.0159530
649.456	0.0160030
649.534	0.0160751
649.612	0.0158462
649.690	0.0160307
649.768	0.0159708
649.846	0.0160293
649.924	0.0160138
650.003	0.0160430
650.081	0.0159976
650.159	0.0160307
650.237	0.0160159
650.315	0.0160529
650.393	0.0160516
650.471	0.0161014
650.549	0.0160481
650.628	0.0161664
650.706	0.0160371
650.784	0.0160393
650.862	0.0161156
650.940	0.0161176
651.018	0.0161233
651.096	0.0159798
651.174	0.0158424
651.253	0.0159807
651.331	0.0161782
651.409	0.0159138
651.487	0.0159276
651.565	0.0160757
651.643	0.0160753
651.721	0.0159944
651.799	0.0160832
651.878	0.0159180
651.956	0.0159619
652.034	0.0160439
652.112	0.0159990
652.190	0.0160524
652.268	0.0159619
652.346	0.0161124
652.424	0.0160213
652.503	0.0159735
652.581	0.0160392
652.659	0.0161395
652.737	0.0161575
652.815	0.0160796
652.893	0.0160005
652.971	0.0159921
653.049	0.0159954
653.128	0.0159937
653.206	0.0161425
653.284	0.0161073
653.362	0.0161373
653.440	0.0158672
653.518	0.0160201
653.596	0.0160191
653.674	0.0160509
653.753	0.0160386
653.831	0.0162091
653.909	0.0161222
653.987	0.0159583
654.065	0.0160750
654.143	0.0160223
654.221	0.0159150
654.299	0.0159723
654.378	0.0160236
654.456	0.0161482
654.534	0.0161526
654.612	0.0160736
654.690	0.0161095
654.768	0.0160091
654.846	0.0159981
654.924	0.0161044
655.003	0.0160522
655.081	0.0160661
655.159	0.0160577
655.237	0.0160296
655.315	0.0159025
655.393	0.0160915
655.471	0.0161055
655.549	0.0160728
655.628	0.0161440
655.706	0.0160871
655.784	0.0160809
655.862	0.0161143
655.940	0.0159457
656.018	0.0159904
656.096	0.0160321
656.174	0.0160921
656.253	0.0159179
656.331	0.0161415
656.409	0.0160634
656.487	0.0160720
656.565	0.0160236
656.643	0.0158855
656.721	0.0161231
656.799	0.0159943
656.878	0.0159161
656.956	0.0159448
657.034	0.0160349
657.112	0.0160928
657.190	0.0160371
657.268	0.0160432
657.346	0.0159434
657.424	0.0159380
657.503	0.0159390
657.581	0.0160895
657.659	0.0160098
657.737	0.0160992
657.815	0.0159155
657.893	0.0160291
657.971	0.0159313
658.049	0.0160735
658.128	0.0161240
658.206	0.0160014
658.284	0.0161208
658.362	0.0159938
658.440	0.0159088
658.518	0.0158594
658.596	0.0159934
658.674	0.0159021
658.753	0.0162246
658.831	0.0160087
658.909	0.0160385
658.987	0.0161147
659.065	0.0159837
659.143	0.0160637
659.221	0.0160403
659.299	0.0160680
659.378	0.0161059
659.456	0.0160878
659.534	0.0160472
659.612	0.0161458
659.690	0.0160950
659.768	0.0160511
659.846	0.0160880
659.924	0.0159877
660.003	0.0160480
660.081	0.0161437
660.159	0.0159568
660.237	0.0160838
660.315	0.0161136
660.393	0.0160519
660.471	0.0160785
660.549	0.0160444
660.628	0.0160926
660.706	0.0160841
660.784	0.0160145
660.862	0.0160566
660.940	0.0160348
661.018	0.0159769
661.096	0.0160913
661.174	0.0159972
661.253	0.0160011
661.331	0.0160309
661.409	0.0159570
661.487	0.0160870
661.565	0.0160682
661.643	0.0160699
661.721	0.0160187
661.799	0.0160141
661.878	0.0159376
661.956	0.0160704
662.034	0.0161951
662.112	0.0159595
662.190	0.0159498
662.268	0.0160513
662.346	0.0160771
662.424	0.0160580
662.503	0.0161059
662.581	0.0159524
662.659	0.0158814
662.737	0.0159638
662.815	0.0160270
662.893	0.0160896
662.971	0.0159978
663.049	0.0160332
663.128	0.0159808
663.206	0.0160714
663.284	0.0161681
663.362	0.0159872
663.440	0.0160030
663.518	0.0160728
663.596	0.0160660
663.674	0.0160316
663.753	0.0160204
663.831	0.0160464
663.909	0.0159721
663.987	0.0159903
664.065	0.0160789
664.143	0.0161075
664.221	0.0158875
664.299	0.0160328
664.378	0.0160361
664.456	0.0160749
664.534	0.0159612
664.612	0.0160443
664.690	0.0160477
664.768	0.0160891
664.846	0.0159938
664.924	0.0159951
665.003	0.0160275
665.081	0.0159319
665.159	0.0160159
665.237	0.0161243
665.315	0.0159984
665.393	0.0160350
665.471	0.0160671
665.549	0.0159467
665.628	0.0159196
665.706	0.0160387
665.784	0.0159693
665.862	0.0160074
665.940	0.0160778
666.018	0.0159636
666.096	0.0160640
666.174	0.0160462
666.253	0.0160397
666.331	0.0161118
666.409	0.0161288
666.487	0.0160682
666.565	0.0159217
666.643	0.0159264
666.721	0.0159742
666.799	0.0159338
666.878	0.0160094
666.956	0.0161231
667.034	0.0162268
667.112	0.0161314
667.190	0.0158654
667.268	0.0160435
667.346	0.0160524
667.424	0.0161231
667.503	0.0159840
667.581	0.0160170
667.659	0.0160538
667.737	0.0161036
667.815	0.0159964
667.893	0.0158826
667.971	0.0160566
668.049	0.0161127
668.128	0.0159450
668.206	0.0160994
668.284	0.0160036
668.362	0.0161015
668.440	0.0160007
668.518	0.0159511
668.596	0.0161285
668.674	0.0160580
668.753	0.0161237
668.831	0.0161392
668.909	0.0161355
668.987	0.0159273
669.065	0.0159480
669.143	0.0160812
669.221	0.0162058
669.299	0.0160073
669.378	0.0158723
669.456	0.0160503
669.534	0.0160863
669.612	0.0160503
669.690	0.0159727
669.768	0.0160853
669.846	0.0162168
669.924	0.0160551
670.003	0.0160278
670.081	0.0161594
670.159	0.0159637
670.237	0.0160352
670.315	0.0160821
670.393	0.0161051
670.471	0.0160563
670.549	0.0159695
670.628	0.0160252
670.706	0.0161739
670.784	0.0160114
670.862	0.0160623
670.940	0.0160030
671.018	0.0160670
671.096	0.0159965
671.174	0.0160077
671.253	0.0159605
671.331	0.0159482
671.409	0.0159987
671.487	0.0160680
671.565	0.0159761
671.643	0.0160270
671.721	0.0159916
671.799	0.0160300
671.878	0.0160240
671.956	0.0160276
672.034	0.0160825
672.112	0.0160860
672.190	0.0159232
672.268	0.0161814
672.346	0.0160989
672.424	0.0160238
672.503	0.0160114
672.581	0.0161005
672.659	0.0160592
672.737	0.0159917
672.815	0.0161224
672.893	0.0160286
672.971	0.0160040
673.049	0.0160828
673.128	0.0159831
673.206	0.0160737
673.284	0.0159330
673.362	0.0159383
673.440	0.0160649
673.518	0.0159116
673.596	0.0159599
673.674	0.0161089
673.753	0.0160797
673.831	0.0158991
673.909	0.0158853
673.987	0.0160823
674.065	0.0161537
674.143	0.0160338
674.221	0.0159119
674.299	0.0160112
674.378	0.0161427
674.456	0.0160728
674.534	0.0160462
674.612	0.0160543
674.690	0.0159396
674.768	0.0159406
674.846	0.0161005
674.924	0.0160121
675.003	0.0159469
675.081	0.0161156
675.159	0.0160616
675.237	0.0159975
675.315	0.0159940
675.393	0.0159692
675.471	0.0161063
675.549	0.0159731
675.628	0.0159856
675.706	0.0160365
675.784	0.0159906
675.862	0.0159404
675.940	0.0160754
676.018	0.0159583
676.096	0.0160774
676.174	0.0158618
676.253	0.0158653
676.331	0.0159900
676.409	0.0160315
676.487	0.0160180
676.565	0.0159963
676.643	0.0159291
676.721	0.0160873
676.799	0.0160622
676.878	0.0159518
676.956	0.0161754
677.034	0.0159804
677.112	0.0159386
677.190	0.0161446
677.268	0.0159159
677.346	0.0159869
677.424	0.0160477
677.503	0.0160915
677.581	0.0159992
677.659	0.0159710
677.737	0.0159770
677.815	0.0159642
677.893	0.0159764
677.971	0.0160089
678.049	0.0159783
678.128	0.0161116
678.206	0.0159674
678.284	0.0160587
678.362	0.0159704
678.440	0.0161182
678.518	0.0159991
678.596	0.0160748
678.674	0.0161243
678.753	0.0160188
678.831	0.0160151
678.909	0.0160542
678.987	0.0160687
679.065	0.0158643
679.143	0.0161079
679.221	0.0159388
679.299	0.0159406
679.378	0.0161669
679.456	0.0160947
679.534	0.0159795
679.612	0.0160343
679.690	0.0159757
679.768	0.0160080
679.846	0.0161154
679.924	0.0160768
680.003	0.0161025
680.081	0.0160582
680.159	0.0159837
680.237	0.0160894
680.315	0.0160435
680.393	0.0160036
680.471	0.0161617
680.549	0.0160410
680.628	0.0160675
680.706	0.0160300
680.784	0.0160955
680.862	0.0161588
680.940	0.0159946
681.018	0.0159715
681.096	0.0159885
681.174	0.0160004
681.253	0.0160343
681.331	0.0159015
681.409	0.0161483
681.487	0.0159784
681.565	0.0161084
681.643	0.0159880
681.721	0.0159774
681.799	0.0159769
681.878	0.0160148
681.956	0.0160959
682.034	0.0161372
682.112	0.0160522
682.190	0.0160555
682.268	0.0160342
682.346	0.0160707
682.424	0.0160518
682.503	0.0160500
682.581	0.0160421
682.659	0.0161277
682.737	0.0158105
682.815	0.0159167
682.893	0.0159412
682.971	0.0158892
683.049	0.0159481
683.128	0.0160754
683.206	0.0160776
683.284	0.0159556
683.362	0.0159609
683.440	0.0159528
683.518	0.0161084
683.596	0.0159058
683.674	0.0160773
683.753	0.0160886
683.831	0.0159401
683.909	0.0160172
683.987	0.0160873
684.065	0.0161314
684.143	0.0161820
684.221	0.0159732
684.299	0.0160805
684.378	0.0160619
684.456	0.0161290
684.534	0.0160246
684.612	0.0158610
684.690	0.0159673
684.768	0.0161116
684.846	0.0161633
684.924	0.0161269
685.003	0.0159271
685.081	0.0160342
685.159	0.0159663
685.237	0.0161275
685.315	0.0160892
685.393	0.0160282
685.471	0.0159486
685.549	0.0160104
685.628	0.0161443
685.706	0.0160429
685.784	0.0159289
685.862	0.0159937
685.940	0.0161035
686.018	0.0160786
686.096	0.0161125
686.174	0.0160878
686.253	0.0160503
686.331	0.0159753
686.409	0.0158285
686.487	0.0161682
686.565	0.0161938
686.643	0.0161043
686.721	0.0160471
686.799	0.0160823
686.878	0.0161076
686.956	0.0160921
687.034	0.0159609
687.112	0.0159423
687.190	0.0162282
687.268	0.0159707
687.346	0.0159915
687.424	0.0160051
687.503	0.0160828
687.581	0.0160651
687.659	0.0160821
687.737	0.0161346
687.815	0.0159279
687.893	0.0159663
687.971	0.0161652
688.049	0.0160531
688.128	0.0161315
688.206	0.0160152
688.284	0.0157848
688.362	0.0159274
688.440	0.0159149
688.518	0.0159394
688.596	0.0161205
688.674	0.0159295
688.753	0.0157513
688.831	0.0159052
688.909	0.0161083
688.987	0.0160302
689.065	0.0159799
689.143	0.0160388
689.221	0.0160567
689.299	0.0159920
689.378	0.0161086
689.456	0.0160444
689.534	0.0160303
689.612	0.0160641
689.690	0.0160948
689.768	0.0160140
689.846	0.0161009
689.924	0.0160630
690.003	0.0159756
690.081	0.0159181
690.159	0.0159461
690.237	0.0161075
690.315	0.0161945
690.393	0.0160630
690.471	0.0159416
690.549	0.0160249
690.628	0.0160220
690.706	0.0159824
690.784	0.0159579
690.862	0.0161017
690.940	0.0160170
691.018	0.0160123
691.096	0.0159852
691.174	0.0159956
691.253	0.0161598
691.331	0.0161022
691.409	0.0160475
691.487	0.0160678
691.565	0.0159860
691.643	0.0159550
691.721	0.0160137
691.799	0.0159703
691.878	0.0160632
691.956	0.0160641
692.034	0.0161194
692.112	0.0159485
692.190	0.0159745
692.268	0.0160758
692.346	0.0159785
692.424	0.0161378
692.503	0.0160867
692.581	0.0160717
692.659	0.0161732
692.737	0.0162036
692.815	0.0160101
692.893	0.0160766
692.971	0.0159433
693.049	0.0159026
693.128	0.0160143
693.206	0.0160590
693.284	0.0161777
693.362	0.0159740
693.440	0.0159031
693.518	0.0161440
693.596	0.0161034
693.674	0.0161434
693.753	0.0159992
693.831	0.0159835
693.909	0.0161485
693.987	0.0160541
694.065	0.0160068
694.143	0.0160392
694.221	0.0159249
694.299	0.0158791
694.378	0.0160924
694.456	0.0160755
694.534	0.0159637
694.612	0.0160457
694.690	0.0160947
694.768	0.0160108
694.846	0.0158915
694.924	0.0159040
695.003	0.0160752
695.081	0.0160696
695.159	0.0159811
695.237	0.0159695
695.315	0.0160083
695.393	0.0159457
695.471	0.0161132
695.549	0.0160038
695.628	0.0160341
695.706	0.0160110
695.784	0.0158855
695.862	0.0159015
695.940	0.0159267
696.018	0.0160924
696.096	0.0159782
696.174	0.0159669
696.253	0.0159305
696.331	0.0159812
696.409	0.0159576
696.487	0.0160340
696.565	0.0159307
696.643	0.0161092
696.721	0.0162627
696.799	0.0160405
696.878	0.0160407
696.956	0.0161321
697.034	0.0160809
697.112	0.0160597
697.190	0.0160696
697.268	0.0160299
697.346	0.0160191
697.424	0.0159021
697.503	0.0162579
697.581	0.0161660
697.659	0.0160825
697.737	0.0161520
697.815	0.0161075
697.893	0.0161884
697.971	0.0161071
698.049	0.0161861
698.128	0.0161502
698.206	0.0162572
698.284	0.0160727
698.362	0.0161752
698.440	0.0161472
698.518	0.0160596
698.596	0.0159901
698.674	0.0159540
698.753	0.0157887
698.831	0.0160677
698.909	0.0159971
698.987	0.0159650
699.065	0.0159089
699.143	0.0160168
699.221	0.0160867
699.299	0.0161318
699.378	0.0159912
699.456	0.0161644
699.534	0.0160452
699.612	0.0160095
699.690	0.0159340
699.768	0.0158833
699.846	0.0159039
699.924	0.0158402
700.003	0.0158404
700.081	0.0159857
700.159	0.0159118
700.237	0.0159240
700.315	0.0157799
700.393	0.0159359
700.471	0.0159238
700.549	0.0158700
700.628	0.0159437
700.706	0.0160608
700.784	0.0160731
700.862	0.0160375
700.940	0.0161946
701.018	0.0161990
701.096	0.0161105
701.174	0.0161823
701.253	0.0161789
701.331	0.0162215
701.409	0.0161957
701.487	0.0163039
701.565	0.0162035
701.643	0.0160207
701.721	0.0160634
701.799	0.0158238
701.878	0.0157635
701.956	0.0157614
702.034	0.0156898
702.112	0.0155146
702.190	0.0156255
702.268	0.0157854
702.346	0.0159372
702.424	0.0160995
702.503	0.0163017
702.581	0.0163588
702.659	0.0164677
702.737	0.0164826
702.815	0.0164332
702.893	0.0164128
702.971	0.0162694
703.049	0.0161164
703.128	0.0161195
703.206	0.0159490
703.284	0.0157330
703.362	0.0156850
703.440	0.0156463
703.518	0.0156062
703.596	0.0155915
703.674	0.0157410
703.753	0.0157342
703.831	0.0159373
703.909	0.0159138
703.987	0.0161180
704.065	0.0164213
704.143	0.0165054
704.221	0.0165343
704.299	0.0164046
704.378	0.0164503
704.456	0.0164720
704.534	0.0165257
704.612	0.0163781
704.690	0.0162559
704.768	0.0161620
704.846	0.0160618
704.924	0.0158376
705.003	0.0157706
705.081	0.0157550
705.159	0.0155877
705.237	0.0155830
705.315	0.0155987
705.393	0.0157072
705.471	0.0156361
705.549	0.0157787
705.628	0.0160050
705.706	0.0160796
705.784	0.0163835
705.862	0.0165404
705.940	0.0164839
706.018	0.0165508
706.096	0.0166792
706.174	0.0166566
706.253	0.0164102
706.331	0.0163605
706.409	0.0160853
706.487	0.0160443
706.565	0.0158090
706.643	0.0158162
706.721	0.0157729
706.799	0.0155820
706.878	0.0155734
706.956	0.0156062
707.034	0.0156817
707.112	0.0157632
707.190	0.0158590
707.268	0.0160207
707.346	0.0161003
707.424	0.0161066
707.503	0.0161384
707.581	0.0161900
707.659	0.0162364
707.737	0.0162771
707.815	0.0162802
707.893	0.0163173
707.971	0.0162949
708.049	0.0164605
708.128	0.0162193
708.206	0.0163254
708.284	0.0164383
708.362	0.0162996
708.440	0.0161458
708.518	0.0159720
708.596	0.0159695
708.674	0.0158324
708.753	0.0157342
708.831	0.0156403
708.909	0.0155513
708.987	0.0156252
709.065	0.0158148
709.143	0.0158641
709.221	0.0158832
709.299	0.0159850
709.378	0.0160873
709.456	0.0164199
709.534	0.0165607
709.612	0.0167041
709.690	0.0165092
709.768	0.0165300
709.846	0.0165823
709.924	0.0164011
710.003	0.0163474
710.081	0.0161697
710.159	0.0158678
710.237	0.0158480
710.315	0.0156927
710.393	0.0154666
710.471	0.0155178
710.549	0.0155696
710.628	0.0154061
710.706	0.0154616
710.784	0.0155992
710.862	0.0157853
710.940	0.0159077
711.018	0.0158582
711.096	0.0161343
711.174	0.0161805
711.253	0.0162275
711.331	0.0163718
711.409	0.0164369
711.487	0.0164446
711.565	0.0165127
711.643	0.0164678
711.721	0.0163913
711.799	0.0164424
711.878	0.0163161
711.956	0.0161927
712.034	0.0161155
712.112	0.0159234
712.190	0.0160072
712.268	0.0157968
712.346	0.0156101
712.424	0.0155656
712.503	0.0155678
712.581	0.0156219
712.659	0.0156068
712.737	0.0157761
712.815	0.0159446
712.893	0.0159924
712.971	0.0159880
713.049	0.0159798
713.128	0.0160253
713.206	0.0159785
713.284	0.0161037
713.362	0.0162782
713.440	0.0161707
713.518	0.0161522
713.596	0.0161720
713.674	0.0164145
713.753	0.0162240
713.831	0.0162410
713.909	0.0162741
713.987	0.0162512
714.065	0.0160163
714.143	0.0158734
714.221	0.0158485
714.299	0.0156633
714.378	0.0156668
714.456	0.0155161
714.534	0.0155170
714.612	0.0153219
714.690	0.0154065
714.768	0.0154646
714.846	0.0157248
714.924	0.0159434
715.003	0.0160677
715.081	0.0161561
715.159	0.0162707
715.237	0.0164913
715.315	0.0165652
715.393	0.0165835
715.471	0.0165674
715.549	0.0165285
715.628	0.0163895
715.706	0.0164896
715.784	0.0161998
715.862	0.0160975
715.940	0.0159445
716.018	0.0158019
716.096	0.0157298
716.174	0.0156134
716.253	0.0155405
716.331	0.0155815
716.409	0.0158065
716.487	0.0157636
716.565	0.0160269
716.643	0.0162816
716.721	0.0164601
716.799	0.0165552
716.878	0.0164675
716.956	0.0165774
717.034	0.0164919
717.112	0.0163377
717.190	0.0162747
717.268	0.0160464
717.346	0.0156946
717.424	0.0154883
717.503	0.0152264
717.581	0.0150722
717.659	0.0149806
717.737	0.0150683
717.815	0.0150866
717.893	0.0151971
717.971	0.0153143
718.049	0.0154302
718.128	0.0157652
718.206	0.0159850
718.284	0.0163377
718.362	0.0164163
718.440	0.0166010
718.518	0.0167392
718.596	0.0165641
718.674	0.0165756
718.753	0.0166110
718.831	0.0164644
718.909	0.0162646
718.987	0.0162045
719.065	0.0159603
719.143	0.0157751
719.221	0.0157555
719.299	0.0157051
719.378	0.0157793
719.456	0.0157784
719.534	0.0158645
719.612	0.0159425
719.690	0.0162594
719.768	0.0164513
719.846	0.0165089
719.924	0.0168349
720.003	0.0170815
720.081	0.0170969
720.159	0.0169965
720.237	0.0169747
720.315	0.0167977
720.393	0.0167923
720.471	0.0165406
720.549	0.0162136
720.628	0.0159493
720.706	0.0157430
720.784	0.0155676
720.862	0.0154399
720.940	0.0152874
721.018	0.0152007
721.096	0.0151730
721.174	0.0150913
721.253	0.0152888
721.331	0.0154125
721.409	0.0153646
721.487	0.0152486
721.565	0.0155354
721.643	0.0155355
721.721	0.0155669
721.799	0.0158095
721.878	0.0157131
721.956	0.0157940
722.034	0.0157814
722.112	0.0161401
722.190	0.0162485
722.268	0.0162278
722.346	0.0164101
722.424	0.0166352
722.503	0.0165235
722.581	0.0166518
722.659	0.0167648
722.737	0.0166921
722.815	0.0165626
722.893	0.0163969
722.971	0.0162234
723.049	0.0162959
723.128	0.0161913
723.206	0.0160637
723.284	0.0160506
723.362	0.0159554
723.440	0.0162312
723.518	0.0161565
723.596	0.0161662
723.674	0.0162962
723.753	0.0163422
723.831	0.0163414
723.909	0.0162816
723.987	0.0160490
724.065	0.0158738
724.143	0.0157000
724.221	0.0155276
724.299	0.0153131
724.378	0.0150243
724.456	0.0147276
724.534	0.0147351
724.612	0.0145823
724.690	0.0145390
724.768	0.0148866
724.846	0.0149273
724.924	0.0153271
725.003	0.0155975
725.081	0.0158921
725.159	0.0162603
725.237	0.0168501
725.315	0.0171960
725.393	0.0176138
725.471	0.0178867
725.549	0.0181283
725.628	0.0181516
725.706	0.0181419
725.784	0.0180122
725.862	0.0177857
725.940	0.0176039
726.018	0.0175316
726.096	0.0170184
726.174	0.0167281
726.253	0.0164106
726.331	0.0160215
726.409	0.0155943
726.487	0.0155525
726.565	0.0151765
726.643	0.0150497
726.721	0.0148939
726.799	0.0146311
726.878	0.0145301
726.956	0.0144621
727.034	0.0144827
727.112	0.0144365
727.190	0.0144367
727.268	0.0144460
727.346	0.0146934
727.424	0.0148178
727.503	0.0148927
727.581	0.0150687
727.659	0.0151051
727.737	0.0152925
727.815	0.0155431
727.893	0.0155756
727.971	0.0156532
728.049	0.0156783
728.128	0.0158816
728.206	0.0158253
728.284	0.0160142
728.362	0.0162084
728.440	0.0163551
728.518	0.0165604
728.596	0.0167490
728.674	0.0169999
728.753	0.0171764
728.831	0.0171906
728.909	0.0172454
728.987	0.0173021
729.065	0.0172764
729.143	0.0173253
729.221	0.0171970
729.299	0.0171920
729.378	0.0170627
729.456	0.0170998
729.534	0.0170701
729.612	0.0170459
729.690	0.0170057
729.768	0.0170536
729.846	0.0170905
729.924	0.0169173
730.003	0.0168462
730.081	0.0167097
730.159	0.0166201
730.237	0.0163714
730.315	0.0162443
730.393	0.0161456
730.471	0.0159745
730.549	0.0156763
730.628	0.0155758
730.706	0.0154480
730.784	0.0153587
730.862	0.0154338
730.940	0.0153642
731.018	0.0154174
731.096	0.0154813
731.174	0.0155542
731.253	0.0155412
731.331	0.0156155
731.409	0.0156838
731.487	0.0155868
731.565	0.0154959
731.643	0.0154712
731.721	0.0154230
731.799	0.0152973
731.878	0.0150184
731.956	0.0149525
732.034	0.0147742
732.112	0.0147438
732.190	0.0147512
732.268	0.0147201
732.346	0.0147285
732.424	0.0147604
732.503	0.0146357
732.581	0.0147810
732.659	0.0150958
732.737	0.0151107
732.815	0.0153011
732.893	0.0155280
732.971	0.0155956
733.049	0.0158824
733.128	0.0160890
733.206	0.0159847
733.284	0.0162143
733.362	0.0163972
733.440	0.0165144
733.518	0.0167907
733.596	0.0167874
733.674	0.0169913
733.753	0.0171822
733.831	0.0172812
733.909	0.0172372
733.987	0.0173280
734.065	0.0174268
734.143	0.0174397
734.221	0.0173477
734.299	0.0174000
734.378	0.0174706
734.456	0.0174334
734.534	0.0174570
734.612	0.0173314
734.690	0.0173274
734.768	0.0173291
734.846	0.0172995
734.924	0.0171555
735.003	0.0171172
735.081	0.0172060
735.159	0.0172075
735.237	0.0170401
735.315	0.0168577
735.393	0.0168317
735.471	0.0166490
735.549	0.0164989
735.628	0.0163042
735.706	0.0161362
735.784	0.0160287
735.862	0.0159448
735.940	0.0156269
736.018	0.0151796
736.096	0.0151428
736.174	0.0150425
736.253	0.0145358
736.331	0.0144965
736.409	0.0141779
736.487	0.0139935
736.565	0.0137154
736.643	0.0134499
736.721	0.0132272
736.799	0.0129604
736.878	0.0128252
736.956	0.0127986
737.034	0.0130001
737.112	0.0128628
737.190	0.0130904
737.268	0.0134584
737.346	0.0137843
737.424	0.0142578
737.503	0.0146192
737.581	0.0152686
737.659	0.0157537
737.737	0.0161594
737.815	0.0167467
737.893	0.0171337
737.971	0.0174432
738.049	0.0177910
738.128	0.0179659
738.206	0.0179250
738.284	0.0181533
738.362	0.0181710
738.440	0.0181497
738.518	0.0181561
738.596	0.0182548
738.674	0.0181807
738.753	0.0180676
738.831	0.0176570
738.909	0.0178053
738.987	0.0179051
739.065	0.0175820
739.143	0.0175708
739.221	0.0174745
739.299	0.0171815
739.378	0.0171619
739.456	0.0171704
739.534	0.0167615
739.612	0.0166788
739.690	0.0166581
739.768	0.0165060
739.846	0.0162799
739.924	0.0162016
740.003	0.0160510
740.081	0.0160559
740.159	0.0158728
740.237	0.0158575
740.315	0.0158005
740.393	0.0157059
740.471	0.0156181
740.549	0.0155844
740.628	0.0156572
740.706	0.0156044
740.784	0.0156699
740.862	0.0156687
740.940	0.0156917
741.018	0.0156775
741.096	0.0156471
741.174	0.0153919
741.253	0.0153362
741.331	0.0152692
741.409	0.0149864
741.487	0.0147890
741.565	0.0142987
741.643	0.0140348
741.721	0.0137848
741.799	0.0138005
741.878	0.0136170
741.956	0.0136530
742.034	0.0136974
742.112	0.0134647
742.190	0.0137934
742.268	0.0141852
742.346	0.0143119
742.424	0.0144772
742.503	0.0148846
742.581	0.0152412
742.659	0.0155956
742.737	0.0159353
742.815	0.0162994
742.893	0.0167023
742.971	0.0170403
743.049	0.0172452
743.128	0.0175492
743.206	0.0176561
743.284	0.0177409
743.362	0.0177422
743.440	0.0177155
743.518	0.0177048
743.596	0.0176984
743.674	0.0175370
743.753	0.0173727
743.831	0.0173434
743.909	0.0172800
743.987	0.0171478
744.065	0.0171655
744.143	0.0172601
744.221	0.0173320
744.299	0.0171709
744.378	0.0173013
744.456	0.0172497
744.534	0.0171195
744.612	0.0171641
744.690	0.0170396
744.768	0.0169498
744.846	0.0167663
744.924	0.0167360
745.003	0.0165045
745.081	0.0163790
745.159	0.0161513
745.237	0.0160839
745.315	0.0159610
745.393	0.0159092
745.471	0.0158053
745.549	0.0157132
745.628	0.0156671
745.706	0.0156687
745.784	0.0159586
745.862	0.0159182
745.940	0.0159119
746.018	0.0160625
746.096	0.0159746
746.174	0.0158813
746.253	0.0159292
746.331	0.0157317
746.409	0.0155196
746.487	0.0153949
746.565	0.0150388
746.643	0.0145960
746.721	0.0142761
746.799	0.0139595
746.878	0.0133757
746.956	0.0130917
747.034	0.0130650
747.112	0.0130164
747.190	0.0130127
747.268	0.0131098
747.346	0.0134815
747.424	0.0137656
747.503	0.0139774
747.581	0.0145477
747.659	0.0150486
747.737	0.0155948
747.815	0.0161696
747.893	0.0165594
747.971	0.0169344
748.049	0.0172728
748.128	0.0175694
748.206	0.0177139
748.284	0.0179633
748.362	0.0179643
748.440	0.0177639
748.518	0.0177842
748.596	0.0175504
748.674	0.0173036
748.753	0.0171812
748.831	0.0169597
748.909	0.0167785
748.987	0.0167156
749.065	0.0166446
749.143	0.0165560
749.221	0.0166357
749.299	0.0167912
749.378	0.0169153
749.456	0.0170444
749.534	0.0170889
749.612	0.0169932
749.690	0.0171604
749.768	0.0171352
749.846	0.0172031
749.924	0.0169424
750.003	0.0170615
750.081	0.0169814
750.159	0.0168024
750.237	0.0167812
750.315	0.0167087
750.393	0.0164741
750.471	0.0161978
750.549	0.0161205
750.628	0.0161283
750.706	0.0161756
750.784	0.0158128
750.862	0.0158868
750.940	0.0157625
751.018	0.0157357
751.096	0.0156632
751.174	0.0158080
751.253	0.0157078
751.331	0.0156757
751.409	0.0156122
751.487	0.0155457
751.565	0.0152995
751.643	0.0149182
751.721	0.0147534
751.799	0.0143929
751.878	0.0142702
751.956	0.0141203
752.034	0.0137821
752.112	0.0136382
752.190	0.0137101
752.268	0.0136757
752.346	0.0135242
752.424	0.0138763
752.503	0.0140437
752.581	0.0142440
752.659	0.0145573
752.737	0.0147314
752.815	0.0151093
752.893	0.0153457
752.971	0.0157468
753.049	0.0161010
753.128	0.0165146
753.206	0.0168262
753.284	0.0172413
753.362	0.0174082
753.440	0.0176347
753.518	0.0178227
753.596	0.0179205
753.674	0.0179503
753.753	0.0180128
753.831	0.0180756
753.909	0.0178519
753.987	0.0175481
754.065	0.0176270
754.143	0.0172658
754.221	0.0170106
754.299	0.0169278
754.378	0.0166453
754.456	0.0164151
754.534	0.0160870
754.612	0.0159886
754.690	0.0158094
754.768	0.0156666
754.846	0.0156300
754.924	0.0154682
755.003	0.0155239
755.081	0.0154741
755.159	0.0154475
755.237	0.0156334
755.315	0.0157658
755.393	0.0158676
755.471	0.0161224
755.549	0.0162755
755.628	0.0162973
755.706	0.0165136
755.784	0.0165362
755.862	0.0168393
755.940	0.0167817
756.018	0.0168494
756.096	0.0167986
756.174	0.0168870
756.253	0.0169689
756.331	0.0169579
756.409	0.0167819
756.487	0.0167052
756.565	0.0165336
756.643	0.0163569
756.721	0.0161197
756.799	0.0159132
756.878	0.0155483
756.956	0.0152107
757.034	0.0149265
757.112	0.0145611
757.190	0.0143263
757.268	0.0141765
757.346	0.0141116
757.424	0.0139248
757.503	0.0136697
757.581	0.0137108
757.659	0.0137405
757.737	0.0138979
757.815	0.0139048
757.893	0.0141076
757.971	0.0143156
758.049	0.0145247
758.128	0.0147031
758.206	0.0152692
758.284	0.0154892
758.362	0.0157568
758.440	0.0159558
758.518	0.0163799
758.596	0.0166589
758.674	0.0168795
758.753	0.0170686
758.831	0.0171838
758.909	0.0173799
758.987	0.0175453
759.065	0.0176733
759.143	0.0176835
759.221	0.0177403
759.299	0.0176749
759.378	0.0176045
759.456	0.0176405
759.534	0.0175188
759.612	0.0172443
759.690	0.0170520
759.768	0.0168523
759.846	0.0166412
759.924	0.0166029
760.003	0.0163903
760.081	0.0160509
760.159	0.0158727
760.237	0.0157003
760.315	0.0156696
760.393	0.0155341
760.471	0.0154704
760.549	0.0154170
760.628	0.0155241
760.706	0.0155054
760.784	0.0155658
760.862	0.0157391
760.940	0.0158147
761.018	0.0159546
761.096	0.0160008
761.174	0.0162653
761.253	0.0163537
761.331	0.0164620
761.409	0.0163956
761.487	0.0164405
761.565	0.0166080
761.643	0.0164581
761.721	0.0164104
761.799	0.0163319
761.878	0.0162614
761.956	0.0160053
762.034	0.0157323
762.112	0.0156532
762.190	0.0152530
762.268	0.0151408
762.346	0.0148905
762.424	0.0147641
762.503	0.0147784
762.581	0.0145419
762.659	0.0144561
762.737	0.0144690
762.815	0.0143875
762.893	0.0145575
762.971	0.0147520
763.049	0.0148224
763.128	0.0149052
763.206	0.0151021
763.284	0.0152325
763.362	0.0154143
763.440	0.0157250
763.518	0.0157981
763.596	0.0158489
763.674	0.0160780
763.753	0.0162788
763.831	0.0164015
763.909	0.0163955
763.987	0.0165464
764.065	0.0167522
764.143	0.0168517
764.221	0.0169683
764.299	0.0169964
764.378	0.0170217
764.456	0.0172035
764.534	0.0171902
764.612	0.0172127
764.690	0.0172786
764.768	0.0172370
764.846	0.0170343
764.924	0.0170596
765.003	0.0169807
765.081	0.0168668
765.159	0.0165522
765.237	0.0164207
765.315	0.0162339
765.393	0.0160310
765.471	0.0159362
765.549	0.0157633
765.628	0.0156925
765.706	0.0155998
765.784	0.0156140
765.862	0.0156091
765.940	0.0156717
766.018	0.0156712
766.096	0.0156754
766.174	0.0157418
766.253	0.0159750
766.331	0.0159652
766.409	0.0160893
766.487	0.0163299
766.565	0.0163538
766.643	0.0164567
766.721	0.0165021
766.799	0.0166425
766.878	0.0167015
766.956	0.0165935
767.034	0.0164557
767.112	0.0163004
767.190	0.0162587
767.268	0.0160962
767.346	0.0157894
767.424	0.0156216
767.503	0.0154322
767.581	0.0153131
767.659	0.0151266
767.737	0.0150983
767.815	0.0150968
767.893	0.0149371
767.971	0.0150697
768.049	0.0150224
768.128	0.0151471
768.206	0.0152438
768.284	0.0151540
768.362	0.0154005
768.440	0.0154090
768.518	0.0154977
768.596	0.0156947
768.674	0.0156207
768.753	0.0158292
768.831	0.0160934
768.909	0.0160487
768.987	0.0162320
769.065	0.0163419
769.143	0.0162255
769.221	0.0161768
769.299	0.0163988
769.378	0.0162891
769.456	0.0164862
769.534	0.0164845
769.612	0.0163264
769.690	0.0163068
769.768	0.0163703
769.846	0.0163145
769.924	0.0163577
770.003	0.0163462
770.081	0.0162576
770.159	0.0162296
770.237	0.0162811
770.315	0.0165490
770.393	0.0164972
770.471	0.0162924
770.549	0.0163133
770.628	0.0165141
770.706	0.0163027
770.784	0.0163435
770.862	0.0163004
770.940	0.0164185
771.018	0.0161429
771.096	0.0163665
771.174	0.0163262
771.253	0.0162614
771.331	0.0162914
771.409	0.0161963
771.487	0.0163109
771.565	0.0162325
771.643	0.0162533
771.721	0.0161483
771.799	0.0162859
771.878	0.0163227
771.956	0.0163651
772.034	0.0162128
772.112	0.0161887
772.190	0.0161323
772.268	0.0161214
772.346	0.0158682
772.424	0.0159542
772.503	0.0157625
772.581	0.0156612
772.659	0.0157040
772.737	0.0154925
772.815	0.0155708
772.893	0.0153404
772.971	0.0153104
773.049	0.0152111
773.128	0.0152886
773.206	0.0153038
773.284	0.0153547
773.362	0.0154575
773.440	0.0154452
773.518	0.0155833
773.596	0.0157867
773.674	0.0156389
773.753	0.0158488
773.831	0.0159068
773.909	0.0159531
773.987	0.0162412
774.065	0.0161710
774.143	0.0162299
774.221	0.0162495
774.299	0.0162759
774.378	0.0163438
774.456	0.0161423
774.534	0.0161292
774.612	0.0159908
774.690	0.0161204
774.768	0.0159871
774.846	0.0159718
774.924	0.0159998
775.003	0.0160210
775.081	0.0160890
775.159	0.0159061
775.237	0.0157670
775.315	0.0158404
775.393	0.0157158
775.471	0.0157726
775.549	0.0157729
775.628	0.0156747
775.706	0.0156309
775.784	0.0157829
775.862	0.0157188
775.940	0.0159306
776.018	0.0160461
776.096	0.0161063
776.174	0.0162617
776.253	0.0162299
776.331	0.0163226
776.409	0.0164430
776.487	0.0164828
776.565	0.0166608
776.643	0.0167110
776.721	0.0167724
776.799	0.0167448
776.878	0.0168844
776.956	0.0169048
777.034	0.0169550
777.112	0.0168938
777.190	0.0165624
777.268	0.0165846
777.346	0.0165575
777.424	0.0163943
777.503	0.0160622
777.581	0.0159252
777.659	0.0159265
777.737	0.0159517
777.815	0.0155553
777.893	0.0152960
777.971	0.0153059
778.049	0.0154755
778.128	0.0152219
778.206	0.0152677
778.284	0.0153179
778.362	0.0153233
778.440	0.0154875
778.518	0.0153854
778.596	0.0154506
778.674	0.0156659
778.753	0.0158313
778.831	0.0159399
778.909	0.0160892
778.987	0.0161678
779.065	0.0162649
779.143	0.0164140
779.221	0.0164051
779.299	0.0164972
779.378	0.0165047
779.456	0.0164706
779.534	0.0164191
779.612	0.0164265
779.690	0.0163654
779.768	0.0162664
779.846	0.0160960
779.924	0.0160233
780.003	0.0159586
780.081	0.0159569
780.159	0.0157507
780.237	0.0156533
780.315	0.0157166
780.393	0.0156483
780.471	0.0156063
780.549	0.0155426
780.628	0.0154613
780.706	0.0153402
780.784	0.0155846
780.862	0.0155235
780.940	0.0154130
781.018	0.0155177
781.096	0.0155566
781.174	0.0156065
781.253	0.0157070
781.331	0.0156966
781.409	0.0156739
781.487	0.0158669
781.565	0.0160134
781.643	0.0160049
781.721	0.0160780
781.799	0.0161794
781.878	0.0162717
781.956	0.0163448
782.034	0.0163486
782.112	0.0165693
782.190	0.0165816
782.268	0.0165516
782.346	0.0166394
782.424	0.0167937
782.503	0.0166504
782.581	0.0165661
782.659	0.0165240
782.737	0.0166668
782.815	0.0166599
782.893	0.0165498
782.971	0.0164397
783.049	0.0162574
783.128	0.0161605
783.206	0.0161852
783.284	0.0162404
783.362	0.0160603
783.440	0.0159010
783.518	0.0158590
783.596	0.0158301
783.674	0.0157825
783.753	0.0158342
783.831	0.0157813
783.909	0.0157711
783.987	0.0157217
784.065	0.0157721
784.143	0.0158100
784.221	0.0157341
784.299	0.0157733
784.378	0.0157315
784.456	0.0156895
784.534	0.0157954
784.612	0.0158975
784.690	0.0158617
784.768	0.0158387
784.846	0.0160036
784.924	0.0160040
785.003	0.0158337
785.081	0.0156634
785.159	0.0158981
785.237	0.0160278
785.315	0.0159856
785.393	0.0160043
785.471	0.0159771
785.549	0.0159059
785.628	0.0159011
785.706	0.0158451
785.784	0.0159365
785.862	0.0158231
785.940	0.0157524
786.018	0.0156510
786.096	0.0156911
786.174	0.0158309
786.253	0.0156350
786.331	0.0156445
786.409	0.0155168
786.487	0.0155846
786.565	0.0157229
786.643	0.0159063
786.721	0.0158437
786.799	0.0158119
786.878	0.0161572
786.956	0.0160623
787.034	0.0161460
787.112	0.0163186
787.190	0.0164507
787.268	0.0165102
787.346	0.0163961
787.424	0.0165904
787.503	0.0166916
787.581	0.0164522
787.659	0.0163445
787.737	0.0163706
787.815	0.0163625
787.893	0.0163418
787.971	0.0162012
788.049	0.0160893
788.128	0.0159921
788.206	0.0160594
788.284	0.0159290
788.362	0.0159144
788.440	0.0158043
788.518	0.0156461
788.596	0.0158192
788.674	0.0158435
788.753	0.0157402
788.831	0.0159029
788.909	0.0156979
788.987	0.0157484
789.065	0.0159199
789.143	0.0159789
789.221	0.0159678
789.299	0.0160860
789.378	0.0161872
789.456	0.0163044
789.534	0.0163804
789.612	0.0163840
789.690	0.0164335
789.768	0.0163363
789.846	0.0163198
789.924	0.0163585
790.003	0.0163742
790.081	0.0163366
790.159	0.0161504
790.237	0.0161328
790.315	0.0161626
790.393	0.0160249
790.471	0.0158587
790.549	0.0158551
790.628	0.0158146
790.706	0.0157658
790.784	0.0156889
790.862	0.0156513
790.940	0.0156253
791.018	0.0157285
791.096	0.0157185
791.174	0.0157203
791.253	0.0157271
791.331	0.0157545
791.409	0.0157869
791.487	0.0158389
791.565	0.0157969
791.643	0.0158235
791.721	0.0159399
791.799	0.0159234
791.878	0.0159213
791.956	0.0158839
792.034	0.0160050
792.112	0.0160002
792.190	0.0161232
792.268	0.0160918
792.346	0.0160123
792.424	0.0159939
792.503	0.0161966
792.581	0.0162412
792.659	0.0160062
792.737	0.0161849
792.815	0.0163629
792.893	0.0161688
792.971	0.0162144
793.049	0.0161005
793.128	0.0161512
793.206	0.0161345
793.284	0.0161385
793.362	0.0160865
793.440	0.0159921
793.518	0.0159930
793.596	0.0159652
793.674	0.0158894
793.753	0.0158328
793.831	0.0157507
793.909	0.0157258
793.987	0.0157404
794.065	0.0158563
794.143	0.0158648
794.221	0.0157865
794.299	0.0158942
794.378	0.0161103
794.456	0.0160039
794.534	0.0159930
794.612	0.0161752
794.690	0.0160842
794.768	0.0161232
794.846	0.0161581
794.924	0.0162336
795.003	0.0162611
795.081	0.0162888
795.159	0.0162515
795.237	0.0163137
795.315	0.0164135
795.393	0.0163224
795.471	0.0163646
795.549	0.0163104
795.628	0.0164007
795.706	0.0163592
795.784	0.0163940
795.862	0.0162708
795.940	0.0162325
796.018	0.0162644
796.096	0.0163018
796.174	0.0163058
796.253	0.0162920
796.331	0.0160736
796.409	0.0160413
796.487	0.0160207
796.565	0.0159669
796.643	0.0159275
796.721	0.0157437
796.799	0.0157891
796.878	0.0158135
796.956	0.0156876
797.034	0.0155642
797.112	0.0154678
797.190	0.0155547
797.268	0.0155933
797.346	0.0155042
797.424	0.0154671
797.503	0.0154549
797.581	0.0155454
797.659	0.0155131
797.737	0.0155986
797.815	0.0158188
797.893	0.0158762
797.971	0.0159138
798.049	0.0160056
798.128	0.0160394
798.206	0.0161581
798.284	0.0162692
798.362	0.0163118
798.440	0.0164661
798.518	0.0164464
798.596	0.0162817
798.674	0.0163730
798.753	0.0164375
798.831	0.0163531
798.909	0.0163017
798.987	0.0163976
799.065	0.0162347
799.143	0.0161303
799.221	0.0161381
799.299	0.0161757
799.378	0.0160089
799.456	0.0159055
799.534	0.0158808
799.612	0.0160268
799.690	0.0158492
799.768	0.0158300
799.846	0.0158832
799.924	0.0158006
800.003	0.0158398
800.081	0.0158705
800.159	0.0158154
800.237	0.0159570
800.315	0.0158009
800.393	0.0158330
800.471	0.0158220
800.549	0.0159235
800.628	0.0159937
800.706	0.0158836
800.784	0.0161119
800.862	0.0160502
800.940	0.0160194
801.018	0.0160300
801.096	0.0160249
801.174	0.0159868
801.253	0.0160181
801.331	0.0159135
801.409	0.0160960
801.487	0.0160628
801.565	0.0161139
801.643	0.0160772
801.721	0.0161507
801.799	0.0160767
801.878	0.0161253
801.956	0.0160419
802.034	0.0161603
802.112	0.0161763
802.190	0.0161754
802.268	0.0160738
802.346	0.0160925
802.424	0.0160987
802.503	0.0160055
802.581	0.0161668
802.659	0.0160449
802.737	0.0161785
802.815	0.0161987
802.893	0.0161626
802.971	0.0161547
803.049	0.0160339
803.128	0.0160808
803.206	0.0159447
803.284	0.0160823
803.362	0.0159386
803.440	0.0159508
803.518	0.0160699
803.596	0.0159010
803.674	0.0158255
803.753	0.0159615
803.831	0.0159023
803.909	0.0158770
803.987	0.0159134
804.065	0.0157996
804.143	0.0158049
804.221	0.0158899
804.299	0.0158204
804.378	0.0158050
804.456	0.0158988
804.534	0.0157938
804.612	0.0157809
804.690	0.0159566
804.768	0.0160287
804.846	0.0160352
804.924	0.0160025
805.003	0.0160017
805.081	0.0160551
805.159	0.0160593
805.237	0.0161222
805.315	0.0159870
805.393	0.0160848
805.471	0.0161741
805.549	0.0161507
805.628	0.0161470
805.706	0.0162634
805.784	0.0162589
805.862	0.0162891
805.940	0.0161576
806.018	0.0160197
806.096	0.0159993
806.174	0.0161485
806.253	0.0160446
806.331	0.0160225
806.409	0.0160371
806.487	0.0159837
806.565	0.0160707
806.643	0.0158473
806.721	0.0159859
806.799	0.0160844
806.878	0.0159819
806.956	0.0160440
807.034	0.0160284
807.112	0.0159882
807.190	0.0160132
807.268	0.0161311
807.346	0.0161300
807.424	0.0161018
807.503	0.0160941
807.581	0.0159984
807.659	0.0160735
807.737	0.0160767
807.815	0.0160391
807.893	0.0159200
807.971	0.0159007
808.049	0.0158142
808.128	0.0160450
808.206	0.0161100
808.284	0.0158456
808.362	0.0160181
808.440	0.0159628
808.518	0.0159499
808.596	0.0160989
808.674	0.0161783
808.753	0.0162237
808.831	0.0160260
808.909	0.0160744
808.987	0.0162168
809.065	0.0163889
809.143	0.0163195
809.221	0.0163376
809.299	0.0161702
809.378	0.0162356
809.456	0.0162449
809.534	0.0161909
809.612	0.0161132
809.690	0.0161073
809.768	0.0159622
809.846	0.0158913
809.924	0.0158744
810.003	0.0159366
810.081	0.0158931
810.159	0.0157852
810.237	0.0157831
810.315	0.0156711
810.393	0.0156826
810.471	0.0157182
810.549	0.0157112
810.628	0.0157922
810.706	0.0158501
810.784	0.0158687
810.862	0.0158215
810.940	0.0158974
811.018	0.0160532
811.096	0.0159892
811.174	0.0159644
811.253	0.0161896
811.331	0.0161784
811.409	0.0161369
811.487	0.0161143
811.565	0.0162848
811.643	0.0161406
811.721	0.0160897
811.799	0.0161269
811.878	0.0160360
811.956	0.0160516
812.034	0.0160273
812.112	0.0160696
812.190	0.0160739
812.268	0.0159981
812.346	0.0160050
812.424	0.0159998
812.503	0.0159874
812.581	0.0160603
812.659	0.0159367
812.737	0.0160612
812.815	0.0161586
812.893	0.0161742
812.971	0.0159895
813.049	0.0162125
813.128	0.0161129
813.206	0.0161678
813.284	0.0160586
813.362	0.0161176
813.440	0.0161562
813.518	0.0160538
813.596	0.0161144
813.674	0.0161614
813.753	0.0162183
813.831	0.0160345
813.909	0.0159753
813.987	0.0159756
814.065	0.0160755
814.143	0.0161217
814.221	0.0161350
814.299	0.0160630
814.378	0.0159679
814.456	0.0159749
814.534	0.0158372
814.612	0.0159637
814.690	0.0159351
814.768	0.0158250
814.846	0.0161121
814.924	0.0158726
815.003	0.0159444
815.081	0.0159394
815.159	0.0159264
815.237	0.0159840
815.315	0.0161501
815.393	0.0160051
815.471	0.0161364
815.549	0.0160846
815.628	0.0159884
815.706	0.0160758
815.784	0.0160607
815.862	0.0160215
815.940	0.0160973
816.018	0.0160764
816.096	0.0161522
816.174	0.0161836
816.253	0.0159624
816.331	0.0160198
816.409	0.0159872
816.487	0.0159410
816.565	0.0160099
816.643	0.0159144
816.721	0.0159542
816.799	0.0161319
816.878	0.0160957
816.956	0.0161411
817.034	0.0160471
817.112	0.0161813
817.190	0.0161115
817.268	0.0162215
817.346	0.0161088
817.424	0.0162881
817.503	0.0160739
817.581	0.0160745
817.659	0.0161799
817.737	0.0162537
817.815	0.0161793
817.893	0.0160802
817.971	0.0160913
818.049	0.0161163
818.128	0.0160485
818.206	0.0161156
818.284	0.0160399
818.362	0.0160135
818.440	0.0159512
818.518	0.0158563
818.596	0.0159508
818.674	0.0158839
818.753	0.0158817
818.831	0.0159294
818.909	0.0160753
818.987	0.0158856
819.065	0.0161200
819.143	0.0161904
819.221	0.0159370
819.299	0.0160741
819.378	0.0161224
819.456	0.0160472
819.534	0.0160507
819.612	0.0161579
819.690	0.0160867
819.768	0.0162202
819.846	0.0161323
819.924	0.0160302
820.003	0.0159151
820.081	0.0160843
820.159	0.0160390
820.237	0.0159144
820.315	0.0159131
820.393	0.0157927
820.471	0.0157379
820.549	0.0156451
820.628	0.0156865
820.706	0.0157214
820.784	0.0158792
820.862	0.0158493
820.940	0.0157783
821.018	0.0158607
821.096	0.0158295
821.174	0.0158674
821.253	0.0160277
821.331	0.0160004
821.409	0.0160551
821.487	0.0161591
821.565	0.0162988
821.643	0.0161252
821.721	0.0162273
821.799	0.0164305
821.878	0.0163070
821.956	0.0161742
822.034	0.0163652
822.112	0.0165218
822.190	0.0164668
822.268	0.0163406
822.346	0.0164261
822.424	0.0163668
822.503	0.0162266
822.581	0.0162396
822.659	0.0162024
822.737	0.0161721
822.815	0.0160976
822.893	0.0159758
822.971	0.0160713
823.049	0.0160473
823.128	0.0158900
823.206	0.0159180
823.284	0.0158604
823.362	0.0157497
823.440	0.0157665
823.518	0.0158592
823.596	0.0158842
823.674	0.0158584
823.753	0.0159000
823.831	0.0157977
823.909	0.0158607
823.987	0.0157919
824.065	0.0157243
824.143	0.0157389
824.221	0.0159065
824.299	0.0158249
824.378	0.0158014
824.456	0.0157868
824.534	0.0157782
824.612	0.0158373
824.690	0.0158524
824.768	0.0158786
824.846	0.0157161
824.924	0.0159423
825.003	0.0159248
825.081	0.0160443
825.159	0.0158819
825.237	0.0159793
825.315	0.0160732
825.393	0.0159775
825.471	0.0161302
825.549	0.0161136
825.628	0.0160753
825.706	0.0161913
825.784	0.0163320
825.862	0.0163386
825.940	0.0162796
826.018	0.0162989
826.096	0.0163332
826.174	0.0162955
826.253	0.0162263
826.331	0.0163534
826.409	0.0164285
826.487	0.0163647
826.565	0.0163953
826.643	0.0163333
826.721	0.0164330
826.799	0.0163142
826.878	0.0162881
826.956	0.0163300
827.034	0.0163017
827.112	0.0162733
827.190	0.0162163
827.268	0.0161578
827.346	0.0161841
827.424	0.0162646
827.503	0.0161613
827.581	0.0161216
827.659	0.0161279
827.737	0.0159924
827.815	0.0159618
827.893	0.0160704
827.971	0.0158176
828.049	0.0157825
828.128	0.0158691
828.206	0.0157790
828.284	0.0155782
828.362	0.0156987
828.440	0.0155187
828.518	0.0157223
828.596	0.0156993
828.674	0.0157520
828.753	0.0155926
828.831	0.0156615
828.909	0.0158558
828.987	0.0158327
829.065	0.0156270
829.143	0.0156474
829.221	0.0157542
829.299	0.0159028
829.378	0.0157890
829.456	0.0157439
829.534	0.0157375
829.612	0.0159875
829.690	0.0159143
829.768	0.0159102
829.846	0.0160182
829.924	0.0161111
830.003	0.0160826
830.081	0.0163031
830.159	0.0163282
830.237	0.0163507
830.315	0.0162511
830.393	0.0164407
830.471	0.0164198
830.549	0.0164803
830.628	0.0164529
830.706	0.0165449
830.784	0.0165369
830.862	0.0163895
830.940	0.0164860
831.018	0.0165961
831.096	0.0163380
831.174	0.0164542
831.253	0.0163137
831.331	0.0162381
831.409	0.0162286
831.487	0.0163364
831.565	0.0163672
831.643	0.0161858
831.721	0.0160117
831.799	0.0160749
831.878	0.0160401
831.956	0.0159675
832.034	0.0157032
832.112	0.0159162
832.190	0.0159209
832.268	0.0159951
832.346	0.0158755
832.424	0.0158521
832.503	0.0157383
832.581	0.0158889
832.659	0.0159555
832.737	0.0158569
832.815	0.0157335
832.893	0.0156832
832.971	0.0158344
833.049	0.0157377
833.128	0.0155879
833.206	0.0157004
833.284	0.0156763
833.362	0.0155955
833.440	0.0155161
833.518	0.0155427
833.596	0.0156163
833.674	0.0155919
833.753	0.0156286
833.831	0.0157304
833.909	0.0156406
833.987	0.0156452
834.065	0.0155944
834.143	0.0157560
834.221	0.0159103
834.299	0.0157271
834.378	0.0159373
834.456	0.0163120
834.534	0.0162644
834.612	0.0162565
834.690	0.0164032
834.768	0.0165787
834.846	0.0166600
834.924	0.0167268
835.003	0.0166868
835.081	0.0167063
835.159	0.0167025
835.237	0.0166708
835.315	0.0167297
835.393	0.0166966
835.471	0.0165809
835.549	0.0165064
835.628	0.0166068
835.706	0.0164361
835.784	0.0164419
835.862	0.0164695
835.940	0.0163257
836.018	0.0162690
836.096	0.0161453
836.174	0.0161722
836.253	0.0162947
836.331	0.0162065
836.409	0.0159946
836.487	0.0158299
836.565	0.0158199
836.643	0.0159261
836.721	0.0159304
836.799	0.0159066
836.878	0.0159578
836.956	0.0158645
837.034	0.0158694
837.112	0.0157538
837.190	0.0157674
837.268	0.0157493
837.346	0.0159295
837.424	0.0159296
837.503	0.0156599
837.581	0.0158060
837.659	0.0158215
837.737	0.0159805
837.815	0.0157752
837.893	0.0157323
837.971	0.0157659
838.049	0.0157876
838.128	0.0157356
838.206	0.0159039
838.284	0.0156751
838.362	0.0155651
838.440	0.0156791
838.518	0.0155949
838.596	0.0156991
838.674	0.0155743
838.753	0.0155379
838.831	0.0156113
838.909	0.0156788
838.987	0.0157948
839.065	0.0160056
839.143	0.0159676
839.221	0.0160035
839.299	0.0160879
839.378	0.0160574
839.456	0.0161889
839.534	0.0162346
839.612	0.0162602
839.690	0.0163148
839.768	0.0162624
839.846	0.0161935
839.924	0.0164191
840.003	0.0163133
840.081	0.0162770
840.159	0.0161889
840.237	0.0163175
840.315	0.0162488
840.393	0.0162872
840.471	0.0163809
840.549	0.0162804
840.628	0.0162643
840.706	0.0163074
840.784	0.0163649
840.862	0.0163484
840.940	0.0162791
841.018	0.0164526
841.096	0.0164451
841.174	0.0162615
841.253	0.0163107
841.331	0.0163824
841.409	0.0162842
841.487	0.0162266
841.565	0.0162809
841.643	0.0161661
841.721	0.0161447
841.799	0.0161940
841.878	0.0159589
841.956	0.0159376
842.034	0.0159013
842.112	0.0159757
842.190	0.0158366
842.268	0.0157715
842.346	0.0158532
842.424	0.0158233
842.503	0.0158521
842.581	0.0157003
842.659	0.0156925
842.737	0.0159504
842.815	0.0157438
842.893	0.0155148
842.971	0.0157132
843.049	0.0155260
843.128	0.0155249
843.206	0.0155707
843.284	0.0156479
843.362	0.0156618
843.440	0.0154703
843.518	0.0156562
843.596	0.0157352
843.674	0.0157385
843.753	0.0156667
843.831	0.0155786
843.909	0.0159332
843.987	0.0156960
844.065	0.0157558
844.143	0.0158968
844.221	0.0160079
844.299	0.0159895
844.378	0.0159705
844.456	0.0161436
844.534	0.0161334
844.612	0.0160606
844.690	0.0161401
844.768	0.0160863
844.846	0.0162444
844.924	0.0162833
845.003	0.0161693
845.081	0.0162228
845.159	0.0162173
845.237	0.0162145
845.315	0.0162186
845.393	0.0162653
845.471	0.0162878
845.549	0.0163042
845.628	0.0163623
845.706	0.0163171
845.784	0.0164359
845.862	0.0163469
845.940	0.0164389
846.018	0.0164277
846.096	0.0163840
846.174	0.0163896
846.253	0.0164585
846.331	0.0164745
846.409	0.0165736
846.487	0.0164738
846.565	0.0162360
846.643	0.0162313
846.721	0.0162688
846.799	0.0162594
846.878	0.0162233
846.956	0.0161726
847.034	0.0159115
847.112	0.0160900
847.190	0.0159885
847.268	0.0159429
847.346	0.0159034
847.424	0.0157729
847.503	0.0157629
847.581	0.0158100
847.659	0.0157431
847.737	0.0156807
847.815	0.0157096
847.893	0.0156154
847.971	0.0156427
848.049	0.0155386
848.128	0.0156157
848.206	0.0156477
848.284	0.0156374
848.362	0.0156665
848.440	0.0155252
848.518	0.0157079
848.596	0.0156482
848.674	0.0157785
848.753	0.0158339
848.831	0.0157137
848.909	0.0157489
848.987	0.0158355
849.065	0.0159237
849.143	0.0159135
849.221	0.0159039
849.299	0.0159784
849.378	0.0159545
849.456	0.0159924
849.534	0.0159880
849.612	0.0161228
849.690	0.0161457
849.768	0.0159429
849.846	0.0159748
849.924	0.0161131
850.003	0.0162617
850.081	0.0161020
850.159	0.0162033
850.237	0.0161410
850.315	0.0162322
850.393	0.0162151
850.471	0.0163517
850.549	0.0162418
850.628	0.0164727
850.706	0.0163319
850.784	0.0163401
850.862	0.0164336
850.940	0.0165486
851.018	0.0162595
851.096	0.0165478
851.174	0.0163828
851.253	0.0164811
851.331	0.0165267
851.409	0.0163972
851.487	0.0163384
851.565	0.0164790
851.643	0.0164294
851.721	0.0162352
851.799	0.0162625
851.878	0.0161612
851.956	0.0162430
852.034	0.0162160
852.112	0.0160649
852.190	0.0162251
852.268	0.0161260
852.346	0.0160180
852.424	0.0162162
852.503	0.0159827
852.581	0.0159283
852.659	0.0160278
852.737	0.0158462
852.815	0.0158842
852.893	0.0159281
852.971	0.0157005
853.049	0.0157762
853.128	0.0157991
853.206	0.0156721
853.284	0.0156382
853.362	0.0156782
853.440	0.0158442
853.518	0.0157182
853.596	0.0156309
853.674	0.0156662
853.753	0.0156692
853.831	0.0158021
853.909	0.0157935
853.987	0.0158010
854.065	0.0157567
854.143	0.0157481
854.221	0.0157838
854.299	0.0157426
854.378	0.0158255
854.456	0.0159803
854.534	0.0159224
854.612	0.0159838
854.690	0.0158117
854.768	0.0159994
854.846	0.0160728
854.924	0.0160532
855.003	0.0160825
855.081	0.0159772
855.159	0.0163262
855.237	0.0162447
855.315	0.0161160
855.393	0.0161385
855.471	0.0163687
855.549	0.0162525
855.628	0.0163104
855.706	0.0163144
855.784	0.0163203
855.862	0.0162000
855.940	0.0163592
856.018	0.0162877
856.096	0.0164404
856.174	0.0163481
856.253	0.0162682
856.331	0.0162542
856.409	0.0162852
856.487	0.0161349
856.565	0.0162073
856.643	0.0162711
856.721	0.0162892
856.799	0.0163268
856.878	0.0161903
856.956	0.0162845
857.034	0.0163607
857.112	0.0162799
857.190	0.0161240
857.268	0.0162296
857.346	0.0161594
857.424	0.0159370
857.503	0.0160374
857.581	0.0159414
857.659	0.0160818
857.737	0.0162106
857.815	0.0161038
857.893	0.0160933
857.971	0.0159621
858.049	0.0160460
858.128	0.0161884
858.206	0.0160821
858.284	0.0159914
858.362	0.0159212
858.440	0.0158018
858.518	0.0157932
858.596	0.0158270
858.674	0.0157645
858.753	0.0158167
858.831	0.0157699
858.909	0.0158768
858.987	0.0157403
859.065	0.0157077
859.143	0.0156952
859.221	0.0157040
859.299	0.0158378
859.378	0.0157182
859.456	0.0157693
859.534	0.0159404
859.612	0.0158587
859.690	0.0158991
859.768	0.0157556
859.846	0.0158482
859.924	0.0159294
860.003	0.0159430
860.081	0.0160078
860.159	0.0157966
860.237	0.0157867
860.315	0.0160928
860.393	0.0161256
860.471	0.0160165
860.549	0.0160241
860.628	0.0160460
860.706	0.0160547
860.784	0.0161812
860.862	0.0162054
860.940	0.0161095
861.018	0.0162793
861.096	0.0162851
861.174	0.0162916
861.253	0.0162222
861.331	0.0161897
861.409	0.0163338
861.487	0.0162321
861.565	0.0162357
861.643	0.0164079
861.721	0.0163513
861.799	0.0163447
861.878	0.0163350
861.956	0.0163060
862.034	0.0162394
862.112	0.0162655
862.190	0.0161900
862.268	0.0161855
862.346	0.0161217
862.424	0.0160546
862.503	0.0160360
862.581	0.0159963
862.659	0.0160264
862.737	0.0161182
862.815	0.0160631
862.893	0.0160287
862.971	0.0159854
863.049	0.0159260
863.128	0.0159074
863.206	0.0158613
863.284	0.0159569
863.362	0.0159474
863.440	0.0158672
863.518	0.0159081
863.596	0.0158988
863.674	0.0159673
863.753	0.0157557
863.831	0.0157553
863.909	0.0156693
863.987	0.0156967
864.065	0.0157734
864.143	0.0157139
864.221	0.0158842
864.299	0.0158138
864.378	0.0158454
864.456	0.0157202
864.534	0.0157835
864.612	0.0158434
864.690	0.0158871
864.768	0.0157758
864.846	0.0157761
864.924	0.0158111
865.003	0.0159412
865.081	0.0160446
865.159	0.0159525
865.237	0.0158591
865.315	0.0159694
865.393	0.0159291
865.471	0.0159434
865.549	0.0159482
865.628	0.0158519
865.706	0.0160221
865.784	0.0160311
865.862	0.0159319
865.940	0.0160671
866.018	0.0162256
866.096	0.0161726
866.174	0.0161886
866.253	0.0160491
866.331	0.0161773
866.409	0.0161839
866.487	0.0161856
866.565	0.0162169
866.643	0.0162963
866.721	0.0163422
866.799	0.0162003
866.878	0.0160249
866.956	0.0162377
867.034	0.0163917
867.112	0.0163245
867.190	0.0161564
867.268	0.0163039
867.346	0.0162581
867.424	0.0162497
867.503	0.0162551
867.581	0.0162723
867.659	0.0162772
867.737	0.0162228
867.815	0.0161618
867.893	0.0161005
867.971	0.0163311
868.049	0.0162114
868.128	0.0161578
868.206	0.0161610
868.284	0.0160777
868.362	0.0160939
868.440	0.0161082
868.518	0.0160111
868.596	0.0160289
868.674	0.0159788
868.753	0.0160938
868.831	0.0159742
868.909	0.0158347
868.987	0.0159599
869.065	0.0158266
869.143	0.0158937
869.221	0.0157893
869.299	0.0157781
869.378	0.0158440
869.456	0.0156817
869.534	0.0156911
869.612	0.0156979
869.690	0.0156831
869.768	0.0156728
869.846	0.0157244
869.924	0.0156756
870.003	0.0156687
870.081	0.0158397
870.159	0.0159232
870.237	0.0158662
870.315	0.0158275
870.393	0.0159433
870.471	0.0158846
870.549	0.0159580
870.628	0.0160596
870.706	0.0159872
870.784	0.0161651
870.862	0.0160895
870.940	0.0162581
871.018	0.0162349
871.096	0.0161551
871.174	0.0162109
871.253	0.0163551
871.331	0.0163371
871.409	0.0162434
871.487	0.0162412
871.565	0.0165004
871.643	0.0162624
871.721	0.0163097
871.799	0.0161114
871.878	0.0161162
871.956	0.0162682
872.034	0.0162334
872.112	0.0161629
872.190	0.0161790
872.268	0.0161681
872.346	0.0160021
872.424	0.0159959
872.503	0.0161871
872.581	0.0162130
872.659	0.0162189
872.737	0.0161770
872.815	0.0162161
872.893	0.0162948
872.971	0.0161842
873.049	0.0161588
873.128	0.0162236
873.206	0.0160511
873.284	0.0160950
873.362	0.0161460
873.440	0.0160107
873.518	0.0160152
873.596	0.0161138
873.674	0.0158881
873.753	0.0161333
873.831	0.0158221
873.909	0.0157832
873.987	0.0159262
874.065	0.0158731
874.143	0.0158494
874.221	0.0160148
874.299	0.0158048
874.378	0.0158007
874.456	0.0158437
874.534	0.0159046
874.612	0.0159856
874.690	0.0158853
874.768	0.0159216
874.846	0.0158802
874.924	0.0159509
875.003	0.0158521
875.081	0.0158932
875.159	0.0159370
875.237	0.0159750
875.315	0.0160075
875.393	0.0158410
875.471	0.0158595
875.549	0.0159058
875.628	0.0158349
875.706	0.0159519
875.784	0.0160036
875.862	0.0159900
875.940	0.0161270
876.018	0.0161113
876.096	0.0161503
876.174	0.0160744
876.253	0.0161459
876.331	0.0160995
876.409	0.0161359
876.487	0.0162664
876.565	0.0162288
876.643	0.0161135
876.721	0.0161765
876.799	0.0161069
876.878	0.0160806
876.956	0.0162752
877.034	0.0161832
877.112	0.0162318
877.190	0.0161375
877.268	0.0160673
877.346	0.0160733
877.424	0.0162028
877.503	0.0160736
877.581	0.0161172
877.659	0.0161081
877.737	0.0160174
877.815	0.0161506
877.893	0.0161433
877.971	0.0160470
878.049	0.0161225
878.128	0.0160603
878.206	0.0161269
878.284	0.0161308
878.362	0.0161813
878.440	0.0159941
878.518	0.0159529
878.596	0.0160018
878.674	0.0160219
878.753	0.0159422
878.831	0.0159477
878.909	0.0160129
878.987	0.0160493
879.065	0.0159433
879.143	0.0159848
879.221	0.0158645
879.299	0.0158640
879.378	0.0158849
879.456	0.0158176
879.534	0.0158179
879.612	0.0157251
879.690	0.0160332
879.768	0.0159004
879.846	0.0157753
879.924	0.0159250
880.003	0.0158839
880.081	0.0159454
880.159	0.0158143
880.237	0.0158721
880.315	0.0158887
880.393	0.0160881
880.471	0.0161120
880.549	0.0159956
880.628	0.0159527
880.706	0.0160261
880.784	0.0159414
880.862	0.0159216
880.940	0.0159529
881.018	0.0160853
881.096	0.0161722
881.174	0.0160872
881.253	0.0159489
881.331	0.0159901
881.409	0.0163680
881.487	0.0161107
881.565	0.0159597
881.643	0.0160886
881.721	0.0161682
881.799	0.0161188
881.878	0.0161576
881.956	0.0161674
882.034	0.0160662
882.112	0.0162048
882.190	0.0162093
882.268	0.0161504
882.346	0.0159879
882.424	0.0160767
882.503	0.0161058
882.581	0.0159825
882.659	0.0159435
882.737	0.0159863
882.815	0.0161108
882.893	0.0160498
882.971	0.0160921
883.049	0.0160793
883.128	0.0159891
883.206	0.0159403
883.284	0.0161116
883.362	0.0159980
883.440	0.0160816
883.518	0.0160929
883.596	0.0160442
883.674	0.0161129
883.753	0.0160426
883.831	0.0158730
883.909	0.0160421
883.987	0.0161549
884.065	0.0160198
884.143	0.0159544
884.221	0.0160123
884.299	0.0158978
884.378	0.0159684
884.456	0.0161362
884.534	0.0159512
884.612	0.0157111
884.690	0.0161124
884.768	0.0159953
884.846	0.0159359
884.924	0.0159753
885.003	0.0160413
885.081	0.0161033
885.159	0.0160203
885.237	0.0159364
885.315	0.0161081
885.393	0.0160383
885.471	0.0160559
885.549	0.0161720
885.628	0.0161200
885.706	0.0160570
885.784	0.0162128
885.862	0.0161471
885.940	0.0161350
886.018	0.0162744
886.096	0.0161335
886.174	0.0159740
886.253	0.0161079
886.331	0.0162050
886.409	0.0161356
886.487	0.0161204
886.565	0.0161383
886.643	0.0159778
886.721	0.0161033
886.799	0.0161132
886.878	0.0161600
886.956	0.0160323
887.034	0.0160507
887.112	0.0160479
887.190	0.0161869
887.268	0.0159917
887.346	0.0160114
887.424	0.0160680
887.503	0.0160815
887.581	0.0159528
887.659	0.0160303
887.737	0.0161695
887.815	0.0158697
887.893	0.0159597
887.971	0.0160521
888.049	0.0158521
888.128	0.0160017
888.206	0.0159762
888.284	0.0159954
888.362	0.0159664
888.440	0.0162389
888.518	0.0160474
888.596	0.0161227
888.674	0.0161778
888.753	0.0160186
888.831	0.0161455
888.909	0.0160658
888.987	0.0160809
889.065	0.0160593
889.143	0.0158838
889.221	0.0159995
889.299	0.0160342
889.378	0.0161102
889.456	0.0159576
889.534	0.0158837
889.612	0.0160297
889.690	0.0158818
889.768	0.0161247
889.846	0.0159727
889.924	0.0159157
890.003	0.0159104
890.081	0.0159834
890.159	0.0159823
890.237	0.0159831
890.315	0.0159553
890.393	0.0158649
890.471	0.0157719
890.549	0.0159401
890.628	0.0159988
890.706	0.0160117
890.784	0.0160617
890.862	0.0159278
890.940	0.0159511
891.018	0.0159846
891.096	0.0159607
891.174	0.0159814
891.253	0.0159869
891.331	0.0159068
891.409	0.0159861
891.487	0.0158591
891.565	0.0161331
891.643	0.0159542
891.721	0.0159885
891.799	0.0161468
891.878	0.0161939
891.956	0.0160506
892.034	0.0161962
892.112	0.0161707
892.190	0.0162244
892.268	0.0160776
892.346	0.0161515
892.424	0.0162677
892.503	0.0162018
892.581	0.0161061
892.659	0.0161358
892.737	0.0161832
892.815	0.0162567
892.893	0.0162241
892.971	0.0160833
893.049	0.0161764
893.128	0.0160315
893.206	0.0160201
893.284	0.0160144
893.362	0.0160023
893.440	0.0160297
893.518	0.0158793
893.596	0.0159403
893.674	0.0159583
893.753	0.0159728
893.831	0.0158900
893.909	0.0158255
893.987	0.0158892
894.065	0.0159824
894.143	0.0159251
894.221	0.0158309
894.299	0.0159725
894.378	0.0160621
894.456	0.0159547
894.534	0.0159214
894.612	0.0159792
894.690	0.0159788
894.768	0.0159721
894.846	0.0160439
894.924	0.0159542
895.003	0.0161220
895.081	0.0161460
895.159	0.0159932
895.237	0.0161308
895.315	0.0159079
895.393	0.0160542
895.471	0.0161248
895.549	0.0161150
895.628	0.0160488
895.706	0.0160516
895.784	0.0161086
895.862	0.0161504
895.940	0.0161646
896.018	0.0161035
896.096	0.0159457
896.174	0.0160444
896.253	0.0161433
896.331	0.0159873
896.409	0.0160862
896.487	0.0160291
896.565	0.0160186
896.643	0.0159879
896.721	0.0159828
896.799	0.0158543
896.878	0.0159803
896.956	0.0161289
897.034	0.0161010
897.112	0.0160429
897.190	0.0160851
897.268	0.0160269
897.346	0.0162155
897.424	0.0160107
897.503	0.0161932
897.581	0.0161910
897.659	0.0161515
897.737	0.0161414
897.815	0.0160606
897.893	0.0159555
897.971	0.0160253
898.049	0.0162116
898.128	0.0161925
898.206	0.0160423
898.284	0.0160127
898.362	0.0160596
898.440	0.0160691
898.518	0.0160297
898.596	0.0160915
898.674	0.0161813
898.753	0.0162012
898.831	0.0160954
898.909	0.0161298
898.987	0.0161281
899.065	0.0161075
899.143	0.0162087
899.221	0.0161419
899.299	0.0160394
899.378	0.0160719
899.456	0.0161031
899.534	0.0160840
899.612	0.0160763
899.690	0.0161684
899.768	0.0162009
899.846	0.0160643
899.924	0.0161261
900.003	0.0161380
900.081	0.0161552
900.159	0.0160117
900.237	0.0160799
900.315	0.0159740
900.393	0.0160090
900.471	0.0158820
900.549	0.0159014
900.628	0.0159079
900.706	0.0158129
900.784	0.0159161
900.862	0.0159618
900.940	0.0158695
901.018	0.0159658
901.096	0.0160065
901.174	0.0158592
901.253	0.0159536
901.331	0.0159003
901.409	0.0160781
901.487	0.0160281
901.565	0.0158788
901.643	0.0160979
901.721	0.0160359
901.799	0.0158496
901.878	0.0159502
901.956	0.0159938
902.034	0.0160411
902.112	0.0158643
902.190	0.0158749
902.268	0.0160034
902.346	0.0159389
902.424	0.0159518
902.503	0.0159740
902.581	0.0160539
902.659	0.0160787
902.737	0.0160120
902.815	0.0160162
902.893	0.0159552
902.971	0.0159887
903.049	0.0160690
903.128	0.0160484
903.206	0.0159711
903.284	0.0160236
903.362	0.0160118
903.440	0.0160925
903.518	0.0160455
903.596	0.0160741
903.674	0.0162282
903.753	0.0160540
903.831	0.0161819
903.909	0.0160613
903.987	0.0160560
904.065	0.0160114
904.143	0.0159035
904.221	0.0160153
904.299	0.0159875
904.378	0.0160089
904.456	0.0157866
904.534	0.0159935
904.612	0.0158806
904.690	0.0161021
904.768	0.0159584
904.846	0.0158463
904.924	0.0158719
905.003	0.0157684
905.081	0.0158868
905.159	0.0160510
905.237	0.0159591
905.315	0.0159224
905.393	0.0160532
905.471	0.0159796
905.549	0.0161095
905.628	0.0160749
905.706	0.0160889
905.784	0.0160307
905.862	0.0160879
905.940	0.0161347
906.018	0.0161395
906.096	0.0160401
906.174	0.0161148
906.253	0.0160616
906.331	0.0160796
906.409	0.0162293
906.487	0.0160968
906.565	0.0161327
906.643	0.0162252
906.721	0.0160802
906.799	0.0161239
906.878	0.0160526
906.956	0.0159361
907.034	0.0159891
907.112	0.0158652
907.190	0.0158918
907.268	0.0158157
907.346	0.0158649
907.424	0.0159135
907.503	0.0158652
907.581	0.0157552
907.659	0.0160060
907.737	0.0158792
907.815	0.0156950
907.893	0.0158900
907.971	0.0161252
908.049	0.0160320
908.128	0.0160073
908.206	0.0159310
908.284	0.0161011
908.362	0.0161446
908.440	0.0160715
908.518	0.0161610
908.596	0.0161152
908.674	0.0160285
908.753	0.0161237
908.831	0.0158968
908.909	0.0161209
908.987	0.0161672
909.065	0.0160327
909.143	0.0160314
909.221	0.0160738
909.299	0.0159757
909.378	0.0160152
909.456	0.0160053
909.534	0.0159657
909.612	0.0160999
909.690	0.0160442
909.768	0.0160941
909.846	0.0162019
909.924	0.0159735
910.003	0.0160107
910.081	0.0160031
910.159	0.0159806
910.237	0.0159075
910.315	0.0160121
910.393	0.0160710
910.471	0.0159271
910.549	0.0159230
910.628	0.0159296
910.706	0.0159343
910.784	0.0160094
910.862	0.0159440
910.940	0.0158060
911.018	0.0160235
911.096	0.0159245
911.174	0.0159684
911.253	0.0160071
911.331	0.0162109
911.409	0.0161172
911.487	0.0161164
911.565	0.0161911
911.643	0.0161246
911.721	0.0161536
911.799	0.0162545
911.878	0.0160455
911.956	0.0160066
912.034	0.0160738
912.112	0.0159805
912.190	0.0158757
912.268	0.0160390
912.346	0.0159901
912.424	0.0158501
912.503	0.0160719
912.581	0.0160425
912.659	0.0159149
912.737	0.0159956
912.815	0.0159956
912.893	0.0159854
912.971	0.0159502
913.049	0.0159804
913.128	0.0159521
913.206	0.0159411
913.284	0.0159953
913.362	0.0159226
913.440	0.0159763
913.518	0.0160130
913.596	0.0159882
913.674	0.0162547
913.753	0.0161648
913.831	0.0162449
913.909	0.0161136
913.987	0.0161932
914.065	0.0161610
914.143	0.0162049
914.221	0.0161523
914.299	0.0161340
914.378	0.0161761
914.456	0.0161862
914.534	0.0160168
914.612	0.0159907
914.690	0.0160749
914.768	0.0161983
914.846	0.0158903
914.924	0.0158765
915.003	0.0159859
915.081	0.0159782
915.159	0.0158827
915.237	0.0159976
915.315	0.0159367
915.393	0.0159554
915.471	0.0159603
915.549	0.0159997
915.628	0.0159341
915.706	0.0158757
915.784	0.0159156
915.862	0.0160991
915.940	0.0159921
916.018	0.0159846
916.096	0.0160568
916.174	0.0159797
916.253	0.0159498
916.331	0.0161437
916.409	0.0159734
916.487	0.0161389
916.565	0.0162067
916.643	0.0160402
916.721	0.0161651
916.799	0.0164184
916.878	0.0163530
916.956	0.0162719
917.034	0.0161720
917.112	0.0162984
917.190	0.0160918
917.268	0.0162248
917.346	0.0161184
917.424	0.0160966
917.503	0.0160963
917.581	0.0160293
917.659	0.0160303
917.737	0.0159746
917.815	0.0160420
917.893	0.0159039
917.971	0.0160227
918.049	0.0159483
918.128	0.0159310
918.206	0.0160210
918.284	0.0158858
918.362	0.0157875
918.440	0.0159115
918.518	0.0158148
918.596	0.0158690
918.674	0.0158689
918.753	0.0157749
918.831	0.0159669
918.909	0.0159498
918.987	0.0159582
919.065	0.0158342
919.143	0.0160040
919.221	0.0161480
919.299	0.0161218
919.378	0.0161575
919.456	0.0163279
919.534	0.0162955
919.612	0.0162833
919.690	0.0163480
919.768	0.0162235
919.846	0.0162260
919.924	0.0162008
920.003	0.0162340
920.081	0.0162422
920.159	0.0161309
920.237	0.0161000
920.315	0.0161595
920.393	0.0161469
920.471	0.0161214
920.549	0.0160863
920.628	0.0161860
920.706	0.0161278
920.784	0.0160033
920.862	0.0160421
920.940	0.0160007
921.018	0.0160562
921.096	0.0161109
921.174	0.0162070
921.253	0.0161992
921.331	0.0161146
921.409	0.0161035
921.487	0.0161157
921.565	0.0161979
921.643	0.0161562
921.721	0.0160831
921.799	0.0160272
921.878	0.0160844
921.956	0.0159725
922.034	0.0160674
922.112	0.0160297
922.190	0.0159602
922.268	0.0159778
922.346	0.0159942
922.424	0.0160918
922.503	0.0159725
922.581	0.0158565
922.659	0.0159383
922.737	0.0159971
922.815	0.0160423
922.893	0.0160829
922.971	0.0159441
923.049	0.0158865
923.128	0.0159212
923.206	0.0160853
923.284	0.0160333
923.362	0.0159060
923.440	0.0159435
923.518	0.0159518
923.596	0.0158482
923.674	0.0159859
923.753	0.0159616
923.831	0.0157530
923.909	0.0159564
923.987	0.0160381
924.065	0.0160140
924.143	0.0159283
924.221	0.0161269
924.299	0.0160198
924.378	0.0160452
924.456	0.0161264
924.534	0.0160905
924.612	0.0161942
924.690	0.0161896
924.768	0.0162088
924.846	0.0162057
924.924	0.0161495
925.003	0.0162202
925.081	0.0160973
925.159	0.0161912
925.237	0.0162720
925.315	0.0162923
925.393	0.0161887
925.471	0.0162806
925.549	0.0162845
925.628	0.0161890
925.706	0.0160085
925.784	0.0162482
925.862	0.0161563
925.940	0.0161574
926.018	0.0161243
926.096	0.0160794
926.174	0.0158791
926.253	0.0159027
926.331	0.0160358
926.409	0.0159598
926.487	0.0158448
926.565	0.0159264
926.643	0.0158754
926.721	0.0159064
926.799	0.0159408
926.878	0.0159936
926.956	0.0160386
927.034	0.0160227
927.112	0.0160204
927.190	0.0159731
927.268	0.0159380
927.346	0.0159919
927.424	0.0160961
927.503	0.0161546
927.581	0.0160038
927.659	0.0159988
927.737	0.0161411
927.815	0.0159808
927.893	0.0160089
927.971	0.0161188
928.049	0.0160422
928.128	0.0160468
928.206	0.0161652
928.284	0.0161085
928.362	0.0159731
928.440	0.0159828
928.518	0.0160477
928.596	0.0159382
928.674	0.0160086
928.753	0.0158471
928.831	0.0157568
928.909	0.0157893
928.987	0.0158430
929.065	0.0158656
929.143	0.0157621
929.221	0.0159056
929.299	0.0159199
929.378	0.0159110
929.456	0.0160532
929.534	0.0161550
929.612	0.0160917
929.690	0.0161421
929.768	0.0161774
929.846	0.0160978
929.924	0.0161462
930.003	0.0164039
930.081	0.0164360
930.159	0.0162920
930.237	0.0161673
930.315	0.0160652
930.393	0.0159856
930.471	0.0161926
930.549	0.0162404
930.628	0.0162159
930.706	0.0160238
930.784	0.0159910
930.862	0.0161671
930.940	0.0160859
931.018	0.0160610
931.096	0.0160508
931.174	0.0161665
931.253	0.0160981
931.331	0.0160763
931.409	0.0160109
931.487	0.0160319
931.565	0.0160269
931.643	0.0161349
931.721	0.0160809
931.799	0.0160123
931.878	0.0159930
931.956	0.0159331
932.034	0.0160902
932.112	0.0161007
932.190	0.0158834
932.268	0.0160844
932.346	0.0160949
932.424	0.0160593
932.503	0.0160256
932.581	0.0160704
932.659	0.0160710
932.737	0.0161611
932.815	0.0161539
932.893	0.0161350
932.971	0.0161407
933.049	0.0161746
933.128	0.0160017
933.206	0.0160228
933.284	0.0161269
933.362	0.0161321
933.440	0.0160385
933.518	0.0160102
933.596	0.0159487
933.674	0.0159090
933.753	0.0160445
933.831	0.0159402
933.909	0.0159004
933.987	0.0160630
934.065	0.0159319
934.143	0.0159858
934.221	0.0159849
934.299	0.0158791
934.378	0.0159956
934.456	0.0159710
934.534	0.0162466
934.612	0.0160662
934.690	0.0159502
934.768	0.0160873
934.846	0.0161190
934.924	0.0160854
935.003	0.0159698
935.081	0.0160505
935.159	0.0161390
935.237	0.0160156
935.315	0.0160278
935.393	0.0160732
935.471	0.0161248
935.549	0.0161147
935.628	0.0162280
935.706	0.0161388
935.784	0.0160820
935.862	0.0161526
935.940	0.0161234
936.018	0.0161266
936.096	0.0160690
936.174	0.0160973
936.253	0.0161804
936.331	0.0161381
936.409	0.0161402
936.487	0.0162342
936.565	0.0160773
936.643	0.0159808
936.721	0.0161060
936.799	0.0160111
936.878	0.0159334
936.956	0.0159006
937.034	0.0158713
937.112	0.0158842
937.190	0.0158797
937.268	0.0158218
937.346	0.0158919
937.424	0.0159872
937.503	0.0158746
937.581	0.0160201
937.659	0.0160037
937.737	0.0160984
937.815	0.0163060
937.893	0.0162444
937.971	0.0161681
938.049	0.0162995
938.128	0.0162939
938.206	0.0161320
938.284	0.0161238
938.362	0.0162989
938.440	0.0162233
938.518	0.0160559
938.596	0.0161246
938.674	0.0160188
938.753	0.0159470
938.831	0.0158911
938.909	0.0159803
938.987	0.0157375
939.065	0.0159900
939.143	0.0159297
939.221	0.0159309
939.299	0.0159489
939.378	0.0161380
939.456	0.0159863
939.534	0.0159843
939.612	0.0161333
939.690	0.0161892
939.768	0.0161229
939.846	0.0162341
939.924	0.0161446
940.003	0.0161486
940.081	0.0162019
940.159	0.0160478
940.237	0.0161552
940.315	0.0161644
940.393	0.0159145
940.471	0.0158640
940.549	0.0160057
940.628	0.0160432
940.706	0.0159443
940.784	0.0159814
940.862	0.0159895
940.940	0.0160712
941.018	0.0161205
941.096	0.0160429
941.174	0.0162099
941.253	0.0161048
941.331	0.0160950
941.409	0.0161048
941.487	0.0161568
941.565	0.0158951
941.643	0.0159969
941.721	0.0160464
941.799	0.0160166
941.878	0.0159886
941.956	0.0159421
942.034	0.0158813
942.112	0.0160143
942.190	0.0160221
942.268	0.0158671
942.346	0.0157224
942.424	0.0158753
942.503	0.0161195
942.581	0.0159520
942.659	0.0159894
942.737	0.0161031
942.815	0.0160494
942.893	0.0159721
942.971	0.0160351
943.049	0.0159972
943.128	0.0159727
943.206	0.0161000
943.284	0.0162173
943.362	0.0162306
943.440	0.0162646
943.518	0.0161435
943.596	0.0161935
943.674	0.0160854
943.753	0.0160703
943.831	0.0161388
943.909	0.0161892
943.987	0.0160944
944.065	0.0160212
944.143	0.0161485
944.221	0.0159557
944.299	0.0160242
944.378	0.0161226
944.456	0.0160816
944.534	0.0161471
944.612	0.0160349
944.690	0.0162505
944.768	0.0162321
944.846	0.0161054
944.924	0.0162857
945.003	0.0163028
945.081	0.0161294
945.159	0.0162098
945.237	0.0160153
945.315	0.0161285
945.393	0.0160877
945.471	0.0160802
945.549	0.0159540
945.628	0.0160893
945.706	0.0161445
945.784	0.0159894
945.862	0.0160104
945.940	0.0160072
946.018	0.0159499
946.096	0.0158105
946.174	0.0160801
946.253	0.0159190
946.331	0.0160346
946.409	0.0159267
946.487	0.0159568
946.565	0.0161156
946.643	0.0159985
946.721	0.0159372
946.799	0.0159884
946.878	0.0159798
946.956	0.0159980
947.034	0.0159686
947.112	0.0159332
947.190	0.0159014
947.268	0.0159707
947.346	0.0158363
947.424	0.0159409
947.503	0.0160452
947.581	0.0160262
947.659	0.0159411
947.737	0.0158846
947.815	0.0159324
947.893	0.0160004
947.971	0.0159486
948.049	0.0161036
948.128	0.0161674
948.206	0.0159973
948.284	0.0159406
948.362	0.0159655
948.440	0.0160709
948.518	0.0161345
948.596	0.0162566
948.674	0.0161932
948.753	0.0161285
948.831	0.0161969
948.909	0.0161411
948.987	0.0161582
949.065	0.0159322
949.143	0.0160387
949.221	0.0160192
949.299	0.0159438
949.378	0.0159843
949.456	0.0160674
949.534	0.0160269
949.612	0.0158857
949.690	0.0160664
949.768	0.0161249
949.846	0.0159701
949.924	0.0160709
