06/29/2022	22:56:15	Ver.	4.1	UNKNOWN
Optical Delay	630.002507	Delta X		0.078125	Sweeps	1	Scan Rate	0/0
Coordinates	Axis 1	NaN	Axis 2	NaN	Axis 3	NaN	Axis 4	NaN	Axis 5	NaN	Axis 6	0.000000
TX Power	0.000000	RX Power	0.000000

630.003	0.0150230
630.081	0.0150877
630.159	0.0150655
630.237	0.0150861
630.315	0.0150866
630.393	0.0151186
630.471	0.0150256
630.549	0.0151585
630.628	0.0151234
630.706	0.0150800
630.784	0.0150269
630.862	0.0150858
630.940	0.0150338
631.018	0.0151210
631.096	0.0150934
631.174	0.0150097
631.253	0.0150645
631.331	0.0150656
631.409	0.0150896
631.487	0.0150371
631.565	0.0150504
631.643	0.0149493
631.721	0.0149882
631.799	0.0149742
631.878	0.0148795
631.956	0.0150823
632.034	0.0151245
632.112	0.0150604
632.190	0.0149306
632.268	0.0148408
632.346	0.0151051
632.424	0.0150461
632.503	0.0148936
632.581	0.0149699
632.659	0.0151242
632.737	0.0150656
632.815	0.0149736
632.893	0.0151049
632.971	0.0150423
633.049	0.0149475
633.128	0.0150894
633.206	0.0150717
633.284	0.0149796
633.362	0.0150282
633.440	0.0150670
633.518	0.0150099
633.596	0.0150600
633.674	0.0151283
633.753	0.0150903
633.831	0.0149862
633.909	0.0149880
633.987	0.0150112
634.065	0.0149329
634.143	0.0148959
634.221	0.0150692
634.299	0.0150933
634.378	0.0150113
634.456	0.0149459
634.534	0.0150753
634.612	0.0150655
634.690	0.0150463
634.768	0.0151877
634.846	0.0149724
634.924	0.0150067
635.003	0.0151603
635.081	0.0150338
635.159	0.0148846
635.237	0.0150479
635.315	0.0150120
635.393	0.0151010
635.471	0.0150180
635.549	0.0150449
635.628	0.0149759
635.706	0.0149303
635.784	0.0150701
635.862	0.0150285
635.940	0.0149924
636.018	0.0148836
636.096	0.0149494
636.174	0.0149742
636.253	0.0149773
636.331	0.0149943
636.409	0.0150712
636.487	0.0150830
636.565	0.0150590
636.643	0.0150135
636.721	0.0150303
636.799	0.0150203
636.878	0.0150671
636.956	0.0150235
637.034	0.0149313
637.112	0.0150165
637.190	0.0152014
637.268	0.0150706
637.346	0.0150115
637.424	0.0149348
637.503	0.0150613
637.581	0.0150451
637.659	0.0152304
637.737	0.0150349
637.815	0.0149819
637.893	0.0150326
637.971	0.0150009
638.049	0.0150835
638.128	0.0149529
638.206	0.0150541
638.284	0.0151791
638.362	0.0151511
638.440	0.0149749
638.518	0.0149226
638.596	0.0150372
638.674	0.0150326
638.753	0.0150648
638.831	0.0150700
638.909	0.0149160
638.987	0.0150908
639.065	0.0149346
639.143	0.0149683
639.221	0.0148693
639.299	0.0150368
639.378	0.0150854
639.456	0.0149304
639.534	0.0150207
639.612	0.0150484
639.690	0.0150378
639.768	0.0150469
639.846	0.0150388
639.924	0.0149181
640.003	0.0149426
640.081	0.0150903
640.159	0.0149664
640.237	0.0150909
640.315	0.0149820
640.393	0.0149587
640.471	0.0150478
640.549	0.0150114
640.628	0.0150131
640.706	0.0150296
640.784	0.0150549
640.862	0.0150059
640.940	0.0150237
641.018	0.0151056
641.096	0.0149791
641.174	0.0151467
641.253	0.0149899
641.331	0.0149911
641.409	0.0152222
641.487	0.0149793
641.565	0.0150025
641.643	0.0151135
641.721	0.0149871
641.799	0.0151191
641.878	0.0149852
641.956	0.0150245
642.034	0.0150488
642.112	0.0149665
642.190	0.0151899
642.268	0.0149632
642.346	0.0149442
642.424	0.0149173
642.503	0.0151661
642.581	0.0150417
642.659	0.0149985
642.737	0.0149933
642.815	0.0150167
642.893	0.0150255
642.971	0.0149682
643.049	0.0150311
643.128	0.0149944
643.206	0.0150160
643.284	0.0150849
643.362	0.0150712
643.440	0.0150812
643.518	0.0150460
643.596	0.0148879
643.674	0.0150258
643.753	0.0150622
643.831	0.0149663
643.909	0.0148497
643.987	0.0150300
644.065	0.0150173
644.143	0.0149612
644.221	0.0150182
644.299	0.0149893
644.378	0.0149529
644.456	0.0148412
644.534	0.0148662
644.612	0.0147159
644.690	0.0149348
644.768	0.0150236
644.846	0.0149761
644.924	0.0150208
645.003	0.0149942
645.081	0.0149475
645.159	0.0150671
645.237	0.0149483
645.315	0.0148615
645.393	0.0149943
645.471	0.0150650
645.549	0.0150144
645.628	0.0149712
645.706	0.0148387
645.784	0.0148708
645.862	0.0149168
645.940	0.0151266
646.018	0.0150540
646.096	0.0151103
646.174	0.0149994
646.253	0.0150182
646.331	0.0150285
646.409	0.0150289
646.487	0.0150698
646.565	0.0150399
646.643	0.0149839
646.721	0.0149168
646.799	0.0149497
646.878	0.0150215
646.956	0.0149120
647.034	0.0150548
647.112	0.0149769
647.190	0.0150204
647.268	0.0150660
647.346	0.0150584
647.424	0.0150180
647.503	0.0150273
647.581	0.0149172
647.659	0.0150302
647.737	0.0150990
647.815	0.0149422
647.893	0.0148951
647.971	0.0151041
648.049	0.0149121
648.128	0.0149632
648.206	0.0150015
648.284	0.0149063
648.362	0.0150058
648.440	0.0150999
648.518	0.0151304
648.596	0.0150249
648.674	0.0149846
648.753	0.0149002
648.831	0.0149882
648.909	0.0149999
648.987	0.0150170
649.065	0.0150660
649.143	0.0148840
649.221	0.0150102
649.299	0.0149358
649.378	0.0150912
649.456	0.0151616
649.534	0.0150304
649.612	0.0150459
649.690	0.0150124
649.768	0.0150415
649.846	0.0151152
649.924	0.0150506
650.003	0.0150770
650.081	0.0149953
650.159	0.0149529
650.237	0.0151495
650.315	0.0149205
650.393	0.0150233
650.471	0.0150240
650.549	0.0150495
650.628	0.0152131
650.706	0.0151704
650.784	0.0149400
650.862	0.0150198
650.940	0.0150729
651.018	0.0150797
651.096	0.0150200
651.174	0.0150764
651.253	0.0150597
651.331	0.0149073
651.409	0.0149139
651.487	0.0150708
651.565	0.0149639
651.643	0.0150225
651.721	0.0150327
651.799	0.0150043
651.878	0.0150867
651.956	0.0149095
652.034	0.0150360
652.112	0.0149407
652.190	0.0148665
652.268	0.0149103
652.346	0.0150969
652.424	0.0150810
652.503	0.0151283
652.581	0.0150063
652.659	0.0150811
652.737	0.0150834
652.815	0.0151292
652.893	0.0149881
652.971	0.0149356
653.049	0.0150344
653.128	0.0150224
653.206	0.0149551
653.284	0.0150489
653.362	0.0149600
653.440	0.0149300
653.518	0.0148906
653.596	0.0150342
653.674	0.0152284
653.753	0.0149854
653.831	0.0150452
653.909	0.0150140
653.987	0.0150166
654.065	0.0150394
654.143	0.0150697
654.221	0.0148473
654.299	0.0148624
654.378	0.0150129
654.456	0.0151436
654.534	0.0150824
654.612	0.0151149
654.690	0.0150584
654.768	0.0150275
654.846	0.0148440
654.924	0.0151099
655.003	0.0149673
655.081	0.0150074
655.159	0.0149274
655.237	0.0149740
655.315	0.0150182
655.393	0.0150202
655.471	0.0150952
655.549	0.0150642
655.628	0.0149730
655.706	0.0149432
655.784	0.0149426
655.862	0.0149792
655.940	0.0149386
656.018	0.0150454
656.096	0.0149593
656.174	0.0149893
656.253	0.0149207
656.331	0.0151533
656.409	0.0151392
656.487	0.0149010
656.565	0.0149142
656.643	0.0150572
656.721	0.0149847
656.799	0.0149780
656.878	0.0150183
656.956	0.0151151
657.034	0.0150527
657.112	0.0148323
657.190	0.0149128
657.268	0.0149991
657.346	0.0148950
657.424	0.0150255
657.503	0.0149723
657.581	0.0150224
657.659	0.0150040
657.737	0.0149939
657.815	0.0151378
657.893	0.0149580
657.971	0.0149891
658.049	0.0149569
658.128	0.0149768
658.206	0.0149741
658.284	0.0150800
658.362	0.0150504
658.440	0.0150197
658.518	0.0149641
658.596	0.0151491
658.674	0.0151815
658.753	0.0148946
658.831	0.0148125
658.909	0.0150734
658.987	0.0150266
659.065	0.0150984
659.143	0.0149623
659.221	0.0149503
659.299	0.0150092
659.378	0.0148998
659.456	0.0150391
659.534	0.0149628
659.612	0.0150756
659.690	0.0150859
659.768	0.0149937
659.846	0.0148328
659.924	0.0150545
660.003	0.0151205
660.081	0.0149607
660.159	0.0149373
660.237	0.0151038
660.315	0.0150003
660.393	0.0149485
660.471	0.0150007
660.549	0.0149992
660.628	0.0149386
660.706	0.0149793
660.784	0.0149734
660.862	0.0150529
660.940	0.0149915
661.018	0.0149718
661.096	0.0150819
661.174	0.0149139
661.253	0.0149328
661.331	0.0149027
661.409	0.0148756
661.487	0.0150343
661.565	0.0150727
661.643	0.0150506
661.721	0.0150816
661.799	0.0149538
661.878	0.0149405
661.956	0.0149339
662.034	0.0150326
662.112	0.0148891
662.190	0.0149651
662.268	0.0149338
662.346	0.0149679
662.424	0.0149551
662.503	0.0148651
662.581	0.0150259
662.659	0.0149931
662.737	0.0149764
662.815	0.0149593
662.893	0.0151041
662.971	0.0149642
663.049	0.0150074
663.128	0.0148214
663.206	0.0149144
663.284	0.0149751
663.362	0.0149406
663.440	0.0150674
663.518	0.0149167
663.596	0.0149758
663.674	0.0150704
663.753	0.0150135
663.831	0.0149484
663.909	0.0149638
663.987	0.0151287
664.065	0.0149148
664.143	0.0148772
664.221	0.0149713
664.299	0.0150070
664.378	0.0149952
664.456	0.0150960
664.534	0.0150543
664.612	0.0151100
664.690	0.0148646
664.768	0.0149252
664.846	0.0149710
664.924	0.0148273
665.003	0.0149954
665.081	0.0148505
665.159	0.0149284
665.237	0.0150011
665.315	0.0151107
665.393	0.0149904
665.471	0.0149326
665.549	0.0150337
665.628	0.0150468
665.706	0.0149642
665.784	0.0150546
665.862	0.0150318
665.940	0.0149584
666.018	0.0150076
666.096	0.0149648
666.174	0.0149729
666.253	0.0150701
666.331	0.0150011
666.409	0.0148885
666.487	0.0148705
666.565	0.0148897
666.643	0.0150543
666.721	0.0149986
666.799	0.0149088
666.878	0.0149957
666.956	0.0149677
667.034	0.0150051
667.112	0.0150211
667.190	0.0150380
667.268	0.0150444
667.346	0.0149797
667.424	0.0150478
667.503	0.0149776
667.581	0.0149949
667.659	0.0150166
667.737	0.0149454
667.815	0.0149963
667.893	0.0150027
667.971	0.0149496
668.049	0.0150099
668.128	0.0149273
668.206	0.0148785
668.284	0.0150137
668.362	0.0150485
668.440	0.0148920
668.518	0.0149258
668.596	0.0150142
668.674	0.0149516
668.753	0.0149755
668.831	0.0149587
668.909	0.0149612
668.987	0.0149300
669.065	0.0148945
669.143	0.0150103
669.221	0.0148918
669.299	0.0149253
669.378	0.0149763
669.456	0.0151550
669.534	0.0149609
669.612	0.0148850
669.690	0.0150233
669.768	0.0150227
669.846	0.0149283
669.924	0.0150706
670.003	0.0149937
670.081	0.0150491
670.159	0.0150386
670.237	0.0150256
670.315	0.0150773
670.393	0.0149917
670.471	0.0149915
670.549	0.0150172
670.628	0.0150912
670.706	0.0150089
670.784	0.0150744
670.862	0.0150706
670.940	0.0151881
671.018	0.0149808
671.096	0.0149855
671.174	0.0150156
671.253	0.0150665
671.331	0.0149901
671.409	0.0149053
671.487	0.0148958
671.565	0.0150733
671.643	0.0150071
671.721	0.0150368
671.799	0.0151126
671.878	0.0149692
671.956	0.0149824
672.034	0.0148199
672.112	0.0148903
672.190	0.0150146
672.268	0.0150423
672.346	0.0150317
672.424	0.0148874
672.503	0.0149892
672.581	0.0149967
672.659	0.0148594
672.737	0.0149679
672.815	0.0150412
672.893	0.0151055
672.971	0.0149500
673.049	0.0148801
673.128	0.0150291
673.206	0.0150374
673.284	0.0150922
673.362	0.0149853
673.440	0.0149665
673.518	0.0151588
673.596	0.0149129
673.674	0.0149452
673.753	0.0150171
673.831	0.0150932
673.909	0.0149897
673.987	0.0149812
674.065	0.0151382
674.143	0.0149959
674.221	0.0149618
674.299	0.0149597
674.378	0.0150430
674.456	0.0150708
674.534	0.0148313
674.612	0.0149305
674.690	0.0150401
674.768	0.0149941
674.846	0.0150235
674.924	0.0149687
675.003	0.0149249
675.081	0.0149397
675.159	0.0150726
675.237	0.0149256
675.315	0.0149747
675.393	0.0150697
675.471	0.0150011
675.549	0.0148169
675.628	0.0150902
675.706	0.0149155
675.784	0.0149918
675.862	0.0150778
675.940	0.0149673
676.018	0.0149320
676.096	0.0150152
676.174	0.0150047
676.253	0.0150567
676.331	0.0150965
676.409	0.0148384
676.487	0.0149794
676.565	0.0150129
676.643	0.0149815
676.721	0.0150656
676.799	0.0149661
676.878	0.0149729
676.956	0.0148956
677.034	0.0151375
677.112	0.0151521
677.190	0.0150739
677.268	0.0149596
677.346	0.0149149
677.424	0.0151048
677.503	0.0149776
677.581	0.0150539
677.659	0.0149389
677.737	0.0150391
677.815	0.0150344
677.893	0.0150514
677.971	0.0150985
678.049	0.0149180
678.128	0.0150922
678.206	0.0149854
678.284	0.0150359
678.362	0.0149310
678.440	0.0150468
678.518	0.0150938
678.596	0.0150419
678.674	0.0149663
678.753	0.0150406
678.831	0.0150050
678.909	0.0149810
678.987	0.0149735
679.065	0.0150672
679.143	0.0150271
679.221	0.0150871
679.299	0.0150868
679.378	0.0148797
679.456	0.0148737
679.534	0.0149545
679.612	0.0150275
679.690	0.0149719
679.768	0.0149265
679.846	0.0150999
679.924	0.0150797
680.003	0.0149354
680.081	0.0150629
680.159	0.0150071
680.237	0.0150037
680.315	0.0150584
680.393	0.0148851
680.471	0.0150842
680.549	0.0149583
680.628	0.0149950
680.706	0.0148693
680.784	0.0150655
680.862	0.0149427
680.940	0.0150703
681.018	0.0149132
681.096	0.0150900
681.174	0.0149019
681.253	0.0149860
681.331	0.0150442
681.409	0.0149551
681.487	0.0147350
681.565	0.0150552
681.643	0.0149516
681.721	0.0149941
681.799	0.0149789
681.878	0.0149893
681.956	0.0149620
682.034	0.0150809
682.112	0.0149381
682.190	0.0150126
682.268	0.0149329
682.346	0.0150079
682.424	0.0150779
682.503	0.0149758
682.581	0.0150303
682.659	0.0149953
682.737	0.0150261
682.815	0.0150036
682.893	0.0150716
682.971	0.0150848
683.049	0.0148664
683.128	0.0150609
683.206	0.0148810
683.284	0.0148573
683.362	0.0151315
683.440	0.0149655
683.518	0.0149359
683.596	0.0150376
683.674	0.0149780
683.753	0.0149907
683.831	0.0149061
683.909	0.0149496
683.987	0.0150684
684.065	0.0149768
684.143	0.0149578
684.221	0.0150034
684.299	0.0150024
684.378	0.0149589
684.456	0.0148856
684.534	0.0149702
684.612	0.0148991
684.690	0.0150253
684.768	0.0150864
684.846	0.0148964
684.924	0.0149856
685.003	0.0150159
685.081	0.0150023
685.159	0.0149743
685.237	0.0147923
685.315	0.0149187
685.393	0.0148745
685.471	0.0150539
685.549	0.0148202
685.628	0.0150158
685.706	0.0150803
685.784	0.0149985
685.862	0.0149670
685.940	0.0149763
686.018	0.0149002
686.096	0.0148265
686.174	0.0149755
686.253	0.0148424
686.331	0.0148564
686.409	0.0150890
686.487	0.0150250
686.565	0.0149329
686.643	0.0151297
686.721	0.0150587
686.799	0.0149819
686.878	0.0149469
686.956	0.0149278
687.034	0.0149493
687.112	0.0148412
687.190	0.0150587
687.268	0.0149720
687.346	0.0149462
687.424	0.0149200
687.503	0.0150376
687.581	0.0149183
687.659	0.0148523
687.737	0.0150202
687.815	0.0149185
687.893	0.0149866
687.971	0.0150637
688.049	0.0148746
688.128	0.0149862
688.206	0.0149644
688.284	0.0148635
688.362	0.0149224
688.440	0.0149471
688.518	0.0150430
688.596	0.0149744
688.674	0.0150078
688.753	0.0148952
688.831	0.0151298
688.909	0.0149619
688.987	0.0149545
689.065	0.0151406
689.143	0.0149738
689.221	0.0149482
689.299	0.0150583
689.378	0.0149497
689.456	0.0150789
689.534	0.0148653
689.612	0.0149919
689.690	0.0149930
689.768	0.0148883
689.846	0.0149780
689.924	0.0150246
690.003	0.0149358
690.081	0.0148790
690.159	0.0149784
690.237	0.0150198
690.315	0.0149657
690.393	0.0150646
690.471	0.0149387
690.549	0.0149979
690.628	0.0149397
690.706	0.0148699
690.784	0.0148751
690.862	0.0149503
690.940	0.0149894
691.018	0.0149959
691.096	0.0150365
691.174	0.0150505
691.253	0.0150789
691.331	0.0149069
691.409	0.0148293
691.487	0.0149335
691.565	0.0150134
691.643	0.0150258
691.721	0.0150006
691.799	0.0148997
691.878	0.0148687
691.956	0.0148396
692.034	0.0149905
692.112	0.0150686
692.190	0.0149588
692.268	0.0148666
692.346	0.0148470
692.424	0.0150002
692.503	0.0149210
692.581	0.0149577
692.659	0.0148305
692.737	0.0150015
692.815	0.0149492
692.893	0.0150294
692.971	0.0148553
693.049	0.0150509
693.128	0.0148595
693.206	0.0147997
693.284	0.0148579
693.362	0.0148640
693.440	0.0149329
693.518	0.0149306
693.596	0.0149332
693.674	0.0150113
693.753	0.0148907
693.831	0.0148596
693.909	0.0149804
693.987	0.0149638
694.065	0.0150912
694.143	0.0149988
694.221	0.0149197
694.299	0.0150197
694.378	0.0150884
694.456	0.0149606
694.534	0.0150333
694.612	0.0150700
694.690	0.0149522
694.768	0.0149827
694.846	0.0149957
694.924	0.0150716
695.003	0.0149799
695.081	0.0150185
695.159	0.0149586
695.237	0.0150938
695.315	0.0149906
695.393	0.0149953
695.471	0.0150294
695.549	0.0150554
695.628	0.0150882
695.706	0.0150459
695.784	0.0150843
695.862	0.0152229
695.940	0.0151048
696.018	0.0150455
696.096	0.0150111
696.174	0.0149052
696.253	0.0149782
696.331	0.0148592
696.409	0.0147228
696.487	0.0148398
696.565	0.0148063
696.643	0.0149191
696.721	0.0149538
696.799	0.0150238
696.878	0.0149248
696.956	0.0150211
697.034	0.0149678
697.112	0.0149474
697.190	0.0149232
697.268	0.0149507
697.346	0.0149886
697.424	0.0148184
697.503	0.0148006
697.581	0.0147932
697.659	0.0147438
697.737	0.0147243
697.815	0.0147298
697.893	0.0148784
697.971	0.0149205
698.049	0.0149118
698.128	0.0148218
698.206	0.0149422
698.284	0.0149431
698.362	0.0148841
698.440	0.0150043
698.518	0.0148652
698.596	0.0150093
698.674	0.0151115
698.753	0.0149832
698.831	0.0151553
698.909	0.0152552
698.987	0.0152122
699.065	0.0152322
699.143	0.0150653
699.221	0.0149882
699.299	0.0149480
699.378	0.0149236
699.456	0.0146515
699.534	0.0147066
699.612	0.0146297
699.690	0.0145703
699.768	0.0146641
699.846	0.0146603
699.924	0.0147139
700.003	0.0148815
700.081	0.0149986
700.159	0.0152615
700.237	0.0153893
700.315	0.0153139
700.393	0.0153809
700.471	0.0154219
700.549	0.0153598
700.628	0.0152280
700.706	0.0149983
700.784	0.0148863
700.862	0.0148602
700.940	0.0147492
701.018	0.0146253
701.096	0.0146957
701.174	0.0145718
701.253	0.0144573
701.331	0.0145664
701.409	0.0145414
701.487	0.0147726
701.565	0.0150027
701.643	0.0150565
701.721	0.0150453
701.799	0.0152698
701.878	0.0154569
701.956	0.0154429
702.034	0.0153595
702.112	0.0154552
702.190	0.0154192
702.268	0.0154016
702.346	0.0152031
702.424	0.0150384
702.503	0.0149825
702.581	0.0148711
702.659	0.0147192
702.737	0.0146902
702.815	0.0145782
702.893	0.0146024
702.971	0.0145055
703.049	0.0144887
703.128	0.0147083
703.206	0.0147427
703.284	0.0149368
703.362	0.0150188
703.440	0.0152505
703.518	0.0153655
703.596	0.0156287
703.674	0.0154455
703.753	0.0155264
703.831	0.0154300
703.909	0.0153611
703.987	0.0152986
704.065	0.0151833
704.143	0.0149485
704.221	0.0148380
704.299	0.0147308
704.378	0.0145841
704.456	0.0145642
704.534	0.0145955
704.612	0.0146238
704.690	0.0146685
704.768	0.0147373
704.846	0.0149066
704.924	0.0149706
705.003	0.0149747
705.081	0.0151381
705.159	0.0152525
705.237	0.0151337
705.315	0.0152757
705.393	0.0149978
705.471	0.0151450
705.549	0.0151534
705.628	0.0153011
705.706	0.0153105
705.784	0.0152259
705.862	0.0151485
705.940	0.0151945
706.018	0.0151233
706.096	0.0150023
706.174	0.0149192
706.253	0.0147397
706.331	0.0146080
706.409	0.0145841
706.487	0.0146136
706.565	0.0146128
706.643	0.0143816
706.721	0.0146073
706.799	0.0147091
706.878	0.0146854
706.956	0.0148605
707.034	0.0150253
707.112	0.0150735
707.190	0.0152687
707.268	0.0154009
707.346	0.0154657
707.424	0.0154877
707.503	0.0152274
707.581	0.0152676
707.659	0.0151693
707.737	0.0151225
707.815	0.0149972
707.893	0.0149437
707.971	0.0149394
708.049	0.0146658
708.128	0.0146784
708.206	0.0145825
708.284	0.0146587
708.362	0.0145453
708.440	0.0145988
708.518	0.0147160
708.596	0.0149017
708.674	0.0149710
708.753	0.0149603
708.831	0.0150501
708.909	0.0151002
708.987	0.0152317
709.065	0.0152504
709.143	0.0152294
709.221	0.0153752
709.299	0.0153184
709.378	0.0151382
709.456	0.0152448
709.534	0.0151257
709.612	0.0150019
709.690	0.0149908
709.768	0.0147762
709.846	0.0147784
709.924	0.0148708
710.003	0.0145399
710.081	0.0145301
710.159	0.0146376
710.237	0.0147289
710.315	0.0146635
710.393	0.0147944
710.471	0.0149001
710.549	0.0150502
710.628	0.0150235
710.706	0.0150859
710.784	0.0150648
710.862	0.0150810
710.940	0.0152935
711.018	0.0152395
711.096	0.0153727
711.174	0.0153014
711.253	0.0152363
711.331	0.0153427
711.409	0.0154293
711.487	0.0154718
711.565	0.0151920
711.643	0.0152502
711.721	0.0151485
711.799	0.0149052
711.878	0.0146729
711.956	0.0146949
712.034	0.0146835
712.112	0.0145261
712.190	0.0143836
712.268	0.0144621
712.346	0.0144196
712.424	0.0145422
712.503	0.0146138
712.581	0.0148643
712.659	0.0148652
712.737	0.0153104
712.815	0.0151922
712.893	0.0153664
712.971	0.0154360
713.049	0.0155642
713.128	0.0155196
713.206	0.0153595
713.284	0.0151720
713.362	0.0152298
713.440	0.0151308
713.518	0.0147598
713.596	0.0147633
713.674	0.0145547
713.753	0.0143616
713.831	0.0144816
713.909	0.0144675
713.987	0.0143896
714.065	0.0145838
714.143	0.0148434
714.221	0.0148763
714.299	0.0151840
714.378	0.0152952
714.456	0.0153899
714.534	0.0157388
714.612	0.0156631
714.690	0.0155687
714.768	0.0156052
714.846	0.0155344
714.924	0.0153263
715.003	0.0151170
715.081	0.0151438
715.159	0.0148692
715.237	0.0146972
715.315	0.0146181
715.393	0.0145742
715.471	0.0145750
715.549	0.0145129
715.628	0.0147060
715.706	0.0149123
715.784	0.0148769
715.862	0.0151669
715.940	0.0153123
716.018	0.0152986
716.096	0.0154567
716.174	0.0155130
716.253	0.0155294
716.331	0.0151714
716.409	0.0152834
716.487	0.0149450
716.565	0.0149008
716.643	0.0147243
716.721	0.0144720
716.799	0.0142849
716.878	0.0143038
716.956	0.0140776
717.034	0.0142792
717.112	0.0142161
717.190	0.0142535
717.268	0.0146481
717.346	0.0148899
717.424	0.0149169
717.503	0.0152865
717.581	0.0155047
717.659	0.0156581
717.737	0.0157595
717.815	0.0157253
717.893	0.0158042
717.971	0.0155875
718.049	0.0156548
718.128	0.0154098
718.206	0.0151390
718.284	0.0149991
718.362	0.0148427
718.440	0.0148607
718.518	0.0148472
718.596	0.0145071
718.674	0.0146866
718.753	0.0147579
718.831	0.0148087
718.909	0.0148157
718.987	0.0149346
719.065	0.0150294
719.143	0.0152138
719.221	0.0151036
719.299	0.0152130
719.378	0.0152975
719.456	0.0150695
719.534	0.0150901
719.612	0.0151169
719.690	0.0151821
719.768	0.0152093
719.846	0.0150301
719.924	0.0150842
720.003	0.0150748
720.081	0.0152714
720.159	0.0151767
720.237	0.0150167
720.315	0.0150673
720.393	0.0148613
720.471	0.0147811
720.549	0.0148847
720.628	0.0146516
720.706	0.0143905
720.784	0.0145448
720.862	0.0145119
720.940	0.0144939
721.018	0.0145077
721.096	0.0145594
721.174	0.0147601
721.253	0.0148115
721.331	0.0148657
721.409	0.0150840
721.487	0.0150124
721.565	0.0152030
721.643	0.0151040
721.721	0.0150975
721.799	0.0150126
721.878	0.0149332
721.956	0.0147618
722.034	0.0145627
722.112	0.0143423
722.190	0.0143087
722.268	0.0142456
722.346	0.0142854
722.424	0.0144695
722.503	0.0147668
722.581	0.0146853
722.659	0.0150252
722.737	0.0154096
722.815	0.0157064
722.893	0.0157794
722.971	0.0159768
723.049	0.0162660
723.128	0.0164831
723.206	0.0162007
723.284	0.0162589
723.362	0.0161516
723.440	0.0160036
723.518	0.0157291
723.596	0.0154211
723.674	0.0152802
723.753	0.0149828
723.831	0.0147132
723.909	0.0144286
723.987	0.0143491
724.065	0.0141167
724.143	0.0139713
724.221	0.0138442
724.299	0.0138729
724.378	0.0138393
724.456	0.0138155
724.534	0.0138255
724.612	0.0140347
724.690	0.0140182
724.768	0.0141396
724.846	0.0143607
724.924	0.0146468
725.003	0.0149102
725.081	0.0149129
725.159	0.0150571
725.237	0.0154313
725.315	0.0154639
725.393	0.0157516
725.471	0.0157982
725.549	0.0156203
725.628	0.0158914
725.706	0.0159017
725.784	0.0158199
725.862	0.0157258
725.940	0.0158045
726.018	0.0158639
726.096	0.0158517
726.174	0.0158448
726.253	0.0158195
726.331	0.0158041
726.409	0.0157337
726.487	0.0155872
726.565	0.0155463
726.643	0.0153232
726.721	0.0150373
726.799	0.0148283
726.878	0.0142339
726.956	0.0142013
727.034	0.0141592
727.112	0.0137950
727.190	0.0134408
727.268	0.0133929
727.346	0.0135499
727.424	0.0134882
727.503	0.0137145
727.581	0.0135972
727.659	0.0137440
727.737	0.0138717
727.815	0.0139423
727.893	0.0141611
727.971	0.0142501
728.049	0.0142868
728.128	0.0144252
728.206	0.0145785
728.284	0.0147073
728.362	0.0146946
728.440	0.0149094
728.518	0.0152097
728.596	0.0152911
728.674	0.0155237
728.753	0.0156920
728.831	0.0158208
728.909	0.0160303
728.987	0.0163210
729.065	0.0164770
729.143	0.0167857
729.221	0.0167632
729.299	0.0168880
729.378	0.0168185
729.456	0.0167426
729.534	0.0167793
729.612	0.0166911
729.690	0.0165611
729.768	0.0163465
729.846	0.0163326
729.924	0.0159328
730.003	0.0157799
730.081	0.0154957
730.159	0.0153491
730.237	0.0150784
730.315	0.0148231
730.393	0.0145642
730.471	0.0143528
730.549	0.0141547
730.628	0.0139034
730.706	0.0138072
730.784	0.0135136
730.862	0.0131892
730.940	0.0130885
731.018	0.0129514
731.096	0.0128436
731.174	0.0127493
731.253	0.0128137
731.331	0.0128703
731.409	0.0131017
731.487	0.0129908
731.565	0.0133898
731.643	0.0138200
731.721	0.0138380
731.799	0.0141936
731.878	0.0143214
731.956	0.0146664
732.034	0.0149176
732.112	0.0151490
732.190	0.0152303
732.268	0.0154740
732.346	0.0155917
732.424	0.0155209
732.503	0.0157092
732.581	0.0157719
732.659	0.0157967
732.737	0.0158472
732.815	0.0158130
732.893	0.0158975
732.971	0.0157944
733.049	0.0157671
733.128	0.0159599
733.206	0.0159089
733.284	0.0157543
733.362	0.0159125
733.440	0.0158338
733.518	0.0158076
733.596	0.0156863
733.674	0.0157620
733.753	0.0157931
733.831	0.0157422
733.909	0.0155479
733.987	0.0155268
734.065	0.0155626
734.143	0.0155405
734.221	0.0153587
734.299	0.0153461
734.378	0.0154211
734.456	0.0151922
734.534	0.0150734
734.612	0.0150095
734.690	0.0149157
734.768	0.0149287
734.846	0.0149979
734.924	0.0150121
735.003	0.0151170
735.081	0.0152566
735.159	0.0154220
735.237	0.0155161
735.315	0.0157025
735.393	0.0158298
735.471	0.0156832
735.549	0.0156408
735.628	0.0156993
735.706	0.0154108
735.784	0.0151293
735.862	0.0149281
735.940	0.0147482
736.018	0.0143834
736.096	0.0141888
736.174	0.0138351
736.253	0.0135806
736.331	0.0131666
736.409	0.0128864
736.487	0.0128951
736.565	0.0127072
736.643	0.0124926
736.721	0.0124502
736.799	0.0123640
736.878	0.0123763
736.956	0.0124876
737.034	0.0125957
737.112	0.0128233
737.190	0.0131059
737.268	0.0134148
737.346	0.0138553
737.424	0.0143317
737.503	0.0147902
737.581	0.0152606
737.659	0.0158006
737.737	0.0162911
737.815	0.0167056
737.893	0.0169947
737.971	0.0173538
738.049	0.0175385
738.128	0.0174780
738.206	0.0174361
738.284	0.0173764
738.362	0.0171760
738.440	0.0169492
738.518	0.0167129
738.596	0.0163472
738.674	0.0162912
738.753	0.0159567
738.831	0.0157342
738.909	0.0155824
738.987	0.0153693
739.065	0.0153213
739.143	0.0154631
739.221	0.0154079
739.299	0.0155311
739.378	0.0154957
739.456	0.0157575
739.534	0.0156290
739.612	0.0157407
739.690	0.0157983
739.768	0.0158113
739.846	0.0160738
739.924	0.0160326
740.003	0.0158860
740.081	0.0157964
740.159	0.0156274
740.237	0.0155058
740.315	0.0154612
740.393	0.0152668
740.471	0.0149911
740.549	0.0148732
740.628	0.0148111
740.706	0.0145921
740.784	0.0143201
740.862	0.0141123
740.940	0.0139107
741.018	0.0136641
741.096	0.0134241
741.174	0.0132969
741.253	0.0129056
741.331	0.0126321
741.409	0.0125190
741.487	0.0123917
741.565	0.0121873
741.643	0.0121666
741.721	0.0120622
741.799	0.0122032
741.878	0.0122612
741.956	0.0124990
742.034	0.0126345
742.112	0.0130277
742.190	0.0134892
742.268	0.0136855
742.346	0.0142139
742.424	0.0146377
742.503	0.0150726
742.581	0.0154171
742.659	0.0158580
742.737	0.0162044
742.815	0.0165318
742.893	0.0167411
742.971	0.0170497
743.049	0.0172440
743.128	0.0172968
743.206	0.0174459
743.284	0.0175231
743.362	0.0173718
743.440	0.0173817
743.518	0.0172190
743.596	0.0169998
743.674	0.0168431
743.753	0.0167731
743.831	0.0168060
743.909	0.0165331
743.987	0.0163202
744.065	0.0163037
744.143	0.0161313
744.221	0.0159178
744.299	0.0156284
744.378	0.0155611
744.456	0.0154263
744.534	0.0150613
744.612	0.0148265
744.690	0.0145356
744.768	0.0141952
744.846	0.0141692
744.924	0.0141228
745.003	0.0138950
745.081	0.0137814
745.159	0.0138403
745.237	0.0138597
745.315	0.0140242
745.393	0.0141891
745.471	0.0142018
745.549	0.0145100
745.628	0.0146490
745.706	0.0149437
745.784	0.0151641
745.862	0.0152531
745.940	0.0153832
746.018	0.0154622
746.096	0.0156260
746.174	0.0155918
746.253	0.0153981
746.331	0.0151288
746.409	0.0149480
746.487	0.0146619
746.565	0.0143806
746.643	0.0141252
746.721	0.0138239
746.799	0.0133485
746.878	0.0130781
746.956	0.0127705
747.034	0.0126431
747.112	0.0127052
747.190	0.0127600
747.268	0.0128628
747.346	0.0128964
747.424	0.0130820
747.503	0.0133440
747.581	0.0134283
747.659	0.0138737
747.737	0.0141635
747.815	0.0144013
747.893	0.0148144
747.971	0.0152070
748.049	0.0155393
748.128	0.0158723
748.206	0.0160210
748.284	0.0162914
748.362	0.0163985
748.440	0.0165968
748.518	0.0166946
748.596	0.0167436
748.674	0.0166008
748.753	0.0165769
748.831	0.0166611
748.909	0.0164239
748.987	0.0165215
749.065	0.0162624
749.143	0.0162669
749.221	0.0163691
749.299	0.0162058
749.378	0.0160587
749.456	0.0160673
749.534	0.0157626
749.612	0.0156810
749.690	0.0156953
749.768	0.0155581
749.846	0.0153207
749.924	0.0153898
750.003	0.0152227
750.081	0.0153281
750.159	0.0152416
750.237	0.0151740
750.315	0.0151904
750.393	0.0153159
750.471	0.0153184
750.549	0.0155878
750.628	0.0154790
750.706	0.0153005
750.784	0.0153783
750.862	0.0154260
750.940	0.0151288
751.018	0.0151289
751.096	0.0151212
751.174	0.0149685
751.253	0.0147020
751.331	0.0145930
751.409	0.0144603
751.487	0.0141032
751.565	0.0139774
751.643	0.0136634
751.721	0.0134214
751.799	0.0133781
751.878	0.0132100
751.956	0.0129436
752.034	0.0128479
752.112	0.0129385
752.190	0.0129402
752.268	0.0129313
752.346	0.0128813
752.424	0.0130437
752.503	0.0132721
752.581	0.0136334
752.659	0.0138622
752.737	0.0139973
752.815	0.0142580
752.893	0.0146996
752.971	0.0150187
753.049	0.0153684
753.128	0.0155981
753.206	0.0158794
753.284	0.0159275
753.362	0.0160979
753.440	0.0161908
753.518	0.0161201
753.596	0.0162996
753.674	0.0161698
753.753	0.0161440
753.831	0.0162547
753.909	0.0161237
753.987	0.0160558
754.065	0.0159729
754.143	0.0157718
754.221	0.0158482
754.299	0.0158054
754.378	0.0158177
754.456	0.0158138
754.534	0.0156561
754.612	0.0154713
754.690	0.0156311
754.768	0.0155040
754.846	0.0153918
754.924	0.0154732
755.003	0.0152250
755.081	0.0151196
755.159	0.0150848
755.237	0.0151773
755.315	0.0151763
755.393	0.0150642
755.471	0.0151202
755.549	0.0149582
755.628	0.0151186
755.706	0.0153043
755.784	0.0154020
755.862	0.0153684
755.940	0.0157076
756.018	0.0158616
756.096	0.0157709
756.174	0.0158156
756.253	0.0157442
756.331	0.0158598
756.409	0.0157913
756.487	0.0155959
756.565	0.0154253
756.643	0.0154353
756.721	0.0149078
756.799	0.0147268
756.878	0.0144270
756.956	0.0142702
757.034	0.0138851
757.112	0.0136716
757.190	0.0133556
757.268	0.0131675
757.346	0.0129185
757.424	0.0129226
757.503	0.0128580
757.581	0.0128216
757.659	0.0128188
757.737	0.0128545
757.815	0.0130588
757.893	0.0130431
757.971	0.0131387
758.049	0.0134684
758.128	0.0137257
758.206	0.0139160
758.284	0.0140263
758.362	0.0142654
758.440	0.0146840
758.518	0.0148293
758.596	0.0150748
758.674	0.0154708
758.753	0.0158504
758.831	0.0159705
758.909	0.0164088
758.987	0.0163590
759.065	0.0165633
759.143	0.0166931
759.221	0.0168439
759.299	0.0169590
759.378	0.0170614
759.456	0.0169175
759.534	0.0168271
759.612	0.0165437
759.690	0.0162563
759.768	0.0160995
759.846	0.0158346
759.924	0.0155130
760.003	0.0151638
760.081	0.0147865
760.159	0.0148190
760.237	0.0145741
760.315	0.0143408
760.393	0.0143991
760.471	0.0143337
760.549	0.0142779
760.628	0.0142867
760.706	0.0145917
760.784	0.0147158
760.862	0.0148752
760.940	0.0152327
761.018	0.0152897
761.096	0.0154157
761.174	0.0156850
761.253	0.0158855
761.331	0.0157992
761.409	0.0157615
761.487	0.0158625
761.565	0.0158072
761.643	0.0157129
761.721	0.0156187
761.799	0.0154070
761.878	0.0153109
761.956	0.0150877
762.034	0.0150509
762.112	0.0147709
762.190	0.0147011
762.268	0.0144724
762.346	0.0144173
762.424	0.0144391
762.503	0.0140656
762.581	0.0140537
762.659	0.0140189
762.737	0.0137630
762.815	0.0136231
762.893	0.0135965
762.971	0.0134599
763.049	0.0135791
763.128	0.0136423
763.206	0.0136740
763.284	0.0138727
763.362	0.0139912
763.440	0.0141453
763.518	0.0141212
763.596	0.0142272
763.674	0.0144398
763.753	0.0143784
763.831	0.0144059
763.909	0.0146970
763.987	0.0147971
764.065	0.0149168
764.143	0.0151613
764.221	0.0153146
764.299	0.0156378
764.378	0.0158563
764.456	0.0160046
764.534	0.0160678
764.612	0.0162778
764.690	0.0162992
764.768	0.0164621
764.846	0.0164840
764.924	0.0164517
765.003	0.0163369
765.081	0.0162514
765.159	0.0160545
765.237	0.0159142
765.315	0.0157323
765.393	0.0155110
765.471	0.0152603
765.549	0.0150333
765.628	0.0148427
765.706	0.0147256
765.784	0.0146758
765.862	0.0143368
765.940	0.0143803
766.018	0.0143023
766.096	0.0144627
766.174	0.0143697
766.253	0.0144942
766.331	0.0146616
766.409	0.0147733
766.487	0.0151118
766.565	0.0153188
766.643	0.0154890
766.721	0.0156518
766.799	0.0158411
766.878	0.0157443
766.956	0.0159327
767.034	0.0160360
767.112	0.0157196
767.190	0.0153896
767.268	0.0153187
767.346	0.0151966
767.424	0.0149825
767.503	0.0148161
767.581	0.0146390
767.659	0.0145515
767.737	0.0144180
767.815	0.0144766
767.893	0.0142760
767.971	0.0142165
768.049	0.0141647
768.128	0.0141735
768.206	0.0141704
768.284	0.0144320
768.362	0.0142356
768.440	0.0143807
768.518	0.0143639
768.596	0.0143784
768.674	0.0146047
768.753	0.0145535
768.831	0.0147169
768.909	0.0146643
768.987	0.0146296
769.065	0.0146446
769.143	0.0145230
769.221	0.0145255
769.299	0.0145142
769.378	0.0145277
769.456	0.0144035
769.534	0.0143757
769.612	0.0144819
769.690	0.0147107
769.768	0.0147438
769.846	0.0146674
769.924	0.0148653
770.003	0.0149216
770.081	0.0150584
770.159	0.0153547
770.237	0.0154849
770.315	0.0156801
770.393	0.0157516
770.471	0.0156994
770.549	0.0159270
770.628	0.0161067
770.706	0.0159222
770.784	0.0159112
770.862	0.0159563
770.940	0.0158230
771.018	0.0158981
771.096	0.0157279
771.174	0.0156931
771.253	0.0157421
771.331	0.0155090
771.409	0.0154327
771.487	0.0152406
771.565	0.0151130
771.643	0.0151514
771.721	0.0151433
771.799	0.0152122
771.878	0.0153114
771.956	0.0152283
772.034	0.0151176
772.112	0.0152277
772.190	0.0153041
772.268	0.0151331
772.346	0.0151590
772.424	0.0150729
772.503	0.0150243
772.581	0.0147991
772.659	0.0148340
772.737	0.0148631
772.815	0.0146249
772.893	0.0145460
772.971	0.0145339
773.049	0.0144981
773.128	0.0146559
773.206	0.0144459
773.284	0.0145336
773.362	0.0144834
773.440	0.0144745
773.518	0.0146490
773.596	0.0146194
773.674	0.0147288
773.753	0.0148203
773.831	0.0149216
773.909	0.0148548
773.987	0.0149723
774.065	0.0149426
774.143	0.0149312
774.221	0.0149789
774.299	0.0148754
774.378	0.0149685
774.456	0.0149178
774.534	0.0148393
774.612	0.0145948
774.690	0.0145392
774.768	0.0145625
774.846	0.0145638
774.924	0.0145506
775.003	0.0145631
775.081	0.0145101
775.159	0.0145386
775.237	0.0144706
775.315	0.0147401
775.393	0.0146118
775.471	0.0146868
775.549	0.0147566
775.628	0.0149947
775.706	0.0149844
775.784	0.0150804
775.862	0.0152137
775.940	0.0153368
776.018	0.0154884
776.096	0.0153874
776.174	0.0155785
776.253	0.0157751
776.331	0.0157037
776.409	0.0158721
776.487	0.0157956
776.565	0.0156126
776.643	0.0155878
776.721	0.0157084
776.799	0.0155843
776.878	0.0154608
776.956	0.0154250
777.034	0.0153706
777.112	0.0154052
777.190	0.0152627
777.268	0.0153121
777.346	0.0152072
777.424	0.0152776
777.503	0.0152629
777.581	0.0151999
777.659	0.0150230
777.737	0.0149506
777.815	0.0147980
777.893	0.0147540
777.971	0.0146128
778.049	0.0147340
778.128	0.0144604
778.206	0.0144953
778.284	0.0145460
778.362	0.0144351
778.440	0.0144816
778.518	0.0144450
778.596	0.0144456
778.674	0.0145332
778.753	0.0145129
778.831	0.0145744
778.909	0.0147688
778.987	0.0147768
779.065	0.0150305
779.143	0.0152335
779.221	0.0153799
779.299	0.0155273
779.378	0.0154915
779.456	0.0155009
779.534	0.0155939
779.612	0.0155569
779.690	0.0156091
779.768	0.0154678
779.846	0.0153402
779.924	0.0152139
780.003	0.0150605
780.081	0.0148304
780.159	0.0147916
780.237	0.0145919
780.315	0.0141952
780.393	0.0142700
780.471	0.0142513
780.549	0.0139703
780.628	0.0139933
780.706	0.0141796
780.784	0.0141737
780.862	0.0141982
780.940	0.0142400
781.018	0.0142861
781.096	0.0145310
781.174	0.0144038
781.253	0.0144781
781.331	0.0147845
781.409	0.0148728
781.487	0.0149480
781.565	0.0150860
781.643	0.0151917
781.721	0.0152973
781.799	0.0155106
781.878	0.0154381
781.956	0.0155363
782.034	0.0157308
782.112	0.0157533
782.190	0.0156847
782.268	0.0159397
782.346	0.0158982
782.424	0.0158266
782.503	0.0158038
782.581	0.0157978
782.659	0.0157521
782.737	0.0156215
782.815	0.0154929
782.893	0.0155037
782.971	0.0152750
783.049	0.0150753
783.128	0.0151532
783.206	0.0149068
783.284	0.0147784
783.362	0.0146906
783.440	0.0146848
783.518	0.0145362
783.596	0.0146267
783.674	0.0144853
783.753	0.0145159
783.831	0.0144141
783.909	0.0143711
783.987	0.0144343
784.065	0.0144634
784.143	0.0144521
784.221	0.0145189
784.299	0.0147073
784.378	0.0146112
784.456	0.0145500
784.534	0.0147396
784.612	0.0151411
784.690	0.0151147
784.768	0.0153520
784.846	0.0153848
784.924	0.0153214
785.003	0.0154406
785.081	0.0154728
785.159	0.0155196
785.237	0.0154177
785.315	0.0153509
785.393	0.0154105
785.471	0.0152694
785.549	0.0152106
785.628	0.0150805
785.706	0.0149831
785.784	0.0147578
785.862	0.0147859
785.940	0.0146141
786.018	0.0145442
786.096	0.0143227
786.174	0.0144400
786.253	0.0144008
786.331	0.0142879
786.409	0.0141734
786.487	0.0144260
786.565	0.0144739
786.643	0.0143522
786.721	0.0145261
786.799	0.0147373
786.878	0.0147378
786.956	0.0146846
787.034	0.0148297
787.112	0.0150095
787.190	0.0150748
787.268	0.0151395
787.346	0.0150397
787.424	0.0152666
787.503	0.0153274
787.581	0.0152107
787.659	0.0153736
787.737	0.0153118
787.815	0.0153599
787.893	0.0153684
787.971	0.0154330
788.049	0.0154111
788.128	0.0152881
788.206	0.0154177
788.284	0.0153228
788.362	0.0153700
788.440	0.0153075
788.518	0.0152646
788.596	0.0151720
788.674	0.0153381
788.753	0.0152273
788.831	0.0151736
788.909	0.0151182
788.987	0.0148440
789.065	0.0150492
789.143	0.0151110
789.221	0.0148282
789.299	0.0149460
789.378	0.0148647
789.456	0.0150119
789.534	0.0148784
789.612	0.0150345
789.690	0.0148473
789.768	0.0149456
789.846	0.0148185
789.924	0.0149712
790.003	0.0148716
790.081	0.0150088
790.159	0.0150174
790.237	0.0149759
790.315	0.0149529
790.393	0.0148988
790.471	0.0151003
790.549	0.0149754
790.628	0.0149999
790.706	0.0150577
790.784	0.0149922
790.862	0.0151512
790.940	0.0150394
791.018	0.0149644
791.096	0.0149511
791.174	0.0150243
791.253	0.0148685
791.331	0.0148870
791.409	0.0149122
791.487	0.0149682
791.565	0.0148156
791.643	0.0147592
791.721	0.0148225
791.799	0.0148100
791.878	0.0146484
791.956	0.0146004
792.034	0.0146954
792.112	0.0145992
792.190	0.0147173
792.268	0.0146419
792.346	0.0148524
792.424	0.0146967
792.503	0.0148421
792.581	0.0149261
792.659	0.0149529
792.737	0.0149229
792.815	0.0150397
792.893	0.0150882
792.971	0.0151687
793.049	0.0151758
793.128	0.0151959
793.206	0.0151654
793.284	0.0151776
793.362	0.0152250
793.440	0.0152138
793.518	0.0149513
793.596	0.0150688
793.674	0.0151377
793.753	0.0150152
793.831	0.0149562
793.909	0.0149547
793.987	0.0149561
794.065	0.0148645
794.143	0.0149300
794.221	0.0149856
794.299	0.0148476
794.378	0.0148600
794.456	0.0147871
794.534	0.0148195
794.612	0.0147949
794.690	0.0147896
794.768	0.0150283
794.846	0.0150336
794.924	0.0150192
795.003	0.0151762
795.081	0.0151451
795.159	0.0152340
795.237	0.0152576
795.315	0.0152614
795.393	0.0154791
795.471	0.0154498
795.549	0.0154678
795.628	0.0155443
795.706	0.0155976
795.784	0.0156081
795.862	0.0156468
795.940	0.0154970
796.018	0.0154674
796.096	0.0153197
796.174	0.0152163
796.253	0.0151860
796.331	0.0150703
796.409	0.0149652
796.487	0.0148522
796.565	0.0147550
796.643	0.0144619
796.721	0.0145419
796.799	0.0143283
796.878	0.0144521
796.956	0.0143462
797.034	0.0142431
797.112	0.0144267
797.190	0.0143030
797.268	0.0143380
797.346	0.0143924
797.424	0.0145315
797.503	0.0145855
797.581	0.0147202
797.659	0.0148904
797.737	0.0148700
797.815	0.0149436
797.893	0.0151054
797.971	0.0151672
798.049	0.0151569
798.128	0.0151537
798.206	0.0151852
798.284	0.0153206
798.362	0.0152641
798.440	0.0152808
798.518	0.0152377
798.596	0.0150302
798.674	0.0150032
798.753	0.0151121
798.831	0.0152670
798.909	0.0150349
798.987	0.0150268
799.065	0.0151579
799.143	0.0150778
799.221	0.0151238
799.299	0.0152874
799.378	0.0151101
799.456	0.0150110
799.534	0.0150970
799.612	0.0151821
799.690	0.0149419
799.768	0.0150949
799.846	0.0150535
799.924	0.0148919
800.003	0.0148830
800.081	0.0148495
800.159	0.0147668
800.237	0.0148524
800.315	0.0147836
800.393	0.0147437
800.471	0.0147139
800.549	0.0147328
800.628	0.0147750
800.706	0.0147514
800.784	0.0147765
800.862	0.0148043
800.940	0.0151227
801.018	0.0150028
801.096	0.0150509
801.174	0.0150262
801.253	0.0151273
801.331	0.0152637
801.409	0.0152294
801.487	0.0153356
801.565	0.0155733
801.643	0.0154681
801.721	0.0155363
801.799	0.0154710
801.878	0.0153530
801.956	0.0153426
802.034	0.0153340
802.112	0.0151762
802.190	0.0152839
802.268	0.0153031
802.346	0.0150218
802.424	0.0149290
802.503	0.0148478
802.581	0.0148672
802.659	0.0147179
802.737	0.0148555
802.815	0.0146722
802.893	0.0146551
802.971	0.0146935
803.049	0.0146497
803.128	0.0147010
803.206	0.0146323
803.284	0.0147065
803.362	0.0147320
803.440	0.0148441
803.518	0.0148711
803.596	0.0148814
803.674	0.0147401
803.753	0.0148984
803.831	0.0148862
803.909	0.0148495
803.987	0.0151460
804.065	0.0149519
804.143	0.0148362
804.221	0.0148277
804.299	0.0148627
804.378	0.0150105
804.456	0.0149818
804.534	0.0149404
804.612	0.0150414
804.690	0.0148473
804.768	0.0150243
804.846	0.0151203
804.924	0.0148962
805.003	0.0148436
805.081	0.0148801
805.159	0.0150407
805.237	0.0149377
805.315	0.0149352
805.393	0.0149082
805.471	0.0149692
805.549	0.0151028
805.628	0.0149332
805.706	0.0149807
805.784	0.0149449
805.862	0.0149666
805.940	0.0148659
806.018	0.0147846
806.096	0.0148950
806.174	0.0149206
806.253	0.0148643
806.331	0.0149641
806.409	0.0149731
806.487	0.0149562
806.565	0.0150711
806.643	0.0149623
806.721	0.0149745
806.799	0.0151564
806.878	0.0151028
806.956	0.0151153
807.034	0.0149008
807.112	0.0150372
807.190	0.0149537
807.268	0.0151318
807.346	0.0150221
807.424	0.0149228
807.503	0.0149791
807.581	0.0150351
807.659	0.0150838
807.737	0.0148783
807.815	0.0148516
807.893	0.0148341
807.971	0.0148405
808.049	0.0149120
808.128	0.0149279
808.206	0.0149141
808.284	0.0150626
808.362	0.0150388
808.440	0.0150481
808.518	0.0151108
808.596	0.0151703
808.674	0.0151453
808.753	0.0152687
808.831	0.0151633
808.909	0.0151495
808.987	0.0151601
809.065	0.0150951
809.143	0.0150582
809.221	0.0149657
809.299	0.0149303
809.378	0.0150627
809.456	0.0149055
809.534	0.0148772
809.612	0.0148260
809.690	0.0148391
809.768	0.0147893
809.846	0.0148586
809.924	0.0147733
810.003	0.0148086
810.081	0.0147958
810.159	0.0146461
810.237	0.0147283
810.315	0.0148499
810.393	0.0148199
810.471	0.0148055
810.549	0.0148825
810.628	0.0147236
810.706	0.0147925
810.784	0.0148035
810.862	0.0148315
810.940	0.0147872
811.018	0.0148287
811.096	0.0148975
811.174	0.0148282
811.253	0.0148387
811.331	0.0148795
811.409	0.0148978
811.487	0.0150816
811.565	0.0150868
811.643	0.0150996
811.721	0.0151453
811.799	0.0151194
811.878	0.0150257
811.956	0.0152558
812.034	0.0153001
812.112	0.0152245
812.190	0.0151823
812.268	0.0150862
812.346	0.0150914
812.424	0.0150710
812.503	0.0151025
812.581	0.0149693
812.659	0.0150422
812.737	0.0149707
812.815	0.0148900
812.893	0.0149792
812.971	0.0149425
813.049	0.0148728
813.128	0.0148524
813.206	0.0147528
813.284	0.0148354
813.362	0.0148550
813.440	0.0149023
813.518	0.0148370
813.596	0.0148550
813.674	0.0147890
813.753	0.0149178
813.831	0.0151944
813.909	0.0149567
813.987	0.0149390
814.065	0.0149836
814.143	0.0148843
814.221	0.0150304
814.299	0.0150201
814.378	0.0149727
814.456	0.0150353
814.534	0.0150187
814.612	0.0151575
814.690	0.0150983
814.768	0.0151779
814.846	0.0152061
814.924	0.0150234
815.003	0.0151796
815.081	0.0152562
815.159	0.0152550
815.237	0.0151907
815.315	0.0151013
815.393	0.0151385
815.471	0.0150427
815.549	0.0149657
815.628	0.0152111
815.706	0.0149971
815.784	0.0150745
815.862	0.0150774
815.940	0.0149530
816.018	0.0148983
816.096	0.0149947
816.174	0.0149126
816.253	0.0148815
816.331	0.0148004
816.409	0.0148512
816.487	0.0147182
816.565	0.0148108
816.643	0.0147586
816.721	0.0148019
816.799	0.0147708
816.878	0.0149729
816.956	0.0148401
817.034	0.0148351
817.112	0.0150421
817.190	0.0148540
817.268	0.0149561
817.346	0.0150310
817.424	0.0149540
817.503	0.0150751
817.581	0.0152254
817.659	0.0150645
817.737	0.0151257
817.815	0.0151535
817.893	0.0151105
817.971	0.0150324
818.049	0.0149525
818.128	0.0149802
818.206	0.0150289
818.284	0.0149664
818.362	0.0150303
818.440	0.0148280
818.518	0.0148668
818.596	0.0149706
818.674	0.0149478
818.753	0.0149660
818.831	0.0149960
818.909	0.0149586
818.987	0.0149069
819.065	0.0150841
819.143	0.0151626
819.221	0.0151078
819.299	0.0150896
819.378	0.0151328
819.456	0.0151186
819.534	0.0150880
819.612	0.0151582
819.690	0.0150676
819.768	0.0150816
819.846	0.0151954
819.924	0.0151550
820.003	0.0149448
820.081	0.0149489
820.159	0.0150868
820.237	0.0149990
820.315	0.0148487
820.393	0.0148676
820.471	0.0147984
820.549	0.0148566
820.628	0.0147424
820.706	0.0147606
820.784	0.0148165
820.862	0.0148913
820.940	0.0148003
821.018	0.0147923
821.096	0.0150370
821.174	0.0148975
821.253	0.0148037
821.331	0.0149443
821.409	0.0151089
821.487	0.0150470
821.565	0.0149912
821.643	0.0150342
821.721	0.0150423
821.799	0.0151395
821.878	0.0151403
821.956	0.0151218
822.034	0.0151664
822.112	0.0150529
822.190	0.0151372
822.268	0.0151258
822.346	0.0151042
822.424	0.0150560
822.503	0.0151190
822.581	0.0151639
822.659	0.0151237
822.737	0.0149850
822.815	0.0149915
822.893	0.0149580
822.971	0.0150433
823.049	0.0150102
823.128	0.0149717
823.206	0.0150058
823.284	0.0149129
823.362	0.0148988
823.440	0.0149232
823.518	0.0149872
823.596	0.0149763
823.674	0.0149236
823.753	0.0148258
823.831	0.0148429
823.909	0.0148689
823.987	0.0145779
824.065	0.0146165
824.143	0.0146183
824.221	0.0147948
824.299	0.0147787
824.378	0.0146098
824.456	0.0147562
824.534	0.0147701
824.612	0.0149374
824.690	0.0149832
824.768	0.0150328
824.846	0.0149909
824.924	0.0150521
825.003	0.0149165
825.081	0.0150444
825.159	0.0150267
825.237	0.0152456
825.315	0.0151772
825.393	0.0152719
825.471	0.0151130
825.549	0.0151796
825.628	0.0152008
825.706	0.0152490
825.784	0.0151928
825.862	0.0151215
825.940	0.0152686
826.018	0.0151286
826.096	0.0152306
826.174	0.0152448
826.253	0.0152132
826.331	0.0152647
826.409	0.0151115
826.487	0.0150716
826.565	0.0151953
826.643	0.0152034
826.721	0.0151333
826.799	0.0149995
826.878	0.0150946
826.956	0.0148846
827.034	0.0147969
827.112	0.0147920
827.190	0.0147765
827.268	0.0147506
827.346	0.0147429
827.424	0.0146759
827.503	0.0147202
827.581	0.0147331
827.659	0.0146213
827.737	0.0146873
827.815	0.0146284
827.893	0.0147287
827.971	0.0147958
828.049	0.0148512
828.128	0.0148789
828.206	0.0148293
828.284	0.0148082
828.362	0.0149103
828.440	0.0149889
828.518	0.0151237
828.596	0.0150837
828.674	0.0150416
828.753	0.0150777
828.831	0.0151968
828.909	0.0150992
828.987	0.0152686
829.065	0.0150671
829.143	0.0150427
829.221	0.0150483
829.299	0.0151447
829.378	0.0150924
829.456	0.0149700
829.534	0.0149326
829.612	0.0151015
829.690	0.0149836
829.768	0.0150841
829.846	0.0150226
829.924	0.0151376
830.003	0.0151437
830.081	0.0151677
830.159	0.0151453
830.237	0.0152711
830.315	0.0152542
830.393	0.0154182
830.471	0.0152966
830.549	0.0151117
830.628	0.0152781
830.706	0.0151760
830.784	0.0151388
830.862	0.0151530
830.940	0.0151546
831.018	0.0150056
831.096	0.0150175
831.174	0.0150453
831.253	0.0148939
831.331	0.0148656
831.409	0.0149082
831.487	0.0147894
831.565	0.0148692
831.643	0.0148545
831.721	0.0147594
831.799	0.0148438
831.878	0.0148805
831.956	0.0148727
832.034	0.0148904
832.112	0.0149894
832.190	0.0149017
832.268	0.0148310
832.346	0.0148572
832.424	0.0149304
832.503	0.0149454
832.581	0.0149883
832.659	0.0149599
832.737	0.0147114
832.815	0.0148286
832.893	0.0147407
832.971	0.0145580
833.049	0.0146190
833.128	0.0145858
833.206	0.0144502
833.284	0.0145208
833.362	0.0145467
833.440	0.0145291
833.518	0.0144988
833.596	0.0146738
833.674	0.0147025
833.753	0.0148354
833.831	0.0147935
833.909	0.0147219
833.987	0.0148377
834.065	0.0150973
834.143	0.0152252
834.221	0.0151785
834.299	0.0152130
834.378	0.0152422
834.456	0.0152926
834.534	0.0153554
834.612	0.0153261
834.690	0.0153368
834.768	0.0152317
834.846	0.0153094
834.924	0.0153590
835.003	0.0153570
835.081	0.0155638
835.159	0.0154110
835.237	0.0154049
835.315	0.0154633
835.393	0.0154883
835.471	0.0153796
835.549	0.0154149
835.628	0.0152627
835.706	0.0153300
835.784	0.0151910
835.862	0.0153676
835.940	0.0152511
836.018	0.0151716
836.096	0.0151638
836.174	0.0151540
836.253	0.0150469
836.331	0.0150706
836.409	0.0149316
836.487	0.0147008
836.565	0.0149655
836.643	0.0150100
836.721	0.0149196
836.799	0.0148524
836.878	0.0148683
836.956	0.0149111
837.034	0.0147964
837.112	0.0149425
837.190	0.0148894
837.268	0.0147887
837.346	0.0146339
837.424	0.0146732
837.503	0.0147395
837.581	0.0145638
837.659	0.0145609
837.737	0.0144867
837.815	0.0145473
837.893	0.0144328
837.971	0.0144709
838.049	0.0145014
838.128	0.0143410
838.206	0.0142694
838.284	0.0144800
838.362	0.0145615
838.440	0.0146148
838.518	0.0146515
838.596	0.0145998
838.674	0.0145945
838.753	0.0148586
838.831	0.0150243
838.909	0.0148197
838.987	0.0149881
839.065	0.0149909
839.143	0.0151482
839.221	0.0151548
839.299	0.0150958
839.378	0.0151311
839.456	0.0151980
839.534	0.0153543
839.612	0.0153244
839.690	0.0155217
839.768	0.0155142
839.846	0.0154465
839.924	0.0153475
840.003	0.0154956
840.081	0.0153149
840.159	0.0154192
840.237	0.0153781
840.315	0.0154705
840.393	0.0154686
840.471	0.0154678
840.549	0.0154357
840.628	0.0153973
840.706	0.0153681
840.784	0.0153597
840.862	0.0154042
840.940	0.0153259
841.018	0.0153923
841.096	0.0152872
841.174	0.0153519
841.253	0.0154196
841.331	0.0152786
841.409	0.0151819
841.487	0.0151290
841.565	0.0149426
841.643	0.0151419
841.721	0.0150275
841.799	0.0149902
841.878	0.0149175
841.956	0.0148791
842.034	0.0147733
842.112	0.0146972
842.190	0.0147778
842.268	0.0148260
842.346	0.0146112
842.424	0.0145144
842.503	0.0145374
842.581	0.0145631
842.659	0.0145229
842.737	0.0145323
842.815	0.0144645
842.893	0.0146077
842.971	0.0146022
843.049	0.0145683
843.128	0.0145967
843.206	0.0144460
843.284	0.0145335
843.362	0.0145209
843.440	0.0146291
843.518	0.0145992
843.596	0.0145608
843.674	0.0147086
843.753	0.0147192
843.831	0.0147911
843.909	0.0146963
843.987	0.0148857
844.065	0.0149640
844.143	0.0151248
844.221	0.0150425
844.299	0.0150492
844.378	0.0151557
844.456	0.0150826
844.534	0.0150759
844.612	0.0151634
844.690	0.0152753
844.768	0.0151938
844.846	0.0151206
844.924	0.0151865
845.003	0.0151979
845.081	0.0152316
845.159	0.0152294
845.237	0.0152057
845.315	0.0151508
845.393	0.0152454
845.471	0.0151795
845.549	0.0152857
845.628	0.0153635
845.706	0.0154129
845.784	0.0154343
845.862	0.0153834
845.940	0.0154005
846.018	0.0154758
846.096	0.0154258
846.174	0.0154076
846.253	0.0153804
846.331	0.0153735
846.409	0.0153885
846.487	0.0153186
846.565	0.0152143
846.643	0.0153308
846.721	0.0152821
846.799	0.0151620
846.878	0.0151372
846.956	0.0150271
847.034	0.0151495
847.112	0.0149570
847.190	0.0149086
847.268	0.0149238
847.346	0.0148584
847.424	0.0146911
847.503	0.0146652
847.581	0.0146309
847.659	0.0146123
847.737	0.0143851
847.815	0.0145763
847.893	0.0146363
847.971	0.0143921
848.049	0.0144578
848.128	0.0144106
848.206	0.0145214
848.284	0.0144311
848.362	0.0145026
848.440	0.0145686
848.518	0.0148196
848.596	0.0145264
848.674	0.0145766
848.753	0.0146687
848.831	0.0146351
848.909	0.0146655
848.987	0.0147871
849.065	0.0147931
849.143	0.0148013
849.221	0.0148882
849.299	0.0148977
849.378	0.0148000
849.456	0.0148476
849.534	0.0151299
849.612	0.0149792
849.690	0.0149244
849.768	0.0150510
849.846	0.0151949
849.924	0.0152127
850.003	0.0151917
850.081	0.0151997
850.159	0.0152215
850.237	0.0152598
850.315	0.0153102
850.393	0.0151728
850.471	0.0152578
850.549	0.0152708
850.628	0.0151493
850.706	0.0152250
850.784	0.0150967
850.862	0.0152499
850.940	0.0151960
851.018	0.0152420
851.096	0.0151918
851.174	0.0150734
851.253	0.0150919
851.331	0.0152892
851.409	0.0152179
851.487	0.0151367
851.565	0.0151105
851.643	0.0149873
851.721	0.0150085
851.799	0.0151073
851.878	0.0150471
851.956	0.0150948
852.034	0.0152765
852.112	0.0150934
852.190	0.0149474
852.268	0.0151155
852.346	0.0151062
852.424	0.0150117
852.503	0.0149672
852.581	0.0149828
852.659	0.0150601
852.737	0.0150883
852.815	0.0148727
852.893	0.0150058
852.971	0.0149602
853.049	0.0147833
853.128	0.0148459
853.206	0.0148236
853.284	0.0146635
853.362	0.0146840
853.440	0.0146331
853.518	0.0146385
853.596	0.0146131
853.674	0.0145727
853.753	0.0145728
853.831	0.0145673
853.909	0.0147124
853.987	0.0145195
854.065	0.0145204
854.143	0.0145705
854.221	0.0145005
854.299	0.0147655
854.378	0.0147314
854.456	0.0146365
854.534	0.0148700
854.612	0.0149187
854.690	0.0148267
854.768	0.0149316
854.846	0.0150308
854.924	0.0149681
855.003	0.0149395
855.081	0.0149619
855.159	0.0152020
855.237	0.0150672
855.315	0.0151447
855.393	0.0150916
855.471	0.0151775
855.549	0.0152893
855.628	0.0152406
855.706	0.0152940
855.784	0.0152311
855.862	0.0150898
855.940	0.0151199
856.018	0.0153268
856.096	0.0153561
856.174	0.0152844
856.253	0.0151255
856.331	0.0152296
856.409	0.0152463
856.487	0.0151308
856.565	0.0151958
856.643	0.0150790
856.721	0.0151034
856.799	0.0150800
856.878	0.0151924
856.956	0.0152237
857.034	0.0153371
857.112	0.0152802
857.190	0.0152126
857.268	0.0150414
857.346	0.0151981
857.424	0.0152103
857.503	0.0150906
857.581	0.0150888
857.659	0.0150132
857.737	0.0148503
857.815	0.0149866
857.893	0.0148865
857.971	0.0148899
858.049	0.0148604
858.128	0.0147654
858.206	0.0149191
858.284	0.0146648
858.362	0.0146762
858.440	0.0147121
858.518	0.0147076
858.596	0.0145758
858.674	0.0145889
858.753	0.0146849
858.831	0.0144511
858.909	0.0145059
858.987	0.0145953
859.065	0.0147477
859.143	0.0147652
859.221	0.0146463
859.299	0.0148132
859.378	0.0147644
859.456	0.0147777
859.534	0.0148530
859.612	0.0148961
859.690	0.0149715
859.768	0.0148569
859.846	0.0149043
859.924	0.0149343
860.003	0.0149311
860.081	0.0149035
860.159	0.0149492
860.237	0.0148949
860.315	0.0149104
860.393	0.0150353
860.471	0.0151568
860.549	0.0150796
860.628	0.0149830
860.706	0.0150534
860.784	0.0150938
860.862	0.0151453
860.940	0.0151566
861.018	0.0151159
861.096	0.0153761
861.174	0.0151965
861.253	0.0152487
861.331	0.0154162
861.409	0.0153790
861.487	0.0153590
861.565	0.0154138
861.643	0.0153825
861.721	0.0153387
861.799	0.0151303
861.878	0.0153014
861.956	0.0153130
862.034	0.0152644
862.112	0.0151630
862.190	0.0150779
862.268	0.0151373
862.346	0.0150785
862.424	0.0151228
862.503	0.0150905
862.581	0.0149858
862.659	0.0150402
862.737	0.0150050
862.815	0.0150256
862.893	0.0149493
862.971	0.0149755
863.049	0.0149856
863.128	0.0149564
863.206	0.0149381
863.284	0.0150064
863.362	0.0148513
863.440	0.0149199
863.518	0.0148871
863.596	0.0147909
863.674	0.0147607
863.753	0.0149105
863.831	0.0147641
863.909	0.0147816
863.987	0.0146704
864.065	0.0147403
864.143	0.0147858
864.221	0.0145851
864.299	0.0147576
864.378	0.0146986
864.456	0.0146825
864.534	0.0148557
864.612	0.0147038
864.690	0.0147363
864.768	0.0148488
864.846	0.0148045
864.924	0.0148119
865.003	0.0148650
865.081	0.0148486
865.159	0.0149203
865.237	0.0149658
865.315	0.0148673
865.393	0.0148589
865.471	0.0149106
865.549	0.0149624
865.628	0.0151511
865.706	0.0150051
865.784	0.0149564
865.862	0.0151084
865.940	0.0151608
866.018	0.0149940
866.096	0.0151863
866.174	0.0150871
866.253	0.0151228
866.331	0.0150741
866.409	0.0151335
866.487	0.0151059
866.565	0.0151507
866.643	0.0151230
866.721	0.0150568
866.799	0.0150473
866.878	0.0151998
866.956	0.0151444
867.034	0.0150872
867.112	0.0151062
867.190	0.0151922
867.268	0.0151643
867.346	0.0152046
867.424	0.0150684
867.503	0.0150556
867.581	0.0151231
867.659	0.0150188
867.737	0.0151096
867.815	0.0149643
867.893	0.0150750
867.971	0.0151395
868.049	0.0151190
868.128	0.0150482
868.206	0.0150854
868.284	0.0151311
868.362	0.0150037
868.440	0.0149701
868.518	0.0149856
868.596	0.0149974
868.674	0.0148395
868.753	0.0149638
868.831	0.0150072
868.909	0.0148491
868.987	0.0147162
869.065	0.0148150
869.143	0.0148138
869.221	0.0147293
869.299	0.0146924
869.378	0.0147372
869.456	0.0146203
869.534	0.0145249
869.612	0.0146808
869.690	0.0146879
869.768	0.0146848
869.846	0.0147461
869.924	0.0147235
870.003	0.0148063
870.081	0.0148495
870.159	0.0149501
870.237	0.0148304
870.315	0.0148159
870.393	0.0150163
870.471	0.0150182
870.549	0.0150116
870.628	0.0151116
870.706	0.0151250
870.784	0.0151310
870.862	0.0151067
870.940	0.0151585
871.018	0.0152600
871.096	0.0151152
871.174	0.0153273
871.253	0.0154118
871.331	0.0152991
871.409	0.0151569
871.487	0.0152924
871.565	0.0151510
871.643	0.0151296
871.721	0.0152319
871.799	0.0151318
871.878	0.0149205
871.956	0.0150440
872.034	0.0151582
872.112	0.0150134
872.190	0.0149953
872.268	0.0151143
872.346	0.0150888
872.424	0.0149805
872.503	0.0151398
872.581	0.0150854
872.659	0.0151933
872.737	0.0152260
872.815	0.0151245
872.893	0.0151580
872.971	0.0151277
873.049	0.0151122
873.128	0.0152013
873.206	0.0151798
873.284	0.0150431
873.362	0.0150585
873.440	0.0151344
873.518	0.0149248
873.596	0.0149636
873.674	0.0151080
873.753	0.0148979
873.831	0.0149265
873.909	0.0148527
873.987	0.0147630
874.065	0.0147661
874.143	0.0148248
874.221	0.0148936
874.299	0.0148901
874.378	0.0148251
874.456	0.0148149
874.534	0.0147563
874.612	0.0148203
874.690	0.0148532
874.768	0.0148306
874.846	0.0147294
874.924	0.0148653
875.003	0.0148837
875.081	0.0149129
875.159	0.0147796
875.237	0.0147646
875.315	0.0148556
875.393	0.0147356
875.471	0.0149860
875.549	0.0149528
875.628	0.0148116
875.706	0.0150059
875.784	0.0150227
875.862	0.0150718
875.940	0.0151685
876.018	0.0151417
876.096	0.0151024
876.174	0.0150738
876.253	0.0150800
876.331	0.0152976
876.409	0.0152949
876.487	0.0151895
876.565	0.0151326
876.643	0.0150860
876.721	0.0150984
876.799	0.0151817
876.878	0.0152557
876.956	0.0152314
877.034	0.0151421
877.112	0.0151584
877.190	0.0152257
877.268	0.0151111
877.346	0.0150475
877.424	0.0150058
877.503	0.0149185
877.581	0.0149405
877.659	0.0151072
877.737	0.0148392
877.815	0.0148080
877.893	0.0149811
877.971	0.0148477
878.049	0.0149541
878.128	0.0149577
878.206	0.0151038
878.284	0.0148212
878.362	0.0148404
878.440	0.0149381
878.518	0.0150185
878.596	0.0150474
878.674	0.0149596
878.753	0.0148966
878.831	0.0150437
878.909	0.0150251
878.987	0.0148920
879.065	0.0149969
879.143	0.0150955
879.221	0.0149722
879.299	0.0149060
879.378	0.0148969
879.456	0.0148927
879.534	0.0149207
879.612	0.0149237
879.690	0.0148667
879.768	0.0149316
879.846	0.0150539
879.924	0.0148843
880.003	0.0149023
880.081	0.0149100
880.159	0.0148309
880.237	0.0147173
880.315	0.0147999
880.393	0.0146700
880.471	0.0148186
880.549	0.0148328
880.628	0.0149050
880.706	0.0149144
880.784	0.0147685
880.862	0.0149713
880.940	0.0148797
881.018	0.0151402
881.096	0.0149979
881.174	0.0150568
881.253	0.0150833
881.331	0.0150130
881.409	0.0151428
881.487	0.0152164
881.565	0.0150971
881.643	0.0151060
881.721	0.0152623
881.799	0.0153610
881.878	0.0151875
881.956	0.0151330
882.034	0.0150904
882.112	0.0152439
882.190	0.0153585
882.268	0.0152737
882.346	0.0152096
882.424	0.0152164
882.503	0.0153030
882.581	0.0150057
882.659	0.0150786
882.737	0.0150737
882.815	0.0150443
882.893	0.0149451
882.971	0.0149654
883.049	0.0148723
883.128	0.0147955
883.206	0.0149175
883.284	0.0148444
883.362	0.0148521
883.440	0.0149371
883.518	0.0149891
883.596	0.0149679
883.674	0.0147457
883.753	0.0147143
883.831	0.0148513
883.909	0.0147347
883.987	0.0147483
884.065	0.0146821
884.143	0.0147881
884.221	0.0147285
884.299	0.0147396
884.378	0.0148648
884.456	0.0148459
884.534	0.0148321
884.612	0.0149247
884.690	0.0149405
884.768	0.0149271
884.846	0.0150967
884.924	0.0149548
885.003	0.0150143
885.081	0.0151712
885.159	0.0150049
885.237	0.0151765
885.315	0.0151424
885.393	0.0150272
885.471	0.0150979
885.549	0.0152891
885.628	0.0149797
885.706	0.0151875
885.784	0.0152732
885.862	0.0152377
885.940	0.0151522
886.018	0.0151157
886.096	0.0151254
886.174	0.0151017
886.253	0.0151122
886.331	0.0152500
886.409	0.0151105
886.487	0.0149883
886.565	0.0150629
886.643	0.0150510
886.721	0.0149943
886.799	0.0151290
886.878	0.0151732
886.956	0.0150766
887.034	0.0151349
887.112	0.0150174
887.190	0.0149537
887.268	0.0150593
887.346	0.0151740
887.424	0.0150380
887.503	0.0149747
887.581	0.0149959
887.659	0.0150853
887.737	0.0150620
887.815	0.0148480
887.893	0.0149700
887.971	0.0151434
888.049	0.0149239
888.128	0.0148866
888.206	0.0149284
888.284	0.0149520
888.362	0.0148518
888.440	0.0149123
888.518	0.0149418
888.596	0.0148974
888.674	0.0148311
888.753	0.0147750
888.831	0.0147172
888.909	0.0148386
888.987	0.0148171
889.065	0.0147858
889.143	0.0148927
889.221	0.0148283
889.299	0.0149232
889.378	0.0148148
889.456	0.0148409
889.534	0.0149142
889.612	0.0149507
889.690	0.0149334
889.768	0.0147993
889.846	0.0148402
889.924	0.0148914
890.003	0.0149042
890.081	0.0148380
890.159	0.0148533
890.237	0.0149334
890.315	0.0148193
890.393	0.0148528
890.471	0.0148198
890.549	0.0147652
890.628	0.0147852
890.706	0.0148880
890.784	0.0148853
890.862	0.0147530
890.940	0.0148607
891.018	0.0148462
891.096	0.0149625
891.174	0.0148729
891.253	0.0148803
891.331	0.0149943
891.409	0.0150204
891.487	0.0149796
891.565	0.0151821
891.643	0.0150204
891.721	0.0151048
891.799	0.0152799
891.878	0.0151287
891.956	0.0151772
892.034	0.0152481
892.112	0.0151056
892.190	0.0151545
892.268	0.0152818
892.346	0.0152504
892.424	0.0153159
892.503	0.0151277
892.581	0.0151868
892.659	0.0150157
892.737	0.0150978
892.815	0.0152158
892.893	0.0150410
892.971	0.0150569
893.049	0.0149806
893.128	0.0148656
893.206	0.0150227
893.284	0.0150970
893.362	0.0148121
893.440	0.0150174
893.518	0.0151353
893.596	0.0149173
893.674	0.0148653
893.753	0.0149716
893.831	0.0150250
893.909	0.0148118
893.987	0.0150089
894.065	0.0148114
894.143	0.0147676
894.221	0.0148428
894.299	0.0148281
894.378	0.0149581
894.456	0.0149052
894.534	0.0149020
894.612	0.0148987
894.690	0.0149100
894.768	0.0150289
894.846	0.0149549
894.924	0.0151083
895.003	0.0149931
895.081	0.0150469
895.159	0.0150246
895.237	0.0149541
895.315	0.0151189
895.393	0.0149226
895.471	0.0151527
895.549	0.0150714
895.628	0.0150135
895.706	0.0149689
895.784	0.0149132
895.862	0.0150218
895.940	0.0149841
896.018	0.0149001
896.096	0.0148825
896.174	0.0151023
896.253	0.0149640
896.331	0.0149352
896.409	0.0149139
896.487	0.0149804
896.565	0.0150526
896.643	0.0150761
896.721	0.0150016
896.799	0.0149197
896.878	0.0150330
896.956	0.0150199
897.034	0.0150962
897.112	0.0149680
897.190	0.0149917
897.268	0.0149032
897.346	0.0150500
897.424	0.0150420
897.503	0.0150495
897.581	0.0151719
897.659	0.0151049
897.737	0.0149419
897.815	0.0151690
897.893	0.0151363
897.971	0.0151617
898.049	0.0151805
898.128	0.0150955
898.206	0.0151464
898.284	0.0151834
898.362	0.0151794
898.440	0.0152791
898.518	0.0152692
898.596	0.0152269
898.674	0.0150189
898.753	0.0150357
898.831	0.0151914
898.909	0.0153625
898.987	0.0151332
899.065	0.0151341
899.143	0.0150237
899.221	0.0151576
899.299	0.0150208
899.378	0.0150756
899.456	0.0148936
899.534	0.0149087
899.612	0.0150054
899.690	0.0147871
899.768	0.0148566
899.846	0.0148686
899.924	0.0148473
900.003	0.0148550
900.081	0.0149134
900.159	0.0146963
900.237	0.0149078
900.315	0.0148344
900.393	0.0149609
900.471	0.0149399
900.549	0.0149114
900.628	0.0148892
900.706	0.0148924
900.784	0.0148359
900.862	0.0149207
900.940	0.0149729
901.018	0.0150179
901.096	0.0149146
901.174	0.0148505
901.253	0.0149271
901.331	0.0149394
901.409	0.0148473
901.487	0.0149250
901.565	0.0150880
901.643	0.0149992
901.721	0.0148660
901.799	0.0148821
901.878	0.0148723
901.956	0.0148705
902.034	0.0149942
902.112	0.0149572
902.190	0.0149898
902.268	0.0149783
902.346	0.0149316
902.424	0.0149781
902.503	0.0148952
902.581	0.0150182
902.659	0.0150017
902.737	0.0150971
902.815	0.0150825
902.893	0.0150739
902.971	0.0150402
903.049	0.0150712
903.128	0.0151381
903.206	0.0150568
903.284	0.0151014
903.362	0.0151604
903.440	0.0152240
903.518	0.0150359
903.596	0.0151749
903.674	0.0151633
903.753	0.0150941
903.831	0.0151160
903.909	0.0151230
903.987	0.0150037
904.065	0.0149709
904.143	0.0148914
904.221	0.0150259
904.299	0.0150124
904.378	0.0149302
904.456	0.0147844
904.534	0.0149754
904.612	0.0148986
904.690	0.0149884
904.768	0.0147539
904.846	0.0149462
904.924	0.0149441
905.003	0.0149719
905.081	0.0150561
905.159	0.0149132
905.237	0.0150375
905.315	0.0148923
905.393	0.0149287
905.471	0.0149473
905.549	0.0149418
905.628	0.0150603
905.706	0.0150225
905.784	0.0150166
905.862	0.0150857
905.940	0.0152064
906.018	0.0150771
906.096	0.0151789
906.174	0.0151574
906.253	0.0151324
906.331	0.0150459
906.409	0.0150528
906.487	0.0151017
906.565	0.0149055
906.643	0.0149799
906.721	0.0150379
906.799	0.0149934
906.878	0.0149696
906.956	0.0148733
907.034	0.0149158
907.112	0.0149394
907.190	0.0148228
907.268	0.0148177
907.346	0.0147906
907.424	0.0148632
907.503	0.0148559
907.581	0.0150135
907.659	0.0149113
907.737	0.0149442
907.815	0.0149553
907.893	0.0150206
907.971	0.0148656
908.049	0.0149104
908.128	0.0150109
908.206	0.0149867
908.284	0.0149642
908.362	0.0150951
908.440	0.0150435
908.518	0.0150400
908.596	0.0150072
908.674	0.0150426
908.753	0.0151241
908.831	0.0152150
908.909	0.0150259
908.987	0.0151511
909.065	0.0151244
909.143	0.0152759
909.221	0.0150984
909.299	0.0150778
909.378	0.0151640
909.456	0.0148964
909.534	0.0149773
909.612	0.0149778
909.690	0.0150182
909.768	0.0148663
909.846	0.0149086
909.924	0.0148741
910.003	0.0148137
910.081	0.0148401
910.159	0.0149188
910.237	0.0147715
910.315	0.0148828
910.393	0.0148185
910.471	0.0148003
910.549	0.0149211
910.628	0.0149127
910.706	0.0151042
910.784	0.0151420
910.862	0.0148459
910.940	0.0150764
911.018	0.0151591
911.096	0.0149699
911.174	0.0151354
911.253	0.0151270
911.331	0.0151546
911.409	0.0151183
911.487	0.0150981
911.565	0.0151245
911.643	0.0150334
911.721	0.0152174
911.799	0.0152453
911.878	0.0150981
911.956	0.0151333
912.034	0.0151115
912.112	0.0149565
912.190	0.0150385
912.268	0.0150610
912.346	0.0148903
912.424	0.0150149
912.503	0.0149393
912.581	0.0150260
912.659	0.0149003
912.737	0.0148761
912.815	0.0150630
912.893	0.0150786
912.971	0.0150822
913.049	0.0150087
913.128	0.0151034
913.206	0.0151190
913.284	0.0149949
913.362	0.0149883
913.440	0.0150552
913.518	0.0150119
913.596	0.0150275
913.674	0.0151108
913.753	0.0149887
913.831	0.0150165
913.909	0.0150343
913.987	0.0149908
914.065	0.0149871
914.143	0.0149846
914.221	0.0152123
914.299	0.0152161
914.378	0.0150474
914.456	0.0152497
914.534	0.0151242
914.612	0.0151035
914.690	0.0151942
914.768	0.0148996
914.846	0.0150231
914.924	0.0149722
915.003	0.0150679
915.081	0.0149453
915.159	0.0149030
915.237	0.0148743
915.315	0.0148852
915.393	0.0148562
915.471	0.0148309
915.549	0.0148348
915.628	0.0148578
915.706	0.0148470
915.784	0.0147925
915.862	0.0147815
915.940	0.0149184
916.018	0.0147445
916.096	0.0148572
916.174	0.0149805
916.253	0.0149775
916.331	0.0150346
916.409	0.0148736
916.487	0.0150417
916.565	0.0152019
916.643	0.0151015
916.721	0.0150776
916.799	0.0152641
916.878	0.0151791
916.956	0.0152039
917.034	0.0150660
917.112	0.0151364
917.190	0.0151421
917.268	0.0150034
917.346	0.0152134
917.424	0.0151344
917.503	0.0149783
917.581	0.0149964
917.659	0.0148862
917.737	0.0149994
917.815	0.0149197
917.893	0.0150330
917.971	0.0149136
918.049	0.0149025
918.128	0.0148942
918.206	0.0149654
918.284	0.0148410
918.362	0.0148054
918.440	0.0147220
918.518	0.0149114
918.596	0.0148568
918.674	0.0148660
918.753	0.0148981
918.831	0.0147969
918.909	0.0148543
918.987	0.0150594
919.065	0.0149658
919.143	0.0150082
919.221	0.0150413
919.299	0.0150784
919.378	0.0152417
919.456	0.0151831
919.534	0.0151206
919.612	0.0151244
919.690	0.0152230
919.768	0.0150107
919.846	0.0153127
919.924	0.0153146
920.003	0.0151378
920.081	0.0149759
920.159	0.0149717
920.237	0.0151224
920.315	0.0149075
920.393	0.0149274
920.471	0.0150775
920.549	0.0149652
920.628	0.0150633
920.706	0.0149331
920.784	0.0149367
920.862	0.0148927
920.940	0.0149337
921.018	0.0148975
921.096	0.0148660
921.174	0.0148814
921.253	0.0150578
921.331	0.0149224
921.409	0.0149658
921.487	0.0149255
921.565	0.0149837
921.643	0.0148994
921.721	0.0148815
921.799	0.0148011
921.878	0.0149803
921.956	0.0148209
922.034	0.0148812
922.112	0.0148700
922.190	0.0148413
922.268	0.0148493
922.346	0.0149809
922.424	0.0148852
922.503	0.0148573
922.581	0.0148979
922.659	0.0148556
922.737	0.0149448
922.815	0.0148727
922.893	0.0148969
922.971	0.0149392
923.049	0.0150939
923.128	0.0149572
923.206	0.0149611
923.284	0.0149887
923.362	0.0150413
923.440	0.0150082
923.518	0.0150225
923.596	0.0148671
923.674	0.0148741
923.753	0.0148621
923.831	0.0149294
923.909	0.0150269
923.987	0.0150881
924.065	0.0150423
924.143	0.0147849
924.221	0.0150132
924.299	0.0148936
924.378	0.0148540
924.456	0.0150003
924.534	0.0149859
924.612	0.0148665
924.690	0.0150419
924.768	0.0148663
924.846	0.0149373
924.924	0.0150574
925.003	0.0150480
925.081	0.0150334
925.159	0.0151072
925.237	0.0151454
925.315	0.0150573
925.393	0.0149513
925.471	0.0151788
925.549	0.0150887
925.628	0.0150786
925.706	0.0150468
925.784	0.0150698
925.862	0.0150124
925.940	0.0150510
926.018	0.0149230
926.096	0.0149276
926.174	0.0148302
926.253	0.0149834
926.331	0.0148937
926.409	0.0149400
926.487	0.0149645
926.565	0.0149062
926.643	0.0149337
926.721	0.0149445
926.799	0.0149439
926.878	0.0149645
926.956	0.0149155
927.034	0.0148440
927.112	0.0149335
927.190	0.0148976
927.268	0.0149918
927.346	0.0149294
927.424	0.0149674
927.503	0.0149718
927.581	0.0150613
927.659	0.0152268
927.737	0.0150854
927.815	0.0151329
927.893	0.0150133
927.971	0.0149950
928.049	0.0149121
928.128	0.0149355
928.206	0.0147615
928.284	0.0147950
928.362	0.0148179
928.440	0.0149155
928.518	0.0147800
928.596	0.0148720
928.674	0.0147356
928.753	0.0146799
928.831	0.0147063
928.909	0.0149007
928.987	0.0148904
929.065	0.0148893
929.143	0.0149841
929.221	0.0150000
929.299	0.0149313
929.378	0.0149818
929.456	0.0152307
929.534	0.0150690
929.612	0.0150883
929.690	0.0152712
929.768	0.0149828
929.846	0.0151263
929.924	0.0150446
930.003	0.0150285
930.081	0.0151218
930.159	0.0149857
930.237	0.0150041
930.315	0.0149245
930.393	0.0148575
930.471	0.0149136
930.549	0.0149519
930.628	0.0150032
930.706	0.0147968
930.784	0.0148231
930.862	0.0149973
930.940	0.0149643
931.018	0.0149512
931.096	0.0150487
931.174	0.0149882
931.253	0.0150608
931.331	0.0151073
931.409	0.0149988
931.487	0.0149581
931.565	0.0150619
931.643	0.0150540
931.721	0.0149284
931.799	0.0149261
931.878	0.0148906
931.956	0.0148606
932.034	0.0148485
932.112	0.0149292
932.190	0.0149290
932.268	0.0147778
932.346	0.0148804
932.424	0.0149732
932.503	0.0149561
932.581	0.0149724
932.659	0.0150143
932.737	0.0148825
932.815	0.0149880
932.893	0.0149471
932.971	0.0149193
933.049	0.0148727
933.128	0.0150050
933.206	0.0149854
933.284	0.0149381
933.362	0.0150518
933.440	0.0150323
933.518	0.0148325
933.596	0.0149211
933.674	0.0149955
933.753	0.0150610
933.831	0.0149435
933.909	0.0148904
933.987	0.0149822
934.065	0.0149187
934.143	0.0150123
934.221	0.0150642
934.299	0.0150963
934.378	0.0150583
934.456	0.0149704
934.534	0.0150508
934.612	0.0151835
934.690	0.0151796
934.768	0.0150859
934.846	0.0150819
934.924	0.0149843
935.003	0.0150188
935.081	0.0150889
935.159	0.0150676
935.237	0.0149955
935.315	0.0149789
935.393	0.0149903
935.471	0.0149606
935.549	0.0150573
935.628	0.0149823
935.706	0.0149544
935.784	0.0149094
935.862	0.0150055
935.940	0.0151632
936.018	0.0149915
936.096	0.0150195
936.174	0.0149281
936.253	0.0149329
936.331	0.0150188
936.409	0.0150025
936.487	0.0149331
936.565	0.0150085
936.643	0.0147798
936.721	0.0148462
936.799	0.0149127
936.878	0.0148463
936.956	0.0147144
937.034	0.0149020
937.112	0.0148438
937.190	0.0148057
937.268	0.0149181
937.346	0.0149913
937.424	0.0148537
937.503	0.0149931
937.581	0.0148836
937.659	0.0149666
937.737	0.0150114
937.815	0.0151367
937.893	0.0150102
937.971	0.0151236
938.049	0.0151067
938.128	0.0151456
938.206	0.0150980
938.284	0.0151134
938.362	0.0150819
938.440	0.0151415
938.518	0.0151582
938.596	0.0150845
938.674	0.0151072
938.753	0.0150303
938.831	0.0148051
938.909	0.0150294
938.987	0.0149507
939.065	0.0149150
939.143	0.0149888
939.221	0.0150232
939.299	0.0149155
939.378	0.0148818
939.456	0.0149788
939.534	0.0149065
939.612	0.0147752
939.690	0.0148708
939.768	0.0150499
939.846	0.0148872
939.924	0.0149202
940.003	0.0151087
940.081	0.0150256
940.159	0.0150372
940.237	0.0147858
940.315	0.0149311
940.393	0.0151408
940.471	0.0150468
940.549	0.0149257
940.628	0.0150149
940.706	0.0151177
940.784	0.0149139
940.862	0.0150557
940.940	0.0149767
941.018	0.0149390
941.096	0.0149787
941.174	0.0150041
941.253	0.0149182
941.331	0.0149361
941.409	0.0149294
941.487	0.0148441
941.565	0.0149989
941.643	0.0148827
941.721	0.0149229
941.799	0.0148278
941.878	0.0148448
941.956	0.0148799
942.034	0.0150405
942.112	0.0149791
942.190	0.0150581
942.268	0.0150985
942.346	0.0150362
942.424	0.0149479
942.503	0.0151192
942.581	0.0149115
942.659	0.0148749
942.737	0.0147955
942.815	0.0149174
942.893	0.0149792
942.971	0.0150613
943.049	0.0148832
943.128	0.0149908
943.206	0.0149844
943.284	0.0149966
943.362	0.0149577
943.440	0.0149496
943.518	0.0152599
943.596	0.0149924
943.674	0.0151212
943.753	0.0149732
943.831	0.0150397
943.909	0.0151482
943.987	0.0150998
944.065	0.0150883
944.143	0.0150341
944.221	0.0150887
944.299	0.0150142
944.378	0.0149921
944.456	0.0149545
944.534	0.0151285
944.612	0.0150800
944.690	0.0149638
944.768	0.0149019
944.846	0.0150485
944.924	0.0150110
945.003	0.0149995
945.081	0.0149808
945.159	0.0150404
945.237	0.0150799
945.315	0.0149815
945.393	0.0151625
945.471	0.0150326
945.549	0.0150951
945.628	0.0148810
945.706	0.0149789
945.784	0.0149608
945.862	0.0148587
945.940	0.0148933
946.018	0.0149093
946.096	0.0149137
946.174	0.0149673
946.253	0.0149347
946.331	0.0150201
946.409	0.0148828
946.487	0.0148304
946.565	0.0149924
946.643	0.0148933
946.721	0.0150244
946.799	0.0150279
946.878	0.0149674
946.956	0.0148773
947.034	0.0150281
947.112	0.0150625
947.190	0.0151925
947.268	0.0149290
947.346	0.0148749
947.424	0.0150293
947.503	0.0150453
947.581	0.0150061
947.659	0.0149803
947.737	0.0149994
947.815	0.0149551
947.893	0.0149276
947.971	0.0150867
948.049	0.0149680
948.128	0.0150629
948.206	0.0149048
948.284	0.0148930
948.362	0.0149699
948.440	0.0150152
948.518	0.0149999
948.596	0.0150174
948.674	0.0150284
948.753	0.0149181
948.831	0.0149438
948.909	0.0150684
948.987	0.0149181
949.065	0.0150347
949.143	0.0149562
949.221	0.0149919
949.299	0.0151338
949.378	0.0151257
949.456	0.0150194
949.534	0.0148915
949.612	0.0148852
949.690	0.0149078
949.768	0.0149306
949.846	0.0149402
949.924	0.0150468
