06/29/2022	22:58:20	Ver.	4.1	UNKNOWN
Optical Delay	630.002507	Delta X		0.078125	Sweeps	1	Scan Rate	0/0
Coordinates	Axis 1	NaN	Axis 2	NaN	Axis 3	NaN	Axis 4	NaN	Axis 5	NaN	Axis 6	0.000000
TX Power	0.000000	RX Power	0.000000

630.003	0.0150973
630.081	0.0150370
630.159	0.0149863
630.237	0.0150663
630.315	0.0150070
630.393	0.0151546
630.471	0.0151640
630.549	0.0150892
630.628	0.0151111
630.706	0.0151179
630.784	0.0151312
630.862	0.0152424
630.940	0.0151385
631.018	0.0151730
631.096	0.0150386
631.174	0.0151897
631.253	0.0151777
631.331	0.0151152
631.409	0.0152105
631.487	0.0150390
631.565	0.0150626
631.643	0.0151007
631.721	0.0151927
631.799	0.0151378
631.878	0.0152241
631.956	0.0150898
632.034	0.0151711
632.112	0.0150196
632.190	0.0150687
632.268	0.0151277
632.346	0.0150808
632.424	0.0150351
632.503	0.0151921
632.581	0.0152585
632.659	0.0151271
632.737	0.0151407
632.815	0.0150454
632.893	0.0151254
632.971	0.0150862
633.049	0.0152531
633.128	0.0152435
633.206	0.0150823
633.284	0.0152120
633.362	0.0152396
633.440	0.0151225
633.518	0.0150961
633.596	0.0150784
633.674	0.0152353
633.753	0.0151279
633.831	0.0151262
633.909	0.0150991
633.987	0.0151066
634.065	0.0150060
634.143	0.0150990
634.221	0.0151668
634.299	0.0151666
634.378	0.0150427
634.456	0.0151003
634.534	0.0150043
634.612	0.0151776
634.690	0.0151807
634.768	0.0150352
634.846	0.0151486
634.924	0.0150864
635.003	0.0151471
635.081	0.0151241
635.159	0.0151092
635.237	0.0151155
635.315	0.0151157
635.393	0.0150713
635.471	0.0150507
635.549	0.0151921
635.628	0.0151307
635.706	0.0152129
635.784	0.0151374
635.862	0.0151782
635.940	0.0151046
636.018	0.0151437
636.096	0.0150250
636.174	0.0151317
636.253	0.0150738
636.331	0.0151846
636.409	0.0153045
636.487	0.0151035
636.565	0.0151768
636.643	0.0152011
636.721	0.0150756
636.799	0.0150227
636.878	0.0152527
636.956	0.0151000
637.034	0.0150478
637.112	0.0150198
637.190	0.0150343
637.268	0.0151335
637.346	0.0151309
637.424	0.0152100
637.503	0.0152206
637.581	0.0151148
637.659	0.0150892
637.737	0.0151442
637.815	0.0151865
637.893	0.0150446
637.971	0.0151142
638.049	0.0152664
638.128	0.0150951
638.206	0.0150376
638.284	0.0151686
638.362	0.0151659
638.440	0.0151299
638.518	0.0151329
638.596	0.0151228
638.674	0.0151546
638.753	0.0151225
638.831	0.0150836
638.909	0.0149902
638.987	0.0151329
639.065	0.0151860
639.143	0.0150829
639.221	0.0151381
639.299	0.0150733
639.378	0.0153331
639.456	0.0150796
639.534	0.0150233
639.612	0.0151705
639.690	0.0152520
639.768	0.0150900
639.846	0.0151305
639.924	0.0151933
640.003	0.0150066
640.081	0.0150662
640.159	0.0150957
640.237	0.0151582
640.315	0.0150203
640.393	0.0151451
640.471	0.0152003
640.549	0.0149916
640.628	0.0151636
640.706	0.0150581
640.784	0.0150471
640.862	0.0150275
640.940	0.0150444
641.018	0.0151242
641.096	0.0149805
641.174	0.0152386
641.253	0.0152899
641.331	0.0150510
641.409	0.0151326
641.487	0.0151028
641.565	0.0150893
641.643	0.0151350
641.721	0.0151062
641.799	0.0151304
641.878	0.0150127
641.956	0.0152485
642.034	0.0151627
642.112	0.0151459
642.190	0.0151442
642.268	0.0150999
642.346	0.0151641
642.424	0.0150097
642.503	0.0152043
642.581	0.0151469
642.659	0.0151321
642.737	0.0151958
642.815	0.0149874
642.893	0.0148790
642.971	0.0151053
643.049	0.0153078
643.128	0.0151076
643.206	0.0150140
643.284	0.0150246
643.362	0.0151636
643.440	0.0150664
643.518	0.0151120
643.596	0.0151790
643.674	0.0151714
643.753	0.0150684
643.831	0.0150324
643.909	0.0151450
643.987	0.0150134
644.065	0.0149130
644.143	0.0151645
644.221	0.0150797
644.299	0.0150404
644.378	0.0150940
644.456	0.0151928
644.534	0.0150014
644.612	0.0151157
644.690	0.0151465
644.768	0.0150805
644.846	0.0150648
644.924	0.0149525
645.003	0.0150035
645.081	0.0152261
645.159	0.0152473
645.237	0.0151764
645.315	0.0149915
645.393	0.0150650
645.471	0.0153141
645.549	0.0151015
645.628	0.0150990
645.706	0.0150990
645.784	0.0150683
645.862	0.0150232
645.940	0.0149994
646.018	0.0150822
646.096	0.0151864
646.174	0.0151085
646.253	0.0151608
646.331	0.0151247
646.409	0.0150406
646.487	0.0151501
646.565	0.0151012
646.643	0.0151686
646.721	0.0151419
646.799	0.0151065
646.878	0.0151234
646.956	0.0150636
647.034	0.0152646
647.112	0.0151565
647.190	0.0150881
647.268	0.0150742
647.346	0.0151199
647.424	0.0150618
647.503	0.0151585
647.581	0.0151598
647.659	0.0151315
647.737	0.0150409
647.815	0.0149847
647.893	0.0151042
647.971	0.0150059
648.049	0.0151623
648.128	0.0151401
648.206	0.0150251
648.284	0.0151119
648.362	0.0150065
648.440	0.0151682
648.518	0.0151589
648.596	0.0150706
648.674	0.0151292
648.753	0.0151318
648.831	0.0150739
648.909	0.0152236
648.987	0.0150967
649.065	0.0151984
649.143	0.0149879
649.221	0.0151018
649.299	0.0151395
649.378	0.0150294
649.456	0.0152013
649.534	0.0152377
649.612	0.0152168
649.690	0.0151624
649.768	0.0151297
649.846	0.0151042
649.924	0.0150982
650.003	0.0150076
650.081	0.0151616
650.159	0.0150889
650.237	0.0152605
650.315	0.0150507
650.393	0.0151118
650.471	0.0151090
650.549	0.0151443
650.628	0.0150210
650.706	0.0151682
650.784	0.0151940
650.862	0.0151952
650.940	0.0149991
651.018	0.0151131
651.096	0.0151427
651.174	0.0150636
651.253	0.0151466
651.331	0.0151355
651.409	0.0150253
651.487	0.0150497
651.565	0.0151141
651.643	0.0150779
651.721	0.0150580
651.799	0.0151119
651.878	0.0150549
651.956	0.0151225
652.034	0.0151711
652.112	0.0150117
652.190	0.0150060
652.268	0.0151386
652.346	0.0151140
652.424	0.0150901
652.503	0.0151871
652.581	0.0151739
652.659	0.0149571
652.737	0.0151646
652.815	0.0151472
652.893	0.0151295
652.971	0.0150397
653.049	0.0151942
653.128	0.0151343
653.206	0.0150423
653.284	0.0150632
653.362	0.0151610
653.440	0.0152332
653.518	0.0152713
653.596	0.0149981
653.674	0.0150817
653.753	0.0150951
653.831	0.0151089
653.909	0.0150814
653.987	0.0151180
654.065	0.0150606
654.143	0.0151404
654.221	0.0151559
654.299	0.0151203
654.378	0.0150718
654.456	0.0151894
654.534	0.0151038
654.612	0.0150828
654.690	0.0151234
654.768	0.0151491
654.846	0.0151691
654.924	0.0151305
655.003	0.0150971
655.081	0.0149490
655.159	0.0150723
655.237	0.0150768
655.315	0.0150513
655.393	0.0150783
655.471	0.0151012
655.549	0.0151833
655.628	0.0151408
655.706	0.0151016
655.784	0.0150287
655.862	0.0151606
655.940	0.0151948
656.018	0.0150503
656.096	0.0151718
656.174	0.0151571
656.253	0.0150253
656.331	0.0151960
656.409	0.0151523
656.487	0.0151512
656.565	0.0151722
656.643	0.0150627
656.721	0.0151122
656.799	0.0152224
656.878	0.0150217
656.956	0.0151148
657.034	0.0151661
657.112	0.0151315
657.190	0.0149985
657.268	0.0151287
657.346	0.0150440
657.424	0.0152607
657.503	0.0152727
657.581	0.0150734
657.659	0.0151617
657.737	0.0151410
657.815	0.0151608
657.893	0.0150718
657.971	0.0150889
658.049	0.0152760
658.128	0.0150177
658.206	0.0152409
658.284	0.0151286
658.362	0.0150397
658.440	0.0151895
658.518	0.0150440
658.596	0.0150664
658.674	0.0152338
658.753	0.0150783
658.831	0.0151550
658.909	0.0151087
658.987	0.0151118
659.065	0.0153064
659.143	0.0150195
659.221	0.0149824
659.299	0.0151456
659.378	0.0152000
659.456	0.0151037
659.534	0.0151102
659.612	0.0151307
659.690	0.0150935
659.768	0.0151006
659.846	0.0152847
659.924	0.0152304
660.003	0.0151466
660.081	0.0150965
660.159	0.0151924
660.237	0.0150338
660.315	0.0149239
660.393	0.0151189
660.471	0.0150918
660.549	0.0151799
660.628	0.0151202
660.706	0.0150137
660.784	0.0151183
660.862	0.0150641
660.940	0.0150709
661.018	0.0151273
661.096	0.0150939
661.174	0.0150340
661.253	0.0150717
661.331	0.0149727
661.409	0.0149774
661.487	0.0151955
661.565	0.0150352
661.643	0.0151063
661.721	0.0151672
661.799	0.0151688
661.878	0.0151891
661.956	0.0149905
662.034	0.0150974
662.112	0.0150632
662.190	0.0152041
662.268	0.0150369
662.346	0.0150632
662.424	0.0150356
662.503	0.0150562
662.581	0.0151819
662.659	0.0152415
662.737	0.0150073
662.815	0.0150330
662.893	0.0151472
662.971	0.0152604
663.049	0.0152190
663.128	0.0151072
663.206	0.0151281
663.284	0.0151254
663.362	0.0149820
663.440	0.0151217
663.518	0.0151070
663.596	0.0152008
663.674	0.0152003
663.753	0.0150135
663.831	0.0150536
663.909	0.0152213
663.987	0.0152444
664.065	0.0151588
664.143	0.0152194
664.221	0.0149926
664.299	0.0151263
664.378	0.0151233
664.456	0.0150612
664.534	0.0151006
664.612	0.0151092
664.690	0.0151515
664.768	0.0152089
664.846	0.0151634
664.924	0.0151319
665.003	0.0150407
665.081	0.0150501
665.159	0.0152592
665.237	0.0150359
665.315	0.0149685
665.393	0.0152364
665.471	0.0151018
665.549	0.0151713
665.628	0.0150510
665.706	0.0151340
665.784	0.0152026
665.862	0.0152763
665.940	0.0151950
666.018	0.0150961
666.096	0.0150781
666.174	0.0152171
666.253	0.0152570
666.331	0.0151274
666.409	0.0151199
666.487	0.0150962
666.565	0.0151397
666.643	0.0151941
666.721	0.0150249
666.799	0.0151087
666.878	0.0151534
666.956	0.0151543
667.034	0.0151246
667.112	0.0150710
667.190	0.0150974
667.268	0.0151945
667.346	0.0151369
667.424	0.0150661
667.503	0.0149973
667.581	0.0151133
667.659	0.0151206
667.737	0.0151984
667.815	0.0151122
667.893	0.0152033
667.971	0.0151278
668.049	0.0151407
668.128	0.0151140
668.206	0.0151080
668.284	0.0151266
668.362	0.0150307
668.440	0.0151347
668.518	0.0151198
668.596	0.0152265
668.674	0.0151728
668.753	0.0150442
668.831	0.0151700
668.909	0.0150892
668.987	0.0150927
669.065	0.0151084
669.143	0.0151643
669.221	0.0152064
669.299	0.0152527
669.378	0.0151958
669.456	0.0151887
669.534	0.0151110
669.612	0.0150854
669.690	0.0150835
669.768	0.0150156
669.846	0.0151957
669.924	0.0150475
670.003	0.0151765
670.081	0.0152477
670.159	0.0150269
670.237	0.0152049
670.315	0.0150888
670.393	0.0150459
670.471	0.0149797
670.549	0.0151021
670.628	0.0151053
670.706	0.0150217
670.784	0.0152811
670.862	0.0150771
670.940	0.0150439
671.018	0.0150622
671.096	0.0151978
671.174	0.0150763
671.253	0.0150070
671.331	0.0152637
671.409	0.0151208
671.487	0.0150583
671.565	0.0150443
671.643	0.0151124
671.721	0.0150275
671.799	0.0151408
671.878	0.0151452
671.956	0.0151656
672.034	0.0150845
672.112	0.0150405
672.190	0.0150923
672.268	0.0150787
672.346	0.0150362
672.424	0.0152579
672.503	0.0151936
672.581	0.0150895
672.659	0.0151174
672.737	0.0152254
672.815	0.0150319
672.893	0.0150655
672.971	0.0149730
673.049	0.0151044
673.128	0.0151291
673.206	0.0150457
673.284	0.0152025
673.362	0.0151015
673.440	0.0149657
673.518	0.0150961
673.596	0.0150832
673.674	0.0151473
673.753	0.0151279
673.831	0.0151623
673.909	0.0151319
673.987	0.0151418
674.065	0.0150510
674.143	0.0152464
674.221	0.0151723
674.299	0.0150364
674.378	0.0150636
674.456	0.0151299
674.534	0.0152258
674.612	0.0151906
674.690	0.0151729
674.768	0.0152460
674.846	0.0150632
674.924	0.0151371
675.003	0.0151196
675.081	0.0151271
675.159	0.0150753
675.237	0.0152477
675.315	0.0151269
675.393	0.0150884
675.471	0.0150423
675.549	0.0151440
675.628	0.0151399
675.706	0.0150495
675.784	0.0150380
675.862	0.0151398
675.940	0.0151418
676.018	0.0150751
676.096	0.0151603
676.174	0.0152187
676.253	0.0151743
676.331	0.0151434
676.409	0.0151111
676.487	0.0151276
676.565	0.0150831
676.643	0.0152185
676.721	0.0150915
676.799	0.0151778
676.878	0.0152169
676.956	0.0150957
677.034	0.0150657
677.112	0.0151088
677.190	0.0152001
677.268	0.0151196
677.346	0.0151478
677.424	0.0150263
677.503	0.0150663
677.581	0.0151482
677.659	0.0150601
677.737	0.0150038
677.815	0.0151055
677.893	0.0151957
677.971	0.0149664
678.049	0.0150894
678.128	0.0150649
678.206	0.0149710
678.284	0.0150751
678.362	0.0151297
678.440	0.0151059
678.518	0.0149924
678.596	0.0150793
678.674	0.0150175
678.753	0.0150169
678.831	0.0150771
678.909	0.0150479
678.987	0.0150765
679.065	0.0150143
679.143	0.0150866
679.221	0.0151228
679.299	0.0151135
679.378	0.0150877
679.456	0.0151348
679.534	0.0150668
679.612	0.0150416
679.690	0.0151942
679.768	0.0151517
679.846	0.0151584
679.924	0.0151222
680.003	0.0149862
680.081	0.0151482
680.159	0.0150536
680.237	0.0152607
680.315	0.0151862
680.393	0.0152470
680.471	0.0152034
680.549	0.0151526
680.628	0.0151478
680.706	0.0151765
680.784	0.0150758
680.862	0.0150326
680.940	0.0150768
681.018	0.0149714
681.096	0.0150449
681.174	0.0151976
681.253	0.0151187
681.331	0.0150965
681.409	0.0151807
681.487	0.0151701
681.565	0.0150671
681.643	0.0149857
681.721	0.0150954
681.799	0.0150883
681.878	0.0151366
681.956	0.0151210
682.034	0.0150684
682.112	0.0150086
682.190	0.0150709
682.268	0.0149643
682.346	0.0150655
682.424	0.0152040
682.503	0.0151453
682.581	0.0151487
682.659	0.0151907
682.737	0.0150972
682.815	0.0150394
682.893	0.0150702
682.971	0.0150851
683.049	0.0151672
683.128	0.0151932
683.206	0.0150369
683.284	0.0150372
683.362	0.0151447
683.440	0.0151495
683.518	0.0150916
683.596	0.0150874
683.674	0.0151376
683.753	0.0150457
683.831	0.0150043
683.909	0.0151556
683.987	0.0151767
684.065	0.0152636
684.143	0.0150655
684.221	0.0151342
684.299	0.0149321
684.378	0.0150752
684.456	0.0151367
684.534	0.0150203
684.612	0.0150693
684.690	0.0150618
684.768	0.0151846
684.846	0.0150919
684.924	0.0151222
685.003	0.0150275
685.081	0.0150768
685.159	0.0152146
685.237	0.0150871
685.315	0.0151628
685.393	0.0150063
685.471	0.0151421
685.549	0.0150775
685.628	0.0151960
685.706	0.0152094
685.784	0.0150733
685.862	0.0151538
685.940	0.0150674
686.018	0.0152080
686.096	0.0151809
686.174	0.0151274
686.253	0.0150722
686.331	0.0150593
686.409	0.0150266
686.487	0.0150626
686.565	0.0149920
686.643	0.0150268
686.721	0.0151340
686.799	0.0151511
686.878	0.0151099
686.956	0.0150876
687.034	0.0149654
687.112	0.0151599
687.190	0.0151366
687.268	0.0150648
687.346	0.0151463
687.424	0.0149704
687.503	0.0151568
687.581	0.0150966
687.659	0.0150649
687.737	0.0151254
687.815	0.0151611
687.893	0.0150864
687.971	0.0151853
688.049	0.0151367
688.128	0.0150246
688.206	0.0151031
688.284	0.0151868
688.362	0.0151763
688.440	0.0151775
688.518	0.0152976
688.596	0.0150828
688.674	0.0150359
688.753	0.0152525
688.831	0.0152282
688.909	0.0151150
688.987	0.0151891
689.065	0.0151330
689.143	0.0150095
689.221	0.0151070
689.299	0.0151878
689.378	0.0150907
689.456	0.0152293
689.534	0.0152522
689.612	0.0151331
689.690	0.0153501
689.768	0.0152236
689.846	0.0151989
689.924	0.0151715
690.003	0.0152470
690.081	0.0152028
690.159	0.0152142
690.237	0.0150891
690.315	0.0149455
690.393	0.0150690
690.471	0.0151324
690.549	0.0150246
690.628	0.0151604
690.706	0.0152105
690.784	0.0152224
690.862	0.0151689
690.940	0.0151247
691.018	0.0151588
691.096	0.0150530
691.174	0.0150243
691.253	0.0149823
691.331	0.0150996
691.409	0.0150945
691.487	0.0150465
691.565	0.0149150
691.643	0.0150608
691.721	0.0150540
691.799	0.0150364
691.878	0.0149877
691.956	0.0151374
692.034	0.0150613
692.112	0.0150900
692.190	0.0151028
692.268	0.0150621
692.346	0.0149823
692.424	0.0152364
692.503	0.0151292
692.581	0.0150108
692.659	0.0152620
692.737	0.0151349
692.815	0.0152541
692.893	0.0152396
692.971	0.0152385
693.049	0.0153498
693.128	0.0152315
693.206	0.0151484
693.284	0.0150546
693.362	0.0151287
693.440	0.0149524
693.518	0.0148324
693.596	0.0148244
693.674	0.0146941
693.753	0.0148640
693.831	0.0150816
693.909	0.0150497
693.987	0.0150287
694.065	0.0152204
694.143	0.0154648
694.221	0.0154310
694.299	0.0155306
694.378	0.0154023
694.456	0.0153847
694.534	0.0152769
694.612	0.0151590
694.690	0.0150156
694.768	0.0150771
694.846	0.0148415
694.924	0.0149971
695.003	0.0147427
695.081	0.0147697
695.159	0.0147717
695.237	0.0147198
695.315	0.0149155
695.393	0.0149539
695.471	0.0148492
695.549	0.0150393
695.628	0.0153572
695.706	0.0155040
695.784	0.0153979
695.862	0.0155367
695.940	0.0156021
696.018	0.0155042
696.096	0.0155121
696.174	0.0155508
696.253	0.0153011
696.331	0.0152749
696.409	0.0152243
696.487	0.0152106
696.565	0.0149915
696.643	0.0148212
696.721	0.0147208
696.799	0.0147584
696.878	0.0147581
696.956	0.0147436
697.034	0.0150059
697.112	0.0148846
697.190	0.0148811
697.268	0.0151809
697.346	0.0154056
697.424	0.0155531
697.503	0.0156304
697.581	0.0157117
697.659	0.0156532
697.737	0.0156203
697.815	0.0153915
697.893	0.0152742
697.971	0.0152340
698.049	0.0150454
698.128	0.0150938
698.206	0.0147908
698.284	0.0148176
698.362	0.0146306
698.440	0.0147653
698.518	0.0147541
698.596	0.0147582
698.674	0.0149345
698.753	0.0148921
698.831	0.0150261
698.909	0.0152633
698.987	0.0151292
699.065	0.0151073
699.143	0.0152787
699.221	0.0151443
699.299	0.0151852
699.378	0.0154130
699.456	0.0152748
699.534	0.0152940
699.612	0.0152656
699.690	0.0154380
699.768	0.0153609
699.846	0.0155080
699.924	0.0153571
700.003	0.0151523
700.081	0.0151137
700.159	0.0149060
700.237	0.0148695
700.315	0.0146974
700.393	0.0146181
700.471	0.0145678
700.549	0.0146521
700.628	0.0146215
700.706	0.0147868
700.784	0.0150790
700.862	0.0150238
700.940	0.0150347
701.018	0.0152778
701.096	0.0155073
701.174	0.0155266
701.253	0.0155479
701.331	0.0155334
701.409	0.0155032
701.487	0.0153904
701.565	0.0152328
701.643	0.0151445
701.721	0.0152306
701.799	0.0149909
701.878	0.0149326
701.956	0.0147206
702.034	0.0149116
702.112	0.0146261
702.190	0.0146122
702.268	0.0146966
702.346	0.0146349
702.424	0.0147440
702.503	0.0149294
702.581	0.0149630
702.659	0.0150050
702.737	0.0152238
702.815	0.0151852
702.893	0.0152835
702.971	0.0152571
703.049	0.0154308
703.128	0.0154385
703.206	0.0154259
703.284	0.0155114
703.362	0.0153876
703.440	0.0154410
703.518	0.0154203
703.596	0.0153310
703.674	0.0151864
703.753	0.0150168
703.831	0.0148143
703.909	0.0147274
703.987	0.0148067
704.065	0.0146328
704.143	0.0148299
704.221	0.0145583
704.299	0.0148080
704.378	0.0148920
704.456	0.0149895
704.534	0.0149814
704.612	0.0149459
704.690	0.0150412
704.768	0.0151539
704.846	0.0151119
704.924	0.0151919
705.003	0.0153712
705.081	0.0154035
705.159	0.0155520
705.237	0.0155048
705.315	0.0155051
705.393	0.0156377
705.471	0.0154469
705.549	0.0153596
705.628	0.0153517
705.706	0.0151352
705.784	0.0151409
705.862	0.0148837
705.940	0.0146695
706.018	0.0144933
706.096	0.0145998
706.174	0.0146608
706.253	0.0145298
706.331	0.0145362
706.409	0.0147884
706.487	0.0148447
706.565	0.0150700
706.643	0.0153278
706.721	0.0154962
706.799	0.0155956
706.878	0.0155600
706.956	0.0156573
707.034	0.0156469
707.112	0.0155534
707.190	0.0154148
707.268	0.0154285
707.346	0.0151801
707.424	0.0149223
707.503	0.0148832
707.581	0.0147700
707.659	0.0146243
707.737	0.0145984
707.815	0.0143494
707.893	0.0145905
707.971	0.0146188
708.049	0.0147500
708.128	0.0149502
708.206	0.0149868
708.284	0.0152466
708.362	0.0153718
708.440	0.0153391
708.518	0.0154718
708.596	0.0157061
708.674	0.0156482
708.753	0.0155947
708.831	0.0155131
708.909	0.0153193
708.987	0.0152393
709.065	0.0150832
709.143	0.0148895
709.221	0.0147848
709.299	0.0147754
709.378	0.0148007
709.456	0.0147282
709.534	0.0148067
709.612	0.0149017
709.690	0.0150294
709.768	0.0151690
709.846	0.0151852
709.924	0.0152110
710.003	0.0152701
710.081	0.0155126
710.159	0.0154655
710.237	0.0153223
710.315	0.0153938
710.393	0.0153056
710.471	0.0150648
710.549	0.0149769
710.628	0.0149117
710.706	0.0149905
710.784	0.0147657
710.862	0.0145982
710.940	0.0146770
711.018	0.0147573
711.096	0.0148154
711.174	0.0150447
711.253	0.0150695
711.331	0.0152496
711.409	0.0151905
711.487	0.0154894
711.565	0.0155443
711.643	0.0157583
711.721	0.0158150
711.799	0.0156744
711.878	0.0155442
711.956	0.0154288
712.034	0.0152797
712.112	0.0152525
712.190	0.0149614
712.268	0.0148652
712.346	0.0147746
712.424	0.0147366
712.503	0.0146720
712.581	0.0146810
712.659	0.0146143
712.737	0.0147052
712.815	0.0149501
712.893	0.0149889
712.971	0.0149870
713.049	0.0150362
713.128	0.0149682
713.206	0.0152679
713.284	0.0151975
713.362	0.0152790
713.440	0.0153317
713.518	0.0155440
713.596	0.0153915
713.674	0.0154395
713.753	0.0154797
713.831	0.0154585
713.909	0.0155882
713.987	0.0156088
714.065	0.0153202
714.143	0.0152142
714.221	0.0152557
714.299	0.0149470
714.378	0.0150047
714.456	0.0146944
714.534	0.0146735
714.612	0.0143996
714.690	0.0145334
714.768	0.0143838
714.846	0.0145019
714.924	0.0145912
715.003	0.0144849
715.081	0.0147606
715.159	0.0150233
715.237	0.0150005
715.315	0.0151660
715.393	0.0154768
715.471	0.0155409
715.549	0.0156290
715.628	0.0157150
715.706	0.0157140
715.784	0.0156830
715.862	0.0155132
715.940	0.0154380
716.018	0.0153020
716.096	0.0152316
716.174	0.0150783
716.253	0.0149385
716.331	0.0148784
716.409	0.0148502
716.487	0.0147636
716.565	0.0147491
716.643	0.0146349
716.721	0.0148378
716.799	0.0149227
716.878	0.0149704
716.956	0.0148476
717.034	0.0149985
717.112	0.0149582
717.190	0.0151637
717.268	0.0149480
717.346	0.0151215
717.424	0.0151975
717.503	0.0152679
717.581	0.0153316
717.659	0.0153049
717.737	0.0153404
717.815	0.0153250
717.893	0.0152245
717.971	0.0152038
718.049	0.0153972
718.128	0.0152876
718.206	0.0153231
718.284	0.0152600
718.362	0.0151514
718.440	0.0151543
718.518	0.0151968
718.596	0.0151180
718.674	0.0152193
718.753	0.0151250
718.831	0.0150534
718.909	0.0151492
718.987	0.0149191
719.065	0.0150391
719.143	0.0150858
719.221	0.0150927
719.299	0.0150809
719.378	0.0148750
719.456	0.0146843
719.534	0.0147041
719.612	0.0146861
719.690	0.0146320
719.768	0.0145613
719.846	0.0145860
719.924	0.0145795
720.003	0.0146634
720.081	0.0147346
720.159	0.0149742
720.237	0.0151428
720.315	0.0152202
720.393	0.0154099
720.471	0.0155991
720.549	0.0157333
720.628	0.0157519
720.706	0.0156927
720.784	0.0158199
720.862	0.0158486
720.940	0.0157047
721.018	0.0158414
721.096	0.0157421
721.174	0.0156180
721.253	0.0156303
721.331	0.0155917
721.409	0.0154023
721.487	0.0152728
721.565	0.0152542
721.643	0.0150174
721.721	0.0150050
721.799	0.0147396
721.878	0.0146452
721.956	0.0145852
722.034	0.0145587
722.112	0.0146621
722.190	0.0144518
722.268	0.0144617
722.346	0.0145703
722.424	0.0148866
722.503	0.0148734
722.581	0.0150548
722.659	0.0152212
722.737	0.0150975
722.815	0.0154082
722.893	0.0155642
722.971	0.0155679
723.049	0.0156984
723.128	0.0156972
723.206	0.0156889
723.284	0.0157951
723.362	0.0156687
723.440	0.0156110
723.518	0.0154026
723.596	0.0153088
723.674	0.0152620
723.753	0.0152658
723.831	0.0151128
723.909	0.0150477
723.987	0.0150161
724.065	0.0151411
724.143	0.0148651
724.221	0.0148756
724.299	0.0147313
724.378	0.0146934
724.456	0.0146895
724.534	0.0145802
724.612	0.0145603
724.690	0.0146054
724.768	0.0143813
724.846	0.0144984
724.924	0.0142470
725.003	0.0145068
725.081	0.0146117
725.159	0.0145499
725.237	0.0145639
725.315	0.0147137
725.393	0.0148184
725.471	0.0149580
725.549	0.0149581
725.628	0.0151113
725.706	0.0152389
725.784	0.0152848
725.862	0.0154697
725.940	0.0156327
726.018	0.0155933
726.096	0.0155383
726.174	0.0158094
726.253	0.0159016
726.331	0.0158854
726.409	0.0158788
726.487	0.0160143
726.565	0.0159290
726.643	0.0159535
726.721	0.0159483
726.799	0.0157761
726.878	0.0157595
726.956	0.0156992
727.034	0.0154920
727.112	0.0155833
727.190	0.0152759
727.268	0.0152474
727.346	0.0150145
727.424	0.0149580
727.503	0.0147933
727.581	0.0147841
727.659	0.0145327
727.737	0.0145736
727.815	0.0145652
727.893	0.0145924
727.971	0.0143743
728.049	0.0145316
728.128	0.0143701
728.206	0.0145122
728.284	0.0144495
728.362	0.0145530
728.440	0.0144627
728.518	0.0142999
728.596	0.0142982
728.674	0.0144472
728.753	0.0145699
728.831	0.0145545
728.909	0.0146749
728.987	0.0146484
729.065	0.0147507
729.143	0.0147385
729.221	0.0148466
729.299	0.0148038
729.378	0.0148119
729.456	0.0148227
729.534	0.0149770
729.612	0.0150835
729.690	0.0151653
729.768	0.0151361
729.846	0.0154053
729.924	0.0156264
730.003	0.0156676
730.081	0.0159134
730.159	0.0160993
730.237	0.0162523
730.315	0.0163841
730.393	0.0164783
730.471	0.0163757
730.549	0.0164835
730.628	0.0164765
730.706	0.0163516
730.784	0.0161121
730.862	0.0159742
730.940	0.0156679
731.018	0.0155194
731.096	0.0151755
731.174	0.0147773
731.253	0.0145235
731.331	0.0144427
731.409	0.0139906
731.487	0.0136044
731.565	0.0134428
731.643	0.0133892
731.721	0.0134855
731.799	0.0132384
731.878	0.0132930
731.956	0.0133559
732.034	0.0133839
732.112	0.0134896
732.190	0.0138818
732.268	0.0140225
732.346	0.0141914
732.424	0.0144880
732.503	0.0148633
732.581	0.0149363
732.659	0.0153796
732.737	0.0154675
732.815	0.0157957
732.893	0.0160699
732.971	0.0160268
733.049	0.0162903
733.128	0.0164671
733.206	0.0166403
733.284	0.0167000
733.362	0.0168391
733.440	0.0167659
733.518	0.0168212
733.596	0.0168568
733.674	0.0168752
733.753	0.0166589
733.831	0.0166026
733.909	0.0165916
733.987	0.0163104
734.065	0.0162929
734.143	0.0161395
734.221	0.0160244
734.299	0.0156674
734.378	0.0153822
734.456	0.0152241
734.534	0.0151237
734.612	0.0149933
734.690	0.0146917
734.768	0.0144280
734.846	0.0142239
734.924	0.0139542
735.003	0.0138562
735.081	0.0137675
735.159	0.0135555
735.237	0.0134661
735.315	0.0133967
735.393	0.0134383
735.471	0.0134601
735.549	0.0134656
735.628	0.0133856
735.706	0.0134087
735.784	0.0136124
735.862	0.0136499
735.940	0.0137632
736.018	0.0138318
736.096	0.0139925
736.174	0.0139845
736.253	0.0144388
736.331	0.0144942
736.409	0.0146397
736.487	0.0149292
736.565	0.0151973
736.643	0.0153387
736.721	0.0154907
736.799	0.0156518
736.878	0.0158184
736.956	0.0160259
737.034	0.0159999
737.112	0.0162128
737.190	0.0161822
737.268	0.0162241
737.346	0.0163578
737.424	0.0163289
737.503	0.0164915
737.581	0.0164618
737.659	0.0165466
737.737	0.0166743
737.815	0.0167361
737.893	0.0166067
737.971	0.0165060
738.049	0.0165391
738.128	0.0163735
738.206	0.0163563
738.284	0.0163153
738.362	0.0162046
738.440	0.0159663
738.518	0.0159669
738.596	0.0157305
738.674	0.0156213
738.753	0.0156804
738.831	0.0154590
738.909	0.0152146
738.987	0.0152554
739.065	0.0150573
739.143	0.0149821
739.221	0.0149094
739.299	0.0146485
739.378	0.0146894
739.456	0.0144043
739.534	0.0144701
739.612	0.0143176
739.690	0.0141616
739.768	0.0140237
739.846	0.0140167
739.924	0.0138403
740.003	0.0136026
740.081	0.0133926
740.159	0.0133382
740.237	0.0131701
740.315	0.0132211
740.393	0.0131420
740.471	0.0131118
740.549	0.0131136
740.628	0.0133333
740.706	0.0135857
740.784	0.0136469
740.862	0.0138910
740.940	0.0141611
741.018	0.0145201
741.096	0.0147314
741.174	0.0150640
741.253	0.0153200
741.331	0.0155517
741.409	0.0156838
741.487	0.0159264
741.565	0.0162138
741.643	0.0160930
741.721	0.0162607
741.799	0.0163853
741.878	0.0165339
741.956	0.0164186
742.034	0.0165043
742.112	0.0163359
742.190	0.0162537
742.268	0.0161689
742.346	0.0158586
742.424	0.0156960
742.503	0.0156119
742.581	0.0155685
742.659	0.0154250
742.737	0.0154150
742.815	0.0153429
742.893	0.0155502
742.971	0.0155491
743.049	0.0154251
743.128	0.0154154
743.206	0.0155542
743.284	0.0155844
743.362	0.0154381
743.440	0.0153901
743.518	0.0154944
743.596	0.0154699
743.674	0.0154672
743.753	0.0151776
743.831	0.0151373
743.909	0.0152502
743.987	0.0151300
744.065	0.0150190
744.143	0.0150638
744.221	0.0150262
744.299	0.0148334
744.378	0.0150336
744.456	0.0150761
744.534	0.0149480
744.612	0.0148650
744.690	0.0150925
744.768	0.0152155
744.846	0.0151276
744.924	0.0152640
745.003	0.0154047
745.081	0.0153940
745.159	0.0154674
745.237	0.0155639
745.315	0.0156554
745.393	0.0155663
745.471	0.0156668
745.549	0.0152963
745.628	0.0152097
745.706	0.0151073
745.784	0.0148476
745.862	0.0145228
745.940	0.0142168
746.018	0.0140707
746.096	0.0134344
746.174	0.0132536
746.253	0.0129289
746.331	0.0126015
746.409	0.0124119
746.487	0.0121818
746.565	0.0121836
746.643	0.0124267
746.721	0.0125512
746.799	0.0130610
746.878	0.0132159
746.956	0.0136458
747.034	0.0143991
747.112	0.0148727
747.190	0.0155202
747.268	0.0161101
747.346	0.0167130
747.424	0.0172277
747.503	0.0173997
747.581	0.0177543
747.659	0.0180099
747.737	0.0180603
747.815	0.0181790
747.893	0.0180528
747.971	0.0177493
748.049	0.0175233
748.128	0.0173058
748.206	0.0168385
748.284	0.0164648
748.362	0.0160986
748.440	0.0155275
748.518	0.0152581
748.596	0.0150404
748.674	0.0147676
748.753	0.0144356
748.831	0.0142154
748.909	0.0142942
748.987	0.0143187
749.065	0.0144749
749.143	0.0142181
749.221	0.0144196
749.299	0.0145853
749.378	0.0148720
749.456	0.0150179
749.534	0.0149880
749.612	0.0151501
749.690	0.0151752
749.768	0.0150674
749.846	0.0152618
749.924	0.0152348
750.003	0.0154361
750.081	0.0153896
750.159	0.0153207
750.237	0.0154260
750.315	0.0153627
750.393	0.0154607
750.471	0.0153643
750.549	0.0152565
750.628	0.0152626
750.706	0.0151717
750.784	0.0151605
750.862	0.0152561
750.940	0.0150153
751.018	0.0149501
751.096	0.0151485
751.174	0.0149530
751.253	0.0150725
751.331	0.0149195
751.409	0.0149126
751.487	0.0147484
751.565	0.0147210
751.643	0.0145178
751.721	0.0142531
751.799	0.0140966
751.878	0.0138239
751.956	0.0135611
752.034	0.0133814
752.112	0.0132186
752.190	0.0131879
752.268	0.0129761
752.346	0.0129005
752.424	0.0131119
752.503	0.0132401
752.581	0.0133517
752.659	0.0135121
752.737	0.0139761
752.815	0.0142891
752.893	0.0146106
752.971	0.0151294
753.049	0.0154045
753.128	0.0158047
753.206	0.0162551
753.284	0.0166714
753.362	0.0170359
753.440	0.0172610
753.518	0.0175114
753.596	0.0175494
753.674	0.0176814
753.753	0.0175076
753.831	0.0174146
753.909	0.0173047
753.987	0.0170089
754.065	0.0167608
754.143	0.0163776
754.221	0.0161057
754.299	0.0159605
754.378	0.0155265
754.456	0.0152554
754.534	0.0150149
754.612	0.0149900
754.690	0.0146288
754.768	0.0146492
754.846	0.0145875
754.924	0.0144019
755.003	0.0142467
755.081	0.0142682
755.159	0.0142233
755.237	0.0143386
755.315	0.0143771
755.393	0.0143867
755.471	0.0144400
755.549	0.0145210
755.628	0.0147057
755.706	0.0148221
755.784	0.0150338
755.862	0.0151501
755.940	0.0153524
756.018	0.0154955
756.096	0.0155987
756.174	0.0157678
756.253	0.0157890
756.331	0.0158722
756.409	0.0159695
756.487	0.0159092
756.565	0.0158765
756.643	0.0157346
756.721	0.0155125
756.799	0.0156013
756.878	0.0154656
756.956	0.0152069
757.034	0.0150322
757.112	0.0149226
757.190	0.0147354
757.268	0.0147108
757.346	0.0143029
757.424	0.0141560
757.503	0.0139661
757.581	0.0138326
757.659	0.0136510
757.737	0.0133224
757.815	0.0130456
757.893	0.0127280
757.971	0.0126010
758.049	0.0126745
758.128	0.0125699
758.206	0.0126598
758.284	0.0127803
758.362	0.0130779
758.440	0.0134673
758.518	0.0137639
758.596	0.0140755
758.674	0.0147296
758.753	0.0153403
758.831	0.0156638
758.909	0.0160812
758.987	0.0166478
759.065	0.0170519
759.143	0.0174662
759.221	0.0176141
759.299	0.0178201
759.378	0.0180076
759.456	0.0179661
759.534	0.0179381
759.612	0.0177686
759.690	0.0176891
759.768	0.0172544
759.846	0.0168399
759.924	0.0164984
760.003	0.0161553
760.081	0.0157960
760.159	0.0154482
760.237	0.0151099
760.315	0.0150282
760.393	0.0147788
760.471	0.0146747
760.549	0.0146431
760.628	0.0145304
760.706	0.0146272
760.784	0.0145782
760.862	0.0146368
760.940	0.0144507
761.018	0.0146982
761.096	0.0146947
761.174	0.0147266
761.253	0.0146410
761.331	0.0147301
761.409	0.0147472
761.487	0.0147997
761.565	0.0146510
761.643	0.0147989
761.721	0.0148783
761.799	0.0149165
761.878	0.0147923
761.956	0.0149964
762.034	0.0151458
762.112	0.0153632
762.190	0.0153756
762.268	0.0154245
762.346	0.0155582
762.424	0.0155809
762.503	0.0156927
762.581	0.0156940
762.659	0.0156736
762.737	0.0156338
762.815	0.0155695
762.893	0.0154337
762.971	0.0155216
763.049	0.0151946
763.128	0.0149063
763.206	0.0144775
763.284	0.0143806
763.362	0.0141177
763.440	0.0137286
763.518	0.0133424
763.596	0.0130397
763.674	0.0127949
763.753	0.0126308
763.831	0.0125120
763.909	0.0125948
763.987	0.0127633
764.065	0.0130067
764.143	0.0133386
764.221	0.0136425
764.299	0.0142156
764.378	0.0146379
764.456	0.0152164
764.534	0.0155997
764.612	0.0161230
764.690	0.0165816
764.768	0.0168270
764.846	0.0171620
764.924	0.0172165
765.003	0.0173642
765.081	0.0174043
765.159	0.0174011
765.237	0.0172224
765.315	0.0171507
765.393	0.0168500
765.471	0.0165656
765.549	0.0163014
765.628	0.0159850
765.706	0.0157421
765.784	0.0153922
765.862	0.0151031
765.940	0.0149734
766.018	0.0149402
766.096	0.0147979
766.174	0.0148718
766.253	0.0149631
766.331	0.0149990
766.409	0.0150724
766.487	0.0151694
766.565	0.0151671
766.643	0.0151851
766.721	0.0153125
766.799	0.0151830
766.878	0.0149751
766.956	0.0151013
767.034	0.0150436
767.112	0.0151746
767.190	0.0150459
767.268	0.0148711
767.346	0.0149388
767.424	0.0150481
767.503	0.0150185
767.581	0.0151337
767.659	0.0151147
767.737	0.0151091
767.815	0.0151491
767.893	0.0151958
767.971	0.0154078
768.049	0.0153412
768.128	0.0153643
768.206	0.0155506
768.284	0.0153546
768.362	0.0152850
768.440	0.0151252
768.518	0.0151189
768.596	0.0151142
768.674	0.0148450
768.753	0.0148222
768.831	0.0148476
768.909	0.0145774
768.987	0.0143647
769.065	0.0142886
769.143	0.0140246
769.221	0.0139197
769.299	0.0136536
769.378	0.0134069
769.456	0.0132890
769.534	0.0131267
769.612	0.0130138
769.690	0.0130981
769.768	0.0131183
769.846	0.0134292
769.924	0.0136394
770.003	0.0141386
770.081	0.0144105
770.159	0.0148150
770.237	0.0152197
770.315	0.0155733
770.393	0.0159338
770.471	0.0162325
770.549	0.0165810
770.628	0.0170076
770.706	0.0171419
770.784	0.0171712
770.862	0.0173430
770.940	0.0172396
771.018	0.0171616
771.096	0.0170481
771.174	0.0169444
771.253	0.0166691
771.331	0.0163433
771.409	0.0161575
771.487	0.0158415
771.565	0.0154108
771.643	0.0153565
771.721	0.0151284
771.799	0.0150606
771.878	0.0148354
771.956	0.0148396
772.034	0.0148108
772.112	0.0146621
772.190	0.0146983
772.268	0.0146177
772.346	0.0147804
772.424	0.0146109
772.503	0.0144633
772.581	0.0147021
772.659	0.0147049
772.737	0.0146408
772.815	0.0146314
772.893	0.0147243
772.971	0.0148096
773.049	0.0149358
773.128	0.0149392
773.206	0.0151049
773.284	0.0152988
773.362	0.0153085
773.440	0.0155016
773.518	0.0155150
773.596	0.0156310
773.674	0.0156719
773.753	0.0157994
773.831	0.0156765
773.909	0.0157874
773.987	0.0157471
774.065	0.0156778
774.143	0.0155965
774.221	0.0154670
774.299	0.0153117
774.378	0.0151955
774.456	0.0149664
774.534	0.0149751
774.612	0.0146967
774.690	0.0145097
774.768	0.0145437
774.846	0.0144070
774.924	0.0143108
775.003	0.0141293
775.081	0.0142847
775.159	0.0139442
775.237	0.0137916
775.315	0.0136205
775.393	0.0137444
775.471	0.0136855
775.549	0.0137361
775.628	0.0137479
775.706	0.0140325
775.784	0.0141195
775.862	0.0143752
775.940	0.0146859
776.018	0.0148545
776.096	0.0151147
776.174	0.0154455
776.253	0.0156660
776.331	0.0158991
776.409	0.0161411
776.487	0.0164355
776.565	0.0163598
776.643	0.0165896
776.721	0.0166163
776.799	0.0167157
776.878	0.0166545
776.956	0.0166324
777.034	0.0164636
777.112	0.0161996
777.190	0.0160860
777.268	0.0158295
777.346	0.0157242
777.424	0.0154787
777.503	0.0151652
777.581	0.0151848
777.659	0.0150227
777.737	0.0147830
777.815	0.0147374
777.893	0.0147136
777.971	0.0145123
778.049	0.0146907
778.128	0.0145130
778.206	0.0146000
778.284	0.0147145
778.362	0.0146874
778.440	0.0148078
778.518	0.0147343
778.596	0.0149316
778.674	0.0149999
778.753	0.0151272
778.831	0.0151344
778.909	0.0151801
778.987	0.0152818
779.065	0.0153762
779.143	0.0153265
779.221	0.0154551
779.299	0.0156322
779.378	0.0155450
779.456	0.0156686
779.534	0.0157819
779.612	0.0157800
779.690	0.0155997
779.768	0.0157605
779.846	0.0156180
779.924	0.0155604
780.003	0.0153415
780.081	0.0152629
780.159	0.0151762
780.237	0.0150507
780.315	0.0149105
780.393	0.0147873
780.471	0.0145731
780.549	0.0144344
780.628	0.0144176
780.706	0.0143142
780.784	0.0141416
780.862	0.0140601
780.940	0.0140305
781.018	0.0139725
781.096	0.0140266
781.174	0.0139056
781.253	0.0136104
781.331	0.0137856
781.409	0.0138576
781.487	0.0138421
781.565	0.0139756
781.643	0.0141491
781.721	0.0144025
781.799	0.0144703
781.878	0.0147152
781.956	0.0149291
782.034	0.0151597
782.112	0.0154237
782.190	0.0157509
782.268	0.0159694
782.346	0.0160619
782.424	0.0162932
782.503	0.0164300
782.581	0.0164668
782.659	0.0166688
782.737	0.0166399
782.815	0.0166728
782.893	0.0165356
782.971	0.0165484
783.049	0.0161972
783.128	0.0161652
783.206	0.0159454
783.284	0.0157937
783.362	0.0156277
783.440	0.0155075
783.518	0.0152434
783.596	0.0151511
783.674	0.0148260
783.753	0.0147395
783.831	0.0145721
783.909	0.0145822
783.987	0.0144102
784.065	0.0144113
784.143	0.0145045
784.221	0.0142774
784.299	0.0143337
784.378	0.0144424
784.456	0.0144426
784.534	0.0147353
784.612	0.0147051
784.690	0.0148267
784.768	0.0149047
784.846	0.0148207
784.924	0.0149016
785.003	0.0150110
785.081	0.0150892
785.159	0.0153052
785.237	0.0153044
785.315	0.0152760
785.393	0.0154094
785.471	0.0154169
785.549	0.0155123
785.628	0.0154729
785.706	0.0157444
785.784	0.0154230
785.862	0.0154700
785.940	0.0156593
786.018	0.0154258
786.096	0.0153651
786.174	0.0153469
786.253	0.0153254
786.331	0.0153507
786.409	0.0152979
786.487	0.0151885
786.565	0.0150738
786.643	0.0150144
786.721	0.0150690
786.799	0.0148724
786.878	0.0148049
786.956	0.0148038
787.034	0.0147377
787.112	0.0145487
787.190	0.0145655
787.268	0.0143995
787.346	0.0144270
787.424	0.0143537
787.503	0.0144015
787.581	0.0142561
787.659	0.0143865
787.737	0.0145030
787.815	0.0143075
787.893	0.0143193
787.971	0.0146355
788.049	0.0147607
788.128	0.0149390
788.206	0.0150363
788.284	0.0151618
788.362	0.0154484
788.440	0.0155016
788.518	0.0158030
788.596	0.0158784
788.674	0.0159605
788.753	0.0159476
788.831	0.0158720
788.909	0.0159879
788.987	0.0160149
789.065	0.0160066
789.143	0.0157996
789.221	0.0158038
789.299	0.0157231
789.378	0.0155515
789.456	0.0155099
789.534	0.0152237
789.612	0.0151031
789.690	0.0152153
789.768	0.0149684
789.846	0.0149265
789.924	0.0149391
790.003	0.0148328
790.081	0.0146416
790.159	0.0147799
790.237	0.0147751
790.315	0.0148627
790.393	0.0148859
790.471	0.0148116
790.549	0.0150709
790.628	0.0151152
790.706	0.0150694
790.784	0.0150284
790.862	0.0151057
790.940	0.0151864
791.018	0.0153550
791.096	0.0154302
791.174	0.0154272
791.253	0.0152945
791.331	0.0151779
791.409	0.0151573
791.487	0.0153268
791.565	0.0152493
791.643	0.0153332
791.721	0.0151505
791.799	0.0151238
791.878	0.0151244
791.956	0.0150876
792.034	0.0150856
792.112	0.0151401
792.190	0.0149828
792.268	0.0150375
792.346	0.0149961
792.424	0.0150848
792.503	0.0149812
792.581	0.0149850
792.659	0.0149451
792.737	0.0149842
792.815	0.0149181
792.893	0.0148756
792.971	0.0148620
793.049	0.0147398
793.128	0.0146873
793.206	0.0147125
793.284	0.0146835
793.362	0.0145893
793.440	0.0146942
793.518	0.0146719
793.596	0.0144541
793.674	0.0147477
793.753	0.0148067
793.831	0.0148795
793.909	0.0150063
793.987	0.0149219
794.065	0.0150294
794.143	0.0151367
794.221	0.0152700
794.299	0.0153723
794.378	0.0153805
794.456	0.0153905
794.534	0.0155145
794.612	0.0154715
794.690	0.0155924
794.768	0.0155648
794.846	0.0156631
794.924	0.0157406
795.003	0.0155882
795.081	0.0155941
795.159	0.0156961
795.237	0.0155700
795.315	0.0155911
795.393	0.0155195
795.471	0.0153429
795.549	0.0153863
795.628	0.0153239
795.706	0.0152873
795.784	0.0152406
795.862	0.0151794
795.940	0.0152427
796.018	0.0151183
796.096	0.0150494
796.174	0.0150807
796.253	0.0150471
796.331	0.0149087
796.409	0.0148802
796.487	0.0149194
796.565	0.0150146
796.643	0.0148734
796.721	0.0147913
796.799	0.0149256
796.878	0.0149638
796.956	0.0148650
797.034	0.0150040
797.112	0.0149733
797.190	0.0150662
797.268	0.0150235
797.346	0.0150307
797.424	0.0150334
797.503	0.0151169
797.581	0.0150444
797.659	0.0149710
797.737	0.0151563
797.815	0.0153049
797.893	0.0151131
797.971	0.0152216
798.049	0.0153223
798.128	0.0153216
798.206	0.0151755
798.284	0.0151669
798.362	0.0151764
798.440	0.0152345
798.518	0.0153674
798.596	0.0153410
798.674	0.0152198
798.753	0.0152495
798.831	0.0152114
798.909	0.0150903
798.987	0.0151009
799.065	0.0150691
799.143	0.0149584
799.221	0.0148792
799.299	0.0149168
799.378	0.0147444
799.456	0.0148398
799.534	0.0147877
799.612	0.0147931
799.690	0.0148467
799.768	0.0149521
799.846	0.0148555
799.924	0.0149933
800.003	0.0150363
800.081	0.0151312
800.159	0.0150563
800.237	0.0151305
800.315	0.0151781
800.393	0.0152794
800.471	0.0151503
800.549	0.0152741
800.628	0.0153824
800.706	0.0152302
800.784	0.0152337
800.862	0.0152219
800.940	0.0153381
801.018	0.0152174
801.096	0.0152661
801.174	0.0152053
801.253	0.0153107
801.331	0.0151302
801.409	0.0151507
801.487	0.0151814
801.565	0.0152671
801.643	0.0152126
801.721	0.0152538
801.799	0.0153506
801.878	0.0152929
801.956	0.0152573
802.034	0.0153852
802.112	0.0152701
802.190	0.0152372
802.268	0.0151353
802.346	0.0151413
802.424	0.0151463
802.503	0.0150038
802.581	0.0150037
802.659	0.0149380
802.737	0.0150451
802.815	0.0151039
802.893	0.0150957
802.971	0.0150684
803.049	0.0149162
803.128	0.0151139
803.206	0.0151417
803.284	0.0150534
803.362	0.0150219
803.440	0.0151964
803.518	0.0150826
803.596	0.0152042
803.674	0.0151981
803.753	0.0151960
803.831	0.0151176
803.909	0.0153178
803.987	0.0152132
804.065	0.0151511
804.143	0.0152859
804.221	0.0149632
804.299	0.0151079
804.378	0.0152327
804.456	0.0150620
804.534	0.0149798
804.612	0.0149567
804.690	0.0151035
804.768	0.0148472
804.846	0.0148190
804.924	0.0148884
805.003	0.0148434
805.081	0.0146934
805.159	0.0148299
805.237	0.0148106
805.315	0.0147319
805.393	0.0149077
805.471	0.0147746
805.549	0.0149765
805.628	0.0149835
805.706	0.0149031
805.784	0.0151098
805.862	0.0153085
805.940	0.0150884
806.018	0.0152324
806.096	0.0152846
806.174	0.0152493
806.253	0.0153249
806.331	0.0152738
806.409	0.0152467
806.487	0.0152878
806.565	0.0153857
806.643	0.0152637
806.721	0.0150371
806.799	0.0151308
806.878	0.0152431
806.956	0.0152074
807.034	0.0151994
807.112	0.0151073
807.190	0.0150867
807.268	0.0152211
807.346	0.0151025
807.424	0.0151866
807.503	0.0153260
807.581	0.0153955
807.659	0.0153602
807.737	0.0153311
807.815	0.0153168
807.893	0.0152169
807.971	0.0153184
808.049	0.0152802
808.128	0.0151449
808.206	0.0149776
808.284	0.0150675
808.362	0.0150101
808.440	0.0147822
808.518	0.0148422
808.596	0.0147890
808.674	0.0148006
808.753	0.0147619
808.831	0.0148299
808.909	0.0149657
808.987	0.0148905
809.065	0.0148466
809.143	0.0149141
809.221	0.0150189
809.299	0.0151588
809.378	0.0151408
809.456	0.0153122
809.534	0.0152936
809.612	0.0152271
809.690	0.0153320
809.768	0.0153114
809.846	0.0152713
809.924	0.0153318
810.003	0.0152377
810.081	0.0153703
810.159	0.0153366
810.237	0.0153232
810.315	0.0152119
810.393	0.0152299
810.471	0.0151768
810.549	0.0151749
810.628	0.0152175
810.706	0.0150875
810.784	0.0150409
810.862	0.0150641
810.940	0.0150815
811.018	0.0149265
811.096	0.0150344
811.174	0.0151340
811.253	0.0149931
811.331	0.0148952
811.409	0.0150260
811.487	0.0150768
811.565	0.0151321
811.643	0.0150458
811.721	0.0149374
811.799	0.0148881
811.878	0.0150175
811.956	0.0148957
812.034	0.0148351
812.112	0.0149063
812.190	0.0148825
812.268	0.0148137
812.346	0.0148382
812.424	0.0148117
812.503	0.0147269
812.581	0.0147321
812.659	0.0149833
812.737	0.0149786
812.815	0.0149062
812.893	0.0150296
812.971	0.0150533
813.049	0.0151468
813.128	0.0150997
813.206	0.0152382
813.284	0.0152856
813.362	0.0154407
813.440	0.0153230
813.518	0.0154854
813.596	0.0154607
813.674	0.0157019
813.753	0.0155794
813.831	0.0155950
813.909	0.0155268
813.987	0.0155092
814.065	0.0152878
814.143	0.0152693
814.221	0.0151830
814.299	0.0152782
814.378	0.0153761
814.456	0.0151904
814.534	0.0152448
814.612	0.0150064
814.690	0.0151073
814.768	0.0151693
814.846	0.0152789
814.924	0.0152185
815.003	0.0150620
815.081	0.0150791
815.159	0.0151968
815.237	0.0151332
815.315	0.0152560
815.393	0.0152141
815.471	0.0150436
815.549	0.0149854
815.628	0.0151251
815.706	0.0150686
815.784	0.0149691
815.862	0.0150877
815.940	0.0151672
816.018	0.0149472
816.096	0.0149169
816.174	0.0148623
816.253	0.0147781
816.331	0.0148401
816.409	0.0149003
816.487	0.0149194
816.565	0.0148470
816.643	0.0149804
816.721	0.0149832
816.799	0.0150933
816.878	0.0151354
816.956	0.0150817
817.034	0.0153521
817.112	0.0153999
817.190	0.0153760
817.268	0.0154486
817.346	0.0154947
817.424	0.0153551
817.503	0.0153679
817.581	0.0152663
817.659	0.0153694
817.737	0.0152450
817.815	0.0150685
817.893	0.0150694
817.971	0.0149219
818.049	0.0149776
818.128	0.0149828
818.206	0.0148882
818.284	0.0148335
818.362	0.0147539
818.440	0.0148561
818.518	0.0149035
818.596	0.0148489
818.674	0.0149706
818.753	0.0150222
818.831	0.0150610
818.909	0.0150735
818.987	0.0151721
819.065	0.0152089
819.143	0.0152687
819.221	0.0151592
819.299	0.0154033
819.378	0.0152952
819.456	0.0153463
819.534	0.0152631
819.612	0.0151886
819.690	0.0151864
819.768	0.0151738
819.846	0.0150291
819.924	0.0152415
820.003	0.0151212
820.081	0.0150828
820.159	0.0149757
820.237	0.0150621
820.315	0.0150479
820.393	0.0150922
820.471	0.0150119
820.549	0.0150641
820.628	0.0152374
820.706	0.0153513
820.784	0.0152254
820.862	0.0153050
820.940	0.0154276
821.018	0.0153288
821.096	0.0152666
821.174	0.0153366
821.253	0.0151655
821.331	0.0151399
821.409	0.0152214
821.487	0.0151978
821.565	0.0151785
821.643	0.0151733
821.721	0.0151324
821.799	0.0151303
821.878	0.0150985
821.956	0.0150023
822.034	0.0150830
822.112	0.0150407
822.190	0.0149572
822.268	0.0149937
822.346	0.0150085
822.424	0.0150582
822.503	0.0151752
822.581	0.0151620
822.659	0.0151668
822.737	0.0152037
822.815	0.0151702
822.893	0.0152821
822.971	0.0153060
823.049	0.0152695
823.128	0.0151981
823.206	0.0151468
823.284	0.0153631
823.362	0.0153114
823.440	0.0152850
823.518	0.0152092
823.596	0.0150767
823.674	0.0151566
823.753	0.0152605
823.831	0.0150765
823.909	0.0150439
823.987	0.0150796
824.065	0.0148772
824.143	0.0149840
824.221	0.0149458
824.299	0.0147776
824.378	0.0147758
824.456	0.0148440
824.534	0.0148253
824.612	0.0148522
824.690	0.0148459
824.768	0.0147610
824.846	0.0148966
824.924	0.0149912
825.003	0.0148534
825.081	0.0148630
825.159	0.0148448
825.237	0.0150323
825.315	0.0148999
825.393	0.0149768
825.471	0.0150365
825.549	0.0150443
825.628	0.0150060
825.706	0.0149624
825.784	0.0150714
825.862	0.0150294
825.940	0.0151384
826.018	0.0151945
826.096	0.0152410
826.174	0.0152664
826.253	0.0153398
826.331	0.0155003
826.409	0.0154680
826.487	0.0156232
826.565	0.0155167
826.643	0.0155732
826.721	0.0155756
826.799	0.0154812
826.878	0.0155492
826.956	0.0156359
827.034	0.0155373
827.112	0.0154240
827.190	0.0155819
827.268	0.0154791
827.346	0.0152843
827.424	0.0153030
827.503	0.0154900
827.581	0.0154208
827.659	0.0151482
827.737	0.0151549
827.815	0.0151891
827.893	0.0150208
827.971	0.0149751
828.049	0.0149746
828.128	0.0149101
828.206	0.0148131
828.284	0.0147274
828.362	0.0146478
828.440	0.0147781
828.518	0.0147619
828.596	0.0146217
828.674	0.0148114
828.753	0.0146606
828.831	0.0147449
828.909	0.0147852
828.987	0.0148470
829.065	0.0149799
829.143	0.0149992
829.221	0.0150299
829.299	0.0150749
829.378	0.0150864
829.456	0.0151038
829.534	0.0152358
829.612	0.0153456
829.690	0.0153983
829.768	0.0154529
829.846	0.0153922
829.924	0.0155277
830.003	0.0154417
830.081	0.0153854
830.159	0.0153185
830.237	0.0153806
830.315	0.0153828
830.393	0.0153526
830.471	0.0154661
830.549	0.0154167
830.628	0.0152759
830.706	0.0151864
830.784	0.0153050
830.862	0.0151542
830.940	0.0150832
831.018	0.0150956
831.096	0.0150442
831.174	0.0151203
831.253	0.0148978
831.331	0.0148788
831.409	0.0149561
831.487	0.0147151
831.565	0.0147240
831.643	0.0146559
831.721	0.0146738
831.799	0.0147123
831.878	0.0146233
831.956	0.0145789
832.034	0.0147817
832.112	0.0147672
832.190	0.0147982
832.268	0.0148324
832.346	0.0149086
832.424	0.0150935
832.503	0.0149229
832.581	0.0149929
832.659	0.0152108
832.737	0.0151319
832.815	0.0150838
832.893	0.0151167
832.971	0.0152245
833.049	0.0151563
833.128	0.0151965
833.206	0.0153771
833.284	0.0152771
833.362	0.0151887
833.440	0.0152129
833.518	0.0152932
833.596	0.0152621
833.674	0.0153059
833.753	0.0153458
833.831	0.0154268
833.909	0.0154217
833.987	0.0152372
834.065	0.0155820
834.143	0.0154558
834.221	0.0153809
834.299	0.0154111
834.378	0.0155283
834.456	0.0154355
834.534	0.0153905
834.612	0.0154739
834.690	0.0154046
834.768	0.0153900
834.846	0.0152706
834.924	0.0153693
835.003	0.0153864
835.081	0.0152114
835.159	0.0151137
835.237	0.0149806
835.315	0.0149885
835.393	0.0149610
835.471	0.0149016
835.549	0.0148404
835.628	0.0148028
835.706	0.0148191
835.784	0.0147661
835.862	0.0147433
835.940	0.0146323
836.018	0.0147108
836.096	0.0146954
836.174	0.0145827
836.253	0.0148063
836.331	0.0147351
836.409	0.0148038
836.487	0.0147647
836.565	0.0148774
836.643	0.0149769
836.721	0.0149745
836.799	0.0149100
836.878	0.0148628
836.956	0.0150031
837.034	0.0149853
837.112	0.0149258
837.190	0.0150158
837.268	0.0148407
837.346	0.0148242
837.424	0.0149380
837.503	0.0148288
837.581	0.0148438
837.659	0.0150301
837.737	0.0149578
837.815	0.0149878
837.893	0.0149606
837.971	0.0152386
838.049	0.0154063
838.128	0.0152994
838.206	0.0153777
838.284	0.0153423
838.362	0.0153918
838.440	0.0153619
838.518	0.0154793
838.596	0.0154739
838.674	0.0155369
838.753	0.0156649
838.831	0.0155766
838.909	0.0155206
838.987	0.0154454
839.065	0.0154292
839.143	0.0153815
839.221	0.0152930
839.299	0.0152923
839.378	0.0153677
839.456	0.0151093
839.534	0.0151145
839.612	0.0150689
839.690	0.0151482
839.768	0.0151711
839.846	0.0150706
839.924	0.0150758
840.003	0.0149424
840.081	0.0149205
840.159	0.0150111
840.237	0.0150346
840.315	0.0152180
840.393	0.0150921
840.471	0.0152139
840.549	0.0151807
840.628	0.0151019
840.706	0.0153268
840.784	0.0150699
840.862	0.0152139
840.940	0.0152202
841.018	0.0151804
841.096	0.0151091
841.174	0.0151131
841.253	0.0151392
841.331	0.0151959
841.409	0.0150619
841.487	0.0151118
841.565	0.0152251
841.643	0.0150504
841.721	0.0149662
841.799	0.0148472
841.878	0.0147054
841.956	0.0147919
842.034	0.0146989
842.112	0.0147080
842.190	0.0146947
842.268	0.0147084
842.346	0.0146225
842.424	0.0146043
842.503	0.0145466
842.581	0.0146619
842.659	0.0146775
842.737	0.0145895
842.815	0.0146448
842.893	0.0146182
842.971	0.0147231
843.049	0.0147832
843.128	0.0146780
843.206	0.0147946
843.284	0.0147468
843.362	0.0148283
843.440	0.0149148
843.518	0.0149781
843.596	0.0150716
843.674	0.0151731
843.753	0.0151762
843.831	0.0151496
843.909	0.0152332
843.987	0.0153948
844.065	0.0154704
844.143	0.0154338
844.221	0.0154234
844.299	0.0156000
844.378	0.0155392
844.456	0.0155302
844.534	0.0156071
844.612	0.0155162
844.690	0.0155252
844.768	0.0156794
844.846	0.0155397
844.924	0.0154486
845.003	0.0154974
845.081	0.0154013
845.159	0.0153140
845.237	0.0153453
845.315	0.0151704
845.393	0.0152945
845.471	0.0152699
845.549	0.0152060
845.628	0.0152449
845.706	0.0151128
845.784	0.0150544
845.862	0.0152602
845.940	0.0152142
846.018	0.0151010
846.096	0.0151540
846.174	0.0151190
846.253	0.0151299
846.331	0.0151487
846.409	0.0150560
846.487	0.0151392
846.565	0.0151566
846.643	0.0149752
846.721	0.0152322
846.799	0.0151186
846.878	0.0150869
846.956	0.0151077
847.034	0.0151434
847.112	0.0150772
847.190	0.0150527
847.268	0.0149278
847.346	0.0150265
847.424	0.0150726
847.503	0.0149423
847.581	0.0150428
847.659	0.0149384
847.737	0.0147356
847.815	0.0148879
847.893	0.0147643
847.971	0.0147940
848.049	0.0147428
848.128	0.0147837
848.206	0.0146737
848.284	0.0145766
848.362	0.0147966
848.440	0.0149189
848.518	0.0147692
848.596	0.0147840
848.674	0.0148630
848.753	0.0149992
848.831	0.0149687
848.909	0.0149297
848.987	0.0148525
849.065	0.0148865
849.143	0.0150820
849.221	0.0149896
849.299	0.0150921
849.378	0.0151409
849.456	0.0151737
849.534	0.0152119
849.612	0.0153783
849.690	0.0152991
849.768	0.0153425
849.846	0.0154662
849.924	0.0155513
850.003	0.0154436
850.081	0.0154447
850.159	0.0154980
850.237	0.0156803
850.315	0.0155833
850.393	0.0156746
850.471	0.0156374
850.549	0.0154826
850.628	0.0153743
850.706	0.0155446
850.784	0.0155505
850.862	0.0155252
850.940	0.0153949
851.018	0.0153928
851.096	0.0152129
851.174	0.0152045
851.253	0.0150989
851.331	0.0151702
851.409	0.0151925
851.487	0.0150188
851.565	0.0149841
851.643	0.0149857
851.721	0.0149940
851.799	0.0150459
851.878	0.0150198
851.956	0.0149641
852.034	0.0150690
852.112	0.0149329
852.190	0.0149783
852.268	0.0149331
852.346	0.0151081
852.424	0.0150372
852.503	0.0151008
852.581	0.0150299
852.659	0.0151511
852.737	0.0150022
852.815	0.0150220
852.893	0.0150440
852.971	0.0150533
853.049	0.0149512
853.128	0.0150226
853.206	0.0149158
853.284	0.0149217
853.362	0.0149240
853.440	0.0148051
853.518	0.0148757
853.596	0.0149008
853.674	0.0149142
853.753	0.0148182
853.831	0.0149131
853.909	0.0148572
853.987	0.0149401
854.065	0.0149838
854.143	0.0149873
854.221	0.0149410
854.299	0.0151057
854.378	0.0150535
854.456	0.0149342
854.534	0.0150588
854.612	0.0151563
854.690	0.0150771
854.768	0.0149901
854.846	0.0151436
854.924	0.0151060
855.003	0.0150140
855.081	0.0151266
855.159	0.0152789
855.237	0.0150279
855.315	0.0151109
855.393	0.0151790
855.471	0.0151836
855.549	0.0152605
855.628	0.0152083
855.706	0.0152367
855.784	0.0151627
855.862	0.0153329
855.940	0.0153918
856.018	0.0152372
856.096	0.0153456
856.174	0.0153564
856.253	0.0154784
856.331	0.0153014
856.409	0.0152816
856.487	0.0154242
856.565	0.0154922
856.643	0.0154250
856.721	0.0152939
856.799	0.0154446
856.878	0.0154646
856.956	0.0154521
857.034	0.0153213
857.112	0.0152377
857.190	0.0151356
857.268	0.0153372
857.346	0.0152518
857.424	0.0151118
857.503	0.0151548
857.581	0.0150337
857.659	0.0152211
857.737	0.0150381
857.815	0.0150008
857.893	0.0150086
857.971	0.0148525
858.049	0.0149812
858.128	0.0150095
858.206	0.0150568
858.284	0.0149927
858.362	0.0148914
858.440	0.0150902
858.518	0.0150117
858.596	0.0149867
858.674	0.0150587
858.753	0.0150393
858.831	0.0149915
858.909	0.0150455
858.987	0.0149284
859.065	0.0148980
859.143	0.0150213
859.221	0.0147724
859.299	0.0149302
859.378	0.0148675
859.456	0.0148291
859.534	0.0148208
859.612	0.0148197
859.690	0.0148721
859.768	0.0147972
859.846	0.0148236
859.924	0.0148276
860.003	0.0147755
860.081	0.0148093
860.159	0.0149337
860.237	0.0150414
860.315	0.0150227
860.393	0.0148334
860.471	0.0151017
860.549	0.0151626
860.628	0.0151714
860.706	0.0151973
860.784	0.0152603
860.862	0.0152165
860.940	0.0152213
861.018	0.0152432
861.096	0.0153735
861.174	0.0155726
861.253	0.0152975
861.331	0.0155083
861.409	0.0154764
861.487	0.0153048
861.565	0.0155987
861.643	0.0155372
861.721	0.0154725
861.799	0.0154079
861.878	0.0153410
861.956	0.0153708
862.034	0.0153730
862.112	0.0152862
862.190	0.0153146
862.268	0.0154289
862.346	0.0152722
862.424	0.0151193
862.503	0.0153043
862.581	0.0153607
862.659	0.0152010
862.737	0.0149686
862.815	0.0151746
862.893	0.0152446
862.971	0.0150939
863.049	0.0151216
863.128	0.0152176
863.206	0.0150241
863.284	0.0150335
863.362	0.0148612
863.440	0.0151219
863.518	0.0150173
863.596	0.0149968
863.674	0.0148581
863.753	0.0148861
863.831	0.0149168
863.909	0.0150034
863.987	0.0149117
864.065	0.0148701
864.143	0.0147704
864.221	0.0148744
864.299	0.0149220
864.378	0.0147968
864.456	0.0150407
864.534	0.0148847
864.612	0.0150100
864.690	0.0149430
864.768	0.0151065
864.846	0.0148682
864.924	0.0149643
865.003	0.0150761
865.081	0.0149712
865.159	0.0150291
865.237	0.0150606
865.315	0.0150036
865.393	0.0150523
865.471	0.0151741
865.549	0.0149913
865.628	0.0150047
865.706	0.0152289
865.784	0.0151147
865.862	0.0151181
865.940	0.0151096
866.018	0.0150391
866.096	0.0149067
866.174	0.0151812
866.253	0.0151952
866.331	0.0150964
866.409	0.0150719
866.487	0.0150917
866.565	0.0150751
866.643	0.0151565
866.721	0.0151922
866.799	0.0150695
866.878	0.0150933
866.956	0.0151788
867.034	0.0153494
867.112	0.0151959
867.190	0.0152499
867.268	0.0154105
867.346	0.0153844
867.424	0.0154302
867.503	0.0153602
867.581	0.0154192
867.659	0.0152750
867.737	0.0152989
867.815	0.0152602
867.893	0.0153626
867.971	0.0154067
868.049	0.0152154
868.128	0.0153162
868.206	0.0152861
868.284	0.0152014
868.362	0.0154082
868.440	0.0153011
868.518	0.0150994
868.596	0.0151087
868.674	0.0152987
868.753	0.0151462
868.831	0.0149501
868.909	0.0150899
868.987	0.0150509
869.065	0.0151398
869.143	0.0151283
869.221	0.0151119
869.299	0.0150318
869.378	0.0151447
869.456	0.0150258
869.534	0.0150536
869.612	0.0149360
869.690	0.0151456
869.768	0.0150579
869.846	0.0149968
869.924	0.0151608
870.003	0.0150677
870.081	0.0150465
870.159	0.0149969
870.237	0.0149789
870.315	0.0149259
870.393	0.0150370
870.471	0.0150964
870.549	0.0151252
870.628	0.0149778
870.706	0.0150502
870.784	0.0151209
870.862	0.0150040
870.940	0.0150313
871.018	0.0150778
871.096	0.0149851
871.174	0.0150159
871.253	0.0151109
871.331	0.0149003
871.409	0.0151460
871.487	0.0150301
871.565	0.0150002
871.643	0.0151193
871.721	0.0150816
871.799	0.0150806
871.878	0.0150652
871.956	0.0150920
872.034	0.0151640
872.112	0.0151656
872.190	0.0150976
872.268	0.0151521
872.346	0.0150930
872.424	0.0151319
872.503	0.0151317
872.581	0.0151868
872.659	0.0150510
872.737	0.0151002
872.815	0.0151131
872.893	0.0152393
872.971	0.0152137
873.049	0.0150928
873.128	0.0152186
873.206	0.0153438
873.284	0.0153430
873.362	0.0153479
873.440	0.0153411
873.518	0.0153484
873.596	0.0152558
873.674	0.0152079
873.753	0.0151215
873.831	0.0152785
873.909	0.0152599
873.987	0.0151916
874.065	0.0151601
874.143	0.0152348
874.221	0.0152384
874.299	0.0152224
874.378	0.0151437
874.456	0.0150132
874.534	0.0150789
874.612	0.0150992
874.690	0.0151953
874.768	0.0152704
874.846	0.0151527
874.924	0.0151115
875.003	0.0151770
875.081	0.0150420
875.159	0.0150148
875.237	0.0150662
875.315	0.0150468
875.393	0.0150633
875.471	0.0149657
875.549	0.0150990
875.628	0.0151155
875.706	0.0150175
875.784	0.0150098
875.862	0.0151678
875.940	0.0151169
876.018	0.0152126
876.096	0.0150825
876.174	0.0151395
876.253	0.0150562
876.331	0.0151743
876.409	0.0151641
876.487	0.0150496
876.565	0.0150810
876.643	0.0150029
876.721	0.0151340
876.799	0.0149972
876.878	0.0151041
876.956	0.0151859
877.034	0.0150354
877.112	0.0150014
877.190	0.0150431
877.268	0.0151518
877.346	0.0149551
877.424	0.0150828
877.503	0.0151953
877.581	0.0149593
877.659	0.0149305
877.737	0.0151244
877.815	0.0149452
877.893	0.0149101
877.971	0.0149428
878.049	0.0150175
878.128	0.0149602
878.206	0.0151254
878.284	0.0150493
878.362	0.0149438
878.440	0.0150255
878.518	0.0150381
878.596	0.0150443
878.674	0.0151522
878.753	0.0150510
878.831	0.0151669
878.909	0.0149523
878.987	0.0150985
879.065	0.0152058
879.143	0.0151051
879.221	0.0152332
879.299	0.0151603
879.378	0.0151306
879.456	0.0151889
879.534	0.0152781
879.612	0.0150453
879.690	0.0152495
879.768	0.0152600
879.846	0.0151331
879.924	0.0151433
880.003	0.0152994
880.081	0.0152762
880.159	0.0151467
880.237	0.0152828
880.315	0.0151051
880.393	0.0152235
880.471	0.0151617
880.549	0.0152434
880.628	0.0151445
880.706	0.0151493
880.784	0.0153140
880.862	0.0152544
880.940	0.0151988
881.018	0.0151896
881.096	0.0151479
881.174	0.0152257
881.253	0.0152184
881.331	0.0151375
881.409	0.0150312
881.487	0.0150774
881.565	0.0151287
881.643	0.0150272
881.721	0.0151003
881.799	0.0150307
881.878	0.0148948
881.956	0.0151216
882.034	0.0150681
882.112	0.0150340
882.190	0.0150286
882.268	0.0149241
882.346	0.0150716
882.424	0.0150306
882.503	0.0149918
882.581	0.0150454
882.659	0.0151118
882.737	0.0150103
882.815	0.0149657
882.893	0.0150795
882.971	0.0150062
883.049	0.0149311
883.128	0.0149175
883.206	0.0149773
883.284	0.0150225
883.362	0.0150095
883.440	0.0149814
883.518	0.0150426
883.596	0.0150367
883.674	0.0150232
883.753	0.0150594
883.831	0.0149889
883.909	0.0150928
883.987	0.0151157
884.065	0.0150509
884.143	0.0151295
884.221	0.0151427
884.299	0.0150666
884.378	0.0151934
884.456	0.0150402
884.534	0.0150945
884.612	0.0150793
884.690	0.0150922
884.768	0.0149882
884.846	0.0152206
884.924	0.0149821
885.003	0.0151783
885.081	0.0150821
885.159	0.0151569
885.237	0.0150610
885.315	0.0150589
885.393	0.0149874
885.471	0.0149625
885.549	0.0151054
885.628	0.0151234
885.706	0.0151179
885.784	0.0152702
885.862	0.0151092
885.940	0.0151682
886.018	0.0151891
886.096	0.0152047
886.174	0.0152345
886.253	0.0151340
886.331	0.0150494
886.409	0.0152016
886.487	0.0152573
886.565	0.0151031
886.643	0.0150646
886.721	0.0153039
886.799	0.0151493
886.878	0.0151077
886.956	0.0151945
887.034	0.0153168
887.112	0.0150932
887.190	0.0151765
887.268	0.0150277
887.346	0.0151905
887.424	0.0152153
887.503	0.0151762
887.581	0.0151328
887.659	0.0150301
887.737	0.0151356
887.815	0.0149906
887.893	0.0150197
887.971	0.0150553
888.049	0.0150522
888.128	0.0150292
888.206	0.0149933
888.284	0.0150034
888.362	0.0150077
888.440	0.0150513
888.518	0.0149671
888.596	0.0150058
888.674	0.0150935
888.753	0.0150285
888.831	0.0151431
888.909	0.0152692
888.987	0.0151406
889.065	0.0150705
889.143	0.0152231
889.221	0.0150971
889.299	0.0150960
889.378	0.0152945
889.456	0.0151331
889.534	0.0151351
889.612	0.0150905
889.690	0.0150050
889.768	0.0149815
889.846	0.0150540
889.924	0.0151297
890.003	0.0151735
890.081	0.0149382
890.159	0.0150701
890.237	0.0150218
890.315	0.0150710
890.393	0.0150468
890.471	0.0149043
890.549	0.0150767
890.628	0.0150780
890.706	0.0149925
890.784	0.0149833
890.862	0.0150514
890.940	0.0151279
891.018	0.0150537
891.096	0.0150310
891.174	0.0151235
891.253	0.0151174
891.331	0.0150907
891.409	0.0152378
891.487	0.0153337
891.565	0.0152965
891.643	0.0151781
891.721	0.0152856
891.799	0.0154433
891.878	0.0154567
891.956	0.0152962
892.034	0.0151447
892.112	0.0153121
892.190	0.0152890
892.268	0.0152208
892.346	0.0152601
892.424	0.0151001
892.503	0.0152836
892.581	0.0152967
892.659	0.0152466
892.737	0.0152737
892.815	0.0151412
892.893	0.0151600
892.971	0.0151824
893.049	0.0152319
893.128	0.0150372
893.206	0.0151665
893.284	0.0151515
893.362	0.0151108
893.440	0.0151141
893.518	0.0151842
893.596	0.0152388
893.674	0.0150588
893.753	0.0151631
893.831	0.0150641
893.909	0.0152139
893.987	0.0151346
894.065	0.0150291
894.143	0.0151353
894.221	0.0150793
894.299	0.0150706
894.378	0.0151802
894.456	0.0151289
894.534	0.0150568
894.612	0.0150046
894.690	0.0151265
894.768	0.0149626
894.846	0.0150241
894.924	0.0149844
895.003	0.0149284
895.081	0.0150673
895.159	0.0149588
895.237	0.0148582
895.315	0.0149017
895.393	0.0149200
895.471	0.0149339
895.549	0.0149416
895.628	0.0149480
895.706	0.0149367
895.784	0.0150672
895.862	0.0149310
895.940	0.0149381
896.018	0.0149958
896.096	0.0149566
896.174	0.0149964
896.253	0.0150188
896.331	0.0150087
896.409	0.0150097
896.487	0.0148952
896.565	0.0151169
896.643	0.0151177
896.721	0.0149936
896.799	0.0150174
896.878	0.0150269
896.956	0.0151794
897.034	0.0151511
897.112	0.0151083
897.190	0.0151301
897.268	0.0151772
897.346	0.0153036
897.424	0.0150974
897.503	0.0151470
897.581	0.0152296
897.659	0.0152492
897.737	0.0151892
897.815	0.0153741
897.893	0.0153138
897.971	0.0152865
898.049	0.0152824
898.128	0.0152962
898.206	0.0152100
898.284	0.0152654
898.362	0.0152093
898.440	0.0154123
898.518	0.0151705
898.596	0.0151426
898.674	0.0151782
898.753	0.0151055
898.831	0.0152157
898.909	0.0151078
898.987	0.0149474
899.065	0.0151294
899.143	0.0150346
899.221	0.0150621
899.299	0.0149574
899.378	0.0149193
899.456	0.0150602
899.534	0.0151939
899.612	0.0151213
899.690	0.0150681
899.768	0.0151096
899.846	0.0150924
899.924	0.0151962
900.003	0.0151833
900.081	0.0151338
900.159	0.0152007
900.237	0.0151662
900.315	0.0151932
900.393	0.0152133
900.471	0.0151304
900.549	0.0152235
900.628	0.0150532
900.706	0.0149805
900.784	0.0149400
900.862	0.0150903
900.940	0.0150789
901.018	0.0148535
901.096	0.0151007
901.174	0.0151806
901.253	0.0150370
901.331	0.0151357
901.409	0.0148230
901.487	0.0150117
901.565	0.0149129
901.643	0.0149566
901.721	0.0150407
901.799	0.0148931
901.878	0.0150584
901.956	0.0149623
902.034	0.0149427
902.112	0.0149210
902.190	0.0149246
902.268	0.0150191
902.346	0.0149300
902.424	0.0149887
902.503	0.0149867
902.581	0.0149862
902.659	0.0149207
902.737	0.0151694
902.815	0.0151546
902.893	0.0150752
902.971	0.0150508
903.049	0.0152817
903.128	0.0154269
903.206	0.0153655
903.284	0.0153208
903.362	0.0153689
903.440	0.0154008
903.518	0.0153281
903.596	0.0152635
903.674	0.0154948
903.753	0.0153675
903.831	0.0153614
903.909	0.0152893
903.987	0.0152058
904.065	0.0151704
904.143	0.0152734
904.221	0.0152677
904.299	0.0152853
904.378	0.0153513
904.456	0.0151598
904.534	0.0152528
904.612	0.0151122
904.690	0.0153465
904.768	0.0151643
904.846	0.0152517
904.924	0.0151907
905.003	0.0151328
905.081	0.0152813
905.159	0.0151115
905.237	0.0152234
905.315	0.0152627
905.393	0.0151032
905.471	0.0151266
905.549	0.0150922
905.628	0.0150945
905.706	0.0151219
905.784	0.0150769
905.862	0.0151895
905.940	0.0151709
906.018	0.0150111
906.096	0.0149406
906.174	0.0149606
906.253	0.0149900
906.331	0.0149814
906.409	0.0150373
906.487	0.0149870
906.565	0.0149570
906.643	0.0150726
906.721	0.0148574
906.799	0.0150313
906.878	0.0149337
906.956	0.0151590
907.034	0.0150911
907.112	0.0151550
907.190	0.0149918
907.268	0.0149017
907.346	0.0148275
907.424	0.0148611
907.503	0.0149288
907.581	0.0149976
907.659	0.0149620
907.737	0.0148470
907.815	0.0150315
907.893	0.0150809
907.971	0.0148819
908.049	0.0150505
908.128	0.0151035
908.206	0.0151279
908.284	0.0150851
908.362	0.0151118
908.440	0.0151173
908.518	0.0152062
908.596	0.0152599
908.674	0.0152431
908.753	0.0152560
908.831	0.0150941
908.909	0.0152576
908.987	0.0151652
909.065	0.0152530
909.143	0.0152079
909.221	0.0152547
909.299	0.0151903
909.378	0.0151116
909.456	0.0153472
909.534	0.0152589
909.612	0.0151410
909.690	0.0151566
909.768	0.0152323
909.846	0.0150990
909.924	0.0150816
910.003	0.0151810
910.081	0.0150653
910.159	0.0149664
910.237	0.0150097
910.315	0.0149818
910.393	0.0150410
910.471	0.0149969
910.549	0.0149376
910.628	0.0150431
910.706	0.0149574
910.784	0.0150118
910.862	0.0150110
910.940	0.0150346
911.018	0.0149716
911.096	0.0149185
911.174	0.0150968
911.253	0.0151256
911.331	0.0149737
911.409	0.0150478
911.487	0.0150381
911.565	0.0150923
911.643	0.0152420
911.721	0.0150591
911.799	0.0151086
911.878	0.0151337
911.956	0.0151128
912.034	0.0152524
912.112	0.0152518
912.190	0.0149934
912.268	0.0151762
912.346	0.0152855
912.424	0.0151457
912.503	0.0151653
912.581	0.0151857
912.659	0.0151325
912.737	0.0151223
912.815	0.0152414
912.893	0.0150161
912.971	0.0150877
913.049	0.0151740
913.128	0.0149812
913.206	0.0149087
913.284	0.0150571
913.362	0.0150868
913.440	0.0149872
913.518	0.0150528
913.596	0.0151116
913.674	0.0150108
913.753	0.0149868
913.831	0.0149962
913.909	0.0151391
913.987	0.0151288
914.065	0.0152135
914.143	0.0151362
914.221	0.0151306
914.299	0.0151977
914.378	0.0153207
914.456	0.0152946
914.534	0.0151925
914.612	0.0152670
914.690	0.0152412
914.768	0.0152839
914.846	0.0151898
914.924	0.0151092
915.003	0.0152094
915.081	0.0152548
915.159	0.0152506
915.237	0.0151392
915.315	0.0150879
915.393	0.0152199
915.471	0.0151555
915.549	0.0152104
915.628	0.0151518
915.706	0.0149280
915.784	0.0150571
915.862	0.0151570
915.940	0.0151415
916.018	0.0150357
916.096	0.0150537
916.174	0.0149744
916.253	0.0151315
916.331	0.0150591
916.409	0.0149998
916.487	0.0150238
916.565	0.0150741
916.643	0.0151016
916.721	0.0150990
916.799	0.0150677
916.878	0.0150072
916.956	0.0150391
917.034	0.0150944
917.112	0.0150727
917.190	0.0151340
917.268	0.0150796
917.346	0.0151624
917.424	0.0151471
917.503	0.0152023
917.581	0.0150761
917.659	0.0152663
917.737	0.0150188
917.815	0.0150947
917.893	0.0151701
917.971	0.0151399
918.049	0.0150387
918.128	0.0151035
918.206	0.0150513
918.284	0.0150797
918.362	0.0151489
918.440	0.0150450
918.518	0.0149769
918.596	0.0151175
918.674	0.0149911
918.753	0.0150762
918.831	0.0149444
918.909	0.0150380
918.987	0.0150488
919.065	0.0151377
919.143	0.0151734
919.221	0.0150264
919.299	0.0151172
919.378	0.0151936
919.456	0.0151572
919.534	0.0150159
919.612	0.0150603
919.690	0.0151433
919.768	0.0151924
919.846	0.0151692
919.924	0.0152144
920.003	0.0152792
920.081	0.0151817
920.159	0.0151849
920.237	0.0152454
920.315	0.0151259
920.393	0.0153809
920.471	0.0152894
920.549	0.0152950
920.628	0.0152647
920.706	0.0152486
920.784	0.0152399
920.862	0.0150690
920.940	0.0152552
921.018	0.0152127
921.096	0.0152361
921.174	0.0151334
921.253	0.0151696
921.331	0.0151958
921.409	0.0151537
921.487	0.0151752
921.565	0.0151467
921.643	0.0151595
921.721	0.0151727
921.799	0.0151135
921.878	0.0150987
921.956	0.0151196
922.034	0.0151347
922.112	0.0150240
922.190	0.0151123
922.268	0.0150903
922.346	0.0149530
922.424	0.0150500
922.503	0.0150041
922.581	0.0150836
922.659	0.0150616
922.737	0.0149213
922.815	0.0149656
922.893	0.0148796
922.971	0.0149316
923.049	0.0149865
923.128	0.0149846
923.206	0.0150984
923.284	0.0150251
923.362	0.0150640
923.440	0.0150562
923.518	0.0150555
923.596	0.0150753
923.674	0.0151564
923.753	0.0151840
923.831	0.0151833
923.909	0.0151691
923.987	0.0151703
924.065	0.0152427
924.143	0.0153058
924.221	0.0151643
924.299	0.0152366
924.378	0.0151875
924.456	0.0152297
924.534	0.0152467
924.612	0.0150745
924.690	0.0151094
924.768	0.0151100
924.846	0.0152071
924.924	0.0151454
925.003	0.0151628
925.081	0.0151926
925.159	0.0152357
925.237	0.0150417
925.315	0.0150271
925.393	0.0149207
925.471	0.0150183
925.549	0.0151117
925.628	0.0150833
925.706	0.0150505
925.784	0.0149829
925.862	0.0149528
925.940	0.0149921
926.018	0.0149026
926.096	0.0149821
926.174	0.0151109
926.253	0.0150189
926.331	0.0149471
926.409	0.0150797
926.487	0.0149617
926.565	0.0149877
926.643	0.0148624
926.721	0.0149825
926.799	0.0151041
926.878	0.0151349
926.956	0.0151610
927.034	0.0151920
927.112	0.0151659
927.190	0.0150578
927.268	0.0151911
927.346	0.0152225
927.424	0.0153086
927.503	0.0152653
927.581	0.0152445
927.659	0.0152070
927.737	0.0152001
927.815	0.0152580
927.893	0.0152034
927.971	0.0152277
928.049	0.0152853
928.128	0.0150743
928.206	0.0151691
928.284	0.0152773
928.362	0.0151960
928.440	0.0151814
928.518	0.0151486
928.596	0.0150829
928.674	0.0152412
928.753	0.0150687
928.831	0.0151618
928.909	0.0152649
928.987	0.0151264
929.065	0.0151154
929.143	0.0150509
929.221	0.0150705
929.299	0.0150639
929.378	0.0151075
929.456	0.0150787
929.534	0.0150779
929.612	0.0151118
929.690	0.0151422
929.768	0.0151080
929.846	0.0150967
929.924	0.0149274
930.003	0.0149059
930.081	0.0149957
930.159	0.0149953
930.237	0.0151933
930.315	0.0149158
930.393	0.0149331
930.471	0.0150060
930.549	0.0151870
930.628	0.0150903
930.706	0.0151939
930.784	0.0151553
930.862	0.0151003
930.940	0.0150860
931.018	0.0150626
931.096	0.0151351
931.174	0.0151232
931.253	0.0151146
931.331	0.0151920
931.409	0.0150260
931.487	0.0152191
931.565	0.0152114
931.643	0.0151268
931.721	0.0151775
931.799	0.0151223
931.878	0.0150342
931.956	0.0151035
932.034	0.0149809
932.112	0.0149803
932.190	0.0149376
932.268	0.0149977
932.346	0.0149871
932.424	0.0150549
932.503	0.0150623
932.581	0.0152558
932.659	0.0152863
932.737	0.0150498
932.815	0.0152506
932.893	0.0151951
932.971	0.0151617
933.049	0.0152135
933.128	0.0152243
933.206	0.0152631
933.284	0.0152482
933.362	0.0153668
933.440	0.0151968
933.518	0.0152502
933.596	0.0151345
933.674	0.0151846
933.753	0.0150692
933.831	0.0150711
933.909	0.0152810
933.987	0.0151777
934.065	0.0150674
934.143	0.0150289
934.221	0.0150879
934.299	0.0151299
934.378	0.0150491
934.456	0.0151671
934.534	0.0150712
934.612	0.0152271
934.690	0.0151207
934.768	0.0150682
934.846	0.0151699
934.924	0.0151328
935.003	0.0150579
935.081	0.0150899
935.159	0.0152543
935.237	0.0151469
935.315	0.0151610
935.393	0.0151780
935.471	0.0150322
935.549	0.0150771
935.628	0.0149625
935.706	0.0152198
935.784	0.0151820
935.862	0.0151927
935.940	0.0152712
936.018	0.0152023
936.096	0.0151144
936.174	0.0152150
936.253	0.0151736
936.331	0.0152347
936.409	0.0151752
936.487	0.0151685
936.565	0.0151066
936.643	0.0152319
936.721	0.0152851
936.799	0.0153518
936.878	0.0151374
936.956	0.0152028
937.034	0.0151651
937.112	0.0151382
937.190	0.0150405
937.268	0.0151828
937.346	0.0150900
937.424	0.0151102
937.503	0.0150878
937.581	0.0152293
937.659	0.0152169
937.737	0.0151692
937.815	0.0150954
937.893	0.0149946
937.971	0.0149884
938.049	0.0150024
938.128	0.0148772
938.206	0.0150113
938.284	0.0148908
938.362	0.0147941
938.440	0.0148523
938.518	0.0148730
938.596	0.0151363
938.674	0.0149917
938.753	0.0149728
938.831	0.0150194
938.909	0.0150394
938.987	0.0151108
939.065	0.0151627
939.143	0.0151836
939.221	0.0152844
939.299	0.0153207
939.378	0.0153995
939.456	0.0153030
939.534	0.0152867
939.612	0.0153425
939.690	0.0153246
939.768	0.0151569
939.846	0.0152274
939.924	0.0151705
940.003	0.0150704
940.081	0.0151269
940.159	0.0150938
940.237	0.0150991
940.315	0.0148669
940.393	0.0149119
940.471	0.0150053
940.549	0.0150163
940.628	0.0149010
940.706	0.0149988
940.784	0.0149828
940.862	0.0150179
940.940	0.0149725
941.018	0.0150322
941.096	0.0150869
941.174	0.0150450
941.253	0.0151435
941.331	0.0151568
941.409	0.0152312
941.487	0.0151907
941.565	0.0152251
941.643	0.0153152
941.721	0.0152533
941.799	0.0153246
941.878	0.0153911
941.956	0.0152201
942.034	0.0153320
942.112	0.0152161
942.190	0.0152142
942.268	0.0152457
942.346	0.0152427
942.424	0.0152871
942.503	0.0152425
942.581	0.0151360
942.659	0.0151379
942.737	0.0152030
942.815	0.0152003
942.893	0.0151843
942.971	0.0152287
943.049	0.0152947
943.128	0.0152478
943.206	0.0151801
943.284	0.0153220
943.362	0.0152598
943.440	0.0152515
943.518	0.0151928
943.596	0.0150965
943.674	0.0151694
943.753	0.0150077
943.831	0.0150344
943.909	0.0149990
943.987	0.0148389
944.065	0.0148025
944.143	0.0148591
944.221	0.0149300
944.299	0.0149712
944.378	0.0148849
944.456	0.0149353
944.534	0.0150507
944.612	0.0151614
944.690	0.0149609
944.768	0.0150791
944.846	0.0150607
944.924	0.0151398
945.003	0.0152621
945.081	0.0152982
945.159	0.0151628
945.237	0.0152034
945.315	0.0152630
945.393	0.0152908
945.471	0.0152144
945.549	0.0152138
945.628	0.0152110
945.706	0.0150461
945.784	0.0152963
945.862	0.0150550
945.940	0.0150265
946.018	0.0150127
946.096	0.0150145
946.174	0.0150771
946.253	0.0149895
946.331	0.0149646
946.409	0.0149630
946.487	0.0150137
946.565	0.0149422
946.643	0.0148916
946.721	0.0150210
946.799	0.0151247
946.878	0.0150047
946.956	0.0149640
947.034	0.0150223
947.112	0.0152055
947.190	0.0150826
947.268	0.0152261
947.346	0.0150368
947.424	0.0150566
947.503	0.0151093
947.581	0.0152187
947.659	0.0150885
947.737	0.0152377
947.815	0.0152749
947.893	0.0152538
947.971	0.0151878
948.049	0.0151720
948.128	0.0151592
948.206	0.0152717
948.284	0.0152522
948.362	0.0151864
948.440	0.0152002
948.518	0.0153065
948.596	0.0152947
948.674	0.0151213
948.753	0.0151256
948.831	0.0151194
948.909	0.0152232
948.987	0.0151372
949.065	0.0151765
949.143	0.0149725
949.221	0.0150842
949.299	0.0150685
949.378	0.0151307
949.456	0.0151226
949.534	0.0150623
949.612	0.0148742
949.690	0.0149701
949.768	0.0149421
949.846	0.0148975
949.924	0.0150506
