06/29/2022	22:58:35	Ver.	4.1	UNKNOWN
Optical Delay	630.002507	Delta X		0.078125	Sweeps	1	Scan Rate	0/0
Coordinates	Axis 1	NaN	Axis 2	NaN	Axis 3	NaN	Axis 4	NaN	Axis 5	NaN	Axis 6	0.000000
TX Power	0.000000	RX Power	0.000000

630.003	0.0154151
630.081	0.0153188
630.159	0.0153686
630.237	0.0154762
630.315	0.0153687
630.393	0.0153661
630.471	0.0154916
630.549	0.0154351
630.628	0.0153261
630.706	0.0153661
630.784	0.0153291
630.862	0.0152297
630.940	0.0154684
631.018	0.0153441
631.096	0.0153918
631.174	0.0153876
631.253	0.0153072
631.331	0.0155170
631.409	0.0152465
631.487	0.0153683
631.565	0.0155466
631.643	0.0154500
631.721	0.0154131
631.799	0.0152551
631.878	0.0152157
631.956	0.0153738
632.034	0.0153719
632.112	0.0153546
632.190	0.0154621
632.268	0.0153371
632.346	0.0153860
632.424	0.0154266
632.503	0.0153300
632.581	0.0153458
632.659	0.0154602
632.737	0.0153413
632.815	0.0153425
632.893	0.0155758
632.971	0.0154726
633.049	0.0153712
633.128	0.0154726
633.206	0.0153927
633.284	0.0152803
633.362	0.0153693
633.440	0.0153208
633.518	0.0154365
633.596	0.0154539
633.674	0.0153518
633.753	0.0154729
633.831	0.0153989
633.909	0.0154140
633.987	0.0152926
634.065	0.0154097
634.143	0.0153625
634.221	0.0154147
634.299	0.0154805
634.378	0.0154335
634.456	0.0154155
634.534	0.0154238
634.612	0.0153586
634.690	0.0154581
634.768	0.0154183
634.846	0.0155237
634.924	0.0153224
635.003	0.0152703
635.081	0.0153287
635.159	0.0153512
635.237	0.0153947
635.315	0.0154517
635.393	0.0153941
635.471	0.0154493
635.549	0.0153587
635.628	0.0152938
635.706	0.0152676
635.784	0.0154141
635.862	0.0153669
635.940	0.0155273
636.018	0.0153822
636.096	0.0153226
636.174	0.0154332
636.253	0.0152058
636.331	0.0154533
636.409	0.0153465
636.487	0.0153909
636.565	0.0153555
636.643	0.0153493
636.721	0.0153479
636.799	0.0153783
636.878	0.0155002
636.956	0.0153712
637.034	0.0152985
637.112	0.0153595
637.190	0.0154443
637.268	0.0153452
637.346	0.0153291
637.424	0.0153862
637.503	0.0153880
637.581	0.0153413
637.659	0.0153128
637.737	0.0153561
637.815	0.0153223
637.893	0.0154847
637.971	0.0153674
638.049	0.0152398
638.128	0.0153159
638.206	0.0154016
638.284	0.0155234
638.362	0.0153357
638.440	0.0154582
638.518	0.0154115
638.596	0.0153005
638.674	0.0153768
638.753	0.0153941
638.831	0.0153801
638.909	0.0154732
638.987	0.0153452
639.065	0.0153294
639.143	0.0153220
639.221	0.0154516
639.299	0.0153429
639.378	0.0153786
639.456	0.0152211
639.534	0.0154040
639.612	0.0154553
639.690	0.0155202
639.768	0.0154527
639.846	0.0152534
639.924	0.0153502
640.003	0.0154339
640.081	0.0155650
640.159	0.0152720
640.237	0.0153484
640.315	0.0153802
640.393	0.0154168
640.471	0.0154885
640.549	0.0154268
640.628	0.0154604
640.706	0.0154411
640.784	0.0154165
640.862	0.0152942
640.940	0.0153118
641.018	0.0154037
641.096	0.0154437
641.174	0.0154949
641.253	0.0154099
641.331	0.0153806
641.409	0.0153902
641.487	0.0153141
641.565	0.0153986
641.643	0.0153974
641.721	0.0152837
641.799	0.0154087
641.878	0.0153886
641.956	0.0153101
642.034	0.0153559
642.112	0.0154715
642.190	0.0153917
642.268	0.0153249
642.346	0.0154374
642.424	0.0155156
642.503	0.0153560
642.581	0.0153456
642.659	0.0153622
642.737	0.0153704
642.815	0.0152713
642.893	0.0153712
642.971	0.0153491
643.049	0.0153758
643.128	0.0153933
643.206	0.0154720
643.284	0.0154024
643.362	0.0153436
643.440	0.0153841
643.518	0.0153620
643.596	0.0155849
643.674	0.0154970
643.753	0.0153407
643.831	0.0154032
643.909	0.0153482
643.987	0.0155364
644.065	0.0153822
644.143	0.0154609
644.221	0.0154359
644.299	0.0153802
644.378	0.0153655
644.456	0.0153406
644.534	0.0154287
644.612	0.0153930
644.690	0.0153644
644.768	0.0153442
644.846	0.0156161
644.924	0.0153828
645.003	0.0153511
645.081	0.0154240
645.159	0.0153883
645.237	0.0153313
645.315	0.0154700
645.393	0.0153642
645.471	0.0152813
645.549	0.0154340
645.628	0.0153396
645.706	0.0154388
645.784	0.0153409
645.862	0.0153961
645.940	0.0153947
646.018	0.0155077
646.096	0.0155131
646.174	0.0153115
646.253	0.0154189
646.331	0.0154422
646.409	0.0154095
646.487	0.0154433
646.565	0.0155293
646.643	0.0154427
646.721	0.0153808
646.799	0.0153919
646.878	0.0154314
646.956	0.0155318
647.034	0.0153591
647.112	0.0154833
647.190	0.0154742
647.268	0.0153743
647.346	0.0152963
647.424	0.0153209
647.503	0.0153636
647.581	0.0152959
647.659	0.0154172
647.737	0.0155558
647.815	0.0155089
647.893	0.0153725
647.971	0.0153133
648.049	0.0154812
648.128	0.0153892
648.206	0.0152289
648.284	0.0154031
648.362	0.0153970
648.440	0.0153059
648.518	0.0153883
648.596	0.0153446
648.674	0.0153968
648.753	0.0153730
648.831	0.0151277
648.909	0.0153288
648.987	0.0156177
649.065	0.0154046
649.143	0.0153519
649.221	0.0152186
649.299	0.0153885
649.378	0.0153382
649.456	0.0154518
649.534	0.0154955
649.612	0.0154224
649.690	0.0154630
649.768	0.0153962
649.846	0.0153288
649.924	0.0153229
650.003	0.0154050
650.081	0.0155048
650.159	0.0154414
650.237	0.0153795
650.315	0.0153194
650.393	0.0153677
650.471	0.0154490
650.549	0.0153490
650.628	0.0153083
650.706	0.0153990
650.784	0.0153827
650.862	0.0154713
650.940	0.0154043
651.018	0.0154247
651.096	0.0154626
651.174	0.0153568
651.253	0.0155888
651.331	0.0155761
651.409	0.0152867
651.487	0.0153937
651.565	0.0153125
651.643	0.0154381
651.721	0.0153342
651.799	0.0152962
651.878	0.0153681
651.956	0.0153973
652.034	0.0153735
652.112	0.0153740
652.190	0.0153897
652.268	0.0152518
652.346	0.0154253
652.424	0.0153709
652.503	0.0153529
652.581	0.0154129
652.659	0.0153889
652.737	0.0154173
652.815	0.0153438
652.893	0.0152747
652.971	0.0153844
653.049	0.0154246
653.128	0.0153238
653.206	0.0154366
653.284	0.0153079
653.362	0.0154712
653.440	0.0154122
653.518	0.0153285
653.596	0.0153201
653.674	0.0153613
653.753	0.0153611
653.831	0.0153922
653.909	0.0153561
653.987	0.0154379
654.065	0.0154130
654.143	0.0154517
654.221	0.0154990
654.299	0.0155074
654.378	0.0154222
654.456	0.0153926
654.534	0.0154348
654.612	0.0154424
654.690	0.0154805
654.768	0.0154430
654.846	0.0154522
654.924	0.0154285
655.003	0.0154577
655.081	0.0153778
655.159	0.0154229
655.237	0.0154136
655.315	0.0154395
655.393	0.0153831
655.471	0.0154404
655.549	0.0154035
655.628	0.0153763
655.706	0.0152515
655.784	0.0152599
655.862	0.0152728
655.940	0.0154343
656.018	0.0153369
656.096	0.0154772
656.174	0.0154602
656.253	0.0153504
656.331	0.0153490
656.409	0.0154107
656.487	0.0154533
656.565	0.0153444
656.643	0.0153463
656.721	0.0152974
656.799	0.0153938
656.878	0.0153268
656.956	0.0153991
657.034	0.0152828
657.112	0.0154066
657.190	0.0153722
657.268	0.0154617
657.346	0.0154078
657.424	0.0153626
657.503	0.0153979
657.581	0.0153209
657.659	0.0154227
657.737	0.0154518
657.815	0.0153438
657.893	0.0153001
657.971	0.0154216
658.049	0.0154150
658.128	0.0152398
658.206	0.0152958
658.284	0.0154472
658.362	0.0154337
658.440	0.0153304
658.518	0.0154317
658.596	0.0155206
658.674	0.0154340
658.753	0.0154514
658.831	0.0153919
658.909	0.0154266
658.987	0.0153074
659.065	0.0154178
659.143	0.0153914
659.221	0.0153545
659.299	0.0154760
659.378	0.0153998
659.456	0.0152889
659.534	0.0153185
659.612	0.0153518
659.690	0.0153966
659.768	0.0154263
659.846	0.0154723
659.924	0.0152407
660.003	0.0153088
660.081	0.0154300
660.159	0.0152820
660.237	0.0152366
660.315	0.0151972
660.393	0.0153462
660.471	0.0155275
660.549	0.0154634
660.628	0.0154761
660.706	0.0153289
660.784	0.0152817
660.862	0.0153624
660.940	0.0152965
661.018	0.0152928
661.096	0.0153873
661.174	0.0153822
661.253	0.0153907
661.331	0.0153182
661.409	0.0155012
661.487	0.0152689
661.565	0.0154393
661.643	0.0153455
661.721	0.0152172
661.799	0.0153163
661.878	0.0153900
661.956	0.0153730
662.034	0.0154104
662.112	0.0153439
662.190	0.0153709
662.268	0.0153810
662.346	0.0153659
662.424	0.0154852
662.503	0.0153728
662.581	0.0154704
662.659	0.0153529
662.737	0.0153329
662.815	0.0153407
662.893	0.0154460
662.971	0.0154158
663.049	0.0154076
663.128	0.0153586
663.206	0.0152570
663.284	0.0153408
663.362	0.0152962
663.440	0.0153462
663.518	0.0153840
663.596	0.0152950
663.674	0.0153504
663.753	0.0152694
663.831	0.0153053
663.909	0.0154271
663.987	0.0154182
664.065	0.0154788
664.143	0.0154382
664.221	0.0153269
664.299	0.0153990
664.378	0.0154253
664.456	0.0155399
664.534	0.0154195
664.612	0.0154652
664.690	0.0152844
664.768	0.0152426
664.846	0.0154687
664.924	0.0152204
665.003	0.0152821
665.081	0.0153683
665.159	0.0153052
665.237	0.0154857
665.315	0.0153089
665.393	0.0153297
665.471	0.0153282
665.549	0.0154048
665.628	0.0153624
665.706	0.0153742
665.784	0.0152879
665.862	0.0153387
665.940	0.0152702
666.018	0.0153191
666.096	0.0152573
666.174	0.0153423
666.253	0.0153735
666.331	0.0153523
666.409	0.0153568
666.487	0.0152636
666.565	0.0152483
666.643	0.0153866
666.721	0.0153857
666.799	0.0154032
666.878	0.0152676
666.956	0.0153110
667.034	0.0153712
667.112	0.0153985
667.190	0.0153824
667.268	0.0152789
667.346	0.0154867
667.424	0.0155139
667.503	0.0153291
667.581	0.0153880
667.659	0.0154107
667.737	0.0153564
667.815	0.0154092
667.893	0.0153801
667.971	0.0154098
668.049	0.0152905
668.128	0.0153754
668.206	0.0153942
668.284	0.0153545
668.362	0.0152869
668.440	0.0152024
668.518	0.0154122
668.596	0.0154060
668.674	0.0153248
668.753	0.0153391
668.831	0.0154423
668.909	0.0153264
668.987	0.0154303
669.065	0.0155148
669.143	0.0154319
669.221	0.0153911
669.299	0.0152634
669.378	0.0154220
669.456	0.0153678
669.534	0.0154221
669.612	0.0155077
669.690	0.0152484
669.768	0.0153275
669.846	0.0153355
669.924	0.0154044
670.003	0.0153134
670.081	0.0152999
670.159	0.0155409
670.237	0.0154244
670.315	0.0153497
670.393	0.0153359
670.471	0.0153773
670.549	0.0154204
670.628	0.0154812
670.706	0.0153475
670.784	0.0152932
670.862	0.0153458
670.940	0.0153236
671.018	0.0153177
671.096	0.0152955
671.174	0.0152081
671.253	0.0152782
671.331	0.0153728
671.409	0.0153905
671.487	0.0154285
671.565	0.0153738
671.643	0.0154248
671.721	0.0152507
671.799	0.0153188
671.878	0.0152708
671.956	0.0154005
672.034	0.0153105
672.112	0.0153458
672.190	0.0153649
672.268	0.0154446
672.346	0.0154150
672.424	0.0153860
672.503	0.0152750
672.581	0.0153797
672.659	0.0153743
672.737	0.0154152
672.815	0.0152692
672.893	0.0152847
672.971	0.0153128
673.049	0.0153606
673.128	0.0153659
673.206	0.0154016
673.284	0.0154256
673.362	0.0154475
673.440	0.0154164
673.518	0.0152545
673.596	0.0153349
673.674	0.0154416
673.753	0.0153490
673.831	0.0153505
673.909	0.0154177
673.987	0.0154842
674.065	0.0152522
674.143	0.0153929
674.221	0.0153163
674.299	0.0153026
674.378	0.0154646
674.456	0.0153300
674.534	0.0153343
674.612	0.0152700
674.690	0.0153031
674.768	0.0153742
674.846	0.0153015
674.924	0.0154346
675.003	0.0154901
675.081	0.0154428
675.159	0.0153864
675.237	0.0154657
675.315	0.0153297
675.393	0.0153561
675.471	0.0154032
675.549	0.0154874
675.628	0.0153778
675.706	0.0153866
675.784	0.0153725
675.862	0.0152496
675.940	0.0151671
676.018	0.0152859
676.096	0.0154253
676.174	0.0154076
676.253	0.0152961
676.331	0.0153860
676.409	0.0153677
676.487	0.0152318
676.565	0.0152505
676.643	0.0152927
676.721	0.0153625
676.799	0.0154571
676.878	0.0152934
676.956	0.0152211
677.034	0.0153753
677.112	0.0154370
677.190	0.0154038
677.268	0.0153186
677.346	0.0153894
677.424	0.0155514
677.503	0.0152821
677.581	0.0152882
677.659	0.0154440
677.737	0.0153113
677.815	0.0153087
677.893	0.0155267
677.971	0.0153690
678.049	0.0153416
678.128	0.0154003
678.206	0.0152737
678.284	0.0154321
678.362	0.0154501
678.440	0.0154570
678.518	0.0153561
678.596	0.0153524
678.674	0.0152928
678.753	0.0152855
678.831	0.0152355
678.909	0.0153135
678.987	0.0152511
679.065	0.0153787
679.143	0.0154261
679.221	0.0154256
679.299	0.0152171
679.378	0.0152964
679.456	0.0152939
679.534	0.0154238
679.612	0.0153824
679.690	0.0154620
679.768	0.0154506
679.846	0.0152515
679.924	0.0153647
680.003	0.0153361
680.081	0.0152306
680.159	0.0153977
680.237	0.0153070
680.315	0.0154465
680.393	0.0153952
680.471	0.0154153
680.549	0.0154458
680.628	0.0153410
680.706	0.0154055
680.784	0.0154540
680.862	0.0154140
680.940	0.0153950
681.018	0.0154635
681.096	0.0155219
681.174	0.0153751
681.253	0.0153240
681.331	0.0153647
681.409	0.0152612
681.487	0.0153015
681.565	0.0153306
681.643	0.0154430
681.721	0.0154720
681.799	0.0153440
681.878	0.0153601
681.956	0.0153444
682.034	0.0154070
682.112	0.0151461
682.190	0.0152731
682.268	0.0153139
682.346	0.0154746
682.424	0.0153941
682.503	0.0152518
682.581	0.0153618
682.659	0.0153008
682.737	0.0153074
682.815	0.0154065
682.893	0.0154185
682.971	0.0153800
683.049	0.0153661
683.128	0.0153134
683.206	0.0152779
683.284	0.0153294
683.362	0.0153540
683.440	0.0154049
683.518	0.0153720
683.596	0.0152960
683.674	0.0152849
683.753	0.0152908
683.831	0.0153031
683.909	0.0154070
683.987	0.0154372
684.065	0.0152886
684.143	0.0153819
684.221	0.0155441
684.299	0.0154705
684.378	0.0154677
684.456	0.0154089
684.534	0.0154103
684.612	0.0154243
684.690	0.0154491
684.768	0.0154462
684.846	0.0155048
684.924	0.0155154
685.003	0.0153666
685.081	0.0153826
685.159	0.0154687
685.237	0.0153458
685.315	0.0153471
685.393	0.0153307
685.471	0.0154700
685.549	0.0154289
685.628	0.0153580
685.706	0.0155078
685.784	0.0154375
685.862	0.0153897
685.940	0.0154531
686.018	0.0153653
686.096	0.0153864
686.174	0.0153191
686.253	0.0153867
686.331	0.0154327
686.409	0.0154819
686.487	0.0152959
686.565	0.0153687
686.643	0.0154365
686.721	0.0153630
686.799	0.0151786
686.878	0.0152449
686.956	0.0153572
687.034	0.0154577
687.112	0.0153564
687.190	0.0153021
687.268	0.0152779
687.346	0.0154003
687.424	0.0154299
687.503	0.0153960
687.581	0.0153253
687.659	0.0154422
687.737	0.0154144
687.815	0.0153966
687.893	0.0153353
687.971	0.0153851
688.049	0.0153761
688.128	0.0155328
688.206	0.0154000
688.284	0.0153640
688.362	0.0154435
688.440	0.0153609
688.518	0.0155346
688.596	0.0154303
688.674	0.0154230
688.753	0.0153605
688.831	0.0153628
688.909	0.0154276
688.987	0.0155238
689.065	0.0155041
689.143	0.0154752
689.221	0.0153576
689.299	0.0154929
689.378	0.0155568
689.456	0.0154665
689.534	0.0154935
689.612	0.0154940
689.690	0.0153297
689.768	0.0153640
689.846	0.0153461
689.924	0.0152852
690.003	0.0153709
690.081	0.0153664
690.159	0.0153127
690.237	0.0152914
690.315	0.0154202
690.393	0.0154086
690.471	0.0154267
690.549	0.0155534
690.628	0.0154129
690.706	0.0153233
690.784	0.0153903
690.862	0.0154065
690.940	0.0153551
691.018	0.0151138
691.096	0.0152184
691.174	0.0154137
691.253	0.0152576
691.331	0.0153126
691.409	0.0152866
691.487	0.0153712
691.565	0.0152643
691.643	0.0151974
691.721	0.0153284
691.799	0.0153886
691.878	0.0153565
691.956	0.0152523
692.034	0.0152661
692.112	0.0153384
692.190	0.0154210
692.268	0.0154218
692.346	0.0153992
692.424	0.0154736
692.503	0.0156223
692.581	0.0156543
692.659	0.0153941
692.737	0.0154061
692.815	0.0153699
692.893	0.0153310
692.971	0.0151340
693.049	0.0150497
693.128	0.0150598
693.206	0.0150320
693.284	0.0151121
693.362	0.0151183
693.440	0.0151066
693.518	0.0152656
693.596	0.0152474
693.674	0.0155515
693.753	0.0156516
693.831	0.0157810
693.909	0.0157639
693.987	0.0156493
694.065	0.0155965
694.143	0.0155997
694.221	0.0155726
694.299	0.0153407
694.378	0.0151848
694.456	0.0151645
694.534	0.0150677
694.612	0.0150858
694.690	0.0150052
694.768	0.0149379
694.846	0.0150730
694.924	0.0151131
695.003	0.0151294
695.081	0.0152571
695.159	0.0153606
695.237	0.0154478
695.315	0.0155579
695.393	0.0157306
695.471	0.0158848
695.549	0.0157989
695.628	0.0158246
695.706	0.0158170
695.784	0.0156179
695.862	0.0155595
695.940	0.0155043
696.018	0.0154005
696.096	0.0153120
696.174	0.0151458
696.253	0.0150591
696.331	0.0150930
696.409	0.0149830
696.487	0.0149361
696.565	0.0149884
696.643	0.0151039
696.721	0.0153147
696.799	0.0151608
696.878	0.0153568
696.956	0.0155630
697.034	0.0155723
697.112	0.0157244
697.190	0.0159180
697.268	0.0157925
697.346	0.0158695
697.424	0.0157108
697.503	0.0156044
697.581	0.0155305
697.659	0.0153064
697.737	0.0152871
697.815	0.0152424
697.893	0.0150371
697.971	0.0149104
698.049	0.0150346
698.128	0.0149844
698.206	0.0150960
698.284	0.0151488
698.362	0.0151350
698.440	0.0151826
698.518	0.0152560
698.596	0.0153687
698.674	0.0154395
698.753	0.0153858
698.831	0.0154925
698.909	0.0154578
698.987	0.0155180
699.065	0.0155743
699.143	0.0156601
699.221	0.0156731
699.299	0.0156104
699.378	0.0156168
699.456	0.0156889
699.534	0.0155637
699.612	0.0154253
699.690	0.0153674
699.768	0.0152111
699.846	0.0150869
699.924	0.0149296
700.003	0.0149507
700.081	0.0148596
700.159	0.0149886
700.237	0.0150504
700.315	0.0152376
700.393	0.0151271
700.471	0.0151866
700.549	0.0154317
700.628	0.0155337
700.706	0.0157640
700.784	0.0158981
700.862	0.0158203
700.940	0.0157885
701.018	0.0158018
701.096	0.0155690
701.174	0.0155103
701.253	0.0155062
701.331	0.0154269
701.409	0.0153584
701.487	0.0152169
701.565	0.0149638
701.643	0.0150381
701.721	0.0149424
701.799	0.0149445
701.878	0.0150500
701.956	0.0151649
702.034	0.0151066
702.112	0.0153224
702.190	0.0152757
702.268	0.0153236
702.346	0.0153722
702.424	0.0154702
702.503	0.0155647
702.581	0.0156144
702.659	0.0155424
702.737	0.0157961
702.815	0.0157001
702.893	0.0156937
702.971	0.0156826
703.049	0.0155698
703.128	0.0156948
703.206	0.0156693
703.284	0.0153685
703.362	0.0151568
703.440	0.0150903
703.518	0.0150334
703.596	0.0150707
703.674	0.0149757
703.753	0.0149107
703.831	0.0150014
703.909	0.0149628
703.987	0.0152025
704.065	0.0151412
704.143	0.0151749
704.221	0.0153183
704.299	0.0153007
704.378	0.0154861
704.456	0.0154619
704.534	0.0154851
704.612	0.0155640
704.690	0.0156229
704.768	0.0158524
704.846	0.0157809
704.924	0.0156215
705.003	0.0156445
705.081	0.0155798
705.159	0.0154910
705.237	0.0153152
705.315	0.0152179
705.393	0.0151588
705.471	0.0150018
705.549	0.0149121
705.628	0.0149223
705.706	0.0146917
705.784	0.0147601
705.862	0.0148185
705.940	0.0146857
706.018	0.0150438
706.096	0.0152975
706.174	0.0154941
706.253	0.0156661
706.331	0.0157693
706.409	0.0158405
706.487	0.0161020
706.565	0.0161388
706.643	0.0159187
706.721	0.0158540
706.799	0.0157465
706.878	0.0156248
706.956	0.0155082
707.034	0.0152536
707.112	0.0150464
707.190	0.0150146
707.268	0.0147999
707.346	0.0146793
707.424	0.0146555
707.503	0.0148371
707.581	0.0148875
707.659	0.0149269
707.737	0.0151552
707.815	0.0151774
707.893	0.0152374
707.971	0.0155013
708.049	0.0157250
708.128	0.0158306
708.206	0.0158035
708.284	0.0159523
708.362	0.0158135
708.440	0.0156162
708.518	0.0155611
708.596	0.0154371
708.674	0.0152546
708.753	0.0152187
708.831	0.0151594
708.909	0.0150408
708.987	0.0149725
709.065	0.0151619
709.143	0.0151885
709.221	0.0150947
709.299	0.0154227
709.378	0.0154438
709.456	0.0155009
709.534	0.0156453
709.612	0.0156869
709.690	0.0157819
709.768	0.0156480
709.846	0.0155463
709.924	0.0155640
710.003	0.0155203
710.081	0.0153094
710.159	0.0151708
710.237	0.0150404
710.315	0.0149171
710.393	0.0149932
710.471	0.0148643
710.549	0.0148803
710.628	0.0148637
710.706	0.0149071
710.784	0.0151439
710.862	0.0153665
710.940	0.0155406
711.018	0.0154725
711.096	0.0158202
711.174	0.0160043
711.253	0.0158990
711.331	0.0160460
711.409	0.0160517
711.487	0.0159711
711.565	0.0157481
711.643	0.0156457
711.721	0.0155086
711.799	0.0151900
711.878	0.0153088
711.956	0.0151020
712.034	0.0150404
712.112	0.0149782
712.190	0.0147636
712.268	0.0149902
712.346	0.0151926
712.424	0.0151453
712.503	0.0152934
712.581	0.0153519
712.659	0.0153376
712.737	0.0153794
712.815	0.0153204
712.893	0.0153582
712.971	0.0153860
713.049	0.0154682
713.128	0.0154413
713.206	0.0154842
713.284	0.0154639
713.362	0.0154733
713.440	0.0156638
713.518	0.0155600
713.596	0.0156049
713.674	0.0155782
713.753	0.0153609
713.831	0.0154353
713.909	0.0152494
713.987	0.0150980
714.065	0.0150104
714.143	0.0149792
714.221	0.0147791
714.299	0.0147626
714.378	0.0149359
714.456	0.0150160
714.534	0.0150758
714.612	0.0151979
714.690	0.0152251
714.768	0.0153507
714.846	0.0155971
714.924	0.0156366
715.003	0.0155947
715.081	0.0157674
715.159	0.0159129
715.237	0.0157770
715.315	0.0156888
715.393	0.0156090
715.471	0.0153279
715.549	0.0151968
715.628	0.0152084
715.706	0.0151202
715.784	0.0149589
715.862	0.0149260
715.940	0.0149828
716.018	0.0150403
716.096	0.0150644
716.174	0.0152072
716.253	0.0153204
716.331	0.0154833
716.409	0.0155814
716.487	0.0156319
716.565	0.0157087
716.643	0.0157685
716.721	0.0158102
716.799	0.0157408
716.878	0.0155424
716.956	0.0157436
717.034	0.0156182
717.112	0.0154710
717.190	0.0152809
717.268	0.0151061
717.346	0.0150617
717.424	0.0150748
717.503	0.0149927
717.581	0.0150323
717.659	0.0149668
717.737	0.0149889
717.815	0.0149730
717.893	0.0150359
717.971	0.0151508
718.049	0.0152256
718.128	0.0153110
718.206	0.0155658
718.284	0.0154254
718.362	0.0156147
718.440	0.0156657
718.518	0.0157505
718.596	0.0158298
718.674	0.0156950
718.753	0.0158751
718.831	0.0156834
718.909	0.0157228
718.987	0.0156676
719.065	0.0155837
719.143	0.0153951
719.221	0.0151585
719.299	0.0151079
719.378	0.0149688
719.456	0.0149565
719.534	0.0148759
719.612	0.0147317
719.690	0.0149088
719.768	0.0148141
719.846	0.0149335
719.924	0.0148939
720.003	0.0151577
720.081	0.0150696
720.159	0.0150854
720.237	0.0152355
720.315	0.0150245
720.393	0.0151773
720.471	0.0152454
720.549	0.0153733
720.628	0.0153691
720.706	0.0155515
720.784	0.0157713
720.862	0.0159228
720.940	0.0158907
721.018	0.0161257
721.096	0.0161254
721.174	0.0162378
721.253	0.0160747
721.331	0.0161370
721.409	0.0159958
721.487	0.0159573
721.565	0.0157942
721.643	0.0155725
721.721	0.0153937
721.799	0.0152560
721.878	0.0149384
721.956	0.0149304
722.034	0.0147666
722.112	0.0147571
722.190	0.0147649
722.268	0.0148277
722.346	0.0147686
722.424	0.0148390
722.503	0.0149962
722.581	0.0149745
722.659	0.0150681
722.737	0.0152790
722.815	0.0153054
722.893	0.0154259
722.971	0.0154053
723.049	0.0153848
723.128	0.0154656
723.206	0.0155566
723.284	0.0154877
723.362	0.0155709
723.440	0.0156699
723.518	0.0156834
723.596	0.0157056
723.674	0.0158049
723.753	0.0159145
723.831	0.0160080
723.909	0.0157997
723.987	0.0159187
724.065	0.0158904
724.143	0.0157201
724.221	0.0155887
724.299	0.0155930
724.378	0.0154809
724.456	0.0152364
724.534	0.0150220
724.612	0.0149361
724.690	0.0148034
724.768	0.0146906
724.846	0.0144979
724.924	0.0144230
725.003	0.0143222
725.081	0.0144734
725.159	0.0145466
725.237	0.0144823
725.315	0.0144855
725.393	0.0146273
725.471	0.0148845
725.549	0.0148837
725.628	0.0150497
725.706	0.0152619
725.784	0.0154398
725.862	0.0156840
725.940	0.0158402
726.018	0.0158792
726.096	0.0159367
726.174	0.0159354
726.253	0.0161208
726.331	0.0160268
726.409	0.0160970
726.487	0.0159882
726.565	0.0160407
726.643	0.0160067
726.721	0.0159985
726.799	0.0157630
726.878	0.0157748
726.956	0.0156339
727.034	0.0156657
727.112	0.0157019
727.190	0.0156839
727.268	0.0157402
727.346	0.0157610
727.424	0.0156673
727.503	0.0155388
727.581	0.0154913
727.659	0.0154639
727.737	0.0154144
727.815	0.0154075
727.893	0.0152676
727.971	0.0151473
728.049	0.0151104
728.128	0.0149004
728.206	0.0149293
728.284	0.0147750
728.362	0.0148309
728.440	0.0145402
728.518	0.0145377
728.596	0.0146014
728.674	0.0146873
728.753	0.0147440
728.831	0.0146889
728.909	0.0147290
728.987	0.0146523
729.065	0.0146317
729.143	0.0146375
729.221	0.0146717
729.299	0.0146503
729.378	0.0147854
729.456	0.0146664
729.534	0.0147717
729.612	0.0147839
729.690	0.0150747
729.768	0.0149972
729.846	0.0152429
729.924	0.0154743
730.003	0.0155334
730.081	0.0157940
730.159	0.0161059
730.237	0.0163624
730.315	0.0164483
730.393	0.0166152
730.471	0.0166264
730.549	0.0169383
730.628	0.0167076
730.706	0.0167475
730.784	0.0167078
730.862	0.0166364
730.940	0.0163246
731.018	0.0163080
731.096	0.0159655
731.174	0.0158477
731.253	0.0154981
731.331	0.0153519
731.409	0.0151829
731.487	0.0150732
731.565	0.0148988
731.643	0.0146368
731.721	0.0144743
731.799	0.0142719
731.878	0.0141816
731.956	0.0141582
732.034	0.0139941
732.112	0.0139819
732.190	0.0139675
732.268	0.0138583
732.346	0.0140015
732.424	0.0138897
732.503	0.0140806
732.581	0.0143094
732.659	0.0144518
732.737	0.0147373
732.815	0.0148723
732.893	0.0151415
732.971	0.0155421
733.049	0.0156966
733.128	0.0157235
733.206	0.0159617
733.284	0.0163772
733.362	0.0167660
733.440	0.0167263
733.518	0.0167693
733.596	0.0169088
733.674	0.0171035
733.753	0.0171783
733.831	0.0170927
733.909	0.0170071
733.987	0.0168983
734.065	0.0168292
734.143	0.0166457
734.221	0.0165168
734.299	0.0163319
734.378	0.0160804
734.456	0.0158382
734.534	0.0157714
734.612	0.0155273
734.690	0.0152953
734.768	0.0151386
734.846	0.0152135
734.924	0.0149193
735.003	0.0148782
735.081	0.0148830
735.159	0.0146499
735.237	0.0146567
735.315	0.0144988
735.393	0.0145654
735.471	0.0144419
735.549	0.0145718
735.628	0.0143508
735.706	0.0141834
735.784	0.0142244
735.862	0.0141510
735.940	0.0141391
736.018	0.0138763
736.096	0.0139140
736.174	0.0138751
736.253	0.0139620
736.331	0.0140903
736.409	0.0142390
736.487	0.0141175
736.565	0.0143564
736.643	0.0145219
736.721	0.0146414
736.799	0.0146850
736.878	0.0150912
736.956	0.0152239
737.034	0.0153723
737.112	0.0156389
737.190	0.0156917
737.268	0.0159978
737.346	0.0162319
737.424	0.0164204
737.503	0.0164797
737.581	0.0166277
737.659	0.0167289
737.737	0.0170448
737.815	0.0170920
737.893	0.0171486
737.971	0.0170337
738.049	0.0170709
738.128	0.0169955
738.206	0.0169534
738.284	0.0167314
738.362	0.0166770
738.440	0.0164939
738.518	0.0161987
738.596	0.0161958
738.674	0.0162057
738.753	0.0160945
738.831	0.0160308
738.909	0.0160066
738.987	0.0160561
739.065	0.0160641
739.143	0.0157469
739.221	0.0157918
739.299	0.0155866
739.378	0.0155058
739.456	0.0152837
739.534	0.0151985
739.612	0.0150410
739.690	0.0147165
739.768	0.0146136
739.846	0.0142823
739.924	0.0140747
740.003	0.0137541
740.081	0.0135421
740.159	0.0132478
740.237	0.0131923
740.315	0.0129834
740.393	0.0129963
740.471	0.0129194
740.549	0.0128498
740.628	0.0129543
740.706	0.0130801
740.784	0.0133794
740.862	0.0137567
740.940	0.0140353
741.018	0.0142924
741.096	0.0145335
741.174	0.0150542
741.253	0.0154715
741.331	0.0155859
741.409	0.0159066
741.487	0.0160660
741.565	0.0162372
741.643	0.0162489
741.721	0.0163690
741.799	0.0164217
741.878	0.0164029
741.956	0.0164861
742.034	0.0163396
742.112	0.0163297
742.190	0.0162712
742.268	0.0162122
742.346	0.0160992
742.424	0.0162048
742.503	0.0161410
742.581	0.0161538
742.659	0.0160963
742.737	0.0161150
742.815	0.0160400
742.893	0.0159238
742.971	0.0159013
743.049	0.0159359
743.128	0.0158794
743.206	0.0156667
743.284	0.0156350
743.362	0.0156898
743.440	0.0154650
743.518	0.0154871
743.596	0.0154720
743.674	0.0153952
743.753	0.0154282
743.831	0.0155272
743.909	0.0153122
743.987	0.0155048
744.065	0.0156470
744.143	0.0155006
744.221	0.0153824
744.299	0.0153338
744.378	0.0152931
744.456	0.0153030
744.534	0.0153587
744.612	0.0152726
744.690	0.0151260
744.768	0.0152382
744.846	0.0152074
744.924	0.0152935
745.003	0.0153301
745.081	0.0153928
745.159	0.0153248
745.237	0.0152420
745.315	0.0153144
745.393	0.0152943
745.471	0.0154942
745.549	0.0154891
745.628	0.0155294
745.706	0.0154620
745.784	0.0153990
745.862	0.0150750
745.940	0.0149479
746.018	0.0147696
746.096	0.0145010
746.174	0.0142302
746.253	0.0140473
746.331	0.0137348
746.409	0.0135384
746.487	0.0133178
746.565	0.0131698
746.643	0.0132349
746.721	0.0131291
746.799	0.0134255
746.878	0.0134586
746.956	0.0135255
747.034	0.0140321
747.112	0.0143100
747.190	0.0147091
747.268	0.0150339
747.346	0.0155782
747.424	0.0160773
747.503	0.0163966
747.581	0.0168513
747.659	0.0172954
747.737	0.0175517
747.815	0.0179092
747.893	0.0180804
747.971	0.0180141
748.049	0.0180611
748.128	0.0179802
748.206	0.0177762
748.284	0.0174920
748.362	0.0172535
748.440	0.0168363
748.518	0.0165344
748.596	0.0162656
748.674	0.0157284
748.753	0.0153754
748.831	0.0150968
748.909	0.0147729
748.987	0.0146281
749.065	0.0143158
749.143	0.0143322
749.221	0.0143151
749.299	0.0143214
749.378	0.0144508
749.456	0.0144013
749.534	0.0146101
749.612	0.0146664
749.690	0.0149994
749.768	0.0151228
749.846	0.0152461
749.924	0.0154901
750.003	0.0155759
750.081	0.0157602
750.159	0.0158327
750.237	0.0158399
750.315	0.0159001
750.393	0.0160765
750.471	0.0160952
750.549	0.0161276
750.628	0.0161488
750.706	0.0159506
750.784	0.0158318
750.862	0.0157279
750.940	0.0153243
751.018	0.0153062
751.096	0.0152311
751.174	0.0151077
751.253	0.0149553
751.331	0.0149789
751.409	0.0149904
751.487	0.0150607
751.565	0.0149860
751.643	0.0149097
751.721	0.0148798
751.799	0.0147577
751.878	0.0145707
751.956	0.0143441
752.034	0.0142223
752.112	0.0137733
752.190	0.0137304
752.268	0.0134690
752.346	0.0132454
752.424	0.0132409
752.503	0.0132141
752.581	0.0131969
752.659	0.0133871
752.737	0.0135533
752.815	0.0138277
752.893	0.0141931
752.971	0.0146506
753.049	0.0152187
753.128	0.0154722
753.206	0.0159946
753.284	0.0162968
753.362	0.0167864
753.440	0.0170219
753.518	0.0173917
753.596	0.0175911
753.674	0.0176949
753.753	0.0179311
753.831	0.0179644
753.909	0.0178252
753.987	0.0175558
754.065	0.0174316
754.143	0.0169779
754.221	0.0166341
754.299	0.0162627
754.378	0.0159055
754.456	0.0155789
754.534	0.0154083
754.612	0.0151562
754.690	0.0149728
754.768	0.0147735
754.846	0.0146005
754.924	0.0146297
755.003	0.0147461
755.081	0.0146854
755.159	0.0147440
755.237	0.0148061
755.315	0.0148219
755.393	0.0149001
755.471	0.0150153
755.549	0.0149756
755.628	0.0150107
755.706	0.0151118
755.784	0.0151216
755.862	0.0152325
755.940	0.0152615
756.018	0.0154456
756.096	0.0155641
756.174	0.0155843
756.253	0.0155991
756.331	0.0158222
756.409	0.0157428
756.487	0.0159060
756.565	0.0159028
756.643	0.0160667
756.721	0.0159890
756.799	0.0160107
756.878	0.0160210
756.956	0.0158231
757.034	0.0158363
757.112	0.0156172
757.190	0.0154517
757.268	0.0153464
757.346	0.0152164
757.424	0.0151238
757.503	0.0148995
757.581	0.0146389
757.659	0.0145256
757.737	0.0140611
757.815	0.0139217
757.893	0.0135172
757.971	0.0133692
758.049	0.0131998
758.128	0.0129062
758.206	0.0128727
758.284	0.0127497
758.362	0.0128036
758.440	0.0129248
758.518	0.0131269
758.596	0.0133115
758.674	0.0137099
758.753	0.0141121
758.831	0.0147108
758.909	0.0151351
758.987	0.0157483
759.065	0.0162852
759.143	0.0167506
759.221	0.0171425
759.299	0.0175637
759.378	0.0179542
759.456	0.0180820
759.534	0.0184046
759.612	0.0183426
759.690	0.0184142
759.768	0.0181653
759.846	0.0179691
759.924	0.0176010
760.003	0.0172630
760.081	0.0171336
760.159	0.0166827
760.237	0.0162418
760.315	0.0160112
760.393	0.0156110
760.471	0.0154518
760.549	0.0151583
760.628	0.0150925
760.706	0.0148434
760.784	0.0147750
760.862	0.0146179
760.940	0.0147729
761.018	0.0147175
761.096	0.0146308
761.174	0.0147429
761.253	0.0147299
761.331	0.0147329
761.409	0.0149387
761.487	0.0149262
761.565	0.0147100
761.643	0.0148601
761.721	0.0150139
761.799	0.0150143
761.878	0.0151614
761.956	0.0153113
762.034	0.0151997
762.112	0.0154015
762.190	0.0154529
762.268	0.0155862
762.346	0.0156525
762.424	0.0157102
762.503	0.0157674
762.581	0.0158527
762.659	0.0158733
762.737	0.0159042
762.815	0.0157550
762.893	0.0157143
762.971	0.0156949
763.049	0.0156277
763.128	0.0154218
763.206	0.0152682
763.284	0.0152478
763.362	0.0150639
763.440	0.0148394
763.518	0.0145125
763.596	0.0143680
763.674	0.0140792
763.753	0.0136416
763.831	0.0133981
763.909	0.0131162
763.987	0.0132530
764.065	0.0131551
764.143	0.0129846
764.221	0.0130421
764.299	0.0134312
764.378	0.0138828
764.456	0.0141209
764.534	0.0144712
764.612	0.0149129
764.690	0.0154391
764.768	0.0157675
764.846	0.0161996
764.924	0.0164719
765.003	0.0168993
765.081	0.0171951
765.159	0.0173838
765.237	0.0174873
765.315	0.0175804
765.393	0.0176118
765.471	0.0174587
765.549	0.0172876
765.628	0.0170428
765.706	0.0169314
765.784	0.0167128
765.862	0.0162910
765.940	0.0161873
766.018	0.0158662
766.096	0.0156255
766.174	0.0155177
766.253	0.0152940
766.331	0.0153406
766.409	0.0152973
766.487	0.0152246
766.565	0.0151388
766.643	0.0154976
766.721	0.0154735
766.799	0.0152201
766.878	0.0151634
766.956	0.0153359
767.034	0.0152152
767.112	0.0151628
767.190	0.0148670
767.268	0.0150524
767.346	0.0149419
767.424	0.0148746
767.503	0.0150157
767.581	0.0150135
767.659	0.0151000
767.737	0.0151815
767.815	0.0153374
767.893	0.0153262
767.971	0.0156671
768.049	0.0157961
768.128	0.0156516
768.206	0.0158312
768.284	0.0159345
768.362	0.0158864
768.440	0.0160188
768.518	0.0160236
768.596	0.0157948
768.674	0.0157550
768.753	0.0156193
768.831	0.0154270
768.909	0.0151974
768.987	0.0151239
769.065	0.0149507
769.143	0.0146349
769.221	0.0145292
769.299	0.0143561
769.378	0.0142178
769.456	0.0138722
769.534	0.0137879
769.612	0.0135292
769.690	0.0135151
769.768	0.0135112
769.846	0.0133166
769.924	0.0134548
770.003	0.0135023
770.081	0.0136980
770.159	0.0140475
770.237	0.0142881
770.315	0.0146157
770.393	0.0149943
770.471	0.0154712
770.549	0.0156699
770.628	0.0160084
770.706	0.0163825
770.784	0.0166396
770.862	0.0168987
770.940	0.0171812
771.018	0.0172518
771.096	0.0175045
771.174	0.0173921
771.253	0.0173364
771.331	0.0173144
771.409	0.0172084
771.487	0.0169576
771.565	0.0167028
771.643	0.0164497
771.721	0.0162209
771.799	0.0158351
771.878	0.0157906
771.956	0.0156271
772.034	0.0153841
772.112	0.0154185
772.190	0.0151515
772.268	0.0149615
772.346	0.0150587
772.424	0.0149214
772.503	0.0149620
772.581	0.0149390
772.659	0.0149769
772.737	0.0150890
772.815	0.0148908
772.893	0.0148943
772.971	0.0150152
773.049	0.0150140
773.128	0.0148579
773.206	0.0150049
773.284	0.0151071
773.362	0.0152261
773.440	0.0154898
773.518	0.0153400
773.596	0.0154568
773.674	0.0156687
773.753	0.0158603
773.831	0.0157873
773.909	0.0157520
773.987	0.0158398
774.065	0.0158358
774.143	0.0159466
774.221	0.0159057
774.299	0.0156242
774.378	0.0154686
774.456	0.0154469
774.534	0.0153789
774.612	0.0153141
774.690	0.0152202
774.768	0.0152029
774.846	0.0150796
774.924	0.0150374
775.003	0.0150415
775.081	0.0147931
775.159	0.0147385
775.237	0.0145600
775.315	0.0145278
775.393	0.0145029
775.471	0.0143637
775.549	0.0142053
775.628	0.0140437
775.706	0.0140528
775.784	0.0139666
775.862	0.0139212
775.940	0.0139532
776.018	0.0141573
776.096	0.0142583
776.174	0.0145101
776.253	0.0148564
776.331	0.0153279
776.409	0.0154654
776.487	0.0157389
776.565	0.0162329
776.643	0.0162753
776.721	0.0165015
776.799	0.0167951
776.878	0.0169131
776.956	0.0169643
777.034	0.0169909
777.112	0.0171112
777.190	0.0168671
777.268	0.0168529
777.346	0.0166031
777.424	0.0163668
777.503	0.0161468
777.581	0.0159724
777.659	0.0158612
777.737	0.0155693
777.815	0.0153520
777.893	0.0152172
777.971	0.0150644
778.049	0.0150571
778.128	0.0149339
778.206	0.0148057
778.284	0.0149136
778.362	0.0148744
778.440	0.0148722
778.518	0.0148125
778.596	0.0150072
778.674	0.0150616
778.753	0.0151269
778.831	0.0150799
778.909	0.0150785
778.987	0.0152642
779.065	0.0153396
779.143	0.0153623
779.221	0.0155046
779.299	0.0155495
779.378	0.0156004
779.456	0.0158647
779.534	0.0158408
779.612	0.0158981
779.690	0.0159710
779.768	0.0159970
779.846	0.0160213
779.924	0.0159051
780.003	0.0159214
780.081	0.0159253
780.159	0.0155546
780.237	0.0154853
780.315	0.0154258
780.393	0.0153798
780.471	0.0152993
780.549	0.0151862
780.628	0.0150628
780.706	0.0147636
780.784	0.0147256
780.862	0.0148901
780.940	0.0147124
781.018	0.0146085
781.096	0.0145008
781.174	0.0144431
781.253	0.0143731
781.331	0.0144851
781.409	0.0143781
781.487	0.0143209
781.565	0.0143722
781.643	0.0143053
781.721	0.0143322
781.799	0.0142862
781.878	0.0143988
781.956	0.0145862
782.034	0.0146547
782.112	0.0147699
782.190	0.0151119
782.268	0.0152678
782.346	0.0152727
782.424	0.0155261
782.503	0.0158633
782.581	0.0161148
782.659	0.0163721
782.737	0.0164503
782.815	0.0165637
782.893	0.0166710
782.971	0.0167873
783.049	0.0168981
783.128	0.0167916
783.206	0.0167496
783.284	0.0166108
783.362	0.0164556
783.440	0.0163764
783.518	0.0162580
783.596	0.0160661
783.674	0.0159332
783.753	0.0157316
783.831	0.0155395
783.909	0.0155132
783.987	0.0151463
784.065	0.0152592
784.143	0.0150506
784.221	0.0149557
784.299	0.0149955
784.378	0.0148438
784.456	0.0147992
784.534	0.0148518
784.612	0.0149463
784.690	0.0149677
784.768	0.0148393
784.846	0.0148599
784.924	0.0149094
785.003	0.0151200
785.081	0.0150985
785.159	0.0150536
785.237	0.0153383
785.315	0.0153024
785.393	0.0154569
785.471	0.0155315
785.549	0.0155875
785.628	0.0156960
785.706	0.0157732
785.784	0.0158040
785.862	0.0157674
785.940	0.0159924
786.018	0.0157613
786.096	0.0157943
786.174	0.0157928
786.253	0.0156041
786.331	0.0156065
786.409	0.0155161
786.487	0.0154179
786.565	0.0154227
786.643	0.0154320
786.721	0.0154870
786.799	0.0153539
786.878	0.0153398
786.956	0.0152330
787.034	0.0151662
787.112	0.0151374
787.190	0.0151513
787.268	0.0150340
787.346	0.0149303
787.424	0.0149149
787.503	0.0148070
787.581	0.0147935
787.659	0.0147524
787.737	0.0147379
787.815	0.0146671
787.893	0.0146834
787.971	0.0147882
788.049	0.0147416
788.128	0.0147917
788.206	0.0148218
788.284	0.0150429
788.362	0.0152660
788.440	0.0152231
788.518	0.0154261
788.596	0.0155215
788.674	0.0158546
788.753	0.0159058
788.831	0.0159898
788.909	0.0159192
788.987	0.0163371
789.065	0.0161189
789.143	0.0162518
789.221	0.0163409
789.299	0.0162185
789.378	0.0160438
789.456	0.0161234
789.534	0.0162073
789.612	0.0159233
789.690	0.0158118
789.768	0.0157779
789.846	0.0155724
789.924	0.0154160
790.003	0.0151730
790.081	0.0150355
790.159	0.0151753
790.237	0.0150686
790.315	0.0149313
790.393	0.0150374
790.471	0.0150409
790.549	0.0149033
790.628	0.0151340
790.706	0.0151408
790.784	0.0151740
790.862	0.0152142
790.940	0.0154189
791.018	0.0154323
791.096	0.0154758
791.174	0.0157140
791.253	0.0156186
791.331	0.0157022
791.409	0.0157899
791.487	0.0159068
791.565	0.0157587
791.643	0.0157723
791.721	0.0156718
791.799	0.0156036
791.878	0.0157169
791.956	0.0156052
792.034	0.0156751
792.112	0.0155717
792.190	0.0156081
792.268	0.0155399
792.346	0.0154918
792.424	0.0153850
792.503	0.0153860
792.581	0.0152841
792.659	0.0152551
792.737	0.0151582
792.815	0.0152683
792.893	0.0154121
792.971	0.0154041
793.049	0.0151911
793.128	0.0153065
793.206	0.0151941
793.284	0.0150796
793.362	0.0150963
793.440	0.0149969
793.518	0.0149864
793.596	0.0149255
793.674	0.0148131
793.753	0.0147362
793.831	0.0147343
793.909	0.0146939
793.987	0.0147504
794.065	0.0148779
794.143	0.0148459
794.221	0.0149652
794.299	0.0150600
794.378	0.0150854
794.456	0.0153197
794.534	0.0154398
794.612	0.0155296
794.690	0.0155845
794.768	0.0156655
794.846	0.0158808
794.924	0.0159302
795.003	0.0158757
795.081	0.0161440
795.159	0.0160864
795.237	0.0159966
795.315	0.0161201
795.393	0.0159979
795.471	0.0159996
795.549	0.0159994
795.628	0.0159338
795.706	0.0157959
795.784	0.0157300
795.862	0.0156621
795.940	0.0155721
796.018	0.0154540
796.096	0.0155243
796.174	0.0154853
796.253	0.0154616
796.331	0.0154132
796.409	0.0151859
796.487	0.0151985
796.565	0.0152605
796.643	0.0151501
796.721	0.0151134
796.799	0.0151341
796.878	0.0151244
796.956	0.0153075
797.034	0.0150175
797.112	0.0152036
797.190	0.0151363
797.268	0.0151242
797.346	0.0150388
797.424	0.0152111
797.503	0.0152484
797.581	0.0152444
797.659	0.0153010
797.737	0.0151041
797.815	0.0153678
797.893	0.0153886
797.971	0.0153762
798.049	0.0152817
798.128	0.0154996
798.206	0.0155815
798.284	0.0154890
798.362	0.0155547
798.440	0.0156030
798.518	0.0155489
798.596	0.0155054
798.674	0.0156891
798.753	0.0156126
798.831	0.0154711
798.909	0.0155003
798.987	0.0155299
799.065	0.0154852
799.143	0.0153425
799.221	0.0152673
799.299	0.0154343
799.378	0.0153553
799.456	0.0152791
799.534	0.0152328
799.612	0.0152075
799.690	0.0152430
799.768	0.0151986
799.846	0.0151889
799.924	0.0151187
800.003	0.0151284
800.081	0.0152271
800.159	0.0152634
800.237	0.0153497
800.315	0.0153426
800.393	0.0152751
800.471	0.0152818
800.549	0.0152090
800.628	0.0151638
800.706	0.0153308
800.784	0.0152788
800.862	0.0153120
800.940	0.0153714
801.018	0.0153613
801.096	0.0152742
801.174	0.0152644
801.253	0.0154082
801.331	0.0153448
801.409	0.0153493
801.487	0.0154409
801.565	0.0154699
801.643	0.0155022
801.721	0.0155916
801.799	0.0158250
801.878	0.0156853
801.956	0.0157236
802.034	0.0158044
802.112	0.0159275
802.190	0.0158279
802.268	0.0156364
802.346	0.0157066
802.424	0.0156400
802.503	0.0155674
802.581	0.0155179
802.659	0.0156023
802.737	0.0155132
802.815	0.0153252
802.893	0.0152959
802.971	0.0152283
803.049	0.0152048
803.128	0.0152356
803.206	0.0152458
803.284	0.0151888
803.362	0.0153163
803.440	0.0153174
803.518	0.0153818
803.596	0.0152393
803.674	0.0154208
803.753	0.0153849
803.831	0.0155570
803.909	0.0155299
803.987	0.0155173
804.065	0.0156654
804.143	0.0155168
804.221	0.0154678
804.299	0.0153973
804.378	0.0154567
804.456	0.0154299
804.534	0.0152599
804.612	0.0151878
804.690	0.0151705
804.768	0.0152014
804.846	0.0152273
804.924	0.0152589
805.003	0.0150007
805.081	0.0150659
805.159	0.0149658
805.237	0.0150037
805.315	0.0151416
805.393	0.0150465
805.471	0.0152083
805.549	0.0152280
805.628	0.0152614
805.706	0.0152865
805.784	0.0153033
805.862	0.0153138
805.940	0.0153721
806.018	0.0152719
806.096	0.0155455
806.174	0.0153756
806.253	0.0153455
806.331	0.0153514
806.409	0.0154423
806.487	0.0154553
806.565	0.0154509
806.643	0.0154157
806.721	0.0155748
806.799	0.0154443
806.878	0.0155614
806.956	0.0154732
807.034	0.0153494
807.112	0.0154759
807.190	0.0154391
807.268	0.0153870
807.346	0.0155511
807.424	0.0156100
807.503	0.0155649
807.581	0.0155688
807.659	0.0156074
807.737	0.0155573
807.815	0.0155733
807.893	0.0155494
807.971	0.0155478
808.049	0.0156178
808.128	0.0155791
808.206	0.0154068
808.284	0.0155167
808.362	0.0154002
808.440	0.0152261
808.518	0.0152590
808.596	0.0152299
808.674	0.0151757
808.753	0.0152277
808.831	0.0151239
808.909	0.0150513
808.987	0.0148600
809.065	0.0151555
809.143	0.0152838
809.221	0.0151718
809.299	0.0152135
809.378	0.0152953
809.456	0.0152705
809.534	0.0154088
809.612	0.0153187
809.690	0.0155051
809.768	0.0154729
809.846	0.0155663
809.924	0.0155772
810.003	0.0156253
810.081	0.0156576
810.159	0.0156509
810.237	0.0154993
810.315	0.0155300
810.393	0.0155593
810.471	0.0154575
810.549	0.0153983
810.628	0.0156017
810.706	0.0154843
810.784	0.0154475
810.862	0.0153822
810.940	0.0154385
811.018	0.0154338
811.096	0.0155426
811.174	0.0154234
811.253	0.0154144
811.331	0.0154346
811.409	0.0154665
811.487	0.0153259
811.565	0.0153374
811.643	0.0153211
811.721	0.0152749
811.799	0.0152276
811.878	0.0152391
811.956	0.0152139
812.034	0.0151306
812.112	0.0150391
812.190	0.0150547
812.268	0.0149842
812.346	0.0149461
812.424	0.0149218
812.503	0.0150691
812.581	0.0151982
812.659	0.0148707
812.737	0.0150833
812.815	0.0150537
812.893	0.0152321
812.971	0.0153164
813.049	0.0152553
813.128	0.0152589
813.206	0.0153304
813.284	0.0154643
813.362	0.0154803
813.440	0.0154823
813.518	0.0156467
813.596	0.0156071
813.674	0.0157512
813.753	0.0158776
813.831	0.0157120
813.909	0.0157151
813.987	0.0157343
814.065	0.0158979
814.143	0.0157069
814.221	0.0157939
814.299	0.0157893
814.378	0.0156955
814.456	0.0157559
814.534	0.0155400
814.612	0.0155123
814.690	0.0156115
814.768	0.0155122
814.846	0.0154639
814.924	0.0155306
815.003	0.0154686
815.081	0.0155986
815.159	0.0154327
815.237	0.0153684
815.315	0.0154347
815.393	0.0154734
815.471	0.0153414
815.549	0.0154790
815.628	0.0153693
815.706	0.0153045
815.784	0.0153661
815.862	0.0153369
815.940	0.0154229
816.018	0.0152132
816.096	0.0152374
816.174	0.0150443
816.253	0.0150672
816.331	0.0150426
816.409	0.0149938
816.487	0.0150524
816.565	0.0149814
816.643	0.0150979
816.721	0.0150952
816.799	0.0152121
816.878	0.0152419
816.956	0.0153501
817.034	0.0151871
817.112	0.0153681
817.190	0.0153705
817.268	0.0154854
817.346	0.0153857
817.424	0.0153836
817.503	0.0155500
817.581	0.0155608
817.659	0.0155739
817.737	0.0155219
817.815	0.0154932
817.893	0.0154079
817.971	0.0155274
818.049	0.0154911
818.128	0.0154359
818.206	0.0151463
818.284	0.0152155
818.362	0.0151832
818.440	0.0151929
818.518	0.0152506
818.596	0.0152235
818.674	0.0152003
818.753	0.0152109
818.831	0.0151070
818.909	0.0152270
818.987	0.0152486
819.065	0.0153883
819.143	0.0155299
819.221	0.0155894
819.299	0.0155579
819.378	0.0154014
819.456	0.0155035
819.534	0.0155236
819.612	0.0157207
819.690	0.0156059
819.768	0.0154904
819.846	0.0156063
819.924	0.0155614
820.003	0.0154134
820.081	0.0154030
820.159	0.0153992
820.237	0.0153824
820.315	0.0154865
820.393	0.0153986
820.471	0.0152742
820.549	0.0153622
820.628	0.0153664
820.706	0.0153429
820.784	0.0154021
820.862	0.0153247
820.940	0.0154776
821.018	0.0154391
821.096	0.0154166
821.174	0.0154496
821.253	0.0154726
821.331	0.0155571
821.409	0.0156252
821.487	0.0155796
821.565	0.0154926
821.643	0.0154532
821.721	0.0154391
821.799	0.0154564
821.878	0.0153654
821.956	0.0153590
822.034	0.0153719
822.112	0.0152276
822.190	0.0152243
822.268	0.0151753
822.346	0.0151788
822.424	0.0152917
822.503	0.0152084
822.581	0.0152267
822.659	0.0154195
822.737	0.0154148
822.815	0.0154340
822.893	0.0155727
822.971	0.0154694
823.049	0.0154491
823.128	0.0156469
823.206	0.0155511
823.284	0.0156114
823.362	0.0156870
823.440	0.0156487
823.518	0.0157091
823.596	0.0156572
823.674	0.0155065
823.753	0.0155562
823.831	0.0154366
823.909	0.0153274
823.987	0.0154646
824.065	0.0153641
824.143	0.0153922
824.221	0.0152879
824.299	0.0152390
824.378	0.0151362
824.456	0.0152423
824.534	0.0150681
824.612	0.0150674
824.690	0.0150009
824.768	0.0150668
824.846	0.0150968
824.924	0.0150742
825.003	0.0151679
825.081	0.0149747
825.159	0.0150965
825.237	0.0151437
825.315	0.0153351
825.393	0.0151694
825.471	0.0152081
825.549	0.0152895
825.628	0.0152054
825.706	0.0153885
825.784	0.0152499
825.862	0.0153827
825.940	0.0153689
826.018	0.0153294
826.096	0.0154016
826.174	0.0154825
826.253	0.0155158
826.331	0.0155708
826.409	0.0154609
826.487	0.0154390
826.565	0.0153491
826.643	0.0156495
826.721	0.0157003
826.799	0.0157406
826.878	0.0157126
826.956	0.0158465
827.034	0.0158284
827.112	0.0157757
827.190	0.0158471
827.268	0.0158966
827.346	0.0159131
827.424	0.0158189
827.503	0.0158039
827.581	0.0157458
827.659	0.0156144
827.737	0.0156092
827.815	0.0156373
827.893	0.0154833
827.971	0.0154050
828.049	0.0152347
828.128	0.0152513
828.206	0.0151630
828.284	0.0150601
828.362	0.0150007
828.440	0.0149940
828.518	0.0148816
828.596	0.0148868
828.674	0.0149409
828.753	0.0147423
828.831	0.0149490
828.909	0.0150761
828.987	0.0149106
829.065	0.0149225
829.143	0.0151278
829.221	0.0152024
829.299	0.0152573
829.378	0.0152668
829.456	0.0151842
829.534	0.0152522
829.612	0.0152477
829.690	0.0154388
829.768	0.0155146
829.846	0.0153333
829.924	0.0155634
830.003	0.0154614
830.081	0.0155401
830.159	0.0156328
830.237	0.0157668
830.315	0.0155008
830.393	0.0157896
830.471	0.0157549
830.549	0.0157417
830.628	0.0158031
830.706	0.0156606
830.784	0.0154988
830.862	0.0155154
830.940	0.0155065
831.018	0.0155497
831.096	0.0153475
831.174	0.0153675
831.253	0.0153303
831.331	0.0151234
831.409	0.0152621
831.487	0.0152216
831.565	0.0149862
831.643	0.0151250
831.721	0.0150510
831.799	0.0150961
831.878	0.0151171
831.956	0.0151165
832.034	0.0150598
832.112	0.0149826
832.190	0.0151404
832.268	0.0152835
832.346	0.0151469
832.424	0.0150546
832.503	0.0152088
832.581	0.0151868
832.659	0.0150964
832.737	0.0153359
832.815	0.0153674
832.893	0.0151553
832.971	0.0151212
833.049	0.0152750
833.128	0.0152776
833.206	0.0152273
833.284	0.0154651
833.362	0.0153411
833.440	0.0153167
833.518	0.0153934
833.596	0.0154829
833.674	0.0154797
833.753	0.0155758
833.831	0.0156329
833.909	0.0154598
833.987	0.0156409
834.065	0.0158231
834.143	0.0157471
834.221	0.0157993
834.299	0.0156774
834.378	0.0159131
834.456	0.0158079
834.534	0.0157774
834.612	0.0159390
834.690	0.0158043
834.768	0.0159026
834.846	0.0157596
834.924	0.0157961
835.003	0.0156514
835.081	0.0156425
835.159	0.0154926
835.237	0.0154153
835.315	0.0155442
835.393	0.0154159
835.471	0.0154832
835.549	0.0152982
835.628	0.0153458
835.706	0.0151719
835.784	0.0152251
835.862	0.0150463
835.940	0.0151610
836.018	0.0150583
836.096	0.0150069
836.174	0.0150801
836.253	0.0151016
836.331	0.0150707
836.409	0.0149673
836.487	0.0149503
836.565	0.0149939
836.643	0.0149568
836.721	0.0149094
836.799	0.0149976
836.878	0.0149055
836.956	0.0150883
837.034	0.0149982
837.112	0.0149922
837.190	0.0150521
837.268	0.0150758
837.346	0.0152024
837.424	0.0151786
837.503	0.0152044
837.581	0.0153474
837.659	0.0152332
837.737	0.0153002
837.815	0.0151758
837.893	0.0153319
837.971	0.0154426
838.049	0.0154076
838.128	0.0154837
838.206	0.0155173
838.284	0.0156349
838.362	0.0157452
838.440	0.0156368
838.518	0.0155159
838.596	0.0156544
838.674	0.0156736
838.753	0.0157024
838.831	0.0157213
838.909	0.0157899
838.987	0.0158001
839.065	0.0158064
839.143	0.0157677
839.221	0.0156564
839.299	0.0156431
839.378	0.0157279
839.456	0.0156744
839.534	0.0157224
839.612	0.0156197
839.690	0.0156479
839.768	0.0155526
839.846	0.0154077
839.924	0.0153161
840.003	0.0152769
840.081	0.0153804
840.159	0.0152747
840.237	0.0153880
840.315	0.0153211
840.393	0.0153320
840.471	0.0154599
840.549	0.0153860
840.628	0.0153493
840.706	0.0155397
840.784	0.0155352
840.862	0.0153477
840.940	0.0155013
841.018	0.0155109
841.096	0.0155446
841.174	0.0153629
841.253	0.0155778
841.331	0.0154980
841.409	0.0153517
841.487	0.0154197
841.565	0.0153626
841.643	0.0154047
841.721	0.0152316
841.799	0.0152523
841.878	0.0152874
841.956	0.0150913
842.034	0.0151008
842.112	0.0150307
842.190	0.0150014
842.268	0.0151047
842.346	0.0149294
842.424	0.0149275
842.503	0.0148947
842.581	0.0150073
842.659	0.0149255
842.737	0.0149755
842.815	0.0149525
842.893	0.0149094
842.971	0.0150483
843.049	0.0150617
843.128	0.0151455
843.206	0.0150558
843.284	0.0149917
843.362	0.0149653
843.440	0.0150829
843.518	0.0153059
843.596	0.0152843
843.674	0.0154436
843.753	0.0154070
843.831	0.0154621
843.909	0.0155698
843.987	0.0155489
844.065	0.0156730
844.143	0.0157742
844.221	0.0158373
844.299	0.0157398
844.378	0.0156828
844.456	0.0157434
844.534	0.0158868
844.612	0.0158471
844.690	0.0159173
844.768	0.0159292
844.846	0.0158765
844.924	0.0158176
845.003	0.0158105
845.081	0.0158228
845.159	0.0157562
845.237	0.0156355
845.315	0.0155917
845.393	0.0156518
845.471	0.0157190
845.549	0.0154082
845.628	0.0155334
845.706	0.0154940
845.784	0.0154812
845.862	0.0152981
845.940	0.0155089
846.018	0.0154591
846.096	0.0154378
846.174	0.0152202
846.253	0.0153399
846.331	0.0154297
846.409	0.0154641
846.487	0.0154758
846.565	0.0154005
846.643	0.0153416
846.721	0.0154510
846.799	0.0154263
846.878	0.0154726
846.956	0.0153692
847.034	0.0155928
847.112	0.0155628
847.190	0.0153310
847.268	0.0153674
847.346	0.0153575
847.424	0.0153963
847.503	0.0152670
847.581	0.0152618
847.659	0.0152934
847.737	0.0152094
847.815	0.0152348
847.893	0.0151245
847.971	0.0151158
848.049	0.0151612
848.128	0.0150143
848.206	0.0151904
848.284	0.0150375
848.362	0.0150174
848.440	0.0150320
848.518	0.0151163
848.596	0.0151685
848.674	0.0150831
848.753	0.0148684
848.831	0.0151208
848.909	0.0150305
848.987	0.0151064
849.065	0.0151501
849.143	0.0150672
849.221	0.0150866
849.299	0.0152377
849.378	0.0152426
849.456	0.0153419
849.534	0.0154253
849.612	0.0154363
849.690	0.0154135
849.768	0.0153946
849.846	0.0157188
849.924	0.0156042
850.003	0.0157093
850.081	0.0157152
850.159	0.0156716
850.237	0.0158147
850.315	0.0157860
850.393	0.0157993
850.471	0.0157638
850.549	0.0158501
850.628	0.0157157
850.706	0.0157322
850.784	0.0158131
850.862	0.0156370
850.940	0.0155834
851.018	0.0155691
851.096	0.0156628
851.174	0.0155825
851.253	0.0156228
851.331	0.0156113
851.409	0.0153565
851.487	0.0153776
851.565	0.0154047
851.643	0.0153548
851.721	0.0151976
851.799	0.0153191
851.878	0.0154226
851.956	0.0152177
852.034	0.0152519
852.112	0.0151737
852.190	0.0152061
852.268	0.0152899
852.346	0.0151665
852.424	0.0153366
852.503	0.0152323
852.581	0.0154220
852.659	0.0152653
852.737	0.0154346
852.815	0.0153329
852.893	0.0152945
852.971	0.0153632
853.049	0.0153939
853.128	0.0152888
853.206	0.0153291
853.284	0.0153558
853.362	0.0153255
853.440	0.0151614
853.518	0.0151443
853.596	0.0152988
853.674	0.0152534
853.753	0.0152977
853.831	0.0151185
853.909	0.0152141
853.987	0.0151911
854.065	0.0152648
854.143	0.0153214
854.221	0.0152571
854.299	0.0152225
854.378	0.0151968
854.456	0.0152728
854.534	0.0152622
854.612	0.0153429
854.690	0.0153011
854.768	0.0152979
854.846	0.0153143
854.924	0.0152656
855.003	0.0153004
855.081	0.0153865
855.159	0.0152429
855.237	0.0153047
855.315	0.0152746
855.393	0.0153351
855.471	0.0154139
855.549	0.0155333
855.628	0.0154206
855.706	0.0155125
855.784	0.0155414
855.862	0.0154103
855.940	0.0156210
856.018	0.0155153
856.096	0.0155119
856.174	0.0156222
856.253	0.0156668
856.331	0.0155042
856.409	0.0156197
856.487	0.0155652
856.565	0.0157310
856.643	0.0156120
856.721	0.0157069
856.799	0.0158494
856.878	0.0156026
856.956	0.0155646
857.034	0.0157722
857.112	0.0156886
857.190	0.0156992
857.268	0.0156446
857.346	0.0155249
857.424	0.0156252
857.503	0.0154282
857.581	0.0153591
857.659	0.0154301
857.737	0.0152641
857.815	0.0153264
857.893	0.0152967
857.971	0.0151891
858.049	0.0152119
858.128	0.0151854
858.206	0.0152734
858.284	0.0152457
858.362	0.0152143
858.440	0.0152783
858.518	0.0152106
858.596	0.0151003
858.674	0.0151279
858.753	0.0151859
858.831	0.0153003
858.909	0.0151594
858.987	0.0152587
859.065	0.0153202
859.143	0.0152427
859.221	0.0152439
859.299	0.0152361
859.378	0.0152113
859.456	0.0152608
859.534	0.0151081
859.612	0.0151412
859.690	0.0151073
859.768	0.0151225
859.846	0.0151049
859.924	0.0149641
860.003	0.0151276
860.081	0.0152303
860.159	0.0152157
860.237	0.0152001
860.315	0.0151904
860.393	0.0152688
860.471	0.0154289
860.549	0.0153619
860.628	0.0153733
860.706	0.0152826
860.784	0.0154713
860.862	0.0154411
860.940	0.0154143
861.018	0.0154066
861.096	0.0155556
861.174	0.0155325
861.253	0.0155875
861.331	0.0155926
861.409	0.0155014
861.487	0.0157111
861.565	0.0157139
861.643	0.0156496
861.721	0.0156734
861.799	0.0156255
861.878	0.0156490
861.956	0.0157245
862.034	0.0157151
862.112	0.0157424
862.190	0.0157393
862.268	0.0157481
862.346	0.0156926
862.424	0.0156277
862.503	0.0156948
862.581	0.0155903
862.659	0.0154897
862.737	0.0155090
862.815	0.0156342
862.893	0.0155888
862.971	0.0153534
863.049	0.0154321
863.128	0.0153269
863.206	0.0154262
863.284	0.0153519
863.362	0.0152776
863.440	0.0153636
863.518	0.0154110
863.596	0.0153857
863.674	0.0152592
863.753	0.0152792
863.831	0.0151579
863.909	0.0152658
863.987	0.0152576
864.065	0.0150893
864.143	0.0151296
864.221	0.0150739
864.299	0.0152811
864.378	0.0152379
864.456	0.0151553
864.534	0.0152325
864.612	0.0152100
864.690	0.0151814
864.768	0.0152656
864.846	0.0152459
864.924	0.0151411
865.003	0.0151160
865.081	0.0152489
865.159	0.0152808
865.237	0.0151663
865.315	0.0152145
865.393	0.0153058
865.471	0.0152840
865.549	0.0152020
865.628	0.0154309
865.706	0.0152996
865.784	0.0152417
865.862	0.0154598
865.940	0.0154778
866.018	0.0153076
866.096	0.0153822
866.174	0.0154122
866.253	0.0154781
866.331	0.0152103
866.409	0.0152868
866.487	0.0153613
866.565	0.0153814
866.643	0.0153992
866.721	0.0154180
866.799	0.0153271
866.878	0.0153407
866.956	0.0153732
867.034	0.0153515
867.112	0.0154619
867.190	0.0154738
867.268	0.0154012
867.346	0.0155574
867.424	0.0155317
867.503	0.0155945
867.581	0.0156252
867.659	0.0154892
867.737	0.0156728
867.815	0.0157845
867.893	0.0157033
867.971	0.0158318
868.049	0.0155521
868.128	0.0155351
868.206	0.0156422
868.284	0.0156342
868.362	0.0156010
868.440	0.0154243
868.518	0.0155463
868.596	0.0154784
868.674	0.0154636
868.753	0.0155198
868.831	0.0155302
868.909	0.0157146
868.987	0.0154277
869.065	0.0153916
869.143	0.0154417
869.221	0.0154536
869.299	0.0153484
869.378	0.0153981
869.456	0.0154733
869.534	0.0152980
869.612	0.0153257
869.690	0.0154420
869.768	0.0152817
869.846	0.0152515
869.924	0.0152642
870.003	0.0153932
870.081	0.0152455
870.159	0.0152384
870.237	0.0151707
870.315	0.0152873
870.393	0.0152328
870.471	0.0151965
870.549	0.0152607
870.628	0.0153331
870.706	0.0152890
870.784	0.0152520
870.862	0.0151773
870.940	0.0154214
871.018	0.0152589
871.096	0.0154050
871.174	0.0153272
871.253	0.0153022
871.331	0.0152291
871.409	0.0152469
871.487	0.0152149
871.565	0.0152850
871.643	0.0154025
871.721	0.0153038
871.799	0.0153253
871.878	0.0154045
871.956	0.0153358
872.034	0.0153577
872.112	0.0153382
872.190	0.0153585
872.268	0.0154716
872.346	0.0153789
872.424	0.0153325
872.503	0.0153119
872.581	0.0152775
872.659	0.0154241
872.737	0.0152516
872.815	0.0153639
872.893	0.0153702
872.971	0.0154195
873.049	0.0153470
873.128	0.0153732
873.206	0.0155125
873.284	0.0153611
873.362	0.0154910
873.440	0.0156342
873.518	0.0156120
873.596	0.0154582
873.674	0.0155320
873.753	0.0155453
873.831	0.0155671
873.909	0.0155579
873.987	0.0156538
874.065	0.0154870
874.143	0.0154464
874.221	0.0155244
874.299	0.0155480
874.378	0.0155445
874.456	0.0155652
874.534	0.0155529
874.612	0.0154734
874.690	0.0152753
874.768	0.0154440
874.846	0.0155563
874.924	0.0154234
875.003	0.0153558
875.081	0.0154813
875.159	0.0153696
875.237	0.0152564
875.315	0.0153730
875.393	0.0153584
875.471	0.0153664
875.549	0.0153602
875.628	0.0153479
875.706	0.0154095
875.784	0.0151898
875.862	0.0153438
875.940	0.0151659
876.018	0.0153928
876.096	0.0153994
876.174	0.0151966
876.253	0.0152607
876.331	0.0153514
876.409	0.0153680
876.487	0.0153420
876.565	0.0153189
876.643	0.0153596
876.721	0.0153877
876.799	0.0153586
876.878	0.0153797
876.956	0.0152280
877.034	0.0153416
877.112	0.0152490
877.190	0.0153434
877.268	0.0151540
877.346	0.0151730
877.424	0.0152287
877.503	0.0153883
877.581	0.0152511
877.659	0.0151730
877.737	0.0151849
877.815	0.0153132
877.893	0.0154059
877.971	0.0152730
878.049	0.0152534
878.128	0.0153035
878.206	0.0152520
878.284	0.0153698
878.362	0.0154527
878.440	0.0153450
878.518	0.0152815
878.596	0.0153802
878.674	0.0154108
878.753	0.0152872
878.831	0.0153860
878.909	0.0153840
878.987	0.0153964
879.065	0.0152818
879.143	0.0154354
879.221	0.0153423
879.299	0.0153847
879.378	0.0153197
879.456	0.0154698
879.534	0.0154004
879.612	0.0154375
879.690	0.0155891
879.768	0.0153864
879.846	0.0154549
879.924	0.0155376
880.003	0.0154294
880.081	0.0152923
880.159	0.0153665
880.237	0.0155080
880.315	0.0154962
880.393	0.0154118
880.471	0.0154578
880.549	0.0154370
880.628	0.0155344
880.706	0.0154384
880.784	0.0154397
880.862	0.0154615
880.940	0.0154232
881.018	0.0154497
881.096	0.0155063
881.174	0.0152886
881.253	0.0153276
881.331	0.0153841
881.409	0.0152955
881.487	0.0152979
881.565	0.0154839
881.643	0.0154484
881.721	0.0151701
881.799	0.0153666
881.878	0.0155166
881.956	0.0153342
882.034	0.0154414
882.112	0.0152193
882.190	0.0153378
882.268	0.0153280
882.346	0.0154220
882.424	0.0153018
882.503	0.0152377
882.581	0.0151739
882.659	0.0152975
882.737	0.0152201
882.815	0.0152699
882.893	0.0152922
882.971	0.0154527
883.049	0.0154155
883.128	0.0154327
883.206	0.0153648
883.284	0.0152201
883.362	0.0153671
883.440	0.0151936
883.518	0.0154433
883.596	0.0152383
883.674	0.0153151
883.753	0.0154476
883.831	0.0154768
883.909	0.0153766
883.987	0.0154200
884.065	0.0154066
884.143	0.0154742
884.221	0.0154499
884.299	0.0154179
884.378	0.0152442
884.456	0.0153577
884.534	0.0153368
884.612	0.0154131
884.690	0.0153669
884.768	0.0153997
884.846	0.0154234
884.924	0.0154083
885.003	0.0155052
885.081	0.0155213
885.159	0.0155025
885.237	0.0155527
885.315	0.0154126
885.393	0.0154107
885.471	0.0154194
885.549	0.0155311
885.628	0.0156024
885.706	0.0154518
885.784	0.0153681
885.862	0.0156018
885.940	0.0153043
886.018	0.0153462
886.096	0.0154180
886.174	0.0153676
886.253	0.0154482
886.331	0.0154004
886.409	0.0153514
886.487	0.0155584
886.565	0.0155186
886.643	0.0154323
886.721	0.0154591
886.799	0.0154887
886.878	0.0155584
886.956	0.0154998
887.034	0.0156573
887.112	0.0155742
887.190	0.0153374
887.268	0.0153526
887.346	0.0154692
887.424	0.0154879
887.503	0.0153773
887.581	0.0153442
887.659	0.0152216
887.737	0.0153999
887.815	0.0155093
887.893	0.0154062
887.971	0.0153492
888.049	0.0153569
888.128	0.0153989
888.206	0.0153111
888.284	0.0153848
888.362	0.0153471
888.440	0.0152616
888.518	0.0152966
888.596	0.0154107
888.674	0.0154869
888.753	0.0154918
888.831	0.0154747
888.909	0.0153510
888.987	0.0153561
889.065	0.0154327
889.143	0.0155740
889.221	0.0153967
889.299	0.0155335
889.378	0.0154861
889.456	0.0153765
889.534	0.0152522
889.612	0.0153542
889.690	0.0154950
889.768	0.0155108
889.846	0.0154646
889.924	0.0152854
890.003	0.0154420
890.081	0.0154657
890.159	0.0155054
890.237	0.0154746
890.315	0.0154531
890.393	0.0154488
890.471	0.0152858
890.549	0.0154172
890.628	0.0152838
890.706	0.0152901
890.784	0.0153985
890.862	0.0153694
890.940	0.0152683
891.018	0.0154678
891.096	0.0154217
891.174	0.0154398
891.253	0.0154761
891.331	0.0154308
891.409	0.0155690
891.487	0.0154749
891.565	0.0155418
891.643	0.0155302
891.721	0.0155553
891.799	0.0156709
891.878	0.0154817
891.956	0.0154369
892.034	0.0155556
892.112	0.0155550
892.190	0.0156037
892.268	0.0155968
892.346	0.0156010
892.424	0.0155848
892.503	0.0156631
892.581	0.0155738
892.659	0.0155157
892.737	0.0156082
892.815	0.0155170
892.893	0.0154613
892.971	0.0154359
893.049	0.0154794
893.128	0.0153667
893.206	0.0152386
893.284	0.0152560
893.362	0.0154082
893.440	0.0152745
893.518	0.0153649
893.596	0.0154590
893.674	0.0155214
893.753	0.0153440
893.831	0.0153793
893.909	0.0154665
893.987	0.0153186
894.065	0.0154407
894.143	0.0152773
894.221	0.0154435
894.299	0.0152937
894.378	0.0154571
894.456	0.0153799
894.534	0.0152560
894.612	0.0152641
894.690	0.0152537
894.768	0.0153175
894.846	0.0154737
894.924	0.0152845
895.003	0.0151945
895.081	0.0153782
895.159	0.0153249
895.237	0.0152195
895.315	0.0154493
895.393	0.0152005
895.471	0.0152222
895.549	0.0153298
895.628	0.0153294
895.706	0.0152421
895.784	0.0153035
895.862	0.0151865
895.940	0.0152814
896.018	0.0153548
896.096	0.0152978
896.174	0.0153586
896.253	0.0153209
896.331	0.0152922
896.409	0.0153356
896.487	0.0152805
896.565	0.0153896
896.643	0.0152997
896.721	0.0151920
896.799	0.0154343
896.878	0.0155309
896.956	0.0153957
897.034	0.0155202
897.112	0.0153799
897.190	0.0154831
897.268	0.0154922
897.346	0.0154038
897.424	0.0154005
897.503	0.0154162
897.581	0.0155537
897.659	0.0155370
897.737	0.0154791
897.815	0.0154762
897.893	0.0155598
897.971	0.0155817
898.049	0.0154301
898.128	0.0156777
898.206	0.0155295
898.284	0.0155483
898.362	0.0155127
898.440	0.0155560
898.518	0.0155254
898.596	0.0154412
898.674	0.0154684
898.753	0.0154997
898.831	0.0155610
898.909	0.0154878
898.987	0.0153845
899.065	0.0154039
899.143	0.0155404
899.221	0.0154856
899.299	0.0153647
899.378	0.0153953
899.456	0.0153059
899.534	0.0152945
899.612	0.0153532
899.690	0.0154757
899.768	0.0153844
899.846	0.0153285
899.924	0.0153282
900.003	0.0153934
900.081	0.0154295
900.159	0.0153224
900.237	0.0152901
900.315	0.0154319
900.393	0.0154702
900.471	0.0153125
900.549	0.0154305
900.628	0.0154677
900.706	0.0154412
900.784	0.0153708
900.862	0.0154391
900.940	0.0153908
901.018	0.0152088
901.096	0.0153631
901.174	0.0153415
901.253	0.0153955
901.331	0.0153803
901.409	0.0152976
901.487	0.0152531
901.565	0.0153362
901.643	0.0152854
901.721	0.0151958
901.799	0.0151072
901.878	0.0150287
901.956	0.0150584
902.034	0.0151646
902.112	0.0151433
902.190	0.0150977
902.268	0.0150360
902.346	0.0152146
902.424	0.0152991
902.503	0.0150695
902.581	0.0152416
902.659	0.0152840
902.737	0.0154005
902.815	0.0154658
902.893	0.0154797
902.971	0.0153310
903.049	0.0154134
903.128	0.0155049
903.206	0.0155012
903.284	0.0154774
903.362	0.0154404
903.440	0.0153992
903.518	0.0154707
903.596	0.0153958
903.674	0.0154700
903.753	0.0154556
903.831	0.0154926
903.909	0.0154794
903.987	0.0154504
904.065	0.0154132
904.143	0.0156213
904.221	0.0154381
904.299	0.0156198
904.378	0.0155214
904.456	0.0156113
904.534	0.0156206
904.612	0.0155096
904.690	0.0156166
904.768	0.0154788
904.846	0.0155524
904.924	0.0154556
905.003	0.0155530
905.081	0.0155420
905.159	0.0154720
905.237	0.0154618
905.315	0.0154597
905.393	0.0154339
905.471	0.0154214
905.549	0.0154987
905.628	0.0153564
905.706	0.0153068
905.784	0.0152991
905.862	0.0153376
905.940	0.0153431
906.018	0.0152611
906.096	0.0153797
906.174	0.0153079
906.253	0.0154803
906.331	0.0153074
906.409	0.0154025
906.487	0.0155314
906.565	0.0154371
906.643	0.0154012
906.721	0.0154529
906.799	0.0153660
906.878	0.0153897
906.956	0.0153265
907.034	0.0152319
907.112	0.0152778
907.190	0.0152113
907.268	0.0153101
907.346	0.0155043
907.424	0.0152827
907.503	0.0152876
907.581	0.0152705
907.659	0.0152184
907.737	0.0153320
907.815	0.0152679
907.893	0.0152166
907.971	0.0153657
908.049	0.0154645
908.128	0.0153487
908.206	0.0151844
908.284	0.0153721
908.362	0.0155280
908.440	0.0152074
908.518	0.0153860
908.596	0.0155198
908.674	0.0155402
908.753	0.0155073
908.831	0.0154733
908.909	0.0154514
908.987	0.0155479
909.065	0.0154836
909.143	0.0154274
909.221	0.0155256
909.299	0.0154505
909.378	0.0155527
909.456	0.0154543
909.534	0.0155034
909.612	0.0155413
909.690	0.0155697
909.768	0.0154903
909.846	0.0154335
909.924	0.0156181
910.003	0.0156479
910.081	0.0152950
910.159	0.0153981
910.237	0.0155135
910.315	0.0153713
910.393	0.0154479
910.471	0.0154823
910.549	0.0153877
910.628	0.0152295
910.706	0.0153564
910.784	0.0152036
910.862	0.0152064
910.940	0.0152512
911.018	0.0153130
911.096	0.0153576
911.174	0.0152379
911.253	0.0153622
911.331	0.0154038
911.409	0.0153911
911.487	0.0154477
911.565	0.0153978
911.643	0.0153288
911.721	0.0153761
911.799	0.0155146
911.878	0.0154301
911.956	0.0154700
912.034	0.0153198
912.112	0.0153222
912.190	0.0154520
912.268	0.0153791
912.346	0.0153868
912.424	0.0154930
912.503	0.0153189
912.581	0.0154372
912.659	0.0156467
912.737	0.0155304
912.815	0.0153922
912.893	0.0154347
912.971	0.0153523
913.049	0.0153619
913.128	0.0154355
913.206	0.0154853
913.284	0.0153732
913.362	0.0152607
913.440	0.0153006
913.518	0.0154005
913.596	0.0154119
913.674	0.0153594
913.753	0.0153850
913.831	0.0153362
913.909	0.0153331
913.987	0.0154311
914.065	0.0153861
914.143	0.0152650
914.221	0.0153513
914.299	0.0153597
914.378	0.0155348
914.456	0.0154846
914.534	0.0154748
914.612	0.0154755
914.690	0.0155223
914.768	0.0154975
914.846	0.0154174
914.924	0.0156154
915.003	0.0153568
915.081	0.0154350
915.159	0.0154654
915.237	0.0153958
915.315	0.0153979
915.393	0.0153497
915.471	0.0154382
915.549	0.0154264
915.628	0.0153939
915.706	0.0153706
915.784	0.0154479
915.862	0.0153151
915.940	0.0152982
916.018	0.0154342
916.096	0.0154166
916.174	0.0153125
916.253	0.0153729
916.331	0.0153123
916.409	0.0153337
916.487	0.0153766
916.565	0.0152072
916.643	0.0154080
916.721	0.0153187
916.799	0.0153626
916.878	0.0154225
916.956	0.0152451
917.034	0.0154715
917.112	0.0153452
917.190	0.0153894
917.268	0.0153413
917.346	0.0153407
917.424	0.0154761
917.503	0.0155328
917.581	0.0154617
917.659	0.0153995
917.737	0.0153780
917.815	0.0153122
917.893	0.0153098
917.971	0.0153003
918.049	0.0155157
918.128	0.0155000
918.206	0.0153680
918.284	0.0153816
918.362	0.0153886
918.440	0.0154552
918.518	0.0154321
918.596	0.0153297
918.674	0.0152785
918.753	0.0152721
918.831	0.0153649
918.909	0.0154674
918.987	0.0152969
919.065	0.0153181
919.143	0.0153409
919.221	0.0153178
919.299	0.0153132
919.378	0.0153477
919.456	0.0154149
919.534	0.0153928
919.612	0.0153123
919.690	0.0154140
919.768	0.0153766
919.846	0.0153738
919.924	0.0153377
920.003	0.0154140
920.081	0.0155122
920.159	0.0153596
920.237	0.0152670
920.315	0.0153096
920.393	0.0155418
920.471	0.0154571
920.549	0.0154589
920.628	0.0155654
920.706	0.0156698
920.784	0.0155323
920.862	0.0155215
920.940	0.0155791
921.018	0.0155254
921.096	0.0155326
921.174	0.0155547
921.253	0.0155428
921.331	0.0155293
921.409	0.0154789
921.487	0.0155095
921.565	0.0155079
921.643	0.0154311
921.721	0.0154861
921.799	0.0154449
921.878	0.0155856
921.956	0.0155003
922.034	0.0153142
922.112	0.0154144
922.190	0.0154697
922.268	0.0153725
922.346	0.0153732
922.424	0.0154528
922.503	0.0152885
922.581	0.0152791
922.659	0.0154175
922.737	0.0154060
922.815	0.0152621
922.893	0.0152737
922.971	0.0153089
923.049	0.0151682
923.128	0.0152442
923.206	0.0153152
923.284	0.0152113
923.362	0.0151992
923.440	0.0154630
923.518	0.0151863
923.596	0.0152606
923.674	0.0153572
923.753	0.0153181
923.831	0.0153752
923.909	0.0153455
923.987	0.0153387
924.065	0.0154369
924.143	0.0153901
924.221	0.0153645
924.299	0.0155434
924.378	0.0155880
924.456	0.0154575
924.534	0.0154656
924.612	0.0154961
924.690	0.0154736
924.768	0.0155250
924.846	0.0155109
924.924	0.0154386
925.003	0.0154465
925.081	0.0154234
925.159	0.0154183
925.237	0.0154310
925.315	0.0152112
925.393	0.0153751
925.471	0.0153837
925.549	0.0154192
925.628	0.0153598
925.706	0.0153932
925.784	0.0153302
925.862	0.0152668
925.940	0.0152605
926.018	0.0153311
926.096	0.0151830
926.174	0.0152308
926.253	0.0152373
926.331	0.0152615
926.409	0.0152662
926.487	0.0153709
926.565	0.0153491
926.643	0.0154263
926.721	0.0153348
926.799	0.0154073
926.878	0.0152738
926.956	0.0154386
927.034	0.0154829
927.112	0.0154153
927.190	0.0154797
927.268	0.0153811
927.346	0.0154553
927.424	0.0154704
927.503	0.0154243
927.581	0.0152385
927.659	0.0154971
927.737	0.0155551
927.815	0.0155692
927.893	0.0155255
927.971	0.0155579
928.049	0.0155380
928.128	0.0154687
928.206	0.0155936
928.284	0.0155064
928.362	0.0154012
928.440	0.0155721
928.518	0.0154499
928.596	0.0154419
928.674	0.0156284
928.753	0.0154503
928.831	0.0154215
928.909	0.0154550
928.987	0.0155160
929.065	0.0155459
929.143	0.0154608
929.221	0.0155550
929.299	0.0155396
929.378	0.0154523
929.456	0.0154738
929.534	0.0153927
929.612	0.0153621
929.690	0.0153185
929.768	0.0154639
929.846	0.0154037
929.924	0.0154300
930.003	0.0152171
930.081	0.0153066
930.159	0.0151828
930.237	0.0153370
930.315	0.0154465
930.393	0.0152961
930.471	0.0153050
930.549	0.0154298
930.628	0.0154378
930.706	0.0154498
930.784	0.0153846
930.862	0.0153011
930.940	0.0153381
931.018	0.0153684
931.096	0.0154412
931.174	0.0152895
931.253	0.0154566
931.331	0.0153896
931.409	0.0154524
931.487	0.0154243
931.565	0.0153211
931.643	0.0153551
931.721	0.0154565
931.799	0.0153269
931.878	0.0153792
931.956	0.0153568
932.034	0.0154156
932.112	0.0153014
932.190	0.0154079
932.268	0.0153869
932.346	0.0153367
932.424	0.0153981
932.503	0.0153676
932.581	0.0152592
932.659	0.0152776
932.737	0.0152324
932.815	0.0154056
932.893	0.0154838
932.971	0.0153359
933.049	0.0154211
933.128	0.0154626
933.206	0.0156695
933.284	0.0155119
933.362	0.0155299
933.440	0.0155151
933.518	0.0154243
933.596	0.0154292
933.674	0.0155395
933.753	0.0155025
933.831	0.0155202
933.909	0.0153838
933.987	0.0154596
934.065	0.0154932
934.143	0.0155293
934.221	0.0153803
934.299	0.0154918
934.378	0.0152872
934.456	0.0154331
934.534	0.0154178
934.612	0.0152601
934.690	0.0151817
934.768	0.0152358
934.846	0.0153528
934.924	0.0153481
935.003	0.0152863
935.081	0.0152678
935.159	0.0154160
935.237	0.0153873
935.315	0.0153560
935.393	0.0154054
935.471	0.0154245
935.549	0.0154808
935.628	0.0154281
935.706	0.0154945
935.784	0.0155308
935.862	0.0156293
935.940	0.0154788
936.018	0.0155542
936.096	0.0153429
936.174	0.0154927
936.253	0.0154830
936.331	0.0153854
936.409	0.0155223
936.487	0.0154852
936.565	0.0155155
936.643	0.0153481
936.721	0.0153857
936.799	0.0155253
936.878	0.0154195
936.956	0.0153729
937.034	0.0153731
937.112	0.0153194
937.190	0.0153294
937.268	0.0154670
937.346	0.0154470
937.424	0.0155070
937.503	0.0153497
937.581	0.0153234
937.659	0.0153260
937.737	0.0155037
937.815	0.0153974
937.893	0.0152960
937.971	0.0154350
938.049	0.0151759
938.128	0.0153469
938.206	0.0151089
938.284	0.0151511
938.362	0.0152885
938.440	0.0152548
938.518	0.0152694
938.596	0.0150909
938.674	0.0152833
938.753	0.0152254
938.831	0.0152856
938.909	0.0152465
938.987	0.0153197
939.065	0.0154711
939.143	0.0154250
939.221	0.0154562
939.299	0.0154517
939.378	0.0154007
939.456	0.0154817
939.534	0.0154379
939.612	0.0155897
939.690	0.0155710
939.768	0.0154823
939.846	0.0155090
939.924	0.0155176
940.003	0.0154797
940.081	0.0154002
940.159	0.0154175
940.237	0.0152428
940.315	0.0152722
940.393	0.0153565
940.471	0.0152422
940.549	0.0152508
940.628	0.0152316
940.706	0.0151757
940.784	0.0151278
940.862	0.0152084
940.940	0.0152709
941.018	0.0152684
941.096	0.0153295
941.174	0.0152790
941.253	0.0153941
941.331	0.0154850
941.409	0.0154998
941.487	0.0153349
941.565	0.0155563
941.643	0.0155331
941.721	0.0154176
941.799	0.0155185
941.878	0.0154861
941.956	0.0155608
942.034	0.0154576
942.112	0.0154337
942.190	0.0156145
942.268	0.0155995
942.346	0.0155598
942.424	0.0154895
942.503	0.0154491
942.581	0.0155116
942.659	0.0155356
942.737	0.0153976
942.815	0.0155019
942.893	0.0154181
942.971	0.0155246
943.049	0.0155043
943.128	0.0153974
943.206	0.0154058
943.284	0.0154094
943.362	0.0155305
943.440	0.0154649
943.518	0.0154599
943.596	0.0154230
943.674	0.0153497
943.753	0.0153979
943.831	0.0154411
943.909	0.0152333
943.987	0.0152036
944.065	0.0151952
944.143	0.0151432
944.221	0.0152084
944.299	0.0152976
944.378	0.0151646
944.456	0.0150749
944.534	0.0151882
944.612	0.0153126
944.690	0.0152291
944.768	0.0152643
944.846	0.0153940
944.924	0.0154021
945.003	0.0155723
945.081	0.0156115
945.159	0.0155721
945.237	0.0156066
945.315	0.0154125
945.393	0.0156077
945.471	0.0155889
945.549	0.0156080
945.628	0.0156032
945.706	0.0155022
945.784	0.0155221
945.862	0.0153806
945.940	0.0153603
946.018	0.0154107
946.096	0.0154481
946.174	0.0152470
946.253	0.0151776
946.331	0.0152337
946.409	0.0152505
946.487	0.0152701
946.565	0.0153569
946.643	0.0151688
946.721	0.0152243
946.799	0.0153150
946.878	0.0152910
946.956	0.0154044
947.034	0.0153500
947.112	0.0151512
947.190	0.0152544
947.268	0.0153905
947.346	0.0153774
947.424	0.0152984
947.503	0.0153106
947.581	0.0153182
947.659	0.0153658
947.737	0.0153802
947.815	0.0155463
947.893	0.0155377
947.971	0.0155450
948.049	0.0153326
948.128	0.0155079
948.206	0.0154071
948.284	0.0156020
948.362	0.0154794
948.440	0.0154606
948.518	0.0155463
948.596	0.0154805
948.674	0.0155737
948.753	0.0154314
948.831	0.0153414
948.909	0.0155341
948.987	0.0155414
949.065	0.0153539
949.143	0.0155493
949.221	0.0154109
949.299	0.0153884
949.378	0.0155376
949.456	0.0153185
949.534	0.0153341
949.612	0.0152795
949.690	0.0154355
949.768	0.0153867
949.846	0.0153599
949.924	0.0152397
