06/29/2022	23:03:10	Ver.	4.1	UNKNOWN
Optical Delay	630.002507	Delta X		0.078125	Sweeps	1	Scan Rate	0/0
Coordinates	Axis 1	NaN	Axis 2	NaN	Axis 3	NaN	Axis 4	NaN	Axis 5	NaN	Axis 6	0.000000
TX Power	0.000000	RX Power	0.000000

630.003	0.0162144
630.081	0.0161895
630.159	0.0163335
630.237	0.0161498
630.315	0.0161144
630.393	0.0162482
630.471	0.0162494
630.549	0.0163103
630.628	0.0160806
630.706	0.0162519
630.784	0.0163947
630.862	0.0162341
630.940	0.0162182
631.018	0.0161442
631.096	0.0163045
631.174	0.0162880
631.253	0.0163005
631.331	0.0161989
631.409	0.0162478
631.487	0.0161673
631.565	0.0162418
631.643	0.0161765
631.721	0.0161665
631.799	0.0162223
631.878	0.0162556
631.956	0.0161331
632.034	0.0162756
632.112	0.0162748
632.190	0.0163441
632.268	0.0163513
632.346	0.0163425
632.424	0.0162618
632.503	0.0162009
632.581	0.0162546
632.659	0.0162495
632.737	0.0163038
632.815	0.0162203
632.893	0.0161528
632.971	0.0162228
633.049	0.0161755
633.128	0.0162534
633.206	0.0161463
633.284	0.0161939
633.362	0.0162493
633.440	0.0161764
633.518	0.0163429
633.596	0.0161365
633.674	0.0163126
633.753	0.0163477
633.831	0.0162310
633.909	0.0163075
633.987	0.0162787
634.065	0.0162701
634.143	0.0162683
634.221	0.0161776
634.299	0.0162200
634.378	0.0162537
634.456	0.0160925
634.534	0.0161806
634.612	0.0162729
634.690	0.0162384
634.768	0.0163035
634.846	0.0161007
634.924	0.0161944
635.003	0.0162056
635.081	0.0162910
635.159	0.0161399
635.237	0.0162330
635.315	0.0161958
635.393	0.0162823
635.471	0.0162039
635.549	0.0161368
635.628	0.0162172
635.706	0.0161987
635.784	0.0162901
635.862	0.0161652
635.940	0.0162608
636.018	0.0162406
636.096	0.0162636
636.174	0.0162853
636.253	0.0161926
636.331	0.0161237
636.409	0.0162193
636.487	0.0160754
636.565	0.0162346
636.643	0.0163045
636.721	0.0162097
636.799	0.0162389
636.878	0.0161356
636.956	0.0161762
637.034	0.0162446
637.112	0.0161373
637.190	0.0162107
637.268	0.0163853
637.346	0.0163002
637.424	0.0162184
637.503	0.0161898
637.581	0.0162943
637.659	0.0161348
637.737	0.0162570
637.815	0.0163245
637.893	0.0162933
637.971	0.0162107
638.049	0.0161847
638.128	0.0163096
638.206	0.0160892
638.284	0.0161949
638.362	0.0162889
638.440	0.0161274
638.518	0.0162059
638.596	0.0161236
638.674	0.0162053
638.753	0.0162193
638.831	0.0161224
638.909	0.0162569
638.987	0.0161682
639.065	0.0161889
639.143	0.0161649
639.221	0.0162937
639.299	0.0161160
639.378	0.0162208
639.456	0.0161625
639.534	0.0162852
639.612	0.0161182
639.690	0.0160674
639.768	0.0161286
639.846	0.0161485
639.924	0.0161605
640.003	0.0161540
640.081	0.0162468
640.159	0.0162441
640.237	0.0162685
640.315	0.0162851
640.393	0.0161744
640.471	0.0161426
640.549	0.0164043
640.628	0.0162290
640.706	0.0160191
640.784	0.0161598
640.862	0.0161549
640.940	0.0163009
641.018	0.0161646
641.096	0.0162120
641.174	0.0162324
641.253	0.0161939
641.331	0.0162608
641.409	0.0160907
641.487	0.0160661
641.565	0.0162757
641.643	0.0162546
641.721	0.0161691
641.799	0.0161813
641.878	0.0162348
641.956	0.0160674
642.034	0.0161972
642.112	0.0162909
642.190	0.0163339
642.268	0.0160889
642.346	0.0161266
642.424	0.0162170
642.503	0.0163583
642.581	0.0162141
642.659	0.0162129
642.737	0.0160469
642.815	0.0162315
642.893	0.0161285
642.971	0.0162007
643.049	0.0162690
643.128	0.0163340
643.206	0.0161448
643.284	0.0163263
643.362	0.0162950
643.440	0.0161076
643.518	0.0162853
643.596	0.0162949
643.674	0.0161630
643.753	0.0161630
643.831	0.0161466
643.909	0.0162650
643.987	0.0161905
644.065	0.0161771
644.143	0.0162904
644.221	0.0161749
644.299	0.0161455
644.378	0.0160326
644.456	0.0161008
644.534	0.0160600
644.612	0.0161574
644.690	0.0162723
644.768	0.0162700
644.846	0.0161388
644.924	0.0162080
645.003	0.0161616
645.081	0.0161845
645.159	0.0161698
645.237	0.0162754
645.315	0.0162495
645.393	0.0161374
645.471	0.0162556
645.549	0.0161463
645.628	0.0161138
645.706	0.0161442
645.784	0.0162134
645.862	0.0161699
645.940	0.0160980
646.018	0.0161813
646.096	0.0162222
646.174	0.0162326
646.253	0.0162753
646.331	0.0161765
646.409	0.0160331
646.487	0.0161549
646.565	0.0161945
646.643	0.0161980
646.721	0.0161731
646.799	0.0161068
646.878	0.0161728
646.956	0.0161519
647.034	0.0162531
647.112	0.0162408
647.190	0.0161967
647.268	0.0161665
647.346	0.0162460
647.424	0.0162681
647.503	0.0163393
647.581	0.0162799
647.659	0.0161694
647.737	0.0161942
647.815	0.0161807
647.893	0.0162581
647.971	0.0162306
648.049	0.0161500
648.128	0.0162930
648.206	0.0162959
648.284	0.0163066
648.362	0.0162016
648.440	0.0161283
648.518	0.0161775
648.596	0.0161964
648.674	0.0162038
648.753	0.0161658
648.831	0.0162888
648.909	0.0161530
648.987	0.0161851
649.065	0.0163300
649.143	0.0162000
649.221	0.0162206
649.299	0.0163188
649.378	0.0161119
649.456	0.0161433
649.534	0.0163236
649.612	0.0164342
649.690	0.0162337
649.768	0.0162316
649.846	0.0163149
649.924	0.0161362
650.003	0.0161619
650.081	0.0160754
650.159	0.0160712
650.237	0.0160999
650.315	0.0161884
650.393	0.0162605
650.471	0.0161353
650.549	0.0162222
650.628	0.0162852
650.706	0.0162940
650.784	0.0160880
650.862	0.0161906
650.940	0.0163213
651.018	0.0163793
651.096	0.0162470
651.174	0.0160295
651.253	0.0160816
651.331	0.0161610
651.409	0.0162772
651.487	0.0162862
651.565	0.0161182
651.643	0.0162144
651.721	0.0162733
651.799	0.0162083
651.878	0.0160902
651.956	0.0161733
652.034	0.0162453
652.112	0.0162919
652.190	0.0161986
652.268	0.0162074
652.346	0.0161803
652.424	0.0161646
652.503	0.0162566
652.581	0.0162051
652.659	0.0163216
652.737	0.0163183
652.815	0.0162505
652.893	0.0162838
652.971	0.0163160
653.049	0.0161373
653.128	0.0162089
653.206	0.0163579
653.284	0.0160748
653.362	0.0161695
653.440	0.0161606
653.518	0.0163753
653.596	0.0162193
653.674	0.0161494
653.753	0.0162006
653.831	0.0161613
653.909	0.0162243
653.987	0.0161180
654.065	0.0161025
654.143	0.0162437
654.221	0.0162251
654.299	0.0162277
654.378	0.0162378
654.456	0.0162435
654.534	0.0162054
654.612	0.0162797
654.690	0.0160410
654.768	0.0162095
654.846	0.0161501
654.924	0.0162733
655.003	0.0161584
655.081	0.0161244
655.159	0.0161588
655.237	0.0163303
655.315	0.0162287
655.393	0.0161459
655.471	0.0161376
655.549	0.0162209
655.628	0.0161677
655.706	0.0160704
655.784	0.0161983
655.862	0.0162371
655.940	0.0161518
656.018	0.0161154
656.096	0.0162647
656.174	0.0162001
656.253	0.0162438
656.331	0.0162280
656.409	0.0160912
656.487	0.0161838
656.565	0.0162727
656.643	0.0162019
656.721	0.0161337
656.799	0.0161885
656.878	0.0161471
656.956	0.0161971
657.034	0.0162565
657.112	0.0161341
657.190	0.0161908
657.268	0.0161075
657.346	0.0161528
657.424	0.0162119
657.503	0.0162553
657.581	0.0161221
657.659	0.0162550
657.737	0.0161822
657.815	0.0161880
657.893	0.0162402
657.971	0.0161260
658.049	0.0161263
658.128	0.0161552
658.206	0.0161304
658.284	0.0162917
658.362	0.0162496
658.440	0.0161343
658.518	0.0161626
658.596	0.0160748
658.674	0.0162404
658.753	0.0162017
658.831	0.0161034
658.909	0.0161087
658.987	0.0162261
659.065	0.0161011
659.143	0.0161122
659.221	0.0160582
659.299	0.0161611
659.378	0.0163309
659.456	0.0163091
659.534	0.0161676
659.612	0.0162577
659.690	0.0162102
659.768	0.0161931
659.846	0.0162138
659.924	0.0161920
660.003	0.0161993
660.081	0.0162962
660.159	0.0161580
660.237	0.0161304
660.315	0.0161422
660.393	0.0162293
660.471	0.0162248
660.549	0.0161606
660.628	0.0161014
660.706	0.0162098
660.784	0.0162303
660.862	0.0162816
660.940	0.0162392
661.018	0.0161771
661.096	0.0160992
661.174	0.0161161
661.253	0.0162417
661.331	0.0163117
661.409	0.0161340
661.487	0.0162988
661.565	0.0161458
661.643	0.0161279
661.721	0.0162792
661.799	0.0162807
661.878	0.0162434
661.956	0.0161381
662.034	0.0160551
662.112	0.0162781
662.190	0.0161891
662.268	0.0161752
662.346	0.0163287
662.424	0.0160651
662.503	0.0159772
662.581	0.0161592
662.659	0.0161663
662.737	0.0161719
662.815	0.0162473
662.893	0.0161803
662.971	0.0162951
663.049	0.0162461
663.128	0.0162326
663.206	0.0161439
663.284	0.0162142
663.362	0.0162637
663.440	0.0162256
663.518	0.0162086
663.596	0.0162738
663.674	0.0161121
663.753	0.0161532
663.831	0.0161761
663.909	0.0161773
663.987	0.0160458
664.065	0.0162366
664.143	0.0162756
664.221	0.0163011
664.299	0.0161829
664.378	0.0160442
664.456	0.0161346
664.534	0.0162659
664.612	0.0162366
664.690	0.0162090
664.768	0.0161506
664.846	0.0161299
664.924	0.0162370
665.003	0.0162166
665.081	0.0161844
665.159	0.0161201
665.237	0.0162260
665.315	0.0162023
665.393	0.0162311
665.471	0.0163164
665.549	0.0162360
665.628	0.0160635
665.706	0.0161938
665.784	0.0161994
665.862	0.0161572
665.940	0.0162331
666.018	0.0161436
666.096	0.0161690
666.174	0.0161464
666.253	0.0162817
666.331	0.0162998
666.409	0.0159811
666.487	0.0161873
666.565	0.0162975
666.643	0.0162194
666.721	0.0161281
666.799	0.0160889
666.878	0.0161359
666.956	0.0162344
667.034	0.0162823
667.112	0.0162301
667.190	0.0161180
667.268	0.0161707
667.346	0.0162705
667.424	0.0163524
667.503	0.0161943
667.581	0.0161792
667.659	0.0162873
667.737	0.0161918
667.815	0.0162366
667.893	0.0161131
667.971	0.0162503
668.049	0.0161545
668.128	0.0161348
668.206	0.0161510
668.284	0.0161293
668.362	0.0161222
668.440	0.0162926
668.518	0.0163053
668.596	0.0160517
668.674	0.0161776
668.753	0.0160530
668.831	0.0161744
668.909	0.0162180
668.987	0.0160430
669.065	0.0161751
669.143	0.0162132
669.221	0.0162556
669.299	0.0160579
669.378	0.0161340
669.456	0.0162720
669.534	0.0161800
669.612	0.0161392
669.690	0.0161823
669.768	0.0161398
669.846	0.0162540
669.924	0.0161748
670.003	0.0162682
670.081	0.0160782
670.159	0.0163007
670.237	0.0162801
670.315	0.0162483
670.393	0.0162217
670.471	0.0161814
670.549	0.0161364
670.628	0.0162135
670.706	0.0161545
670.784	0.0161087
670.862	0.0162824
670.940	0.0161667
671.018	0.0161253
671.096	0.0161588
671.174	0.0160646
671.253	0.0160952
671.331	0.0164248
671.409	0.0162102
671.487	0.0161024
671.565	0.0162785
671.643	0.0163105
671.721	0.0162986
671.799	0.0163107
671.878	0.0160875
671.956	0.0161762
672.034	0.0162479
672.112	0.0162234
672.190	0.0162434
672.268	0.0163464
672.346	0.0161997
672.424	0.0162074
672.503	0.0162135
672.581	0.0162783
672.659	0.0161890
672.737	0.0163274
672.815	0.0161199
672.893	0.0162231
672.971	0.0162202
673.049	0.0161491
673.128	0.0161026
673.206	0.0162183
673.284	0.0162505
673.362	0.0160763
673.440	0.0163345
673.518	0.0163141
673.596	0.0161806
673.674	0.0161825
673.753	0.0159699
673.831	0.0161054
673.909	0.0162040
673.987	0.0162351
674.065	0.0162039
674.143	0.0162582
674.221	0.0160990
674.299	0.0161683
674.378	0.0160201
674.456	0.0161342
674.534	0.0163474
674.612	0.0161159
674.690	0.0161177
674.768	0.0162375
674.846	0.0161842
674.924	0.0161507
675.003	0.0159703
675.081	0.0161755
675.159	0.0161130
675.237	0.0161946
675.315	0.0161971
675.393	0.0160681
675.471	0.0161378
675.549	0.0162305
675.628	0.0162804
675.706	0.0162356
675.784	0.0161864
675.862	0.0161767
675.940	0.0162392
676.018	0.0161826
676.096	0.0162493
676.174	0.0162396
676.253	0.0162634
676.331	0.0162418
676.409	0.0163522
676.487	0.0161674
676.565	0.0163080
676.643	0.0162666
676.721	0.0160720
676.799	0.0161843
676.878	0.0161707
676.956	0.0162657
677.034	0.0161559
677.112	0.0162166
677.190	0.0162383
677.268	0.0162224
677.346	0.0162214
677.424	0.0162498
677.503	0.0162177
677.581	0.0162658
677.659	0.0161039
677.737	0.0162048
677.815	0.0161868
677.893	0.0162844
677.971	0.0162993
678.049	0.0160503
678.128	0.0160590
678.206	0.0161991
678.284	0.0161465
678.362	0.0162397
678.440	0.0161761
678.518	0.0160667
678.596	0.0161428
678.674	0.0161040
678.753	0.0162054
678.831	0.0160655
678.909	0.0160911
678.987	0.0161913
679.065	0.0160583
679.143	0.0161777
679.221	0.0161934
679.299	0.0162286
679.378	0.0163412
679.456	0.0161526
679.534	0.0164242
679.612	0.0163518
679.690	0.0161882
679.768	0.0162501
679.846	0.0160849
679.924	0.0161421
680.003	0.0161168
680.081	0.0161152
680.159	0.0161353
680.237	0.0160233
680.315	0.0160191
680.393	0.0160188
680.471	0.0160402
680.549	0.0162069
680.628	0.0162221
680.706	0.0161812
680.784	0.0163094
680.862	0.0164716
680.940	0.0162981
681.018	0.0162982
681.096	0.0162920
681.174	0.0164125
681.253	0.0162168
681.331	0.0161687
681.409	0.0162093
681.487	0.0159496
681.565	0.0161174
681.643	0.0160386
681.721	0.0159927
681.799	0.0161535
681.878	0.0161106
681.956	0.0161892
682.034	0.0160716
682.112	0.0162342
682.190	0.0162765
682.268	0.0164265
682.346	0.0163200
682.424	0.0163843
682.503	0.0163352
682.581	0.0162654
682.659	0.0164750
682.737	0.0164130
682.815	0.0163358
682.893	0.0162867
682.971	0.0161810
683.049	0.0159597
683.128	0.0162140
683.206	0.0162144
683.284	0.0162227
683.362	0.0160701
683.440	0.0160192
683.518	0.0161066
683.596	0.0160645
683.674	0.0160317
683.753	0.0161740
683.831	0.0162859
683.909	0.0162169
683.987	0.0163423
684.065	0.0163829
684.143	0.0162450
684.221	0.0163647
684.299	0.0165772
684.378	0.0163814
684.456	0.0163668
684.534	0.0163615
684.612	0.0163326
684.690	0.0162309
684.768	0.0161554
684.846	0.0161594
684.924	0.0162006
685.003	0.0161041
685.081	0.0162066
685.159	0.0160927
685.237	0.0161903
685.315	0.0163047
685.393	0.0162204
685.471	0.0162307
685.549	0.0161995
685.628	0.0163076
685.706	0.0162923
685.784	0.0162725
685.862	0.0163264
685.940	0.0163070
686.018	0.0162472
686.096	0.0163686
686.174	0.0163335
686.253	0.0164116
686.331	0.0165224
686.409	0.0164117
686.487	0.0165073
686.565	0.0162798
686.643	0.0162125
686.721	0.0161248
686.799	0.0161459
686.878	0.0161034
686.956	0.0159613
687.034	0.0159351
687.112	0.0158934
687.190	0.0161364
687.268	0.0160693
687.346	0.0162358
687.424	0.0161451
687.503	0.0162603
687.581	0.0162141
687.659	0.0162655
687.737	0.0164676
687.815	0.0163986
687.893	0.0163175
687.971	0.0163785
688.049	0.0164217
688.128	0.0164834
688.206	0.0162901
688.284	0.0163118
688.362	0.0161436
688.440	0.0161822
688.518	0.0160348
688.596	0.0160352
688.674	0.0160293
688.753	0.0157671
688.831	0.0158839
688.909	0.0159969
688.987	0.0159334
689.065	0.0159853
689.143	0.0162012
689.221	0.0160314
689.299	0.0161799
689.378	0.0162505
689.456	0.0162736
689.534	0.0162872
689.612	0.0163489
689.690	0.0163227
689.768	0.0163011
689.846	0.0162868
689.924	0.0164206
690.003	0.0162556
690.081	0.0162440
690.159	0.0161632
690.237	0.0162244
690.315	0.0162180
690.393	0.0161896
690.471	0.0161383
690.549	0.0159824
690.628	0.0158953
690.706	0.0160909
690.784	0.0160049
690.862	0.0160015
690.940	0.0159547
691.018	0.0162279
691.096	0.0160412
691.174	0.0160727
691.253	0.0161799
691.331	0.0161207
691.409	0.0161500
691.487	0.0162862
691.565	0.0162462
691.643	0.0163977
691.721	0.0164811
691.799	0.0164508
691.878	0.0163009
691.956	0.0163934
692.034	0.0163567
692.112	0.0162170
692.190	0.0162789
692.268	0.0162047
692.346	0.0162439
692.424	0.0159557
692.503	0.0157840
692.581	0.0159660
692.659	0.0159850
692.737	0.0159914
692.815	0.0158224
692.893	0.0159746
692.971	0.0161454
693.049	0.0161396
693.128	0.0162752
693.206	0.0162759
693.284	0.0164137
693.362	0.0165954
693.440	0.0164909
693.518	0.0165696
693.596	0.0164997
693.674	0.0165218
693.753	0.0164114
693.831	0.0163470
693.909	0.0164267
693.987	0.0162370
694.065	0.0162961
694.143	0.0161235
694.221	0.0161609
694.299	0.0159428
694.378	0.0160251
694.456	0.0160183
694.534	0.0160645
694.612	0.0162595
694.690	0.0160576
694.768	0.0162269
694.846	0.0163716
694.924	0.0164193
695.003	0.0163274
695.081	0.0164056
695.159	0.0165118
695.237	0.0165163
695.315	0.0164797
695.393	0.0163923
695.471	0.0163612
695.549	0.0162848
695.628	0.0161440
695.706	0.0161538
695.784	0.0162132
695.862	0.0159222
695.940	0.0159364
696.018	0.0161478
696.096	0.0162348
696.174	0.0161419
696.253	0.0161059
696.331	0.0163299
696.409	0.0164017
696.487	0.0163869
696.565	0.0164625
696.643	0.0163924
696.721	0.0163130
696.799	0.0163678
696.878	0.0164086
696.956	0.0162557
697.034	0.0162108
697.112	0.0161246
697.190	0.0161750
697.268	0.0160724
697.346	0.0161061
697.424	0.0160943
697.503	0.0160991
697.581	0.0161073
697.659	0.0161720
697.737	0.0160003
697.815	0.0160727
697.893	0.0161436
697.971	0.0163436
698.049	0.0164191
698.128	0.0165258
698.206	0.0165376
698.284	0.0164196
698.362	0.0164931
698.440	0.0165817
698.518	0.0162920
698.596	0.0164112
698.674	0.0162762
698.753	0.0161765
698.831	0.0160699
698.909	0.0158999
698.987	0.0158408
699.065	0.0161633
699.143	0.0159369
699.221	0.0159420
699.299	0.0160668
699.378	0.0160669
699.456	0.0160156
699.534	0.0161356
699.612	0.0162221
699.690	0.0162036
699.768	0.0161358
699.846	0.0163057
699.924	0.0163294
700.003	0.0163145
700.081	0.0164072
700.159	0.0162667
700.237	0.0164418
700.315	0.0164444
700.393	0.0164358
700.471	0.0162930
700.549	0.0164735
700.628	0.0164133
700.706	0.0163053
700.784	0.0163564
700.862	0.0160456
700.940	0.0161185
701.018	0.0159833
701.096	0.0159181
701.174	0.0158555
701.253	0.0157581
701.331	0.0158704
701.409	0.0159605
701.487	0.0159508
701.565	0.0159875
701.643	0.0161715
701.721	0.0163067
701.799	0.0162516
701.878	0.0162942
701.956	0.0165141
702.034	0.0164737
702.112	0.0164602
702.190	0.0165194
702.268	0.0165220
702.346	0.0163187
702.424	0.0162714
702.503	0.0163516
702.581	0.0161234
702.659	0.0159578
702.737	0.0158455
702.815	0.0159083
702.893	0.0157668
702.971	0.0158067
703.049	0.0158627
703.128	0.0157091
703.206	0.0158916
703.284	0.0161150
703.362	0.0162171
703.440	0.0161787
703.518	0.0165694
703.596	0.0162408
703.674	0.0162698
703.753	0.0164680
703.831	0.0165464
703.909	0.0166325
703.987	0.0165087
704.065	0.0163226
704.143	0.0163911
704.221	0.0164078
704.299	0.0164001
704.378	0.0163677
704.456	0.0161352
704.534	0.0160582
704.612	0.0160297
704.690	0.0159595
704.768	0.0159280
704.846	0.0158567
704.924	0.0160028
705.003	0.0159414
705.081	0.0159281
705.159	0.0159068
705.237	0.0160516
705.315	0.0160700
705.393	0.0160995
705.471	0.0160743
705.549	0.0160882
705.628	0.0163068
705.706	0.0164412
705.784	0.0163877
705.862	0.0162979
705.940	0.0163091
706.018	0.0165220
706.096	0.0162720
706.174	0.0162160
706.253	0.0161624
706.331	0.0162125
706.409	0.0161324
706.487	0.0162887
706.565	0.0162620
706.643	0.0162067
706.721	0.0162861
706.799	0.0162404
706.878	0.0162954
706.956	0.0164305
707.034	0.0163731
707.112	0.0164496
707.190	0.0163573
707.268	0.0163132
707.346	0.0163130
707.424	0.0161012
707.503	0.0163013
707.581	0.0163451
707.659	0.0161581
707.737	0.0160593
707.815	0.0163039
707.893	0.0160929
707.971	0.0160192
708.049	0.0161710
708.128	0.0162711
708.206	0.0161565
708.284	0.0162238
708.362	0.0161444
708.440	0.0161811
708.518	0.0162061
708.596	0.0161474
708.674	0.0162508
708.753	0.0161746
708.831	0.0161310
708.909	0.0160133
708.987	0.0162403
709.065	0.0162447
709.143	0.0160864
709.221	0.0161511
709.299	0.0162038
709.378	0.0161951
709.456	0.0161753
709.534	0.0161580
709.612	0.0161996
709.690	0.0161611
709.768	0.0161995
709.846	0.0162523
709.924	0.0161974
710.003	0.0161909
710.081	0.0161607
710.159	0.0160533
710.237	0.0161644
710.315	0.0161451
710.393	0.0161138
710.471	0.0162184
710.549	0.0162866
710.628	0.0163322
710.706	0.0162521
710.784	0.0163784
710.862	0.0163461
710.940	0.0163469
711.018	0.0164037
711.096	0.0163660
711.174	0.0162968
711.253	0.0162476
711.331	0.0162226
711.409	0.0161852
711.487	0.0161953
711.565	0.0162096
711.643	0.0161421
711.721	0.0159374
711.799	0.0161265
711.878	0.0161324
711.956	0.0161739
712.034	0.0160332
712.112	0.0161892
712.190	0.0161871
712.268	0.0162209
712.346	0.0161545
712.424	0.0162430
712.503	0.0161921
712.581	0.0163712
712.659	0.0163593
712.737	0.0162782
712.815	0.0161765
712.893	0.0163087
712.971	0.0164278
713.049	0.0163467
713.128	0.0163239
713.206	0.0164123
713.284	0.0162053
713.362	0.0162813
713.440	0.0160808
713.518	0.0163367
713.596	0.0160762
713.674	0.0162030
713.753	0.0160452
713.831	0.0162359
713.909	0.0161434
713.987	0.0160959
714.065	0.0161030
714.143	0.0160209
714.221	0.0161877
714.299	0.0162045
714.378	0.0161916
714.456	0.0162510
714.534	0.0163409
714.612	0.0163213
714.690	0.0162380
714.768	0.0161900
714.846	0.0162368
714.924	0.0163083
715.003	0.0163426
715.081	0.0162926
715.159	0.0163484
715.237	0.0162238
715.315	0.0162859
715.393	0.0163644
715.471	0.0163213
715.549	0.0164863
715.628	0.0162870
715.706	0.0162667
715.784	0.0164751
715.862	0.0163537
715.940	0.0162943
716.018	0.0162868
716.096	0.0161105
716.174	0.0161459
716.253	0.0159875
716.331	0.0158757
716.409	0.0158111
716.487	0.0157991
716.565	0.0156380
716.643	0.0156762
716.721	0.0157460
716.799	0.0157960
716.878	0.0156607
716.956	0.0156952
717.034	0.0159908
717.112	0.0161153
717.190	0.0161520
717.268	0.0162946
717.346	0.0163943
717.424	0.0164431
717.503	0.0167256
717.581	0.0167584
717.659	0.0167357
717.737	0.0168449
717.815	0.0168823
717.893	0.0167594
717.971	0.0167731
718.049	0.0166702
718.128	0.0167418
718.206	0.0166693
718.284	0.0164985
718.362	0.0164522
718.440	0.0164561
718.518	0.0162617
718.596	0.0162500
718.674	0.0160164
718.753	0.0159218
718.831	0.0160592
718.909	0.0157507
718.987	0.0157108
719.065	0.0157310
719.143	0.0155225
719.221	0.0155412
719.299	0.0157047
719.378	0.0156179
719.456	0.0154997
719.534	0.0155499
719.612	0.0156596
719.690	0.0157403
719.768	0.0157182
719.846	0.0157775
719.924	0.0159595
720.003	0.0162617
720.081	0.0164320
720.159	0.0165620
720.237	0.0165403
720.315	0.0166058
720.393	0.0168558
720.471	0.0169466
720.549	0.0170132
720.628	0.0170258
720.706	0.0170055
720.784	0.0168533
720.862	0.0169195
720.940	0.0168301
721.018	0.0167458
721.096	0.0165392
721.174	0.0164454
721.253	0.0163078
721.331	0.0161115
721.409	0.0160020
721.487	0.0157394
721.565	0.0156767
721.643	0.0156324
721.721	0.0154705
721.799	0.0153830
721.878	0.0154351
721.956	0.0154643
722.034	0.0157822
722.112	0.0155611
722.190	0.0158141
722.268	0.0158872
722.346	0.0159172
722.424	0.0159497
722.503	0.0160802
722.581	0.0161732
722.659	0.0163686
722.737	0.0164850
722.815	0.0166971
722.893	0.0167189
722.971	0.0166814
723.049	0.0168665
723.128	0.0168139
723.206	0.0168603
723.284	0.0168680
723.362	0.0168409
723.440	0.0168935
723.518	0.0168291
723.596	0.0169308
723.674	0.0167275
723.753	0.0167168
723.831	0.0166257
723.909	0.0164293
723.987	0.0164114
724.065	0.0162533
724.143	0.0163395
724.221	0.0161776
724.299	0.0161148
724.378	0.0160964
724.456	0.0158627
724.534	0.0158239
724.612	0.0157663
724.690	0.0158416
724.768	0.0158902
724.846	0.0158604
724.924	0.0157393
725.003	0.0157894
725.081	0.0157401
725.159	0.0157193
725.237	0.0156818
725.315	0.0157721
725.393	0.0157749
725.471	0.0158453
725.549	0.0160232
725.628	0.0160221
725.706	0.0160989
725.784	0.0163280
725.862	0.0163748
725.940	0.0162310
726.018	0.0164056
726.096	0.0164149
726.174	0.0165993
726.253	0.0164603
726.331	0.0165527
726.409	0.0164618
726.487	0.0164401
726.565	0.0163493
726.643	0.0163601
726.721	0.0162326
726.799	0.0159576
726.878	0.0161710
726.956	0.0159580
727.034	0.0158559
727.112	0.0158521
727.190	0.0158974
727.268	0.0159847
727.346	0.0160410
727.424	0.0160760
727.503	0.0163892
727.581	0.0164674
727.659	0.0165575
727.737	0.0166852
727.815	0.0169495
727.893	0.0170899
727.971	0.0170908
728.049	0.0171096
728.128	0.0173093
728.206	0.0173557
728.284	0.0171996
728.362	0.0171210
728.440	0.0169736
728.518	0.0167058
728.596	0.0165222
728.674	0.0164845
728.753	0.0162951
728.831	0.0158717
728.909	0.0157106
728.987	0.0156226
729.065	0.0153033
729.143	0.0152123
729.221	0.0150157
729.299	0.0149833
729.378	0.0150487
729.456	0.0150434
729.534	0.0153925
729.612	0.0154328
729.690	0.0154958
729.768	0.0154997
729.846	0.0158560
729.924	0.0161039
730.003	0.0161558
730.081	0.0163305
730.159	0.0165237
730.237	0.0163573
730.315	0.0164185
730.393	0.0164970
730.471	0.0165748
730.549	0.0163954
730.628	0.0164404
730.706	0.0163226
730.784	0.0163213
730.862	0.0162307
730.940	0.0161954
731.018	0.0161247
731.096	0.0160727
731.174	0.0163093
731.253	0.0161324
731.331	0.0162521
731.409	0.0162163
731.487	0.0162257
731.565	0.0161653
731.643	0.0164663
731.721	0.0164857
731.799	0.0165642
731.878	0.0166650
731.956	0.0167506
732.034	0.0167249
732.112	0.0167803
732.190	0.0168530
732.268	0.0168503
732.346	0.0167491
732.424	0.0166828
732.503	0.0164384
732.581	0.0164382
732.659	0.0164042
732.737	0.0161617
732.815	0.0161829
732.893	0.0159933
732.971	0.0157874
733.049	0.0157536
733.128	0.0155113
733.206	0.0154435
733.284	0.0154940
733.362	0.0154523
733.440	0.0153893
733.518	0.0154677
733.596	0.0155288
733.674	0.0156163
733.753	0.0157539
733.831	0.0157066
733.909	0.0159238
733.987	0.0161565
734.065	0.0162983
734.143	0.0163970
734.221	0.0164017
734.299	0.0166485
734.378	0.0165960
734.456	0.0167090
734.534	0.0166593
734.612	0.0166161
734.690	0.0167999
734.768	0.0168369
734.846	0.0167240
734.924	0.0166692
735.003	0.0167060
735.081	0.0165351
735.159	0.0165060
735.237	0.0164870
735.315	0.0163733
735.393	0.0162733
735.471	0.0162576
735.549	0.0161147
735.628	0.0160382
735.706	0.0160326
735.784	0.0161461
735.862	0.0162081
735.940	0.0161299
736.018	0.0162546
736.096	0.0163553
736.174	0.0162180
736.253	0.0162181
736.331	0.0164080
736.409	0.0164784
736.487	0.0162376
736.565	0.0163061
736.643	0.0162971
736.721	0.0162645
736.799	0.0162021
736.878	0.0163178
736.956	0.0160551
737.034	0.0156982
737.112	0.0158569
737.190	0.0157543
737.268	0.0155676
737.346	0.0154317
737.424	0.0154880
737.503	0.0155587
737.581	0.0155827
737.659	0.0155073
737.737	0.0156014
737.815	0.0157537
737.893	0.0157563
737.971	0.0158589
738.049	0.0159927
738.128	0.0162150
738.206	0.0162760
738.284	0.0163378
738.362	0.0164249
738.440	0.0166162
738.518	0.0165709
738.596	0.0166996
738.674	0.0167492
738.753	0.0168161
738.831	0.0169411
738.909	0.0168098
738.987	0.0168427
739.065	0.0167390
739.143	0.0167413
739.221	0.0167152
739.299	0.0166057
739.378	0.0165134
739.456	0.0164760
739.534	0.0165846
739.612	0.0164233
739.690	0.0164246
739.768	0.0164561
739.846	0.0163969
739.924	0.0164018
740.003	0.0164635
740.081	0.0163319
740.159	0.0163860
740.237	0.0163573
740.315	0.0162210
740.393	0.0162078
740.471	0.0162101
740.549	0.0162450
740.628	0.0161020
740.706	0.0161042
740.784	0.0160767
740.862	0.0161692
740.940	0.0161288
741.018	0.0160947
741.096	0.0158996
741.174	0.0159460
741.253	0.0160287
741.331	0.0159769
741.409	0.0158325
741.487	0.0159703
741.565	0.0157906
741.643	0.0158823
741.721	0.0156073
741.799	0.0156974
741.878	0.0159373
741.956	0.0157454
742.034	0.0157934
742.112	0.0156589
742.190	0.0157925
742.268	0.0156864
742.346	0.0157487
742.424	0.0158321
742.503	0.0156665
742.581	0.0156947
742.659	0.0156968
742.737	0.0161397
742.815	0.0160355
742.893	0.0159792
742.971	0.0158617
743.049	0.0161478
743.128	0.0163652
743.206	0.0165684
743.284	0.0163807
743.362	0.0163326
743.440	0.0164764
743.518	0.0164424
743.596	0.0165173
743.674	0.0165143
743.753	0.0164874
743.831	0.0165470
743.909	0.0165908
743.987	0.0166399
744.065	0.0166580
744.143	0.0167708
744.221	0.0167386
744.299	0.0168739
744.378	0.0168674
744.456	0.0167812
744.534	0.0167924
744.612	0.0168765
744.690	0.0166881
744.768	0.0164807
744.846	0.0164875
744.924	0.0163626
745.003	0.0162731
745.081	0.0162643
745.159	0.0161021
745.237	0.0158418
745.315	0.0157661
745.393	0.0155845
745.471	0.0155758
745.549	0.0155233
745.628	0.0154638
745.706	0.0152670
745.784	0.0153793
745.862	0.0152734
745.940	0.0153886
746.018	0.0155696
746.096	0.0156921
746.174	0.0156020
746.253	0.0157585
746.331	0.0160391
746.409	0.0163264
746.487	0.0164294
746.565	0.0164252
746.643	0.0167017
746.721	0.0166325
746.799	0.0166142
746.878	0.0168850
746.956	0.0167450
747.034	0.0167770
747.112	0.0166436
747.190	0.0165067
747.268	0.0165111
747.346	0.0162572
747.424	0.0162275
747.503	0.0161361
747.581	0.0159634
747.659	0.0158722
747.737	0.0156568
747.815	0.0156317
747.893	0.0155422
747.971	0.0157015
748.049	0.0158039
748.128	0.0158246
748.206	0.0159591
748.284	0.0160461
748.362	0.0160294
748.440	0.0161681
748.518	0.0163338
748.596	0.0163999
748.674	0.0164652
748.753	0.0165312
748.831	0.0164940
748.909	0.0165891
748.987	0.0167127
749.065	0.0166329
749.143	0.0165965
749.221	0.0167835
749.299	0.0166341
749.378	0.0166899
749.456	0.0166399
749.534	0.0165987
749.612	0.0164418
749.690	0.0165018
749.768	0.0165458
749.846	0.0164336
749.924	0.0163848
750.003	0.0163931
750.081	0.0162590
750.159	0.0162585
750.237	0.0161418
750.315	0.0160277
750.393	0.0159039
750.471	0.0160583
750.549	0.0159145
750.628	0.0158934
750.706	0.0159090
750.784	0.0157413
750.862	0.0158953
750.940	0.0157047
751.018	0.0156696
751.096	0.0157268
751.174	0.0156480
751.253	0.0158155
751.331	0.0157809
751.409	0.0156766
751.487	0.0157136
751.565	0.0156514
751.643	0.0157551
751.721	0.0158017
751.799	0.0157493
751.878	0.0158637
751.956	0.0159902
752.034	0.0161811
752.112	0.0161369
752.190	0.0163438
752.268	0.0162731
752.346	0.0163319
752.424	0.0164119
752.503	0.0165394
752.581	0.0164320
752.659	0.0165508
752.737	0.0166980
752.815	0.0167387
752.893	0.0167042
752.971	0.0167573
753.049	0.0167605
753.128	0.0169216
753.206	0.0169794
753.284	0.0168642
753.362	0.0169894
753.440	0.0168860
753.518	0.0166379
753.596	0.0167185
753.674	0.0165981
753.753	0.0166109
753.831	0.0164629
753.909	0.0163217
753.987	0.0162455
754.065	0.0161051
754.143	0.0162473
754.221	0.0158808
754.299	0.0161538
754.378	0.0160709
754.456	0.0160178
754.534	0.0160178
754.612	0.0160381
754.690	0.0160415
754.768	0.0159570
754.846	0.0160983
754.924	0.0160323
755.003	0.0160433
755.081	0.0159521
755.159	0.0158221
755.237	0.0159473
755.315	0.0159357
755.393	0.0158263
755.471	0.0158361
755.549	0.0158130
755.628	0.0156583
755.706	0.0155730
755.784	0.0156803
755.862	0.0155145
755.940	0.0153935
756.018	0.0157146
756.096	0.0155895
756.174	0.0155581
756.253	0.0155571
756.331	0.0156712
756.409	0.0160494
756.487	0.0159975
756.565	0.0160667
756.643	0.0161984
756.721	0.0161572
756.799	0.0164247
756.878	0.0164561
756.956	0.0163252
757.034	0.0163121
757.112	0.0163326
757.190	0.0162809
757.268	0.0161503
757.346	0.0162241
757.424	0.0163199
757.503	0.0163637
757.581	0.0160333
757.659	0.0162318
757.737	0.0162455
757.815	0.0164056
757.893	0.0163475
757.971	0.0164971
758.049	0.0167227
758.128	0.0168676
758.206	0.0166107
758.284	0.0165647
758.362	0.0167593
758.440	0.0169827
758.518	0.0168193
758.596	0.0170091
758.674	0.0168731
758.753	0.0168841
758.831	0.0168613
758.909	0.0169465
758.987	0.0168781
759.065	0.0167161
759.143	0.0167368
759.221	0.0167155
759.299	0.0166510
759.378	0.0165832
759.456	0.0165575
759.534	0.0166231
759.612	0.0166143
759.690	0.0164968
759.768	0.0165226
759.846	0.0166136
759.924	0.0163390
760.003	0.0163699
760.081	0.0161662
760.159	0.0161953
760.237	0.0159995
760.315	0.0159312
760.393	0.0157861
760.471	0.0155694
760.549	0.0154051
760.628	0.0154198
760.706	0.0150848
760.784	0.0151276
760.862	0.0151028
760.940	0.0150948
761.018	0.0150175
761.096	0.0150725
761.174	0.0150166
761.253	0.0150877
761.331	0.0151020
761.409	0.0151963
761.487	0.0152898
761.565	0.0154153
761.643	0.0154453
761.721	0.0156982
761.799	0.0156106
761.878	0.0156900
761.956	0.0159835
762.034	0.0160464
762.112	0.0161270
762.190	0.0162202
762.268	0.0164288
762.346	0.0166002
762.424	0.0166551
762.503	0.0167702
762.581	0.0168330
762.659	0.0167426
762.737	0.0167049
762.815	0.0167483
762.893	0.0168357
762.971	0.0168227
763.049	0.0167955
763.128	0.0166998
763.206	0.0167601
763.284	0.0167707
763.362	0.0166427
763.440	0.0166757
763.518	0.0167416
763.596	0.0166254
763.674	0.0165489
763.753	0.0164790
763.831	0.0165421
763.909	0.0164901
763.987	0.0164405
764.065	0.0164362
764.143	0.0163637
764.221	0.0164652
764.299	0.0165171
764.378	0.0163939
764.456	0.0163002
764.534	0.0163946
764.612	0.0164363
764.690	0.0163940
764.768	0.0165060
764.846	0.0165167
764.924	0.0165209
765.003	0.0165742
765.081	0.0166380
765.159	0.0168156
765.237	0.0167324
765.315	0.0165885
765.393	0.0166028
765.471	0.0167207
765.549	0.0165775
765.628	0.0165198
765.706	0.0164725
765.784	0.0163636
765.862	0.0161599
765.940	0.0161037
766.018	0.0159107
766.096	0.0158005
766.174	0.0156223
766.253	0.0155291
766.331	0.0153962
766.409	0.0152456
766.487	0.0152332
766.565	0.0153589
766.643	0.0152661
766.721	0.0151873
766.799	0.0153404
766.878	0.0154123
766.956	0.0154292
767.034	0.0156468
767.112	0.0156366
767.190	0.0157667
767.268	0.0156921
767.346	0.0157469
767.424	0.0157602
767.503	0.0157406
767.581	0.0158768
767.659	0.0159237
767.737	0.0159043
767.815	0.0160432
767.893	0.0160979
767.971	0.0160260
768.049	0.0159999
768.128	0.0162077
768.206	0.0162469
768.284	0.0164187
768.362	0.0164894
768.440	0.0166152
768.518	0.0166920
768.596	0.0166706
768.674	0.0166601
768.753	0.0167830
768.831	0.0169124
768.909	0.0168297
768.987	0.0167564
769.065	0.0169286
769.143	0.0169720
769.221	0.0168965
769.299	0.0169128
769.378	0.0168929
769.456	0.0167258
769.534	0.0166795
769.612	0.0165998
769.690	0.0165293
769.768	0.0164917
769.846	0.0162134
769.924	0.0164435
770.003	0.0163650
770.081	0.0162868
770.159	0.0163277
770.237	0.0162393
770.315	0.0162682
770.393	0.0161170
770.471	0.0163108
770.549	0.0162395
770.628	0.0163621
770.706	0.0162256
770.784	0.0163313
770.862	0.0161947
770.940	0.0162144
771.018	0.0162920
771.096	0.0161440
771.174	0.0162103
771.253	0.0162873
771.331	0.0162688
771.409	0.0160805
771.487	0.0160880
771.565	0.0160991
771.643	0.0161332
771.721	0.0160469
771.799	0.0159476
771.878	0.0159129
771.956	0.0158032
772.034	0.0158200
772.112	0.0159341
772.190	0.0158837
772.268	0.0157951
772.346	0.0157495
772.424	0.0159010
772.503	0.0158129
772.581	0.0160267
772.659	0.0159097
772.737	0.0160463
772.815	0.0160780
772.893	0.0159940
772.971	0.0160278
773.049	0.0161970
773.128	0.0162640
773.206	0.0164005
773.284	0.0163146
773.362	0.0161915
773.440	0.0162644
773.518	0.0162315
773.596	0.0161961
773.674	0.0161586
773.753	0.0161962
773.831	0.0160965
773.909	0.0159242
773.987	0.0157128
774.065	0.0157697
774.143	0.0157121
774.221	0.0157088
774.299	0.0157996
774.378	0.0155676
774.456	0.0155871
774.534	0.0155619
774.612	0.0156608
774.690	0.0157847
774.768	0.0157798
774.846	0.0158585
774.924	0.0159953
775.003	0.0162060
775.081	0.0163847
775.159	0.0164935
775.237	0.0164703
775.315	0.0167038
775.393	0.0168954
775.471	0.0170345
775.549	0.0169946
775.628	0.0168336
775.706	0.0168495
775.784	0.0170194
775.862	0.0169536
775.940	0.0168384
776.018	0.0169013
776.096	0.0170026
776.174	0.0169335
776.253	0.0167085
776.331	0.0167405
776.409	0.0166939
776.487	0.0165674
776.565	0.0165376
776.643	0.0164917
776.721	0.0162691
776.799	0.0162451
776.878	0.0162961
776.956	0.0162308
777.034	0.0161115
777.112	0.0159910
777.190	0.0160191
777.268	0.0160246
777.346	0.0159721
777.424	0.0157111
777.503	0.0157201
777.581	0.0158170
777.659	0.0157523
777.737	0.0157234
777.815	0.0157206
777.893	0.0157845
777.971	0.0157928
778.049	0.0158182
778.128	0.0159142
778.206	0.0159142
778.284	0.0158657
778.362	0.0159137
778.440	0.0159092
778.518	0.0158646
778.596	0.0158939
778.674	0.0161424
778.753	0.0159641
778.831	0.0161467
778.909	0.0160595
778.987	0.0161458
779.065	0.0161067
779.143	0.0161478
779.221	0.0161716
779.299	0.0162685
779.378	0.0164256
779.456	0.0163324
779.534	0.0162885
779.612	0.0164863
779.690	0.0165132
779.768	0.0164294
779.846	0.0164623
779.924	0.0164455
780.003	0.0164177
780.081	0.0163791
780.159	0.0163416
780.237	0.0160986
780.315	0.0161293
780.393	0.0160421
780.471	0.0159985
780.549	0.0159579
780.628	0.0158145
780.706	0.0157951
780.784	0.0157296
780.862	0.0155883
780.940	0.0156594
781.018	0.0155968
781.096	0.0155868
781.174	0.0156687
781.253	0.0157710
781.331	0.0157408
781.409	0.0158086
781.487	0.0158921
781.565	0.0161277
781.643	0.0161817
781.721	0.0162238
781.799	0.0166254
781.878	0.0167413
781.956	0.0169576
782.034	0.0170995
782.112	0.0172237
782.190	0.0173051
782.268	0.0173814
782.346	0.0172552
782.424	0.0173658
782.503	0.0174420
782.581	0.0172913
782.659	0.0172262
782.737	0.0171230
782.815	0.0169594
782.893	0.0167178
782.971	0.0163884
783.049	0.0163422
783.128	0.0161787
783.206	0.0160368
783.284	0.0157795
783.362	0.0156820
783.440	0.0155525
783.518	0.0156013
783.596	0.0155896
783.674	0.0153646
783.753	0.0153172
783.831	0.0153608
783.909	0.0154741
783.987	0.0155779
784.065	0.0156916
784.143	0.0158713
784.221	0.0159471
784.299	0.0159019
784.378	0.0159090
784.456	0.0161148
784.534	0.0161955
784.612	0.0161243
784.690	0.0161049
784.768	0.0161727
784.846	0.0161378
784.924	0.0162440
785.003	0.0161080
785.081	0.0162834
785.159	0.0162250
785.237	0.0161853
785.315	0.0162346
785.393	0.0163280
785.471	0.0163315
785.549	0.0161565
785.628	0.0164799
785.706	0.0164552
785.784	0.0163987
785.862	0.0163852
785.940	0.0164113
786.018	0.0165450
786.096	0.0166025
786.174	0.0163927
786.253	0.0165013
786.331	0.0164933
786.409	0.0164831
786.487	0.0163480
786.565	0.0163448
786.643	0.0162326
786.721	0.0160504
786.799	0.0161039
786.878	0.0159379
786.956	0.0157800
787.034	0.0156808
787.112	0.0154877
787.190	0.0154944
787.268	0.0153150
787.346	0.0153943
787.424	0.0153973
787.503	0.0153338
787.581	0.0153070
787.659	0.0153880
787.737	0.0155640
787.815	0.0158332
787.893	0.0159412
787.971	0.0158967
788.049	0.0162477
788.128	0.0164634
788.206	0.0167606
788.284	0.0169420
788.362	0.0170829
788.440	0.0172768
788.518	0.0175908
788.596	0.0176107
788.674	0.0175887
788.753	0.0175718
788.831	0.0177315
788.909	0.0176897
788.987	0.0174519
789.065	0.0173023
789.143	0.0170777
789.221	0.0169591
789.299	0.0167206
789.378	0.0164259
789.456	0.0161400
789.534	0.0159298
789.612	0.0157574
789.690	0.0154410
789.768	0.0153538
789.846	0.0151772
789.924	0.0150919
790.003	0.0150751
790.081	0.0151566
790.159	0.0151720
790.237	0.0152221
790.315	0.0152930
790.393	0.0155358
790.471	0.0157005
790.549	0.0158743
790.628	0.0158637
790.706	0.0160243
790.784	0.0161047
790.862	0.0163390
790.940	0.0162856
791.018	0.0162763
791.096	0.0163489
791.174	0.0164269
791.253	0.0162429
791.331	0.0163419
791.409	0.0164347
791.487	0.0163052
791.565	0.0163209
791.643	0.0163341
791.721	0.0163673
791.799	0.0162927
791.878	0.0163733
791.956	0.0161851
792.034	0.0162798
792.112	0.0163610
792.190	0.0162879
792.268	0.0164212
792.346	0.0165058
792.424	0.0165163
792.503	0.0164275
792.581	0.0165441
792.659	0.0167200
792.737	0.0166174
792.815	0.0165448
792.893	0.0163869
792.971	0.0165055
793.049	0.0163409
793.128	0.0162356
793.206	0.0161160
793.284	0.0160529
793.362	0.0160065
793.440	0.0158067
793.518	0.0155945
793.596	0.0154153
793.674	0.0155031
793.753	0.0152244
793.831	0.0151256
793.909	0.0152334
793.987	0.0151176
794.065	0.0151646
794.143	0.0153149
794.221	0.0154925
794.299	0.0156124
794.378	0.0158186
794.456	0.0158970
794.534	0.0161473
794.612	0.0163092
794.690	0.0165054
794.768	0.0168125
794.846	0.0168962
794.924	0.0169408
795.003	0.0171910
795.081	0.0174332
795.159	0.0173066
795.237	0.0174123
795.315	0.0174095
795.393	0.0174897
795.471	0.0171986
795.549	0.0170205
795.628	0.0169666
795.706	0.0169427
795.784	0.0167403
795.862	0.0164609
795.940	0.0161077
796.018	0.0159244
796.096	0.0158352
796.174	0.0157049
796.253	0.0156072
796.331	0.0155814
796.409	0.0154050
796.487	0.0153332
796.565	0.0154382
796.643	0.0155625
796.721	0.0155964
796.799	0.0156436
796.878	0.0158340
796.956	0.0158033
797.034	0.0158721
797.112	0.0160743
797.190	0.0160917
797.268	0.0162283
797.346	0.0161063
797.424	0.0163261
797.503	0.0161632
797.581	0.0161067
797.659	0.0162831
797.737	0.0162291
797.815	0.0161999
797.893	0.0161781
797.971	0.0161375
798.049	0.0162077
798.128	0.0161016
798.206	0.0161470
798.284	0.0159944
798.362	0.0159661
798.440	0.0160499
798.518	0.0160622
798.596	0.0162321
798.674	0.0160959
798.753	0.0162027
798.831	0.0163708
798.909	0.0163743
798.987	0.0164612
799.065	0.0163949
799.143	0.0165431
799.221	0.0165160
799.299	0.0165130
799.378	0.0164137
799.456	0.0165075
799.534	0.0164929
799.612	0.0163387
799.690	0.0164074
799.768	0.0162603
799.846	0.0159864
799.924	0.0159888
800.003	0.0159919
800.081	0.0157426
800.159	0.0156235
800.237	0.0155730
800.315	0.0155085
800.393	0.0155266
800.471	0.0152648
800.549	0.0154268
800.628	0.0153406
800.706	0.0155334
800.784	0.0155211
800.862	0.0157053
800.940	0.0157931
801.018	0.0160683
801.096	0.0162646
801.174	0.0162503
801.253	0.0165623
801.331	0.0166399
801.409	0.0167603
801.487	0.0168019
801.565	0.0170670
801.643	0.0170607
801.721	0.0172323
801.799	0.0171974
801.878	0.0171658
801.956	0.0170953
802.034	0.0172042
802.112	0.0168150
802.190	0.0167992
802.268	0.0166431
802.346	0.0163937
802.424	0.0163696
802.503	0.0162936
802.581	0.0161282
802.659	0.0159705
802.737	0.0159446
802.815	0.0158214
802.893	0.0157950
802.971	0.0156946
803.049	0.0156458
803.128	0.0156995
803.206	0.0158237
803.284	0.0158855
803.362	0.0156042
803.440	0.0158423
803.518	0.0159460
803.596	0.0160265
803.674	0.0159550
803.753	0.0161932
803.831	0.0161906
803.909	0.0162583
803.987	0.0162794
804.065	0.0163435
804.143	0.0163309
804.221	0.0163499
804.299	0.0162314
804.378	0.0161822
804.456	0.0162026
804.534	0.0162161
804.612	0.0160871
804.690	0.0160479
804.768	0.0162598
804.846	0.0161324
804.924	0.0161323
805.003	0.0161204
805.081	0.0160716
805.159	0.0162949
805.237	0.0161419
805.315	0.0162169
805.393	0.0162033
805.471	0.0164836
805.549	0.0163310
805.628	0.0163837
805.706	0.0163346
805.784	0.0163877
805.862	0.0162883
805.940	0.0163194
806.018	0.0162332
806.096	0.0163677
806.174	0.0163052
806.253	0.0160523
806.331	0.0159831
806.409	0.0160103
806.487	0.0159235
806.565	0.0157071
806.643	0.0158553
806.721	0.0156805
806.799	0.0155778
806.878	0.0154529
806.956	0.0155552
807.034	0.0157327
807.112	0.0155382
807.190	0.0157803
807.268	0.0155679
807.346	0.0157928
807.424	0.0160178
807.503	0.0161213
807.581	0.0162060
807.659	0.0164009
807.737	0.0165298
807.815	0.0166499
807.893	0.0167711
807.971	0.0168830
808.049	0.0169030
808.128	0.0170526
808.206	0.0169862
808.284	0.0170903
808.362	0.0171812
808.440	0.0170512
808.518	0.0171211
808.596	0.0169337
808.674	0.0169846
808.753	0.0167282
808.831	0.0165816
808.909	0.0166727
808.987	0.0165824
809.065	0.0164796
809.143	0.0162999
809.221	0.0162044
809.299	0.0160287
809.378	0.0159886
809.456	0.0158953
809.534	0.0158772
809.612	0.0159057
809.690	0.0157506
809.768	0.0156551
809.846	0.0159087
809.924	0.0157240
810.003	0.0156129
810.081	0.0157494
810.159	0.0158940
810.237	0.0159991
810.315	0.0158085
810.393	0.0159615
810.471	0.0158683
810.549	0.0159408
810.628	0.0160648
810.706	0.0162109
810.784	0.0161125
810.862	0.0160592
810.940	0.0161625
811.018	0.0161620
811.096	0.0162358
811.174	0.0163514
811.253	0.0163121
811.331	0.0163079
811.409	0.0162048
811.487	0.0164111
811.565	0.0163731
811.643	0.0163467
811.721	0.0165030
811.799	0.0164266
811.878	0.0165492
811.956	0.0165331
812.034	0.0165558
812.112	0.0165625
812.190	0.0164410
812.268	0.0163639
812.346	0.0164954
812.424	0.0164941
812.503	0.0162957
812.581	0.0162732
812.659	0.0162563
812.737	0.0160671
812.815	0.0159235
812.893	0.0161306
812.971	0.0159991
813.049	0.0159110
813.128	0.0158932
813.206	0.0158769
813.284	0.0157041
813.362	0.0158025
813.440	0.0157458
813.518	0.0157494
813.596	0.0158586
813.674	0.0157646
813.753	0.0157216
813.831	0.0158307
813.909	0.0160408
813.987	0.0159377
814.065	0.0160512
814.143	0.0162560
814.221	0.0162252
814.299	0.0163964
814.378	0.0164174
814.456	0.0164818
814.534	0.0166364
814.612	0.0166714
814.690	0.0165749
814.768	0.0166623
814.846	0.0169293
814.924	0.0169485
815.003	0.0170061
815.081	0.0167659
815.159	0.0167554
815.237	0.0168832
815.315	0.0166637
815.393	0.0166736
815.471	0.0165121
815.549	0.0164992
815.628	0.0163935
815.706	0.0163712
815.784	0.0162909
815.862	0.0161121
815.940	0.0161582
816.018	0.0161418
816.096	0.0160590
816.174	0.0160425
816.253	0.0158636
816.331	0.0159880
816.409	0.0159008
816.487	0.0158678
816.565	0.0157418
816.643	0.0158929
816.721	0.0159644
816.799	0.0159634
816.878	0.0159018
816.956	0.0159413
817.034	0.0159303
817.112	0.0160434
817.190	0.0160067
817.268	0.0160888
817.346	0.0162275
817.424	0.0162576
817.503	0.0161681
817.581	0.0162337
817.659	0.0161872
817.737	0.0161730
817.815	0.0164976
817.893	0.0163784
817.971	0.0163142
818.049	0.0164054
818.128	0.0162722
818.206	0.0163012
818.284	0.0163682
818.362	0.0163667
818.440	0.0162048
818.518	0.0164462
818.596	0.0164220
818.674	0.0162463
818.753	0.0161447
818.831	0.0162547
818.909	0.0163001
818.987	0.0161189
819.065	0.0163396
819.143	0.0162045
819.221	0.0162571
819.299	0.0161395
819.378	0.0161889
819.456	0.0161588
819.534	0.0161591
819.612	0.0160578
819.690	0.0160864
819.768	0.0160597
819.846	0.0161458
819.924	0.0160424
820.003	0.0160587
820.081	0.0160126
820.159	0.0160699
820.237	0.0159283
820.315	0.0160779
820.393	0.0158858
820.471	0.0160626
820.549	0.0160654
820.628	0.0160986
820.706	0.0160328
820.784	0.0162678
820.862	0.0161495
820.940	0.0161804
821.018	0.0162344
821.096	0.0163597
821.174	0.0164391
821.253	0.0164791
821.331	0.0166285
821.409	0.0166453
821.487	0.0166406
821.565	0.0166563
821.643	0.0166997
821.721	0.0167905
821.799	0.0166215
821.878	0.0164094
821.956	0.0164577
822.034	0.0164964
822.112	0.0164228
822.190	0.0163917
822.268	0.0163268
822.346	0.0162251
822.424	0.0161708
822.503	0.0159895
822.581	0.0160735
822.659	0.0161089
822.737	0.0160436
822.815	0.0159811
822.893	0.0160152
822.971	0.0159667
823.049	0.0161005
823.128	0.0160573
823.206	0.0158179
823.284	0.0158453
823.362	0.0159646
823.440	0.0158984
823.518	0.0158932
823.596	0.0159994
823.674	0.0161156
823.753	0.0159866
823.831	0.0159101
823.909	0.0161069
823.987	0.0162315
824.065	0.0161646
824.143	0.0162795
824.221	0.0162674
824.299	0.0161900
824.378	0.0163246
824.456	0.0163918
824.534	0.0163457
824.612	0.0162814
824.690	0.0164839
824.768	0.0164520
824.846	0.0164720
824.924	0.0165341
825.003	0.0163480
825.081	0.0164809
825.159	0.0164789
825.237	0.0162961
825.315	0.0163634
825.393	0.0163124
825.471	0.0161853
825.549	0.0163198
825.628	0.0161802
825.706	0.0160731
825.784	0.0161588
825.862	0.0160339
825.940	0.0160056
826.018	0.0160950
826.096	0.0158167
826.174	0.0158872
826.253	0.0159676
826.331	0.0157948
826.409	0.0158653
826.487	0.0157257
826.565	0.0157936
826.643	0.0159063
826.721	0.0159567
826.799	0.0159144
826.878	0.0158465
826.956	0.0158422
827.034	0.0160529
827.112	0.0159917
827.190	0.0160631
827.268	0.0162579
827.346	0.0161265
827.424	0.0162366
827.503	0.0165154
827.581	0.0165598
827.659	0.0164470
827.737	0.0165015
827.815	0.0165017
827.893	0.0166100
827.971	0.0165895
828.049	0.0165691
828.128	0.0164631
828.206	0.0165767
828.284	0.0167139
828.362	0.0165646
828.440	0.0165084
828.518	0.0165222
828.596	0.0165067
828.674	0.0164697
828.753	0.0165529
828.831	0.0163794
828.909	0.0164687
828.987	0.0161905
829.065	0.0163476
829.143	0.0162933
829.221	0.0161721
829.299	0.0161185
829.378	0.0161507
829.456	0.0159814
829.534	0.0159357
829.612	0.0160514
829.690	0.0159380
829.768	0.0159382
829.846	0.0159144
829.924	0.0159328
830.003	0.0157800
830.081	0.0159193
830.159	0.0156944
830.237	0.0157240
830.315	0.0159248
830.393	0.0159088
830.471	0.0160951
830.549	0.0159268
830.628	0.0161163
830.706	0.0161583
830.784	0.0160933
830.862	0.0161174
830.940	0.0160879
831.018	0.0162579
831.096	0.0162099
831.174	0.0162266
831.253	0.0162624
831.331	0.0163644
831.409	0.0163895
831.487	0.0164507
831.565	0.0164321
831.643	0.0164201
831.721	0.0164209
831.799	0.0163495
831.878	0.0165591
831.956	0.0164149
832.034	0.0164622
832.112	0.0163910
832.190	0.0164030
832.268	0.0163803
832.346	0.0163319
832.424	0.0161288
832.503	0.0161911
832.581	0.0162826
832.659	0.0162054
832.737	0.0161211
832.815	0.0162171
832.893	0.0161519
832.971	0.0159908
833.049	0.0160564
833.128	0.0159688
833.206	0.0160412
833.284	0.0160052
833.362	0.0161576
833.440	0.0160825
833.518	0.0161382
833.596	0.0161593
833.674	0.0160532
833.753	0.0160710
833.831	0.0162222
833.909	0.0161658
833.987	0.0162434
834.065	0.0160995
834.143	0.0159325
834.221	0.0162553
834.299	0.0163184
834.378	0.0163149
834.456	0.0161388
834.534	0.0161704
834.612	0.0162288
834.690	0.0163123
834.768	0.0164489
834.846	0.0163438
834.924	0.0164410
835.003	0.0162876
835.081	0.0164430
835.159	0.0163557
835.237	0.0164471
835.315	0.0163712
835.393	0.0164629
835.471	0.0163367
835.549	0.0164748
835.628	0.0164321
835.706	0.0163435
835.784	0.0162395
835.862	0.0162440
835.940	0.0162854
836.018	0.0162846
836.096	0.0162157
836.174	0.0160756
836.253	0.0161142
836.331	0.0161487
836.409	0.0159566
836.487	0.0161243
836.565	0.0160842
836.643	0.0160293
836.721	0.0159991
836.799	0.0159605
836.878	0.0160600
836.956	0.0160668
837.034	0.0159831
837.112	0.0161439
837.190	0.0158907
837.268	0.0160606
837.346	0.0158956
837.424	0.0159019
837.503	0.0159078
837.581	0.0159563
837.659	0.0160389
837.737	0.0161168
837.815	0.0161084
837.893	0.0160675
837.971	0.0161314
838.049	0.0160915
838.128	0.0162923
838.206	0.0161498
838.284	0.0162348
838.362	0.0163318
838.440	0.0163386
838.518	0.0163110
838.596	0.0164253
838.674	0.0163343
838.753	0.0162514
838.831	0.0161986
838.909	0.0162328
838.987	0.0162225
839.065	0.0162708
839.143	0.0163653
839.221	0.0163115
839.299	0.0161514
839.378	0.0161508
839.456	0.0161131
839.534	0.0160975
839.612	0.0161623
839.690	0.0162915
839.768	0.0161578
839.846	0.0161395
839.924	0.0161227
840.003	0.0161302
840.081	0.0162360
840.159	0.0161124
840.237	0.0162605
840.315	0.0162083
840.393	0.0161192
840.471	0.0161037
840.549	0.0162870
840.628	0.0163608
840.706	0.0162449
840.784	0.0163909
840.862	0.0162541
840.940	0.0163148
841.018	0.0163934
841.096	0.0164348
841.174	0.0163469
841.253	0.0163474
841.331	0.0163103
841.409	0.0162716
841.487	0.0161852
841.565	0.0160812
841.643	0.0162402
841.721	0.0162026
841.799	0.0161547
841.878	0.0163023
841.956	0.0162955
842.034	0.0160733
842.112	0.0161664
842.190	0.0161588
842.268	0.0160661
842.346	0.0160262
842.424	0.0159922
842.503	0.0159786
842.581	0.0160584
842.659	0.0161165
842.737	0.0159825
842.815	0.0159494
842.893	0.0161574
842.971	0.0161185
843.049	0.0161497
843.128	0.0162182
843.206	0.0161640
843.284	0.0161365
843.362	0.0161884
843.440	0.0161430
843.518	0.0161715
843.596	0.0161412
843.674	0.0161253
843.753	0.0162509
843.831	0.0162576
843.909	0.0161515
843.987	0.0162309
844.065	0.0162366
844.143	0.0162689
844.221	0.0162064
844.299	0.0162637
844.378	0.0162685
844.456	0.0162572
844.534	0.0161461
844.612	0.0162091
844.690	0.0163323
844.768	0.0162551
844.846	0.0162643
844.924	0.0162185
845.003	0.0164162
845.081	0.0164132
845.159	0.0164220
845.237	0.0162394
845.315	0.0162321
845.393	0.0163426
845.471	0.0163852
845.549	0.0161713
845.628	0.0162065
845.706	0.0162321
845.784	0.0161441
845.862	0.0160468
845.940	0.0160712
846.018	0.0161813
846.096	0.0160992
846.174	0.0158615
846.253	0.0160033
846.331	0.0159763
846.409	0.0159822
846.487	0.0160317
846.565	0.0160255
846.643	0.0160289
846.721	0.0160903
846.799	0.0160081
846.878	0.0160747
846.956	0.0160180
847.034	0.0159964
847.112	0.0162052
847.190	0.0161645
847.268	0.0162280
847.346	0.0162164
847.424	0.0163691
847.503	0.0162785
847.581	0.0162834
847.659	0.0161256
847.737	0.0162566
847.815	0.0163655
847.893	0.0162749
847.971	0.0162428
848.049	0.0163234
848.128	0.0162897
848.206	0.0162141
848.284	0.0162797
848.362	0.0162976
848.440	0.0160728
848.518	0.0162383
848.596	0.0163195
848.674	0.0162063
848.753	0.0162218
848.831	0.0162852
848.909	0.0163299
848.987	0.0163083
849.065	0.0162970
849.143	0.0161848
849.221	0.0162379
849.299	0.0162829
849.378	0.0162816
849.456	0.0162968
849.534	0.0162965
849.612	0.0163282
849.690	0.0163132
849.768	0.0163908
849.846	0.0162459
849.924	0.0162148
850.003	0.0162958
850.081	0.0163813
850.159	0.0163362
850.237	0.0161266
850.315	0.0161291
850.393	0.0161687
850.471	0.0161703
850.549	0.0160778
850.628	0.0161234
850.706	0.0159923
850.784	0.0159823
850.862	0.0160468
850.940	0.0159725
851.018	0.0159351
851.096	0.0160690
851.174	0.0159751
851.253	0.0160263
851.331	0.0160990
851.409	0.0160303
851.487	0.0159425
851.565	0.0160493
851.643	0.0161073
851.721	0.0159328
851.799	0.0160738
851.878	0.0161153
851.956	0.0160545
852.034	0.0160368
852.112	0.0160648
852.190	0.0161127
852.268	0.0159940
852.346	0.0160259
852.424	0.0159569
852.503	0.0159418
852.581	0.0159492
852.659	0.0161053
852.737	0.0159891
852.815	0.0160285
852.893	0.0159329
852.971	0.0160484
853.049	0.0159361
853.128	0.0160332
853.206	0.0161972
853.284	0.0159477
853.362	0.0161465
853.440	0.0162022
853.518	0.0162061
853.596	0.0161443
853.674	0.0161562
853.753	0.0162159
853.831	0.0163668
853.909	0.0163561
853.987	0.0163898
854.065	0.0163128
854.143	0.0162250
854.221	0.0163084
854.299	0.0162979
854.378	0.0164442
854.456	0.0162779
854.534	0.0162737
854.612	0.0163447
854.690	0.0164029
854.768	0.0162546
854.846	0.0163309
854.924	0.0164804
855.003	0.0163265
855.081	0.0162447
855.159	0.0164744
855.237	0.0162936
855.315	0.0163371
855.393	0.0163754
855.471	0.0163840
855.549	0.0163326
855.628	0.0162448
855.706	0.0162435
855.784	0.0163335
855.862	0.0162784
855.940	0.0163771
856.018	0.0161825
856.096	0.0163115
856.174	0.0163434
856.253	0.0163287
856.331	0.0163797
856.409	0.0163227
856.487	0.0161637
856.565	0.0161528
856.643	0.0161057
856.721	0.0160762
856.799	0.0160091
856.878	0.0160267
856.956	0.0160915
857.034	0.0160165
857.112	0.0159480
857.190	0.0159654
857.268	0.0159669
857.346	0.0159399
857.424	0.0159144
857.503	0.0158357
857.581	0.0157649
857.659	0.0158341
857.737	0.0156960
857.815	0.0158443
857.893	0.0158784
857.971	0.0158344
858.049	0.0158928
858.128	0.0160835
858.206	0.0160217
858.284	0.0159739
858.362	0.0160617
858.440	0.0161499
858.518	0.0161710
858.596	0.0161585
858.674	0.0161852
858.753	0.0163467
858.831	0.0162852
858.909	0.0162038
858.987	0.0162711
859.065	0.0162160
859.143	0.0162460
859.221	0.0162254
859.299	0.0162721
859.378	0.0163116
859.456	0.0163858
859.534	0.0162964
859.612	0.0163435
859.690	0.0163482
859.768	0.0164745
859.846	0.0162875
859.924	0.0161918
860.003	0.0163004
860.081	0.0163744
860.159	0.0164863
860.237	0.0163151
860.315	0.0162870
860.393	0.0162349
860.471	0.0163960
860.549	0.0163213
860.628	0.0163879
860.706	0.0163325
860.784	0.0163988
860.862	0.0163546
860.940	0.0163625
861.018	0.0163342
861.096	0.0163732
861.174	0.0163282
861.253	0.0162991
861.331	0.0163422
861.409	0.0162565
861.487	0.0162125
861.565	0.0163254
861.643	0.0161786
861.721	0.0160728
861.799	0.0160316
861.878	0.0162305
861.956	0.0161589
862.034	0.0160385
862.112	0.0159314
862.190	0.0160115
862.268	0.0160371
862.346	0.0160300
862.424	0.0160468
862.503	0.0159682
862.581	0.0159460
862.659	0.0160703
862.737	0.0158562
862.815	0.0159945
862.893	0.0160226
862.971	0.0162225
863.049	0.0160681
863.128	0.0161884
863.206	0.0160850
863.284	0.0160713
863.362	0.0160412
863.440	0.0161299
863.518	0.0160621
863.596	0.0159886
863.674	0.0161223
863.753	0.0160309
863.831	0.0161433
863.909	0.0159824
863.987	0.0158948
864.065	0.0159229
864.143	0.0159954
864.221	0.0159597
864.299	0.0160959
864.378	0.0160687
864.456	0.0159969
864.534	0.0160635
864.612	0.0159430
864.690	0.0160532
864.768	0.0161600
864.846	0.0161854
864.924	0.0161292
865.003	0.0160594
865.081	0.0163348
865.159	0.0163589
865.237	0.0164108
865.315	0.0163222
865.393	0.0163870
865.471	0.0164118
865.549	0.0163743
865.628	0.0164924
865.706	0.0164361
865.784	0.0164597
865.862	0.0163981
865.940	0.0164094
866.018	0.0162904
866.096	0.0164104
866.174	0.0163564
866.253	0.0163114
866.331	0.0162276
866.409	0.0163695
866.487	0.0162051
866.565	0.0161863
866.643	0.0162178
866.721	0.0162420
866.799	0.0163635
866.878	0.0162213
866.956	0.0161259
867.034	0.0161684
867.112	0.0161906
867.190	0.0163364
867.268	0.0163242
867.346	0.0163895
867.424	0.0163244
867.503	0.0162059
867.581	0.0162753
867.659	0.0163369
867.737	0.0162616
867.815	0.0161898
867.893	0.0162323
867.971	0.0162603
868.049	0.0162281
868.128	0.0161134
868.206	0.0161773
868.284	0.0161222
868.362	0.0160349
868.440	0.0160890
868.518	0.0159722
868.596	0.0159041
868.674	0.0160080
868.753	0.0160213
868.831	0.0160165
868.909	0.0159833
868.987	0.0160294
869.065	0.0160429
869.143	0.0158681
869.221	0.0160513
869.299	0.0161500
869.378	0.0161090
869.456	0.0162585
869.534	0.0162874
869.612	0.0162292
869.690	0.0163184
869.768	0.0161147
869.846	0.0163152
869.924	0.0161897
870.003	0.0161842
870.081	0.0161226
870.159	0.0162331
870.237	0.0162009
870.315	0.0161800
870.393	0.0159969
870.471	0.0160585
870.549	0.0161205
870.628	0.0160159
870.706	0.0160334
870.784	0.0159879
870.862	0.0160476
870.940	0.0161603
871.018	0.0160348
871.096	0.0160155
871.174	0.0159959
871.253	0.0159245
871.331	0.0160756
871.409	0.0161316
871.487	0.0160223
871.565	0.0162013
871.643	0.0161588
871.721	0.0162093
871.799	0.0162532
871.878	0.0163102
871.956	0.0164497
872.034	0.0164049
872.112	0.0164207
872.190	0.0163819
872.268	0.0165091
872.346	0.0164184
872.424	0.0162965
872.503	0.0164298
872.581	0.0162830
872.659	0.0165192
872.737	0.0163232
872.815	0.0163586
872.893	0.0162431
872.971	0.0161872
873.049	0.0161707
873.128	0.0162941
873.206	0.0161559
873.284	0.0161124
873.362	0.0161288
873.440	0.0162852
873.518	0.0161520
873.596	0.0161958
873.674	0.0162862
873.753	0.0161233
873.831	0.0162830
873.909	0.0161201
873.987	0.0161995
874.065	0.0161558
874.143	0.0161116
874.221	0.0163042
874.299	0.0162291
874.378	0.0161525
874.456	0.0161343
874.534	0.0161276
874.612	0.0160640
874.690	0.0160170
874.768	0.0161671
874.846	0.0159805
874.924	0.0159630
875.003	0.0160428
875.081	0.0160794
875.159	0.0161004
875.237	0.0159369
875.315	0.0159950
875.393	0.0162160
875.471	0.0161432
875.549	0.0161177
875.628	0.0159888
875.706	0.0161454
875.784	0.0162334
875.862	0.0162131
875.940	0.0164034
876.018	0.0162835
876.096	0.0161832
876.174	0.0163213
876.253	0.0163480
876.331	0.0161620
876.409	0.0162665
876.487	0.0162937
876.565	0.0161651
876.643	0.0161320
876.721	0.0161737
876.799	0.0162087
876.878	0.0161761
876.956	0.0161388
877.034	0.0161766
877.112	0.0161826
877.190	0.0160712
877.268	0.0160194
877.346	0.0159856
877.424	0.0160452
877.503	0.0161385
877.581	0.0161397
877.659	0.0161717
877.737	0.0161322
877.815	0.0162157
877.893	0.0161581
877.971	0.0161665
878.049	0.0162809
878.128	0.0163158
878.206	0.0162410
878.284	0.0164310
878.362	0.0163388
878.440	0.0163221
878.518	0.0162847
878.596	0.0162959
878.674	0.0163791
878.753	0.0164184
878.831	0.0164164
878.909	0.0164176
878.987	0.0163735
879.065	0.0163789
879.143	0.0165150
879.221	0.0163459
879.299	0.0164101
879.378	0.0163058
879.456	0.0163133
879.534	0.0163532
879.612	0.0164003
879.690	0.0161131
879.768	0.0162420
879.846	0.0162723
879.924	0.0161083
880.003	0.0161512
880.081	0.0159601
880.159	0.0160742
880.237	0.0161050
880.315	0.0161691
880.393	0.0160967
880.471	0.0161082
880.549	0.0161821
880.628	0.0160697
880.706	0.0160627
880.784	0.0160566
880.862	0.0162414
880.940	0.0162357
881.018	0.0160201
881.096	0.0160464
881.174	0.0161026
881.253	0.0162191
881.331	0.0160375
881.409	0.0162524
881.487	0.0160708
881.565	0.0160453
881.643	0.0159627
881.721	0.0161132
881.799	0.0161329
881.878	0.0160437
881.956	0.0160039
882.034	0.0161565
882.112	0.0161742
882.190	0.0161668
882.268	0.0160574
882.346	0.0162032
882.424	0.0161803
882.503	0.0160902
882.581	0.0160588
882.659	0.0160355
882.737	0.0160680
882.815	0.0162087
882.893	0.0162067
882.971	0.0162838
883.049	0.0161722
883.128	0.0161203
883.206	0.0161575
883.284	0.0162030
883.362	0.0161154
883.440	0.0160405
883.518	0.0160284
883.596	0.0160713
883.674	0.0160634
883.753	0.0160520
883.831	0.0160827
883.909	0.0160824
883.987	0.0159771
884.065	0.0159608
884.143	0.0159299
884.221	0.0161357
884.299	0.0160435
884.378	0.0160339
884.456	0.0161037
884.534	0.0160974
884.612	0.0161196
884.690	0.0160996
884.768	0.0163688
884.846	0.0162229
884.924	0.0164117
885.003	0.0162177
885.081	0.0163546
885.159	0.0164310
885.237	0.0164381
885.315	0.0163864
885.393	0.0164153
885.471	0.0164947
885.549	0.0163756
885.628	0.0164085
885.706	0.0163299
885.784	0.0163095
885.862	0.0162057
885.940	0.0162116
886.018	0.0162831
886.096	0.0163213
886.174	0.0161487
886.253	0.0160563
886.331	0.0161848
886.409	0.0160686
886.487	0.0160589
886.565	0.0161248
886.643	0.0160111
886.721	0.0160229
886.799	0.0160201
886.878	0.0160321
886.956	0.0158977
887.034	0.0159538
887.112	0.0160143
887.190	0.0159920
887.268	0.0159949
887.346	0.0161256
887.424	0.0160468
887.503	0.0160533
887.581	0.0160088
887.659	0.0160269
887.737	0.0161190
887.815	0.0160860
887.893	0.0159692
887.971	0.0160632
888.049	0.0160552
888.128	0.0161102
888.206	0.0162422
888.284	0.0161391
888.362	0.0159760
888.440	0.0158546
888.518	0.0161388
888.596	0.0161484
888.674	0.0161880
888.753	0.0161745
888.831	0.0161762
888.909	0.0161358
888.987	0.0162466
889.065	0.0161629
889.143	0.0160440
889.221	0.0161945
889.299	0.0161552
889.378	0.0161690
889.456	0.0162958
889.534	0.0161819
889.612	0.0162763
889.690	0.0161636
889.768	0.0162140
889.846	0.0163333
889.924	0.0162747
890.003	0.0161906
890.081	0.0162363
890.159	0.0161866
890.237	0.0162326
890.315	0.0161678
890.393	0.0161547
890.471	0.0160709
890.549	0.0162089
890.628	0.0161827
890.706	0.0162191
890.784	0.0161663
890.862	0.0160181
890.940	0.0160964
891.018	0.0161065
891.096	0.0161189
891.174	0.0162216
891.253	0.0162406
891.331	0.0162000
891.409	0.0162090
891.487	0.0163210
891.565	0.0164020
891.643	0.0163812
891.721	0.0163479
891.799	0.0162528
891.878	0.0163476
891.956	0.0163617
892.034	0.0164305
892.112	0.0163800
892.190	0.0163421
892.268	0.0162261
892.346	0.0162472
892.424	0.0162559
892.503	0.0161967
892.581	0.0162405
892.659	0.0161304
892.737	0.0160921
892.815	0.0161059
892.893	0.0159197
892.971	0.0158895
893.049	0.0159813
893.128	0.0159767
893.206	0.0161027
893.284	0.0159991
893.362	0.0160161
893.440	0.0160518
893.518	0.0159916
893.596	0.0160413
893.674	0.0160997
893.753	0.0161008
893.831	0.0161971
893.909	0.0162712
893.987	0.0161868
894.065	0.0162595
894.143	0.0162187
894.221	0.0161915
894.299	0.0161556
894.378	0.0161217
894.456	0.0162688
894.534	0.0163481
894.612	0.0163156
894.690	0.0162096
894.768	0.0162083
894.846	0.0162520
894.924	0.0162632
895.003	0.0159937
895.081	0.0160886
895.159	0.0161972
895.237	0.0161255
895.315	0.0162247
895.393	0.0162302
895.471	0.0162978
895.549	0.0161157
895.628	0.0160075
895.706	0.0161146
895.784	0.0161771
895.862	0.0160358
895.940	0.0161550
896.018	0.0161977
896.096	0.0160653
896.174	0.0160213
896.253	0.0161056
896.331	0.0161501
896.409	0.0161180
896.487	0.0160060
896.565	0.0160422
896.643	0.0160587
896.721	0.0162090
896.799	0.0161722
896.878	0.0161530
896.956	0.0159835
897.034	0.0161257
897.112	0.0159955
897.190	0.0159267
897.268	0.0160072
897.346	0.0161235
897.424	0.0159196
897.503	0.0160813
897.581	0.0160440
897.659	0.0160635
897.737	0.0160912
897.815	0.0160429
897.893	0.0161320
897.971	0.0161505
898.049	0.0159670
898.128	0.0160943
898.206	0.0161531
898.284	0.0162564
898.362	0.0162492
898.440	0.0162183
898.518	0.0162019
898.596	0.0163075
898.674	0.0162584
898.753	0.0162755
898.831	0.0163354
898.909	0.0162967
898.987	0.0162667
899.065	0.0160695
899.143	0.0161222
899.221	0.0159698
899.299	0.0162206
899.378	0.0161694
899.456	0.0160709
899.534	0.0160647
899.612	0.0162041
899.690	0.0158787
899.768	0.0161536
899.846	0.0160410
899.924	0.0161173
900.003	0.0160387
900.081	0.0161092
900.159	0.0161829
900.237	0.0161720
900.315	0.0161386
900.393	0.0162214
900.471	0.0161170
900.549	0.0162399
900.628	0.0162313
900.706	0.0162252
900.784	0.0161841
900.862	0.0163117
900.940	0.0162643
901.018	0.0163297
901.096	0.0162648
901.174	0.0162754
901.253	0.0163172
901.331	0.0162881
901.409	0.0161584
901.487	0.0161517
901.565	0.0161747
901.643	0.0160857
901.721	0.0162439
901.799	0.0161462
901.878	0.0162175
901.956	0.0160839
902.034	0.0161353
902.112	0.0161613
902.190	0.0160837
902.268	0.0160114
902.346	0.0160897
902.424	0.0161054
902.503	0.0161831
902.581	0.0160741
902.659	0.0160835
902.737	0.0162112
902.815	0.0162024
902.893	0.0162057
902.971	0.0161926
903.049	0.0161832
903.128	0.0161159
903.206	0.0161553
903.284	0.0160670
903.362	0.0162148
903.440	0.0160350
903.518	0.0160751
903.596	0.0161954
903.674	0.0160822
903.753	0.0161277
903.831	0.0160877
903.909	0.0160316
903.987	0.0160624
904.065	0.0160297
904.143	0.0160486
904.221	0.0160946
904.299	0.0160682
904.378	0.0161178
904.456	0.0161900
904.534	0.0160863
904.612	0.0160622
904.690	0.0162241
904.768	0.0162121
904.846	0.0161713
904.924	0.0163278
905.003	0.0162076
905.081	0.0163569
905.159	0.0163322
905.237	0.0162312
905.315	0.0163043
905.393	0.0163895
905.471	0.0163583
905.549	0.0163442
905.628	0.0162203
905.706	0.0162363
905.784	0.0162778
905.862	0.0161120
905.940	0.0164056
906.018	0.0163529
906.096	0.0162301
906.174	0.0162596
906.253	0.0161946
906.331	0.0162537
906.409	0.0161909
906.487	0.0161759
906.565	0.0162235
906.643	0.0161578
906.721	0.0162553
906.799	0.0162596
906.878	0.0162407
906.956	0.0163367
907.034	0.0163118
907.112	0.0162782
907.190	0.0162220
907.268	0.0163154
907.346	0.0162638
907.424	0.0163651
907.503	0.0163049
907.581	0.0162615
907.659	0.0164430
907.737	0.0163760
907.815	0.0161876
907.893	0.0163173
907.971	0.0162747
908.049	0.0162228
908.128	0.0163078
908.206	0.0161804
908.284	0.0161998
908.362	0.0162119
908.440	0.0162528
908.518	0.0161820
908.596	0.0161162
908.674	0.0162273
908.753	0.0159556
908.831	0.0161926
908.909	0.0161211
908.987	0.0162935
909.065	0.0162182
909.143	0.0162821
909.221	0.0162312
909.299	0.0162530
909.378	0.0161544
909.456	0.0163105
909.534	0.0163151
909.612	0.0162155
909.690	0.0162902
909.768	0.0163139
909.846	0.0162702
909.924	0.0162618
910.003	0.0162216
910.081	0.0161648
910.159	0.0161159
910.237	0.0161846
910.315	0.0161929
910.393	0.0161781
910.471	0.0161432
910.549	0.0160615
910.628	0.0162177
910.706	0.0161197
910.784	0.0161732
910.862	0.0160653
910.940	0.0160804
911.018	0.0160227
911.096	0.0160654
911.174	0.0161443
911.253	0.0161347
911.331	0.0160553
911.409	0.0160870
911.487	0.0161897
911.565	0.0162661
911.643	0.0163499
911.721	0.0164309
911.799	0.0163219
911.878	0.0163808
911.956	0.0164352
912.034	0.0163535
912.112	0.0163367
912.190	0.0164253
912.268	0.0163697
912.346	0.0163867
912.424	0.0162752
912.503	0.0163854
912.581	0.0162216
912.659	0.0162218
912.737	0.0162638
912.815	0.0161664
912.893	0.0161195
912.971	0.0160751
913.049	0.0161601
913.128	0.0161537
913.206	0.0160005
913.284	0.0160369
913.362	0.0160983
913.440	0.0161436
913.518	0.0161203
913.596	0.0160099
913.674	0.0162204
913.753	0.0162098
913.831	0.0162177
913.909	0.0163016
913.987	0.0163181
914.065	0.0163564
914.143	0.0164933
914.221	0.0164976
914.299	0.0163472
914.378	0.0162213
914.456	0.0162826
914.534	0.0164250
914.612	0.0162639
914.690	0.0162685
914.768	0.0162021
914.846	0.0162786
914.924	0.0161519
915.003	0.0160630
915.081	0.0161086
915.159	0.0161616
915.237	0.0161226
915.315	0.0161318
915.393	0.0161058
915.471	0.0159550
915.549	0.0161436
915.628	0.0160738
915.706	0.0159806
915.784	0.0161491
915.862	0.0161237
915.940	0.0162152
916.018	0.0160780
916.096	0.0161198
916.174	0.0161662
916.253	0.0161868
916.331	0.0161883
916.409	0.0160701
916.487	0.0161919
916.565	0.0162144
916.643	0.0162392
916.721	0.0160635
916.799	0.0160976
916.878	0.0161513
916.956	0.0160420
917.034	0.0161546
917.112	0.0160785
917.190	0.0160735
917.268	0.0162479
917.346	0.0161441
917.424	0.0161079
917.503	0.0161819
917.581	0.0160974
917.659	0.0160359
917.737	0.0160666
917.815	0.0163133
917.893	0.0162005
917.971	0.0162491
918.049	0.0163303
918.128	0.0164716
918.206	0.0162906
918.284	0.0162975
918.362	0.0163518
918.440	0.0161440
918.518	0.0162008
918.596	0.0163146
918.674	0.0162821
918.753	0.0162012
918.831	0.0161821
918.909	0.0161518
918.987	0.0161160
919.065	0.0162606
919.143	0.0161932
919.221	0.0162310
919.299	0.0162387
919.378	0.0162013
919.456	0.0161109
919.534	0.0161967
919.612	0.0162041
919.690	0.0162749
919.768	0.0161829
919.846	0.0161201
919.924	0.0162796
920.003	0.0162461
920.081	0.0163570
920.159	0.0163205
920.237	0.0161488
920.315	0.0160409
920.393	0.0163075
920.471	0.0163236
920.549	0.0161407
920.628	0.0160736
920.706	0.0160628
920.784	0.0161611
920.862	0.0158626
920.940	0.0160056
921.018	0.0162353
921.096	0.0161749
921.174	0.0160828
921.253	0.0162340
921.331	0.0160650
921.409	0.0161034
921.487	0.0163164
921.565	0.0162320
921.643	0.0161417
921.721	0.0162004
921.799	0.0163636
921.878	0.0163368
921.956	0.0160498
922.034	0.0162196
922.112	0.0162243
922.190	0.0161867
922.268	0.0161466
922.346	0.0161923
922.424	0.0161382
922.503	0.0160875
922.581	0.0162463
922.659	0.0160676
922.737	0.0161451
922.815	0.0161445
922.893	0.0161818
922.971	0.0160918
923.049	0.0160430
923.128	0.0162785
923.206	0.0161494
923.284	0.0163011
923.362	0.0162528
923.440	0.0161494
923.518	0.0162235
923.596	0.0163034
923.674	0.0162591
923.753	0.0162677
923.831	0.0162122
923.909	0.0162511
923.987	0.0161341
924.065	0.0162624
924.143	0.0161550
924.221	0.0161632
924.299	0.0162529
924.378	0.0161984
924.456	0.0160116
924.534	0.0161180
924.612	0.0160047
924.690	0.0160405
924.768	0.0161423
924.846	0.0162945
924.924	0.0160246
925.003	0.0160429
925.081	0.0161199
925.159	0.0161942
925.237	0.0160526
925.315	0.0162598
925.393	0.0163351
925.471	0.0164188
925.549	0.0162141
925.628	0.0162356
925.706	0.0162782
925.784	0.0162162
925.862	0.0163446
925.940	0.0162777
926.018	0.0163051
926.096	0.0161514
926.174	0.0162632
926.253	0.0162797
926.331	0.0163023
926.409	0.0162652
926.487	0.0163159
926.565	0.0163416
926.643	0.0162119
926.721	0.0161612
926.799	0.0161359
926.878	0.0163405
926.956	0.0162053
927.034	0.0161281
927.112	0.0161328
927.190	0.0161034
927.268	0.0160481
927.346	0.0160978
927.424	0.0161710
927.503	0.0159628
927.581	0.0160302
927.659	0.0160577
927.737	0.0160953
927.815	0.0161178
927.893	0.0161395
927.971	0.0160591
928.049	0.0161602
928.128	0.0161829
928.206	0.0160983
928.284	0.0159491
928.362	0.0161430
928.440	0.0162422
928.518	0.0161375
928.596	0.0161473
928.674	0.0160884
928.753	0.0160940
928.831	0.0162389
928.909	0.0161711
928.987	0.0161899
929.065	0.0162019
929.143	0.0161173
929.221	0.0161846
929.299	0.0161279
929.378	0.0160657
929.456	0.0161840
929.534	0.0161411
929.612	0.0163493
929.690	0.0163729
929.768	0.0162624
929.846	0.0163059
929.924	0.0163351
930.003	0.0163345
930.081	0.0163486
930.159	0.0163786
930.237	0.0162857
930.315	0.0162053
930.393	0.0163224
930.471	0.0161617
930.549	0.0161910
930.628	0.0161900
930.706	0.0162093
930.784	0.0161423
930.862	0.0161262
930.940	0.0161239
931.018	0.0161329
931.096	0.0160712
931.174	0.0162620
931.253	0.0160670
931.331	0.0160969
931.409	0.0161617
931.487	0.0162062
931.565	0.0162115
931.643	0.0161763
931.721	0.0161752
931.799	0.0160439
931.878	0.0162572
931.956	0.0160896
932.034	0.0163316
932.112	0.0162120
932.190	0.0161836
932.268	0.0162971
932.346	0.0162585
932.424	0.0161969
932.503	0.0161311
932.581	0.0162147
932.659	0.0162353
932.737	0.0161820
932.815	0.0162189
932.893	0.0163314
932.971	0.0161555
933.049	0.0160101
933.128	0.0160889
933.206	0.0163310
933.284	0.0160946
933.362	0.0161714
933.440	0.0161679
933.518	0.0162445
933.596	0.0162152
933.674	0.0161674
933.753	0.0162012
933.831	0.0161806
933.909	0.0161977
933.987	0.0162917
934.065	0.0162380
934.143	0.0160811
934.221	0.0162429
934.299	0.0161266
934.378	0.0161922
934.456	0.0161265
934.534	0.0161039
934.612	0.0160925
934.690	0.0161984
934.768	0.0161727
934.846	0.0161299
934.924	0.0161073
935.003	0.0162522
935.081	0.0161043
935.159	0.0161148
935.237	0.0160127
935.315	0.0161298
935.393	0.0161720
935.471	0.0161636
935.549	0.0160434
935.628	0.0162057
935.706	0.0160787
935.784	0.0160928
935.862	0.0162263
935.940	0.0162388
936.018	0.0163509
936.096	0.0162944
936.174	0.0162035
936.253	0.0162483
936.331	0.0163258
936.409	0.0161197
936.487	0.0162777
936.565	0.0163265
936.643	0.0162660
936.721	0.0162502
936.799	0.0163323
936.878	0.0163109
936.956	0.0163404
937.034	0.0161900
937.112	0.0163622
937.190	0.0161250
937.268	0.0161457
937.346	0.0162751
937.424	0.0161390
937.503	0.0160782
937.581	0.0161330
937.659	0.0160478
937.737	0.0161429
937.815	0.0161056
937.893	0.0161611
937.971	0.0161343
938.049	0.0160763
938.128	0.0160744
938.206	0.0162587
938.284	0.0162653
938.362	0.0162469
938.440	0.0162016
938.518	0.0161205
938.596	0.0162441
938.674	0.0162224
938.753	0.0161286
938.831	0.0161580
938.909	0.0162625
938.987	0.0162446
939.065	0.0162773
939.143	0.0162618
939.221	0.0160578
939.299	0.0161127
939.378	0.0161761
939.456	0.0162187
939.534	0.0161484
939.612	0.0161189
939.690	0.0161317
939.768	0.0160731
939.846	0.0162193
939.924	0.0162681
940.003	0.0162607
940.081	0.0162012
940.159	0.0163306
940.237	0.0162270
940.315	0.0162376
940.393	0.0162232
940.471	0.0162582
940.549	0.0163216
940.628	0.0162302
940.706	0.0161173
940.784	0.0162196
940.862	0.0162502
940.940	0.0162943
941.018	0.0161256
941.096	0.0160825
941.174	0.0162351
941.253	0.0162090
941.331	0.0160677
941.409	0.0160931
941.487	0.0162205
941.565	0.0162691
941.643	0.0162383
941.721	0.0161638
941.799	0.0161862
941.878	0.0162193
941.956	0.0162045
942.034	0.0161874
942.112	0.0162224
942.190	0.0161886
942.268	0.0161948
942.346	0.0162094
942.424	0.0162067
942.503	0.0162494
942.581	0.0161664
942.659	0.0160737
942.737	0.0163577
942.815	0.0162016
942.893	0.0159909
942.971	0.0161007
943.049	0.0160892
943.128	0.0162416
943.206	0.0162039
943.284	0.0161779
943.362	0.0160440
943.440	0.0159891
943.518	0.0160240
943.596	0.0162411
943.674	0.0160690
943.753	0.0161815
943.831	0.0162492
943.909	0.0160482
943.987	0.0162354
944.065	0.0162414
944.143	0.0161481
944.221	0.0162790
944.299	0.0162452
944.378	0.0164101
944.456	0.0163203
944.534	0.0163435
944.612	0.0162321
944.690	0.0163441
944.768	0.0162724
944.846	0.0162421
944.924	0.0162061
945.003	0.0162076
945.081	0.0162222
945.159	0.0161845
945.237	0.0162926
945.315	0.0161346
945.393	0.0161925
945.471	0.0162744
945.549	0.0163078
945.628	0.0162225
945.706	0.0162142
945.784	0.0163216
945.862	0.0162399
945.940	0.0161648
946.018	0.0162423
946.096	0.0162466
946.174	0.0163389
946.253	0.0161875
946.331	0.0161654
946.409	0.0161440
946.487	0.0161068
946.565	0.0162419
946.643	0.0161669
946.721	0.0160945
946.799	0.0162321
946.878	0.0162220
946.956	0.0162268
947.034	0.0162977
947.112	0.0161012
947.190	0.0162275
947.268	0.0162070
947.346	0.0163608
947.424	0.0162396
947.503	0.0162683
947.581	0.0162144
947.659	0.0162184
947.737	0.0162624
947.815	0.0161639
947.893	0.0161903
947.971	0.0162838
948.049	0.0161142
948.128	0.0162051
948.206	0.0161407
948.284	0.0162478
948.362	0.0161475
948.440	0.0161533
948.518	0.0161704
948.596	0.0161025
948.674	0.0161421
948.753	0.0161797
948.831	0.0161745
948.909	0.0162084
948.987	0.0160358
949.065	0.0160300
949.143	0.0160780
949.221	0.0161232
949.299	0.0159988
949.378	0.0160612
949.456	0.0160141
949.534	0.0160320
949.612	0.0160020
949.690	0.0162908
949.768	0.0162970
949.846	0.0162460
949.924	0.0160854
