06/29/2022	23:03:25	Ver.	4.1	UNKNOWN
Optical Delay	630.002507	Delta X		0.078125	Sweeps	1	Scan Rate	0/0
Coordinates	Axis 1	NaN	Axis 2	NaN	Axis 3	NaN	Axis 4	NaN	Axis 5	NaN	Axis 6	0.000000
TX Power	0.000000	RX Power	0.000000

630.003	0.0162838
630.081	0.0163461
630.159	0.0162751
630.237	0.0162968
630.315	0.0162440
630.393	0.0162691
630.471	0.0163782
630.549	0.0161282
630.628	0.0162042
630.706	0.0162255
630.784	0.0162594
630.862	0.0163024
630.940	0.0163509
631.018	0.0163576
631.096	0.0162955
631.174	0.0163015
631.253	0.0163513
631.331	0.0162859
631.409	0.0163960
631.487	0.0163559
631.565	0.0163331
631.643	0.0162865
631.721	0.0162444
631.799	0.0163577
631.878	0.0164108
631.956	0.0164338
632.034	0.0162859
632.112	0.0160583
632.190	0.0164163
632.268	0.0163159
632.346	0.0161305
632.424	0.0162867
632.503	0.0162908
632.581	0.0163099
632.659	0.0164128
632.737	0.0162323
632.815	0.0163317
632.893	0.0163367
632.971	0.0163629
633.049	0.0162037
633.128	0.0163093
633.206	0.0161964
633.284	0.0163303
633.362	0.0162390
633.440	0.0163491
633.518	0.0162684
633.596	0.0164056
633.674	0.0162563
633.753	0.0162246
633.831	0.0162900
633.909	0.0161561
633.987	0.0162936
634.065	0.0163242
634.143	0.0161771
634.221	0.0163514
634.299	0.0162019
634.378	0.0162315
634.456	0.0162758
634.534	0.0162206
634.612	0.0164327
634.690	0.0162355
634.768	0.0162959
634.846	0.0164516
634.924	0.0163740
635.003	0.0163691
635.081	0.0163359
635.159	0.0163859
635.237	0.0163499
635.315	0.0162897
635.393	0.0163069
635.471	0.0164011
635.549	0.0164173
635.628	0.0162366
635.706	0.0163687
635.784	0.0164268
635.862	0.0163875
635.940	0.0163571
636.018	0.0162251
636.096	0.0163185
636.174	0.0163757
636.253	0.0161613
636.331	0.0162933
636.409	0.0163593
636.487	0.0162905
636.565	0.0162949
636.643	0.0163615
636.721	0.0163154
636.799	0.0162016
636.878	0.0161411
636.956	0.0162428
637.034	0.0162852
637.112	0.0162962
637.190	0.0164523
637.268	0.0163984
637.346	0.0163866
637.424	0.0163634
637.503	0.0164240
637.581	0.0163364
637.659	0.0163777
637.737	0.0162717
637.815	0.0162852
637.893	0.0163607
637.971	0.0161649
638.049	0.0163253
638.128	0.0162950
638.206	0.0162894
638.284	0.0162946
638.362	0.0162840
638.440	0.0163378
638.518	0.0163850
638.596	0.0163223
638.674	0.0163001
638.753	0.0164257
638.831	0.0162937
638.909	0.0163406
638.987	0.0162882
639.065	0.0163142
639.143	0.0162591
639.221	0.0162907
639.299	0.0162524
639.378	0.0163253
639.456	0.0163148
639.534	0.0164294
639.612	0.0162807
639.690	0.0162666
639.768	0.0162527
639.846	0.0162798
639.924	0.0163355
640.003	0.0163505
640.081	0.0162999
640.159	0.0163211
640.237	0.0162541
640.315	0.0161874
640.393	0.0162712
640.471	0.0162611
640.549	0.0162816
640.628	0.0161933
640.706	0.0162192
640.784	0.0162161
640.862	0.0163017
640.940	0.0163229
641.018	0.0163548
641.096	0.0164085
641.174	0.0162434
641.253	0.0162508
641.331	0.0162472
641.409	0.0163560
641.487	0.0162834
641.565	0.0163754
641.643	0.0163803
641.721	0.0163065
641.799	0.0161462
641.878	0.0162248
641.956	0.0163378
642.034	0.0162721
642.112	0.0164157
642.190	0.0162782
642.268	0.0162331
642.346	0.0163606
642.424	0.0162357
642.503	0.0162729
642.581	0.0163217
642.659	0.0161154
642.737	0.0163668
642.815	0.0161462
642.893	0.0163673
642.971	0.0164335
643.049	0.0162786
643.128	0.0163869
643.206	0.0163637
643.284	0.0163220
643.362	0.0164288
643.440	0.0164120
643.518	0.0163500
643.596	0.0163817
643.674	0.0163551
643.753	0.0163103
643.831	0.0163017
643.909	0.0162959
643.987	0.0163455
644.065	0.0163780
644.143	0.0163887
644.221	0.0163458
644.299	0.0163559
644.378	0.0162479
644.456	0.0163898
644.534	0.0162569
644.612	0.0163846
644.690	0.0162762
644.768	0.0163831
644.846	0.0163248
644.924	0.0164349
645.003	0.0163798
645.081	0.0162425
645.159	0.0163601
645.237	0.0163074
645.315	0.0163429
645.393	0.0162589
645.471	0.0163751
645.549	0.0162287
645.628	0.0163773
645.706	0.0163249
645.784	0.0161880
645.862	0.0163390
645.940	0.0162455
646.018	0.0162711
646.096	0.0162733
646.174	0.0162868
646.253	0.0164138
646.331	0.0162777
646.409	0.0162566
646.487	0.0162249
646.565	0.0162737
646.643	0.0163853
646.721	0.0162842
646.799	0.0163039
646.878	0.0164480
646.956	0.0162858
647.034	0.0162653
647.112	0.0162495
647.190	0.0163927
647.268	0.0163071
647.346	0.0162431
647.424	0.0164372
647.503	0.0163264
647.581	0.0161950
647.659	0.0162811
647.737	0.0162332
647.815	0.0161551
647.893	0.0162981
647.971	0.0162174
648.049	0.0162787
648.128	0.0163385
648.206	0.0162890
648.284	0.0162946
648.362	0.0161782
648.440	0.0162084
648.518	0.0164135
648.596	0.0164265
648.674	0.0164708
648.753	0.0162215
648.831	0.0163303
648.909	0.0162758
648.987	0.0163687
649.065	0.0162827
649.143	0.0163670
649.221	0.0161979
649.299	0.0163803
649.378	0.0163583
649.456	0.0162699
649.534	0.0161746
649.612	0.0162481
649.690	0.0163407
649.768	0.0162947
649.846	0.0164822
649.924	0.0162429
650.003	0.0162659
650.081	0.0164109
650.159	0.0162636
650.237	0.0163285
650.315	0.0162039
650.393	0.0163206
650.471	0.0162913
650.549	0.0163795
650.628	0.0162670
650.706	0.0162967
650.784	0.0164387
650.862	0.0163145
650.940	0.0163284
651.018	0.0163489
651.096	0.0161774
651.174	0.0163460
651.253	0.0161868
651.331	0.0163438
651.409	0.0163487
651.487	0.0162881
651.565	0.0162743
651.643	0.0165298
651.721	0.0163972
651.799	0.0163479
651.878	0.0162683
651.956	0.0162566
652.034	0.0164155
652.112	0.0162284
652.190	0.0162174
652.268	0.0164818
652.346	0.0163058
652.424	0.0162806
652.503	0.0163547
652.581	0.0163454
652.659	0.0162630
652.737	0.0163120
652.815	0.0163898
652.893	0.0162930
652.971	0.0162227
653.049	0.0163704
653.128	0.0162875
653.206	0.0163068
653.284	0.0163905
653.362	0.0162305
653.440	0.0164320
653.518	0.0163572
653.596	0.0164234
653.674	0.0163542
653.753	0.0163219
653.831	0.0162426
653.909	0.0163113
653.987	0.0162935
654.065	0.0163615
654.143	0.0162145
654.221	0.0164696
654.299	0.0163581
654.378	0.0161151
654.456	0.0163409
654.534	0.0162486
654.612	0.0163203
654.690	0.0165034
654.768	0.0163137
654.846	0.0163087
654.924	0.0161775
655.003	0.0162759
655.081	0.0162949
655.159	0.0162215
655.237	0.0163736
655.315	0.0163543
655.393	0.0161782
655.471	0.0161212
655.549	0.0163792
655.628	0.0163131
655.706	0.0162625
655.784	0.0163079
655.862	0.0163025
655.940	0.0162860
656.018	0.0163792
656.096	0.0163567
656.174	0.0163321
656.253	0.0162634
656.331	0.0162521
656.409	0.0164413
656.487	0.0163641
656.565	0.0162876
656.643	0.0161889
656.721	0.0162893
656.799	0.0163580
656.878	0.0162219
656.956	0.0163094
657.034	0.0163214
657.112	0.0163672
657.190	0.0162048
657.268	0.0161359
657.346	0.0162636
657.424	0.0162273
657.503	0.0161582
657.581	0.0162248
657.659	0.0163504
657.737	0.0164516
657.815	0.0163876
657.893	0.0162145
657.971	0.0163072
658.049	0.0164385
658.128	0.0163070
658.206	0.0162616
658.284	0.0162795
658.362	0.0162173
658.440	0.0162630
658.518	0.0163209
658.596	0.0164514
658.674	0.0161732
658.753	0.0162655
658.831	0.0163980
658.909	0.0162139
658.987	0.0162062
659.065	0.0162692
659.143	0.0162946
659.221	0.0164345
659.299	0.0164660
659.378	0.0163406
659.456	0.0162936
659.534	0.0162943
659.612	0.0163338
659.690	0.0164233
659.768	0.0163280
659.846	0.0162615
659.924	0.0162942
660.003	0.0162813
660.081	0.0162617
660.159	0.0162751
660.237	0.0163559
660.315	0.0163380
660.393	0.0162939
660.471	0.0164189
660.549	0.0162567
660.628	0.0163457
660.706	0.0164664
660.784	0.0162928
660.862	0.0162537
660.940	0.0162643
661.018	0.0163252
661.096	0.0164385
661.174	0.0163105
661.253	0.0163467
661.331	0.0163754
661.409	0.0163103
661.487	0.0162094
661.565	0.0163562
661.643	0.0163033
661.721	0.0162760
661.799	0.0163509
661.878	0.0163967
661.956	0.0160817
662.034	0.0163351
662.112	0.0163490
662.190	0.0163242
662.268	0.0163252
662.346	0.0163934
662.424	0.0162614
662.503	0.0162132
662.581	0.0163968
662.659	0.0162729
662.737	0.0163253
662.815	0.0162896
662.893	0.0163803
662.971	0.0163605
663.049	0.0163959
663.128	0.0163517
663.206	0.0162233
663.284	0.0161990
663.362	0.0163290
663.440	0.0162499
663.518	0.0164591
663.596	0.0162560
663.674	0.0163268
663.753	0.0164385
663.831	0.0162424
663.909	0.0162863
663.987	0.0163029
664.065	0.0163033
664.143	0.0162440
664.221	0.0161504
664.299	0.0163095
664.378	0.0163502
664.456	0.0162904
664.534	0.0163660
664.612	0.0162681
664.690	0.0161748
664.768	0.0162239
664.846	0.0162946
664.924	0.0163116
665.003	0.0162915
665.081	0.0163359
665.159	0.0163278
665.237	0.0163315
665.315	0.0163529
665.393	0.0162707
665.471	0.0162361
665.549	0.0161475
665.628	0.0162389
665.706	0.0163156
665.784	0.0164320
665.862	0.0163680
665.940	0.0163097
666.018	0.0163754
666.096	0.0163712
666.174	0.0164233
666.253	0.0162497
666.331	0.0162776
666.409	0.0162708
666.487	0.0162893
666.565	0.0163307
666.643	0.0163128
666.721	0.0163712
666.799	0.0163422
666.878	0.0163624
666.956	0.0164030
667.034	0.0164178
667.112	0.0163564
667.190	0.0162754
667.268	0.0163068
667.346	0.0162192
667.424	0.0163314
667.503	0.0163324
667.581	0.0163552
667.659	0.0163706
667.737	0.0163023
667.815	0.0163480
667.893	0.0162585
667.971	0.0164848
668.049	0.0162544
668.128	0.0162904
668.206	0.0163599
668.284	0.0163668
668.362	0.0162992
668.440	0.0162482
668.518	0.0163644
668.596	0.0162949
668.674	0.0163348
668.753	0.0164883
668.831	0.0163356
668.909	0.0162009
668.987	0.0163188
669.065	0.0163008
669.143	0.0164825
669.221	0.0162728
669.299	0.0161231
669.378	0.0163850
669.456	0.0162693
669.534	0.0163779
669.612	0.0163667
669.690	0.0163720
669.768	0.0163589
669.846	0.0163261
669.924	0.0163047
670.003	0.0164230
670.081	0.0162800
670.159	0.0163655
670.237	0.0162331
670.315	0.0162868
670.393	0.0163492
670.471	0.0163181
670.549	0.0163518
670.628	0.0162920
670.706	0.0162944
670.784	0.0163342
670.862	0.0163866
670.940	0.0162161
671.018	0.0162936
671.096	0.0162949
671.174	0.0163963
671.253	0.0164260
671.331	0.0162637
671.409	0.0162034
671.487	0.0161265
671.565	0.0164245
671.643	0.0161887
671.721	0.0161387
671.799	0.0162292
671.878	0.0164103
671.956	0.0162893
672.034	0.0162659
672.112	0.0163444
672.190	0.0163655
672.268	0.0163670
672.346	0.0162772
672.424	0.0163333
672.503	0.0163786
672.581	0.0162151
672.659	0.0163427
672.737	0.0163220
672.815	0.0162988
672.893	0.0162838
672.971	0.0163729
673.049	0.0164374
673.128	0.0164184
673.206	0.0163298
673.284	0.0161964
673.362	0.0163078
673.440	0.0163499
673.518	0.0163649
673.596	0.0162634
673.674	0.0162837
673.753	0.0164536
673.831	0.0161639
673.909	0.0163524
673.987	0.0163651
674.065	0.0163538
674.143	0.0162241
674.221	0.0163253
674.299	0.0163889
674.378	0.0164680
674.456	0.0163215
674.534	0.0163523
674.612	0.0162390
674.690	0.0163856
674.768	0.0162481
674.846	0.0163079
674.924	0.0164251
675.003	0.0163271
675.081	0.0162173
675.159	0.0163128
675.237	0.0163162
675.315	0.0163824
675.393	0.0162630
675.471	0.0164156
675.549	0.0163141
675.628	0.0162343
675.706	0.0162318
675.784	0.0162978
675.862	0.0163978
675.940	0.0163696
676.018	0.0162064
676.096	0.0163232
676.174	0.0162176
676.253	0.0160875
676.331	0.0162457
676.409	0.0162398
676.487	0.0162467
676.565	0.0162187
676.643	0.0162722
676.721	0.0162520
676.799	0.0161700
676.878	0.0161961
676.956	0.0162954
677.034	0.0162748
677.112	0.0163094
677.190	0.0162351
677.268	0.0161633
677.346	0.0161558
677.424	0.0162646
677.503	0.0162350
677.581	0.0161258
677.659	0.0163038
677.737	0.0164047
677.815	0.0163039
677.893	0.0162877
677.971	0.0160659
678.049	0.0162319
678.128	0.0162193
678.206	0.0161922
678.284	0.0162708
678.362	0.0163322
678.440	0.0162766
678.518	0.0162675
678.596	0.0163309
678.674	0.0163136
678.753	0.0162984
678.831	0.0164675
678.909	0.0162946
678.987	0.0162740
679.065	0.0162380
679.143	0.0160550
679.221	0.0160966
679.299	0.0160722
679.378	0.0161506
679.456	0.0161477
679.534	0.0161799
679.612	0.0161009
679.690	0.0161021
679.768	0.0164228
679.846	0.0163190
679.924	0.0164221
680.003	0.0165612
680.081	0.0165169
680.159	0.0163558
680.237	0.0162719
680.315	0.0162725
680.393	0.0162333
680.471	0.0162651
680.549	0.0161895
680.628	0.0162075
680.706	0.0162531
680.784	0.0160862
680.862	0.0161674
680.940	0.0161292
681.018	0.0161988
681.096	0.0162820
681.174	0.0162048
681.253	0.0162024
681.331	0.0161754
681.409	0.0161644
681.487	0.0164178
681.565	0.0164711
681.643	0.0163409
681.721	0.0164568
681.799	0.0163963
681.878	0.0163500
681.956	0.0165182
682.034	0.0163884
682.112	0.0163537
682.190	0.0163947
682.268	0.0162215
682.346	0.0162431
682.424	0.0160966
682.503	0.0160419
682.581	0.0160954
682.659	0.0160293
682.737	0.0160677
682.815	0.0162541
682.893	0.0162132
682.971	0.0162440
683.049	0.0162651
683.128	0.0163184
683.206	0.0163447
683.284	0.0165660
683.362	0.0165047
683.440	0.0164573
683.518	0.0165424
683.596	0.0165305
683.674	0.0164333
683.753	0.0163821
683.831	0.0163723
683.909	0.0162693
683.987	0.0162083
684.065	0.0161974
684.143	0.0160811
684.221	0.0161691
684.299	0.0162570
684.378	0.0163055
684.456	0.0162009
684.534	0.0163280
684.612	0.0163029
684.690	0.0163017
684.768	0.0163059
684.846	0.0163822
684.924	0.0164561
685.003	0.0164496
685.081	0.0163531
685.159	0.0164327
685.237	0.0165909
685.315	0.0164976
685.393	0.0164421
685.471	0.0165075
685.549	0.0163560
685.628	0.0164683
685.706	0.0163770
685.784	0.0164848
685.862	0.0163369
685.940	0.0161844
686.018	0.0162802
686.096	0.0162795
686.174	0.0160965
686.253	0.0161123
686.331	0.0161713
686.409	0.0161110
686.487	0.0162012
686.565	0.0162913
686.643	0.0162277
686.721	0.0162984
686.799	0.0164183
686.878	0.0163867
686.956	0.0164740
687.034	0.0164307
687.112	0.0165246
687.190	0.0164751
687.268	0.0163832
687.346	0.0162972
687.424	0.0163629
687.503	0.0163575
687.581	0.0163011
687.659	0.0160915
687.737	0.0159840
687.815	0.0160410
687.893	0.0160802
687.971	0.0161139
688.049	0.0161039
688.128	0.0162036
688.206	0.0161823
688.284	0.0162787
688.362	0.0162356
688.440	0.0162828
688.518	0.0162783
688.596	0.0163129
688.674	0.0164164
688.753	0.0163536
688.831	0.0162569
688.909	0.0163470
688.987	0.0165283
689.065	0.0163232
689.143	0.0163879
689.221	0.0164642
689.299	0.0163459
689.378	0.0161364
689.456	0.0163148
689.534	0.0162862
689.612	0.0161565
689.690	0.0160622
689.768	0.0160709
689.846	0.0162132
689.924	0.0161273
690.003	0.0162196
690.081	0.0160227
690.159	0.0161151
690.237	0.0162681
690.315	0.0161710
690.393	0.0161691
690.471	0.0163600
690.549	0.0163715
690.628	0.0164804
690.706	0.0164262
690.784	0.0164374
690.862	0.0164216
690.940	0.0164204
691.018	0.0164703
691.096	0.0165063
691.174	0.0164781
691.253	0.0162915
691.331	0.0163161
691.409	0.0163863
691.487	0.0162553
691.565	0.0161172
691.643	0.0161920
691.721	0.0161376
691.799	0.0159385
691.878	0.0159210
691.956	0.0160760
692.034	0.0159688
692.112	0.0162159
692.190	0.0161417
692.268	0.0160932
692.346	0.0163332
692.424	0.0165115
692.503	0.0165252
692.581	0.0164582
692.659	0.0166602
692.737	0.0165483
692.815	0.0164403
692.893	0.0165892
692.971	0.0164175
693.049	0.0163655
693.128	0.0162573
693.206	0.0161995
693.284	0.0162291
693.362	0.0161501
693.440	0.0162098
693.518	0.0160483
693.596	0.0160525
693.674	0.0163337
693.753	0.0161430
693.831	0.0161741
693.909	0.0161574
693.987	0.0164278
694.065	0.0163999
694.143	0.0164275
694.221	0.0164322
694.299	0.0165298
694.378	0.0167152
694.456	0.0166056
694.534	0.0165570
694.612	0.0163590
694.690	0.0162889
694.768	0.0161786
694.846	0.0160846
694.924	0.0161433
695.003	0.0161309
695.081	0.0160482
695.159	0.0161528
695.237	0.0160183
695.315	0.0163373
695.393	0.0162427
695.471	0.0163821
695.549	0.0164444
695.628	0.0164618
695.706	0.0165266
695.784	0.0165814
695.862	0.0165275
695.940	0.0163580
696.018	0.0163237
696.096	0.0163937
696.174	0.0163107
696.253	0.0161764
696.331	0.0161372
696.409	0.0162051
696.487	0.0161106
696.565	0.0161890
696.643	0.0162283
696.721	0.0161694
696.799	0.0161015
696.878	0.0161527
696.956	0.0163228
697.034	0.0162765
697.112	0.0163879
697.190	0.0164338
697.268	0.0164546
697.346	0.0165180
697.424	0.0165853
697.503	0.0165511
697.581	0.0165272
697.659	0.0165125
697.737	0.0164814
697.815	0.0162775
697.893	0.0163263
697.971	0.0162253
698.049	0.0161668
698.128	0.0160762
698.206	0.0160954
698.284	0.0159635
698.362	0.0160989
698.440	0.0161172
698.518	0.0161967
698.596	0.0162489
698.674	0.0160783
698.753	0.0161909
698.831	0.0163560
698.909	0.0162935
698.987	0.0162643
699.065	0.0164612
699.143	0.0163997
699.221	0.0164005
699.299	0.0164558
699.378	0.0164813
699.456	0.0164986
699.534	0.0165168
699.612	0.0165524
699.690	0.0164290
699.768	0.0164952
699.846	0.0162262
699.924	0.0163438
700.003	0.0161820
700.081	0.0161665
700.159	0.0160590
700.237	0.0160610
700.315	0.0160584
700.393	0.0160363
700.471	0.0161235
700.549	0.0159477
700.628	0.0159972
700.706	0.0161224
700.784	0.0162418
700.862	0.0163740
700.940	0.0164999
701.018	0.0164286
701.096	0.0164265
701.174	0.0165205
701.253	0.0166437
701.331	0.0166916
701.409	0.0165212
701.487	0.0164704
701.565	0.0163800
701.643	0.0164172
701.721	0.0161787
701.799	0.0160856
701.878	0.0161034
701.956	0.0158786
702.034	0.0160482
702.112	0.0161023
702.190	0.0158599
702.268	0.0158936
702.346	0.0159464
702.424	0.0161172
702.503	0.0162334
702.581	0.0161069
702.659	0.0162811
702.737	0.0164523
702.815	0.0163592
702.893	0.0164609
702.971	0.0165316
703.049	0.0164373
703.128	0.0165221
703.206	0.0164647
703.284	0.0165042
703.362	0.0164851
703.440	0.0163753
703.518	0.0165270
703.596	0.0163136
703.674	0.0163546
703.753	0.0161736
703.831	0.0162349
703.909	0.0161582
703.987	0.0161915
704.065	0.0161530
704.143	0.0160824
704.221	0.0162260
704.299	0.0161264
704.378	0.0159165
704.456	0.0161752
704.534	0.0161717
704.612	0.0161720
704.690	0.0162305
704.768	0.0163212
704.846	0.0164796
704.924	0.0163177
705.003	0.0163692
705.081	0.0163275
705.159	0.0162901
705.237	0.0163088
705.315	0.0161928
705.393	0.0161188
705.471	0.0161404
705.549	0.0161457
705.628	0.0161140
705.706	0.0162576
705.784	0.0162811
705.862	0.0162395
705.940	0.0163545
706.018	0.0164475
706.096	0.0165910
706.174	0.0164896
706.253	0.0164362
706.331	0.0165009
706.409	0.0164599
706.487	0.0164904
706.565	0.0164344
706.643	0.0164864
706.721	0.0164931
706.799	0.0163129
706.878	0.0162609
706.956	0.0163326
707.034	0.0163084
707.112	0.0163898
707.190	0.0165163
707.268	0.0163111
707.346	0.0162524
707.424	0.0162279
707.503	0.0164056
707.581	0.0163510
707.659	0.0163604
707.737	0.0163066
707.815	0.0164780
707.893	0.0162595
707.971	0.0163566
708.049	0.0162770
708.128	0.0161182
708.206	0.0162277
708.284	0.0162899
708.362	0.0162111
708.440	0.0162850
708.518	0.0163749
708.596	0.0162856
708.674	0.0162711
708.753	0.0163074
708.831	0.0163237
708.909	0.0164228
708.987	0.0162746
709.065	0.0162650
709.143	0.0163026
709.221	0.0161757
709.299	0.0161311
709.378	0.0160893
709.456	0.0163625
709.534	0.0163557
709.612	0.0163567
709.690	0.0163799
709.768	0.0162294
709.846	0.0164285
709.924	0.0164436
710.003	0.0166143
710.081	0.0164490
710.159	0.0164069
710.237	0.0164557
710.315	0.0164518
710.393	0.0163801
710.471	0.0163363
710.549	0.0162769
710.628	0.0162913
710.706	0.0164491
710.784	0.0163021
710.862	0.0161759
710.940	0.0162230
711.018	0.0161380
711.096	0.0163399
711.174	0.0163292
711.253	0.0162632
711.331	0.0162517
711.409	0.0163592
711.487	0.0162888
711.565	0.0164420
711.643	0.0163812
711.721	0.0162297
711.799	0.0163352
711.878	0.0163634
711.956	0.0163194
712.034	0.0162804
712.112	0.0164390
712.190	0.0163142
712.268	0.0162595
712.346	0.0163729
712.424	0.0164210
712.503	0.0162845
712.581	0.0162990
712.659	0.0162701
712.737	0.0162759
712.815	0.0162466
712.893	0.0161835
712.971	0.0161194
713.049	0.0161467
713.128	0.0161977
713.206	0.0162640
713.284	0.0161856
713.362	0.0163099
713.440	0.0163257
713.518	0.0163139
713.596	0.0162801
713.674	0.0162582
713.753	0.0163057
713.831	0.0162362
713.909	0.0162756
713.987	0.0162939
714.065	0.0162696
714.143	0.0161785
714.221	0.0161395
714.299	0.0162363
714.378	0.0160790
714.456	0.0161053
714.534	0.0161503
714.612	0.0161002
714.690	0.0161950
714.768	0.0162463
714.846	0.0162622
714.924	0.0161314
715.003	0.0164299
715.081	0.0164561
715.159	0.0164845
715.237	0.0163847
715.315	0.0164210
715.393	0.0163404
715.471	0.0164616
715.549	0.0164091
715.628	0.0162733
715.706	0.0164728
715.784	0.0162600
715.862	0.0162950
715.940	0.0162492
716.018	0.0162103
716.096	0.0161105
716.174	0.0161554
716.253	0.0162053
716.331	0.0160545
716.409	0.0159543
716.487	0.0159087
716.565	0.0157999
716.643	0.0157901
716.721	0.0157359
716.799	0.0158659
716.878	0.0157995
716.956	0.0158860
717.034	0.0158115
717.112	0.0158153
717.190	0.0161336
717.268	0.0162782
717.346	0.0164803
717.424	0.0164448
717.503	0.0167121
717.581	0.0168096
717.659	0.0170409
717.737	0.0170268
717.815	0.0171674
717.893	0.0170777
717.971	0.0170292
718.049	0.0170827
718.128	0.0170641
718.206	0.0168538
718.284	0.0167643
718.362	0.0167256
718.440	0.0165939
718.518	0.0162415
718.596	0.0161617
718.674	0.0160415
718.753	0.0160516
718.831	0.0156785
718.909	0.0157339
718.987	0.0155633
719.065	0.0153493
719.143	0.0155065
719.221	0.0154802
719.299	0.0155945
719.378	0.0155984
719.456	0.0155415
719.534	0.0156668
719.612	0.0156987
719.690	0.0157926
719.768	0.0160860
719.846	0.0162148
719.924	0.0164279
720.003	0.0164017
720.081	0.0165988
720.159	0.0168226
720.237	0.0168884
720.315	0.0169728
720.393	0.0170420
720.471	0.0170340
720.549	0.0169693
720.628	0.0170646
720.706	0.0167430
720.784	0.0168910
720.862	0.0167587
720.940	0.0166885
721.018	0.0166318
721.096	0.0165045
721.174	0.0163619
721.253	0.0162027
721.331	0.0161181
721.409	0.0160699
721.487	0.0158411
721.565	0.0157661
721.643	0.0158451
721.721	0.0158675
721.799	0.0157467
721.878	0.0157856
721.956	0.0157391
722.034	0.0157078
722.112	0.0156382
722.190	0.0158646
722.268	0.0159600
722.346	0.0159816
722.424	0.0162458
722.503	0.0162457
722.581	0.0163308
722.659	0.0163255
722.737	0.0164637
722.815	0.0165060
722.893	0.0166570
722.971	0.0166718
723.049	0.0168594
723.128	0.0169398
723.206	0.0168838
723.284	0.0169003
723.362	0.0167793
723.440	0.0170215
723.518	0.0170071
723.596	0.0169460
723.674	0.0169099
723.753	0.0167863
723.831	0.0165547
723.909	0.0166242
723.987	0.0166331
724.065	0.0163102
724.143	0.0162078
724.221	0.0161269
724.299	0.0161916
724.378	0.0159490
724.456	0.0158391
724.534	0.0159535
724.612	0.0156330
724.690	0.0156825
724.768	0.0157771
724.846	0.0157861
724.924	0.0156267
725.003	0.0158270
725.081	0.0157656
725.159	0.0159021
725.237	0.0158584
725.315	0.0158862
725.393	0.0161901
725.471	0.0161557
725.549	0.0162227
725.628	0.0163953
725.706	0.0164701
725.784	0.0164123
725.862	0.0163052
725.940	0.0164936
726.018	0.0165655
726.096	0.0166425
726.174	0.0165229
726.253	0.0165527
726.331	0.0166394
726.409	0.0165932
726.487	0.0164789
726.565	0.0163883
726.643	0.0163577
726.721	0.0162545
726.799	0.0161313
726.878	0.0162791
726.956	0.0161443
727.034	0.0161251
727.112	0.0160700
727.190	0.0162547
727.268	0.0162360
727.346	0.0163403
727.424	0.0162032
727.503	0.0165310
727.581	0.0165876
727.659	0.0167024
727.737	0.0167325
727.815	0.0168828
727.893	0.0168939
727.971	0.0170911
728.049	0.0170303
728.128	0.0170941
728.206	0.0170595
728.284	0.0169626
728.362	0.0170444
728.440	0.0168410
728.518	0.0167918
728.596	0.0165072
728.674	0.0164453
728.753	0.0162344
728.831	0.0161659
728.909	0.0159240
728.987	0.0156780
729.065	0.0157101
729.143	0.0155465
729.221	0.0154263
729.299	0.0153344
729.378	0.0154306
729.456	0.0153407
729.534	0.0155045
729.612	0.0155004
729.690	0.0156301
729.768	0.0157845
729.846	0.0156813
729.924	0.0158419
730.003	0.0160921
730.081	0.0162054
730.159	0.0162226
730.237	0.0163644
730.315	0.0163457
730.393	0.0165104
730.471	0.0165040
730.549	0.0163861
730.628	0.0164225
730.706	0.0164087
730.784	0.0163979
730.862	0.0164726
730.940	0.0164844
731.018	0.0164587
731.096	0.0165051
731.174	0.0162900
731.253	0.0163687
731.331	0.0164162
731.409	0.0165070
731.487	0.0164704
731.565	0.0166322
731.643	0.0166458
731.721	0.0166158
731.799	0.0168715
731.878	0.0168742
731.956	0.0168600
732.034	0.0170500
732.112	0.0169943
732.190	0.0170831
732.268	0.0169995
732.346	0.0168098
732.424	0.0167989
732.503	0.0168098
732.581	0.0166733
732.659	0.0164645
732.737	0.0163394
732.815	0.0161259
732.893	0.0159467
732.971	0.0158223
733.049	0.0157948
733.128	0.0156467
733.206	0.0154460
733.284	0.0154269
733.362	0.0154890
733.440	0.0154278
733.518	0.0154393
733.596	0.0153736
733.674	0.0156951
733.753	0.0157552
733.831	0.0159570
733.909	0.0160494
733.987	0.0162769
734.065	0.0164583
734.143	0.0164108
734.221	0.0165991
734.299	0.0167748
734.378	0.0169341
734.456	0.0170409
734.534	0.0169833
734.612	0.0169779
734.690	0.0169356
734.768	0.0168533
734.846	0.0167168
734.924	0.0167074
735.003	0.0167284
735.081	0.0165285
735.159	0.0165556
735.237	0.0162940
735.315	0.0162519
735.393	0.0162203
735.471	0.0160866
735.549	0.0162066
735.628	0.0160837
735.706	0.0161547
735.784	0.0162669
735.862	0.0161828
735.940	0.0161995
736.018	0.0162766
736.096	0.0163337
736.174	0.0165482
736.253	0.0163420
736.331	0.0165014
736.409	0.0165556
736.487	0.0167020
736.565	0.0165196
736.643	0.0165874
736.721	0.0164486
736.799	0.0164108
736.878	0.0164552
736.956	0.0161964
737.034	0.0161597
737.112	0.0159397
737.190	0.0158425
737.268	0.0156171
737.346	0.0154015
737.424	0.0156155
737.503	0.0155376
737.581	0.0155470
737.659	0.0156017
737.737	0.0156075
737.815	0.0158624
737.893	0.0158415
737.971	0.0160608
738.049	0.0161971
738.128	0.0162633
738.206	0.0164214
738.284	0.0163023
738.362	0.0165958
738.440	0.0166520
738.518	0.0166381
738.596	0.0166855
738.674	0.0167146
738.753	0.0166590
738.831	0.0166232
738.909	0.0166539
738.987	0.0167454
739.065	0.0167329
739.143	0.0166624
739.221	0.0166119
739.299	0.0165918
739.378	0.0165170
739.456	0.0164898
739.534	0.0166423
739.612	0.0165217
739.690	0.0165498
739.768	0.0165738
739.846	0.0166328
739.924	0.0166029
740.003	0.0164651
740.081	0.0165530
740.159	0.0166454
740.237	0.0165458
740.315	0.0163470
740.393	0.0164230
740.471	0.0162665
740.549	0.0162945
740.628	0.0162653
740.706	0.0161879
740.784	0.0161420
740.862	0.0160094
740.940	0.0161939
741.018	0.0161384
741.096	0.0160143
741.174	0.0160688
741.253	0.0162019
741.331	0.0162173
741.409	0.0160842
741.487	0.0161331
741.565	0.0160696
741.643	0.0161526
741.721	0.0160138
741.799	0.0159964
741.878	0.0158754
741.956	0.0159381
742.034	0.0159140
742.112	0.0157755
742.190	0.0157772
742.268	0.0158594
742.346	0.0156877
742.424	0.0156305
742.503	0.0156293
742.581	0.0159016
742.659	0.0157914
742.737	0.0157895
742.815	0.0159521
742.893	0.0161846
742.971	0.0162061
743.049	0.0165047
743.128	0.0165376
743.206	0.0165393
743.284	0.0166895
743.362	0.0165742
743.440	0.0167416
743.518	0.0166543
743.596	0.0166755
743.674	0.0166291
743.753	0.0165549
743.831	0.0164250
743.909	0.0165297
743.987	0.0165959
744.065	0.0167336
744.143	0.0167765
744.221	0.0167287
744.299	0.0167637
744.378	0.0168739
744.456	0.0169144
744.534	0.0168280
744.612	0.0168501
744.690	0.0169413
744.768	0.0167591
744.846	0.0166390
744.924	0.0167106
745.003	0.0164257
745.081	0.0163987
745.159	0.0162817
745.237	0.0160372
745.315	0.0160760
745.393	0.0158358
745.471	0.0157557
745.549	0.0157477
745.628	0.0155319
745.706	0.0155298
745.784	0.0156110
745.862	0.0156089
745.940	0.0155418
746.018	0.0157112
746.096	0.0159382
746.174	0.0160945
746.253	0.0162801
746.331	0.0164526
746.409	0.0165375
746.487	0.0166859
746.565	0.0167613
746.643	0.0167338
746.721	0.0167389
746.799	0.0167390
746.878	0.0169294
746.956	0.0168324
747.034	0.0164712
747.112	0.0163556
747.190	0.0163689
747.268	0.0163289
747.346	0.0160665
747.424	0.0158780
747.503	0.0159805
747.581	0.0158176
747.659	0.0158746
747.737	0.0156306
747.815	0.0157311
747.893	0.0158182
747.971	0.0157945
748.049	0.0157730
748.128	0.0160043
748.206	0.0160671
748.284	0.0160093
748.362	0.0161176
748.440	0.0163419
748.518	0.0163555
748.596	0.0164765
748.674	0.0166228
748.753	0.0166302
748.831	0.0167005
748.909	0.0168950
748.987	0.0169726
749.065	0.0170499
749.143	0.0169328
749.221	0.0169609
749.299	0.0171159
749.378	0.0170704
749.456	0.0169935
749.534	0.0169172
749.612	0.0169064
749.690	0.0168587
749.768	0.0167564
749.846	0.0167069
749.924	0.0165981
750.003	0.0164539
750.081	0.0162862
750.159	0.0163156
750.237	0.0161279
750.315	0.0162200
750.393	0.0162276
750.471	0.0160001
750.549	0.0158245
750.628	0.0158002
750.706	0.0157648
750.784	0.0157200
750.862	0.0157701
750.940	0.0157298
751.018	0.0156734
751.096	0.0156545
751.174	0.0156695
751.253	0.0156393
751.331	0.0156693
751.409	0.0157473
751.487	0.0158672
751.565	0.0158561
751.643	0.0159257
751.721	0.0159917
751.799	0.0159428
751.878	0.0160831
751.956	0.0163873
752.034	0.0164435
752.112	0.0165094
752.190	0.0164858
752.268	0.0166653
752.346	0.0167842
752.424	0.0167590
752.503	0.0165997
752.581	0.0166321
752.659	0.0167101
752.737	0.0167993
752.815	0.0167222
752.893	0.0167735
752.971	0.0165490
753.049	0.0164789
753.128	0.0165946
753.206	0.0165244
753.284	0.0165342
753.362	0.0165099
753.440	0.0164758
753.518	0.0164645
753.596	0.0166642
753.674	0.0162961
753.753	0.0163874
753.831	0.0164371
753.909	0.0161038
753.987	0.0163114
754.065	0.0162956
754.143	0.0161974
754.221	0.0162768
754.299	0.0163145
754.378	0.0164515
754.456	0.0162444
754.534	0.0162673
754.612	0.0162645
754.690	0.0163844
754.768	0.0161887
754.846	0.0162234
754.924	0.0160523
755.003	0.0163116
755.081	0.0162616
755.159	0.0161924
755.237	0.0162002
755.315	0.0161320
755.393	0.0161367
755.471	0.0160510
755.549	0.0160840
755.628	0.0159568
755.706	0.0160809
755.784	0.0160006
755.862	0.0159397
755.940	0.0158250
756.018	0.0157714
756.096	0.0158756
756.174	0.0158795
756.253	0.0158221
756.331	0.0159499
756.409	0.0159653
756.487	0.0160139
756.565	0.0162756
756.643	0.0160088
756.721	0.0161570
756.799	0.0162525
756.878	0.0161248
756.956	0.0162167
757.034	0.0162302
757.112	0.0162846
757.190	0.0162431
757.268	0.0161668
757.346	0.0163514
757.424	0.0163233
757.503	0.0163235
757.581	0.0165789
757.659	0.0164977
757.737	0.0165827
757.815	0.0165236
757.893	0.0166452
757.971	0.0167434
758.049	0.0166592
758.128	0.0168072
758.206	0.0168381
758.284	0.0169109
758.362	0.0168222
758.440	0.0169309
758.518	0.0168766
758.596	0.0169301
758.674	0.0167645
758.753	0.0170536
758.831	0.0168924
758.909	0.0168063
758.987	0.0170045
759.065	0.0168430
759.143	0.0166291
759.221	0.0167017
759.299	0.0167644
759.378	0.0167361
759.456	0.0167385
759.534	0.0167043
759.612	0.0166154
759.690	0.0166333
759.768	0.0166911
759.846	0.0167833
759.924	0.0165100
760.003	0.0164305
760.081	0.0164192
760.159	0.0163783
760.237	0.0161552
760.315	0.0160613
760.393	0.0158271
760.471	0.0157480
760.549	0.0156090
760.628	0.0155287
760.706	0.0152151
760.784	0.0151234
760.862	0.0151479
760.940	0.0150838
761.018	0.0152489
761.096	0.0151640
761.174	0.0151025
761.253	0.0152475
761.331	0.0153615
761.409	0.0155222
761.487	0.0155095
761.565	0.0158980
761.643	0.0159669
761.721	0.0161548
761.799	0.0161730
761.878	0.0163950
761.956	0.0164587
762.034	0.0164643
762.112	0.0165336
762.190	0.0166175
762.268	0.0166617
762.346	0.0166452
762.424	0.0167002
762.503	0.0166187
762.581	0.0166939
762.659	0.0166168
762.737	0.0166048
762.815	0.0165977
762.893	0.0166668
762.971	0.0166235
763.049	0.0164376
763.128	0.0165144
763.206	0.0165270
763.284	0.0166251
763.362	0.0166400
763.440	0.0166651
763.518	0.0167337
763.596	0.0168745
763.674	0.0166486
763.753	0.0169319
763.831	0.0167311
763.909	0.0166756
763.987	0.0167412
764.065	0.0166431
764.143	0.0166648
764.221	0.0166461
764.299	0.0165593
764.378	0.0164333
764.456	0.0166348
764.534	0.0166491
764.612	0.0166290
764.690	0.0165353
764.768	0.0166756
764.846	0.0166622
764.924	0.0166707
765.003	0.0167392
765.081	0.0168021
765.159	0.0168185
765.237	0.0168134
765.315	0.0166967
765.393	0.0167556
765.471	0.0167235
765.549	0.0165451
765.628	0.0165956
765.706	0.0164738
765.784	0.0165125
765.862	0.0163625
765.940	0.0161040
766.018	0.0160302
766.096	0.0158979
766.174	0.0157015
766.253	0.0155106
766.331	0.0155518
766.409	0.0153011
766.487	0.0152982
766.565	0.0153254
766.643	0.0153641
766.721	0.0154270
766.799	0.0154321
766.878	0.0155432
766.956	0.0156112
767.034	0.0156963
767.112	0.0157063
767.190	0.0156943
767.268	0.0155798
767.346	0.0156476
767.424	0.0157657
767.503	0.0156841
767.581	0.0158569
767.659	0.0158676
767.737	0.0160489
767.815	0.0160537
767.893	0.0161732
767.971	0.0161813
768.049	0.0164956
768.128	0.0164577
768.206	0.0166483
768.284	0.0168322
768.362	0.0168533
768.440	0.0169904
768.518	0.0169117
768.596	0.0169589
768.674	0.0170210
768.753	0.0170609
768.831	0.0171303
768.909	0.0170441
768.987	0.0170068
769.065	0.0169495
769.143	0.0168732
769.221	0.0167409
769.299	0.0168312
769.378	0.0166744
769.456	0.0166262
769.534	0.0165773
769.612	0.0164786
769.690	0.0163986
769.768	0.0163609
769.846	0.0164289
769.924	0.0163410
770.003	0.0162636
770.081	0.0162589
770.159	0.0162740
770.237	0.0164730
770.315	0.0164281
770.393	0.0163568
770.471	0.0164468
770.549	0.0165443
770.628	0.0163928
770.706	0.0165556
770.784	0.0165212
770.862	0.0164210
770.940	0.0165639
771.018	0.0165168
771.096	0.0164445
771.174	0.0163842
771.253	0.0163648
771.331	0.0163564
771.409	0.0162457
771.487	0.0161444
771.565	0.0159688
771.643	0.0160111
771.721	0.0161367
771.799	0.0159450
771.878	0.0158156
771.956	0.0159389
772.034	0.0159155
772.112	0.0158629
772.190	0.0159023
772.268	0.0158521
772.346	0.0158662
772.424	0.0159336
772.503	0.0158746
772.581	0.0159636
772.659	0.0161282
772.737	0.0160702
772.815	0.0160641
772.893	0.0159440
772.971	0.0161714
773.049	0.0161908
773.128	0.0161320
773.206	0.0162047
773.284	0.0161026
773.362	0.0160787
773.440	0.0161588
773.518	0.0160462
773.596	0.0161491
773.674	0.0160193
773.753	0.0159164
773.831	0.0160208
773.909	0.0159546
773.987	0.0159224
774.065	0.0159851
774.143	0.0159502
774.221	0.0160818
774.299	0.0161691
774.378	0.0160579
774.456	0.0160756
774.534	0.0161305
774.612	0.0162151
774.690	0.0162005
774.768	0.0164780
774.846	0.0164835
774.924	0.0164436
775.003	0.0167961
775.081	0.0168520
775.159	0.0168421
775.237	0.0169009
775.315	0.0169652
775.393	0.0169300
775.471	0.0168817
775.549	0.0170072
775.628	0.0169188
775.706	0.0168681
775.784	0.0169324
775.862	0.0168782
775.940	0.0168059
776.018	0.0168126
776.096	0.0166942
776.174	0.0165753
776.253	0.0166144
776.331	0.0165479
776.409	0.0163121
776.487	0.0162270
776.565	0.0163550
776.643	0.0162804
776.721	0.0163610
776.799	0.0162313
776.878	0.0163001
776.956	0.0162660
777.034	0.0162760
777.112	0.0161639
777.190	0.0163104
777.268	0.0163120
777.346	0.0163770
777.424	0.0160868
777.503	0.0161193
777.581	0.0162110
777.659	0.0161036
777.737	0.0159645
777.815	0.0158771
777.893	0.0158678
777.971	0.0158051
778.049	0.0158879
778.128	0.0158187
778.206	0.0158105
778.284	0.0158627
778.362	0.0159676
778.440	0.0159493
778.518	0.0159086
778.596	0.0160636
778.674	0.0160683
778.753	0.0161810
778.831	0.0162380
778.909	0.0163117
778.987	0.0164014
779.065	0.0161987
779.143	0.0164422
779.221	0.0165256
779.299	0.0163999
779.378	0.0165288
779.456	0.0164584
779.534	0.0165208
779.612	0.0163782
779.690	0.0165152
779.768	0.0165133
779.846	0.0163847
779.924	0.0162592
780.003	0.0162866
780.081	0.0163633
780.159	0.0162045
780.237	0.0163037
780.315	0.0161748
780.393	0.0161129
780.471	0.0160109
780.549	0.0160073
780.628	0.0161391
780.706	0.0159983
780.784	0.0159911
780.862	0.0160372
780.940	0.0160162
781.018	0.0160449
781.096	0.0161163
781.174	0.0160892
781.253	0.0162782
781.331	0.0164291
781.409	0.0163644
781.487	0.0165076
781.565	0.0166038
781.643	0.0167692
781.721	0.0167473
781.799	0.0168871
781.878	0.0169104
781.956	0.0169802
782.034	0.0171354
782.112	0.0171424
782.190	0.0171652
782.268	0.0170149
782.346	0.0173166
782.424	0.0171114
782.503	0.0169977
782.581	0.0169282
782.659	0.0168742
782.737	0.0167445
782.815	0.0165994
782.893	0.0165188
782.971	0.0164057
783.049	0.0162524
783.128	0.0161443
783.206	0.0160051
783.284	0.0159652
783.362	0.0158904
783.440	0.0158224
783.518	0.0158105
783.596	0.0157887
783.674	0.0158026
783.753	0.0157947
783.831	0.0158917
783.909	0.0157291
783.987	0.0159088
784.065	0.0159797
784.143	0.0159201
784.221	0.0161325
784.299	0.0160722
784.378	0.0160822
784.456	0.0162360
784.534	0.0161975
784.612	0.0162909
784.690	0.0161900
784.768	0.0161404
784.846	0.0161707
784.924	0.0163246
785.003	0.0162191
785.081	0.0161419
785.159	0.0162389
785.237	0.0162178
785.315	0.0162720
785.393	0.0162761
785.471	0.0163818
785.549	0.0165057
785.628	0.0165125
785.706	0.0165479
785.784	0.0164116
785.862	0.0165569
785.940	0.0165925
786.018	0.0166581
786.096	0.0166057
786.174	0.0164205
786.253	0.0165485
786.331	0.0166302
786.409	0.0164712
786.487	0.0163080
786.565	0.0161829
786.643	0.0162741
786.721	0.0161575
786.799	0.0158474
786.878	0.0159872
786.956	0.0158966
787.034	0.0158094
787.112	0.0156567
787.190	0.0157104
787.268	0.0153971
787.346	0.0154394
787.424	0.0156413
787.503	0.0156700
787.581	0.0156598
787.659	0.0158195
787.737	0.0159116
787.815	0.0162106
787.893	0.0163475
787.971	0.0165958
788.049	0.0168356
788.128	0.0169160
788.206	0.0172025
788.284	0.0173189
788.362	0.0174274
788.440	0.0176591
788.518	0.0177275
788.596	0.0176739
788.674	0.0176658
788.753	0.0177145
788.831	0.0174860
788.909	0.0173592
788.987	0.0171915
789.065	0.0169441
789.143	0.0166639
789.221	0.0163797
789.299	0.0162604
789.378	0.0159336
789.456	0.0158971
789.534	0.0158069
789.612	0.0156013
789.690	0.0154324
789.768	0.0153327
789.846	0.0153962
789.924	0.0153416
790.003	0.0154250
790.081	0.0154911
790.159	0.0156161
790.237	0.0157599
790.315	0.0158870
790.393	0.0159871
790.471	0.0159596
790.549	0.0162267
790.628	0.0163190
790.706	0.0162976
790.784	0.0163683
790.862	0.0165027
790.940	0.0164537
791.018	0.0163216
791.096	0.0164375
791.174	0.0164237
791.253	0.0164275
791.331	0.0163667
791.409	0.0162920
791.487	0.0162543
791.565	0.0163882
791.643	0.0164944
791.721	0.0164471
791.799	0.0164088
791.878	0.0164458
791.956	0.0164204
792.034	0.0165907
792.112	0.0164819
792.190	0.0165786
792.268	0.0167957
792.346	0.0167036
792.424	0.0164923
792.503	0.0165576
792.581	0.0165487
792.659	0.0165734
792.737	0.0165644
792.815	0.0164706
792.893	0.0163519
792.971	0.0163135
793.049	0.0161420
793.128	0.0160851
793.206	0.0161059
793.284	0.0159265
793.362	0.0157069
793.440	0.0157196
793.518	0.0155624
793.596	0.0153983
793.674	0.0154797
793.753	0.0153686
793.831	0.0154398
793.909	0.0155778
793.987	0.0156038
794.065	0.0156210
794.143	0.0156892
794.221	0.0159859
794.299	0.0160916
794.378	0.0162656
794.456	0.0165320
794.534	0.0167981
794.612	0.0168446
794.690	0.0170223
794.768	0.0171301
794.846	0.0173680
794.924	0.0173799
795.003	0.0174699
795.081	0.0176266
795.159	0.0175331
795.237	0.0174420
795.315	0.0174568
795.393	0.0172508
795.471	0.0170428
795.549	0.0169337
795.628	0.0167947
795.706	0.0164724
795.784	0.0163308
795.862	0.0161183
795.940	0.0159483
796.018	0.0157967
796.096	0.0157140
796.174	0.0156835
796.253	0.0156060
796.331	0.0155148
796.409	0.0155682
796.487	0.0156686
796.565	0.0157353
796.643	0.0157266
796.721	0.0157441
796.799	0.0159715
796.878	0.0160308
796.956	0.0160008
797.034	0.0162543
797.112	0.0163097
797.190	0.0163749
797.268	0.0165730
797.346	0.0166010
797.424	0.0165361
797.503	0.0165528
797.581	0.0164240
797.659	0.0164785
797.737	0.0163158
797.815	0.0164120
797.893	0.0163844
797.971	0.0161207
798.049	0.0161741
798.128	0.0162222
798.206	0.0162797
798.284	0.0164052
798.362	0.0162341
798.440	0.0162497
798.518	0.0163485
798.596	0.0163692
798.674	0.0164610
798.753	0.0164048
798.831	0.0163472
798.909	0.0163892
798.987	0.0166898
799.065	0.0165670
799.143	0.0165657
799.221	0.0166463
799.299	0.0167997
799.378	0.0167254
799.456	0.0164047
799.534	0.0164186
799.612	0.0163718
799.690	0.0162479
799.768	0.0161967
799.846	0.0160518
799.924	0.0158574
800.003	0.0158194
800.081	0.0157086
800.159	0.0156310
800.237	0.0156016
800.315	0.0156116
800.393	0.0154659
800.471	0.0155264
800.549	0.0156588
800.628	0.0157623
800.706	0.0159323
800.784	0.0160443
800.862	0.0161825
800.940	0.0162605
801.018	0.0165821
801.096	0.0166637
801.174	0.0169352
801.253	0.0169921
801.331	0.0171642
801.409	0.0173135
801.487	0.0174537
801.565	0.0174175
801.643	0.0173340
801.721	0.0174449
801.799	0.0173016
801.878	0.0171688
801.956	0.0169235
802.034	0.0168938
802.112	0.0166586
802.190	0.0166046
802.268	0.0164764
802.346	0.0162280
802.424	0.0160844
802.503	0.0161137
802.581	0.0160407
802.659	0.0158661
802.737	0.0158311
802.815	0.0157500
802.893	0.0157803
802.971	0.0156810
803.049	0.0158759
803.128	0.0158883
803.206	0.0160066
803.284	0.0160596
803.362	0.0160866
803.440	0.0159931
803.518	0.0161629
803.596	0.0163246
803.674	0.0161757
803.753	0.0162950
803.831	0.0164821
803.909	0.0164070
803.987	0.0164054
804.065	0.0164850
804.143	0.0163604
804.221	0.0164012
804.299	0.0164647
804.378	0.0163058
804.456	0.0163788
804.534	0.0164484
804.612	0.0161794
804.690	0.0163792
804.768	0.0163101
804.846	0.0162680
804.924	0.0163214
805.003	0.0163237
805.081	0.0163834
805.159	0.0164806
805.237	0.0165279
805.315	0.0164558
805.393	0.0164046
805.471	0.0165237
805.549	0.0164942
805.628	0.0165723
805.706	0.0164606
805.784	0.0163346
805.862	0.0164465
805.940	0.0163941
806.018	0.0164400
806.096	0.0162404
806.174	0.0161298
806.253	0.0161343
806.331	0.0160152
806.409	0.0158266
806.487	0.0157681
806.565	0.0157166
806.643	0.0156543
806.721	0.0154729
806.799	0.0156365
806.878	0.0156792
806.956	0.0156485
807.034	0.0155926
807.112	0.0156033
807.190	0.0157655
807.268	0.0158926
807.346	0.0161009
807.424	0.0162576
807.503	0.0163380
807.581	0.0166265
807.659	0.0167904
807.737	0.0168046
807.815	0.0169334
807.893	0.0170425
807.971	0.0170430
808.049	0.0171361
808.128	0.0173926
808.206	0.0174226
808.284	0.0172714
808.362	0.0171101
808.440	0.0170837
808.518	0.0171365
808.596	0.0170223
808.674	0.0168669
808.753	0.0167399
808.831	0.0167049
808.909	0.0164402
808.987	0.0162314
809.065	0.0161456
809.143	0.0160677
809.221	0.0159435
809.299	0.0159372
809.378	0.0157212
809.456	0.0158404
809.534	0.0157703
809.612	0.0156570
809.690	0.0158038
809.768	0.0158015
809.846	0.0158603
809.924	0.0158914
810.003	0.0160963
810.081	0.0160523
810.159	0.0161455
810.237	0.0161839
810.315	0.0162005
810.393	0.0162445
810.471	0.0162673
810.549	0.0162056
810.628	0.0161540
810.706	0.0162399
810.784	0.0162212
810.862	0.0162775
810.940	0.0162108
811.018	0.0164188
811.096	0.0163789
811.174	0.0162209
811.253	0.0163181
811.331	0.0163517
811.409	0.0163689
811.487	0.0163056
811.565	0.0164727
811.643	0.0164013
811.721	0.0165704
811.799	0.0166223
811.878	0.0165449
811.956	0.0165646
812.034	0.0166992
812.112	0.0166142
812.190	0.0166551
812.268	0.0166117
812.346	0.0165585
812.424	0.0165026
812.503	0.0164082
812.581	0.0161938
812.659	0.0161568
812.737	0.0161329
812.815	0.0160715
812.893	0.0159441
812.971	0.0158865
813.049	0.0157920
813.128	0.0157483
813.206	0.0155557
813.284	0.0156686
813.362	0.0157239
813.440	0.0157551
813.518	0.0157019
813.596	0.0156789
813.674	0.0158511
813.753	0.0160358
813.831	0.0161466
813.909	0.0160288
813.987	0.0162907
814.065	0.0165459
814.143	0.0164101
814.221	0.0166534
814.299	0.0167556
814.378	0.0167683
814.456	0.0168361
814.534	0.0169070
814.612	0.0168990
814.690	0.0168564
814.768	0.0168910
814.846	0.0168710
814.924	0.0169358
815.003	0.0168352
815.081	0.0167931
815.159	0.0167960
815.237	0.0167092
815.315	0.0165642
815.393	0.0166183
815.471	0.0163483
815.549	0.0163380
815.628	0.0164871
815.706	0.0162531
815.784	0.0161514
815.862	0.0160013
815.940	0.0159354
816.018	0.0160151
816.096	0.0159701
816.174	0.0159720
816.253	0.0159923
816.331	0.0158669
816.409	0.0160046
816.487	0.0160283
816.565	0.0159183
816.643	0.0160817
816.721	0.0161077
816.799	0.0162011
816.878	0.0162328
816.956	0.0162257
817.034	0.0162230
817.112	0.0163216
817.190	0.0160071
817.268	0.0162663
817.346	0.0162465
817.424	0.0164773
817.503	0.0162888
817.581	0.0164733
817.659	0.0164257
817.737	0.0163415
817.815	0.0163793
817.893	0.0164286
817.971	0.0164335
818.049	0.0164997
818.128	0.0164432
818.206	0.0166385
818.284	0.0164569
818.362	0.0166872
818.440	0.0164189
818.518	0.0164421
818.596	0.0165520
818.674	0.0165097
818.753	0.0165893
818.831	0.0162845
818.909	0.0165195
818.987	0.0163195
819.065	0.0162371
819.143	0.0162064
819.221	0.0162640
819.299	0.0162038
819.378	0.0161639
819.456	0.0160422
819.534	0.0160564
819.612	0.0161216
819.690	0.0160546
819.768	0.0161827
819.846	0.0161835
819.924	0.0161730
820.003	0.0160265
820.081	0.0161626
820.159	0.0162209
820.237	0.0160238
820.315	0.0162757
820.393	0.0162120
820.471	0.0161945
820.549	0.0161412
820.628	0.0162505
820.706	0.0164058
820.784	0.0163577
820.862	0.0164058
820.940	0.0164690
821.018	0.0166425
821.096	0.0165643
821.174	0.0167621
821.253	0.0167422
821.331	0.0166963
821.409	0.0166502
821.487	0.0164612
821.565	0.0167755
821.643	0.0167581
821.721	0.0166660
821.799	0.0165685
821.878	0.0165079
821.956	0.0164061
822.034	0.0164653
822.112	0.0164517
822.190	0.0164191
822.268	0.0163918
822.346	0.0162767
822.424	0.0164240
822.503	0.0161670
822.581	0.0162399
822.659	0.0162702
822.737	0.0161797
822.815	0.0161440
822.893	0.0160269
822.971	0.0158888
823.049	0.0160071
823.128	0.0159772
823.206	0.0160686
823.284	0.0159731
823.362	0.0159384
823.440	0.0160490
823.518	0.0161907
823.596	0.0162232
823.674	0.0161117
823.753	0.0162064
823.831	0.0163781
823.909	0.0163663
823.987	0.0163264
824.065	0.0164392
824.143	0.0164771
824.221	0.0165247
824.299	0.0166018
824.378	0.0166776
824.456	0.0165751
824.534	0.0165231
824.612	0.0166275
824.690	0.0165823
824.768	0.0166103
824.846	0.0165829
824.924	0.0165080
825.003	0.0164736
825.081	0.0165511
825.159	0.0164148
825.237	0.0162218
825.315	0.0163474
825.393	0.0163161
825.471	0.0164960
825.549	0.0162331
825.628	0.0161922
825.706	0.0161392
825.784	0.0161442
825.862	0.0159945
825.940	0.0160442
826.018	0.0159289
826.096	0.0158179
826.174	0.0159222
826.253	0.0159345
826.331	0.0158861
826.409	0.0158926
826.487	0.0159684
826.565	0.0158096
826.643	0.0159698
826.721	0.0160911
826.799	0.0159911
826.878	0.0159337
826.956	0.0159702
827.034	0.0162096
827.112	0.0163020
827.190	0.0162072
827.268	0.0163104
827.346	0.0164713
827.424	0.0165041
827.503	0.0163454
827.581	0.0164701
827.659	0.0167135
827.737	0.0167197
827.815	0.0166637
827.893	0.0167300
827.971	0.0168351
828.049	0.0167355
828.128	0.0166791
828.206	0.0166759
828.284	0.0166911
828.362	0.0167816
828.440	0.0166602
828.518	0.0166718
828.596	0.0167187
828.674	0.0165327
828.753	0.0164283
828.831	0.0164969
828.909	0.0165174
828.987	0.0163250
829.065	0.0162856
829.143	0.0162881
829.221	0.0163089
829.299	0.0162063
829.378	0.0161548
829.456	0.0160540
829.534	0.0160340
829.612	0.0158482
829.690	0.0160859
829.768	0.0159274
829.846	0.0158971
829.924	0.0158889
830.003	0.0160578
830.081	0.0158453
830.159	0.0158386
830.237	0.0159895
830.315	0.0159204
830.393	0.0161903
830.471	0.0160350
830.549	0.0161422
830.628	0.0162317
830.706	0.0162497
830.784	0.0161725
830.862	0.0161932
830.940	0.0163293
831.018	0.0163520
831.096	0.0164531
831.174	0.0165260
831.253	0.0163814
831.331	0.0163190
831.409	0.0163440
831.487	0.0164226
831.565	0.0165192
831.643	0.0164525
831.721	0.0164897
831.799	0.0166418
831.878	0.0164567
831.956	0.0164939
832.034	0.0165232
832.112	0.0163824
832.190	0.0165359
832.268	0.0163805
832.346	0.0163265
832.424	0.0163734
832.503	0.0163864
832.581	0.0164097
832.659	0.0163942
832.737	0.0163243
832.815	0.0161971
832.893	0.0163054
832.971	0.0163689
833.049	0.0162104
833.128	0.0161897
833.206	0.0162292
833.284	0.0162108
833.362	0.0162414
833.440	0.0161461
833.518	0.0161546
833.596	0.0161176
833.674	0.0161194
833.753	0.0161807
833.831	0.0163541
833.909	0.0161785
833.987	0.0162463
834.065	0.0162717
834.143	0.0162614
834.221	0.0162508
834.299	0.0164407
834.378	0.0163769
834.456	0.0164465
834.534	0.0165446
834.612	0.0164926
834.690	0.0165498
834.768	0.0164251
834.846	0.0165462
834.924	0.0164970
835.003	0.0166029
835.081	0.0165930
835.159	0.0166270
835.237	0.0165118
835.315	0.0165394
835.393	0.0164626
835.471	0.0163509
835.549	0.0164532
835.628	0.0165477
835.706	0.0164870
835.784	0.0164759
835.862	0.0163039
835.940	0.0162733
836.018	0.0164246
836.096	0.0161836
836.174	0.0163237
836.253	0.0161031
836.331	0.0160898
836.409	0.0161186
836.487	0.0161997
836.565	0.0161443
836.643	0.0161932
836.721	0.0160770
836.799	0.0161472
836.878	0.0161761
836.956	0.0160831
837.034	0.0161271
837.112	0.0162563
837.190	0.0161018
837.268	0.0161746
837.346	0.0162545
837.424	0.0162509
837.503	0.0162523
837.581	0.0161740
837.659	0.0161987
837.737	0.0162749
837.815	0.0163149
837.893	0.0163804
837.971	0.0162428
838.049	0.0163848
838.128	0.0163291
838.206	0.0164101
838.284	0.0165311
838.362	0.0164348
838.440	0.0163495
838.518	0.0164179
838.596	0.0166248
838.674	0.0164282
838.753	0.0163895
838.831	0.0162956
838.909	0.0163852
838.987	0.0164185
839.065	0.0163103
839.143	0.0163373
839.221	0.0163265
839.299	0.0163757
839.378	0.0161919
839.456	0.0162653
839.534	0.0161903
839.612	0.0162770
839.690	0.0163036
839.768	0.0164114
839.846	0.0161916
839.924	0.0162212
840.003	0.0162589
840.081	0.0162282
840.159	0.0160535
840.237	0.0161093
840.315	0.0163302
840.393	0.0162821
840.471	0.0163162
840.549	0.0163374
840.628	0.0163683
840.706	0.0163850
840.784	0.0163237
840.862	0.0163759
840.940	0.0165917
841.018	0.0165854
841.096	0.0164666
841.174	0.0163805
841.253	0.0165272
841.331	0.0165427
841.409	0.0164573
841.487	0.0164514
841.565	0.0165051
841.643	0.0163635
841.721	0.0163565
841.799	0.0163397
841.878	0.0163026
841.956	0.0162904
842.034	0.0161958
842.112	0.0162911
842.190	0.0160381
842.268	0.0160662
842.346	0.0161335
842.424	0.0161651
842.503	0.0161544
842.581	0.0161878
842.659	0.0161195
842.737	0.0162459
842.815	0.0161523
842.893	0.0162066
842.971	0.0161079
843.049	0.0161081
843.128	0.0162108
843.206	0.0161617
843.284	0.0161600
843.362	0.0163509
843.440	0.0163010
843.518	0.0161918
843.596	0.0160946
843.674	0.0162273
843.753	0.0162614
843.831	0.0161703
843.909	0.0161911
843.987	0.0162955
844.065	0.0162914
844.143	0.0161546
844.221	0.0162785
844.299	0.0163045
844.378	0.0162484
844.456	0.0162260
844.534	0.0163481
844.612	0.0165128
844.690	0.0164281
844.768	0.0163845
844.846	0.0162793
844.924	0.0164981
845.003	0.0163998
845.081	0.0165067
845.159	0.0163227
845.237	0.0163851
845.315	0.0163185
845.393	0.0166353
845.471	0.0164188
845.549	0.0162446
845.628	0.0163538
845.706	0.0162947
845.784	0.0163245
845.862	0.0161301
845.940	0.0161659
846.018	0.0162562
846.096	0.0161482
846.174	0.0163120
846.253	0.0160320
846.331	0.0161968
846.409	0.0160265
846.487	0.0160379
846.565	0.0161261
846.643	0.0161389
846.721	0.0162288
846.799	0.0161533
846.878	0.0162187
846.956	0.0162439
847.034	0.0161908
847.112	0.0162768
847.190	0.0163567
847.268	0.0164145
847.346	0.0163335
847.424	0.0162804
847.503	0.0164745
847.581	0.0164634
847.659	0.0163208
847.737	0.0164547
847.815	0.0164307
847.893	0.0164504
847.971	0.0162823
848.049	0.0162769
848.128	0.0164142
848.206	0.0164754
848.284	0.0163243
848.362	0.0163777
848.440	0.0164284
848.518	0.0163755
848.596	0.0163998
848.674	0.0163815
848.753	0.0164533
848.831	0.0163338
848.909	0.0163241
848.987	0.0164957
849.065	0.0164928
849.143	0.0164123
849.221	0.0163681
849.299	0.0164624
849.378	0.0165089
849.456	0.0163533
849.534	0.0164329
849.612	0.0164266
849.690	0.0164493
849.768	0.0164561
849.846	0.0164394
849.924	0.0163974
850.003	0.0164485
850.081	0.0164310
850.159	0.0163698
850.237	0.0162770
850.315	0.0162347
850.393	0.0162414
850.471	0.0162727
850.549	0.0162270
850.628	0.0161712
850.706	0.0162453
850.784	0.0161794
850.862	0.0160343
850.940	0.0159853
851.018	0.0161378
851.096	0.0161774
851.174	0.0161625
851.253	0.0160805
851.331	0.0160309
851.409	0.0163061
851.487	0.0162080
851.565	0.0160705
851.643	0.0162222
851.721	0.0162096
851.799	0.0163158
851.878	0.0163628
851.956	0.0162970
852.034	0.0162106
852.112	0.0162766
852.190	0.0161508
852.268	0.0162526
852.346	0.0162668
852.424	0.0161629
852.503	0.0162442
852.581	0.0162474
852.659	0.0161058
852.737	0.0160811
852.815	0.0161829
852.893	0.0162088
852.971	0.0161923
853.049	0.0161707
853.128	0.0161884
853.206	0.0160640
853.284	0.0162200
853.362	0.0162859
853.440	0.0162423
853.518	0.0163267
853.596	0.0164250
853.674	0.0164198
853.753	0.0164249
853.831	0.0164683
853.909	0.0165331
853.987	0.0164255
854.065	0.0165716
854.143	0.0166002
854.221	0.0164825
854.299	0.0165034
854.378	0.0166194
854.456	0.0162989
854.534	0.0164935
854.612	0.0164370
854.690	0.0163781
854.768	0.0164907
854.846	0.0165500
854.924	0.0164123
855.003	0.0163748
855.081	0.0164615
855.159	0.0163802
855.237	0.0162505
855.315	0.0163963
855.393	0.0164666
855.471	0.0164758
855.549	0.0165025
855.628	0.0164730
855.706	0.0164646
855.784	0.0164065
855.862	0.0163744
855.940	0.0164344
856.018	0.0165868
856.096	0.0164227
856.174	0.0163911
856.253	0.0164449
856.331	0.0164394
856.409	0.0164371
856.487	0.0164866
856.565	0.0162270
856.643	0.0162505
856.721	0.0161741
856.799	0.0159235
856.878	0.0161749
856.956	0.0161170
857.034	0.0160042
857.112	0.0159833
857.190	0.0158285
857.268	0.0159193
857.346	0.0157327
857.424	0.0158855
857.503	0.0157813
857.581	0.0159406
857.659	0.0160255
857.737	0.0159592
857.815	0.0159141
857.893	0.0161362
857.971	0.0159786
858.049	0.0160405
858.128	0.0161508
858.206	0.0162543
858.284	0.0164007
858.362	0.0162761
858.440	0.0162438
858.518	0.0162569
858.596	0.0163312
858.674	0.0162331
858.753	0.0163263
858.831	0.0163287
858.909	0.0162912
858.987	0.0164291
859.065	0.0165307
859.143	0.0165562
859.221	0.0163071
859.299	0.0162949
859.378	0.0163869
859.456	0.0163187
859.534	0.0163507
859.612	0.0163351
859.690	0.0162678
859.768	0.0163049
859.846	0.0164358
859.924	0.0163602
860.003	0.0164178
860.081	0.0161301
860.159	0.0163144
860.237	0.0164611
860.315	0.0164901
860.393	0.0164240
860.471	0.0164204
860.549	0.0165963
860.628	0.0165673
860.706	0.0165063
860.784	0.0166341
860.862	0.0165144
860.940	0.0164622
861.018	0.0164497
861.096	0.0163697
861.174	0.0165150
861.253	0.0165536
861.331	0.0164199
861.409	0.0162412
861.487	0.0162745
861.565	0.0162518
861.643	0.0162270
861.721	0.0162795
861.799	0.0162129
861.878	0.0162942
861.956	0.0161189
862.034	0.0162643
862.112	0.0162910
862.190	0.0162251
862.268	0.0161382
862.346	0.0161710
862.424	0.0162818
862.503	0.0162864
862.581	0.0162657
862.659	0.0163271
862.737	0.0161642
862.815	0.0162874
862.893	0.0161650
862.971	0.0161786
863.049	0.0162677
863.128	0.0162906
863.206	0.0162743
863.284	0.0161563
863.362	0.0162321
863.440	0.0161405
863.518	0.0160700
863.596	0.0161589
863.674	0.0161527
863.753	0.0161178
863.831	0.0160797
863.909	0.0160078
863.987	0.0159402
864.065	0.0160815
864.143	0.0160854
864.221	0.0160134
864.299	0.0161066
864.378	0.0161110
864.456	0.0162359
864.534	0.0163233
864.612	0.0163721
864.690	0.0163454
864.768	0.0163677
864.846	0.0163753
864.924	0.0164469
865.003	0.0165028
865.081	0.0164040
865.159	0.0165870
865.237	0.0166132
865.315	0.0165639
865.393	0.0165472
865.471	0.0164859
865.549	0.0163321
865.628	0.0164896
865.706	0.0165556
865.784	0.0165095
865.862	0.0164402
865.940	0.0164378
866.018	0.0162764
866.096	0.0163407
866.174	0.0164605
866.253	0.0163848
866.331	0.0163795
866.409	0.0163453
866.487	0.0162593
866.565	0.0163708
866.643	0.0165733
866.721	0.0164312
866.799	0.0162887
866.878	0.0164919
866.956	0.0164641
867.034	0.0163409
867.112	0.0163907
867.190	0.0165643
867.268	0.0165060
867.346	0.0162542
867.424	0.0164771
867.503	0.0165383
867.581	0.0163582
867.659	0.0163315
867.737	0.0164233
867.815	0.0163448
867.893	0.0162269
867.971	0.0162558
868.049	0.0161651
868.128	0.0161883
868.206	0.0162628
868.284	0.0162274
868.362	0.0160165
868.440	0.0162584
868.518	0.0161009
868.596	0.0161327
868.674	0.0161655
868.753	0.0161225
868.831	0.0160608
868.909	0.0160177
868.987	0.0161084
869.065	0.0164352
869.143	0.0162267
869.221	0.0162769
869.299	0.0161730
869.378	0.0162447
869.456	0.0162933
869.534	0.0164321
869.612	0.0163595
869.690	0.0160912
869.768	0.0162583
869.846	0.0163166
869.924	0.0164025
870.003	0.0162704
870.081	0.0161838
870.159	0.0163369
870.237	0.0161306
870.315	0.0162808
870.393	0.0162692
870.471	0.0160825
870.549	0.0161758
870.628	0.0162304
870.706	0.0162241
870.784	0.0160583
870.862	0.0161184
870.940	0.0162331
871.018	0.0162973
871.096	0.0162372
871.174	0.0163370
871.253	0.0162805
871.331	0.0163230
871.409	0.0162257
871.487	0.0163892
871.565	0.0165541
871.643	0.0163946
871.721	0.0164406
871.799	0.0164433
871.878	0.0164285
871.956	0.0164817
872.034	0.0164783
872.112	0.0164135
872.190	0.0164027
872.268	0.0164909
872.346	0.0162830
872.424	0.0165554
872.503	0.0163738
872.581	0.0163951
872.659	0.0165394
872.737	0.0163603
872.815	0.0162094
872.893	0.0162935
872.971	0.0163091
873.049	0.0163402
873.128	0.0163747
873.206	0.0162733
873.284	0.0163018
873.362	0.0163349
873.440	0.0163553
873.518	0.0163479
873.596	0.0163595
873.674	0.0163507
873.753	0.0163827
873.831	0.0163241
873.909	0.0164039
873.987	0.0162418
874.065	0.0163461
874.143	0.0162723
874.221	0.0162626
874.299	0.0161206
874.378	0.0162050
874.456	0.0161143
874.534	0.0161084
874.612	0.0162073
874.690	0.0162512
874.768	0.0161022
874.846	0.0160911
874.924	0.0161102
875.003	0.0162315
875.081	0.0161153
875.159	0.0162518
875.237	0.0160703
875.315	0.0160575
875.393	0.0161866
875.471	0.0162395
875.549	0.0162045
875.628	0.0163279
875.706	0.0162645
875.784	0.0163079
875.862	0.0163431
875.940	0.0165220
876.018	0.0164744
876.096	0.0163612
876.174	0.0164642
876.253	0.0163322
876.331	0.0164215
876.409	0.0163849
876.487	0.0163113
876.565	0.0164489
876.643	0.0162888
876.721	0.0162354
876.799	0.0161908
876.878	0.0162148
876.956	0.0163129
877.034	0.0161930
877.112	0.0162589
877.190	0.0162064
877.268	0.0162074
877.346	0.0161613
877.424	0.0162594
877.503	0.0162096
877.581	0.0161893
877.659	0.0162859
877.737	0.0162027
877.815	0.0162118
877.893	0.0162697
877.971	0.0163647
878.049	0.0163241
878.128	0.0162782
878.206	0.0163715
878.284	0.0163791
878.362	0.0164511
878.440	0.0164679
878.518	0.0165511
878.596	0.0165731
878.674	0.0164573
878.753	0.0164649
878.831	0.0164600
878.909	0.0164316
878.987	0.0164775
879.065	0.0164304
879.143	0.0163926
879.221	0.0163677
879.299	0.0163641
879.378	0.0163873
879.456	0.0163000
879.534	0.0162360
879.612	0.0162844
879.690	0.0163002
879.768	0.0162908
879.846	0.0162093
879.924	0.0163400
880.003	0.0163805
880.081	0.0161577
880.159	0.0162182
880.237	0.0162820
880.315	0.0162521
880.393	0.0163131
880.471	0.0163100
880.549	0.0163416
880.628	0.0162103
880.706	0.0161791
880.784	0.0163381
880.862	0.0163866
880.940	0.0163380
881.018	0.0163281
881.096	0.0161737
881.174	0.0161746
881.253	0.0162533
881.331	0.0162389
881.409	0.0162804
881.487	0.0161243
881.565	0.0161467
881.643	0.0162845
881.721	0.0161620
881.799	0.0160973
881.878	0.0162702
881.956	0.0161855
882.034	0.0162215
882.112	0.0162469
882.190	0.0162655
882.268	0.0162693
882.346	0.0162080
882.424	0.0162703
882.503	0.0163773
882.581	0.0161632
882.659	0.0164285
882.737	0.0162476
882.815	0.0162188
882.893	0.0163527
882.971	0.0162690
883.049	0.0163268
883.128	0.0161949
883.206	0.0163642
883.284	0.0163004
883.362	0.0163128
883.440	0.0163042
883.518	0.0162201
883.596	0.0161626
883.674	0.0162386
883.753	0.0161289
883.831	0.0162949
883.909	0.0162887
883.987	0.0162737
884.065	0.0160880
884.143	0.0161899
884.221	0.0162730
884.299	0.0162926
884.378	0.0162003
884.456	0.0162441
884.534	0.0161642
884.612	0.0163029
884.690	0.0164429
884.768	0.0165659
884.846	0.0164391
884.924	0.0164610
885.003	0.0164020
885.081	0.0163702
885.159	0.0164296
885.237	0.0165655
885.315	0.0163598
885.393	0.0165183
885.471	0.0164829
885.549	0.0164458
885.628	0.0164359
885.706	0.0163523
885.784	0.0163719
885.862	0.0163523
885.940	0.0163517
886.018	0.0163721
886.096	0.0162023
886.174	0.0161789
886.253	0.0161984
886.331	0.0162350
886.409	0.0163002
886.487	0.0161096
886.565	0.0162101
886.643	0.0162273
886.721	0.0162606
886.799	0.0161906
886.878	0.0161266
886.956	0.0162112
887.034	0.0161526
887.112	0.0162191
887.190	0.0163040
887.268	0.0162659
887.346	0.0162409
887.424	0.0163528
887.503	0.0162846
887.581	0.0162656
887.659	0.0163309
887.737	0.0162581
887.815	0.0163153
887.893	0.0163895
887.971	0.0163343
888.049	0.0162217
888.128	0.0163392
888.206	0.0162624
888.284	0.0162885
888.362	0.0162885
888.440	0.0163946
888.518	0.0162303
888.596	0.0161835
888.674	0.0161065
888.753	0.0162545
888.831	0.0162426
888.909	0.0162423
888.987	0.0162888
889.065	0.0162975
889.143	0.0163904
889.221	0.0163461
889.299	0.0163293
889.378	0.0163242
889.456	0.0164042
889.534	0.0163540
889.612	0.0164115
889.690	0.0163493
889.768	0.0162751
889.846	0.0163868
889.924	0.0162550
890.003	0.0162928
890.081	0.0162675
890.159	0.0162860
890.237	0.0162189
890.315	0.0162189
890.393	0.0162340
890.471	0.0161496
890.549	0.0162252
890.628	0.0162589
890.706	0.0161054
890.784	0.0161848
890.862	0.0162236
890.940	0.0162270
891.018	0.0162198
891.096	0.0163319
891.174	0.0163165
891.253	0.0163002
891.331	0.0163081
891.409	0.0163744
891.487	0.0163682
891.565	0.0164693
891.643	0.0164283
891.721	0.0164102
891.799	0.0162894
891.878	0.0163733
891.956	0.0163396
892.034	0.0162466
892.112	0.0164522
892.190	0.0163413
892.268	0.0163358
892.346	0.0164660
892.424	0.0164633
892.503	0.0162652
892.581	0.0162960
892.659	0.0160585
892.737	0.0163295
892.815	0.0162427
892.893	0.0160889
892.971	0.0161697
893.049	0.0161801
893.128	0.0160139
893.206	0.0161314
893.284	0.0161189
893.362	0.0160294
893.440	0.0161488
893.518	0.0161615
893.596	0.0161009
893.674	0.0161383
893.753	0.0162592
893.831	0.0162979
893.909	0.0163130
893.987	0.0162823
894.065	0.0162401
894.143	0.0164152
894.221	0.0163345
894.299	0.0164317
894.378	0.0162868
894.456	0.0163025
894.534	0.0164265
894.612	0.0164731
894.690	0.0162967
894.768	0.0163180
894.846	0.0163869
894.924	0.0162850
895.003	0.0163432
895.081	0.0162112
895.159	0.0162724
895.237	0.0163515
895.315	0.0162654
895.393	0.0163746
895.471	0.0162268
895.549	0.0161675
895.628	0.0161284
895.706	0.0162571
895.784	0.0162937
895.862	0.0162646
895.940	0.0162242
896.018	0.0163350
896.096	0.0162691
896.174	0.0162960
896.253	0.0162966
896.331	0.0164046
896.409	0.0162234
896.487	0.0162982
896.565	0.0161378
896.643	0.0162350
896.721	0.0163011
896.799	0.0162850
896.878	0.0163332
896.956	0.0161751
897.034	0.0161686
897.112	0.0161726
897.190	0.0161500
897.268	0.0161888
897.346	0.0161485
897.424	0.0161323
897.503	0.0162275
897.581	0.0161752
897.659	0.0161836
897.737	0.0164085
897.815	0.0161739
897.893	0.0162815
897.971	0.0162279
898.049	0.0162399
898.128	0.0164169
898.206	0.0162582
898.284	0.0163160
898.362	0.0162604
898.440	0.0162584
898.518	0.0163969
898.596	0.0163152
898.674	0.0163204
898.753	0.0162663
898.831	0.0162112
898.909	0.0163042
898.987	0.0163644
899.065	0.0163803
899.143	0.0162758
899.221	0.0160892
899.299	0.0162207
899.378	0.0161997
899.456	0.0163214
899.534	0.0162688
899.612	0.0162505
899.690	0.0162680
899.768	0.0162448
899.846	0.0161893
899.924	0.0161763
900.003	0.0161920
900.081	0.0163059
900.159	0.0164312
900.237	0.0164206
900.315	0.0163985
900.393	0.0163049
900.471	0.0165240
900.549	0.0163975
900.628	0.0165046
900.706	0.0164556
900.784	0.0164055
900.862	0.0163811
900.940	0.0163869
901.018	0.0164405
901.096	0.0165408
901.174	0.0163583
901.253	0.0162479
901.331	0.0164369
901.409	0.0164201
901.487	0.0164342
901.565	0.0164693
901.643	0.0162034
901.721	0.0162875
901.799	0.0163920
901.878	0.0164191
901.956	0.0163755
902.034	0.0163440
902.112	0.0163480
902.190	0.0162637
902.268	0.0163107
902.346	0.0163076
902.424	0.0162396
902.503	0.0162623
902.581	0.0163628
902.659	0.0163588
902.737	0.0162143
902.815	0.0163044
902.893	0.0163104
902.971	0.0163972
903.049	0.0163598
903.128	0.0162296
903.206	0.0161830
903.284	0.0161438
903.362	0.0163112
903.440	0.0162646
903.518	0.0162413
903.596	0.0162630
903.674	0.0162618
903.753	0.0161793
903.831	0.0162207
903.909	0.0161921
903.987	0.0161875
904.065	0.0161338
904.143	0.0163059
904.221	0.0162499
904.299	0.0161863
904.378	0.0162701
904.456	0.0162870
904.534	0.0162210
904.612	0.0162472
904.690	0.0162752
904.768	0.0162512
904.846	0.0164059
904.924	0.0162976
905.003	0.0164254
905.081	0.0164753
905.159	0.0165262
905.237	0.0164891
905.315	0.0163567
905.393	0.0163755
905.471	0.0163130
905.549	0.0165401
905.628	0.0163943
905.706	0.0163824
905.784	0.0164949
905.862	0.0163608
905.940	0.0161714
906.018	0.0163812
906.096	0.0163426
906.174	0.0163370
906.253	0.0163455
906.331	0.0162754
906.409	0.0163399
906.487	0.0163964
906.565	0.0162113
906.643	0.0163148
906.721	0.0162903
906.799	0.0163960
906.878	0.0164285
906.956	0.0162467
907.034	0.0162846
907.112	0.0163715
907.190	0.0164610
907.268	0.0164496
907.346	0.0164979
907.424	0.0164066
907.503	0.0162906
907.581	0.0164073
907.659	0.0164055
907.737	0.0163128
907.815	0.0163815
907.893	0.0163110
907.971	0.0163554
908.049	0.0164822
908.128	0.0163059
908.206	0.0163271
908.284	0.0163178
908.362	0.0161761
908.440	0.0162025
908.518	0.0162965
908.596	0.0163550
908.674	0.0161671
908.753	0.0161185
908.831	0.0162827
908.909	0.0162045
908.987	0.0162234
909.065	0.0161967
909.143	0.0163163
909.221	0.0163751
909.299	0.0163628
909.378	0.0163145
909.456	0.0163453
909.534	0.0163858
909.612	0.0163903
909.690	0.0162791
909.768	0.0162118
909.846	0.0163320
909.924	0.0162958
910.003	0.0161324
910.081	0.0161986
910.159	0.0162013
910.237	0.0162816
910.315	0.0161170
910.393	0.0160373
910.471	0.0160969
910.549	0.0162453
910.628	0.0161362
910.706	0.0162350
910.784	0.0161848
910.862	0.0160861
910.940	0.0161909
911.018	0.0162127
911.096	0.0162685
911.174	0.0162630
911.253	0.0163232
911.331	0.0163370
911.409	0.0163332
911.487	0.0164494
911.565	0.0163893
911.643	0.0164225
911.721	0.0164641
911.799	0.0163644
911.878	0.0164761
911.956	0.0164788
912.034	0.0165104
912.112	0.0163780
912.190	0.0163911
912.268	0.0162474
912.346	0.0164446
912.424	0.0163574
912.503	0.0163445
912.581	0.0164729
912.659	0.0162112
912.737	0.0161746
912.815	0.0162386
912.893	0.0163477
912.971	0.0163616
913.049	0.0162738
913.128	0.0161050
913.206	0.0162126
913.284	0.0163241
913.362	0.0161579
913.440	0.0163100
913.518	0.0162720
913.596	0.0162815
913.674	0.0163431
913.753	0.0162774
913.831	0.0163234
913.909	0.0162487
913.987	0.0164012
914.065	0.0163844
914.143	0.0164133
914.221	0.0164949
914.299	0.0163686
914.378	0.0164341
914.456	0.0164009
914.534	0.0164259
914.612	0.0163788
914.690	0.0164046
914.768	0.0162879
914.846	0.0164324
914.924	0.0163568
915.003	0.0163861
915.081	0.0164731
915.159	0.0163203
915.237	0.0162601
915.315	0.0161937
915.393	0.0163362
915.471	0.0161986
915.549	0.0162295
915.628	0.0160926
915.706	0.0161826
915.784	0.0160625
915.862	0.0161268
915.940	0.0162182
916.018	0.0161113
916.096	0.0161366
916.174	0.0161082
916.253	0.0161336
916.331	0.0160912
916.409	0.0162106
916.487	0.0163416
916.565	0.0163686
916.643	0.0163075
916.721	0.0162756
916.799	0.0160519
916.878	0.0161230
916.956	0.0162384
917.034	0.0162818
917.112	0.0164022
917.190	0.0163515
917.268	0.0163632
917.346	0.0162198
917.424	0.0162017
917.503	0.0163660
917.581	0.0163815
917.659	0.0163266
917.737	0.0163293
917.815	0.0162905
917.893	0.0164091
917.971	0.0162860
918.049	0.0163512
918.128	0.0163584
918.206	0.0163663
918.284	0.0163678
918.362	0.0162793
918.440	0.0162347
918.518	0.0162205
918.596	0.0164150
918.674	0.0163055
918.753	0.0162177
918.831	0.0162096
918.909	0.0162557
918.987	0.0163642
919.065	0.0164024
919.143	0.0164605
919.221	0.0162408
919.299	0.0163260
919.378	0.0163032
919.456	0.0162922
919.534	0.0163305
919.612	0.0163866
919.690	0.0163628
919.768	0.0163213
919.846	0.0163702
919.924	0.0162961
920.003	0.0165044
920.081	0.0163768
920.159	0.0162591
920.237	0.0163228
920.315	0.0163744
920.393	0.0163651
920.471	0.0163127
920.549	0.0162022
920.628	0.0161955
920.706	0.0161481
920.784	0.0161510
920.862	0.0162011
920.940	0.0161131
921.018	0.0160846
921.096	0.0161832
921.174	0.0163857
921.253	0.0161985
921.331	0.0161797
921.409	0.0162057
921.487	0.0161972
921.565	0.0163737
921.643	0.0163821
921.721	0.0161667
921.799	0.0163539
921.878	0.0165049
921.956	0.0163355
922.034	0.0164703
922.112	0.0162549
922.190	0.0162064
922.268	0.0162917
922.346	0.0163860
922.424	0.0163631
922.503	0.0163280
922.581	0.0163303
922.659	0.0161631
922.737	0.0161019
922.815	0.0162152
922.893	0.0161488
922.971	0.0163203
923.049	0.0161697
923.128	0.0162581
923.206	0.0162812
923.284	0.0163240
923.362	0.0162906
923.440	0.0162433
923.518	0.0163803
923.596	0.0163554
923.674	0.0161501
923.753	0.0165387
923.831	0.0162731
923.909	0.0163494
923.987	0.0163383
924.065	0.0164725
924.143	0.0162873
924.221	0.0162781
924.299	0.0162684
924.378	0.0162840
924.456	0.0161885
924.534	0.0163126
924.612	0.0161590
924.690	0.0161842
924.768	0.0161588
924.846	0.0161272
924.924	0.0162955
925.003	0.0162697
925.081	0.0161545
925.159	0.0162968
925.237	0.0162933
925.315	0.0161442
925.393	0.0162802
925.471	0.0164044
925.549	0.0164039
925.628	0.0163990
925.706	0.0163928
925.784	0.0164941
925.862	0.0164545
925.940	0.0163576
926.018	0.0164022
926.096	0.0164165
926.174	0.0163842
926.253	0.0165307
926.331	0.0163882
926.409	0.0163856
926.487	0.0164874
926.565	0.0164427
926.643	0.0162830
926.721	0.0161423
926.799	0.0162228
926.878	0.0162489
926.956	0.0162293
927.034	0.0161269
927.112	0.0162364
927.190	0.0162302
927.268	0.0163316
927.346	0.0160970
927.424	0.0162909
927.503	0.0162894
927.581	0.0162244
927.659	0.0163285
927.737	0.0161961
927.815	0.0163805
927.893	0.0162550
927.971	0.0163670
928.049	0.0163330
928.128	0.0162888
928.206	0.0162852
928.284	0.0163249
928.362	0.0163722
928.440	0.0162336
928.518	0.0161776
928.596	0.0162234
928.674	0.0162315
928.753	0.0161948
928.831	0.0162572
928.909	0.0162973
928.987	0.0164410
929.065	0.0162882
929.143	0.0162605
929.221	0.0161585
929.299	0.0160838
929.378	0.0162708
929.456	0.0163418
929.534	0.0163136
929.612	0.0162776
929.690	0.0162872
929.768	0.0162834
929.846	0.0162244
929.924	0.0164037
930.003	0.0164370
930.081	0.0163345
930.159	0.0164387
930.237	0.0163494
930.315	0.0164041
930.393	0.0163894
930.471	0.0164060
930.549	0.0162682
930.628	0.0164045
930.706	0.0163372
930.784	0.0161755
930.862	0.0161296
930.940	0.0163663
931.018	0.0163885
931.096	0.0162177
931.174	0.0161184
931.253	0.0162383
931.331	0.0162812
931.409	0.0161745
931.487	0.0162455
931.565	0.0162089
931.643	0.0162914
931.721	0.0162811
931.799	0.0163958
931.878	0.0163738
931.956	0.0162401
932.034	0.0162742
932.112	0.0163259
932.190	0.0164532
932.268	0.0163351
932.346	0.0163309
932.424	0.0163326
932.503	0.0163082
932.581	0.0163798
932.659	0.0163493
932.737	0.0162610
932.815	0.0162763
932.893	0.0163098
932.971	0.0162700
933.049	0.0161851
933.128	0.0164637
933.206	0.0163812
933.284	0.0162572
933.362	0.0163396
933.440	0.0163028
933.518	0.0163038
933.596	0.0163899
933.674	0.0162699
933.753	0.0162592
933.831	0.0161794
933.909	0.0163467
933.987	0.0162917
934.065	0.0160451
934.143	0.0161039
934.221	0.0162533
934.299	0.0161781
934.378	0.0161902
934.456	0.0163463
934.534	0.0162857
934.612	0.0163165
934.690	0.0161937
934.768	0.0164317
934.846	0.0164254
934.924	0.0163020
935.003	0.0163369
935.081	0.0163390
935.159	0.0163712
935.237	0.0163689
935.315	0.0162931
935.393	0.0162528
935.471	0.0162782
935.549	0.0161294
935.628	0.0162531
935.706	0.0162415
935.784	0.0161533
935.862	0.0163490
935.940	0.0162102
936.018	0.0162953
936.096	0.0163150
936.174	0.0163574
936.253	0.0165004
936.331	0.0163839
936.409	0.0163770
936.487	0.0164182
936.565	0.0164008
936.643	0.0162142
936.721	0.0163123
936.799	0.0163321
936.878	0.0162094
936.956	0.0163263
937.034	0.0163280
937.112	0.0164188
937.190	0.0162909
937.268	0.0162345
937.346	0.0162164
937.424	0.0161767
937.503	0.0162830
937.581	0.0162168
937.659	0.0162231
937.737	0.0162049
937.815	0.0162532
937.893	0.0161890
937.971	0.0162598
938.049	0.0162468
938.128	0.0161971
938.206	0.0163989
938.284	0.0163190
938.362	0.0163048
938.440	0.0163422
938.518	0.0163796
938.596	0.0163039
938.674	0.0163735
938.753	0.0164104
938.831	0.0163483
938.909	0.0163836
938.987	0.0162909
939.065	0.0162827
939.143	0.0162356
939.221	0.0162770
939.299	0.0162084
939.378	0.0163705
939.456	0.0162363
939.534	0.0162883
939.612	0.0163903
939.690	0.0163553
939.768	0.0164366
939.846	0.0164329
939.924	0.0163719
940.003	0.0164011
940.081	0.0163031
940.159	0.0164094
940.237	0.0163591
940.315	0.0163070
940.393	0.0163528
940.471	0.0163805
940.549	0.0162206
940.628	0.0162146
940.706	0.0161556
940.784	0.0161415
940.862	0.0162885
940.940	0.0163666
941.018	0.0162501
941.096	0.0162727
941.174	0.0163191
941.253	0.0163282
941.331	0.0162395
941.409	0.0161765
941.487	0.0163377
941.565	0.0163657
941.643	0.0164009
941.721	0.0163561
941.799	0.0164327
941.878	0.0164280
941.956	0.0163185
942.034	0.0161786
942.112	0.0163031
942.190	0.0162776
942.268	0.0162335
942.346	0.0162152
942.424	0.0162079
942.503	0.0162861
942.581	0.0162824
942.659	0.0161447
942.737	0.0161147
942.815	0.0161729
942.893	0.0162981
942.971	0.0163734
943.049	0.0161531
943.128	0.0162106
943.206	0.0163518
943.284	0.0162099
943.362	0.0162926
943.440	0.0163226
943.518	0.0163073
943.596	0.0161609
943.674	0.0163062
943.753	0.0162617
943.831	0.0163509
943.909	0.0161814
943.987	0.0162475
944.065	0.0161493
944.143	0.0162898
944.221	0.0162101
944.299	0.0163697
944.378	0.0162276
944.456	0.0163189
944.534	0.0163544
944.612	0.0163737
944.690	0.0163188
944.768	0.0163638
944.846	0.0163919
944.924	0.0162249
945.003	0.0163466
945.081	0.0161420
945.159	0.0162872
945.237	0.0162281
945.315	0.0162299
945.393	0.0163055
945.471	0.0163241
945.549	0.0162316
945.628	0.0161306
945.706	0.0162018
945.784	0.0162769
945.862	0.0162210
945.940	0.0162629
946.018	0.0161334
946.096	0.0161346
946.174	0.0162700
946.253	0.0161764
946.331	0.0162390
946.409	0.0163120
946.487	0.0163227
946.565	0.0161736
946.643	0.0162197
946.721	0.0162946
946.799	0.0163403
946.878	0.0163557
946.956	0.0163663
947.034	0.0163282
947.112	0.0163272
947.190	0.0164147
947.268	0.0163170
947.346	0.0163591
947.424	0.0164639
947.503	0.0162813
947.581	0.0163205
947.659	0.0162890
947.737	0.0164398
947.815	0.0163740
947.893	0.0162542
947.971	0.0160832
948.049	0.0162593
948.128	0.0163074
948.206	0.0163585
948.284	0.0162539
948.362	0.0161951
948.440	0.0161205
948.518	0.0162809
948.596	0.0161251
948.674	0.0160533
948.753	0.0161401
948.831	0.0163196
948.909	0.0161374
948.987	0.0162480
949.065	0.0162878
949.143	0.0161695
949.221	0.0162605
949.299	0.0162358
949.378	0.0161029
949.456	0.0161885
949.534	0.0161063
949.612	0.0161686
949.690	0.0163733
949.768	0.0162159
949.846	0.0163225
949.924	0.0163113
