06/29/2022	23:05:11	Ver.	4.1	UNKNOWN
Optical Delay	629.995835	Delta X		0.078125	Sweeps	1	Scan Rate	0/0
Coordinates	Axis 1	NaN	Axis 2	NaN	Axis 3	NaN	Axis 4	NaN	Axis 5	NaN	Axis 6	0.000000
TX Power	0.000000	RX Power	0.000000

629.996	0.0162547
630.074	0.0162744
630.152	0.0162474
630.230	0.0162988
630.308	0.0161766
630.386	0.0163646
630.465	0.0163098
630.543	0.0163662
630.621	0.0163008
630.699	0.0163151
630.777	0.0162743
630.855	0.0162199
630.933	0.0162846
631.011	0.0162968
631.090	0.0162432
631.168	0.0163210
631.246	0.0162373
631.324	0.0162432
631.402	0.0163213
631.480	0.0162463
631.558	0.0162988
631.636	0.0161034
631.715	0.0161893
631.793	0.0163223
631.871	0.0164001
631.949	0.0161848
632.027	0.0161753
632.105	0.0162437
632.183	0.0162538
632.261	0.0163463
632.340	0.0162016
632.418	0.0162728
632.496	0.0161751
632.574	0.0161559
632.652	0.0163322
632.730	0.0163571
632.808	0.0163533
632.886	0.0163548
632.965	0.0162377
633.043	0.0161189
633.121	0.0161469
633.199	0.0162812
633.277	0.0162402
633.355	0.0162580
633.433	0.0163749
633.511	0.0162246
633.590	0.0163419
633.668	0.0163238
633.746	0.0162868
633.824	0.0164209
633.902	0.0163051
633.980	0.0163052
634.058	0.0163268
634.136	0.0161592
634.215	0.0161987
634.293	0.0163215
634.371	0.0161408
634.449	0.0162323
634.527	0.0162251
634.605	0.0162335
634.683	0.0162652
634.761	0.0162472
634.840	0.0162572
634.918	0.0163415
634.996	0.0162678
635.074	0.0163204
635.152	0.0162479
635.230	0.0162592
635.308	0.0163361
635.386	0.0162818
635.465	0.0162225
635.543	0.0163025
635.621	0.0163009
635.699	0.0162483
635.777	0.0162744
635.855	0.0163654
635.933	0.0162560
636.011	0.0163067
636.090	0.0163061
636.168	0.0162325
636.246	0.0163937
636.324	0.0162964
636.402	0.0164184
636.480	0.0162688
636.558	0.0162752
636.636	0.0162110
636.715	0.0162043
636.793	0.0163372
636.871	0.0164211
636.949	0.0162589
637.027	0.0163052
637.105	0.0162170
637.183	0.0163692
637.261	0.0163068
637.340	0.0162308
637.418	0.0161440
637.496	0.0163113
637.574	0.0163174
637.652	0.0162284
637.730	0.0161850
637.808	0.0162979
637.886	0.0162914
637.965	0.0162256
638.043	0.0162265
638.121	0.0161890
638.199	0.0163049
638.277	0.0162247
638.355	0.0163190
638.433	0.0163369
638.511	0.0162865
638.590	0.0162093
638.668	0.0162809
638.746	0.0162337
638.824	0.0162679
638.902	0.0163902
638.980	0.0162758
639.058	0.0163347
639.136	0.0162540
639.215	0.0163274
639.293	0.0162938
639.371	0.0164212
639.449	0.0162614
639.527	0.0162485
639.605	0.0162939
639.683	0.0164055
639.761	0.0162479
639.840	0.0161356
639.918	0.0162342
639.996	0.0162695
640.074	0.0162886
640.152	0.0162722
640.230	0.0162402
640.308	0.0162331
640.386	0.0163108
640.465	0.0163502
640.543	0.0161987
640.621	0.0162329
640.699	0.0163085
640.777	0.0162286
640.855	0.0161971
640.933	0.0164709
641.011	0.0165135
641.090	0.0163000
641.168	0.0160726
641.246	0.0162811
641.324	0.0162422
641.402	0.0161744
641.480	0.0164326
641.558	0.0162213
641.636	0.0162630
641.715	0.0162135
641.793	0.0163112
641.871	0.0163232
641.949	0.0162346
642.027	0.0162348
642.105	0.0162706
642.183	0.0164117
642.261	0.0162686
642.340	0.0163035
642.418	0.0162934
642.496	0.0162769
642.574	0.0162922
642.652	0.0162267
642.730	0.0162937
642.808	0.0162528
642.886	0.0163844
642.965	0.0163569
643.043	0.0161714
643.121	0.0163418
643.199	0.0162220
643.277	0.0162363
643.355	0.0163457
643.433	0.0161787
643.511	0.0162560
643.590	0.0162404
643.668	0.0163222
643.746	0.0161653
643.824	0.0162854
643.902	0.0163147
643.980	0.0162627
644.058	0.0163131
644.136	0.0161768
644.215	0.0162047
644.293	0.0163099
644.371	0.0161581
644.449	0.0162323
644.527	0.0163799
644.605	0.0163434
644.683	0.0162431
644.761	0.0163892
644.840	0.0163055
644.918	0.0163387
644.996	0.0163348
645.074	0.0162538
645.152	0.0162806
645.230	0.0161782
645.308	0.0163637
645.386	0.0163369
645.465	0.0162901
645.543	0.0162525
645.621	0.0162129
645.699	0.0163059
645.777	0.0163522
645.855	0.0162046
645.933	0.0162573
646.011	0.0164266
646.090	0.0162292
646.168	0.0162601
646.246	0.0162912
646.324	0.0163334
646.402	0.0162838
646.480	0.0162757
646.558	0.0160913
646.636	0.0163681
646.715	0.0163000
646.793	0.0161321
646.871	0.0162715
646.949	0.0162595
647.027	0.0162830
647.105	0.0163242
647.183	0.0162629
647.261	0.0161803
647.340	0.0162116
647.418	0.0163833
647.496	0.0163226
647.574	0.0162714
647.652	0.0161829
647.730	0.0162592
647.808	0.0161707
647.886	0.0162930
647.965	0.0163711
648.043	0.0161825
648.121	0.0162996
648.199	0.0160912
648.277	0.0162142
648.355	0.0163176
648.433	0.0163722
648.511	0.0163986
648.590	0.0163482
648.668	0.0161900
648.746	0.0163635
648.824	0.0163471
648.902	0.0163950
648.980	0.0163011
649.058	0.0163140
649.136	0.0161795
649.215	0.0162423
649.293	0.0162455
649.371	0.0162669
649.449	0.0162740
649.527	0.0162637
649.605	0.0162562
649.683	0.0163038
649.761	0.0162010
649.840	0.0163562
649.918	0.0162504
649.996	0.0162958
650.074	0.0161188
650.152	0.0163835
650.230	0.0161687
650.308	0.0162616
650.386	0.0162022
650.465	0.0163273
650.543	0.0162802
650.621	0.0162455
650.699	0.0162897
650.777	0.0162672
650.855	0.0162830
650.933	0.0163458
651.011	0.0163554
651.090	0.0162621
651.168	0.0162161
651.246	0.0163229
651.324	0.0162223
651.402	0.0162508
651.480	0.0164197
651.558	0.0162964
651.636	0.0162805
651.715	0.0163367
651.793	0.0162094
651.871	0.0163464
651.949	0.0162160
652.027	0.0162620
652.105	0.0162923
652.183	0.0163866
652.261	0.0162342
652.340	0.0163826
652.418	0.0163652
652.496	0.0162940
652.574	0.0162865
652.652	0.0162191
652.730	0.0163066
652.808	0.0162505
652.886	0.0162407
652.965	0.0163375
653.043	0.0163165
653.121	0.0163623
653.199	0.0163170
653.277	0.0160918
653.355	0.0161719
653.433	0.0162701
653.511	0.0162949
653.590	0.0162020
653.668	0.0162575
653.746	0.0161697
653.824	0.0162955
653.902	0.0163344
653.980	0.0162355
654.058	0.0163162
654.136	0.0164633
654.215	0.0162618
654.293	0.0163346
654.371	0.0163113
654.449	0.0160937
654.527	0.0163622
654.605	0.0162025
654.683	0.0163381
654.761	0.0161898
654.840	0.0162458
654.918	0.0162304
654.996	0.0161472
655.074	0.0161494
655.152	0.0161785
655.230	0.0162840
655.308	0.0162944
655.386	0.0162356
655.465	0.0163003
655.543	0.0162723
655.621	0.0163083
655.699	0.0161494
655.777	0.0163200
655.855	0.0163406
655.933	0.0162962
656.011	0.0163645
656.090	0.0163447
656.168	0.0164157
656.246	0.0162717
656.324	0.0162657
656.402	0.0162296
656.480	0.0162148
656.558	0.0162467
656.636	0.0162566
656.715	0.0162484
656.793	0.0162663
656.871	0.0163007
656.949	0.0163353
657.027	0.0163142
657.105	0.0163665
657.183	0.0163665
657.261	0.0161595
657.340	0.0162367
657.418	0.0163057
657.496	0.0163648
657.574	0.0163909
657.652	0.0163273
657.730	0.0163423
657.808	0.0162978
657.886	0.0163841
657.965	0.0162305
658.043	0.0162163
658.121	0.0161311
658.199	0.0162236
658.277	0.0164874
658.355	0.0161602
658.433	0.0163300
658.511	0.0163006
658.590	0.0161322
658.668	0.0162418
658.746	0.0162183
658.824	0.0162167
658.902	0.0162752
658.980	0.0163278
659.058	0.0162778
659.136	0.0161956
659.215	0.0163552
659.293	0.0163051
659.371	0.0163277
659.449	0.0164122
659.527	0.0162725
659.605	0.0162483
659.683	0.0163206
659.761	0.0162128
659.840	0.0161739
659.918	0.0162404
659.996	0.0162946
660.074	0.0162021
660.152	0.0162256
660.230	0.0163397
660.308	0.0163454
660.386	0.0163158
660.465	0.0162077
660.543	0.0162131
660.621	0.0164118
660.699	0.0163567
660.777	0.0162857
660.855	0.0162405
660.933	0.0162760
661.011	0.0161576
661.090	0.0163143
661.168	0.0162482
661.246	0.0163573
661.324	0.0162908
661.402	0.0162372
661.480	0.0163640
661.558	0.0162912
661.636	0.0163992
661.715	0.0162482
661.793	0.0162678
661.871	0.0163692
661.949	0.0163382
662.027	0.0162620
662.105	0.0161906
662.183	0.0163679
662.261	0.0162630
662.340	0.0162125
662.418	0.0163744
662.496	0.0163059
662.574	0.0163456
662.652	0.0162449
662.730	0.0163103
662.808	0.0164246
662.886	0.0162232
662.965	0.0161883
663.043	0.0162863
663.121	0.0162917
663.199	0.0162810
663.277	0.0162237
663.355	0.0161838
663.433	0.0163148
663.511	0.0163861
663.590	0.0164744
663.668	0.0161588
663.746	0.0163174
663.824	0.0162939
663.902	0.0163013
663.980	0.0162787
664.058	0.0162751
664.136	0.0163210
664.215	0.0161985
664.293	0.0161434
664.371	0.0163605
664.449	0.0163041
664.527	0.0164126
664.605	0.0165794
664.683	0.0164575
664.761	0.0163218
664.840	0.0163772
664.918	0.0163487
664.996	0.0162135
665.074	0.0161190
665.152	0.0163987
665.230	0.0163532
665.308	0.0161801
665.386	0.0163719
665.465	0.0163765
665.543	0.0162653
665.621	0.0163552
665.699	0.0163810
665.777	0.0162819
665.855	0.0163138
665.933	0.0162524
666.011	0.0162930
666.090	0.0162972
666.168	0.0163580
666.246	0.0163295
666.324	0.0163477
666.402	0.0164520
666.480	0.0162824
666.558	0.0162501
666.636	0.0164488
666.715	0.0161467
666.793	0.0163648
666.871	0.0163186
666.949	0.0162707
667.027	0.0162590
667.105	0.0163227
667.183	0.0162090
667.261	0.0163037
667.340	0.0161729
667.418	0.0161879
667.496	0.0164133
667.574	0.0162706
667.652	0.0163846
667.730	0.0162921
667.808	0.0163712
667.886	0.0163104
667.965	0.0162487
668.043	0.0161897
668.121	0.0163248
668.199	0.0161964
668.277	0.0162840
668.355	0.0162612
668.433	0.0162212
668.511	0.0163888
668.590	0.0162405
668.668	0.0162047
668.746	0.0162084
668.824	0.0163651
668.902	0.0163888
668.980	0.0162365
669.058	0.0162870
669.136	0.0163156
669.215	0.0162130
669.293	0.0162091
669.371	0.0163168
669.449	0.0163187
669.527	0.0161646
669.605	0.0162958
669.683	0.0163188
669.761	0.0162949
669.840	0.0163271
669.918	0.0161915
669.996	0.0161922
670.074	0.0163819
670.152	0.0163248
670.230	0.0161829
670.308	0.0163142
670.386	0.0163203
670.465	0.0164181
670.543	0.0162543
670.621	0.0163124
670.699	0.0163842
670.777	0.0163080
670.855	0.0161588
670.933	0.0161615
671.011	0.0162696
671.090	0.0163001
671.168	0.0161638
671.246	0.0164840
671.324	0.0162446
671.402	0.0163946
671.480	0.0162829
671.558	0.0162067
671.636	0.0162315
671.715	0.0163467
671.793	0.0162877
671.871	0.0162621
671.949	0.0162576
672.027	0.0161392
672.105	0.0162918
672.183	0.0162946
672.261	0.0162337
672.340	0.0161875
672.418	0.0161301
672.496	0.0162141
672.574	0.0162849
672.652	0.0162079
672.730	0.0163446
672.808	0.0161543
672.886	0.0162798
672.965	0.0162540
673.043	0.0161600
673.121	0.0162604
673.199	0.0163137
673.277	0.0161879
673.355	0.0163290
673.433	0.0163624
673.511	0.0163821
673.590	0.0163908
673.668	0.0163005
673.746	0.0161459
673.824	0.0163428
673.902	0.0162529
673.980	0.0162467
674.058	0.0162368
674.136	0.0162527
674.215	0.0162933
674.293	0.0163725
674.371	0.0161797
674.449	0.0163696
674.527	0.0162764
674.605	0.0163702
674.683	0.0164772
674.761	0.0163318
674.840	0.0162952
674.918	0.0163403
674.996	0.0163548
675.074	0.0162996
675.152	0.0161940
675.230	0.0162344
675.308	0.0162698
675.386	0.0162235
675.465	0.0161423
675.543	0.0162711
675.621	0.0162664
675.699	0.0162367
675.777	0.0161207
675.855	0.0161796
675.933	0.0160973
676.011	0.0163421
676.090	0.0163129
676.168	0.0163385
676.246	0.0162968
676.324	0.0163535
676.402	0.0162354
676.480	0.0163060
676.558	0.0163030
676.636	0.0163966
676.715	0.0162023
676.793	0.0163633
676.871	0.0162685
676.949	0.0161156
677.027	0.0162097
677.105	0.0162346
677.183	0.0162216
677.261	0.0163042
677.340	0.0163197
677.418	0.0162126
677.496	0.0162190
677.574	0.0162852
677.652	0.0161881
677.730	0.0162617
677.808	0.0163046
677.886	0.0163571
677.965	0.0164805
678.043	0.0163587
678.121	0.0162736
678.199	0.0164103
678.277	0.0163654
678.355	0.0162759
678.433	0.0164036
678.511	0.0162851
678.590	0.0162074
678.668	0.0163037
678.746	0.0163299
678.824	0.0161607
678.902	0.0161375
678.980	0.0163358
679.058	0.0162407
679.136	0.0162540
679.215	0.0162146
679.293	0.0162975
679.371	0.0162298
679.449	0.0163906
679.527	0.0164202
679.605	0.0162537
679.683	0.0163988
679.761	0.0163970
679.840	0.0163069
679.918	0.0162717
679.996	0.0163623
680.074	0.0164634
680.152	0.0164088
680.230	0.0163487
680.308	0.0161933
680.386	0.0162680
680.465	0.0163423
680.543	0.0162694
680.621	0.0161837
680.699	0.0161380
680.777	0.0161226
680.855	0.0161382
680.933	0.0161109
681.011	0.0162157
681.090	0.0162206
681.168	0.0162322
681.246	0.0163193
681.324	0.0162318
681.402	0.0162201
681.480	0.0164095
681.558	0.0163441
681.636	0.0162565
681.715	0.0164591
681.793	0.0163428
681.871	0.0163442
681.949	0.0163721
682.027	0.0163351
682.105	0.0162563
682.183	0.0163664
682.261	0.0162593
682.340	0.0161659
682.418	0.0162289
682.496	0.0161443
682.574	0.0161694
682.652	0.0162039
682.730	0.0161877
682.808	0.0162164
682.886	0.0162697
682.965	0.0163396
683.043	0.0161491
683.121	0.0162032
683.199	0.0162013
683.277	0.0162743
683.355	0.0163956
683.433	0.0163771
683.511	0.0163849
683.590	0.0165469
683.668	0.0162489
683.746	0.0163012
683.824	0.0163907
683.902	0.0163647
683.980	0.0163203
684.058	0.0163615
684.136	0.0162853
684.215	0.0160877
684.293	0.0160292
684.371	0.0163004
684.449	0.0161112
684.527	0.0160560
684.605	0.0160801
684.683	0.0161826
684.761	0.0162092
684.840	0.0162650
684.918	0.0162006
684.996	0.0161890
685.074	0.0162112
685.152	0.0162276
685.230	0.0163927
685.308	0.0162874
685.386	0.0162972
685.465	0.0164010
685.543	0.0164294
685.621	0.0162993
685.699	0.0164754
685.777	0.0163359
685.855	0.0162952
685.933	0.0162329
686.011	0.0161105
686.090	0.0161894
686.168	0.0162370
686.246	0.0162166
686.324	0.0160725
686.402	0.0161442
686.480	0.0162145
686.558	0.0161429
686.636	0.0162424
686.715	0.0163099
686.793	0.0161865
686.871	0.0161678
686.949	0.0162089
687.027	0.0163078
687.105	0.0164182
687.183	0.0165121
687.261	0.0163832
687.340	0.0164743
687.418	0.0163226
687.496	0.0163181
687.574	0.0163719
687.652	0.0163132
687.730	0.0161674
687.808	0.0162317
687.886	0.0162071
687.965	0.0161321
688.043	0.0161847
688.121	0.0161064
688.199	0.0161309
688.277	0.0162277
688.355	0.0161564
688.433	0.0161845
688.511	0.0163710
688.590	0.0162920
688.668	0.0163322
688.746	0.0162390
688.824	0.0163227
688.902	0.0164365
688.980	0.0163050
689.058	0.0163072
689.136	0.0163658
689.215	0.0163343
689.293	0.0163677
689.371	0.0163485
689.449	0.0163711
689.527	0.0161678
689.605	0.0162576
689.683	0.0163436
689.761	0.0161098
689.840	0.0162832
689.918	0.0162238
689.996	0.0163211
690.074	0.0163037
690.152	0.0163880
690.230	0.0163125
690.308	0.0163190
690.386	0.0163998
690.465	0.0164426
690.543	0.0164418
690.621	0.0163793
690.699	0.0164005
690.777	0.0163531
690.855	0.0163177
690.933	0.0162657
691.011	0.0162242
691.090	0.0162633
691.168	0.0162788
691.246	0.0161603
691.324	0.0163068
691.402	0.0160892
691.480	0.0161183
691.558	0.0163226
691.636	0.0163400
691.715	0.0161867
691.793	0.0164216
691.871	0.0164496
691.949	0.0164640
692.027	0.0164115
692.105	0.0164651
692.183	0.0164162
692.261	0.0164092
692.340	0.0164121
692.418	0.0163921
692.496	0.0163953
692.574	0.0162866
692.652	0.0162427
692.730	0.0163574
692.808	0.0162348
692.886	0.0162186
692.965	0.0162866
693.043	0.0163425
693.121	0.0163633
693.199	0.0162922
693.277	0.0161691
693.355	0.0162556
693.433	0.0163190
693.511	0.0162984
693.590	0.0163334
693.668	0.0163703
693.746	0.0164578
693.824	0.0164354
693.902	0.0165574
693.980	0.0164625
694.058	0.0164337
694.136	0.0164555
694.215	0.0163650
694.293	0.0165247
694.371	0.0164570
694.449	0.0161884
694.527	0.0163401
694.605	0.0163700
694.683	0.0161525
694.761	0.0162392
694.840	0.0161809
694.918	0.0160699
694.996	0.0160646
695.074	0.0161874
695.152	0.0160998
695.230	0.0162699
695.308	0.0161326
695.386	0.0161406
695.465	0.0162587
695.543	0.0163060
695.621	0.0162808
695.699	0.0163699
695.777	0.0164140
695.855	0.0164427
695.933	0.0164227
696.011	0.0164278
696.090	0.0165460
696.168	0.0162300
696.246	0.0161828
696.324	0.0162579
696.402	0.0162139
696.480	0.0162311
696.558	0.0160912
696.636	0.0161078
696.715	0.0162333
696.793	0.0160818
696.871	0.0161642
696.949	0.0161033
697.027	0.0160948
697.105	0.0162042
697.183	0.0162295
697.261	0.0161908
697.340	0.0163496
697.418	0.0163590
697.496	0.0162190
697.574	0.0162350
697.652	0.0164455
697.730	0.0164252
697.808	0.0164130
697.886	0.0163140
697.965	0.0161645
698.043	0.0163801
698.121	0.0163522
698.199	0.0164066
698.277	0.0162646
698.355	0.0162531
698.433	0.0161308
698.511	0.0162758
698.590	0.0162398
698.668	0.0162283
698.746	0.0163677
698.824	0.0162726
698.902	0.0163610
698.980	0.0162362
699.058	0.0161987
699.136	0.0163779
699.215	0.0162489
699.293	0.0162695
699.371	0.0163651
699.449	0.0164436
699.527	0.0164540
699.605	0.0163244
699.683	0.0162486
699.761	0.0162508
699.840	0.0163085
699.918	0.0163641
699.996	0.0163651
700.074	0.0162376
700.152	0.0162712
700.230	0.0162852
700.308	0.0161504
700.386	0.0161576
700.465	0.0161551
700.543	0.0161447
700.621	0.0162808
700.699	0.0162616
700.777	0.0161154
700.855	0.0163995
700.933	0.0163004
701.011	0.0164127
701.090	0.0164062
701.168	0.0162318
701.246	0.0163873
701.324	0.0163145
701.402	0.0165408
701.480	0.0165631
701.558	0.0162744
701.636	0.0163808
701.715	0.0163246
701.793	0.0163573
701.871	0.0163197
701.949	0.0163280
702.027	0.0164359
702.105	0.0162886
702.183	0.0163976
702.261	0.0163059
702.340	0.0162567
702.418	0.0162497
702.496	0.0162170
702.574	0.0163592
702.652	0.0162417
702.730	0.0163083
702.808	0.0161201
702.886	0.0162302
702.965	0.0162366
703.043	0.0162341
703.121	0.0161734
703.199	0.0162296
703.277	0.0162524
703.355	0.0162145
703.433	0.0162779
703.511	0.0162705
703.590	0.0161958
703.668	0.0162115
703.746	0.0161327
703.824	0.0161395
703.902	0.0162540
703.980	0.0162164
704.058	0.0162866
704.136	0.0163153
704.215	0.0163515
704.293	0.0164668
704.371	0.0164104
704.449	0.0164741
704.527	0.0165354
704.605	0.0165699
704.683	0.0164943
704.761	0.0164680
704.840	0.0164652
704.918	0.0163738
704.996	0.0163432
705.074	0.0163902
705.152	0.0161729
705.230	0.0161877
705.308	0.0162452
705.386	0.0162131
705.465	0.0159589
705.543	0.0160430
705.621	0.0161304
705.699	0.0160518
705.777	0.0160177
705.855	0.0160543
705.933	0.0159273
706.011	0.0160739
706.090	0.0161021
706.168	0.0162556
706.246	0.0163165
706.324	0.0162281
706.402	0.0162814
706.480	0.0163039
706.558	0.0162887
706.636	0.0163692
706.715	0.0164042
706.793	0.0164318
706.871	0.0164434
706.949	0.0163612
707.027	0.0164569
707.105	0.0163369
707.183	0.0163425
707.261	0.0163013
707.340	0.0164184
707.418	0.0162067
707.496	0.0162765
707.574	0.0162098
707.652	0.0162479
707.730	0.0162337
707.808	0.0162438
707.886	0.0161081
707.965	0.0162543
708.043	0.0162523
708.121	0.0161164
708.199	0.0162370
708.277	0.0164217
708.355	0.0161487
708.433	0.0161839
708.511	0.0163137
708.590	0.0162929
708.668	0.0161928
708.746	0.0162364
708.824	0.0163175
708.902	0.0164085
708.980	0.0161654
709.058	0.0163271
709.136	0.0163183
709.215	0.0161749
709.293	0.0162756
709.371	0.0163830
709.449	0.0163328
709.527	0.0164018
709.605	0.0163280
709.683	0.0164302
709.761	0.0162717
709.840	0.0163155
709.918	0.0163580
709.996	0.0163939
710.074	0.0163425
710.152	0.0163718
710.230	0.0163967
710.308	0.0161919
710.386	0.0162909
710.465	0.0162775
710.543	0.0164648
710.621	0.0163184
710.699	0.0162302
710.777	0.0162767
710.855	0.0163474
710.933	0.0161282
711.011	0.0162153
711.090	0.0161200
711.168	0.0161849
711.246	0.0162440
711.324	0.0160468
711.402	0.0162892
711.480	0.0162167
711.558	0.0161137
711.636	0.0160773
711.715	0.0160915
711.793	0.0162238
711.871	0.0163175
711.949	0.0163177
712.027	0.0162612
712.105	0.0162943
712.183	0.0162426
712.261	0.0163268
712.340	0.0163776
712.418	0.0164060
712.496	0.0163663
712.574	0.0165580
712.652	0.0163506
712.730	0.0163243
712.808	0.0164079
712.886	0.0162864
712.965	0.0164773
713.043	0.0164411
713.121	0.0163471
713.199	0.0163806
713.277	0.0163336
713.355	0.0164134
713.433	0.0162660
713.511	0.0163120
713.590	0.0160660
713.668	0.0161406
713.746	0.0162848
713.824	0.0162186
713.902	0.0161700
713.980	0.0161449
714.058	0.0162996
714.136	0.0162528
714.215	0.0161533
714.293	0.0163142
714.371	0.0162303
714.449	0.0161815
714.527	0.0164950
714.605	0.0164590
714.683	0.0163984
714.761	0.0162576
714.840	0.0163579
714.918	0.0164120
714.996	0.0163277
715.074	0.0163179
715.152	0.0163618
715.230	0.0164525
715.308	0.0163445
715.386	0.0163716
715.465	0.0164456
715.543	0.0163897
715.621	0.0165236
715.699	0.0164520
715.777	0.0163481
715.855	0.0164528
715.933	0.0163010
716.011	0.0163049
716.090	0.0162206
716.168	0.0162979
716.246	0.0159472
716.324	0.0160683
716.402	0.0159973
716.480	0.0159103
716.558	0.0159027
716.636	0.0158392
716.715	0.0160931
716.793	0.0160810
716.871	0.0161041
716.949	0.0160049
717.027	0.0159927
717.105	0.0164002
717.183	0.0163768
717.261	0.0164924
717.340	0.0166358
717.418	0.0166550
717.496	0.0167899
717.574	0.0168660
717.652	0.0168605
717.730	0.0168608
717.808	0.0169051
717.886	0.0169709
717.965	0.0168100
718.043	0.0167812
718.121	0.0167494
718.199	0.0165957
718.277	0.0165424
718.355	0.0164629
718.433	0.0161173
718.511	0.0160467
718.590	0.0159167
718.668	0.0157410
718.746	0.0157188
718.824	0.0157574
718.902	0.0155683
718.980	0.0155263
719.058	0.0155515
719.136	0.0155364
719.215	0.0154893
719.293	0.0155461
719.371	0.0154537
719.449	0.0155443
719.527	0.0156828
719.605	0.0157272
719.683	0.0158051
719.761	0.0158997
719.840	0.0161826
719.918	0.0162443
719.996	0.0161909
720.074	0.0164561
720.152	0.0165439
720.230	0.0166473
720.308	0.0167621
720.386	0.0168497
720.465	0.0168789
720.543	0.0169997
720.621	0.0171478
720.699	0.0171877
720.777	0.0171941
720.855	0.0172350
720.933	0.0171312
721.011	0.0171923
721.090	0.0170608
721.168	0.0169444
721.246	0.0168848
721.324	0.0168357
721.402	0.0167123
721.480	0.0165980
721.558	0.0163435
721.636	0.0164012
721.715	0.0161922
721.793	0.0160751
721.871	0.0159948
721.949	0.0158640
722.027	0.0158105
722.105	0.0155280
722.183	0.0156193
722.261	0.0155063
722.340	0.0154365
722.418	0.0153623
722.496	0.0153896
722.574	0.0152408
722.652	0.0152468
722.730	0.0154211
722.808	0.0154194
722.886	0.0155672
722.965	0.0157684
723.043	0.0157993
723.121	0.0159246
723.199	0.0161392
723.277	0.0163754
723.355	0.0165202
723.433	0.0166602
723.511	0.0168194
723.590	0.0168694
723.668	0.0170963
723.746	0.0170650
723.824	0.0172224
723.902	0.0172163
723.980	0.0171530
724.058	0.0171338
724.136	0.0171214
724.215	0.0169863
724.293	0.0168298
724.371	0.0167805
724.449	0.0166626
724.527	0.0165114
724.605	0.0163258
724.683	0.0162698
724.761	0.0161960
724.840	0.0160767
724.918	0.0159232
724.996	0.0159117
725.074	0.0160665
725.152	0.0159628
725.230	0.0160510
725.308	0.0159970
725.386	0.0160193
725.465	0.0160688
725.543	0.0161966
725.621	0.0160635
725.699	0.0160313
725.777	0.0161949
725.855	0.0161137
725.933	0.0161680
726.011	0.0162035
726.090	0.0162184
726.168	0.0162879
726.246	0.0162373
726.324	0.0162101
726.402	0.0162755
726.480	0.0162531
726.558	0.0164439
726.636	0.0163844
726.715	0.0162615
726.793	0.0163219
726.871	0.0164042
726.949	0.0163912
727.027	0.0164037
727.105	0.0163857
727.183	0.0162847
727.261	0.0165598
727.340	0.0164010
727.418	0.0163464
727.496	0.0164732
727.574	0.0163755
727.652	0.0164369
727.730	0.0165820
727.808	0.0163689
727.886	0.0165561
727.965	0.0166740
728.043	0.0164954
728.121	0.0163487
728.199	0.0163303
728.277	0.0165150
728.355	0.0163011
728.433	0.0164024
728.511	0.0163405
728.590	0.0164195
728.668	0.0163191
728.746	0.0162534
728.824	0.0162264
728.902	0.0161176
728.980	0.0161713
729.058	0.0160701
729.136	0.0162337
729.215	0.0161850
729.293	0.0160256
729.371	0.0160917
729.449	0.0161312
729.527	0.0163226
729.605	0.0161898
729.683	0.0161293
729.761	0.0162597
729.840	0.0161815
729.918	0.0161494
729.996	0.0162326
730.074	0.0161446
730.152	0.0160596
730.230	0.0161621
730.308	0.0161976
730.386	0.0161340
730.465	0.0161794
730.543	0.0161187
730.621	0.0160226
730.699	0.0158957
730.777	0.0160281
730.855	0.0159870
730.933	0.0161090
731.011	0.0161126
731.090	0.0160440
731.168	0.0162005
731.246	0.0161147
731.324	0.0161949
731.402	0.0164594
731.480	0.0164410
731.558	0.0163265
731.636	0.0165108
731.715	0.0167644
731.793	0.0168808
731.871	0.0169548
731.949	0.0170612
732.027	0.0171638
732.105	0.0171850
732.183	0.0172476
732.261	0.0173135
732.340	0.0172845
732.418	0.0172616
732.496	0.0172472
732.574	0.0170748
732.652	0.0171101
732.730	0.0170589
732.808	0.0167028
732.886	0.0166838
732.965	0.0165764
733.043	0.0161593
733.121	0.0161092
733.199	0.0158256
733.277	0.0157283
733.355	0.0155273
733.433	0.0153654
733.511	0.0153102
733.590	0.0151939
733.668	0.0151795
733.746	0.0151079
733.824	0.0153001
733.902	0.0153635
733.980	0.0152994
734.058	0.0155074
734.136	0.0154671
734.215	0.0156843
734.293	0.0157900
734.371	0.0157828
734.449	0.0159523
734.527	0.0160126
734.605	0.0162589
734.683	0.0162359
734.761	0.0162656
734.840	0.0163113
734.918	0.0164106
734.996	0.0164783
735.074	0.0164739
735.152	0.0165701
735.230	0.0164763
735.308	0.0164902
735.386	0.0164710
735.465	0.0165517
735.543	0.0165854
735.621	0.0166013
735.699	0.0167354
735.777	0.0166476
735.855	0.0166420
735.933	0.0167696
736.011	0.0168220
736.090	0.0166584
736.168	0.0168607
736.246	0.0171014
736.324	0.0170962
736.402	0.0171652
736.480	0.0171335
736.558	0.0171034
736.636	0.0171812
736.715	0.0170392
736.793	0.0168319
736.871	0.0169386
736.949	0.0168678
737.027	0.0166032
737.105	0.0163334
737.183	0.0161870
737.261	0.0160111
737.340	0.0158512
737.418	0.0156239
737.496	0.0155433
737.574	0.0154057
737.652	0.0153571
737.730	0.0152782
737.808	0.0153948
737.886	0.0151259
737.965	0.0153690
738.043	0.0154771
738.121	0.0156859
738.199	0.0156919
738.277	0.0157564
738.355	0.0160295
738.433	0.0161010
738.511	0.0162436
738.590	0.0162695
738.668	0.0164993
738.746	0.0165636
738.824	0.0168067
738.902	0.0167249
738.980	0.0167434
739.058	0.0169262
739.136	0.0168245
739.215	0.0168889
739.293	0.0168619
739.371	0.0167973
739.449	0.0167676
739.527	0.0167539
739.605	0.0165740
739.683	0.0165176
739.761	0.0164094
739.840	0.0163380
739.918	0.0161983
739.996	0.0161266
740.074	0.0160273
740.152	0.0158114
740.230	0.0158992
740.308	0.0158278
740.386	0.0157561
740.465	0.0158552
740.543	0.0159583
740.621	0.0159978
740.699	0.0161379
740.777	0.0160329
740.855	0.0161362
740.933	0.0163377
741.011	0.0164932
741.090	0.0163728
741.168	0.0166648
741.246	0.0163997
741.324	0.0167158
741.402	0.0167290
741.480	0.0165778
741.558	0.0165313
741.636	0.0166814
741.715	0.0166295
741.793	0.0165495
741.871	0.0164832
741.949	0.0165770
742.027	0.0164821
742.105	0.0163599
742.183	0.0164367
742.261	0.0162791
742.340	0.0162299
742.418	0.0163235
742.496	0.0160992
742.574	0.0162368
742.652	0.0163078
742.730	0.0162366
742.808	0.0160693
742.886	0.0161428
742.965	0.0161427
743.043	0.0161984
743.121	0.0162823
743.199	0.0160692
743.277	0.0162604
743.355	0.0162609
743.433	0.0162399
743.511	0.0161990
743.590	0.0160664
743.668	0.0160160
743.746	0.0160701
743.824	0.0161062
743.902	0.0160371
743.980	0.0159207
744.058	0.0158775
744.136	0.0160297
744.215	0.0159777
744.293	0.0159863
744.371	0.0159943
744.449	0.0160406
744.527	0.0162249
744.605	0.0163157
744.683	0.0162165
744.761	0.0164290
744.840	0.0163317
744.918	0.0164212
744.996	0.0164518
745.074	0.0164104
745.152	0.0165501
745.230	0.0165069
745.308	0.0165056
745.386	0.0165034
745.465	0.0165568
745.543	0.0164075
745.621	0.0163524
745.699	0.0164247
745.777	0.0164523
745.855	0.0164098
745.933	0.0164744
746.011	0.0164729
746.090	0.0166244
746.168	0.0165371
746.246	0.0164573
746.324	0.0165458
746.402	0.0166389
746.480	0.0166891
746.558	0.0167198
746.636	0.0165350
746.715	0.0166873
746.793	0.0168092
746.871	0.0166344
746.949	0.0166028
747.027	0.0166270
747.105	0.0166477
747.183	0.0165567
747.261	0.0163711
747.340	0.0162898
747.418	0.0162406
747.496	0.0158754
747.574	0.0159721
747.652	0.0157648
747.730	0.0156094
747.808	0.0154886
747.886	0.0154633
747.965	0.0155784
748.043	0.0154950
748.121	0.0154320
748.199	0.0155949
748.277	0.0155363
748.355	0.0156126
748.433	0.0156891
748.511	0.0159862
748.590	0.0160505
748.668	0.0161777
748.746	0.0161805
748.824	0.0161727
748.902	0.0165662
748.980	0.0166244
749.058	0.0165906
749.136	0.0166286
749.215	0.0166934
749.293	0.0168249
749.371	0.0168037
749.449	0.0167283
749.527	0.0167414
749.605	0.0167426
749.683	0.0166150
749.761	0.0167220
749.840	0.0166229
749.918	0.0166074
749.996	0.0165376
750.074	0.0165745
750.152	0.0165660
750.230	0.0166280
750.308	0.0165659
750.386	0.0165180
750.465	0.0165689
750.543	0.0166212
750.621	0.0165203
750.699	0.0165281
750.777	0.0165471
750.855	0.0164826
750.933	0.0164293
751.011	0.0164588
751.090	0.0162213
751.168	0.0162385
751.246	0.0162262
751.324	0.0161366
751.402	0.0160026
751.480	0.0161418
751.558	0.0159241
751.636	0.0160593
751.715	0.0160424
751.793	0.0160858
751.871	0.0161192
751.949	0.0162167
752.027	0.0162331
752.105	0.0161135
752.183	0.0161318
752.261	0.0162193
752.340	0.0164823
752.418	0.0162065
752.496	0.0161806
752.574	0.0161661
752.652	0.0162449
752.730	0.0160871
752.808	0.0159763
752.886	0.0159455
752.965	0.0159747
753.043	0.0158830
753.121	0.0158086
753.199	0.0157559
753.277	0.0158946
753.355	0.0160411
753.433	0.0159096
753.511	0.0160344
753.590	0.0159399
753.668	0.0159886
753.746	0.0161063
753.824	0.0160709
753.902	0.0160411
753.980	0.0162767
754.058	0.0162746
754.136	0.0161732
754.215	0.0163042
754.293	0.0162467
754.371	0.0162496
754.449	0.0164059
754.527	0.0164214
754.605	0.0163915
754.683	0.0165066
754.761	0.0165443
754.840	0.0165366
754.918	0.0166021
754.996	0.0167328
755.074	0.0167860
755.152	0.0166536
755.230	0.0167442
755.308	0.0166388
755.386	0.0166720
755.465	0.0167906
755.543	0.0166954
755.621	0.0167966
755.699	0.0167047
755.777	0.0165170
755.855	0.0164555
755.933	0.0164951
756.011	0.0165186
756.090	0.0164864
756.168	0.0163801
756.246	0.0164718
756.324	0.0162893
756.402	0.0163097
756.480	0.0162373
756.558	0.0161508
756.636	0.0161434
756.715	0.0160674
756.793	0.0160741
756.871	0.0160674
756.949	0.0160069
757.027	0.0159588
757.105	0.0160863
757.183	0.0158611
757.261	0.0159249
757.340	0.0160155
757.418	0.0161514
757.496	0.0161264
757.574	0.0162243
757.652	0.0162955
757.730	0.0164272
757.808	0.0165816
757.886	0.0166708
757.965	0.0166360
758.043	0.0166391
758.121	0.0165988
758.199	0.0166604
758.277	0.0164764
758.355	0.0163925
758.433	0.0163911
758.511	0.0163080
758.590	0.0162569
758.668	0.0160113
758.746	0.0159106
758.824	0.0158530
758.902	0.0155673
758.980	0.0156676
759.058	0.0153897
759.136	0.0154521
759.215	0.0157204
759.293	0.0155897
759.371	0.0156963
759.449	0.0159208
759.527	0.0158587
759.605	0.0160588
759.683	0.0160371
759.761	0.0162961
759.840	0.0164619
759.918	0.0166029
759.996	0.0167725
760.074	0.0167056
760.152	0.0168081
760.230	0.0168750
760.308	0.0169178
760.386	0.0167730
760.465	0.0169609
760.543	0.0168587
760.621	0.0167208
760.699	0.0167042
760.777	0.0167233
760.855	0.0166245
760.933	0.0165565
761.011	0.0164610
761.090	0.0165137
761.168	0.0163560
761.246	0.0162212
761.324	0.0163607
761.402	0.0162507
761.480	0.0161948
761.558	0.0161603
761.636	0.0162039
761.715	0.0161932
761.793	0.0161065
761.871	0.0161272
761.949	0.0161726
762.027	0.0160686
762.105	0.0160201
762.183	0.0159067
762.261	0.0161410
762.340	0.0162328
762.418	0.0158878
762.496	0.0160754
762.574	0.0160434
762.652	0.0160992
762.730	0.0160407
762.808	0.0160840
762.886	0.0160168
762.965	0.0160596
763.043	0.0160812
763.121	0.0161232
763.199	0.0161615
763.277	0.0163016
763.355	0.0164190
763.433	0.0164928
763.511	0.0165046
763.590	0.0164897
763.668	0.0165079
763.746	0.0167543
763.824	0.0165987
763.902	0.0165543
763.980	0.0165066
764.058	0.0164624
764.136	0.0164027
764.215	0.0163638
764.293	0.0161047
764.371	0.0160550
764.449	0.0160150
764.527	0.0159428
764.605	0.0158361
764.683	0.0159187
764.761	0.0158405
764.840	0.0158376
764.918	0.0158273
764.996	0.0158649
765.074	0.0160879
765.152	0.0160901
765.230	0.0162370
765.308	0.0161734
765.386	0.0163716
765.465	0.0165419
765.543	0.0165452
765.621	0.0164005
765.699	0.0165425
765.777	0.0165761
765.855	0.0164506
765.933	0.0165298
766.011	0.0166013
766.090	0.0164452
766.168	0.0163473
766.246	0.0163393
766.324	0.0161871
766.402	0.0162944
766.480	0.0163070
766.558	0.0162156
766.636	0.0161701
766.715	0.0163377
766.793	0.0165546
766.871	0.0163519
766.949	0.0164224
767.027	0.0164996
767.105	0.0165852
767.183	0.0168198
767.261	0.0165662
767.340	0.0165569
767.418	0.0165614
767.496	0.0164815
767.574	0.0164558
767.652	0.0163486
767.730	0.0162177
767.808	0.0161181
767.886	0.0160666
767.965	0.0161259
768.043	0.0160413
768.121	0.0158977
768.199	0.0158638
768.277	0.0157780
768.355	0.0158285
768.433	0.0158725
768.511	0.0157411
768.590	0.0157654
768.668	0.0157670
768.746	0.0159436
768.824	0.0158871
768.902	0.0160707
768.980	0.0161266
769.058	0.0162992
769.136	0.0162927
769.215	0.0165997
769.293	0.0165974
769.371	0.0166222
769.449	0.0166479
769.527	0.0167334
769.605	0.0168351
769.683	0.0168147
769.761	0.0169533
769.840	0.0166946
769.918	0.0165590
769.996	0.0166978
770.074	0.0166183
770.152	0.0165971
770.230	0.0164816
770.308	0.0163893
770.386	0.0162739
770.465	0.0162347
770.543	0.0164272
770.621	0.0164222
770.699	0.0163347
770.777	0.0164513
770.855	0.0165192
770.933	0.0164606
771.011	0.0163470
771.090	0.0163670
771.168	0.0163824
771.246	0.0164506
771.324	0.0164984
771.402	0.0163588
771.480	0.0163504
771.558	0.0163113
771.636	0.0163554
771.715	0.0164368
771.793	0.0162762
771.871	0.0162663
771.949	0.0163107
772.027	0.0160404
772.105	0.0161568
772.183	0.0159560
772.261	0.0161450
772.340	0.0161155
772.418	0.0162076
772.496	0.0161535
772.574	0.0160875
772.652	0.0161033
772.730	0.0161575
772.808	0.0161399
772.886	0.0162210
772.965	0.0162168
773.043	0.0162553
773.121	0.0162603
773.199	0.0163576
773.277	0.0163702
773.355	0.0162241
773.433	0.0163783
773.511	0.0161721
773.590	0.0162334
773.668	0.0163393
773.746	0.0162482
773.824	0.0160462
773.902	0.0161687
773.980	0.0161226
774.058	0.0162158
774.136	0.0162168
774.215	0.0162014
774.293	0.0162773
774.371	0.0160375
774.449	0.0162012
774.527	0.0161777
774.605	0.0161414
774.683	0.0162197
774.761	0.0160656
774.840	0.0161647
774.918	0.0159421
774.996	0.0159414
775.074	0.0161485
775.152	0.0163610
775.230	0.0161821
775.308	0.0163200
775.386	0.0163233
775.465	0.0164660
775.543	0.0166679
775.621	0.0166269
775.699	0.0166705
775.777	0.0166901
775.855	0.0167139
775.933	0.0167129
776.011	0.0167225
776.090	0.0166866
776.168	0.0166914
776.246	0.0168228
776.324	0.0168366
776.402	0.0167269
776.480	0.0167571
776.558	0.0167413
776.636	0.0167777
776.715	0.0168032
776.793	0.0167327
776.871	0.0165377
776.949	0.0165905
777.027	0.0163553
777.105	0.0163154
777.183	0.0163672
777.261	0.0164367
777.340	0.0162683
777.418	0.0162146
777.496	0.0161421
777.574	0.0161665
777.652	0.0160547
777.730	0.0160798
777.808	0.0160674
777.886	0.0160814
777.965	0.0160217
778.043	0.0160630
778.121	0.0161063
778.199	0.0161242
778.277	0.0160175
778.355	0.0158652
778.433	0.0160437
778.511	0.0159473
778.590	0.0159226
778.668	0.0157806
778.746	0.0158736
778.824	0.0159673
778.902	0.0157030
778.980	0.0158286
779.058	0.0155975
779.136	0.0157288
779.215	0.0156494
779.293	0.0157553
779.371	0.0157706
779.449	0.0158195
779.527	0.0159753
779.605	0.0159810
779.683	0.0158656
779.761	0.0162791
779.840	0.0163303
779.918	0.0164031
779.996	0.0163813
780.074	0.0167030
780.152	0.0167605
780.230	0.0165769
780.308	0.0168558
780.386	0.0169630
780.465	0.0169696
780.543	0.0169018
780.621	0.0169196
780.699	0.0167448
780.777	0.0167866
780.855	0.0165955
780.933	0.0166991
781.011	0.0165898
781.090	0.0166133
781.168	0.0166026
781.246	0.0164981
781.324	0.0167194
781.402	0.0164577
781.480	0.0164262
781.558	0.0163866
781.636	0.0163753
781.715	0.0163624
781.793	0.0163541
781.871	0.0164296
781.949	0.0163526
782.027	0.0162881
782.105	0.0162407
782.183	0.0161710
782.261	0.0162240
782.340	0.0162882
782.418	0.0162070
782.496	0.0160461
782.574	0.0163591
782.652	0.0163122
782.730	0.0162617
782.808	0.0162316
782.886	0.0163641
782.965	0.0163352
783.043	0.0163849
783.121	0.0162415
783.199	0.0161243
783.277	0.0162208
783.355	0.0162545
783.433	0.0162547
783.511	0.0162299
783.590	0.0162722
783.668	0.0163496
783.746	0.0163644
783.824	0.0163420
783.902	0.0162067
783.980	0.0160830
784.058	0.0162198
784.136	0.0161014
784.215	0.0160708
784.293	0.0162225
784.371	0.0162260
784.449	0.0162188
784.527	0.0160346
784.605	0.0160551
784.683	0.0159840
784.761	0.0159875
784.840	0.0160936
784.918	0.0160583
784.996	0.0158521
785.074	0.0159498
785.152	0.0158498
785.230	0.0158395
785.308	0.0160899
785.386	0.0159291
785.465	0.0159384
785.543	0.0159119
785.621	0.0161405
785.699	0.0161654
785.777	0.0160164
785.855	0.0161514
785.933	0.0162540
786.011	0.0163621
786.090	0.0163956
786.168	0.0164488
786.246	0.0163867
786.324	0.0164181
786.402	0.0164262
786.480	0.0166381
786.558	0.0165845
786.636	0.0165948
786.715	0.0166736
786.793	0.0165150
786.871	0.0165298
786.949	0.0165928
787.027	0.0165446
787.105	0.0167307
787.183	0.0166922
787.261	0.0166814
787.340	0.0164820
787.418	0.0164522
787.496	0.0163923
787.574	0.0163952
787.652	0.0164452
787.730	0.0165284
787.808	0.0163995
787.886	0.0162317
787.965	0.0162772
788.043	0.0162759
788.121	0.0162789
788.199	0.0163480
788.277	0.0162010
788.355	0.0162003
788.433	0.0162608
788.511	0.0163340
788.590	0.0162688
788.668	0.0164025
788.746	0.0163586
788.824	0.0162710
788.902	0.0163201
788.980	0.0163837
789.058	0.0163662
789.136	0.0164101
789.215	0.0163919
789.293	0.0164946
789.371	0.0164246
789.449	0.0161021
789.527	0.0163236
789.605	0.0163200
789.683	0.0163018
789.761	0.0163207
789.840	0.0161798
789.918	0.0162668
789.996	0.0163433
790.074	0.0163172
790.152	0.0162930
790.230	0.0163718
790.308	0.0162530
790.386	0.0161235
790.465	0.0161009
790.543	0.0161712
790.621	0.0159131
790.699	0.0160557
790.777	0.0159707
790.855	0.0157762
790.933	0.0158864
791.011	0.0160361
791.090	0.0159113
791.168	0.0159143
791.246	0.0159755
791.324	0.0160598
791.402	0.0160094
791.480	0.0160168
791.558	0.0160292
791.636	0.0162261
791.715	0.0163715
791.793	0.0161856
791.871	0.0163096
791.949	0.0162487
792.027	0.0162894
792.105	0.0164500
792.183	0.0163634
792.261	0.0164588
792.340	0.0163944
792.418	0.0164238
792.496	0.0163911
792.574	0.0163792
792.652	0.0163304
792.730	0.0163184
792.808	0.0163004
792.886	0.0164911
792.965	0.0163863
793.043	0.0164762
793.121	0.0164851
793.199	0.0164668
793.277	0.0167164
793.355	0.0165536
793.433	0.0164961
793.511	0.0166505
793.590	0.0168176
793.668	0.0167478
793.746	0.0166656
793.824	0.0166208
793.902	0.0165272
793.980	0.0166031
794.058	0.0165966
794.136	0.0164456
794.215	0.0165027
794.293	0.0163618
794.371	0.0162279
794.449	0.0161537
794.527	0.0162285
794.605	0.0162733
794.683	0.0160808
794.761	0.0162261
794.840	0.0160902
794.918	0.0162774
794.996	0.0162047
795.074	0.0160806
795.152	0.0160935
795.230	0.0161559
795.308	0.0161958
795.386	0.0161506
795.465	0.0162799
795.543	0.0161404
795.621	0.0161908
795.699	0.0162099
795.777	0.0162580
795.855	0.0164899
795.933	0.0162123
796.011	0.0162472
796.090	0.0162850
796.168	0.0161482
796.246	0.0162477
796.324	0.0161928
796.402	0.0161929
796.480	0.0160706
796.558	0.0161992
796.636	0.0162409
796.715	0.0160966
796.793	0.0162189
796.871	0.0161712
796.949	0.0161986
797.027	0.0160344
797.105	0.0161649
797.183	0.0163672
797.261	0.0162295
797.340	0.0162395
797.418	0.0163165
797.496	0.0162838
797.574	0.0163030
797.652	0.0162302
797.730	0.0163408
797.808	0.0161636
797.886	0.0162122
797.965	0.0163439
798.043	0.0162403
798.121	0.0162029
798.199	0.0163423
798.277	0.0163174
798.355	0.0160941
798.433	0.0163060
798.511	0.0160280
798.590	0.0160957
798.668	0.0161392
798.746	0.0161987
798.824	0.0161443
798.902	0.0160838
798.980	0.0162182
799.058	0.0160741
799.136	0.0161523
799.215	0.0162213
799.293	0.0162055
799.371	0.0162711
799.449	0.0163663
799.527	0.0162614
799.605	0.0162912
799.683	0.0164598
799.761	0.0164158
799.840	0.0164013
799.918	0.0164146
799.996	0.0165027
800.074	0.0164253
800.152	0.0165356
800.230	0.0166609
800.308	0.0164769
800.386	0.0166087
800.465	0.0166699
800.543	0.0165899
800.621	0.0165575
800.699	0.0166135
800.777	0.0165826
800.855	0.0164026
800.933	0.0165003
801.011	0.0165257
801.090	0.0164223
801.168	0.0163403
801.246	0.0163470
801.324	0.0162706
801.402	0.0162099
801.480	0.0162584
801.558	0.0161869
801.636	0.0161815
801.715	0.0161295
801.793	0.0162569
801.871	0.0162360
801.949	0.0161278
802.027	0.0161366
802.105	0.0162270
802.183	0.0161646
802.261	0.0163137
802.340	0.0163570
802.418	0.0162125
802.496	0.0161612
802.574	0.0162614
802.652	0.0164422
802.730	0.0164238
802.808	0.0162650
802.886	0.0161400
802.965	0.0161946
803.043	0.0162142
803.121	0.0162132
803.199	0.0161445
803.277	0.0162114
803.355	0.0161056
803.433	0.0160108
803.511	0.0162357
803.590	0.0163112
803.668	0.0161682
803.746	0.0162283
803.824	0.0161916
803.902	0.0162620
803.980	0.0162263
804.058	0.0163288
804.136	0.0163618
804.215	0.0163223
804.293	0.0164697
804.371	0.0163847
804.449	0.0164901
804.527	0.0165446
804.605	0.0163154
804.683	0.0163963
804.761	0.0165554
804.840	0.0163952
804.918	0.0163392
804.996	0.0163762
805.074	0.0161972
805.152	0.0162101
805.230	0.0162481
805.308	0.0162158
805.386	0.0161266
805.465	0.0161591
805.543	0.0162038
805.621	0.0160155
805.699	0.0160318
805.777	0.0161012
805.855	0.0161734
805.933	0.0161675
806.011	0.0162014
806.090	0.0161560
806.168	0.0162939
806.246	0.0161839
806.324	0.0163298
806.402	0.0163586
806.480	0.0162273
806.558	0.0164129
806.636	0.0166428
806.715	0.0165313
806.793	0.0163931
806.871	0.0164674
806.949	0.0164953
807.027	0.0166776
807.105	0.0165782
807.183	0.0165254
807.261	0.0165818
807.340	0.0166458
807.418	0.0166081
807.496	0.0166039
807.574	0.0164508
807.652	0.0165106
807.730	0.0165183
807.808	0.0163803
807.886	0.0164536
807.965	0.0163480
808.043	0.0163306
808.121	0.0163934
808.199	0.0162930
808.277	0.0163114
808.355	0.0162540
808.433	0.0163232
808.511	0.0162864
808.590	0.0162053
808.668	0.0161822
808.746	0.0162241
808.824	0.0161887
808.902	0.0162151
808.980	0.0162711
809.058	0.0160548
809.136	0.0162112
809.215	0.0161902
809.293	0.0162043
809.371	0.0161633
809.449	0.0162292
809.527	0.0162453
809.605	0.0162003
809.683	0.0161409
809.761	0.0160593
809.840	0.0162218
809.918	0.0161558
809.996	0.0161788
810.074	0.0160249
810.152	0.0161215
810.230	0.0162357
810.308	0.0162386
810.386	0.0161926
810.465	0.0163224
810.543	0.0162966
810.621	0.0163374
810.699	0.0162944
810.777	0.0162826
810.855	0.0163142
810.933	0.0165841
811.011	0.0165090
811.090	0.0164248
811.168	0.0163706
811.246	0.0164559
811.324	0.0165665
811.402	0.0163460
811.480	0.0163592
811.558	0.0164974
811.636	0.0162663
811.715	0.0163722
811.793	0.0163186
811.871	0.0162326
811.949	0.0162635
812.027	0.0162453
812.105	0.0161585
812.183	0.0162663
812.261	0.0160904
812.340	0.0159818
812.418	0.0161272
812.496	0.0160975
812.574	0.0160355
812.652	0.0160416
812.730	0.0161323
812.808	0.0161163
812.886	0.0161701
812.965	0.0160580
813.043	0.0162019
813.121	0.0162741
813.199	0.0162067
813.277	0.0163578
813.355	0.0163466
813.433	0.0165067
813.511	0.0166032
813.590	0.0165359
813.668	0.0167182
813.746	0.0167486
813.824	0.0166328
813.902	0.0167831
813.980	0.0166425
814.058	0.0166435
814.136	0.0166161
814.215	0.0167346
814.293	0.0166904
814.371	0.0166048
814.449	0.0162857
814.527	0.0164871
814.605	0.0165828
814.683	0.0162824
814.761	0.0163847
814.840	0.0163498
814.918	0.0161151
814.996	0.0160542
815.074	0.0161359
815.152	0.0161090
815.230	0.0160496
815.308	0.0160217
815.386	0.0160809
815.465	0.0159385
815.543	0.0159939
815.621	0.0159993
815.699	0.0159121
815.777	0.0160993
815.855	0.0161662
815.933	0.0160983
816.011	0.0161779
816.090	0.0161015
816.168	0.0162244
816.246	0.0162270
816.324	0.0161429
816.402	0.0162394
816.480	0.0163876
816.558	0.0163306
816.636	0.0162805
816.715	0.0162630
816.793	0.0163024
816.871	0.0161688
816.949	0.0162518
817.027	0.0162470
817.105	0.0163340
817.183	0.0163573
817.261	0.0161566
817.340	0.0163325
817.418	0.0165108
817.496	0.0163634
817.574	0.0164835
817.652	0.0165287
817.730	0.0165522
817.808	0.0165554
817.886	0.0165185
817.965	0.0164660
818.043	0.0164941
818.121	0.0164809
818.199	0.0165072
818.277	0.0163695
818.355	0.0163084
818.433	0.0162916
818.511	0.0163316
818.590	0.0162951
818.668	0.0160281
818.746	0.0158974
818.824	0.0160783
818.902	0.0160056
818.980	0.0158833
819.058	0.0159261
819.136	0.0159146
819.215	0.0159457
819.293	0.0157990
819.371	0.0160346
819.449	0.0158484
819.527	0.0160935
819.605	0.0160175
819.683	0.0161880
819.761	0.0163508
819.840	0.0163328
819.918	0.0165122
819.996	0.0165900
820.074	0.0165718
820.152	0.0166676
820.230	0.0167957
820.308	0.0167056
820.386	0.0168729
820.465	0.0168041
820.543	0.0168414
820.621	0.0168017
820.699	0.0168082
820.777	0.0168607
820.855	0.0167831
820.933	0.0167795
821.011	0.0165826
821.090	0.0166704
821.168	0.0166219
821.246	0.0164367
821.324	0.0162425
821.402	0.0162877
821.480	0.0161639
821.558	0.0160517
821.636	0.0160117
821.715	0.0161325
821.793	0.0159851
821.871	0.0157701
821.949	0.0157951
822.027	0.0158881
822.105	0.0160211
822.183	0.0158744
822.261	0.0158530
822.340	0.0159048
822.418	0.0158180
822.496	0.0159232
822.574	0.0160485
822.652	0.0160358
822.730	0.0161244
822.808	0.0160717
822.886	0.0161476
822.965	0.0161218
823.043	0.0161630
823.121	0.0160874
823.199	0.0162518
823.277	0.0163239
823.355	0.0163497
823.433	0.0162527
823.511	0.0162372
823.590	0.0164180
823.668	0.0163224
823.746	0.0163244
823.824	0.0163882
823.902	0.0163474
823.980	0.0163669
824.058	0.0164861
824.136	0.0165010
824.215	0.0164845
824.293	0.0164728
824.371	0.0167147
824.449	0.0165646
824.527	0.0164146
824.605	0.0165311
824.683	0.0166927
824.761	0.0163244
824.840	0.0165079
824.918	0.0163817
824.996	0.0163445
825.074	0.0165448
825.152	0.0163728
825.230	0.0162711
825.308	0.0163805
825.386	0.0163158
825.465	0.0163258
825.543	0.0160320
825.621	0.0160713
825.699	0.0160381
825.777	0.0159323
825.855	0.0160266
825.933	0.0159406
826.011	0.0157519
826.090	0.0159194
826.168	0.0159695
826.246	0.0160162
826.324	0.0160205
826.402	0.0160950
826.480	0.0160687
826.558	0.0161744
826.636	0.0162791
826.715	0.0162737
826.793	0.0164706
826.871	0.0163899
826.949	0.0165306
827.027	0.0166463
827.105	0.0164974
827.183	0.0165143
827.261	0.0166363
827.340	0.0166236
827.418	0.0166469
827.496	0.0165366
827.574	0.0166187
827.652	0.0166448
827.730	0.0165560
827.808	0.0164914
827.886	0.0164301
827.965	0.0163936
828.043	0.0162836
828.121	0.0163320
828.199	0.0162952
828.277	0.0161349
828.355	0.0161359
828.433	0.0161429
828.511	0.0161211
828.590	0.0161433
828.668	0.0161472
828.746	0.0161309
828.824	0.0161529
828.902	0.0161313
828.980	0.0162500
829.058	0.0162386
829.136	0.0163306
829.215	0.0162258
829.293	0.0163516
829.371	0.0163538
829.449	0.0164294
829.527	0.0164411
829.605	0.0163193
829.683	0.0161923
829.761	0.0162875
829.840	0.0162527
829.918	0.0161780
829.996	0.0163685
830.074	0.0161408
830.152	0.0160443
830.230	0.0160625
830.308	0.0159943
830.386	0.0160369
830.465	0.0160780
830.543	0.0161129
830.621	0.0158722
830.699	0.0160501
830.777	0.0161477
830.855	0.0162567
830.933	0.0161680
831.011	0.0161880
831.090	0.0162204
831.168	0.0162619
831.246	0.0163077
831.324	0.0164138
831.402	0.0163811
831.480	0.0164610
831.558	0.0163751
831.636	0.0164211
831.715	0.0163934
831.793	0.0164132
831.871	0.0163811
831.949	0.0163457
832.027	0.0162585
832.105	0.0163318
832.183	0.0162691
832.261	0.0161174
832.340	0.0161180
832.418	0.0160340
832.496	0.0159998
832.574	0.0161742
832.652	0.0161729
832.730	0.0162837
832.808	0.0161053
832.886	0.0162843
832.965	0.0162935
833.043	0.0162445
833.121	0.0162289
833.199	0.0163609
833.277	0.0163937
833.355	0.0163768
833.433	0.0163432
833.511	0.0163000
833.590	0.0164883
833.668	0.0166727
833.746	0.0163926
833.824	0.0165547
833.902	0.0164757
833.980	0.0164375
834.058	0.0166111
834.136	0.0165246
834.215	0.0165146
834.293	0.0163970
834.371	0.0162130
834.449	0.0162601
834.527	0.0163045
834.605	0.0161944
834.683	0.0161855
834.761	0.0163189
834.840	0.0161575
834.918	0.0161222
834.996	0.0160641
835.074	0.0160343
835.152	0.0160875
835.230	0.0158912
835.308	0.0159859
835.386	0.0161327
835.465	0.0160186
835.543	0.0161604
835.621	0.0160808
835.699	0.0160719
835.777	0.0161064
835.855	0.0162093
835.933	0.0162450
836.011	0.0163956
836.090	0.0163148
836.168	0.0163022
836.246	0.0162303
836.324	0.0163155
836.402	0.0164558
836.480	0.0163165
836.558	0.0162698
836.636	0.0161942
836.715	0.0164288
836.793	0.0163297
836.871	0.0163456
836.949	0.0162834
837.027	0.0163805
837.105	0.0163127
837.183	0.0163053
837.261	0.0162393
837.340	0.0162651
837.418	0.0162984
837.496	0.0163507
837.574	0.0163280
837.652	0.0163006
837.730	0.0164395
837.808	0.0164182
837.886	0.0165171
837.965	0.0164720
838.043	0.0164203
838.121	0.0163780
838.199	0.0164284
838.277	0.0164135
838.355	0.0164065
838.433	0.0162959
838.511	0.0164732
838.590	0.0164166
838.668	0.0162163
838.746	0.0162054
838.824	0.0163062
838.902	0.0162122
838.980	0.0159876
839.058	0.0159641
839.136	0.0161104
839.215	0.0161301
839.293	0.0159858
839.371	0.0160569
839.449	0.0161972
839.527	0.0161401
839.605	0.0161359
839.683	0.0162871
839.761	0.0161311
839.840	0.0163609
839.918	0.0162981
839.996	0.0162968
840.074	0.0164270
840.152	0.0165293
840.230	0.0164744
840.308	0.0166345
840.386	0.0165997
840.465	0.0164588
840.543	0.0165871
840.621	0.0166035
840.699	0.0165486
840.777	0.0165588
840.855	0.0163481
840.933	0.0164260
841.011	0.0164388
841.090	0.0164059
841.168	0.0163994
841.246	0.0164177
841.324	0.0163094
841.402	0.0163117
841.480	0.0162388
841.558	0.0161927
841.636	0.0164558
841.715	0.0162514
841.793	0.0161874
841.871	0.0161716
841.949	0.0162421
842.027	0.0161714
842.105	0.0159770
842.183	0.0162325
842.261	0.0162154
842.340	0.0161033
842.418	0.0161355
842.496	0.0161584
842.574	0.0162267
842.652	0.0162579
842.730	0.0162508
842.808	0.0164040
842.886	0.0162585
842.965	0.0164923
843.043	0.0163377
843.121	0.0163288
843.199	0.0164322
843.277	0.0163518
843.355	0.0163582
843.433	0.0163760
843.511	0.0163049
843.590	0.0162749
843.668	0.0162849
843.746	0.0163889
843.824	0.0162674
843.902	0.0161888
843.980	0.0163160
844.058	0.0162371
844.136	0.0163586
844.215	0.0163211
844.293	0.0162263
844.371	0.0161735
844.449	0.0162626
844.527	0.0163040
844.605	0.0164058
844.683	0.0163194
844.761	0.0162946
844.840	0.0163310
844.918	0.0164113
844.996	0.0162676
845.074	0.0162809
845.152	0.0162106
845.230	0.0161700
845.308	0.0160968
845.386	0.0160195
845.465	0.0162539
845.543	0.0161897
845.621	0.0160262
845.699	0.0160743
845.777	0.0159311
845.855	0.0161772
845.933	0.0160653
846.011	0.0161109
846.090	0.0160197
846.168	0.0160382
846.246	0.0159966
846.324	0.0160786
846.402	0.0160581
846.480	0.0162199
846.558	0.0162305
846.636	0.0162785
846.715	0.0162485
846.793	0.0163968
846.871	0.0163354
846.949	0.0163338
847.027	0.0163504
847.105	0.0164713
847.183	0.0165385
847.261	0.0164799
847.340	0.0164988
847.418	0.0166287
847.496	0.0165426
847.574	0.0164137
847.652	0.0164751
847.730	0.0165522
847.808	0.0165031
847.886	0.0164540
847.965	0.0163581
848.043	0.0163132
848.121	0.0163435
848.199	0.0163198
848.277	0.0162995
848.355	0.0163654
848.433	0.0161667
848.511	0.0160792
848.590	0.0162256
848.668	0.0162937
848.746	0.0161687
848.824	0.0162357
848.902	0.0161988
848.980	0.0161634
849.058	0.0162058
849.136	0.0161580
849.215	0.0161580
849.293	0.0160858
849.371	0.0162539
849.449	0.0161693
849.527	0.0160687
849.605	0.0160641
849.683	0.0160828
849.761	0.0162189
849.840	0.0161340
849.918	0.0161559
849.996	0.0162908
850.074	0.0161481
850.152	0.0161001
850.230	0.0164048
850.308	0.0162767
850.386	0.0162524
850.465	0.0161772
850.543	0.0163810
850.621	0.0161874
850.699	0.0161988
850.777	0.0163970
850.855	0.0162329
850.933	0.0163682
851.011	0.0162569
851.090	0.0164153
851.168	0.0163524
851.246	0.0165225
851.324	0.0164720
851.402	0.0162019
851.480	0.0163497
851.558	0.0164494
851.636	0.0163089
851.715	0.0163578
851.793	0.0163608
851.871	0.0163260
851.949	0.0165255
852.027	0.0164182
852.105	0.0162922
852.183	0.0163822
852.261	0.0163609
852.340	0.0163221
852.418	0.0162549
852.496	0.0162694
852.574	0.0162378
852.652	0.0161645
852.730	0.0161209
852.808	0.0161217
852.886	0.0161875
852.965	0.0161926
853.043	0.0161789
853.121	0.0161684
853.199	0.0162177
853.277	0.0162994
853.355	0.0162129
853.433	0.0163844
853.511	0.0164962
853.590	0.0162405
853.668	0.0163298
853.746	0.0164223
853.824	0.0163217
853.902	0.0163148
853.980	0.0164389
854.058	0.0163534
854.136	0.0162965
854.215	0.0163401
854.293	0.0164555
854.371	0.0163910
854.449	0.0164197
854.527	0.0165067
854.605	0.0163535
854.683	0.0163610
854.761	0.0163173
854.840	0.0162256
854.918	0.0163094
854.996	0.0161990
855.074	0.0162789
855.152	0.0161926
855.230	0.0161389
855.308	0.0160941
855.386	0.0160537
855.465	0.0161211
855.543	0.0161279
855.621	0.0161841
855.699	0.0160653
855.777	0.0161008
855.855	0.0161185
855.933	0.0161709
856.011	0.0161357
856.090	0.0162997
856.168	0.0162904
856.246	0.0161320
856.324	0.0160883
856.402	0.0163162
856.480	0.0162991
856.558	0.0162938
856.636	0.0163182
856.715	0.0162681
856.793	0.0162605
856.871	0.0162586
856.949	0.0163288
857.027	0.0163615
857.105	0.0163771
857.183	0.0164684
857.261	0.0163742
857.340	0.0163467
857.418	0.0163741
857.496	0.0164517
857.574	0.0164666
857.652	0.0162933
857.730	0.0162337
857.808	0.0163152
857.886	0.0162634
857.965	0.0163257
858.043	0.0163521
858.121	0.0163216
858.199	0.0163869
858.277	0.0161390
858.355	0.0161890
858.433	0.0162492
858.511	0.0163341
858.590	0.0161102
858.668	0.0160828
858.746	0.0162836
858.824	0.0162225
858.902	0.0160722
858.980	0.0160872
859.058	0.0161493
859.136	0.0161356
859.215	0.0161230
859.293	0.0162641
859.371	0.0162255
859.449	0.0163089
859.527	0.0162238
859.605	0.0162915
859.683	0.0162735
859.761	0.0163535
859.840	0.0161964
859.918	0.0162134
859.996	0.0161572
860.074	0.0162969
860.152	0.0163397
860.230	0.0161913
860.308	0.0163664
860.386	0.0163506
860.465	0.0163181
860.543	0.0162955
860.621	0.0163905
860.699	0.0164022
860.777	0.0163078
860.855	0.0165192
860.933	0.0164754
861.011	0.0164395
861.090	0.0164058
861.168	0.0162431
861.246	0.0163132
861.324	0.0163650
861.402	0.0163107
861.480	0.0164069
861.558	0.0162532
861.636	0.0162703
861.715	0.0164095
861.793	0.0162702
861.871	0.0163114
861.949	0.0162614
862.027	0.0162246
862.105	0.0162127
862.183	0.0162505
862.261	0.0163322
862.340	0.0162222
862.418	0.0163080
862.496	0.0161956
862.574	0.0162404
862.652	0.0161550
862.730	0.0162777
862.808	0.0161370
862.886	0.0163396
862.965	0.0162568
863.043	0.0161947
863.121	0.0161919
863.199	0.0161971
863.277	0.0162985
863.355	0.0162690
863.433	0.0163435
863.511	0.0162776
863.590	0.0163718
863.668	0.0162996
863.746	0.0162772
863.824	0.0164565
863.902	0.0163375
863.980	0.0163159
864.058	0.0163414
864.136	0.0164218
864.215	0.0163145
864.293	0.0163228
864.371	0.0162928
864.449	0.0163769
864.527	0.0162280
864.605	0.0164037
864.683	0.0162318
864.761	0.0163157
864.840	0.0163085
864.918	0.0162290
864.996	0.0161828
865.074	0.0162376
865.152	0.0160651
865.230	0.0162086
865.308	0.0162675
865.386	0.0162808
865.465	0.0161624
865.543	0.0162711
865.621	0.0160851
865.699	0.0163832
865.777	0.0161272
865.855	0.0161619
865.933	0.0162772
866.011	0.0161024
866.090	0.0161871
866.168	0.0161689
866.246	0.0162313
866.324	0.0162773
866.402	0.0162567
866.480	0.0162944
866.558	0.0163039
866.636	0.0162092
866.715	0.0163593
866.793	0.0163251
866.871	0.0162630
866.949	0.0163000
867.027	0.0164224
867.105	0.0164065
867.183	0.0164443
867.261	0.0164870
867.340	0.0164871
867.418	0.0162206
867.496	0.0164182
867.574	0.0165367
867.652	0.0164968
867.730	0.0165778
867.808	0.0164375
867.886	0.0164264
867.965	0.0163244
868.043	0.0164842
868.121	0.0163518
868.199	0.0164604
868.277	0.0163508
868.355	0.0162514
868.433	0.0163703
868.511	0.0162799
868.590	0.0163831
868.668	0.0163605
868.746	0.0162412
868.824	0.0163075
868.902	0.0160954
868.980	0.0161430
869.058	0.0161313
869.136	0.0162848
869.215	0.0162212
869.293	0.0162938
869.371	0.0162080
869.449	0.0160826
869.527	0.0162302
869.605	0.0162151
869.683	0.0161496
869.761	0.0161637
869.840	0.0163033
869.918	0.0161882
869.996	0.0162767
870.074	0.0163084
870.152	0.0162817
870.230	0.0160869
870.308	0.0161735
870.386	0.0162578
870.465	0.0163667
870.543	0.0162676
870.621	0.0163673
870.699	0.0161922
870.777	0.0163037
870.855	0.0162585
870.933	0.0164006
871.011	0.0161559
871.090	0.0162739
871.168	0.0163146
871.246	0.0162476
871.324	0.0162411
871.402	0.0161132
871.480	0.0163791
871.558	0.0163348
871.636	0.0162843
871.715	0.0163056
871.793	0.0162933
871.871	0.0161858
871.949	0.0162118
872.027	0.0161934
872.105	0.0162934
872.183	0.0162962
872.261	0.0163219
872.340	0.0163594
872.418	0.0163934
872.496	0.0162141
872.574	0.0163316
872.652	0.0162715
872.730	0.0163495
872.808	0.0163728
872.886	0.0163693
872.965	0.0163958
873.043	0.0162424
873.121	0.0164222
873.199	0.0163950
873.277	0.0164119
873.355	0.0163660
873.433	0.0163640
873.511	0.0163268
873.590	0.0163754
873.668	0.0163485
873.746	0.0163055
873.824	0.0163832
873.902	0.0163969
873.980	0.0162562
874.058	0.0164030
874.136	0.0162910
874.215	0.0163661
874.293	0.0163465
874.371	0.0163536
874.449	0.0163359
874.527	0.0163270
874.605	0.0162508
874.683	0.0163873
874.761	0.0162695
874.840	0.0163036
874.918	0.0161912
874.996	0.0161687
875.074	0.0162061
875.152	0.0162816
875.230	0.0161944
875.308	0.0162033
875.386	0.0161540
875.465	0.0162969
875.543	0.0163723
875.621	0.0162946
875.699	0.0161084
875.777	0.0162263
875.855	0.0161790
875.933	0.0163067
876.011	0.0162860
876.090	0.0161045
876.168	0.0163451
876.246	0.0162479
876.324	0.0160123
876.402	0.0161235
876.480	0.0162067
876.558	0.0163033
876.636	0.0162563
876.715	0.0163116
876.793	0.0161590
876.871	0.0162833
876.949	0.0162766
877.027	0.0163305
877.105	0.0164057
877.183	0.0162107
877.261	0.0161775
877.340	0.0163596
877.418	0.0163293
877.496	0.0164125
877.574	0.0164471
877.652	0.0162738
877.730	0.0161310
877.808	0.0164255
877.886	0.0163741
877.965	0.0164178
878.043	0.0161852
878.121	0.0163210
878.199	0.0163676
878.277	0.0163509
878.355	0.0163606
878.433	0.0163245
878.511	0.0162305
878.590	0.0163162
878.668	0.0163257
878.746	0.0163491
878.824	0.0163235
878.902	0.0163254
878.980	0.0163421
879.058	0.0161586
879.136	0.0161685
879.215	0.0162997
879.293	0.0163217
879.371	0.0162249
879.449	0.0164793
879.527	0.0162666
879.605	0.0161097
879.683	0.0161698
879.761	0.0163602
879.840	0.0162865
879.918	0.0162759
879.996	0.0163523
880.074	0.0163818
880.152	0.0163142
880.230	0.0163531
880.308	0.0162463
880.386	0.0163572
880.465	0.0162138
880.543	0.0163016
880.621	0.0163815
880.699	0.0162951
880.777	0.0162728
880.855	0.0163033
880.933	0.0164254
881.011	0.0162974
881.090	0.0162981
881.168	0.0162004
881.246	0.0162864
881.324	0.0163227
881.402	0.0163180
881.480	0.0164706
881.558	0.0164166
881.636	0.0163467
881.715	0.0163255
881.793	0.0161684
881.871	0.0162942
881.949	0.0162484
882.027	0.0162463
882.105	0.0161377
882.183	0.0161295
882.261	0.0163351
882.340	0.0162933
882.418	0.0162833
882.496	0.0162138
882.574	0.0162199
882.652	0.0162330
882.730	0.0163236
882.808	0.0162884
882.886	0.0162487
882.965	0.0163358
883.043	0.0163417
883.121	0.0163898
883.199	0.0162162
883.277	0.0163000
883.355	0.0163908
883.433	0.0163484
883.511	0.0163610
883.590	0.0163725
883.668	0.0162773
883.746	0.0162546
883.824	0.0163363
883.902	0.0164120
883.980	0.0163423
884.058	0.0162054
884.136	0.0163189
884.215	0.0162581
884.293	0.0164306
884.371	0.0164866
884.449	0.0163670
884.527	0.0162048
884.605	0.0163155
884.683	0.0162883
884.761	0.0162138
884.840	0.0161899
884.918	0.0163020
884.996	0.0162856
885.074	0.0163214
885.152	0.0161922
885.230	0.0162679
885.308	0.0162904
885.386	0.0161227
885.465	0.0160803
885.543	0.0162655
885.621	0.0163383
885.699	0.0162646
885.777	0.0161790
885.855	0.0162855
885.933	0.0161837
886.011	0.0161541
886.090	0.0163126
886.168	0.0162093
886.246	0.0161655
886.324	0.0163514
886.402	0.0163313
886.480	0.0162533
886.558	0.0162460
886.636	0.0162073
886.715	0.0162247
886.793	0.0162933
886.871	0.0163388
886.949	0.0162572
887.027	0.0162531
887.105	0.0163317
887.183	0.0162753
887.261	0.0165271
887.340	0.0164661
887.418	0.0162193
887.496	0.0163853
887.574	0.0163723
887.652	0.0163944
887.730	0.0163852
887.808	0.0162952
887.886	0.0163789
887.965	0.0164264
888.043	0.0163746
888.121	0.0164938
888.199	0.0162848
888.277	0.0163507
888.355	0.0163702
888.433	0.0164001
888.511	0.0164122
888.590	0.0164543
888.668	0.0163727
888.746	0.0162830
888.824	0.0162622
888.902	0.0161857
888.980	0.0163242
889.058	0.0162660
889.136	0.0163361
889.215	0.0163658
889.293	0.0162769
889.371	0.0162131
889.449	0.0160812
889.527	0.0161916
889.605	0.0163170
889.683	0.0161749
889.761	0.0163242
889.840	0.0163010
889.918	0.0162813
889.996	0.0162791
890.074	0.0162433
890.152	0.0162500
890.230	0.0162686
890.308	0.0163831
890.386	0.0162271
890.465	0.0164327
890.543	0.0163197
890.621	0.0162151
890.699	0.0162905
890.777	0.0163008
890.855	0.0162831
890.933	0.0163172
891.011	0.0163236
891.090	0.0162209
891.168	0.0163074
891.246	0.0161773
891.324	0.0161712
891.402	0.0162121
891.480	0.0160984
891.558	0.0161892
891.636	0.0163482
891.715	0.0162729
891.793	0.0162122
891.871	0.0164308
891.949	0.0162462
892.027	0.0162798
892.105	0.0162769
892.183	0.0162673
892.261	0.0163886
892.340	0.0164010
892.418	0.0163377
892.496	0.0163342
892.574	0.0164269
892.652	0.0164870
892.730	0.0163986
892.808	0.0163087
892.886	0.0162160
892.965	0.0163367
893.043	0.0163161
893.121	0.0161313
893.199	0.0162893
893.277	0.0161791
893.355	0.0163234
893.433	0.0164079
893.511	0.0161823
893.590	0.0161810
893.668	0.0160950
893.746	0.0162643
893.824	0.0163548
893.902	0.0162281
893.980	0.0162518
894.058	0.0163380
894.136	0.0161488
894.215	0.0162946
894.293	0.0162376
894.371	0.0161953
894.449	0.0163047
894.527	0.0163200
894.605	0.0162369
894.683	0.0162530
894.761	0.0165257
894.840	0.0165350
894.918	0.0162509
894.996	0.0163793
895.074	0.0162915
895.152	0.0164215
895.230	0.0163052
895.308	0.0162814
895.386	0.0162724
895.465	0.0162771
895.543	0.0163303
895.621	0.0162149
895.699	0.0162292
895.777	0.0163165
895.855	0.0162698
895.933	0.0162383
896.011	0.0162821
896.090	0.0162850
896.168	0.0161214
896.246	0.0161040
896.324	0.0162507
896.402	0.0162532
896.480	0.0162408
896.558	0.0163351
896.636	0.0163448
896.715	0.0162299
896.793	0.0162990
896.871	0.0163807
896.949	0.0163216
897.027	0.0162743
897.105	0.0164001
897.183	0.0162989
897.261	0.0162786
897.340	0.0163383
897.418	0.0163776
897.496	0.0163344
897.574	0.0162599
897.652	0.0163523
897.730	0.0161623
897.808	0.0162263
897.886	0.0162987
897.965	0.0163162
898.043	0.0164198
898.121	0.0162395
898.199	0.0161855
898.277	0.0162988
898.355	0.0163382
898.433	0.0162424
898.511	0.0161721
898.590	0.0163046
898.668	0.0163526
898.746	0.0162259
898.824	0.0162243
898.902	0.0162740
898.980	0.0163384
899.058	0.0162894
899.136	0.0162415
899.215	0.0163464
899.293	0.0163568
899.371	0.0162653
899.449	0.0163183
899.527	0.0163774
899.605	0.0162333
899.683	0.0162970
899.761	0.0162968
899.840	0.0162952
899.918	0.0162883
899.996	0.0163784
900.074	0.0162561
900.152	0.0162360
900.230	0.0161074
900.308	0.0161481
900.386	0.0161899
900.465	0.0162169
900.543	0.0162420
900.621	0.0163188
900.699	0.0160712
900.777	0.0161917
900.855	0.0161478
900.933	0.0162722
901.011	0.0163805
901.090	0.0161507
901.168	0.0161157
901.246	0.0162181
901.324	0.0164420
901.402	0.0163989
901.480	0.0162553
901.558	0.0163081
901.636	0.0163671
901.715	0.0163044
901.793	0.0162332
901.871	0.0161926
901.949	0.0162901
902.027	0.0163274
902.105	0.0161037
902.183	0.0162859
902.261	0.0164235
902.340	0.0162319
902.418	0.0163416
902.496	0.0161387
902.574	0.0163337
902.652	0.0163140
902.730	0.0162994
902.808	0.0163380
902.886	0.0163190
902.965	0.0162387
903.043	0.0164359
903.121	0.0163509
903.199	0.0162722
903.277	0.0164371
903.355	0.0164196
903.433	0.0163564
903.511	0.0164481
903.590	0.0163685
903.668	0.0163303
903.746	0.0163917
903.824	0.0164201
903.902	0.0163744
903.980	0.0163824
904.058	0.0164170
904.136	0.0163612
904.215	0.0163374
904.293	0.0162953
904.371	0.0162679
904.449	0.0162546
904.527	0.0163073
904.605	0.0163297
904.683	0.0162273
904.761	0.0161977
904.840	0.0162417
904.918	0.0162535
904.996	0.0162973
905.074	0.0162666
905.152	0.0162101
905.230	0.0160815
905.308	0.0162437
905.386	0.0162410
905.465	0.0162650
905.543	0.0161835
905.621	0.0160400
905.699	0.0162206
905.777	0.0163046
905.855	0.0161655
905.933	0.0162919
906.011	0.0160774
906.090	0.0162905
906.168	0.0162615
906.246	0.0164085
906.324	0.0163205
906.402	0.0162852
906.480	0.0163187
906.558	0.0162979
906.636	0.0163020
906.715	0.0163367
906.793	0.0163224
906.871	0.0161967
906.949	0.0162305
907.027	0.0163172
907.105	0.0162923
907.183	0.0163142
907.261	0.0163234
907.340	0.0163483
907.418	0.0164310
907.496	0.0162389
907.574	0.0162484
907.652	0.0162638
907.730	0.0164382
907.808	0.0164844
907.886	0.0164799
907.965	0.0162967
908.043	0.0163017
908.121	0.0164877
908.199	0.0163297
908.277	0.0162958
908.355	0.0163440
908.433	0.0163783
908.511	0.0163331
908.590	0.0162611
908.668	0.0162347
908.746	0.0162274
908.824	0.0164458
908.902	0.0162362
908.980	0.0161929
909.058	0.0162395
909.136	0.0162959
909.215	0.0163112
909.293	0.0163187
909.371	0.0162939
909.449	0.0163982
909.527	0.0162237
909.605	0.0161405
909.683	0.0162466
909.761	0.0162278
909.840	0.0162240
909.918	0.0161804
909.996	0.0161460
910.074	0.0163102
910.152	0.0162839
910.230	0.0163277
910.308	0.0161765
910.386	0.0162203
910.465	0.0161192
910.543	0.0163033
910.621	0.0162428
910.699	0.0163295
910.777	0.0162216
910.855	0.0163337
910.933	0.0161400
911.011	0.0161182
911.090	0.0161718
911.168	0.0162596
911.246	0.0162461
911.324	0.0162634
911.402	0.0162536
911.480	0.0163120
911.558	0.0163140
911.636	0.0162139
911.715	0.0161599
911.793	0.0163293
911.871	0.0161987
911.949	0.0163307
912.027	0.0162991
912.105	0.0162364
912.183	0.0163216
912.261	0.0162886
912.340	0.0164411
912.418	0.0165782
912.496	0.0162365
912.574	0.0163186
912.652	0.0164154
912.730	0.0163249
912.808	0.0163173
912.886	0.0163141
912.965	0.0162820
913.043	0.0162457
913.121	0.0162680
913.199	0.0163179
913.277	0.0163416
913.355	0.0161581
913.433	0.0162905
913.511	0.0163275
913.590	0.0162687
913.668	0.0161771
913.746	0.0162318
913.824	0.0162560
913.902	0.0162203
913.980	0.0163712
914.058	0.0163120
914.136	0.0163490
914.215	0.0163883
914.293	0.0164048
914.371	0.0164567
914.449	0.0163065
914.527	0.0163371
914.605	0.0165711
914.683	0.0164044
914.761	0.0165675
914.840	0.0164525
914.918	0.0164488
914.996	0.0164520
915.074	0.0163772
915.152	0.0165907
915.230	0.0163641
915.308	0.0164039
915.386	0.0163803
915.465	0.0163277
915.543	0.0162864
915.621	0.0162542
915.699	0.0162187
915.777	0.0160741
915.855	0.0161973
915.933	0.0161736
916.011	0.0161224
916.090	0.0159795
916.168	0.0160487
916.246	0.0161229
916.324	0.0161311
916.402	0.0161005
916.480	0.0159774
916.558	0.0162020
916.636	0.0162293
916.715	0.0161745
916.793	0.0161459
916.871	0.0162969
916.949	0.0163402
917.027	0.0163480
917.105	0.0163546
917.183	0.0162720
917.261	0.0164236
917.340	0.0164736
917.418	0.0163657
917.496	0.0163306
917.574	0.0163646
917.652	0.0164232
917.730	0.0163035
917.808	0.0165223
917.886	0.0163458
917.965	0.0163818
918.043	0.0161977
918.121	0.0161952
918.199	0.0161519
918.277	0.0162378
918.355	0.0163120
918.433	0.0163459
918.511	0.0163120
918.590	0.0163347
918.668	0.0163219
918.746	0.0162318
918.824	0.0162133
918.902	0.0161674
918.980	0.0162721
919.058	0.0161883
919.136	0.0163379
919.215	0.0163008
919.293	0.0163409
919.371	0.0162973
919.449	0.0163314
919.527	0.0163541
919.605	0.0162827
919.683	0.0163288
919.761	0.0163519
919.840	0.0162206
919.918	0.0163512
919.996	0.0163105
920.074	0.0162582
920.152	0.0162110
920.230	0.0162923
920.308	0.0163088
920.386	0.0163995
920.465	0.0162434
920.543	0.0162868
920.621	0.0162964
920.699	0.0163162
920.777	0.0163152
920.855	0.0162317
920.933	0.0163881
921.011	0.0162234
921.090	0.0163020
921.168	0.0162910
921.246	0.0162679
921.324	0.0161854
921.402	0.0163116
921.480	0.0162159
921.558	0.0162298
921.636	0.0163963
921.715	0.0164159
921.793	0.0162244
921.871	0.0162104
921.949	0.0163944
922.027	0.0162911
922.105	0.0163369
922.183	0.0162547
922.261	0.0161356
922.340	0.0161620
922.418	0.0162170
922.496	0.0162525
922.574	0.0161294
922.652	0.0161679
922.730	0.0160381
922.808	0.0162246
922.886	0.0162024
922.965	0.0163266
923.043	0.0162858
923.121	0.0161824
923.199	0.0161915
923.277	0.0163937
923.355	0.0164474
923.433	0.0163552
923.511	0.0163300
923.590	0.0164796
923.668	0.0163890
923.746	0.0162695
923.824	0.0163898
923.902	0.0164163
923.980	0.0164954
924.058	0.0163953
924.136	0.0164316
924.215	0.0164280
924.293	0.0164133
924.371	0.0164001
924.449	0.0162731
924.527	0.0162015
924.605	0.0161655
924.683	0.0161869
924.761	0.0163703
924.840	0.0162350
924.918	0.0161758
924.996	0.0162269
925.074	0.0160444
925.152	0.0161217
925.230	0.0161813
925.308	0.0160582
925.386	0.0160522
925.465	0.0161392
925.543	0.0162469
925.621	0.0161860
925.699	0.0162711
925.777	0.0163545
925.855	0.0161810
925.933	0.0164053
926.011	0.0164175
926.090	0.0163514
926.168	0.0164386
926.246	0.0164371
926.324	0.0163544
926.402	0.0163806
926.480	0.0164768
926.558	0.0164227
926.636	0.0163509
926.715	0.0164255
926.793	0.0163451
926.871	0.0164223
926.949	0.0164012
927.027	0.0162638
927.105	0.0161873
927.183	0.0162499
927.261	0.0162022
927.340	0.0162659
927.418	0.0161108
927.496	0.0162296
927.574	0.0162292
927.652	0.0162337
927.730	0.0161023
927.808	0.0161525
927.886	0.0161538
927.965	0.0161201
928.043	0.0162814
928.121	0.0162362
928.199	0.0163506
928.277	0.0163966
928.355	0.0162684
928.433	0.0162408
928.511	0.0162460
928.590	0.0163606
928.668	0.0163261
928.746	0.0162006
928.824	0.0162370
928.902	0.0163603
928.980	0.0163468
929.058	0.0162096
929.136	0.0162155
929.215	0.0162703
929.293	0.0161913
929.371	0.0162356
929.449	0.0161634
929.527	0.0162444
929.605	0.0161028
929.683	0.0161771
929.761	0.0161794
929.840	0.0162327
929.918	0.0162269
929.996	0.0161459
930.074	0.0163704
930.152	0.0162732
930.230	0.0162498
930.308	0.0164202
930.386	0.0164886
930.465	0.0164258
930.543	0.0164208
930.621	0.0164183
930.699	0.0163321
930.777	0.0164703
930.855	0.0164758
930.933	0.0164758
931.011	0.0164226
931.090	0.0164560
931.168	0.0163570
931.246	0.0163361
931.324	0.0163059
931.402	0.0162964
931.480	0.0162716
931.558	0.0161441
931.636	0.0162813
931.715	0.0161932
931.793	0.0162120
931.871	0.0161897
931.949	0.0162242
932.027	0.0163141
932.105	0.0161913
932.183	0.0161421
932.261	0.0163200
932.340	0.0163213
932.418	0.0162986
932.496	0.0162555
932.574	0.0162999
932.652	0.0162423
932.730	0.0163068
932.808	0.0163420
932.886	0.0163030
932.965	0.0164863
933.043	0.0163956
933.121	0.0163513
933.199	0.0163654
933.277	0.0163380
933.355	0.0163612
933.433	0.0164108
933.511	0.0163189
933.590	0.0164044
933.668	0.0161970
933.746	0.0162206
933.824	0.0161773
933.902	0.0162203
933.980	0.0161050
934.058	0.0163049
934.136	0.0161158
934.215	0.0161729
934.293	0.0162328
934.371	0.0161062
934.449	0.0161954
934.527	0.0161629
934.605	0.0162746
934.683	0.0162518
934.761	0.0162731
934.840	0.0163020
934.918	0.0161569
934.996	0.0162406
935.074	0.0163248
935.152	0.0162105
935.230	0.0161709
935.308	0.0163560
935.386	0.0162995
935.465	0.0164404
935.543	0.0163811
935.621	0.0163073
935.699	0.0163376
935.777	0.0161417
935.855	0.0163925
935.933	0.0163122
936.011	0.0163283
936.090	0.0163421
936.168	0.0163084
936.246	0.0163943
936.324	0.0163544
936.402	0.0163413
936.480	0.0162935
936.558	0.0162729
936.636	0.0164183
936.715	0.0163902
936.793	0.0164374
936.871	0.0164893
936.949	0.0164692
937.027	0.0164321
937.105	0.0163887
937.183	0.0164675
937.261	0.0163563
937.340	0.0164127
937.418	0.0164960
937.496	0.0164296
937.574	0.0163856
937.652	0.0164347
937.730	0.0163288
937.808	0.0162000
937.886	0.0163824
937.965	0.0163314
938.043	0.0163735
938.121	0.0162871
938.199	0.0161443
938.277	0.0162840
938.355	0.0162508
938.433	0.0162595
938.511	0.0162242
938.590	0.0162772
938.668	0.0162093
938.746	0.0162013
938.824	0.0161754
938.902	0.0162243
938.980	0.0160519
939.058	0.0161235
939.136	0.0161248
939.215	0.0162768
939.293	0.0161566
939.371	0.0162286
939.449	0.0162156
939.527	0.0162852
939.605	0.0161324
939.683	0.0161598
939.761	0.0162205
939.840	0.0162877
939.918	0.0162863
939.996	0.0163771
940.074	0.0162919
940.152	0.0162250
940.230	0.0164769
940.308	0.0163616
940.386	0.0162843
940.465	0.0163284
940.543	0.0162913
940.621	0.0162337
940.699	0.0161399
940.777	0.0162219
940.855	0.0161778
940.933	0.0162932
941.011	0.0162357
941.090	0.0162779
941.168	0.0161598
941.246	0.0161848
941.324	0.0162515
941.402	0.0162579
941.480	0.0162916
941.558	0.0162594
941.636	0.0162846
941.715	0.0161671
941.793	0.0162796
941.871	0.0163980
941.949	0.0162704
942.027	0.0162210
942.105	0.0162352
942.183	0.0163058
942.261	0.0163330
942.340	0.0162265
942.418	0.0161478
942.496	0.0162614
942.574	0.0163087
942.652	0.0162249
942.730	0.0161956
942.808	0.0163091
942.886	0.0162090
942.965	0.0161681
943.043	0.0162094
943.121	0.0162868
943.199	0.0162039
943.277	0.0161470
943.355	0.0162251
943.433	0.0162840
943.511	0.0162422
943.590	0.0162284
943.668	0.0163260
943.746	0.0163419
943.824	0.0163908
943.902	0.0162923
943.980	0.0164056
944.058	0.0164282
944.136	0.0163600
944.215	0.0164397
944.293	0.0164227
944.371	0.0163100
944.449	0.0163722
944.527	0.0165063
944.605	0.0163342
944.683	0.0163092
944.761	0.0163478
944.840	0.0163028
944.918	0.0161332
944.996	0.0160555
945.074	0.0163847
945.152	0.0160962
945.230	0.0162428
945.308	0.0161440
945.386	0.0161353
945.465	0.0160889
945.543	0.0162082
945.621	0.0163607
945.699	0.0161937
945.777	0.0161773
945.855	0.0162502
945.933	0.0163259
946.011	0.0162022
946.090	0.0161855
946.168	0.0161495
946.246	0.0162416
946.324	0.0162732
946.402	0.0164903
946.480	0.0162411
946.558	0.0162782
946.636	0.0162246
946.715	0.0162313
946.793	0.0162524
946.871	0.0162733
946.949	0.0161928
947.027	0.0161147
947.105	0.0162077
947.183	0.0161974
947.261	0.0162914
947.340	0.0162906
947.418	0.0162646
947.496	0.0163048
947.574	0.0162028
947.652	0.0163023
947.730	0.0163137
947.808	0.0163657
947.886	0.0163197
947.965	0.0162543
948.043	0.0161668
948.121	0.0161177
948.199	0.0163521
948.277	0.0162457
948.355	0.0163078
948.433	0.0161970
948.511	0.0162325
948.590	0.0161991
948.668	0.0162123
948.746	0.0162836
948.824	0.0162498
948.902	0.0162852
948.980	0.0162440
949.058	0.0161879
949.136	0.0162384
949.215	0.0162993
949.293	0.0163503
949.371	0.0163558
949.449	0.0162292
949.527	0.0163498
949.605	0.0164141
949.683	0.0163993
949.761	0.0163493
949.840	0.0163349
949.918	0.0164017
