06/29/2022	23:05:26	Ver.	4.1	UNKNOWN
Optical Delay	630.002507	Delta X		0.078125	Sweeps	1	Scan Rate	0/0
Coordinates	Axis 1	NaN	Axis 2	NaN	Axis 3	NaN	Axis 4	NaN	Axis 5	NaN	Axis 6	0.000000
TX Power	0.000000	RX Power	0.000000

630.003	0.0163891
630.081	0.0165548
630.159	0.0165796
630.237	0.0163599
630.315	0.0163780
630.393	0.0163706
630.471	0.0164048
630.549	0.0163593
630.628	0.0163981
630.706	0.0164407
630.784	0.0163605
630.862	0.0163590
630.940	0.0164458
631.018	0.0164540
631.096	0.0163782
631.174	0.0163905
631.253	0.0164960
631.331	0.0164857
631.409	0.0163958
631.487	0.0163707
631.565	0.0164813
631.643	0.0164259
631.721	0.0163970
631.799	0.0163913
631.878	0.0164259
631.956	0.0164289
632.034	0.0163900
632.112	0.0164149
632.190	0.0165359
632.268	0.0164449
632.346	0.0164423
632.424	0.0165022
632.503	0.0164380
632.581	0.0164329
632.659	0.0163992
632.737	0.0165706
632.815	0.0165196
632.893	0.0163844
632.971	0.0164442
633.049	0.0163378
633.128	0.0163705
633.206	0.0163448
633.284	0.0163770
633.362	0.0164741
633.440	0.0166417
633.518	0.0163618
633.596	0.0163777
633.674	0.0163985
633.753	0.0163945
633.831	0.0163464
633.909	0.0164404
633.987	0.0164707
634.065	0.0163416
634.143	0.0164598
634.221	0.0164807
634.299	0.0163141
634.378	0.0164518
634.456	0.0165057
634.534	0.0163935
634.612	0.0163403
634.690	0.0165955
634.768	0.0164958
634.846	0.0163718
634.924	0.0164480
635.003	0.0164243
635.081	0.0164559
635.159	0.0163276
635.237	0.0164161
635.315	0.0164648
635.393	0.0164925
635.471	0.0163456
635.549	0.0163579
635.628	0.0165073
635.706	0.0164089
635.784	0.0163536
635.862	0.0164586
635.940	0.0164507
636.018	0.0163587
636.096	0.0163508
636.174	0.0165205
636.253	0.0164264
636.331	0.0163731
636.409	0.0164380
636.487	0.0164230
636.565	0.0163560
636.643	0.0163632
636.721	0.0163940
636.799	0.0165359
636.878	0.0162955
636.956	0.0164268
637.034	0.0164057
637.112	0.0164233
637.190	0.0164196
637.268	0.0163842
637.346	0.0164957
637.424	0.0164348
637.503	0.0164417
637.581	0.0164396
637.659	0.0165428
637.737	0.0165424
637.815	0.0165617
637.893	0.0164854
637.971	0.0164547
638.049	0.0164951
638.128	0.0163214
638.206	0.0163082
638.284	0.0163570
638.362	0.0163206
638.440	0.0164208
638.518	0.0163973
638.596	0.0166473
638.674	0.0164676
638.753	0.0163332
638.831	0.0163379
638.909	0.0163716
638.987	0.0165417
639.065	0.0164417
639.143	0.0164156
639.221	0.0164198
639.299	0.0164870
639.378	0.0164085
639.456	0.0164042
639.534	0.0163713
639.612	0.0163805
639.690	0.0164611
639.768	0.0164045
639.846	0.0165867
639.924	0.0165593
640.003	0.0164368
640.081	0.0164088
640.159	0.0164017
640.237	0.0163464
640.315	0.0162592
640.393	0.0164485
640.471	0.0165324
640.549	0.0164756
640.628	0.0163833
640.706	0.0164066
640.784	0.0163675
640.862	0.0163651
640.940	0.0164734
641.018	0.0164913
641.096	0.0162959
641.174	0.0164757
641.253	0.0163882
641.331	0.0164002
641.409	0.0164474
641.487	0.0165419
641.565	0.0165161
641.643	0.0164458
641.721	0.0164746
641.799	0.0164494
641.878	0.0164892
641.956	0.0164613
642.034	0.0163775
642.112	0.0162839
642.190	0.0164537
642.268	0.0163757
642.346	0.0164732
642.424	0.0164143
642.503	0.0163599
642.581	0.0165466
642.659	0.0163887
642.737	0.0164002
642.815	0.0164570
642.893	0.0165714
642.971	0.0163268
643.049	0.0162280
643.128	0.0163461
643.206	0.0165173
643.284	0.0164985
643.362	0.0163776
643.440	0.0163527
643.518	0.0164830
643.596	0.0164388
643.674	0.0164382
643.753	0.0164201
643.831	0.0162671
643.909	0.0164655
643.987	0.0163997
644.065	0.0163811
644.143	0.0164606
644.221	0.0164100
644.299	0.0163303
644.378	0.0163844
644.456	0.0164331
644.534	0.0163854
644.612	0.0163962
644.690	0.0163873
644.768	0.0164088
644.846	0.0163601
644.924	0.0164097
645.003	0.0164291
645.081	0.0164258
645.159	0.0164233
645.237	0.0163670
645.315	0.0163719
645.393	0.0164910
645.471	0.0163308
645.549	0.0164608
645.628	0.0165154
645.706	0.0164334
645.784	0.0164062
645.862	0.0166298
645.940	0.0164375
646.018	0.0163635
646.096	0.0164307
646.174	0.0163441
646.253	0.0164305
646.331	0.0164053
646.409	0.0165115
646.487	0.0162880
646.565	0.0164242
646.643	0.0165051
646.721	0.0163017
646.799	0.0163793
646.878	0.0163402
646.956	0.0163173
647.034	0.0164137
647.112	0.0163985
647.190	0.0164217
647.268	0.0164629
647.346	0.0165777
647.424	0.0164833
647.503	0.0163883
647.581	0.0165157
647.659	0.0165187
647.737	0.0164587
647.815	0.0162744
647.893	0.0164236
647.971	0.0164392
648.049	0.0164252
648.128	0.0164127
648.206	0.0164774
648.284	0.0162930
648.362	0.0163263
648.440	0.0164046
648.518	0.0165518
648.596	0.0164112
648.674	0.0164769
648.753	0.0163522
648.831	0.0164272
648.909	0.0164159
648.987	0.0164977
649.065	0.0164868
649.143	0.0164442
649.221	0.0165108
649.299	0.0165237
649.378	0.0163376
649.456	0.0164086
649.534	0.0164918
649.612	0.0164656
649.690	0.0163538
649.768	0.0164342
649.846	0.0164287
649.924	0.0163772
650.003	0.0163364
650.081	0.0164745
650.159	0.0164780
650.237	0.0165295
650.315	0.0163779
650.393	0.0164066
650.471	0.0164027
650.549	0.0163790
650.628	0.0162466
650.706	0.0164787
650.784	0.0163643
650.862	0.0162763
650.940	0.0164831
651.018	0.0164610
651.096	0.0163514
651.174	0.0163688
651.253	0.0164220
651.331	0.0163504
651.409	0.0164344
651.487	0.0165412
651.565	0.0165034
651.643	0.0165090
651.721	0.0164774
651.799	0.0164127
651.878	0.0164013
651.956	0.0164521
652.034	0.0164441
652.112	0.0164044
652.190	0.0163945
652.268	0.0164999
652.346	0.0164661
652.424	0.0164196
652.503	0.0164526
652.581	0.0163975
652.659	0.0164606
652.737	0.0163948
652.815	0.0164980
652.893	0.0165670
652.971	0.0163941
653.049	0.0164630
653.128	0.0163290
653.206	0.0163817
653.284	0.0164405
653.362	0.0163471
653.440	0.0164159
653.518	0.0164401
653.596	0.0164046
653.674	0.0165059
653.753	0.0166053
653.831	0.0164220
653.909	0.0164642
653.987	0.0164125
654.065	0.0162850
654.143	0.0164024
654.221	0.0164619
654.299	0.0163585
654.378	0.0163512
654.456	0.0164878
654.534	0.0163589
654.612	0.0164487
654.690	0.0164073
654.768	0.0163514
654.846	0.0165307
654.924	0.0165185
655.003	0.0163628
655.081	0.0164735
655.159	0.0164483
655.237	0.0164249
655.315	0.0164441
655.393	0.0163843
655.471	0.0164223
655.549	0.0163683
655.628	0.0164231
655.706	0.0164966
655.784	0.0164438
655.862	0.0164102
655.940	0.0164729
656.018	0.0164137
656.096	0.0163861
656.174	0.0164530
656.253	0.0164565
656.331	0.0164230
656.409	0.0163281
656.487	0.0164610
656.565	0.0163527
656.643	0.0164194
656.721	0.0163784
656.799	0.0164502
656.878	0.0165046
656.956	0.0163676
657.034	0.0163866
657.112	0.0164290
657.190	0.0163244
657.268	0.0163793
657.346	0.0163712
657.424	0.0164200
657.503	0.0163598
657.581	0.0163538
657.659	0.0163700
657.737	0.0164864
657.815	0.0165292
657.893	0.0165117
657.971	0.0163819
658.049	0.0163149
658.128	0.0163227
658.206	0.0163773
658.284	0.0162868
658.362	0.0163796
658.440	0.0164330
658.518	0.0164874
658.596	0.0165089
658.674	0.0164532
658.753	0.0164671
658.831	0.0165584
658.909	0.0165779
658.987	0.0161942
659.065	0.0164829
659.143	0.0164373
659.221	0.0163395
659.299	0.0163860
659.378	0.0163935
659.456	0.0164485
659.534	0.0164002
659.612	0.0162881
659.690	0.0163783
659.768	0.0162689
659.846	0.0162746
659.924	0.0163891
660.003	0.0165121
660.081	0.0164555
660.159	0.0165354
660.237	0.0165364
660.315	0.0165301
660.393	0.0163803
660.471	0.0163419
660.549	0.0163519
660.628	0.0163660
660.706	0.0164335
660.784	0.0164133
660.862	0.0163902
660.940	0.0165082
661.018	0.0163058
661.096	0.0164439
661.174	0.0164498
661.253	0.0164227
661.331	0.0163644
661.409	0.0165158
661.487	0.0163380
661.565	0.0163216
661.643	0.0163490
661.721	0.0164310
661.799	0.0164194
661.878	0.0166447
661.956	0.0164477
662.034	0.0163158
662.112	0.0164312
662.190	0.0164156
662.268	0.0163760
662.346	0.0163634
662.424	0.0163660
662.503	0.0164713
662.581	0.0163787
662.659	0.0165325
662.737	0.0164928
662.815	0.0164457
662.893	0.0164735
662.971	0.0164009
663.049	0.0164282
663.128	0.0164380
663.206	0.0164838
663.284	0.0164767
663.362	0.0164890
663.440	0.0164626
663.518	0.0165218
663.596	0.0164626
663.674	0.0166740
663.753	0.0165665
663.831	0.0164686
663.909	0.0164144
663.987	0.0162461
664.065	0.0164970
664.143	0.0165802
664.221	0.0164225
664.299	0.0163783
664.378	0.0165267
664.456	0.0165274
664.534	0.0163674
664.612	0.0162751
664.690	0.0164602
664.768	0.0163818
664.846	0.0163947
664.924	0.0163062
665.003	0.0164771
665.081	0.0164521
665.159	0.0164786
665.237	0.0165149
665.315	0.0164161
665.393	0.0163570
665.471	0.0164227
665.549	0.0163509
665.628	0.0164534
665.706	0.0164940
665.784	0.0163455
665.862	0.0163315
665.940	0.0164990
666.018	0.0163596
666.096	0.0163808
666.174	0.0164135
666.253	0.0163631
666.331	0.0163544
666.409	0.0163887
666.487	0.0164196
666.565	0.0163716
666.643	0.0163699
666.721	0.0163461
666.799	0.0163067
666.878	0.0165198
666.956	0.0163639
667.034	0.0163838
667.112	0.0164159
667.190	0.0163518
667.268	0.0162482
667.346	0.0162716
667.424	0.0163830
667.503	0.0165582
667.581	0.0164040
667.659	0.0164453
667.737	0.0162960
667.815	0.0164655
667.893	0.0164944
667.971	0.0163139
668.049	0.0163762
668.128	0.0164197
668.206	0.0163560
668.284	0.0163529
668.362	0.0164323
668.440	0.0164386
668.518	0.0163867
668.596	0.0164505
668.674	0.0164323
668.753	0.0163172
668.831	0.0163190
668.909	0.0164886
668.987	0.0162995
669.065	0.0165198
669.143	0.0164116
669.221	0.0163927
669.299	0.0164288
669.378	0.0166347
669.456	0.0163663
669.534	0.0164329
669.612	0.0165045
669.690	0.0164544
669.768	0.0164322
669.846	0.0163364
669.924	0.0165327
670.003	0.0165871
670.081	0.0164473
670.159	0.0164175
670.237	0.0164146
670.315	0.0164732
670.393	0.0164896
670.471	0.0164379
670.549	0.0163712
670.628	0.0164538
670.706	0.0162578
670.784	0.0163351
670.862	0.0164761
670.940	0.0163621
671.018	0.0162686
671.096	0.0163161
671.174	0.0163584
671.253	0.0163034
671.331	0.0163421
671.409	0.0162740
671.487	0.0163208
671.565	0.0163465
671.643	0.0163808
671.721	0.0163560
671.799	0.0163568
671.878	0.0164949
671.956	0.0165422
672.034	0.0164369
672.112	0.0165303
672.190	0.0164037
672.268	0.0163958
672.346	0.0164233
672.424	0.0164252
672.503	0.0164085
672.581	0.0165121
672.659	0.0164008
672.737	0.0165807
672.815	0.0163313
672.893	0.0163069
672.971	0.0162324
673.049	0.0162749
673.128	0.0164677
673.206	0.0165850
673.284	0.0165591
673.362	0.0163785
673.440	0.0162954
673.518	0.0165958
673.596	0.0163958
673.674	0.0164383
673.753	0.0165852
673.831	0.0163546
673.909	0.0163760
673.987	0.0164202
674.065	0.0163950
674.143	0.0162518
674.221	0.0164355
674.299	0.0163082
674.378	0.0162816
674.456	0.0162386
674.534	0.0162631
674.612	0.0162894
674.690	0.0162257
674.768	0.0163630
674.846	0.0163277
674.924	0.0163421
675.003	0.0164130
675.081	0.0164986
675.159	0.0165691
675.237	0.0165440
675.315	0.0164362
675.393	0.0164344
675.471	0.0165743
675.549	0.0165735
675.628	0.0163866
675.706	0.0162363
675.784	0.0164015
675.862	0.0164255
675.940	0.0163830
676.018	0.0163879
676.096	0.0161445
676.174	0.0164701
676.253	0.0164049
676.331	0.0162386
676.409	0.0163364
676.487	0.0163868
676.565	0.0165123
676.643	0.0164716
676.721	0.0163678
676.799	0.0164402
676.878	0.0165323
676.956	0.0164243
677.034	0.0164224
677.112	0.0165770
677.190	0.0164730
677.268	0.0163686
677.346	0.0164130
677.424	0.0164693
677.503	0.0163411
677.581	0.0164818
677.659	0.0164669
677.737	0.0164301
677.815	0.0163315
677.893	0.0163634
677.971	0.0162641
678.049	0.0164184
678.128	0.0163117
678.206	0.0163482
678.284	0.0164235
678.362	0.0162604
678.440	0.0165251
678.518	0.0164928
678.596	0.0162847
678.674	0.0165009
678.753	0.0164860
678.831	0.0164916
678.909	0.0165014
678.987	0.0164745
679.065	0.0165281
679.143	0.0165003
679.221	0.0164020
679.299	0.0164258
679.378	0.0164838
679.456	0.0164802
679.534	0.0163560
679.612	0.0164088
679.690	0.0164323
679.768	0.0163439
679.846	0.0164069
679.924	0.0161919
680.003	0.0164694
680.081	0.0164219
680.159	0.0163728
680.237	0.0163807
680.315	0.0165752
680.393	0.0165422
680.471	0.0165699
680.549	0.0165269
680.628	0.0164761
680.706	0.0165324
680.784	0.0165121
680.862	0.0165820
680.940	0.0164845
681.018	0.0164431
681.096	0.0165240
681.174	0.0163972
681.253	0.0164338
681.331	0.0162486
681.409	0.0164156
681.487	0.0161865
681.565	0.0162666
681.643	0.0165115
681.721	0.0163738
681.799	0.0163834
681.878	0.0163478
681.956	0.0164844
682.034	0.0164302
682.112	0.0165469
682.190	0.0164617
682.268	0.0164267
682.346	0.0165253
682.424	0.0164634
682.503	0.0165098
682.581	0.0165027
682.659	0.0164893
682.737	0.0165375
682.815	0.0164938
682.893	0.0164940
682.971	0.0163855
683.049	0.0164353
683.128	0.0164361
683.206	0.0164101
683.284	0.0162466
683.362	0.0163358
683.440	0.0164369
683.518	0.0163169
683.596	0.0162961
683.674	0.0163266
683.753	0.0163516
683.831	0.0163089
683.909	0.0163042
683.987	0.0163331
684.065	0.0164253
684.143	0.0164498
684.221	0.0164348
684.299	0.0164661
684.378	0.0164666
684.456	0.0164497
684.534	0.0165723
684.612	0.0164575
684.690	0.0164507
684.768	0.0165138
684.846	0.0163738
684.924	0.0164394
685.003	0.0163571
685.081	0.0164069
685.159	0.0163484
685.237	0.0162676
685.315	0.0162201
685.393	0.0163531
685.471	0.0162810
685.549	0.0162596
685.628	0.0163061
685.706	0.0163024
685.784	0.0163921
685.862	0.0164282
685.940	0.0165360
686.018	0.0164576
686.096	0.0165878
686.174	0.0165626
686.253	0.0165755
686.331	0.0166541
686.409	0.0165765
686.487	0.0164929
686.565	0.0165569
686.643	0.0165404
686.721	0.0164899
686.799	0.0163307
686.878	0.0164220
686.956	0.0164144
687.034	0.0163095
687.112	0.0163064
687.190	0.0163152
687.268	0.0163190
687.346	0.0162888
687.424	0.0162247
687.503	0.0164037
687.581	0.0164391
687.659	0.0164944
687.737	0.0164206
687.815	0.0165327
687.893	0.0166649
687.971	0.0164143
688.049	0.0164288
688.128	0.0163934
688.206	0.0165345
688.284	0.0164287
688.362	0.0163547
688.440	0.0163364
688.518	0.0163753
688.596	0.0163897
688.674	0.0163982
688.753	0.0162998
688.831	0.0163594
688.909	0.0163596
688.987	0.0164099
689.065	0.0162721
689.143	0.0164902
689.221	0.0164439
689.299	0.0164943
689.378	0.0165643
689.456	0.0166618
689.534	0.0165077
689.612	0.0165698
689.690	0.0164059
689.768	0.0163160
689.846	0.0163539
689.924	0.0164389
690.003	0.0164391
690.081	0.0163219
690.159	0.0163831
690.237	0.0163214
690.315	0.0163924
690.393	0.0164151
690.471	0.0163751
690.549	0.0162820
690.628	0.0163281
690.706	0.0164270
690.784	0.0163891
690.862	0.0164562
690.940	0.0165358
691.018	0.0164508
691.096	0.0165137
691.174	0.0165635
691.253	0.0165241
691.331	0.0164841
691.409	0.0165002
691.487	0.0163406
691.565	0.0163995
691.643	0.0163894
691.721	0.0163969
691.799	0.0164798
691.878	0.0163773
691.956	0.0161968
692.034	0.0162363
692.112	0.0164589
692.190	0.0163491
692.268	0.0162460
692.346	0.0163486
692.424	0.0163936
692.503	0.0164651
692.581	0.0165215
692.659	0.0164417
692.737	0.0164553
692.815	0.0165012
692.893	0.0165012
692.971	0.0165159
693.049	0.0165195
693.128	0.0165426
693.206	0.0166391
693.284	0.0165778
693.362	0.0164532
693.440	0.0164957
693.518	0.0164651
693.596	0.0164961
693.674	0.0164285
693.753	0.0162346
693.831	0.0164200
693.909	0.0163844
693.987	0.0162613
694.065	0.0162926
694.143	0.0162312
694.221	0.0164393
694.299	0.0163238
694.378	0.0163942
694.456	0.0164259
694.534	0.0164980
694.612	0.0164876
694.690	0.0165268
694.768	0.0166285
694.846	0.0165744
694.924	0.0166067
695.003	0.0165432
695.081	0.0164803
695.159	0.0165314
695.237	0.0164383
695.315	0.0164000
695.393	0.0161837
695.471	0.0162299
695.549	0.0163591
695.628	0.0161780
695.706	0.0162813
695.784	0.0162655
695.862	0.0162617
695.940	0.0161326
696.018	0.0163000
696.096	0.0164795
696.174	0.0164098
696.253	0.0163427
696.331	0.0164079
696.409	0.0164371
696.487	0.0163869
696.565	0.0166052
696.643	0.0164178
696.721	0.0165147
696.799	0.0165153
696.878	0.0164225
696.956	0.0165301
697.034	0.0164457
697.112	0.0164397
697.190	0.0164180
697.268	0.0165048
697.346	0.0163757
697.424	0.0163650
697.503	0.0163009
697.581	0.0163417
697.659	0.0163848
697.737	0.0163418
697.815	0.0162263
697.893	0.0163544
697.971	0.0163396
698.049	0.0164027
698.128	0.0163509
698.206	0.0163956
698.284	0.0163678
698.362	0.0164948
698.440	0.0167286
698.518	0.0166193
698.596	0.0164799
698.674	0.0164013
698.753	0.0164900
698.831	0.0165603
698.909	0.0165331
698.987	0.0163809
699.065	0.0162571
699.143	0.0165108
699.221	0.0163652
699.299	0.0162399
699.378	0.0163633
699.456	0.0163354
699.534	0.0163796
699.612	0.0165295
699.690	0.0164214
699.768	0.0164783
699.846	0.0165110
699.924	0.0165173
700.003	0.0163304
700.081	0.0163334
700.159	0.0165890
700.237	0.0165551
700.315	0.0166117
700.393	0.0164523
700.471	0.0164091
700.549	0.0164953
700.628	0.0164047
700.706	0.0164548
700.784	0.0164121
700.862	0.0165259
700.940	0.0165430
701.018	0.0164162
701.096	0.0165365
701.174	0.0166049
701.253	0.0166074
701.331	0.0165945
701.409	0.0166468
701.487	0.0166189
701.565	0.0165249
701.643	0.0165792
701.721	0.0165508
701.799	0.0165158
701.878	0.0165910
701.956	0.0164920
702.034	0.0165249
702.112	0.0165456
702.190	0.0165722
702.268	0.0164627
702.346	0.0163046
702.424	0.0162280
702.503	0.0163222
702.581	0.0163495
702.659	0.0161838
702.737	0.0161398
702.815	0.0161588
702.893	0.0163037
702.971	0.0163480
703.049	0.0163522
703.128	0.0163234
703.206	0.0162908
703.284	0.0163213
703.362	0.0164655
703.440	0.0165981
703.518	0.0165757
703.596	0.0165818
703.674	0.0165067
703.753	0.0165407
703.831	0.0166809
703.909	0.0166306
703.987	0.0167698
704.065	0.0165829
704.143	0.0165433
704.221	0.0165673
704.299	0.0165735
704.378	0.0165915
704.456	0.0163933
704.534	0.0165088
704.612	0.0164600
704.690	0.0163485
704.768	0.0164436
704.846	0.0163705
704.924	0.0162993
705.003	0.0162997
705.081	0.0162637
705.159	0.0163755
705.237	0.0162144
705.315	0.0160934
705.393	0.0163052
705.471	0.0163617
705.549	0.0164352
705.628	0.0163309
705.706	0.0163808
705.784	0.0164568
705.862	0.0163254
705.940	0.0164214
706.018	0.0164257
706.096	0.0163789
706.174	0.0165334
706.253	0.0164566
706.331	0.0164936
706.409	0.0163966
706.487	0.0165414
706.565	0.0165501
706.643	0.0164011
706.721	0.0164705
706.799	0.0166657
706.878	0.0163718
706.956	0.0163420
707.034	0.0163763
707.112	0.0164163
707.190	0.0164756
707.268	0.0165341
707.346	0.0164765
707.424	0.0165148
707.503	0.0164543
707.581	0.0165594
707.659	0.0163781
707.737	0.0164750
707.815	0.0163995
707.893	0.0163643
707.971	0.0162693
708.049	0.0162332
708.128	0.0161852
708.206	0.0163264
708.284	0.0163337
708.362	0.0162508
708.440	0.0163873
708.518	0.0165874
708.596	0.0163767
708.674	0.0163790
708.753	0.0165572
708.831	0.0162457
708.909	0.0164687
708.987	0.0163209
709.065	0.0164697
709.143	0.0165397
709.221	0.0166190
709.299	0.0164491
709.378	0.0163997
709.456	0.0165382
709.534	0.0164465
709.612	0.0165309
709.690	0.0165424
709.768	0.0165041
709.846	0.0164243
709.924	0.0165644
710.003	0.0165904
710.081	0.0165649
710.159	0.0163895
710.237	0.0164334
710.315	0.0165020
710.393	0.0164954
710.471	0.0163364
710.549	0.0163296
710.628	0.0162446
710.706	0.0164252
710.784	0.0163788
710.862	0.0162291
710.940	0.0162968
711.018	0.0163992
711.096	0.0162222
711.174	0.0161725
711.253	0.0163817
711.331	0.0162827
711.409	0.0163634
711.487	0.0164248
711.565	0.0164093
711.643	0.0165306
711.721	0.0164891
711.799	0.0163791
711.878	0.0164817
711.956	0.0166864
712.034	0.0165231
712.112	0.0164616
712.190	0.0166096
712.268	0.0164643
712.346	0.0165179
712.424	0.0164841
712.503	0.0164346
712.581	0.0165523
712.659	0.0163060
712.737	0.0163949
712.815	0.0163902
712.893	0.0164036
712.971	0.0163301
713.049	0.0164184
713.128	0.0163536
713.206	0.0162640
713.284	0.0164546
713.362	0.0164799
713.440	0.0163721
713.518	0.0164726
713.596	0.0166008
713.674	0.0164383
713.753	0.0162994
713.831	0.0165258
713.909	0.0165588
713.987	0.0164734
714.065	0.0163118
714.143	0.0163342
714.221	0.0163884
714.299	0.0163322
714.378	0.0163284
714.456	0.0164339
714.534	0.0163984
714.612	0.0163379
714.690	0.0163537
714.768	0.0165367
714.846	0.0164909
714.924	0.0165232
715.003	0.0164458
715.081	0.0164819
715.159	0.0165144
715.237	0.0165499
715.315	0.0164114
715.393	0.0166421
715.471	0.0167158
715.549	0.0166152
715.628	0.0167266
715.706	0.0165646
715.784	0.0165077
715.862	0.0165260
715.940	0.0165125
716.018	0.0164027
716.096	0.0162589
716.174	0.0161600
716.253	0.0162347
716.331	0.0161829
716.409	0.0160658
716.487	0.0161839
716.565	0.0160570
716.643	0.0161969
716.721	0.0161367
716.799	0.0162872
716.878	0.0162377
716.956	0.0163057
717.034	0.0164052
717.112	0.0165666
717.190	0.0166682
717.268	0.0166296
717.346	0.0167049
717.424	0.0167483
717.503	0.0170790
717.581	0.0171137
717.659	0.0170148
717.737	0.0170358
717.815	0.0170160
717.893	0.0170103
717.971	0.0169931
718.049	0.0167268
718.128	0.0166758
718.206	0.0166611
718.284	0.0164047
718.362	0.0161993
718.440	0.0162620
718.518	0.0161034
718.596	0.0159722
718.674	0.0158372
718.753	0.0158691
718.831	0.0157090
718.909	0.0157719
718.987	0.0158936
719.065	0.0156834
719.143	0.0157485
719.221	0.0158543
719.299	0.0157770
719.378	0.0159361
719.456	0.0159592
719.534	0.0159423
719.612	0.0160676
719.690	0.0161862
719.768	0.0163596
719.846	0.0162737
719.924	0.0164871
720.003	0.0165335
720.081	0.0167144
720.159	0.0166724
720.237	0.0168851
720.315	0.0169264
720.393	0.0168629
720.471	0.0170354
720.549	0.0171589
720.628	0.0171218
720.706	0.0172274
720.784	0.0173480
720.862	0.0172202
720.940	0.0173759
721.018	0.0173705
721.096	0.0170779
721.174	0.0169373
721.253	0.0170224
721.331	0.0168652
721.409	0.0167456
721.487	0.0166521
721.565	0.0164393
721.643	0.0163431
721.721	0.0161735
721.799	0.0160523
721.878	0.0160159
721.956	0.0158811
722.034	0.0157486
722.112	0.0156570
722.190	0.0156793
722.268	0.0154839
722.346	0.0154498
722.424	0.0155415
722.503	0.0154227
722.581	0.0155459
722.659	0.0155106
722.737	0.0156357
722.815	0.0157099
722.893	0.0157077
722.971	0.0156712
723.049	0.0159299
723.128	0.0159946
723.206	0.0161464
723.284	0.0163341
723.362	0.0164827
723.440	0.0165462
723.518	0.0169017
723.596	0.0169405
723.674	0.0170443
723.753	0.0171051
723.831	0.0173579
723.909	0.0172540
723.987	0.0175334
724.065	0.0173498
724.143	0.0171845
724.221	0.0172348
724.299	0.0174003
724.378	0.0172618
724.456	0.0170409
724.534	0.0168692
724.612	0.0168085
724.690	0.0167200
724.768	0.0164739
724.846	0.0164485
724.924	0.0164342
725.003	0.0162446
725.081	0.0160859
725.159	0.0160476
725.237	0.0160941
725.315	0.0160387
725.393	0.0159927
725.471	0.0161459
725.549	0.0159589
725.628	0.0159798
725.706	0.0159703
725.784	0.0161057
725.862	0.0159254
725.940	0.0160769
726.018	0.0162646
726.096	0.0161002
726.174	0.0160860
726.253	0.0162593
726.331	0.0162524
726.409	0.0162619
726.487	0.0163077
726.565	0.0163966
726.643	0.0164053
726.721	0.0164259
726.799	0.0164426
726.878	0.0164558
726.956	0.0166327
727.034	0.0164709
727.112	0.0164651
727.190	0.0164043
727.268	0.0163981
727.346	0.0166787
727.424	0.0166070
727.503	0.0164959
727.581	0.0166558
727.659	0.0167371
727.737	0.0166306
727.815	0.0166151
727.893	0.0167551
727.971	0.0167102
728.049	0.0167672
728.128	0.0166503
728.206	0.0166118
728.284	0.0164058
728.362	0.0164847
728.440	0.0165247
728.518	0.0164487
728.596	0.0163644
728.674	0.0163332
728.753	0.0163921
728.831	0.0162048
728.909	0.0161521
728.987	0.0162851
729.065	0.0161921
729.143	0.0161694
729.221	0.0162694
729.299	0.0161741
729.378	0.0162530
729.456	0.0164282
729.534	0.0164491
729.612	0.0163031
729.690	0.0164488
729.768	0.0164980
729.846	0.0164412
729.924	0.0165623
730.003	0.0164899
730.081	0.0164354
730.159	0.0165547
730.237	0.0164594
730.315	0.0163079
730.393	0.0161961
730.471	0.0163644
730.549	0.0162823
730.628	0.0161057
730.706	0.0159740
730.784	0.0160009
730.862	0.0160525
730.940	0.0160350
731.018	0.0159872
731.096	0.0162620
731.174	0.0160452
731.253	0.0161646
731.331	0.0163597
731.409	0.0163613
731.487	0.0165646
731.565	0.0166893
731.643	0.0166865
731.721	0.0168664
731.799	0.0168184
731.878	0.0170505
731.956	0.0171366
732.034	0.0171509
732.112	0.0172910
732.190	0.0171023
732.268	0.0173266
732.346	0.0172499
732.424	0.0172625
732.503	0.0172446
732.581	0.0172171
732.659	0.0169353
732.737	0.0167921
732.815	0.0168307
732.893	0.0167418
732.971	0.0165054
733.049	0.0163118
733.128	0.0161214
733.206	0.0161360
733.284	0.0160242
733.362	0.0159412
733.440	0.0156990
733.518	0.0155282
733.596	0.0155489
733.674	0.0155971
733.753	0.0154150
733.831	0.0153969
733.909	0.0156047
733.987	0.0155227
734.065	0.0153675
734.143	0.0154255
734.221	0.0156474
734.299	0.0156304
734.378	0.0157653
734.456	0.0158450
734.534	0.0160246
734.612	0.0160414
734.690	0.0161350
734.768	0.0164208
734.846	0.0163425
734.924	0.0163956
735.003	0.0165083
735.081	0.0164552
735.159	0.0165291
735.237	0.0166068
735.315	0.0166544
735.393	0.0168063
735.471	0.0166472
735.549	0.0165895
735.628	0.0167593
735.706	0.0167397
735.784	0.0168650
735.862	0.0169181
735.940	0.0169244
736.018	0.0168802
736.096	0.0170225
736.174	0.0170168
736.253	0.0171255
736.331	0.0172703
736.409	0.0172054
736.487	0.0173154
736.565	0.0172330
736.643	0.0173668
736.721	0.0172768
736.799	0.0172291
736.878	0.0171819
736.956	0.0169526
737.034	0.0169307
737.112	0.0165862
737.190	0.0162610
737.268	0.0162097
737.346	0.0160916
737.424	0.0158150
737.503	0.0156682
737.581	0.0155862
737.659	0.0156216
737.737	0.0153905
737.815	0.0151660
737.893	0.0153426
737.971	0.0154691
738.049	0.0156888
738.128	0.0155999
738.206	0.0156834
738.284	0.0157626
738.362	0.0159101
738.440	0.0160338
738.518	0.0161124
738.596	0.0163110
738.674	0.0164644
738.753	0.0163826
738.831	0.0166161
738.909	0.0168655
738.987	0.0169108
739.065	0.0168281
739.143	0.0169967
739.221	0.0168633
739.299	0.0169612
739.378	0.0169500
739.456	0.0170156
739.534	0.0168833
739.612	0.0167918
739.690	0.0166164
739.768	0.0166844
739.846	0.0165107
739.924	0.0164095
740.003	0.0162269
740.081	0.0160961
740.159	0.0160690
740.237	0.0160208
740.315	0.0159535
740.393	0.0159299
740.471	0.0159575
740.549	0.0158193
740.628	0.0159982
740.706	0.0162920
740.784	0.0162033
740.862	0.0162822
740.940	0.0165884
741.018	0.0166152
741.096	0.0168671
741.174	0.0168552
741.253	0.0168696
741.331	0.0169468
741.409	0.0170020
741.487	0.0169975
741.565	0.0170659
741.643	0.0169823
741.721	0.0167747
741.799	0.0167421
741.878	0.0166798
741.956	0.0168179
742.034	0.0167355
742.112	0.0165475
742.190	0.0163342
742.268	0.0163848
742.346	0.0163281
742.424	0.0164541
742.503	0.0162993
742.581	0.0163737
742.659	0.0163074
742.737	0.0160952
742.815	0.0161164
742.893	0.0161185
742.971	0.0162459
743.049	0.0162340
743.128	0.0162556
743.206	0.0162824
743.284	0.0162836
743.362	0.0162618
743.440	0.0162865
743.518	0.0163033
743.596	0.0162806
743.674	0.0161970
743.753	0.0161751
743.831	0.0161239
743.909	0.0161471
743.987	0.0163013
744.065	0.0162856
744.143	0.0162199
744.221	0.0162814
744.299	0.0162139
744.378	0.0162357
744.456	0.0162537
744.534	0.0162292
744.612	0.0164651
744.690	0.0163368
744.768	0.0164149
744.846	0.0164267
744.924	0.0163907
745.003	0.0164746
745.081	0.0166731
745.159	0.0166295
745.237	0.0166022
745.315	0.0168018
745.393	0.0166115
745.471	0.0166878
745.549	0.0166216
745.628	0.0165755
745.706	0.0165738
745.784	0.0165374
745.862	0.0164955
745.940	0.0165790
746.018	0.0165642
746.096	0.0166348
746.174	0.0167635
746.253	0.0167065
746.331	0.0166918
746.409	0.0166870
746.487	0.0169256
746.565	0.0169604
746.643	0.0168555
746.721	0.0169206
746.799	0.0168885
746.878	0.0167797
746.956	0.0169016
747.034	0.0166826
747.112	0.0167348
747.190	0.0166508
747.268	0.0165790
747.346	0.0164934
747.424	0.0162465
747.503	0.0162051
747.581	0.0161530
747.659	0.0159332
747.737	0.0158155
747.815	0.0157948
747.893	0.0158279
747.971	0.0157820
748.049	0.0154934
748.128	0.0156185
748.206	0.0157561
748.284	0.0157133
748.362	0.0158054
748.440	0.0159234
748.518	0.0160018
748.596	0.0160049
748.674	0.0159662
748.753	0.0161878
748.831	0.0163077
748.909	0.0163523
748.987	0.0161308
749.065	0.0163712
749.143	0.0165250
749.221	0.0164761
749.299	0.0165670
749.378	0.0164894
749.456	0.0165746
749.534	0.0166751
749.612	0.0166408
749.690	0.0166954
749.768	0.0166536
749.846	0.0167445
749.924	0.0167032
750.003	0.0167002
750.081	0.0166895
750.159	0.0166182
750.237	0.0166843
750.315	0.0169186
750.393	0.0167725
750.471	0.0169022
750.549	0.0169427
750.628	0.0169827
750.706	0.0168443
750.784	0.0168209
750.862	0.0168434
750.940	0.0167868
751.018	0.0168143
751.096	0.0167380
751.174	0.0165769
751.253	0.0165222
751.331	0.0164452
751.409	0.0163240
751.487	0.0164505
751.565	0.0162303
751.643	0.0163022
751.721	0.0163196
751.799	0.0161747
751.878	0.0163191
751.956	0.0162001
752.034	0.0163029
752.112	0.0163567
752.190	0.0162593
752.268	0.0163215
752.346	0.0161884
752.424	0.0161365
752.503	0.0162629
752.581	0.0161852
752.659	0.0162166
752.737	0.0160492
752.815	0.0162646
752.893	0.0162263
752.971	0.0160799
753.049	0.0161232
753.128	0.0160602
753.206	0.0158710
753.284	0.0160304
753.362	0.0161189
753.440	0.0160982
753.518	0.0160335
753.596	0.0162355
753.674	0.0162499
753.753	0.0162143
753.831	0.0162196
753.909	0.0163181
753.987	0.0163742
754.065	0.0162864
754.143	0.0163578
754.221	0.0164718
754.299	0.0164087
754.378	0.0163017
754.456	0.0163887
754.534	0.0164698
754.612	0.0165215
754.690	0.0164330
754.768	0.0164426
754.846	0.0165417
754.924	0.0164719
755.003	0.0165953
755.081	0.0166898
755.159	0.0165835
755.237	0.0167364
755.315	0.0167059
755.393	0.0167551
755.471	0.0167758
755.549	0.0168362
755.628	0.0167559
755.706	0.0169384
755.784	0.0167811
755.862	0.0168172
755.940	0.0167327
756.018	0.0166527
756.096	0.0167068
756.174	0.0166582
756.253	0.0166595
756.331	0.0165682
756.409	0.0164739
756.487	0.0165012
756.565	0.0164657
756.643	0.0163300
756.721	0.0162930
756.799	0.0164227
756.878	0.0163359
756.956	0.0163464
757.034	0.0162062
757.112	0.0162355
757.190	0.0161216
757.268	0.0162154
757.346	0.0160743
757.424	0.0161729
757.503	0.0162225
757.581	0.0163367
757.659	0.0162961
757.737	0.0164944
757.815	0.0165929
757.893	0.0165595
757.971	0.0164687
758.049	0.0164825
758.128	0.0165594
758.206	0.0164989
758.284	0.0163424
758.362	0.0162527
758.440	0.0162453
758.518	0.0160458
758.596	0.0158944
758.674	0.0159305
758.753	0.0158578
758.831	0.0157561
758.909	0.0156320
758.987	0.0157512
759.065	0.0159150
759.143	0.0157900
759.221	0.0158163
759.299	0.0158579
759.378	0.0159916
759.456	0.0161124
759.534	0.0162856
759.612	0.0163618
759.690	0.0166205
759.768	0.0167068
759.846	0.0168204
759.924	0.0170036
760.003	0.0169734
760.081	0.0169582
760.159	0.0170886
760.237	0.0172707
760.315	0.0172296
760.393	0.0169675
760.471	0.0171400
760.549	0.0171658
760.628	0.0169299
760.706	0.0167728
760.784	0.0166460
760.862	0.0168125
760.940	0.0164665
761.018	0.0165665
761.096	0.0166212
761.174	0.0164748
761.253	0.0163648
761.331	0.0164230
761.409	0.0164223
761.487	0.0164268
761.565	0.0164234
761.643	0.0163515
761.721	0.0163536
761.799	0.0163658
761.878	0.0164725
761.956	0.0164458
762.034	0.0163930
762.112	0.0161717
762.190	0.0163320
762.268	0.0163004
762.346	0.0163705
762.424	0.0163895
762.503	0.0163227
762.581	0.0162693
762.659	0.0161360
762.737	0.0162045
762.815	0.0160349
762.893	0.0161984
762.971	0.0162574
763.049	0.0161777
763.128	0.0161479
763.206	0.0163065
763.284	0.0165046
763.362	0.0164433
763.440	0.0166002
763.518	0.0166508
763.596	0.0166648
763.674	0.0167592
763.753	0.0169050
763.831	0.0167926
763.909	0.0165961
763.987	0.0167772
764.065	0.0166618
764.143	0.0166150
764.221	0.0163297
764.299	0.0161810
764.378	0.0161459
764.456	0.0159824
764.534	0.0159673
764.612	0.0159750
764.690	0.0157816
764.768	0.0159074
764.846	0.0160725
764.924	0.0160198
765.003	0.0161401
765.081	0.0160590
765.159	0.0163206
765.237	0.0164214
765.315	0.0165013
765.393	0.0166388
765.471	0.0166328
765.549	0.0168055
765.628	0.0168892
765.706	0.0170314
765.784	0.0167947
765.862	0.0169914
765.940	0.0167647
766.018	0.0166812
766.096	0.0167711
766.174	0.0167200
766.253	0.0166185
766.331	0.0164364
766.409	0.0165072
766.487	0.0165716
766.565	0.0164420
766.643	0.0163584
766.721	0.0166054
766.799	0.0167174
766.878	0.0166900
766.956	0.0166274
767.034	0.0166161
767.112	0.0166646
767.190	0.0167587
767.268	0.0167645
767.346	0.0168214
767.424	0.0165826
767.503	0.0165344
767.581	0.0165421
767.659	0.0164826
767.737	0.0163260
767.815	0.0161536
767.893	0.0162547
767.971	0.0161968
768.049	0.0161558
768.128	0.0160848
768.206	0.0159097
768.284	0.0159584
768.362	0.0159415
768.440	0.0157191
768.518	0.0159072
768.596	0.0158925
768.674	0.0159539
768.753	0.0158274
768.831	0.0159509
768.909	0.0161274
768.987	0.0161536
769.065	0.0163882
769.143	0.0164794
769.221	0.0166747
769.299	0.0168383
769.378	0.0168144
769.456	0.0169304
769.534	0.0169781
769.612	0.0169093
769.690	0.0171120
769.768	0.0171550
769.846	0.0170709
769.924	0.0170311
770.003	0.0168044
770.081	0.0168121
770.159	0.0165427
770.237	0.0163925
770.315	0.0164222
770.393	0.0163133
770.471	0.0162418
770.549	0.0162170
770.628	0.0162222
770.706	0.0162722
770.784	0.0162450
770.862	0.0164351
770.940	0.0163503
771.018	0.0163474
771.096	0.0163544
771.174	0.0165469
771.253	0.0164733
771.331	0.0164346
771.409	0.0164208
771.487	0.0163863
771.565	0.0165073
771.643	0.0163269
771.721	0.0163678
771.799	0.0162744
771.878	0.0163062
771.956	0.0162698
772.034	0.0163516
772.112	0.0162892
772.190	0.0162953
772.268	0.0162855
772.346	0.0163092
772.424	0.0162556
772.503	0.0164466
772.581	0.0165234
772.659	0.0166584
772.737	0.0164611
772.815	0.0167348
772.893	0.0167542
772.971	0.0168092
773.049	0.0167018
773.128	0.0167040
773.206	0.0167522
773.284	0.0165837
773.362	0.0167670
773.440	0.0168301
773.518	0.0165250
773.596	0.0164527
773.674	0.0164624
773.753	0.0163869
773.831	0.0163387
773.909	0.0161104
773.987	0.0161715
774.065	0.0163148
774.143	0.0163158
774.221	0.0161004
774.299	0.0161034
774.378	0.0160069
774.456	0.0160215
774.534	0.0160815
774.612	0.0159399
774.690	0.0160307
774.768	0.0160561
774.846	0.0159623
774.924	0.0158978
775.003	0.0161115
775.081	0.0161526
775.159	0.0161696
775.237	0.0163308
775.315	0.0164252
775.393	0.0165517
775.471	0.0165851
775.549	0.0164140
775.628	0.0167484
775.706	0.0167909
775.784	0.0168277
775.862	0.0167692
775.940	0.0168120
776.018	0.0167730
776.096	0.0168612
776.174	0.0167908
776.253	0.0167228
776.331	0.0166765
776.409	0.0167863
776.487	0.0168005
776.565	0.0168433
776.643	0.0168304
776.721	0.0167701
776.799	0.0167920
776.878	0.0169063
776.956	0.0167308
777.034	0.0166727
777.112	0.0167468
777.190	0.0166982
777.268	0.0165322
777.346	0.0163548
777.424	0.0164785
777.503	0.0164369
777.581	0.0164502
777.659	0.0162794
777.737	0.0163111
777.815	0.0162505
777.893	0.0161752
777.971	0.0159582
778.049	0.0159633
778.128	0.0160806
778.206	0.0160740
778.284	0.0160248
778.362	0.0161118
778.440	0.0161275
778.518	0.0160398
778.596	0.0160262
778.674	0.0160961
778.753	0.0160067
778.831	0.0159210
778.909	0.0160433
778.987	0.0160193
779.065	0.0159458
779.143	0.0159187
779.221	0.0159668
779.299	0.0159116
779.378	0.0159422
779.456	0.0160590
779.534	0.0161018
779.612	0.0161581
779.690	0.0163825
779.768	0.0164379
779.846	0.0164883
779.924	0.0165967
780.003	0.0166393
780.081	0.0167388
780.159	0.0168232
780.237	0.0167791
780.315	0.0168906
780.393	0.0168913
780.471	0.0167944
780.549	0.0168401
780.628	0.0168097
780.706	0.0167754
780.784	0.0165813
780.862	0.0165470
780.940	0.0165517
781.018	0.0166213
781.096	0.0165382
781.174	0.0164793
781.253	0.0164610
781.331	0.0166680
781.409	0.0165051
781.487	0.0166575
781.565	0.0165704
781.643	0.0165932
781.721	0.0166634
781.799	0.0165884
781.878	0.0167449
781.956	0.0166536
782.034	0.0166344
782.112	0.0166354
782.190	0.0166425
782.268	0.0167469
782.346	0.0165358
782.424	0.0165346
782.503	0.0163959
782.581	0.0165034
782.659	0.0165816
782.737	0.0165123
782.815	0.0163609
782.893	0.0163872
782.971	0.0164072
783.049	0.0163304
783.128	0.0163278
783.206	0.0162878
783.284	0.0163596
783.362	0.0163151
783.440	0.0163737
783.518	0.0163608
783.596	0.0162666
783.674	0.0165022
783.753	0.0164518
783.831	0.0164615
783.909	0.0163538
783.987	0.0164218
784.065	0.0163474
784.143	0.0163429
784.221	0.0164984
784.299	0.0163393
784.378	0.0162966
784.456	0.0162028
784.534	0.0162786
784.612	0.0162377
784.690	0.0161533
784.768	0.0161829
784.846	0.0161600
784.924	0.0160703
785.003	0.0160590
785.081	0.0161473
785.159	0.0160210
785.237	0.0159676
785.315	0.0160309
785.393	0.0160229
785.471	0.0160279
785.549	0.0160341
785.628	0.0161268
785.706	0.0162563
785.784	0.0162883
785.862	0.0164884
785.940	0.0165504
786.018	0.0165996
786.096	0.0166471
786.174	0.0167448
786.253	0.0166868
786.331	0.0168151
786.409	0.0168829
786.487	0.0167787
786.565	0.0168250
786.643	0.0168282
786.721	0.0167160
786.799	0.0165614
786.878	0.0166083
786.956	0.0163985
787.034	0.0167693
787.112	0.0165765
787.190	0.0165163
787.268	0.0165135
787.346	0.0164445
787.424	0.0164855
787.503	0.0164633
787.581	0.0163251
787.659	0.0162275
787.737	0.0163307
787.815	0.0165484
787.893	0.0165469
787.971	0.0164191
788.049	0.0164281
788.128	0.0165395
788.206	0.0165723
788.284	0.0166042
788.362	0.0164573
788.440	0.0165954
788.518	0.0164490
788.596	0.0166978
788.674	0.0167265
788.753	0.0166787
788.831	0.0165646
788.909	0.0165351
788.987	0.0165118
789.065	0.0165167
789.143	0.0165617
789.221	0.0164426
789.299	0.0164387
789.378	0.0162901
789.456	0.0163622
789.534	0.0163214
789.612	0.0164365
789.690	0.0164462
789.768	0.0163551
789.846	0.0163148
789.924	0.0163634
790.003	0.0164450
790.081	0.0164442
790.159	0.0163596
790.237	0.0163917
790.315	0.0164612
790.393	0.0163294
790.471	0.0164902
790.549	0.0163157
790.628	0.0163265
790.706	0.0159952
790.784	0.0162649
790.862	0.0161423
790.940	0.0158936
791.018	0.0160199
791.096	0.0159881
791.174	0.0159378
791.253	0.0160416
791.331	0.0160708
791.409	0.0159582
791.487	0.0160823
791.565	0.0160311
791.643	0.0161381
791.721	0.0162052
791.799	0.0161292
791.878	0.0162753
791.956	0.0163558
792.034	0.0164313
792.112	0.0163927
792.190	0.0165136
792.268	0.0164999
792.346	0.0166219
792.424	0.0165393
792.503	0.0166084
792.581	0.0165530
792.659	0.0167490
792.737	0.0166635
792.815	0.0166970
792.893	0.0168316
792.971	0.0168914
793.049	0.0167711
793.128	0.0169213
793.206	0.0167718
793.284	0.0169121
793.362	0.0167023
793.440	0.0167896
793.518	0.0168349
793.596	0.0167263
793.674	0.0165683
793.753	0.0166016
793.831	0.0166199
793.909	0.0166637
793.987	0.0165175
794.065	0.0165869
794.143	0.0165415
794.221	0.0165217
794.299	0.0164955
794.378	0.0163448
794.456	0.0163198
794.534	0.0162130
794.612	0.0159922
794.690	0.0162860
794.768	0.0162589
794.846	0.0161587
794.924	0.0162554
795.003	0.0162386
795.081	0.0162631
795.159	0.0162363
795.237	0.0163696
795.315	0.0162097
795.393	0.0162527
795.471	0.0163643
795.549	0.0164148
795.628	0.0163694
795.706	0.0163905
795.784	0.0163442
795.862	0.0163759
795.940	0.0164250
796.018	0.0164561
796.096	0.0163208
796.174	0.0162527
796.253	0.0164701
796.331	0.0164786
796.409	0.0163474
796.487	0.0163656
796.565	0.0162449
796.643	0.0163605
796.721	0.0163409
796.799	0.0164110
796.878	0.0162935
796.956	0.0163832
797.034	0.0163859
797.112	0.0164296
797.190	0.0164228
797.268	0.0162596
797.346	0.0164358
797.424	0.0163271
797.503	0.0163988
797.581	0.0163631
797.659	0.0162399
797.737	0.0163011
797.815	0.0162540
797.893	0.0162961
797.971	0.0162051
798.049	0.0163236
798.128	0.0162431
798.206	0.0161875
798.284	0.0164233
798.362	0.0162215
798.440	0.0162563
798.518	0.0162147
798.596	0.0161283
798.674	0.0163205
798.753	0.0163666
798.831	0.0162743
798.909	0.0163998
798.987	0.0165213
799.065	0.0164709
799.143	0.0164130
799.221	0.0165440
799.299	0.0165964
799.378	0.0164922
799.456	0.0167641
799.534	0.0166598
799.612	0.0167088
799.690	0.0166678
799.768	0.0166356
799.846	0.0167565
799.924	0.0167921
800.003	0.0167857
800.081	0.0168148
800.159	0.0167803
800.237	0.0167790
800.315	0.0165511
800.393	0.0167326
800.471	0.0166890
800.549	0.0166599
800.628	0.0165324
800.706	0.0164913
800.784	0.0165249
800.862	0.0165641
800.940	0.0166019
801.018	0.0163911
801.096	0.0162746
801.174	0.0162224
801.253	0.0162999
801.331	0.0163963
801.409	0.0162334
801.487	0.0162236
801.565	0.0162366
801.643	0.0162508
801.721	0.0162996
801.799	0.0164254
801.878	0.0162833
801.956	0.0162009
802.034	0.0163512
802.112	0.0163492
802.190	0.0162506
802.268	0.0164369
802.346	0.0165326
802.424	0.0164845
802.503	0.0164056
802.581	0.0163718
802.659	0.0162944
802.737	0.0163009
802.815	0.0162704
802.893	0.0163986
802.971	0.0162520
803.049	0.0161806
803.128	0.0162470
803.206	0.0163289
803.284	0.0162885
803.362	0.0162270
803.440	0.0162858
803.518	0.0164851
803.596	0.0162416
803.674	0.0162070
803.753	0.0163792
803.831	0.0163577
803.909	0.0165181
803.987	0.0164061
804.065	0.0163499
804.143	0.0165561
804.221	0.0165376
804.299	0.0165289
804.378	0.0165159
804.456	0.0165762
804.534	0.0164051
804.612	0.0164664
804.690	0.0165003
804.768	0.0164359
804.846	0.0163409
804.924	0.0165118
805.003	0.0164515
805.081	0.0163622
805.159	0.0166043
805.237	0.0163737
805.315	0.0163065
805.393	0.0163562
805.471	0.0162633
805.549	0.0163550
805.628	0.0163570
805.706	0.0163874
805.784	0.0163883
805.862	0.0163535
805.940	0.0164070
806.018	0.0162778
806.096	0.0164645
806.174	0.0164667
806.253	0.0165176
806.331	0.0166080
806.409	0.0164651
806.487	0.0165160
806.565	0.0166823
806.643	0.0165275
806.721	0.0166675
806.799	0.0167284
806.878	0.0166986
806.956	0.0166474
807.034	0.0164646
807.112	0.0167545
807.190	0.0166397
807.268	0.0166538
807.346	0.0164733
807.424	0.0166350
807.503	0.0163833
807.581	0.0162196
807.659	0.0163430
807.737	0.0162788
807.815	0.0162385
807.893	0.0162626
807.971	0.0163427
808.049	0.0163449
808.128	0.0164231
808.206	0.0163145
808.284	0.0164161
808.362	0.0165992
808.440	0.0164986
808.518	0.0164343
808.596	0.0164123
808.674	0.0165194
808.753	0.0164790
808.831	0.0164378
808.909	0.0164506
808.987	0.0166582
809.065	0.0165701
809.143	0.0163409
809.221	0.0164037
809.299	0.0164127
809.378	0.0163155
809.456	0.0164622
809.534	0.0163431
809.612	0.0161996
809.690	0.0161700
809.768	0.0162419
809.846	0.0163488
809.924	0.0162687
810.003	0.0161942
810.081	0.0163783
810.159	0.0163253
810.237	0.0163000
810.315	0.0163704
810.393	0.0163226
810.471	0.0163885
810.549	0.0164912
810.628	0.0165777
810.706	0.0164605
810.784	0.0164451
810.862	0.0164328
810.940	0.0164919
811.018	0.0165802
811.096	0.0164230
811.174	0.0165575
811.253	0.0165533
811.331	0.0164706
811.409	0.0164825
811.487	0.0163474
811.565	0.0162761
811.643	0.0163346
811.721	0.0165354
811.799	0.0164703
811.878	0.0163623
811.956	0.0163237
812.034	0.0163987
812.112	0.0163960
812.190	0.0164235
812.268	0.0163788
812.346	0.0163730
812.424	0.0164851
812.503	0.0164520
812.581	0.0164900
812.659	0.0164926
812.737	0.0165961
812.815	0.0166321
812.893	0.0164926
812.971	0.0164611
813.049	0.0164333
813.128	0.0164748
813.206	0.0164223
813.284	0.0165486
813.362	0.0165794
813.440	0.0165843
813.518	0.0166265
813.596	0.0166637
813.674	0.0166051
813.753	0.0166396
813.831	0.0167447
813.909	0.0167376
813.987	0.0166530
814.065	0.0166475
814.143	0.0165536
814.221	0.0168011
814.299	0.0166515
814.378	0.0166100
814.456	0.0166055
814.534	0.0166343
814.612	0.0163862
814.690	0.0164493
814.768	0.0163960
814.846	0.0162471
814.924	0.0163370
815.003	0.0162372
815.081	0.0162732
815.159	0.0161532
815.237	0.0161587
815.315	0.0163117
815.393	0.0162608
815.471	0.0163939
815.549	0.0162452
815.628	0.0162299
815.706	0.0163570
815.784	0.0163423
815.862	0.0163581
815.940	0.0163824
816.018	0.0163310
816.096	0.0164455
816.174	0.0164169
816.253	0.0163943
816.331	0.0162299
816.409	0.0163390
816.487	0.0164462
816.565	0.0163168
816.643	0.0163038
816.721	0.0162967
816.799	0.0164275
816.878	0.0165307
816.956	0.0164058
817.034	0.0165295
817.112	0.0165662
817.190	0.0164519
817.268	0.0166137
817.346	0.0164758
817.424	0.0164939
817.503	0.0164767
817.581	0.0166375
817.659	0.0166784
817.737	0.0166066
817.815	0.0166896
817.893	0.0167116
817.971	0.0166318
818.049	0.0166139
818.128	0.0165261
818.206	0.0163746
818.284	0.0163693
818.362	0.0163609
818.440	0.0163272
818.518	0.0162965
818.596	0.0161037
818.674	0.0161909
818.753	0.0160705
818.831	0.0160374
818.909	0.0160293
818.987	0.0160801
819.065	0.0160242
819.143	0.0159929
819.221	0.0160295
819.299	0.0161271
819.378	0.0161710
819.456	0.0163281
819.534	0.0163345
819.612	0.0162077
819.690	0.0165195
819.768	0.0166280
819.846	0.0166254
819.924	0.0166499
820.003	0.0167938
820.081	0.0168051
820.159	0.0168359
820.237	0.0169598
820.315	0.0170075
820.393	0.0171078
820.471	0.0169264
820.549	0.0168135
820.628	0.0168336
820.706	0.0168032
820.784	0.0168176
820.862	0.0167193
820.940	0.0167498
821.018	0.0165034
821.096	0.0165045
821.174	0.0165111
821.253	0.0165054
821.331	0.0163097
821.409	0.0162615
821.487	0.0163151
821.565	0.0161494
821.643	0.0161922
821.721	0.0161859
821.799	0.0161127
821.878	0.0161281
821.956	0.0162113
822.034	0.0160600
822.112	0.0162182
822.190	0.0161647
822.268	0.0161393
822.346	0.0160667
822.424	0.0161806
822.503	0.0162139
822.581	0.0163258
822.659	0.0162684
822.737	0.0162396
822.815	0.0162856
822.893	0.0164791
822.971	0.0163451
823.049	0.0163288
823.128	0.0163616
823.206	0.0163322
823.284	0.0165314
823.362	0.0163273
823.440	0.0163062
823.518	0.0164448
823.596	0.0164787
823.674	0.0164481
823.753	0.0163765
823.831	0.0165784
823.909	0.0166142
823.987	0.0166177
824.065	0.0165128
824.143	0.0165469
824.221	0.0165742
824.299	0.0167666
824.378	0.0167890
824.456	0.0165916
824.534	0.0165363
824.612	0.0166756
824.690	0.0167443
824.768	0.0166196
824.846	0.0165314
824.924	0.0164885
825.003	0.0164269
825.081	0.0164132
825.159	0.0164020
825.237	0.0164729
825.315	0.0164212
825.393	0.0163809
825.471	0.0162598
825.549	0.0161677
825.628	0.0161999
825.706	0.0162895
825.784	0.0161730
825.862	0.0162003
825.940	0.0161935
826.018	0.0163755
826.096	0.0163631
826.174	0.0162498
826.253	0.0162426
826.331	0.0164982
826.409	0.0164342
826.487	0.0164339
826.565	0.0166325
826.643	0.0164169
826.721	0.0165001
826.799	0.0166223
826.878	0.0165508
826.956	0.0165967
827.034	0.0168058
827.112	0.0166381
827.190	0.0166744
827.268	0.0166778
827.346	0.0166732
827.424	0.0165436
827.503	0.0166909
827.581	0.0166815
827.659	0.0163831
827.737	0.0163911
827.815	0.0163881
827.893	0.0163982
827.971	0.0163721
828.049	0.0162762
828.128	0.0162834
828.206	0.0162166
828.284	0.0162760
828.362	0.0162657
828.440	0.0162106
828.518	0.0164232
828.596	0.0162756
828.674	0.0163446
828.753	0.0163840
828.831	0.0163348
828.909	0.0165370
828.987	0.0165668
829.065	0.0165176
829.143	0.0166548
829.221	0.0167198
829.299	0.0165123
829.378	0.0165397
829.456	0.0165219
829.534	0.0165289
829.612	0.0165608
829.690	0.0165733
829.768	0.0163363
829.846	0.0165444
829.924	0.0163927
830.003	0.0162766
830.081	0.0162048
830.159	0.0162148
830.237	0.0162325
830.315	0.0162365
830.393	0.0161787
830.471	0.0163490
830.549	0.0163096
830.628	0.0161962
830.706	0.0162939
830.784	0.0163000
830.862	0.0164034
830.940	0.0163397
831.018	0.0164835
831.096	0.0164260
831.174	0.0163746
831.253	0.0164806
831.331	0.0165724
831.409	0.0164115
831.487	0.0165411
831.565	0.0164460
831.643	0.0164210
831.721	0.0163863
831.799	0.0163416
831.878	0.0164286
831.956	0.0164758
832.034	0.0165472
832.112	0.0162865
832.190	0.0163995
832.268	0.0165645
832.346	0.0163319
832.424	0.0163109
832.503	0.0165077
832.581	0.0164548
832.659	0.0164022
832.737	0.0164471
832.815	0.0165317
832.893	0.0164076
832.971	0.0165428
833.049	0.0166719
833.128	0.0165235
833.206	0.0167663
833.284	0.0168275
833.362	0.0167312
833.440	0.0165754
833.518	0.0166081
833.596	0.0166541
833.674	0.0167960
833.753	0.0167343
833.831	0.0167094
833.909	0.0167059
833.987	0.0166198
834.065	0.0166067
834.143	0.0164686
834.221	0.0164108
834.299	0.0163174
834.378	0.0163769
834.456	0.0163815
834.534	0.0163770
834.612	0.0162302
834.690	0.0160813
834.768	0.0159884
834.846	0.0160479
834.924	0.0163091
835.003	0.0160028
835.081	0.0160992
835.159	0.0161831
835.237	0.0163645
835.315	0.0161663
835.393	0.0162394
835.471	0.0162396
835.549	0.0162049
835.628	0.0162948
835.706	0.0164205
835.784	0.0164326
835.862	0.0164281
835.940	0.0165868
836.018	0.0164957
836.096	0.0165217
836.174	0.0165304
836.253	0.0164499
836.331	0.0165032
836.409	0.0166770
836.487	0.0165032
836.565	0.0165411
836.643	0.0165381
836.721	0.0164227
836.799	0.0165358
836.878	0.0163554
836.956	0.0163689
837.034	0.0164169
837.112	0.0164811
837.190	0.0163848
837.268	0.0165043
837.346	0.0165241
837.424	0.0164931
837.503	0.0164520
837.581	0.0164522
837.659	0.0165162
837.737	0.0165463
837.815	0.0165358
837.893	0.0165684
837.971	0.0165372
838.049	0.0164744
838.128	0.0164674
838.206	0.0164156
838.284	0.0164624
838.362	0.0164482
838.440	0.0162717
838.518	0.0164685
838.596	0.0163670
838.674	0.0162753
838.753	0.0161859
838.831	0.0163381
838.909	0.0162622
838.987	0.0161993
839.065	0.0162122
839.143	0.0161349
839.221	0.0163902
839.299	0.0163496
839.378	0.0162058
839.456	0.0162539
839.534	0.0162701
839.612	0.0163376
839.690	0.0162956
839.768	0.0165502
839.846	0.0165491
839.924	0.0164536
840.003	0.0165063
840.081	0.0166093
840.159	0.0165719
840.237	0.0166084
840.315	0.0166801
840.393	0.0165287
840.471	0.0167793
840.549	0.0167635
840.628	0.0166599
840.706	0.0166929
840.784	0.0165785
840.862	0.0166686
840.940	0.0166903
841.018	0.0164417
841.096	0.0164874
841.174	0.0164337
841.253	0.0162744
841.331	0.0164003
841.409	0.0162739
841.487	0.0162965
841.565	0.0162487
841.643	0.0163882
841.721	0.0163225
841.799	0.0161160
841.878	0.0162458
841.956	0.0162231
842.034	0.0164056
842.112	0.0163776
842.190	0.0164384
842.268	0.0163885
842.346	0.0163341
842.424	0.0164747
842.503	0.0164285
842.581	0.0163938
842.659	0.0165565
842.737	0.0165241
842.815	0.0165310
842.893	0.0166315
842.971	0.0165518
843.049	0.0165705
843.128	0.0165123
843.206	0.0166116
843.284	0.0163993
843.362	0.0165192
843.440	0.0165791
843.518	0.0165406
843.596	0.0165466
843.674	0.0165531
843.753	0.0165795
843.831	0.0164999
843.909	0.0165055
843.987	0.0163848
844.065	0.0165826
844.143	0.0165724
844.221	0.0163960
844.299	0.0162488
844.378	0.0165479
844.456	0.0164478
844.534	0.0163022
844.612	0.0164793
844.690	0.0163116
844.768	0.0162904
844.846	0.0164162
844.924	0.0163103
845.003	0.0164191
845.081	0.0163427
845.159	0.0163628
845.237	0.0163474
845.315	0.0162361
845.393	0.0162755
845.471	0.0163120
845.549	0.0163307
845.628	0.0163351
845.706	0.0161778
845.784	0.0160897
845.862	0.0161144
845.940	0.0161266
846.018	0.0162373
846.096	0.0162821
846.174	0.0162810
846.253	0.0162231
846.331	0.0163375
846.409	0.0162800
846.487	0.0163921
846.565	0.0164211
846.643	0.0163754
846.721	0.0165302
846.799	0.0165372
846.878	0.0165926
846.956	0.0167912
847.034	0.0166523
847.112	0.0165729
847.190	0.0165836
847.268	0.0166566
847.346	0.0166792
847.424	0.0167362
847.503	0.0167428
847.581	0.0166241
847.659	0.0165208
847.737	0.0166557
847.815	0.0166240
847.893	0.0165116
847.971	0.0165915
848.049	0.0163565
848.128	0.0164161
848.206	0.0164090
848.284	0.0164456
848.362	0.0163347
848.440	0.0163436
848.518	0.0163658
848.596	0.0163587
848.674	0.0161663
848.753	0.0162451
848.831	0.0162183
848.909	0.0162019
848.987	0.0162551
849.065	0.0163718
849.143	0.0164146
849.221	0.0163112
849.299	0.0163221
849.378	0.0163789
849.456	0.0163399
849.534	0.0163982
849.612	0.0163705
849.690	0.0163466
849.768	0.0163955
849.846	0.0162477
849.924	0.0162814
850.003	0.0164169
850.081	0.0163744
850.159	0.0164703
850.237	0.0163093
850.315	0.0163370
850.393	0.0163544
850.471	0.0164300
850.549	0.0162446
850.628	0.0161614
850.706	0.0162450
850.784	0.0164552
850.862	0.0163490
850.940	0.0163570
851.018	0.0164369
851.096	0.0164295
851.174	0.0164034
851.253	0.0164780
851.331	0.0164511
851.409	0.0165876
851.487	0.0165728
851.565	0.0164437
851.643	0.0165309
851.721	0.0164898
851.799	0.0164465
851.878	0.0164135
851.956	0.0164312
852.034	0.0164159
852.112	0.0164496
852.190	0.0165041
852.268	0.0163148
852.346	0.0163635
852.424	0.0163414
852.503	0.0164946
852.581	0.0165425
852.659	0.0164046
852.737	0.0164445
852.815	0.0164742
852.893	0.0163405
852.971	0.0164328
853.049	0.0164379
853.128	0.0163647
853.206	0.0164834
853.284	0.0165549
853.362	0.0164783
853.440	0.0164816
853.518	0.0164775
853.596	0.0165087
853.674	0.0165010
853.753	0.0166999
853.831	0.0165698
853.909	0.0165589
853.987	0.0165807
854.065	0.0165479
854.143	0.0165867
854.221	0.0164641
854.299	0.0164891
854.378	0.0165472
854.456	0.0164248
854.534	0.0164324
854.612	0.0163284
854.690	0.0164989
854.768	0.0163859
854.846	0.0163564
854.924	0.0163191
855.003	0.0162136
855.081	0.0163403
855.159	0.0161983
855.237	0.0161519
855.315	0.0161519
855.393	0.0163371
855.471	0.0162318
855.549	0.0163240
855.628	0.0163789
855.706	0.0162323
855.784	0.0164347
855.862	0.0162734
855.940	0.0163318
856.018	0.0165073
856.096	0.0165371
856.174	0.0165160
856.253	0.0165669
856.331	0.0165053
856.409	0.0164352
856.487	0.0164967
856.565	0.0165762
856.643	0.0164944
856.721	0.0166058
856.799	0.0167295
856.878	0.0165228
856.956	0.0164597
857.034	0.0166525
857.112	0.0165916
857.190	0.0165218
857.268	0.0164633
857.346	0.0165086
857.424	0.0164007
857.503	0.0163685
857.581	0.0165122
857.659	0.0166027
857.737	0.0165331
857.815	0.0164342
857.893	0.0163979
857.971	0.0164827
858.049	0.0163564
858.128	0.0164124
858.206	0.0165672
858.284	0.0164318
858.362	0.0164228
858.440	0.0165385
858.518	0.0163898
858.596	0.0164475
858.674	0.0164448
858.753	0.0163571
858.831	0.0165057
858.909	0.0165063
858.987	0.0163412
859.065	0.0163393
859.143	0.0164003
859.221	0.0162966
859.299	0.0163632
859.378	0.0163430
859.456	0.0164643
859.534	0.0164682
859.612	0.0163463
859.690	0.0164418
859.768	0.0164662
859.846	0.0165494
859.924	0.0163950
860.003	0.0163918
860.081	0.0164929
860.159	0.0166058
860.237	0.0164342
860.315	0.0165539
860.393	0.0165012
860.471	0.0164717
860.549	0.0165443
860.628	0.0165731
860.706	0.0164481
860.784	0.0165025
860.862	0.0167266
860.940	0.0165851
861.018	0.0166239
861.096	0.0164886
861.174	0.0165205
861.253	0.0163793
861.331	0.0164780
861.409	0.0164992
861.487	0.0165012
861.565	0.0164987
861.643	0.0165037
861.721	0.0164041
861.799	0.0163833
861.878	0.0163619
861.956	0.0164999
862.034	0.0163396
862.112	0.0163758
862.190	0.0164986
862.268	0.0164852
862.346	0.0163477
862.424	0.0164381
862.503	0.0165356
862.581	0.0164100
862.659	0.0164596
862.737	0.0164481
862.815	0.0166253
862.893	0.0164410
862.971	0.0163975
863.049	0.0164178
863.128	0.0165542
863.206	0.0165352
863.284	0.0165260
863.362	0.0164082
863.440	0.0165765
863.518	0.0164719
863.596	0.0165741
863.674	0.0163834
863.753	0.0165681
863.831	0.0165161
863.909	0.0164763
863.987	0.0164380
864.065	0.0165546
864.143	0.0164550
864.221	0.0163670
864.299	0.0166238
864.378	0.0164896
864.456	0.0164901
864.534	0.0164762
864.612	0.0164001
864.690	0.0164596
864.768	0.0165111
864.846	0.0164287
864.924	0.0164284
865.003	0.0163650
865.081	0.0164127
865.159	0.0165231
865.237	0.0163889
865.315	0.0164063
865.393	0.0164301
865.471	0.0161834
865.549	0.0161953
865.628	0.0162925
865.706	0.0163751
865.784	0.0163244
865.862	0.0162451
865.940	0.0163911
866.018	0.0163917
866.096	0.0163356
866.174	0.0164314
866.253	0.0164452
866.331	0.0164933
866.409	0.0162976
866.487	0.0163953
866.565	0.0164376
866.643	0.0165668
866.721	0.0165051
866.799	0.0166556
866.878	0.0165517
866.956	0.0165791
867.034	0.0165191
867.112	0.0166471
867.190	0.0167110
867.268	0.0165508
867.346	0.0165971
867.424	0.0166614
867.503	0.0167305
867.581	0.0166634
867.659	0.0164448
867.737	0.0165359
867.815	0.0166298
867.893	0.0164755
867.971	0.0165762
868.049	0.0165155
868.128	0.0165609
868.206	0.0164042
868.284	0.0164710
868.362	0.0165015
868.440	0.0165444
868.518	0.0165086
868.596	0.0165365
868.674	0.0163271
868.753	0.0163261
868.831	0.0163927
868.909	0.0163121
868.987	0.0163942
869.065	0.0163816
869.143	0.0164304
869.221	0.0165025
869.299	0.0164233
869.378	0.0164370
869.456	0.0164130
869.534	0.0163921
869.612	0.0163429
869.690	0.0164857
869.768	0.0164803
869.846	0.0163159
869.924	0.0164552
870.003	0.0164325
870.081	0.0163705
870.159	0.0164528
870.237	0.0164243
870.315	0.0165211
870.393	0.0162435
870.471	0.0165256
870.549	0.0164349
870.628	0.0164600
870.706	0.0164383
870.784	0.0162982
870.862	0.0164164
870.940	0.0163403
871.018	0.0164278
871.096	0.0164956
871.174	0.0163397
871.253	0.0163333
871.331	0.0163768
871.409	0.0163873
871.487	0.0164140
871.565	0.0165073
871.643	0.0162902
871.721	0.0164841
871.799	0.0164254
871.878	0.0164385
871.956	0.0164832
872.034	0.0164265
872.112	0.0163560
872.190	0.0163807
872.268	0.0164124
872.346	0.0163315
872.424	0.0165630
872.503	0.0164167
872.581	0.0162658
872.659	0.0163013
872.737	0.0164429
872.815	0.0162897
872.893	0.0163505
872.971	0.0163373
873.049	0.0165285
873.128	0.0164902
873.206	0.0165549
873.284	0.0164697
873.362	0.0165481
873.440	0.0165318
873.518	0.0165754
873.596	0.0166392
873.674	0.0165791
873.753	0.0165997
873.831	0.0166074
873.909	0.0166027
873.987	0.0166536
874.065	0.0166309
874.143	0.0165614
874.221	0.0165756
874.299	0.0165852
874.378	0.0163995
874.456	0.0166270
874.534	0.0164182
874.612	0.0163558
874.690	0.0164326
874.768	0.0164474
874.846	0.0163752
874.924	0.0161950
875.003	0.0162806
875.081	0.0163643
875.159	0.0163737
875.237	0.0163710
875.315	0.0163546
875.393	0.0163700
875.471	0.0162498
875.549	0.0161669
875.628	0.0162759
875.706	0.0162916
875.784	0.0164289
875.862	0.0163373
875.940	0.0163255
876.018	0.0164255
876.096	0.0163997
876.174	0.0162495
876.253	0.0163266
876.331	0.0162978
876.409	0.0163206
876.487	0.0164203
876.565	0.0163385
876.643	0.0164446
876.721	0.0164022
876.799	0.0163966
876.878	0.0164722
876.956	0.0162561
877.034	0.0163631
877.112	0.0165105
877.190	0.0164353
877.268	0.0163945
877.346	0.0165119
877.424	0.0163718
877.503	0.0162746
877.581	0.0164687
877.659	0.0165350
877.737	0.0164147
877.815	0.0163512
877.893	0.0163425
877.971	0.0164896
878.049	0.0164325
878.128	0.0163197
878.206	0.0164355
878.284	0.0164420
878.362	0.0165353
878.440	0.0165327
878.518	0.0165157
878.596	0.0165176
878.674	0.0163662
878.753	0.0166116
878.831	0.0164442
878.909	0.0165086
878.987	0.0163682
879.065	0.0163131
879.143	0.0163787
879.221	0.0163378
879.299	0.0163673
879.378	0.0162286
879.456	0.0163696
879.534	0.0163197
879.612	0.0163821
879.690	0.0164017
879.768	0.0164214
879.846	0.0163865
879.924	0.0163100
880.003	0.0164125
880.081	0.0164589
880.159	0.0163449
880.237	0.0164217
880.315	0.0163354
880.393	0.0162153
880.471	0.0164172
880.549	0.0164397
880.628	0.0165857
880.706	0.0164945
880.784	0.0164619
880.862	0.0164591
880.940	0.0164313
881.018	0.0164614
881.096	0.0164072
881.174	0.0162882
881.253	0.0164219
881.331	0.0165381
881.409	0.0163710
881.487	0.0164179
881.565	0.0162387
881.643	0.0164786
881.721	0.0162743
881.799	0.0163164
881.878	0.0162889
881.956	0.0162806
882.034	0.0162856
882.112	0.0164173
882.190	0.0164207
882.268	0.0164742
882.346	0.0163903
882.424	0.0162985
882.503	0.0164104
882.581	0.0163455
882.659	0.0164555
882.737	0.0165022
882.815	0.0164417
882.893	0.0164599
882.971	0.0165850
883.049	0.0164825
883.128	0.0164058
883.206	0.0164956
883.284	0.0165768
883.362	0.0164883
883.440	0.0164915
883.518	0.0164567
883.596	0.0164798
883.674	0.0164590
883.753	0.0163863
883.831	0.0162862
883.909	0.0164134
883.987	0.0164879
884.065	0.0164774
884.143	0.0164706
884.221	0.0164365
884.299	0.0163219
884.378	0.0164913
884.456	0.0163744
884.534	0.0162953
884.612	0.0164342
884.690	0.0163749
884.768	0.0164721
884.846	0.0164896
884.924	0.0163123
885.003	0.0164351
885.081	0.0162167
885.159	0.0164187
885.237	0.0164742
885.315	0.0163368
885.393	0.0164135
885.471	0.0162893
885.549	0.0162897
885.628	0.0163342
885.706	0.0162563
885.784	0.0163355
885.862	0.0163756
885.940	0.0164732
886.018	0.0164491
886.096	0.0164844
886.174	0.0162051
886.253	0.0162979
886.331	0.0164823
886.409	0.0163272
886.487	0.0165230
886.565	0.0163099
886.643	0.0164114
886.721	0.0163302
886.799	0.0163171
886.878	0.0164048
886.956	0.0165346
887.034	0.0164931
887.112	0.0163632
887.190	0.0164170
887.268	0.0164953
887.346	0.0165170
887.424	0.0164559
887.503	0.0164663
887.581	0.0166182
887.659	0.0163548
887.737	0.0164657
887.815	0.0164720
887.893	0.0165520
887.971	0.0164586
888.049	0.0163891
888.128	0.0163416
888.206	0.0164821
888.284	0.0163853
888.362	0.0164246
888.440	0.0165406
888.518	0.0164521
888.596	0.0162503
888.674	0.0163888
888.753	0.0164132
888.831	0.0164555
888.909	0.0165442
888.987	0.0164297
889.065	0.0163517
889.143	0.0163766
889.221	0.0164308
889.299	0.0164603
889.378	0.0164324
889.456	0.0164688
889.534	0.0164365
889.612	0.0164261
889.690	0.0164483
889.768	0.0163748
889.846	0.0164898
889.924	0.0165485
890.003	0.0164849
890.081	0.0164151
890.159	0.0165378
890.237	0.0163724
890.315	0.0164411
890.393	0.0162891
890.471	0.0163756
890.549	0.0165380
890.628	0.0163927
890.706	0.0162487
890.784	0.0164179
890.862	0.0163542
890.940	0.0163732
891.018	0.0162489
891.096	0.0163522
891.174	0.0164507
891.253	0.0163544
891.331	0.0163078
891.409	0.0163190
891.487	0.0164709
891.565	0.0163605
891.643	0.0163099
891.721	0.0163934
891.799	0.0164008
891.878	0.0164066
891.956	0.0163419
892.034	0.0164280
892.112	0.0164697
892.190	0.0163139
892.268	0.0164183
892.346	0.0163258
892.424	0.0163454
892.503	0.0164433
892.581	0.0164705
892.659	0.0164919
892.737	0.0164523
892.815	0.0164037
892.893	0.0163872
892.971	0.0164073
893.049	0.0165601
893.128	0.0164162
893.206	0.0164591
893.284	0.0165060
893.362	0.0164503
893.440	0.0164350
893.518	0.0165257
893.596	0.0162274
893.674	0.0163695
893.753	0.0164072
893.831	0.0164429
893.909	0.0164178
893.987	0.0165225
894.065	0.0164650
894.143	0.0164761
894.221	0.0163657
894.299	0.0163670
894.378	0.0164220
894.456	0.0164832
894.534	0.0165452
894.612	0.0165186
894.690	0.0164233
894.768	0.0164699
894.846	0.0165240
894.924	0.0165166
895.003	0.0163747
895.081	0.0163383
895.159	0.0165302
895.237	0.0163382
895.315	0.0163760
895.393	0.0164572
895.471	0.0164468
895.549	0.0165421
895.628	0.0165280
895.706	0.0164267
895.784	0.0163996
895.862	0.0164712
895.940	0.0164636
896.018	0.0164240
896.096	0.0163785
896.174	0.0163327
896.253	0.0164510
896.331	0.0164553
896.409	0.0163181
896.487	0.0164892
896.565	0.0164384
896.643	0.0164030
896.721	0.0164091
896.799	0.0163511
896.878	0.0164145
896.956	0.0164643
897.034	0.0164446
897.112	0.0163857
897.190	0.0164199
897.268	0.0163776
897.346	0.0164347
897.424	0.0163895
897.503	0.0164196
897.581	0.0164310
897.659	0.0164248
897.737	0.0163425
897.815	0.0163786
897.893	0.0163359
897.971	0.0164617
898.049	0.0163277
898.128	0.0165352
898.206	0.0164667
898.284	0.0164253
898.362	0.0164350
898.440	0.0164030
898.518	0.0164743
898.596	0.0164182
898.674	0.0164200
898.753	0.0164363
898.831	0.0164023
898.909	0.0163593
898.987	0.0164613
899.065	0.0164151
899.143	0.0164558
899.221	0.0164282
899.299	0.0164331
899.378	0.0164111
899.456	0.0163704
899.534	0.0163998
899.612	0.0165913
899.690	0.0164967
899.768	0.0163026
899.846	0.0162827
899.924	0.0165067
900.003	0.0164708
900.081	0.0163905
900.159	0.0162872
900.237	0.0164234
900.315	0.0163905
900.393	0.0163428
900.471	0.0162444
900.549	0.0164671
900.628	0.0163496
900.706	0.0164488
900.784	0.0163586
900.862	0.0164198
900.940	0.0164984
901.018	0.0165330
901.096	0.0162486
901.174	0.0163268
901.253	0.0164771
901.331	0.0164469
901.409	0.0163211
901.487	0.0164735
901.565	0.0163119
901.643	0.0164874
901.721	0.0163029
901.799	0.0163556
901.878	0.0163482
901.956	0.0164246
902.034	0.0163464
902.112	0.0164381
902.190	0.0163605
902.268	0.0164475
902.346	0.0165239
902.424	0.0163905
902.503	0.0164846
902.581	0.0164004
902.659	0.0163647
902.737	0.0165299
902.815	0.0164003
902.893	0.0165576
902.971	0.0165385
903.049	0.0163330
903.128	0.0163387
903.206	0.0165073
903.284	0.0164692
903.362	0.0162739
903.440	0.0164674
903.518	0.0163892
903.596	0.0163941
903.674	0.0165876
903.753	0.0163825
903.831	0.0163333
903.909	0.0163482
903.987	0.0164674
904.065	0.0163814
904.143	0.0163372
904.221	0.0163071
904.299	0.0163625
904.378	0.0163451
904.456	0.0164334
904.534	0.0164487
904.612	0.0163984
904.690	0.0163892
904.768	0.0163618
904.846	0.0163471
904.924	0.0163521
905.003	0.0165276
905.081	0.0163629
905.159	0.0162675
905.237	0.0165604
905.315	0.0163392
905.393	0.0163477
905.471	0.0163502
905.549	0.0164253
905.628	0.0164153
905.706	0.0163917
905.784	0.0163276
905.862	0.0163354
905.940	0.0165340
906.018	0.0162924
906.096	0.0163135
906.174	0.0164143
906.253	0.0162994
906.331	0.0162912
906.409	0.0162814
906.487	0.0164295
906.565	0.0164127
906.643	0.0162580
906.721	0.0164294
906.799	0.0164395
906.878	0.0162711
906.956	0.0162909
907.034	0.0164113
907.112	0.0164227
907.190	0.0163862
907.268	0.0163770
907.346	0.0164454
907.424	0.0163504
907.503	0.0163951
907.581	0.0164964
907.659	0.0164863
907.737	0.0165285
907.815	0.0164455
907.893	0.0164170
907.971	0.0164782
908.049	0.0164086
908.128	0.0164083
908.206	0.0163472
908.284	0.0163298
908.362	0.0164761
908.440	0.0164113
908.518	0.0164555
908.596	0.0163719
908.674	0.0164518
908.753	0.0164250
908.831	0.0164009
908.909	0.0164529
908.987	0.0164411
909.065	0.0163857
909.143	0.0164757
909.221	0.0162720
909.299	0.0163680
909.378	0.0164405
909.456	0.0164632
909.534	0.0163559
909.612	0.0164756
909.690	0.0163958
909.768	0.0162740
909.846	0.0164565
909.924	0.0163400
910.003	0.0161491
910.081	0.0163956
910.159	0.0164008
910.237	0.0164124
910.315	0.0163004
910.393	0.0164494
910.471	0.0163298
910.549	0.0163506
910.628	0.0162768
910.706	0.0163049
910.784	0.0164082
910.862	0.0162840
910.940	0.0165309
911.018	0.0164655
911.096	0.0162833
911.174	0.0162550
911.253	0.0163412
911.331	0.0162630
911.409	0.0163174
911.487	0.0163303
911.565	0.0162777
911.643	0.0162225
911.721	0.0163981
911.799	0.0163997
911.878	0.0163740
911.956	0.0164484
912.034	0.0164444
912.112	0.0163757
912.190	0.0164926
912.268	0.0163451
912.346	0.0163734
912.424	0.0164611
912.503	0.0165189
912.581	0.0164648
912.659	0.0162733
912.737	0.0164771
912.815	0.0163536
912.893	0.0163580
912.971	0.0162797
913.049	0.0163783
913.128	0.0163035
913.206	0.0164020
913.284	0.0163603
913.362	0.0162938
913.440	0.0162349
913.518	0.0162105
913.596	0.0164258
913.674	0.0164085
913.753	0.0164182
913.831	0.0164739
913.909	0.0164059
913.987	0.0162656
914.065	0.0164356
914.143	0.0164858
914.221	0.0165126
914.299	0.0164364
914.378	0.0166981
914.456	0.0165871
914.534	0.0165010
914.612	0.0165251
914.690	0.0166322
914.768	0.0165788
914.846	0.0165546
914.924	0.0166026
915.003	0.0165789
915.081	0.0166213
915.159	0.0164920
915.237	0.0165527
915.315	0.0164372
915.393	0.0164677
915.471	0.0162994
915.549	0.0164574
915.628	0.0165808
915.706	0.0163094
915.784	0.0163618
915.862	0.0163213
915.940	0.0163702
916.018	0.0162386
916.096	0.0162118
916.174	0.0162779
916.253	0.0162099
916.331	0.0160923
916.409	0.0162215
916.487	0.0161780
916.565	0.0162387
916.643	0.0162527
916.721	0.0162029
916.799	0.0161878
916.878	0.0163023
916.956	0.0162920
917.034	0.0164188
917.112	0.0163208
917.190	0.0164359
917.268	0.0165252
917.346	0.0164042
917.424	0.0164481
917.503	0.0164433
917.581	0.0164417
917.659	0.0165620
917.737	0.0165367
917.815	0.0164223
917.893	0.0165505
917.971	0.0164221
918.049	0.0165034
918.128	0.0165136
918.206	0.0164206
918.284	0.0164922
918.362	0.0165380
918.440	0.0165215
918.518	0.0163729
918.596	0.0163797
918.674	0.0163869
918.753	0.0163145
918.831	0.0164143
918.909	0.0164868
918.987	0.0163339
919.065	0.0164198
919.143	0.0164162
919.221	0.0163466
919.299	0.0165462
919.378	0.0164108
919.456	0.0164308
919.534	0.0163935
919.612	0.0166245
919.690	0.0164174
919.768	0.0163843
919.846	0.0164294
919.924	0.0163625
920.003	0.0163828
920.081	0.0163467
920.159	0.0164088
920.237	0.0164021
920.315	0.0163329
920.393	0.0164316
920.471	0.0164216
920.549	0.0163649
920.628	0.0164112
920.706	0.0163240
920.784	0.0164591
920.862	0.0163773
920.940	0.0164471
921.018	0.0164091
921.096	0.0163353
921.174	0.0163821
921.253	0.0165053
921.331	0.0165090
921.409	0.0165293
921.487	0.0164771
921.565	0.0163945
921.643	0.0165394
921.721	0.0164779
921.799	0.0165071
921.878	0.0163351
921.956	0.0164748
922.034	0.0163371
922.112	0.0164113
922.190	0.0164598
922.268	0.0162287
922.346	0.0163028
922.424	0.0163359
922.503	0.0163721
922.581	0.0163190
922.659	0.0163399
922.737	0.0162135
922.815	0.0164092
922.893	0.0163805
922.971	0.0163355
923.049	0.0164497
923.128	0.0165028
923.206	0.0164922
923.284	0.0164751
923.362	0.0166401
923.440	0.0165235
923.518	0.0165028
923.596	0.0165384
923.674	0.0164957
923.753	0.0164458
923.831	0.0166505
923.909	0.0165995
923.987	0.0165142
924.065	0.0165089
924.143	0.0165949
924.221	0.0164860
924.299	0.0164202
924.378	0.0166375
924.456	0.0164317
924.534	0.0163790
924.612	0.0163068
924.690	0.0163309
924.768	0.0164005
924.846	0.0164034
924.924	0.0163215
925.003	0.0162699
925.081	0.0162318
925.159	0.0163482
925.237	0.0163056
925.315	0.0163551
925.393	0.0162656
925.471	0.0162955
925.549	0.0164317
925.628	0.0163165
925.706	0.0163272
925.784	0.0165862
925.862	0.0165482
925.940	0.0164700
926.018	0.0165064
926.096	0.0163958
926.174	0.0165419
926.253	0.0164621
926.331	0.0165865
926.409	0.0165208
926.487	0.0164947
926.565	0.0166202
926.643	0.0164954
926.721	0.0165612
926.799	0.0164290
926.878	0.0163960
926.956	0.0165643
927.034	0.0164907
927.112	0.0163029
927.190	0.0164754
927.268	0.0164154
927.346	0.0164448
927.424	0.0164001
927.503	0.0164529
927.581	0.0164156
927.659	0.0162721
927.737	0.0164376
927.815	0.0164458
927.893	0.0162479
927.971	0.0164342
928.049	0.0163947
928.128	0.0163955
928.206	0.0164458
928.284	0.0164515
928.362	0.0164564
928.440	0.0164819
928.518	0.0165002
928.596	0.0165455
928.674	0.0164211
928.753	0.0163605
928.831	0.0163129
928.909	0.0163368
928.987	0.0163860
929.065	0.0163728
929.143	0.0160869
929.221	0.0162990
929.299	0.0163562
929.378	0.0163237
929.456	0.0163119
929.534	0.0163239
929.612	0.0163277
929.690	0.0165239
929.768	0.0162527
929.846	0.0163599
929.924	0.0164345
930.003	0.0163757
930.081	0.0164415
930.159	0.0166378
930.237	0.0165829
930.315	0.0165871
930.393	0.0165891
930.471	0.0166057
930.549	0.0164628
930.628	0.0166019
930.706	0.0165370
930.784	0.0165855
930.862	0.0165450
930.940	0.0165224
931.018	0.0166359
931.096	0.0165971
931.174	0.0165395
931.253	0.0165760
931.331	0.0163732
931.409	0.0163377
931.487	0.0165276
931.565	0.0164602
931.643	0.0164040
931.721	0.0162421
931.799	0.0162479
931.878	0.0164404
931.956	0.0164481
932.034	0.0163878
932.112	0.0163527
932.190	0.0163882
932.268	0.0165405
932.346	0.0163959
932.424	0.0164181
932.503	0.0164326
932.581	0.0164320
932.659	0.0164072
932.737	0.0165783
932.815	0.0165012
932.893	0.0164732
932.971	0.0165795
933.049	0.0165174
933.128	0.0164438
933.206	0.0163883
933.284	0.0164794
933.362	0.0165379
933.440	0.0164642
933.518	0.0165533
933.596	0.0163897
933.674	0.0163669
933.753	0.0164651
933.831	0.0164351
933.909	0.0163680
933.987	0.0163979
934.065	0.0164713
934.143	0.0162450
934.221	0.0163615
934.299	0.0163171
934.378	0.0162956
934.456	0.0164262
934.534	0.0162831
934.612	0.0164205
934.690	0.0164716
934.768	0.0164799
934.846	0.0163929
934.924	0.0164110
935.003	0.0164259
935.081	0.0165665
935.159	0.0164533
935.237	0.0163937
935.315	0.0164735
935.393	0.0164961
935.471	0.0164818
935.549	0.0164964
935.628	0.0164365
935.706	0.0163857
935.784	0.0163728
935.862	0.0164938
935.940	0.0163902
936.018	0.0163853
936.096	0.0163475
936.174	0.0163519
936.253	0.0164404
936.331	0.0163997
936.409	0.0164845
936.487	0.0164594
936.565	0.0164900
936.643	0.0164019
936.721	0.0164976
936.799	0.0166051
936.878	0.0165791
936.956	0.0165421
937.034	0.0167432
937.112	0.0167019
937.190	0.0165757
937.268	0.0165967
937.346	0.0165833
937.424	0.0165710
937.503	0.0165099
937.581	0.0165781
937.659	0.0166142
937.737	0.0165783
937.815	0.0164184
937.893	0.0164848
937.971	0.0164997
938.049	0.0163672
938.128	0.0165108
938.206	0.0163615
938.284	0.0163977
938.362	0.0163720
938.440	0.0165101
938.518	0.0164520
938.596	0.0162683
938.674	0.0165026
938.753	0.0163322
938.831	0.0162009
938.909	0.0163940
938.987	0.0164719
939.065	0.0163681
939.143	0.0163114
939.221	0.0163000
939.299	0.0163273
939.378	0.0162492
939.456	0.0163309
939.534	0.0162468
939.612	0.0161961
939.690	0.0164809
939.768	0.0165043
939.846	0.0163655
939.924	0.0163310
940.003	0.0163779
940.081	0.0163637
940.159	0.0162750
940.237	0.0163251
940.315	0.0163564
940.393	0.0163657
940.471	0.0163412
940.549	0.0163566
940.628	0.0163776
940.706	0.0163462
940.784	0.0164723
940.862	0.0163480
940.940	0.0164620
941.018	0.0164258
941.096	0.0163769
941.174	0.0163998
941.253	0.0164233
941.331	0.0163548
941.409	0.0164530
941.487	0.0163583
941.565	0.0164586
941.643	0.0164186
941.721	0.0164313
941.799	0.0164129
941.878	0.0164249
941.956	0.0162868
942.034	0.0164449
942.112	0.0164861
942.190	0.0163631
942.268	0.0163673
942.346	0.0165213
942.424	0.0165730
942.503	0.0164716
942.581	0.0165349
942.659	0.0164930
942.737	0.0164078
942.815	0.0164558
942.893	0.0165344
942.971	0.0164321
943.049	0.0163776
943.128	0.0163217
943.206	0.0163653
943.284	0.0164629
943.362	0.0164940
943.440	0.0164189
943.518	0.0163114
943.596	0.0163457
943.674	0.0164493
943.753	0.0165244
943.831	0.0164709
943.909	0.0164623
943.987	0.0165516
944.065	0.0166552
944.143	0.0165172
944.221	0.0164635
944.299	0.0164886
944.378	0.0165741
944.456	0.0165247
944.534	0.0164767
944.612	0.0164470
944.690	0.0164671
944.768	0.0164709
944.846	0.0164542
944.924	0.0163991
945.003	0.0163303
945.081	0.0163579
945.159	0.0164375
945.237	0.0163361
945.315	0.0162929
945.393	0.0161711
945.471	0.0163522
945.549	0.0163946
945.628	0.0164208
945.706	0.0164365
945.784	0.0163029
945.862	0.0163731
945.940	0.0163826
946.018	0.0164413
946.096	0.0163193
946.174	0.0163281
946.253	0.0164146
946.331	0.0165321
946.409	0.0163892
946.487	0.0164230
946.565	0.0163916
946.643	0.0163608
946.721	0.0163518
946.799	0.0164579
946.878	0.0163626
946.956	0.0164935
947.034	0.0164938
947.112	0.0164320
947.190	0.0164560
947.268	0.0164903
947.346	0.0165507
947.424	0.0164780
947.503	0.0163553
947.581	0.0163949
947.659	0.0164086
947.737	0.0163325
947.815	0.0164830
947.893	0.0163734
947.971	0.0164250
948.049	0.0163912
948.128	0.0164400
948.206	0.0165244
948.284	0.0163687
948.362	0.0165051
948.440	0.0165176
948.518	0.0164202
948.596	0.0164095
948.674	0.0163140
948.753	0.0164004
948.831	0.0164728
948.909	0.0164359
948.987	0.0163924
949.065	0.0162969
949.143	0.0162989
949.221	0.0164848
949.299	0.0164721
949.378	0.0163996
949.456	0.0165419
949.534	0.0164931
949.612	0.0164485
949.690	0.0164973
949.768	0.0164307
949.846	0.0165308
949.924	0.0164482
