06/29/2022	23:08:06	Ver.	4.1	UNKNOWN
Optical Delay	630.002507	Delta X		0.078125	Sweeps	1	Scan Rate	0/0
Coordinates	Axis 1	NaN	Axis 2	NaN	Axis 3	NaN	Axis 4	NaN	Axis 5	NaN	Axis 6	0.000000
TX Power	0.000000	RX Power	0.000000

630.003	0.0164201
630.081	0.0163539
630.159	0.0165553
630.237	0.0164249
630.315	0.0163465
630.393	0.0164600
630.471	0.0164924
630.549	0.0164046
630.628	0.0164695
630.706	0.0163375
630.784	0.0165082
630.862	0.0164620
630.940	0.0163768
631.018	0.0165410
631.096	0.0164422
631.174	0.0163431
631.253	0.0164953
631.331	0.0163799
631.409	0.0163231
631.487	0.0162801
631.565	0.0164770
631.643	0.0163969
631.721	0.0164140
631.799	0.0163632
631.878	0.0163866
631.956	0.0163728
632.034	0.0164293
632.112	0.0164375
632.190	0.0162897
632.268	0.0162709
632.346	0.0163950
632.424	0.0163586
632.503	0.0163577
632.581	0.0162668
632.659	0.0163757
632.737	0.0162872
632.815	0.0163252
632.893	0.0163536
632.971	0.0163906
633.049	0.0164472
633.128	0.0163686
633.206	0.0164235
633.284	0.0164108
633.362	0.0164284
633.440	0.0164273
633.518	0.0162519
633.596	0.0164449
633.674	0.0164473
633.753	0.0163786
633.831	0.0164631
633.909	0.0163459
633.987	0.0163260
634.065	0.0162617
634.143	0.0163409
634.221	0.0164181
634.299	0.0163244
634.378	0.0164425
634.456	0.0165423
634.534	0.0163720
634.612	0.0163884
634.690	0.0164542
634.768	0.0163860
634.846	0.0164265
634.924	0.0164330
635.003	0.0164954
635.081	0.0162972
635.159	0.0163879
635.237	0.0164827
635.315	0.0164458
635.393	0.0165294
635.471	0.0164738
635.549	0.0165273
635.628	0.0164522
635.706	0.0163966
635.784	0.0162928
635.862	0.0163363
635.940	0.0165004
636.018	0.0165764
636.096	0.0164342
636.174	0.0164339
636.253	0.0163583
636.331	0.0165775
636.409	0.0163575
636.487	0.0164719
636.565	0.0162898
636.643	0.0163786
636.721	0.0164452
636.799	0.0164751
636.878	0.0164687
636.956	0.0164992
637.034	0.0162321
637.112	0.0164417
637.190	0.0163569
637.268	0.0164898
637.346	0.0163797
637.424	0.0163563
637.503	0.0164648
637.581	0.0164005
637.659	0.0164703
637.737	0.0164048
637.815	0.0163857
637.893	0.0164317
637.971	0.0164108
638.049	0.0163367
638.128	0.0164742
638.206	0.0165919
638.284	0.0163586
638.362	0.0163556
638.440	0.0162780
638.518	0.0164345
638.596	0.0165039
638.674	0.0163499
638.753	0.0163770
638.831	0.0164624
638.909	0.0164960
638.987	0.0164375
639.065	0.0164392
639.143	0.0164862
639.221	0.0165268
639.299	0.0163676
639.378	0.0164391
639.456	0.0165099
639.534	0.0164028
639.612	0.0164359
639.690	0.0165461
639.768	0.0164501
639.846	0.0165387
639.924	0.0164652
640.003	0.0164942
640.081	0.0164330
640.159	0.0165282
640.237	0.0165448
640.315	0.0165385
640.393	0.0164558
640.471	0.0163013
640.549	0.0165417
640.628	0.0163778
640.706	0.0164147
640.784	0.0164085
640.862	0.0164716
640.940	0.0164369
641.018	0.0165230
641.096	0.0165071
641.174	0.0164693
641.253	0.0163282
641.331	0.0164085
641.409	0.0163654
641.487	0.0163538
641.565	0.0163686
641.643	0.0163857
641.721	0.0163995
641.799	0.0163771
641.878	0.0163929
641.956	0.0163662
642.034	0.0163408
642.112	0.0163275
642.190	0.0162132
642.268	0.0162552
642.346	0.0162755
642.424	0.0162666
642.503	0.0162878
642.581	0.0163197
642.659	0.0163387
642.737	0.0163268
642.815	0.0162404
642.893	0.0163766
642.971	0.0163406
643.049	0.0162077
643.128	0.0162298
643.206	0.0162206
643.284	0.0161703
643.362	0.0163018
643.440	0.0163137
643.518	0.0163157
643.596	0.0163056
643.674	0.0162691
643.753	0.0163980
643.831	0.0162497
643.909	0.0163041
643.987	0.0163175
644.065	0.0162628
644.143	0.0162967
644.221	0.0164024
644.299	0.0163556
644.378	0.0163215
644.456	0.0162714
644.534	0.0163534
644.612	0.0162238
644.690	0.0162774
644.768	0.0163778
644.846	0.0163470
644.924	0.0164124
645.003	0.0163020
645.081	0.0163526
645.159	0.0164086
645.237	0.0162950
645.315	0.0162777
645.393	0.0162528
645.471	0.0162544
645.549	0.0161382
645.628	0.0163153
645.706	0.0163560
645.784	0.0162907
645.862	0.0162665
645.940	0.0163690
646.018	0.0164414
646.096	0.0163910
646.174	0.0162631
646.253	0.0163770
646.331	0.0163853
646.409	0.0163005
646.487	0.0163117
646.565	0.0162678
646.643	0.0163960
646.721	0.0162924
646.799	0.0163657
646.878	0.0163585
646.956	0.0163135
647.034	0.0161730
647.112	0.0164053
647.190	0.0162956
647.268	0.0162386
647.346	0.0162769
647.424	0.0163480
647.503	0.0163673
647.581	0.0162932
647.659	0.0163525
647.737	0.0164198
647.815	0.0163836
647.893	0.0164574
647.971	0.0164832
648.049	0.0162025
648.128	0.0163660
648.206	0.0164711
648.284	0.0163038
648.362	0.0164474
648.440	0.0163245
648.518	0.0165103
648.596	0.0163902
648.674	0.0164965
648.753	0.0165652
648.831	0.0164085
648.909	0.0165232
648.987	0.0163981
649.065	0.0164466
649.143	0.0164267
649.221	0.0163691
649.299	0.0164478
649.378	0.0164930
649.456	0.0164997
649.534	0.0164710
649.612	0.0163293
649.690	0.0164844
649.768	0.0164206
649.846	0.0164838
649.924	0.0165109
650.003	0.0165964
650.081	0.0164161
650.159	0.0164076
650.237	0.0164372
650.315	0.0165973
650.393	0.0164854
650.471	0.0163705
650.549	0.0165708
650.628	0.0163888
650.706	0.0165166
650.784	0.0165320
650.862	0.0165730
650.940	0.0165754
651.018	0.0164613
651.096	0.0164747
651.174	0.0165528
651.253	0.0164634
651.331	0.0165271
651.409	0.0165224
651.487	0.0165102
651.565	0.0163914
651.643	0.0165456
651.721	0.0165706
651.799	0.0165440
651.878	0.0165969
651.956	0.0165843
652.034	0.0165622
652.112	0.0164958
652.190	0.0166127
652.268	0.0166741
652.346	0.0165427
652.424	0.0165076
652.503	0.0164938
652.581	0.0165189
652.659	0.0165717
652.737	0.0165137
652.815	0.0165464
652.893	0.0164762
652.971	0.0164383
653.049	0.0164609
653.128	0.0165030
653.206	0.0164692
653.284	0.0163715
653.362	0.0167124
653.440	0.0165755
653.518	0.0163960
653.596	0.0163741
653.674	0.0165390
653.753	0.0164294
653.831	0.0163827
653.909	0.0164276
653.987	0.0165090
654.065	0.0163655
654.143	0.0163592
654.221	0.0165443
654.299	0.0165335
654.378	0.0163255
654.456	0.0163745
654.534	0.0164683
654.612	0.0164278
654.690	0.0165174
654.768	0.0165368
654.846	0.0163355
654.924	0.0164002
655.003	0.0162656
655.081	0.0164734
655.159	0.0165166
655.237	0.0164268
655.315	0.0165091
655.393	0.0165628
655.471	0.0163772
655.549	0.0163729
655.628	0.0163777
655.706	0.0163531
655.784	0.0164685
655.862	0.0163530
655.940	0.0164677
656.018	0.0165245
656.096	0.0165577
656.174	0.0162866
656.253	0.0163468
656.331	0.0164342
656.409	0.0164294
656.487	0.0164215
656.565	0.0165007
656.643	0.0164447
656.721	0.0164451
656.799	0.0163180
656.878	0.0163349
656.956	0.0165234
657.034	0.0163995
657.112	0.0163797
657.190	0.0163682
657.268	0.0164347
657.346	0.0163392
657.424	0.0163499
657.503	0.0163173
657.581	0.0163827
657.659	0.0165054
657.737	0.0163725
657.815	0.0164524
657.893	0.0164091
657.971	0.0163834
658.049	0.0163931
658.128	0.0163520
658.206	0.0164409
658.284	0.0164471
658.362	0.0163744
658.440	0.0163255
658.518	0.0163622
658.596	0.0164282
658.674	0.0163380
658.753	0.0163943
658.831	0.0163903
658.909	0.0163705
658.987	0.0164191
659.065	0.0162746
659.143	0.0163565
659.221	0.0164038
659.299	0.0164106
659.378	0.0163470
659.456	0.0163708
659.534	0.0163301
659.612	0.0164223
659.690	0.0164789
659.768	0.0164580
659.846	0.0163849
659.924	0.0163676
660.003	0.0164417
660.081	0.0164922
660.159	0.0163799
660.237	0.0163898
660.315	0.0164526
660.393	0.0165002
660.471	0.0163111
660.549	0.0164021
660.628	0.0163390
660.706	0.0163927
660.784	0.0163581
660.862	0.0163432
660.940	0.0163109
661.018	0.0165105
661.096	0.0164378
661.174	0.0164009
661.253	0.0162821
661.331	0.0164741
661.409	0.0164413
661.487	0.0165559
661.565	0.0165351
661.643	0.0163103
661.721	0.0164379
661.799	0.0164841
661.878	0.0163219
661.956	0.0163564
662.034	0.0164098
662.112	0.0163689
662.190	0.0162961
662.268	0.0163427
662.346	0.0163371
662.424	0.0163607
662.503	0.0164091
662.581	0.0163843
662.659	0.0165124
662.737	0.0163301
662.815	0.0164957
662.893	0.0163653
662.971	0.0162845
663.049	0.0164812
663.128	0.0164850
663.206	0.0162938
663.284	0.0162920
663.362	0.0161884
663.440	0.0162852
663.518	0.0163526
663.596	0.0163055
663.674	0.0165221
663.753	0.0163828
663.831	0.0163662
663.909	0.0162955
663.987	0.0163864
664.065	0.0164764
664.143	0.0162955
664.221	0.0164357
664.299	0.0163958
664.378	0.0164542
664.456	0.0165075
664.534	0.0164301
664.612	0.0163801
664.690	0.0163691
664.768	0.0164215
664.846	0.0165501
664.924	0.0163812
665.003	0.0164758
665.081	0.0164738
665.159	0.0163232
665.237	0.0163143
665.315	0.0164187
665.393	0.0163515
665.471	0.0163244
665.549	0.0163881
665.628	0.0163400
665.706	0.0164674
665.784	0.0165100
665.862	0.0165086
665.940	0.0162684
666.018	0.0163222
666.096	0.0163253
666.174	0.0163421
666.253	0.0164712
666.331	0.0163988
666.409	0.0164371
666.487	0.0164089
666.565	0.0162914
666.643	0.0163694
666.721	0.0163168
666.799	0.0163844
666.878	0.0164302
666.956	0.0163870
667.034	0.0163943
667.112	0.0163906
667.190	0.0163825
667.268	0.0163825
667.346	0.0164278
667.424	0.0164364
667.503	0.0164319
667.581	0.0164064
667.659	0.0163702
667.737	0.0163833
667.815	0.0165441
667.893	0.0165699
667.971	0.0164068
668.049	0.0165125
668.128	0.0164852
668.206	0.0164722
668.284	0.0163954
668.362	0.0163317
668.440	0.0163853
668.518	0.0163869
668.596	0.0163553
668.674	0.0163072
668.753	0.0163756
668.831	0.0165189
668.909	0.0162628
668.987	0.0163995
669.065	0.0163384
669.143	0.0163743
669.221	0.0164947
669.299	0.0164313
669.378	0.0164691
669.456	0.0165159
669.534	0.0164648
669.612	0.0165150
669.690	0.0163840
669.768	0.0165762
669.846	0.0165195
669.924	0.0166344
670.003	0.0164452
670.081	0.0164629
670.159	0.0164639
670.237	0.0164783
670.315	0.0164262
670.393	0.0162958
670.471	0.0164456
670.549	0.0165137
670.628	0.0164154
670.706	0.0163777
670.784	0.0163618
670.862	0.0164335
670.940	0.0165012
671.018	0.0165498
671.096	0.0166139
671.174	0.0165833
671.253	0.0164768
671.331	0.0165086
671.409	0.0165828
671.487	0.0165610
671.565	0.0164116
671.643	0.0164850
671.721	0.0165102
671.799	0.0164414
671.878	0.0165364
671.956	0.0165334
672.034	0.0165670
672.112	0.0164509
672.190	0.0164504
672.268	0.0164806
672.346	0.0164790
672.424	0.0164070
672.503	0.0165927
672.581	0.0165071
672.659	0.0165190
672.737	0.0163605
672.815	0.0163875
672.893	0.0166394
672.971	0.0166428
673.049	0.0164757
673.128	0.0164664
673.206	0.0167088
673.284	0.0165691
673.362	0.0166320
673.440	0.0165286
673.518	0.0165436
673.596	0.0164705
673.674	0.0166039
673.753	0.0165002
673.831	0.0164240
673.909	0.0164214
673.987	0.0164145
674.065	0.0164664
674.143	0.0165160
674.221	0.0164568
674.299	0.0165414
674.378	0.0165746
674.456	0.0164384
674.534	0.0165256
674.612	0.0165609
674.690	0.0164893
674.768	0.0165378
674.846	0.0165122
674.924	0.0164137
675.003	0.0164857
675.081	0.0164230
675.159	0.0165471
675.237	0.0166923
675.315	0.0165523
675.393	0.0165448
675.471	0.0165488
675.549	0.0165934
675.628	0.0165140
675.706	0.0165002
675.784	0.0163581
675.862	0.0165052
675.940	0.0164703
676.018	0.0164618
676.096	0.0163796
676.174	0.0163726
676.253	0.0164907
676.331	0.0163757
676.409	0.0164314
676.487	0.0163510
676.565	0.0164770
676.643	0.0164861
676.721	0.0164930
676.799	0.0165131
676.878	0.0164268
676.956	0.0164545
677.034	0.0165202
677.112	0.0165028
677.190	0.0165320
677.268	0.0165929
677.346	0.0164890
677.424	0.0164690
677.503	0.0162857
677.581	0.0164675
677.659	0.0164217
677.737	0.0164957
677.815	0.0164021
677.893	0.0162537
677.971	0.0164309
678.049	0.0164712
678.128	0.0163598
678.206	0.0164783
678.284	0.0164769
678.362	0.0163754
678.440	0.0165038
678.518	0.0165823
678.596	0.0163911
678.674	0.0163927
678.753	0.0166422
678.831	0.0164539
678.909	0.0165010
678.987	0.0165253
679.065	0.0164847
679.143	0.0165749
679.221	0.0163992
679.299	0.0165034
679.378	0.0164063
679.456	0.0164802
679.534	0.0165464
679.612	0.0164119
679.690	0.0162936
679.768	0.0163528
679.846	0.0164778
679.924	0.0164395
680.003	0.0163371
680.081	0.0164063
680.159	0.0163350
680.237	0.0164984
680.315	0.0165765
680.393	0.0164516
680.471	0.0165208
680.549	0.0164376
680.628	0.0165467
680.706	0.0165574
680.784	0.0165012
680.862	0.0165002
680.940	0.0164131
681.018	0.0164121
681.096	0.0164735
681.174	0.0163392
681.253	0.0164790
681.331	0.0164732
681.409	0.0163701
681.487	0.0164194
681.565	0.0164405
681.643	0.0163948
681.721	0.0164562
681.799	0.0164494
681.878	0.0166578
681.956	0.0163963
682.034	0.0165557
682.112	0.0164909
682.190	0.0164771
682.268	0.0164035
682.346	0.0164187
682.424	0.0164377
682.503	0.0164917
682.581	0.0163895
682.659	0.0162992
682.737	0.0165411
682.815	0.0164817
682.893	0.0163577
682.971	0.0163656
683.049	0.0164894
683.128	0.0163712
683.206	0.0164011
683.284	0.0164545
683.362	0.0163603
683.440	0.0164583
683.518	0.0164540
683.596	0.0164092
683.674	0.0163454
683.753	0.0165461
683.831	0.0165154
683.909	0.0165173
683.987	0.0164910
684.065	0.0164491
684.143	0.0165437
684.221	0.0163826
684.299	0.0164940
684.378	0.0164211
684.456	0.0163879
684.534	0.0163406
684.612	0.0163703
684.690	0.0164756
684.768	0.0165091
684.846	0.0163628
684.924	0.0162399
685.003	0.0163668
685.081	0.0165227
685.159	0.0164110
685.237	0.0165463
685.315	0.0165228
685.393	0.0166083
685.471	0.0164261
685.549	0.0166194
685.628	0.0165149
685.706	0.0165260
685.784	0.0164397
685.862	0.0164290
685.940	0.0164633
686.018	0.0165034
686.096	0.0163755
686.174	0.0163989
686.253	0.0163174
686.331	0.0162627
686.409	0.0164168
686.487	0.0164123
686.565	0.0162846
686.643	0.0162885
686.721	0.0163416
686.799	0.0163815
686.878	0.0162563
686.956	0.0164562
687.034	0.0164684
687.112	0.0164083
687.190	0.0164597
687.268	0.0163717
687.346	0.0164008
687.424	0.0163796
687.503	0.0164281
687.581	0.0165845
687.659	0.0165102
687.737	0.0164857
687.815	0.0164291
687.893	0.0163694
687.971	0.0163836
688.049	0.0164274
688.128	0.0163210
688.206	0.0164545
688.284	0.0164169
688.362	0.0164448
688.440	0.0163234
688.518	0.0164510
688.596	0.0163137
688.674	0.0164280
688.753	0.0165562
688.831	0.0164835
688.909	0.0164941
688.987	0.0164338
689.065	0.0163873
689.143	0.0164449
689.221	0.0165364
689.299	0.0164441
689.378	0.0164604
689.456	0.0165890
689.534	0.0164742
689.612	0.0165501
689.690	0.0164597
689.768	0.0165182
689.846	0.0164117
689.924	0.0164513
690.003	0.0163338
690.081	0.0163207
690.159	0.0163995
690.237	0.0162022
690.315	0.0165354
690.393	0.0164857
690.471	0.0163563
690.549	0.0164398
690.628	0.0163604
690.706	0.0165046
690.784	0.0165666
690.862	0.0164899
690.940	0.0165768
691.018	0.0165472
691.096	0.0165630
691.174	0.0165382
691.253	0.0165689
691.331	0.0165405
691.409	0.0164934
691.487	0.0165067
691.565	0.0164879
691.643	0.0164634
691.721	0.0165467
691.799	0.0163177
691.878	0.0163514
691.956	0.0166499
692.034	0.0165077
692.112	0.0163654
692.190	0.0163937
692.268	0.0164475
692.346	0.0165381
692.424	0.0165086
692.503	0.0166063
692.581	0.0165661
692.659	0.0166476
692.737	0.0164948
692.815	0.0164656
692.893	0.0166005
692.971	0.0166696
693.049	0.0166234
693.128	0.0164425
693.206	0.0164076
693.284	0.0164411
693.362	0.0165565
693.440	0.0164770
693.518	0.0163567
693.596	0.0163606
693.674	0.0165150
693.753	0.0164943
693.831	0.0163404
693.909	0.0164169
693.987	0.0164903
694.065	0.0164314
694.143	0.0163134
694.221	0.0165157
694.299	0.0163714
694.378	0.0163821
694.456	0.0164433
694.534	0.0164994
694.612	0.0163383
694.690	0.0164872
694.768	0.0164516
694.846	0.0163626
694.924	0.0164954
695.003	0.0164146
695.081	0.0164626
695.159	0.0163538
695.237	0.0163943
695.315	0.0164394
695.393	0.0164257
695.471	0.0163064
695.549	0.0163591
695.628	0.0163746
695.706	0.0164263
695.784	0.0166586
695.862	0.0163828
695.940	0.0163129
696.018	0.0165209
696.096	0.0164872
696.174	0.0164037
696.253	0.0164588
696.331	0.0165779
696.409	0.0166595
696.487	0.0163528
696.565	0.0164539
696.643	0.0163601
696.721	0.0163814
696.799	0.0164645
696.878	0.0164471
696.956	0.0163989
697.034	0.0163577
697.112	0.0164919
697.190	0.0164356
697.268	0.0164069
697.346	0.0165292
697.424	0.0164376
697.503	0.0164068
697.581	0.0163620
697.659	0.0164028
697.737	0.0164040
697.815	0.0164285
697.893	0.0164404
697.971	0.0164803
698.049	0.0166158
698.128	0.0164639
698.206	0.0165347
698.284	0.0164410
698.362	0.0163420
698.440	0.0165502
698.518	0.0165508
698.596	0.0164663
698.674	0.0164582
698.753	0.0165697
698.831	0.0164352
698.909	0.0163889
698.987	0.0164236
699.065	0.0165076
699.143	0.0164565
699.221	0.0163631
699.299	0.0163487
699.378	0.0163965
699.456	0.0163209
699.534	0.0162160
699.612	0.0162647
699.690	0.0163214
699.768	0.0163563
699.846	0.0162412
699.924	0.0162799
700.003	0.0161977
700.081	0.0162487
700.159	0.0162504
700.237	0.0162868
700.315	0.0162321
700.393	0.0163573
700.471	0.0163918
700.549	0.0162440
700.628	0.0163109
700.706	0.0161274
700.784	0.0163441
700.862	0.0164574
700.940	0.0164483
701.018	0.0165121
701.096	0.0163630
701.174	0.0163982
701.253	0.0164520
701.331	0.0165139
701.409	0.0164679
701.487	0.0163097
701.565	0.0164863
701.643	0.0163914
701.721	0.0164629
701.799	0.0163681
701.878	0.0163837
701.956	0.0164359
702.034	0.0164966
702.112	0.0164233
702.190	0.0163882
702.268	0.0162077
702.346	0.0163838
702.424	0.0163085
702.503	0.0161543
702.581	0.0160704
702.659	0.0162330
702.737	0.0162405
702.815	0.0162677
702.893	0.0162159
702.971	0.0160684
703.049	0.0161543
703.128	0.0161763
703.206	0.0161129
703.284	0.0161927
703.362	0.0161521
703.440	0.0163015
703.518	0.0164198
703.596	0.0163913
703.674	0.0163611
703.753	0.0161126
703.831	0.0164365
703.909	0.0164768
703.987	0.0164264
704.065	0.0165615
704.143	0.0165711
704.221	0.0166467
704.299	0.0166345
704.378	0.0164465
704.456	0.0163921
704.534	0.0165016
704.612	0.0165237
704.690	0.0165922
704.768	0.0164951
704.846	0.0164883
704.924	0.0164998
705.003	0.0163618
705.081	0.0164773
705.159	0.0163738
705.237	0.0162906
705.315	0.0162621
705.393	0.0162288
705.471	0.0162770
705.549	0.0163046
705.628	0.0162756
705.706	0.0162063
705.784	0.0163559
705.862	0.0162981
705.940	0.0163021
706.018	0.0163290
706.096	0.0163406
706.174	0.0164089
706.253	0.0166019
706.331	0.0165840
706.409	0.0164143
706.487	0.0164334
706.565	0.0165575
706.643	0.0166556
706.721	0.0164906
706.799	0.0164342
706.878	0.0164385
706.956	0.0165760
707.034	0.0164585
707.112	0.0163120
707.190	0.0165298
707.268	0.0164246
707.346	0.0164905
707.424	0.0163186
707.503	0.0162890
707.581	0.0163716
707.659	0.0164051
707.737	0.0163497
707.815	0.0163970
707.893	0.0163924
707.971	0.0163036
708.049	0.0163524
708.128	0.0163872
708.206	0.0163617
708.284	0.0162850
708.362	0.0162294
708.440	0.0164970
708.518	0.0164446
708.596	0.0164028
708.674	0.0164126
708.753	0.0164840
708.831	0.0164622
708.909	0.0164707
708.987	0.0164954
709.065	0.0164828
709.143	0.0164810
709.221	0.0163571
709.299	0.0162803
709.378	0.0164256
709.456	0.0164987
709.534	0.0164465
709.612	0.0162904
709.690	0.0164085
709.768	0.0164364
709.846	0.0163756
709.924	0.0164484
710.003	0.0165031
710.081	0.0165318
710.159	0.0162965
710.237	0.0163802
710.315	0.0164073
710.393	0.0164114
710.471	0.0163119
710.549	0.0163620
710.628	0.0163718
710.706	0.0163969
710.784	0.0162776
710.862	0.0163660
710.940	0.0163617
711.018	0.0164216
711.096	0.0165090
711.174	0.0164342
711.253	0.0165209
711.331	0.0165699
711.409	0.0163496
711.487	0.0164112
711.565	0.0165488
711.643	0.0165188
711.721	0.0164414
711.799	0.0163976
711.878	0.0164433
711.956	0.0164389
712.034	0.0164339
712.112	0.0163791
712.190	0.0163194
712.268	0.0162601
712.346	0.0161757
712.424	0.0163528
712.503	0.0163487
712.581	0.0163138
712.659	0.0162619
712.737	0.0161710
712.815	0.0163289
712.893	0.0163034
712.971	0.0165357
713.049	0.0162955
713.128	0.0164770
713.206	0.0164352
713.284	0.0164227
713.362	0.0164786
713.440	0.0164888
713.518	0.0165051
713.596	0.0166373
713.674	0.0165942
713.753	0.0164478
713.831	0.0165260
713.909	0.0165077
713.987	0.0164918
714.065	0.0163896
714.143	0.0165267
714.221	0.0165253
714.299	0.0164463
714.378	0.0164360
714.456	0.0163570
714.534	0.0165164
714.612	0.0164494
714.690	0.0164587
714.768	0.0166312
714.846	0.0164922
714.924	0.0165781
715.003	0.0164403
715.081	0.0166124
715.159	0.0164767
715.237	0.0163780
715.315	0.0163894
715.393	0.0163575
715.471	0.0164490
715.549	0.0162534
715.628	0.0163032
715.706	0.0162045
715.784	0.0161646
715.862	0.0159795
715.940	0.0160342
716.018	0.0159923
716.096	0.0159333
716.174	0.0159246
716.253	0.0159581
716.331	0.0160455
716.409	0.0160691
716.487	0.0160540
716.565	0.0160217
716.643	0.0161673
716.721	0.0163192
716.799	0.0164262
716.878	0.0163775
716.956	0.0164271
717.034	0.0165385
717.112	0.0166077
717.190	0.0167182
717.268	0.0168125
717.346	0.0168046
717.424	0.0166183
717.503	0.0166437
717.581	0.0166260
717.659	0.0167368
717.737	0.0165154
717.815	0.0166427
717.893	0.0165772
717.971	0.0165855
718.049	0.0164760
718.128	0.0163686
718.206	0.0162878
718.284	0.0163517
718.362	0.0162499
718.440	0.0160882
718.518	0.0161935
718.596	0.0162054
718.674	0.0161944
718.753	0.0160447
718.831	0.0160339
718.909	0.0161151
718.987	0.0159714
719.065	0.0160305
719.143	0.0161152
719.221	0.0161619
719.299	0.0160564
719.378	0.0162448
719.456	0.0163911
719.534	0.0163612
719.612	0.0164679
719.690	0.0165589
719.768	0.0165488
719.846	0.0166669
719.924	0.0166837
720.003	0.0167548
720.081	0.0168793
720.159	0.0167317
720.237	0.0169062
720.315	0.0168155
720.393	0.0167916
720.471	0.0167574
720.549	0.0166718
720.628	0.0167541
720.706	0.0166450
720.784	0.0164934
720.862	0.0164619
720.940	0.0162292
721.018	0.0161800
721.096	0.0162502
721.174	0.0161813
721.253	0.0159692
721.331	0.0161876
721.409	0.0160316
721.487	0.0160876
721.565	0.0161419
721.643	0.0161231
721.721	0.0161378
721.799	0.0160296
721.878	0.0160842
721.956	0.0162264
722.034	0.0161608
722.112	0.0160405
722.190	0.0161724
722.268	0.0160927
722.346	0.0159566
722.424	0.0161999
722.503	0.0162080
722.581	0.0161884
722.659	0.0160629
722.737	0.0161166
722.815	0.0162263
722.893	0.0160923
722.971	0.0160249
723.049	0.0163870
723.128	0.0163585
723.206	0.0163689
723.284	0.0163571
723.362	0.0164499
723.440	0.0165092
723.518	0.0166532
723.596	0.0167609
723.674	0.0169819
723.753	0.0169369
723.831	0.0169167
723.909	0.0171053
723.987	0.0170750
724.065	0.0172318
724.143	0.0171844
724.221	0.0172401
724.299	0.0171353
724.378	0.0171677
724.456	0.0171988
724.534	0.0169460
724.612	0.0168898
724.690	0.0167625
724.768	0.0167627
724.846	0.0166041
724.924	0.0165044
725.003	0.0166015
725.081	0.0163599
725.159	0.0160991
725.237	0.0159622
725.315	0.0159648
725.393	0.0158143
725.471	0.0154788
725.549	0.0155463
725.628	0.0154908
725.706	0.0152451
725.784	0.0153073
725.862	0.0152770
725.940	0.0151476
726.018	0.0150830
726.096	0.0150959
726.174	0.0150877
726.253	0.0151676
726.331	0.0152181
726.409	0.0152531
726.487	0.0153795
726.565	0.0155130
726.643	0.0156345
726.721	0.0157272
726.799	0.0157642
726.878	0.0162583
726.956	0.0163750
727.034	0.0164086
727.112	0.0166319
727.190	0.0169252
727.268	0.0171500
727.346	0.0171945
727.424	0.0174541
727.503	0.0174829
727.581	0.0178104
727.659	0.0176827
727.737	0.0177119
727.815	0.0179068
727.893	0.0178481
727.971	0.0177167
728.049	0.0176122
728.128	0.0176298
728.206	0.0173547
728.284	0.0171579
728.362	0.0171030
728.440	0.0167775
728.518	0.0167098
728.596	0.0164945
728.674	0.0162357
728.753	0.0159579
728.831	0.0158485
728.909	0.0156910
728.987	0.0154247
729.065	0.0155784
729.143	0.0153336
729.221	0.0154319
729.299	0.0156302
729.378	0.0156030
729.456	0.0155602
729.534	0.0157377
729.612	0.0158592
729.690	0.0160272
729.768	0.0159112
729.846	0.0160102
729.924	0.0162049
730.003	0.0163219
730.081	0.0162424
730.159	0.0162222
730.237	0.0162498
730.315	0.0163005
730.393	0.0161879
730.471	0.0161388
730.549	0.0160851
730.628	0.0160983
730.706	0.0161040
730.784	0.0161353
730.862	0.0161631
730.940	0.0162144
731.018	0.0163224
731.096	0.0162646
731.174	0.0162504
731.253	0.0164324
731.331	0.0165897
731.409	0.0167936
731.487	0.0168467
731.565	0.0168580
731.643	0.0168933
731.721	0.0170649
731.799	0.0171281
731.878	0.0170374
731.956	0.0171494
732.034	0.0172016
732.112	0.0170699
732.190	0.0169747
732.268	0.0168906
732.346	0.0169815
732.424	0.0167739
732.503	0.0168042
732.581	0.0167250
732.659	0.0165301
732.737	0.0164372
732.815	0.0165425
732.893	0.0164378
732.971	0.0164265
733.049	0.0162914
733.128	0.0162772
733.206	0.0160981
733.284	0.0161722
733.362	0.0162357
733.440	0.0162138
733.518	0.0162110
733.596	0.0161442
733.674	0.0162123
733.753	0.0161944
733.831	0.0161797
733.909	0.0160386
733.987	0.0162035
734.065	0.0162878
734.143	0.0161625
734.221	0.0162028
734.299	0.0162321
734.378	0.0163219
734.456	0.0163519
734.534	0.0162579
734.612	0.0164004
734.690	0.0164079
734.768	0.0163277
734.846	0.0164113
734.924	0.0163480
735.003	0.0164542
735.081	0.0164582
735.159	0.0166088
735.237	0.0164902
735.315	0.0165613
735.393	0.0166497
735.471	0.0166991
735.549	0.0167865
735.628	0.0166934
735.706	0.0166126
735.784	0.0167814
735.862	0.0170377
735.940	0.0169046
736.018	0.0168307
736.096	0.0170499
736.174	0.0169181
736.253	0.0168928
736.331	0.0169722
736.409	0.0168607
736.487	0.0167537
736.565	0.0167073
736.643	0.0167184
736.721	0.0165604
736.799	0.0164713
736.878	0.0164474
736.956	0.0164157
737.034	0.0161730
737.112	0.0161687
737.190	0.0161514
737.268	0.0162731
737.346	0.0160231
737.424	0.0162325
737.503	0.0161126
737.581	0.0161594
737.659	0.0162689
737.737	0.0162056
737.815	0.0162376
737.893	0.0161853
737.971	0.0162175
738.049	0.0162318
738.128	0.0162653
738.206	0.0165601
738.284	0.0165042
738.362	0.0164016
738.440	0.0164659
738.518	0.0164898
738.596	0.0164938
738.674	0.0163706
738.753	0.0163279
738.831	0.0165519
738.909	0.0163743
738.987	0.0163483
739.065	0.0164684
739.143	0.0163767
739.221	0.0163770
739.299	0.0162918
739.378	0.0165053
739.456	0.0165194
739.534	0.0166145
739.612	0.0166506
739.690	0.0166082
739.768	0.0165714
739.846	0.0165540
739.924	0.0165545
740.003	0.0165607
740.081	0.0166454
740.159	0.0166438
740.237	0.0166312
740.315	0.0165910
740.393	0.0165783
740.471	0.0166000
740.549	0.0167313
740.628	0.0166140
740.706	0.0167960
740.784	0.0167711
740.862	0.0166727
740.940	0.0167511
741.018	0.0168661
741.096	0.0168027
741.174	0.0169433
741.253	0.0168535
741.331	0.0170493
741.409	0.0169769
741.487	0.0170733
741.565	0.0169565
741.643	0.0169678
741.721	0.0168863
741.799	0.0169263
741.878	0.0169042
741.956	0.0168651
742.034	0.0167539
742.112	0.0165523
742.190	0.0165279
742.268	0.0166884
742.346	0.0163699
742.424	0.0163954
742.503	0.0164664
742.581	0.0164377
742.659	0.0162106
742.737	0.0163324
742.815	0.0160938
742.893	0.0160210
742.971	0.0160656
743.049	0.0158945
743.128	0.0157861
743.206	0.0157811
743.284	0.0157079
743.362	0.0156918
743.440	0.0155471
743.518	0.0155412
743.596	0.0157017
743.674	0.0157606
743.753	0.0157345
743.831	0.0159647
743.909	0.0160073
743.987	0.0160436
744.065	0.0160378
744.143	0.0163126
744.221	0.0164104
744.299	0.0164362
744.378	0.0164228
744.456	0.0167010
744.534	0.0165337
744.612	0.0166783
744.690	0.0166343
744.768	0.0168686
744.846	0.0167188
744.924	0.0166076
745.003	0.0165469
745.081	0.0163826
745.159	0.0165781
745.237	0.0164406
745.315	0.0165141
745.393	0.0164439
745.471	0.0165736
745.549	0.0166463
745.628	0.0167139
745.706	0.0166555
745.784	0.0169672
745.862	0.0170289
745.940	0.0170313
746.018	0.0173640
746.096	0.0173067
746.174	0.0173698
746.253	0.0174434
746.331	0.0174920
746.409	0.0175450
746.487	0.0174149
746.565	0.0173012
746.643	0.0171533
746.721	0.0170290
746.799	0.0169970
746.878	0.0168506
746.956	0.0165865
747.034	0.0161878
747.112	0.0160493
747.190	0.0159578
747.268	0.0158443
747.346	0.0156394
747.424	0.0154240
747.503	0.0153134
747.581	0.0152774
747.659	0.0150976
747.737	0.0151102
747.815	0.0149850
747.893	0.0150256
747.971	0.0150089
748.049	0.0151117
748.128	0.0152537
748.206	0.0152498
748.284	0.0154762
748.362	0.0156216
748.440	0.0157966
748.518	0.0159077
748.596	0.0160696
748.674	0.0161774
748.753	0.0163519
748.831	0.0163776
748.909	0.0164346
748.987	0.0165688
749.065	0.0167179
749.143	0.0167897
749.221	0.0167606
749.299	0.0168929
749.378	0.0168803
749.456	0.0168034
749.534	0.0167978
749.612	0.0167769
749.690	0.0167666
749.768	0.0168069
749.846	0.0168507
749.924	0.0167262
750.003	0.0166873
750.081	0.0166393
750.159	0.0166608
750.237	0.0166167
750.315	0.0166280
750.393	0.0166405
750.471	0.0168143
750.549	0.0167696
750.628	0.0166805
750.706	0.0167576
750.784	0.0166318
750.862	0.0165673
750.940	0.0167314
751.018	0.0164722
751.096	0.0165753
751.174	0.0164188
751.253	0.0164192
751.331	0.0165287
751.409	0.0165923
751.487	0.0163491
751.565	0.0163866
751.643	0.0164758
751.721	0.0164520
751.799	0.0163956
751.878	0.0164268
751.956	0.0164718
752.034	0.0164780
752.112	0.0165431
752.190	0.0163900
752.268	0.0164024
752.346	0.0163905
752.424	0.0163181
752.503	0.0163495
752.581	0.0162722
752.659	0.0162384
752.737	0.0161198
752.815	0.0160841
752.893	0.0161774
752.971	0.0159657
753.049	0.0159471
753.128	0.0160666
753.206	0.0159936
753.284	0.0160669
753.362	0.0160451
753.440	0.0160508
753.518	0.0161608
753.596	0.0163148
753.674	0.0161604
753.753	0.0162482
753.831	0.0162634
753.909	0.0164801
753.987	0.0165012
754.065	0.0164209
754.143	0.0164336
754.221	0.0165322
754.299	0.0164762
754.378	0.0165688
754.456	0.0165199
754.534	0.0165480
754.612	0.0165481
754.690	0.0165263
754.768	0.0167136
754.846	0.0166018
754.924	0.0164614
755.003	0.0165751
755.081	0.0166212
755.159	0.0164830
755.237	0.0166877
755.315	0.0165975
755.393	0.0165995
755.471	0.0166856
755.549	0.0165741
755.628	0.0165962
755.706	0.0165139
755.784	0.0166331
755.862	0.0167284
755.940	0.0165435
756.018	0.0165768
756.096	0.0166015
756.174	0.0165391
756.253	0.0167433
756.331	0.0167296
756.409	0.0167302
756.487	0.0166788
756.565	0.0167253
756.643	0.0167208
756.721	0.0167406
756.799	0.0167915
756.878	0.0167844
756.956	0.0167445
757.034	0.0167808
757.112	0.0168417
757.190	0.0167601
757.268	0.0169977
757.346	0.0169866
757.424	0.0169380
757.503	0.0168390
757.581	0.0169730
757.659	0.0169692
757.737	0.0167883
757.815	0.0167467
757.893	0.0167287
757.971	0.0166496
758.049	0.0164899
758.128	0.0164272
758.206	0.0161826
758.284	0.0161494
758.362	0.0159797
758.440	0.0158672
758.518	0.0159003
758.596	0.0158010
758.674	0.0158241
758.753	0.0157519
758.831	0.0157077
758.909	0.0157962
758.987	0.0158846
759.065	0.0158051
759.143	0.0159176
759.221	0.0160672
759.299	0.0161926
759.378	0.0162856
759.456	0.0163857
759.534	0.0165768
759.612	0.0167393
759.690	0.0168018
759.768	0.0167593
759.846	0.0168358
759.924	0.0169054
760.003	0.0169930
760.081	0.0169693
760.159	0.0168649
760.237	0.0168369
760.315	0.0167169
760.393	0.0168404
760.471	0.0167557
760.549	0.0167381
760.628	0.0167986
760.706	0.0167202
760.784	0.0166665
760.862	0.0166445
760.940	0.0166875
761.018	0.0167007
761.096	0.0165862
761.174	0.0166827
761.253	0.0166236
761.331	0.0166915
761.409	0.0167351
761.487	0.0166553
761.565	0.0167809
761.643	0.0167850
761.721	0.0168365
761.799	0.0166891
761.878	0.0167196
761.956	0.0166228
762.034	0.0166095
762.112	0.0164948
762.190	0.0165481
762.268	0.0165252
762.346	0.0164685
762.424	0.0164042
762.503	0.0163711
762.581	0.0162173
762.659	0.0161412
762.737	0.0164220
762.815	0.0161648
762.893	0.0162417
762.971	0.0163590
763.049	0.0163723
763.128	0.0165155
763.206	0.0164695
763.284	0.0165813
763.362	0.0165765
763.440	0.0165276
763.518	0.0165505
763.596	0.0166580
763.674	0.0166129
763.753	0.0165546
763.831	0.0165179
763.909	0.0165068
763.987	0.0164478
764.065	0.0163892
764.143	0.0164005
764.221	0.0162649
764.299	0.0159824
764.378	0.0160107
764.456	0.0161272
764.534	0.0159566
764.612	0.0159523
764.690	0.0159849
764.768	0.0160912
764.846	0.0161547
764.924	0.0160643
765.003	0.0160273
765.081	0.0163333
765.159	0.0163026
765.237	0.0163119
765.315	0.0164984
765.393	0.0167149
765.471	0.0167794
765.549	0.0167063
765.628	0.0166685
765.706	0.0166147
765.784	0.0167525
765.862	0.0166134
765.940	0.0166299
766.018	0.0166618
766.096	0.0165602
766.174	0.0164038
766.253	0.0164135
766.331	0.0164294
766.409	0.0163802
766.487	0.0164823
766.565	0.0164435
766.643	0.0165287
766.721	0.0167226
766.799	0.0166801
766.878	0.0167477
766.956	0.0168602
767.034	0.0167771
767.112	0.0169694
767.190	0.0171718
767.268	0.0170173
767.346	0.0168584
767.424	0.0170071
767.503	0.0170805
767.581	0.0169913
767.659	0.0169530
767.737	0.0169543
767.815	0.0168641
767.893	0.0166256
767.971	0.0165815
768.049	0.0163873
768.128	0.0163982
768.206	0.0162459
768.284	0.0161409
768.362	0.0158500
768.440	0.0158926
768.518	0.0156210
768.596	0.0156032
768.674	0.0156768
768.753	0.0156741
768.831	0.0156679
768.909	0.0157488
768.987	0.0156980
769.065	0.0158165
769.143	0.0159760
769.221	0.0159991
769.299	0.0162033
769.378	0.0162494
769.456	0.0163817
769.534	0.0164042
769.612	0.0164869
769.690	0.0166113
769.768	0.0165220
769.846	0.0163474
769.924	0.0165020
770.003	0.0163702
770.081	0.0164178
770.159	0.0162459
770.237	0.0161933
770.315	0.0161095
770.393	0.0160677
770.471	0.0161909
770.549	0.0160255
770.628	0.0161211
770.706	0.0162086
770.784	0.0161477
770.862	0.0162762
770.940	0.0162794
771.018	0.0162142
771.096	0.0163145
771.174	0.0164688
771.253	0.0165513
771.331	0.0164426
771.409	0.0166179
771.487	0.0166061
771.565	0.0167543
771.643	0.0167326
771.721	0.0166260
771.799	0.0166316
771.878	0.0166015
771.956	0.0165669
772.034	0.0164490
772.112	0.0165814
772.190	0.0165690
772.268	0.0164358
772.346	0.0165000
772.424	0.0164621
772.503	0.0165445
772.581	0.0164951
772.659	0.0165089
772.737	0.0165275
772.815	0.0166745
772.893	0.0167132
772.971	0.0166162
773.049	0.0167069
773.128	0.0169175
773.206	0.0168235
773.284	0.0167336
773.362	0.0166013
773.440	0.0167409
773.518	0.0165840
773.596	0.0167303
773.674	0.0165491
773.753	0.0165102
773.831	0.0164156
773.909	0.0164367
773.987	0.0162926
774.065	0.0163868
774.143	0.0162828
774.221	0.0161362
774.299	0.0160789
774.378	0.0160755
774.456	0.0160427
774.534	0.0160777
774.612	0.0159874
774.690	0.0161205
774.768	0.0160857
774.846	0.0161477
774.924	0.0161605
775.003	0.0162646
775.081	0.0163367
775.159	0.0163245
775.237	0.0164388
775.315	0.0165734
775.393	0.0165089
775.471	0.0164216
775.549	0.0164079
775.628	0.0165178
775.706	0.0165307
775.784	0.0164863
775.862	0.0163927
775.940	0.0165096
776.018	0.0163747
776.096	0.0164032
776.174	0.0163498
776.253	0.0163342
776.331	0.0161948
776.409	0.0160811
776.487	0.0160958
776.565	0.0162231
776.643	0.0161100
776.721	0.0162350
776.799	0.0162760
776.878	0.0162006
776.956	0.0162986
777.034	0.0163123
777.112	0.0164997
777.190	0.0164652
777.268	0.0166015
777.346	0.0165091
777.424	0.0166453
777.503	0.0166608
777.581	0.0167896
777.659	0.0167789
777.737	0.0168147
777.815	0.0165611
777.893	0.0166319
777.971	0.0166839
778.049	0.0165182
778.128	0.0164851
778.206	0.0165801
778.284	0.0164426
778.362	0.0165966
778.440	0.0165067
778.518	0.0164600
778.596	0.0164130
778.674	0.0165860
778.753	0.0165263
778.831	0.0164614
778.909	0.0162876
778.987	0.0164387
779.065	0.0162788
779.143	0.0163257
779.221	0.0164429
779.299	0.0164404
779.378	0.0163909
779.456	0.0163085
779.534	0.0163366
779.612	0.0164970
779.690	0.0163848
779.768	0.0162900
779.846	0.0163080
779.924	0.0162466
780.003	0.0163766
780.081	0.0163446
780.159	0.0162331
780.237	0.0163818
780.315	0.0164159
780.393	0.0163765
780.471	0.0163850
780.549	0.0164024
780.628	0.0163012
780.706	0.0162860
780.784	0.0164625
780.862	0.0165592
780.940	0.0164613
781.018	0.0165496
781.096	0.0166689
781.174	0.0167000
781.253	0.0166143
781.331	0.0166052
781.409	0.0167097
781.487	0.0166308
781.565	0.0165875
781.643	0.0166639
781.721	0.0165842
781.799	0.0164677
781.878	0.0164940
781.956	0.0165673
782.034	0.0165250
782.112	0.0163634
782.190	0.0164330
782.268	0.0164333
782.346	0.0162848
782.424	0.0161735
782.503	0.0161969
782.581	0.0162137
782.659	0.0162547
782.737	0.0162264
782.815	0.0162154
782.893	0.0161346
782.971	0.0162767
783.049	0.0162700
783.128	0.0162141
783.206	0.0162969
783.284	0.0164384
783.362	0.0163992
783.440	0.0164722
783.518	0.0165395
783.596	0.0164247
783.674	0.0164663
783.753	0.0166366
783.831	0.0165791
783.909	0.0166963
783.987	0.0166206
784.065	0.0167188
784.143	0.0166625
784.221	0.0167263
784.299	0.0166936
784.378	0.0167977
784.456	0.0167194
784.534	0.0167603
784.612	0.0167069
784.690	0.0167175
784.768	0.0168431
784.846	0.0166843
784.924	0.0167358
785.003	0.0167170
785.081	0.0166967
785.159	0.0166716
785.237	0.0166978
785.315	0.0166074
785.393	0.0166458
785.471	0.0167012
785.549	0.0165358
785.628	0.0166219
785.706	0.0165178
785.784	0.0165543
785.862	0.0164462
785.940	0.0165350
786.018	0.0164187
786.096	0.0163356
786.174	0.0163109
786.253	0.0163991
786.331	0.0162596
786.409	0.0162823
786.487	0.0162074
786.565	0.0161486
786.643	0.0160605
786.721	0.0160135
786.799	0.0159724
786.878	0.0159222
786.956	0.0159649
787.034	0.0159680
787.112	0.0161117
787.190	0.0161068
787.268	0.0160591
787.346	0.0162635
787.424	0.0163750
787.503	0.0163512
787.581	0.0165916
787.659	0.0165333
787.737	0.0167354
787.815	0.0167635
787.893	0.0166763
787.971	0.0167178
788.049	0.0167570
788.128	0.0167148
788.206	0.0167614
788.284	0.0167831
788.362	0.0167028
788.440	0.0166592
788.518	0.0165482
788.596	0.0165016
788.674	0.0164651
788.753	0.0163217
788.831	0.0163441
788.909	0.0163379
788.987	0.0163122
789.065	0.0162590
789.143	0.0160567
789.221	0.0162131
789.299	0.0161483
789.378	0.0161768
789.456	0.0162871
789.534	0.0163408
789.612	0.0163239
789.690	0.0165011
789.768	0.0164124
789.846	0.0163150
789.924	0.0163172
790.003	0.0163390
790.081	0.0164558
790.159	0.0164528
790.237	0.0163049
790.315	0.0164409
790.393	0.0163636
790.471	0.0163876
790.549	0.0165623
790.628	0.0165429
790.706	0.0164700
790.784	0.0165092
790.862	0.0164082
790.940	0.0164698
791.018	0.0164887
791.096	0.0164600
791.174	0.0165520
791.253	0.0165813
791.331	0.0165248
791.409	0.0166129
791.487	0.0166361
791.565	0.0166489
791.643	0.0166760
791.721	0.0167255
791.799	0.0166752
791.878	0.0165817
791.956	0.0165619
792.034	0.0165028
792.112	0.0164365
792.190	0.0166024
792.268	0.0163116
792.346	0.0163374
792.424	0.0164100
792.503	0.0161949
792.581	0.0162814
792.659	0.0160487
792.737	0.0161144
792.815	0.0161703
792.893	0.0161375
792.971	0.0160228
793.049	0.0161594
793.128	0.0162001
793.206	0.0162902
793.284	0.0163345
793.362	0.0162315
793.440	0.0162942
793.518	0.0163466
793.596	0.0163818
793.674	0.0165515
793.753	0.0166148
793.831	0.0166393
793.909	0.0166589
793.987	0.0166734
794.065	0.0166122
794.143	0.0165305
794.221	0.0166985
794.299	0.0166918
794.378	0.0166099
794.456	0.0164458
794.534	0.0163422
794.612	0.0163768
794.690	0.0164724
794.768	0.0164873
794.846	0.0163121
794.924	0.0163209
795.003	0.0162458
795.081	0.0160758
795.159	0.0161142
795.237	0.0161676
795.315	0.0161797
795.393	0.0162527
795.471	0.0162881
795.549	0.0162813
795.628	0.0162382
795.706	0.0163538
795.784	0.0164120
795.862	0.0164584
795.940	0.0163952
796.018	0.0164344
796.096	0.0162922
796.174	0.0165125
796.253	0.0163757
796.331	0.0163988
796.409	0.0165056
796.487	0.0163242
796.565	0.0164298
796.643	0.0164335
796.721	0.0163823
796.799	0.0163809
796.878	0.0162644
796.956	0.0164239
797.034	0.0164731
797.112	0.0164053
797.190	0.0164806
797.268	0.0164178
797.346	0.0163895
797.424	0.0163453
797.503	0.0164985
797.581	0.0166313
797.659	0.0165661
797.737	0.0163954
797.815	0.0166518
797.893	0.0165469
797.971	0.0164555
798.049	0.0164238
798.128	0.0164655
798.206	0.0164964
798.284	0.0164173
798.362	0.0163522
798.440	0.0163803
798.518	0.0163268
798.596	0.0162805
798.674	0.0162695
798.753	0.0161203
798.831	0.0161588
798.909	0.0163006
798.987	0.0162889
799.065	0.0163815
799.143	0.0161421
799.221	0.0161921
799.299	0.0163600
799.378	0.0163403
799.456	0.0164282
799.534	0.0162852
799.612	0.0162715
799.690	0.0163292
799.768	0.0162955
799.846	0.0163001
799.924	0.0162996
800.003	0.0164262
800.081	0.0163947
800.159	0.0165204
800.237	0.0164301
800.315	0.0164448
800.393	0.0163957
800.471	0.0165334
800.549	0.0164632
800.628	0.0163931
800.706	0.0163259
800.784	0.0163583
800.862	0.0164238
800.940	0.0163054
801.018	0.0163130
801.096	0.0164520
801.174	0.0164108
801.253	0.0163533
801.331	0.0163062
801.409	0.0164319
801.487	0.0162995
801.565	0.0163055
801.643	0.0162193
801.721	0.0162886
801.799	0.0164182
801.878	0.0164198
801.956	0.0162836
802.034	0.0163954
802.112	0.0163504
802.190	0.0162357
802.268	0.0164063
802.346	0.0163223
802.424	0.0162684
802.503	0.0161919
802.581	0.0162325
802.659	0.0162428
802.737	0.0161869
802.815	0.0161361
802.893	0.0161286
802.971	0.0161673
803.049	0.0161585
803.128	0.0160994
803.206	0.0160693
803.284	0.0160349
803.362	0.0161601
803.440	0.0162026
803.518	0.0163103
803.596	0.0161237
803.674	0.0162098
803.753	0.0162424
803.831	0.0161880
803.909	0.0163293
803.987	0.0164063
804.065	0.0162253
804.143	0.0163249
804.221	0.0163534
804.299	0.0163230
804.378	0.0164803
804.456	0.0163774
804.534	0.0163840
804.612	0.0165652
804.690	0.0163860
804.768	0.0163165
804.846	0.0164498
804.924	0.0164936
805.003	0.0164632
805.081	0.0162602
805.159	0.0163720
805.237	0.0165226
805.315	0.0164036
805.393	0.0163440
805.471	0.0162928
805.549	0.0163175
805.628	0.0162022
805.706	0.0162570
805.784	0.0162339
805.862	0.0162660
805.940	0.0163470
806.018	0.0162625
806.096	0.0161448
806.174	0.0162326
806.253	0.0163535
806.331	0.0162871
806.409	0.0163769
806.487	0.0163197
806.565	0.0162888
806.643	0.0164420
806.721	0.0164221
806.799	0.0164566
806.878	0.0165419
806.956	0.0164571
807.034	0.0164154
807.112	0.0164234
807.190	0.0164709
807.268	0.0165147
807.346	0.0165554
807.424	0.0165005
807.503	0.0164977
807.581	0.0165594
807.659	0.0163321
807.737	0.0164558
807.815	0.0163634
807.893	0.0164090
807.971	0.0163553
808.049	0.0163068
808.128	0.0163905
808.206	0.0164659
808.284	0.0163581
808.362	0.0163692
808.440	0.0164740
808.518	0.0163528
808.596	0.0162037
808.674	0.0161982
808.753	0.0162759
808.831	0.0163045
808.909	0.0163599
808.987	0.0162591
809.065	0.0161748
809.143	0.0162473
809.221	0.0163502
809.299	0.0161264
809.378	0.0162614
809.456	0.0161134
809.534	0.0162668
809.612	0.0163424
809.690	0.0163275
809.768	0.0162136
809.846	0.0163226
809.924	0.0164593
810.003	0.0164209
810.081	0.0163757
810.159	0.0163675
810.237	0.0164484
810.315	0.0165474
810.393	0.0164021
810.471	0.0163911
810.549	0.0165415
810.628	0.0164126
810.706	0.0165388
810.784	0.0165327
810.862	0.0164557
810.940	0.0164411
811.018	0.0164816
811.096	0.0166086
811.174	0.0166946
811.253	0.0167120
811.331	0.0168083
811.409	0.0166730
811.487	0.0165992
811.565	0.0166672
811.643	0.0165602
811.721	0.0165992
811.799	0.0165661
811.878	0.0165421
811.956	0.0164940
812.034	0.0165240
812.112	0.0164400
812.190	0.0163599
812.268	0.0164957
812.346	0.0162957
812.424	0.0164256
812.503	0.0162950
812.581	0.0163588
812.659	0.0163604
812.737	0.0163079
812.815	0.0161502
812.893	0.0163223
812.971	0.0164002
813.049	0.0162741
813.128	0.0163635
813.206	0.0165000
813.284	0.0163686
813.362	0.0163505
813.440	0.0164122
813.518	0.0164819
813.596	0.0165458
813.674	0.0164203
813.753	0.0165050
813.831	0.0165400
813.909	0.0165018
813.987	0.0165367
814.065	0.0164105
814.143	0.0165198
814.221	0.0164082
814.299	0.0163632
814.378	0.0163705
814.456	0.0163847
814.534	0.0164215
814.612	0.0165428
814.690	0.0164878
814.768	0.0164105
814.846	0.0163528
814.924	0.0163176
815.003	0.0165148
815.081	0.0163220
815.159	0.0163281
815.237	0.0163987
815.315	0.0163716
815.393	0.0164426
815.471	0.0163737
815.549	0.0165199
815.628	0.0163904
815.706	0.0165469
815.784	0.0163659
815.862	0.0164977
815.940	0.0165094
816.018	0.0164954
816.096	0.0163877
816.174	0.0164681
816.253	0.0163903
816.331	0.0164021
816.409	0.0163660
816.487	0.0164528
816.565	0.0165617
816.643	0.0164174
816.721	0.0163342
816.799	0.0163356
816.878	0.0163798
816.956	0.0164289
817.034	0.0164362
817.112	0.0165011
817.190	0.0165359
817.268	0.0165280
817.346	0.0166058
817.424	0.0166068
817.503	0.0166920
817.581	0.0165520
817.659	0.0166817
817.737	0.0167235
817.815	0.0166647
817.893	0.0166836
817.971	0.0166672
818.049	0.0167419
818.128	0.0166093
818.206	0.0166190
818.284	0.0166541
818.362	0.0165170
818.440	0.0164577
818.518	0.0164719
818.596	0.0164320
818.674	0.0163036
818.753	0.0164549
818.831	0.0163451
818.909	0.0163347
818.987	0.0163712
819.065	0.0163379
819.143	0.0163811
819.221	0.0163282
819.299	0.0164199
819.378	0.0164488
819.456	0.0162707
819.534	0.0164142
819.612	0.0164364
819.690	0.0164282
819.768	0.0165797
819.846	0.0165787
819.924	0.0166161
820.003	0.0165690
820.081	0.0165643
820.159	0.0166032
820.237	0.0166486
820.315	0.0166156
820.393	0.0166940
820.471	0.0167509
820.549	0.0166574
820.628	0.0166505
820.706	0.0165954
820.784	0.0165964
820.862	0.0166311
820.940	0.0164375
821.018	0.0166441
821.096	0.0166626
821.174	0.0165431
821.253	0.0166414
821.331	0.0165055
821.409	0.0165401
821.487	0.0163761
821.565	0.0163740
821.643	0.0164627
821.721	0.0165467
821.799	0.0164177
821.878	0.0164789
821.956	0.0163523
822.034	0.0163760
822.112	0.0164007
822.190	0.0161803
822.268	0.0163129
822.346	0.0162150
822.424	0.0162353
822.503	0.0161439
822.581	0.0160977
822.659	0.0162080
822.737	0.0161753
822.815	0.0161276
822.893	0.0161465
822.971	0.0160829
823.049	0.0161754
823.128	0.0161763
823.206	0.0161436
823.284	0.0163078
823.362	0.0163185
823.440	0.0163724
823.518	0.0164809
823.596	0.0165312
823.674	0.0165995
823.753	0.0166159
823.831	0.0165215
823.909	0.0167229
823.987	0.0167078
824.065	0.0169048
824.143	0.0168530
824.221	0.0168784
824.299	0.0168094
824.378	0.0170188
824.456	0.0168214
824.534	0.0170266
824.612	0.0171011
824.690	0.0170213
824.768	0.0169758
824.846	0.0167339
824.924	0.0169312
825.003	0.0167834
825.081	0.0166686
825.159	0.0166164
825.237	0.0166017
825.315	0.0165767
825.393	0.0165235
825.471	0.0164230
825.549	0.0163126
825.628	0.0163145
825.706	0.0163229
825.784	0.0161201
825.862	0.0160858
825.940	0.0161757
826.018	0.0160933
826.096	0.0159621
826.174	0.0159972
826.253	0.0159709
826.331	0.0159541
826.409	0.0160133
826.487	0.0159819
826.565	0.0159507
826.643	0.0159827
826.721	0.0160708
826.799	0.0162838
826.878	0.0162103
826.956	0.0161057
827.034	0.0161128
827.112	0.0162705
827.190	0.0162156
827.268	0.0163080
827.346	0.0162743
827.424	0.0162910
827.503	0.0163213
827.581	0.0162464
827.659	0.0162696
827.737	0.0163808
827.815	0.0162868
827.893	0.0162583
827.971	0.0163426
828.049	0.0164238
828.128	0.0163691
828.206	0.0163474
828.284	0.0164180
828.362	0.0165128
828.440	0.0164296
828.518	0.0164624
828.596	0.0163068
828.674	0.0164360
828.753	0.0166222
828.831	0.0164429
828.909	0.0164659
828.987	0.0163056
829.065	0.0164482
829.143	0.0165629
829.221	0.0164169
829.299	0.0163824
829.378	0.0164481
829.456	0.0163705
829.534	0.0163881
829.612	0.0161135
829.690	0.0163529
829.768	0.0163361
829.846	0.0162381
829.924	0.0161643
830.003	0.0160863
830.081	0.0162200
830.159	0.0162796
830.237	0.0162234
830.315	0.0160639
830.393	0.0162935
830.471	0.0163058
830.549	0.0162848
830.628	0.0163628
830.706	0.0163660
830.784	0.0163737
830.862	0.0164738
830.940	0.0164534
831.018	0.0163902
831.096	0.0165446
831.174	0.0165747
831.253	0.0166773
831.331	0.0164043
831.409	0.0164594
831.487	0.0165304
831.565	0.0164835
831.643	0.0164745
831.721	0.0163839
831.799	0.0163110
831.878	0.0163165
831.956	0.0162478
832.034	0.0162040
832.112	0.0162547
832.190	0.0162769
832.268	0.0162629
832.346	0.0161234
832.424	0.0162899
832.503	0.0162057
832.581	0.0162460
832.659	0.0162607
832.737	0.0162099
832.815	0.0161269
832.893	0.0162485
832.971	0.0161489
833.049	0.0161870
833.128	0.0162498
833.206	0.0162806
833.284	0.0163690
833.362	0.0162862
833.440	0.0162030
833.518	0.0163311
833.596	0.0164425
833.674	0.0163979
833.753	0.0163821
833.831	0.0163516
833.909	0.0163945
833.987	0.0164192
834.065	0.0163583
834.143	0.0163167
834.221	0.0164014
834.299	0.0162733
834.378	0.0163898
834.456	0.0162239
834.534	0.0162599
834.612	0.0163580
834.690	0.0163291
834.768	0.0163412
834.846	0.0164506
834.924	0.0163963
835.003	0.0164710
835.081	0.0163559
835.159	0.0164125
835.237	0.0164580
835.315	0.0164162
835.393	0.0165176
835.471	0.0164069
835.549	0.0165756
835.628	0.0166171
835.706	0.0165438
835.784	0.0165472
835.862	0.0164366
835.940	0.0164520
836.018	0.0165585
836.096	0.0165179
836.174	0.0166206
836.253	0.0165244
836.331	0.0166134
836.409	0.0164892
836.487	0.0164974
836.565	0.0164466
836.643	0.0164848
836.721	0.0165060
836.799	0.0164632
836.878	0.0165609
836.956	0.0164603
837.034	0.0165456
837.112	0.0165130
837.190	0.0164737
837.268	0.0164608
837.346	0.0165633
837.424	0.0167027
837.503	0.0166851
837.581	0.0165211
837.659	0.0166888
837.737	0.0165724
837.815	0.0166173
837.893	0.0166780
837.971	0.0166668
838.049	0.0167541
838.128	0.0167609
838.206	0.0165939
838.284	0.0166009
838.362	0.0166387
838.440	0.0165579
838.518	0.0167010
838.596	0.0166847
838.674	0.0165330
838.753	0.0164831
838.831	0.0164776
838.909	0.0165421
838.987	0.0164541
839.065	0.0164397
839.143	0.0165256
839.221	0.0166141
839.299	0.0163603
839.378	0.0164330
839.456	0.0164725
839.534	0.0162885
839.612	0.0163172
839.690	0.0164507
839.768	0.0164007
839.846	0.0164311
839.924	0.0164626
840.003	0.0165051
840.081	0.0166152
840.159	0.0165382
840.237	0.0166380
840.315	0.0165921
840.393	0.0166075
840.471	0.0166273
840.549	0.0166225
840.628	0.0165559
840.706	0.0166692
840.784	0.0166759
840.862	0.0167809
840.940	0.0166930
841.018	0.0165897
841.096	0.0164922
841.174	0.0165482
841.253	0.0167138
841.331	0.0166492
841.409	0.0167484
841.487	0.0164345
841.565	0.0167676
841.643	0.0166290
841.721	0.0166925
841.799	0.0165904
841.878	0.0165900
841.956	0.0166599
842.034	0.0166837
842.112	0.0166653
842.190	0.0166196
842.268	0.0166535
842.346	0.0166763
842.424	0.0167348
842.503	0.0165849
842.581	0.0166720
842.659	0.0166973
842.737	0.0167435
842.815	0.0166248
842.893	0.0167470
842.971	0.0167081
843.049	0.0166188
843.128	0.0165325
843.206	0.0164949
843.284	0.0164435
843.362	0.0165110
843.440	0.0165102
843.518	0.0163100
843.596	0.0163073
843.674	0.0163201
843.753	0.0164270
843.831	0.0164584
843.909	0.0162881
843.987	0.0162881
844.065	0.0161635
844.143	0.0162643
844.221	0.0164258
844.299	0.0164170
844.378	0.0164121
844.456	0.0163915
844.534	0.0163226
844.612	0.0163516
844.690	0.0163309
844.768	0.0162924
844.846	0.0163375
844.924	0.0163165
845.003	0.0163137
845.081	0.0164054
845.159	0.0164014
845.237	0.0163588
845.315	0.0165280
845.393	0.0164657
845.471	0.0165637
845.549	0.0164340
845.628	0.0164619
845.706	0.0164916
845.784	0.0164496
845.862	0.0165046
845.940	0.0165657
846.018	0.0165175
846.096	0.0163830
846.174	0.0164197
846.253	0.0163464
846.331	0.0163701
846.409	0.0165838
846.487	0.0164697
846.565	0.0164967
846.643	0.0166357
846.721	0.0166319
846.799	0.0165530
846.878	0.0165832
846.956	0.0164915
847.034	0.0165784
847.112	0.0166453
847.190	0.0167760
847.268	0.0165030
847.346	0.0164745
847.424	0.0165219
847.503	0.0165681
847.581	0.0164565
847.659	0.0163128
847.737	0.0164942
847.815	0.0165369
847.893	0.0163992
847.971	0.0163757
848.049	0.0164171
848.128	0.0162198
848.206	0.0162785
848.284	0.0164070
848.362	0.0164232
848.440	0.0162457
848.518	0.0162762
848.596	0.0162815
848.674	0.0163277
848.753	0.0161978
848.831	0.0163064
848.909	0.0163704
848.987	0.0162491
849.065	0.0162522
849.143	0.0161755
849.221	0.0163080
849.299	0.0163580
849.378	0.0162571
849.456	0.0161510
849.534	0.0162691
849.612	0.0162967
849.690	0.0161488
849.768	0.0162202
849.846	0.0162618
849.924	0.0161677
850.003	0.0161933
850.081	0.0162224
850.159	0.0162675
850.237	0.0163000
850.315	0.0163269
850.393	0.0161711
850.471	0.0162142
850.549	0.0162978
850.628	0.0162833
850.706	0.0163161
850.784	0.0163787
850.862	0.0162440
850.940	0.0164299
851.018	0.0163335
851.096	0.0164140
851.174	0.0162916
851.253	0.0163829
851.331	0.0165359
851.409	0.0163366
851.487	0.0163911
851.565	0.0164655
851.643	0.0164644
851.721	0.0165240
851.799	0.0165224
851.878	0.0164167
851.956	0.0163997
852.034	0.0165208
852.112	0.0163514
852.190	0.0163296
852.268	0.0164870
852.346	0.0163760
852.424	0.0164928
852.503	0.0163728
852.581	0.0164530
852.659	0.0163448
852.737	0.0164175
852.815	0.0163773
852.893	0.0163385
852.971	0.0164972
853.049	0.0163262
853.128	0.0163231
853.206	0.0162561
853.284	0.0162675
853.362	0.0164256
853.440	0.0164021
853.518	0.0163763
853.596	0.0163811
853.674	0.0164034
853.753	0.0163450
853.831	0.0162807
853.909	0.0164457
853.987	0.0163145
854.065	0.0164132
854.143	0.0163268
854.221	0.0163009
854.299	0.0162809
854.378	0.0161813
854.456	0.0162459
854.534	0.0162540
854.612	0.0162395
854.690	0.0162496
854.768	0.0163178
854.846	0.0163713
854.924	0.0161762
855.003	0.0161318
855.081	0.0162392
855.159	0.0162180
855.237	0.0163193
855.315	0.0162005
855.393	0.0163008
855.471	0.0161667
855.549	0.0162379
855.628	0.0164124
855.706	0.0162838
855.784	0.0163304
855.862	0.0163667
855.940	0.0164944
856.018	0.0164214
856.096	0.0163624
856.174	0.0162156
856.253	0.0164732
856.331	0.0163747
856.409	0.0164204
856.487	0.0164341
856.565	0.0163368
856.643	0.0163605
856.721	0.0163392
856.799	0.0164439
856.878	0.0164444
856.956	0.0164587
857.034	0.0165040
857.112	0.0163732
857.190	0.0164665
857.268	0.0164135
857.346	0.0164606
857.424	0.0163417
857.503	0.0165073
857.581	0.0164017
857.659	0.0165677
857.737	0.0164401
857.815	0.0166662
857.893	0.0165543
857.971	0.0165286
858.049	0.0165392
858.128	0.0165407
858.206	0.0164224
858.284	0.0165451
858.362	0.0166126
858.440	0.0165612
858.518	0.0165043
858.596	0.0166099
858.674	0.0164514
858.753	0.0165327
858.831	0.0165070
858.909	0.0165668
858.987	0.0164569
859.065	0.0164201
859.143	0.0163650
859.221	0.0164256
859.299	0.0164372
859.378	0.0163946
859.456	0.0164876
859.534	0.0163470
859.612	0.0164507
859.690	0.0163542
859.768	0.0163526
859.846	0.0163753
859.924	0.0165279
860.003	0.0163625
860.081	0.0165643
860.159	0.0164738
860.237	0.0164632
860.315	0.0162800
860.393	0.0163825
860.471	0.0164404
860.549	0.0164162
860.628	0.0163986
860.706	0.0165235
860.784	0.0165423
860.862	0.0163892
860.940	0.0164701
861.018	0.0164702
861.096	0.0163929
861.174	0.0164105
861.253	0.0163669
861.331	0.0164539
861.409	0.0164452
861.487	0.0164424
861.565	0.0164513
861.643	0.0164384
861.721	0.0164397
861.799	0.0163101
861.878	0.0164098
861.956	0.0165815
862.034	0.0165154
862.112	0.0165717
862.190	0.0164803
862.268	0.0166156
862.346	0.0164835
862.424	0.0166267
862.503	0.0165839
862.581	0.0167170
862.659	0.0167240
862.737	0.0165442
862.815	0.0164496
862.893	0.0165134
862.971	0.0166355
863.049	0.0166234
863.128	0.0166301
863.206	0.0165430
863.284	0.0165214
863.362	0.0164948
863.440	0.0165700
863.518	0.0165983
863.596	0.0165107
863.674	0.0164616
863.753	0.0165990
863.831	0.0165302
863.909	0.0165379
863.987	0.0166130
864.065	0.0165499
864.143	0.0166172
864.221	0.0165078
864.299	0.0164777
864.378	0.0165807
864.456	0.0165372
864.534	0.0165755
864.612	0.0165328
864.690	0.0164489
864.768	0.0164721
864.846	0.0164307
864.924	0.0164070
865.003	0.0164035
865.081	0.0163819
865.159	0.0164224
865.237	0.0164735
865.315	0.0164958
865.393	0.0163445
865.471	0.0163818
865.549	0.0164081
865.628	0.0164661
865.706	0.0164642
865.784	0.0164127
865.862	0.0163663
865.940	0.0163984
866.018	0.0166869
866.096	0.0164771
866.174	0.0165314
866.253	0.0165081
866.331	0.0164544
866.409	0.0165554
866.487	0.0165148
866.565	0.0166247
866.643	0.0165431
866.721	0.0165108
866.799	0.0164962
866.878	0.0165231
866.956	0.0164763
867.034	0.0165353
867.112	0.0164079
867.190	0.0164935
867.268	0.0164795
867.346	0.0165267
867.424	0.0165652
867.503	0.0165205
867.581	0.0164264
867.659	0.0165018
867.737	0.0164546
867.815	0.0163691
867.893	0.0165265
867.971	0.0164870
868.049	0.0164237
868.128	0.0164935
868.206	0.0165754
868.284	0.0165631
868.362	0.0167030
868.440	0.0166668
868.518	0.0164671
868.596	0.0165676
868.674	0.0164870
868.753	0.0165604
868.831	0.0165233
868.909	0.0165593
868.987	0.0164776
869.065	0.0165636
869.143	0.0165989
869.221	0.0165775
869.299	0.0165982
869.378	0.0165328
869.456	0.0164729
869.534	0.0165861
869.612	0.0164739
869.690	0.0164021
869.768	0.0164638
869.846	0.0164850
869.924	0.0165543
870.003	0.0163364
870.081	0.0162773
870.159	0.0163480
870.237	0.0163429
870.315	0.0162247
870.393	0.0162868
870.471	0.0161845
870.549	0.0161878
870.628	0.0162202
870.706	0.0161118
870.784	0.0162452
870.862	0.0161185
870.940	0.0161803
871.018	0.0161127
871.096	0.0162520
871.174	0.0162489
871.253	0.0161108
871.331	0.0161846
871.409	0.0160432
871.487	0.0161367
871.565	0.0163045
871.643	0.0161479
871.721	0.0162160
871.799	0.0162067
871.878	0.0162316
871.956	0.0162661
872.034	0.0163115
872.112	0.0162438
872.190	0.0163213
872.268	0.0162232
872.346	0.0162458
872.424	0.0164003
872.503	0.0163718
872.581	0.0162814
872.659	0.0162716
872.737	0.0163145
872.815	0.0162131
872.893	0.0161491
872.971	0.0162827
873.049	0.0164021
873.128	0.0162263
873.206	0.0163945
873.284	0.0163901
873.362	0.0162254
873.440	0.0162598
873.518	0.0163161
873.596	0.0164844
873.674	0.0163530
873.753	0.0163518
873.831	0.0164001
873.909	0.0164762
873.987	0.0163089
874.065	0.0164464
874.143	0.0164545
874.221	0.0164256
874.299	0.0165231
874.378	0.0165900
874.456	0.0164404
874.534	0.0165178
874.612	0.0165212
874.690	0.0165045
874.768	0.0164267
874.846	0.0164175
874.924	0.0163463
875.003	0.0163631
875.081	0.0164330
875.159	0.0164275
875.237	0.0163447
875.315	0.0163683
875.393	0.0162928
875.471	0.0162946
875.549	0.0164195
875.628	0.0161961
875.706	0.0161638
875.784	0.0162465
875.862	0.0162631
875.940	0.0160961
876.018	0.0161826
876.096	0.0163158
876.174	0.0163456
876.253	0.0162843
876.331	0.0162602
876.409	0.0160766
876.487	0.0163229
876.565	0.0163704
876.643	0.0164318
876.721	0.0163746
876.799	0.0162578
876.878	0.0162025
876.956	0.0163582
877.034	0.0162598
877.112	0.0162817
877.190	0.0162794
877.268	0.0162366
877.346	0.0161350
877.424	0.0163221
877.503	0.0164980
877.581	0.0163658
877.659	0.0164027
877.737	0.0163324
877.815	0.0164113
877.893	0.0163800
877.971	0.0164680
878.049	0.0164970
878.128	0.0164999
878.206	0.0165975
878.284	0.0165021
878.362	0.0164629
878.440	0.0165692
878.518	0.0166753
878.596	0.0164832
878.674	0.0164864
878.753	0.0166832
878.831	0.0166448
878.909	0.0165840
878.987	0.0166345
879.065	0.0167754
879.143	0.0165633
879.221	0.0165690
879.299	0.0163931
879.378	0.0166445
879.456	0.0166406
879.534	0.0165617
879.612	0.0166166
879.690	0.0167973
879.768	0.0165834
879.846	0.0164574
879.924	0.0164844
880.003	0.0165110
880.081	0.0163894
880.159	0.0163125
880.237	0.0165276
880.315	0.0163657
880.393	0.0163847
880.471	0.0163979
880.549	0.0163731
880.628	0.0163741
880.706	0.0165221
880.784	0.0163508
880.862	0.0164079
880.940	0.0163211
881.018	0.0164219
881.096	0.0164003
881.174	0.0165012
881.253	0.0162370
881.331	0.0163894
881.409	0.0165070
881.487	0.0162756
881.565	0.0163565
881.643	0.0165088
881.721	0.0163593
881.799	0.0162929
881.878	0.0163755
881.956	0.0163989
882.034	0.0163647
882.112	0.0163924
882.190	0.0164169
882.268	0.0162743
882.346	0.0162198
882.424	0.0163969
882.503	0.0163248
882.581	0.0164146
882.659	0.0163671
882.737	0.0162364
882.815	0.0163497
882.893	0.0163962
882.971	0.0162553
883.049	0.0163063
883.128	0.0163246
883.206	0.0164497
883.284	0.0163146
883.362	0.0163381
883.440	0.0162830
883.518	0.0164359
883.596	0.0164005
883.674	0.0164681
883.753	0.0161810
883.831	0.0164023
883.909	0.0163859
883.987	0.0163868
884.065	0.0164964
884.143	0.0163106
884.221	0.0162580
884.299	0.0164834
884.378	0.0165377
884.456	0.0164516
884.534	0.0163942
884.612	0.0164008
884.690	0.0163653
884.768	0.0163832
884.846	0.0163302
884.924	0.0165371
885.003	0.0164887
885.081	0.0163754
885.159	0.0164422
885.237	0.0164588
885.315	0.0164417
885.393	0.0163277
885.471	0.0163146
885.549	0.0164078
885.628	0.0163835
885.706	0.0164990
885.784	0.0163618
885.862	0.0164072
885.940	0.0163773
886.018	0.0163420
886.096	0.0163612
886.174	0.0163965
886.253	0.0163899
886.331	0.0163106
886.409	0.0164021
886.487	0.0163872
886.565	0.0164884
886.643	0.0163632
886.721	0.0164349
886.799	0.0163180
886.878	0.0165203
886.956	0.0164362
887.034	0.0164024
887.112	0.0164148
887.190	0.0163813
887.268	0.0164607
887.346	0.0162794
887.424	0.0163657
887.503	0.0164278
887.581	0.0167013
887.659	0.0165904
887.737	0.0165284
887.815	0.0164867
887.893	0.0164194
887.971	0.0163429
888.049	0.0165163
888.128	0.0164716
888.206	0.0164764
888.284	0.0164059
888.362	0.0164779
888.440	0.0164561
888.518	0.0164253
888.596	0.0165086
888.674	0.0163377
888.753	0.0163869
888.831	0.0164883
888.909	0.0164930
888.987	0.0162785
889.065	0.0163303
889.143	0.0162605
889.221	0.0164247
889.299	0.0164460
889.378	0.0163621
889.456	0.0162640
889.534	0.0164230
889.612	0.0164454
889.690	0.0163515
889.768	0.0164218
889.846	0.0164421
889.924	0.0164397
890.003	0.0163979
890.081	0.0163731
890.159	0.0162606
890.237	0.0163850
890.315	0.0163360
890.393	0.0163953
890.471	0.0162715
890.549	0.0163264
890.628	0.0162730
890.706	0.0162517
890.784	0.0161617
890.862	0.0161932
890.940	0.0162219
891.018	0.0164029
891.096	0.0163753
891.174	0.0162495
891.253	0.0162170
891.331	0.0162420
891.409	0.0162101
891.487	0.0162052
891.565	0.0162457
891.643	0.0161647
891.721	0.0163783
891.799	0.0162992
891.878	0.0161325
891.956	0.0163049
892.034	0.0163090
892.112	0.0162991
892.190	0.0163986
892.268	0.0163035
892.346	0.0163881
892.424	0.0164271
892.503	0.0163374
892.581	0.0163998
892.659	0.0164422
892.737	0.0164320
892.815	0.0165694
892.893	0.0165430
892.971	0.0164114
893.049	0.0164169
893.128	0.0164501
893.206	0.0163323
893.284	0.0164477
893.362	0.0164098
893.440	0.0163776
893.518	0.0164425
893.596	0.0162647
893.674	0.0163893
893.753	0.0163599
893.831	0.0164417
893.909	0.0164146
893.987	0.0163681
894.065	0.0163228
894.143	0.0163954
894.221	0.0163634
894.299	0.0163321
894.378	0.0163607
894.456	0.0164629
894.534	0.0164165
894.612	0.0163271
894.690	0.0163908
894.768	0.0163813
894.846	0.0164556
894.924	0.0165968
895.003	0.0163865
895.081	0.0163498
895.159	0.0165047
895.237	0.0166541
895.315	0.0163691
895.393	0.0164252
895.471	0.0164854
895.549	0.0162682
895.628	0.0164418
895.706	0.0163966
895.784	0.0164598
895.862	0.0163934
895.940	0.0163115
896.018	0.0161632
896.096	0.0163988
896.174	0.0165873
896.253	0.0163206
896.331	0.0163211
896.409	0.0163976
896.487	0.0163294
896.565	0.0163336
896.643	0.0163309
896.721	0.0163229
896.799	0.0163019
896.878	0.0162426
896.956	0.0162527
897.034	0.0161391
897.112	0.0162197
897.190	0.0162746
897.268	0.0162286
897.346	0.0161702
897.424	0.0162451
897.503	0.0162103
897.581	0.0161337
897.659	0.0162674
897.737	0.0162904
897.815	0.0163580
897.893	0.0162663
897.971	0.0163905
898.049	0.0162016
898.128	0.0163107
898.206	0.0165093
898.284	0.0164069
898.362	0.0163552
898.440	0.0164070
898.518	0.0165108
898.596	0.0164426
898.674	0.0165273
898.753	0.0164864
898.831	0.0164684
898.909	0.0164235
898.987	0.0165017
899.065	0.0165683
899.143	0.0165108
899.221	0.0165103
899.299	0.0165139
899.378	0.0166280
899.456	0.0165243
899.534	0.0164553
899.612	0.0165367
899.690	0.0164388
899.768	0.0164584
899.846	0.0164633
899.924	0.0165212
900.003	0.0163877
900.081	0.0164613
900.159	0.0164598
900.237	0.0163852
900.315	0.0163711
900.393	0.0164222
900.471	0.0163206
900.549	0.0163230
900.628	0.0163139
900.706	0.0162488
900.784	0.0164538
900.862	0.0163482
900.940	0.0163750
901.018	0.0164577
901.096	0.0163679
901.174	0.0164394
901.253	0.0163946
901.331	0.0162408
901.409	0.0164356
901.487	0.0162553
901.565	0.0165093
901.643	0.0163882
901.721	0.0163223
901.799	0.0162804
901.878	0.0164072
901.956	0.0163190
902.034	0.0164530
902.112	0.0163743
902.190	0.0164462
902.268	0.0164181
902.346	0.0163539
902.424	0.0163737
902.503	0.0163525
902.581	0.0164679
902.659	0.0163503
902.737	0.0164288
902.815	0.0164822
902.893	0.0164165
902.971	0.0162647
903.049	0.0163310
903.128	0.0163798
903.206	0.0163679
903.284	0.0164446
903.362	0.0163152
903.440	0.0164075
903.518	0.0163533
903.596	0.0164084
903.674	0.0164231
903.753	0.0163539
903.831	0.0163080
903.909	0.0164150
903.987	0.0163065
904.065	0.0163398
904.143	0.0162371
904.221	0.0162180
904.299	0.0163535
904.378	0.0163702
904.456	0.0164651
904.534	0.0164152
904.612	0.0161932
904.690	0.0164230
904.768	0.0163841
904.846	0.0163911
904.924	0.0164935
905.003	0.0163847
905.081	0.0163777
905.159	0.0164035
905.237	0.0163061
905.315	0.0165265
905.393	0.0165174
905.471	0.0163937
905.549	0.0163838
905.628	0.0164922
905.706	0.0163631
905.784	0.0163900
905.862	0.0163190
905.940	0.0163847
906.018	0.0164238
906.096	0.0164748
906.174	0.0165443
906.253	0.0164561
906.331	0.0163939
906.409	0.0164847
906.487	0.0165253
906.565	0.0163923
906.643	0.0164949
906.721	0.0164770
906.799	0.0164825
906.878	0.0163647
906.956	0.0164778
907.034	0.0164866
907.112	0.0165058
907.190	0.0163053
907.268	0.0164771
907.346	0.0164974
907.424	0.0163386
907.503	0.0163625
907.581	0.0162738
907.659	0.0163865
907.737	0.0164522
907.815	0.0164474
907.893	0.0163880
907.971	0.0164046
908.049	0.0166206
908.128	0.0164427
908.206	0.0164424
908.284	0.0164172
908.362	0.0164219
908.440	0.0164289
908.518	0.0164465
908.596	0.0165971
908.674	0.0164060
908.753	0.0163560
908.831	0.0164207
908.909	0.0164471
908.987	0.0164353
909.065	0.0164654
909.143	0.0163340
909.221	0.0162891
909.299	0.0165090
909.378	0.0164756
909.456	0.0164330
909.534	0.0164227
909.612	0.0164042
909.690	0.0163449
909.768	0.0163248
909.846	0.0163313
909.924	0.0164877
910.003	0.0164962
910.081	0.0162405
910.159	0.0163474
910.237	0.0164658
910.315	0.0163726
910.393	0.0163023
910.471	0.0162300
910.549	0.0163771
910.628	0.0164249
910.706	0.0164746
910.784	0.0163759
910.862	0.0163987
910.940	0.0163611
911.018	0.0163463
911.096	0.0164875
911.174	0.0163905
911.253	0.0163726
911.331	0.0164120
911.409	0.0163117
911.487	0.0164933
911.565	0.0165462
911.643	0.0163855
911.721	0.0165019
911.799	0.0164668
911.878	0.0165007
911.956	0.0163824
912.034	0.0165419
912.112	0.0164790
912.190	0.0163693
912.268	0.0165887
912.346	0.0163695
912.424	0.0164768
912.503	0.0165568
912.581	0.0163524
912.659	0.0164022
912.737	0.0164115
912.815	0.0164133
912.893	0.0164765
912.971	0.0164857
913.049	0.0163495
913.128	0.0163567
913.206	0.0163754
913.284	0.0164655
913.362	0.0163935
913.440	0.0164654
913.518	0.0164607
913.596	0.0164214
913.674	0.0164119
913.753	0.0163528
913.831	0.0164441
913.909	0.0164152
913.987	0.0164901
914.065	0.0164487
914.143	0.0164227
914.221	0.0164998
914.299	0.0164561
914.378	0.0164424
914.456	0.0164856
914.534	0.0165334
914.612	0.0163947
914.690	0.0164115
914.768	0.0165204
914.846	0.0165033
914.924	0.0166035
915.003	0.0164425
915.081	0.0165110
915.159	0.0164580
915.237	0.0165257
915.315	0.0166166
915.393	0.0164918
915.471	0.0164923
915.549	0.0164015
915.628	0.0163895
915.706	0.0165680
915.784	0.0163466
915.862	0.0164179
915.940	0.0164659
916.018	0.0163872
916.096	0.0162208
916.174	0.0163837
916.253	0.0163803
916.331	0.0163454
916.409	0.0163069
916.487	0.0162439
916.565	0.0163985
916.643	0.0163847
916.721	0.0165138
916.799	0.0162459
916.878	0.0163626
916.956	0.0162474
917.034	0.0162233
917.112	0.0161578
917.190	0.0163953
917.268	0.0164518
917.346	0.0162855
917.424	0.0164037
917.503	0.0163886
917.581	0.0164571
917.659	0.0164500
917.737	0.0164530
917.815	0.0164656
917.893	0.0163715
917.971	0.0164406
918.049	0.0164158
918.128	0.0166174
918.206	0.0164118
918.284	0.0163715
918.362	0.0165304
918.440	0.0165700
918.518	0.0165808
918.596	0.0165791
918.674	0.0164580
918.753	0.0165884
918.831	0.0165219
918.909	0.0166647
918.987	0.0165719
919.065	0.0165690
919.143	0.0165280
919.221	0.0165357
919.299	0.0165997
919.378	0.0165491
919.456	0.0166261
919.534	0.0164886
919.612	0.0165399
919.690	0.0165544
919.768	0.0163235
919.846	0.0164503
919.924	0.0164377
920.003	0.0163783
920.081	0.0163680
920.159	0.0164892
920.237	0.0164116
920.315	0.0162907
920.393	0.0164066
920.471	0.0162435
920.549	0.0163893
920.628	0.0164485
920.706	0.0163859
920.784	0.0163534
920.862	0.0163452
920.940	0.0164093
921.018	0.0164417
921.096	0.0164495
921.174	0.0163344
921.253	0.0166002
921.331	0.0165746
921.409	0.0165852
921.487	0.0164911
921.565	0.0164923
921.643	0.0164690
921.721	0.0166070
921.799	0.0165819
921.878	0.0163728
921.956	0.0165836
922.034	0.0163693
922.112	0.0164762
922.190	0.0163608
922.268	0.0163325
922.346	0.0164287
922.424	0.0164764
922.503	0.0164545
922.581	0.0164223
922.659	0.0162734
922.737	0.0161955
922.815	0.0163663
922.893	0.0162880
922.971	0.0163453
923.049	0.0163644
923.128	0.0162690
923.206	0.0162505
923.284	0.0163615
923.362	0.0163375
923.440	0.0162460
923.518	0.0165351
923.596	0.0162758
923.674	0.0163212
923.753	0.0164172
923.831	0.0163365
923.909	0.0163037
923.987	0.0163103
924.065	0.0163688
924.143	0.0163010
924.221	0.0162559
924.299	0.0163383
924.378	0.0163650
924.456	0.0162816
924.534	0.0161643
924.612	0.0163128
924.690	0.0163452
924.768	0.0162628
924.846	0.0162566
924.924	0.0162764
925.003	0.0163359
925.081	0.0163036
925.159	0.0164186
925.237	0.0164464
925.315	0.0163940
925.393	0.0163482
925.471	0.0161864
925.549	0.0162978
925.628	0.0162210
925.706	0.0163857
925.784	0.0164263
925.862	0.0163750
925.940	0.0163490
926.018	0.0163810
926.096	0.0162978
926.174	0.0164462
926.253	0.0163942
926.331	0.0163625
926.409	0.0162415
926.487	0.0163144
926.565	0.0163772
926.643	0.0163920
926.721	0.0162963
926.799	0.0163387
926.878	0.0163219
926.956	0.0163345
927.034	0.0162682
927.112	0.0161976
927.190	0.0162627
927.268	0.0162518
927.346	0.0161681
927.424	0.0161387
927.503	0.0162241
927.581	0.0162512
927.659	0.0162424
927.737	0.0162965
927.815	0.0163142
927.893	0.0162141
927.971	0.0161595
928.049	0.0162943
928.128	0.0164595
928.206	0.0162175
928.284	0.0163879
928.362	0.0163400
928.440	0.0162381
928.518	0.0163642
928.596	0.0163565
928.674	0.0162370
928.753	0.0164178
928.831	0.0163304
928.909	0.0162959
928.987	0.0163231
929.065	0.0162524
929.143	0.0162698
929.221	0.0164244
929.299	0.0164494
929.378	0.0164350
929.456	0.0163164
929.534	0.0164677
929.612	0.0164286
929.690	0.0165144
929.768	0.0163324
929.846	0.0164223
929.924	0.0163775
930.003	0.0163822
930.081	0.0163989
930.159	0.0163635
930.237	0.0164023
930.315	0.0164471
930.393	0.0163847
930.471	0.0163842
930.549	0.0164483
930.628	0.0162751
930.706	0.0163516
930.784	0.0163992
930.862	0.0164988
930.940	0.0165666
931.018	0.0165801
931.096	0.0165199
931.174	0.0164713
931.253	0.0166827
931.331	0.0165102
931.409	0.0164261
931.487	0.0165540
931.565	0.0166005
931.643	0.0167010
931.721	0.0164958
931.799	0.0165758
931.878	0.0165573
931.956	0.0164921
932.034	0.0165882
932.112	0.0164195
932.190	0.0164960
932.268	0.0164651
932.346	0.0164130
932.424	0.0165028
932.503	0.0164973
932.581	0.0164488
932.659	0.0163210
932.737	0.0165169
932.815	0.0164823
932.893	0.0165794
932.971	0.0164582
933.049	0.0164947
933.128	0.0165316
933.206	0.0162434
933.284	0.0162963
933.362	0.0165175
933.440	0.0165621
933.518	0.0164011
933.596	0.0165070
933.674	0.0164205
933.753	0.0164697
933.831	0.0164441
933.909	0.0165057
933.987	0.0164501
934.065	0.0164420
934.143	0.0164642
934.221	0.0162070
934.299	0.0161461
934.378	0.0163058
934.456	0.0164993
934.534	0.0162353
934.612	0.0163989
934.690	0.0163210
934.768	0.0163541
934.846	0.0164703
934.924	0.0164307
935.003	0.0163990
935.081	0.0163689
935.159	0.0163023
935.237	0.0163905
935.315	0.0162967
935.393	0.0162881
935.471	0.0164249
935.549	0.0162216
935.628	0.0163810
935.706	0.0163898
935.784	0.0163794
935.862	0.0164365
935.940	0.0164426
936.018	0.0164262
936.096	0.0164861
936.174	0.0164815
936.253	0.0164553
936.331	0.0165759
936.409	0.0165152
936.487	0.0164017
936.565	0.0164875
936.643	0.0164404
936.721	0.0164561
936.799	0.0165415
936.878	0.0163666
936.956	0.0163308
937.034	0.0162556
937.112	0.0162929
937.190	0.0164292
937.268	0.0163328
937.346	0.0163934
937.424	0.0164521
937.503	0.0163232
937.581	0.0164754
937.659	0.0165321
937.737	0.0164616
937.815	0.0164330
937.893	0.0164619
937.971	0.0164725
938.049	0.0164436
938.128	0.0165984
938.206	0.0164634
938.284	0.0163681
938.362	0.0164348
938.440	0.0164775
938.518	0.0164605
938.596	0.0163541
938.674	0.0164008
938.753	0.0163781
938.831	0.0163350
938.909	0.0163556
938.987	0.0163051
939.065	0.0163103
939.143	0.0163712
939.221	0.0163831
939.299	0.0163806
939.378	0.0162695
939.456	0.0163863
939.534	0.0163513
939.612	0.0164072
939.690	0.0163596
939.768	0.0164246
939.846	0.0164133
939.924	0.0163333
940.003	0.0164980
940.081	0.0165759
940.159	0.0163692
940.237	0.0163684
940.315	0.0165549
940.393	0.0164243
940.471	0.0164352
940.549	0.0164819
940.628	0.0163708
940.706	0.0165137
940.784	0.0165337
940.862	0.0164300
940.940	0.0164998
941.018	0.0165253
941.096	0.0166091
941.174	0.0164063
941.253	0.0164128
941.331	0.0163801
941.409	0.0164828
941.487	0.0164629
941.565	0.0164198
941.643	0.0164172
941.721	0.0164662
941.799	0.0164669
941.878	0.0164396
941.956	0.0165484
942.034	0.0165315
942.112	0.0165553
942.190	0.0164519
942.268	0.0165282
942.346	0.0165977
942.424	0.0164828
942.503	0.0165240
942.581	0.0166223
942.659	0.0166232
942.737	0.0166494
942.815	0.0166492
942.893	0.0165491
942.971	0.0165497
943.049	0.0166466
943.128	0.0164799
943.206	0.0164667
943.284	0.0165840
943.362	0.0165394
943.440	0.0166646
943.518	0.0165733
943.596	0.0165685
943.674	0.0166315
943.753	0.0165195
943.831	0.0164548
943.909	0.0163703
943.987	0.0165795
944.065	0.0166224
944.143	0.0165927
944.221	0.0164593
944.299	0.0164988
944.378	0.0163735
944.456	0.0163078
944.534	0.0163223
944.612	0.0164240
944.690	0.0164181
944.768	0.0163794
944.846	0.0163867
944.924	0.0162382
945.003	0.0162845
945.081	0.0162743
945.159	0.0162687
945.237	0.0161727
945.315	0.0162784
945.393	0.0162051
945.471	0.0163708
945.549	0.0163634
945.628	0.0162745
945.706	0.0162086
945.784	0.0163168
945.862	0.0162896
945.940	0.0163744
946.018	0.0164867
946.096	0.0163074
946.174	0.0162592
946.253	0.0164797
946.331	0.0163711
946.409	0.0164124
946.487	0.0163522
946.565	0.0163599
946.643	0.0163322
946.721	0.0164321
946.799	0.0164069
946.878	0.0164086
946.956	0.0164463
947.034	0.0164032
947.112	0.0164653
947.190	0.0164056
947.268	0.0164458
947.346	0.0163947
947.424	0.0164907
947.503	0.0164066
947.581	0.0164101
947.659	0.0163473
947.737	0.0163663
947.815	0.0164278
947.893	0.0164830
947.971	0.0164478
948.049	0.0164520
948.128	0.0164194
948.206	0.0163398
948.284	0.0165173
948.362	0.0163849
948.440	0.0164166
948.518	0.0163979
948.596	0.0165088
948.674	0.0164448
948.753	0.0164050
948.831	0.0166057
948.909	0.0163965
948.987	0.0165288
949.065	0.0164542
949.143	0.0164920
949.221	0.0165112
949.299	0.0165353
949.378	0.0166739
949.456	0.0166265
949.534	0.0165311
949.612	0.0163428
949.690	0.0165118
949.768	0.0165301
949.846	0.0165312
949.924	0.0164862
