06/03/2022	13:48:54	Ver.	4.1	UNKNOWN
Optical Delay	599.988409	Delta X		0.078125	Sweeps	1	Scan Rate	0/0
Coordinates	Axis 1	NaN	Axis 2	NaN	Axis 3	NaN	Axis 4	NaN	Axis 5	NaN	Axis 6	0.000000
TX Power	0.000000	RX Power	0.000000

599.988	0.0171662
600.067	0.0171437
600.145	0.0172523
600.223	0.0172186
600.301	0.0172308
600.379	0.0170024
600.457	0.0170961
600.535	0.0171361
600.613	0.0171213
600.692	0.0171364
600.770	0.0171485
600.848	0.0171431
600.926	0.0170644
601.004	0.0171430
601.082	0.0170790
601.160	0.0170822
601.238	0.0171490
601.317	0.0171129
601.395	0.0170193
601.473	0.0171288
601.551	0.0171844
601.629	0.0170421
601.707	0.0171975
601.785	0.0171261
601.863	0.0170876
601.942	0.0171384
602.020	0.0170840
602.098	0.0171714
602.176	0.0171742
602.254	0.0170583
602.332	0.0171875
602.410	0.0170741
602.488	0.0172061
602.567	0.0170923
602.645	0.0171605
602.723	0.0169925
602.801	0.0171363
602.879	0.0172150
602.957	0.0170540
603.035	0.0172217
603.113	0.0171334
603.192	0.0170920
603.270	0.0171247
603.348	0.0170440
603.426	0.0171864
603.504	0.0171124
603.582	0.0171329
603.660	0.0171801
603.738	0.0171032
603.817	0.0172076
603.895	0.0170811
603.973	0.0170379
604.051	0.0173120
604.129	0.0170322
604.207	0.0171177
604.285	0.0170551
604.363	0.0170680
604.442	0.0170934
604.520	0.0172844
604.598	0.0170394
604.676	0.0171702
604.754	0.0172469
604.832	0.0170780
604.910	0.0170038
604.988	0.0170051
605.067	0.0171899
605.145	0.0171367
605.223	0.0171863
605.301	0.0171653
605.379	0.0171481
605.457	0.0171334
605.535	0.0171680
605.613	0.0172752
605.692	0.0171133
605.770	0.0171809
605.848	0.0170562
605.926	0.0173289
606.004	0.0170962
606.082	0.0171175
606.160	0.0171256
606.238	0.0171741
606.317	0.0171664
606.395	0.0171967
606.473	0.0172211
606.551	0.0171493
606.629	0.0171985
606.707	0.0170698
606.785	0.0171618
606.863	0.0171161
606.942	0.0171671
607.020	0.0172038
607.098	0.0171315
607.176	0.0171733
607.254	0.0171178
607.332	0.0172395
607.410	0.0171805
607.488	0.0172448
607.567	0.0171361
607.645	0.0170738
607.723	0.0171276
607.801	0.0172140
607.879	0.0172297
607.957	0.0171290
608.035	0.0171227
608.113	0.0170766
608.192	0.0173053
608.270	0.0171877
608.348	0.0170902
608.426	0.0170992
608.504	0.0171413
608.582	0.0171096
608.660	0.0170009
608.738	0.0172401
608.817	0.0171786
608.895	0.0171392
608.973	0.0171414
609.051	0.0171075
609.129	0.0171650
609.207	0.0171542
609.285	0.0171479
609.363	0.0172201
609.442	0.0172343
609.520	0.0171643
609.598	0.0170783
609.676	0.0171448
609.754	0.0170787
609.832	0.0171098
609.910	0.0171926
609.988	0.0171553
610.067	0.0170500
610.145	0.0171397
610.223	0.0170779
610.301	0.0171789
610.379	0.0171786
610.457	0.0172695
610.535	0.0171922
610.613	0.0170569
610.692	0.0172052
610.770	0.0169838
610.848	0.0172092
610.926	0.0172816
611.004	0.0172041
611.082	0.0172102
611.160	0.0171348
611.238	0.0171124
611.317	0.0171395
611.395	0.0171267
611.473	0.0171221
611.551	0.0172035
611.629	0.0171730
611.707	0.0172900
611.785	0.0171006
611.863	0.0171288
611.942	0.0171160
612.020	0.0172221
612.098	0.0172256
612.176	0.0171870
612.254	0.0172756
612.332	0.0171992
612.410	0.0171491
612.488	0.0172314
612.567	0.0172486
612.645	0.0170845
612.723	0.0172630
612.801	0.0171798
612.879	0.0170880
612.957	0.0172688
613.035	0.0172009
613.113	0.0172116
613.192	0.0171976
613.270	0.0172012
613.348	0.0172363
613.426	0.0171411
613.504	0.0172269
613.582	0.0171812
613.660	0.0170506
613.738	0.0172825
613.817	0.0173159
613.895	0.0171516
613.973	0.0171774
614.051	0.0171692
614.129	0.0171773
614.207	0.0171418
614.285	0.0171863
614.363	0.0173145
614.442	0.0172138
614.520	0.0171916
614.598	0.0171097
614.676	0.0171600
614.754	0.0171635
614.832	0.0171272
614.910	0.0173019
614.988	0.0172063
615.067	0.0171437
615.145	0.0171508
615.223	0.0173264
615.301	0.0172995
615.379	0.0172750
615.457	0.0171414
615.535	0.0171624
615.613	0.0171617
615.692	0.0172523
615.770	0.0172610
615.848	0.0171924
615.926	0.0172229
616.004	0.0172930
616.082	0.0172740
616.160	0.0170888
616.238	0.0172672
616.317	0.0172784
616.395	0.0171864
616.473	0.0172078
616.551	0.0171867
616.629	0.0171538
616.707	0.0171983
616.785	0.0171938
616.863	0.0172207
616.942	0.0171833
617.020	0.0171288
617.098	0.0171922
617.176	0.0172468
617.254	0.0171917
617.332	0.0171119
617.410	0.0171259
617.488	0.0172705
617.567	0.0172356
617.645	0.0172339
617.723	0.0171690
617.801	0.0172219
617.879	0.0171565
617.957	0.0173114
618.035	0.0172562
618.113	0.0173920
618.192	0.0171357
618.270	0.0171533
618.348	0.0171832
618.426	0.0171431
618.504	0.0173055
618.582	0.0171031
618.660	0.0170788
618.738	0.0172446
618.817	0.0172217
618.895	0.0171075
618.973	0.0170539
619.051	0.0172140
619.129	0.0171040
619.207	0.0171935
619.285	0.0172594
619.363	0.0171051
619.442	0.0172286
619.520	0.0169986
619.598	0.0171561
619.676	0.0171992
619.754	0.0172300
619.832	0.0171524
619.910	0.0171309
619.988	0.0171222
620.067	0.0171209
620.145	0.0173160
620.223	0.0172263
620.301	0.0171925
620.379	0.0171609
620.457	0.0170927
620.535	0.0169717
620.613	0.0171004
620.692	0.0171279
620.770	0.0172263
620.848	0.0172086
620.926	0.0171866
621.004	0.0173472
621.082	0.0171206
621.160	0.0170983
621.238	0.0171418
621.317	0.0171363
621.395	0.0170152
621.473	0.0171258
621.551	0.0172810
621.629	0.0171141
621.707	0.0171255
621.785	0.0171329
621.863	0.0172441
621.942	0.0173673
622.020	0.0171029
622.098	0.0172076
622.176	0.0170526
622.254	0.0171847
622.332	0.0171600
622.410	0.0171253
622.488	0.0170995
622.567	0.0173536
622.645	0.0172314
622.723	0.0169150
622.801	0.0172154
622.879	0.0171810
622.957	0.0170826
623.035	0.0172483
623.113	0.0172046
623.192	0.0171435
623.270	0.0171303
623.348	0.0172211
623.426	0.0171312
623.504	0.0171522
623.582	0.0172065
623.660	0.0173379
623.738	0.0172437
623.817	0.0172814
623.895	0.0171355
623.973	0.0172095
624.051	0.0171471
624.129	0.0170868
624.207	0.0171169
624.285	0.0170681
624.363	0.0170770
624.442	0.0171909
624.520	0.0171684
624.598	0.0170039
624.676	0.0170454
624.754	0.0169836
624.832	0.0172430
624.910	0.0171609
624.988	0.0172009
625.067	0.0171258
625.145	0.0171767
625.223	0.0172026
625.301	0.0172198
625.379	0.0172635
625.457	0.0171584
625.535	0.0171983
625.613	0.0171510
625.692	0.0171169
625.770	0.0172621
625.848	0.0171981
625.926	0.0171465
626.004	0.0171864
626.082	0.0171793
626.160	0.0171178
626.238	0.0169982
626.317	0.0171166
626.395	0.0172760
626.473	0.0171634
626.551	0.0171844
626.629	0.0172717
626.707	0.0170797
626.785	0.0170390
626.863	0.0171187
626.942	0.0172335
627.020	0.0171502
627.098	0.0171301
627.176	0.0171568
627.254	0.0172390
627.332	0.0171729
627.410	0.0171069
627.488	0.0171126
627.567	0.0170874
627.645	0.0171873
627.723	0.0171235
627.801	0.0170747
627.879	0.0171885
627.957	0.0171194
628.035	0.0171132
628.113	0.0171420
628.192	0.0171136
628.270	0.0172189
628.348	0.0170617
628.426	0.0170559
628.504	0.0170896
628.582	0.0170403
628.660	0.0171046
628.738	0.0172117
628.817	0.0171480
628.895	0.0170551
628.973	0.0170560
629.051	0.0171457
629.129	0.0170930
629.207	0.0173161
629.285	0.0171330
629.363	0.0171857
629.442	0.0172256
629.520	0.0170782
629.598	0.0172161
629.676	0.0170763
629.754	0.0170903
629.832	0.0172447
629.910	0.0172357
629.988	0.0171928
630.067	0.0170716
630.145	0.0171847
630.223	0.0171719
630.301	0.0171635
630.379	0.0169775
630.457	0.0172054
630.535	0.0171436
630.613	0.0171055
630.692	0.0171299
630.770	0.0172149
630.848	0.0171735
630.926	0.0169790
631.004	0.0170992
631.082	0.0170201
631.160	0.0171337
631.238	0.0171322
631.317	0.0170718
631.395	0.0171562
631.473	0.0170277
631.551	0.0170868
631.629	0.0172270
631.707	0.0172243
631.785	0.0170009
631.863	0.0171697
631.942	0.0170176
632.020	0.0171055
632.098	0.0172375
632.176	0.0172045
632.254	0.0172710
632.332	0.0171075
632.410	0.0171022
632.488	0.0169895
632.567	0.0171297
632.645	0.0171681
632.723	0.0170881
632.801	0.0171153
632.879	0.0170975
632.957	0.0171983
633.035	0.0170679
633.113	0.0171118
633.192	0.0171846
633.270	0.0171861
633.348	0.0170808
633.426	0.0171888
633.504	0.0170977
633.582	0.0170802
633.660	0.0171060
633.738	0.0172079
633.817	0.0172392
633.895	0.0169718
633.973	0.0171242
634.051	0.0172795
634.129	0.0172321
634.207	0.0171262
634.285	0.0171316
634.363	0.0170982
634.442	0.0170405
634.520	0.0171400
634.598	0.0171799
634.676	0.0170991
634.754	0.0170538
634.832	0.0171983
634.910	0.0171698
634.988	0.0172387
635.067	0.0170332
635.145	0.0171554
635.223	0.0172030
635.301	0.0170850
635.379	0.0169817
635.457	0.0170975
635.535	0.0172652
635.613	0.0172152
635.692	0.0171221
635.770	0.0171617
635.848	0.0172441
635.926	0.0171880
636.004	0.0172092
636.082	0.0170743
636.160	0.0171320
636.238	0.0171463
636.317	0.0171146
636.395	0.0170300
636.473	0.0172205
636.551	0.0171576
636.629	0.0171296
636.707	0.0171563
636.785	0.0171494
636.863	0.0172452
636.942	0.0172140
637.020	0.0171926
637.098	0.0171087
637.176	0.0171347
637.254	0.0170835
637.332	0.0171474
637.410	0.0171487
637.488	0.0171239
637.567	0.0171149
637.645	0.0172735
637.723	0.0171953
637.801	0.0170596
637.879	0.0171235
637.957	0.0173014
638.035	0.0171600
638.113	0.0172099
638.192	0.0171323
638.270	0.0172261
638.348	0.0171526
638.426	0.0170859
638.504	0.0171609
638.582	0.0171758
638.660	0.0170896
638.738	0.0170993
638.817	0.0173251
638.895	0.0171944
638.973	0.0170645
639.051	0.0172130
639.129	0.0172545
639.207	0.0171625
639.285	0.0172730
639.363	0.0172092
639.442	0.0172443
639.520	0.0172645
639.598	0.0171528
639.676	0.0171176
639.754	0.0172705
639.832	0.0172962
639.910	0.0171795
639.988	0.0171769
640.067	0.0171669
640.145	0.0172471
640.223	0.0172450
640.301	0.0171281
640.379	0.0172377
640.457	0.0172902
640.535	0.0172096
640.613	0.0172099
640.692	0.0172080
640.770	0.0172859
640.848	0.0170750
640.926	0.0171685
641.004	0.0170824
641.082	0.0171593
641.160	0.0171155
641.238	0.0171172
641.317	0.0171938
641.395	0.0172137
641.473	0.0171880
641.551	0.0172291
641.629	0.0170672
641.707	0.0171706
641.785	0.0170535
641.863	0.0171555
641.942	0.0171987
642.020	0.0171191
642.098	0.0171442
642.176	0.0172618
642.254	0.0171631
642.332	0.0170861
642.410	0.0171644
642.488	0.0171189
642.567	0.0170985
642.645	0.0170774
642.723	0.0172766
642.801	0.0173346
642.879	0.0171471
642.957	0.0171499
643.035	0.0171097
643.113	0.0174017
643.192	0.0173804
643.270	0.0171198
643.348	0.0171340
643.426	0.0172894
643.504	0.0171391
643.582	0.0170708
643.660	0.0171575
643.738	0.0172137
643.817	0.0171899
643.895	0.0171542
643.973	0.0172018
644.051	0.0171574
644.129	0.0170653
644.207	0.0170043
644.285	0.0170536
644.363	0.0172052
644.442	0.0172629
644.520	0.0172714
644.598	0.0171468
644.676	0.0170377
644.754	0.0170402
644.832	0.0170824
644.910	0.0171798
644.988	0.0171168
645.067	0.0171252
645.145	0.0171289
645.223	0.0172002
645.301	0.0171215
645.379	0.0172571
645.457	0.0171967
645.535	0.0171483
645.613	0.0171882
645.692	0.0171794
645.770	0.0171815
645.848	0.0171627
645.926	0.0171835
646.004	0.0171358
646.082	0.0172311
646.160	0.0172247
646.238	0.0171774
646.317	0.0171521
646.395	0.0172074
646.473	0.0172384
646.551	0.0172330
646.629	0.0171735
646.707	0.0170299
646.785	0.0172099
646.863	0.0172110
646.942	0.0172253
647.020	0.0171096
647.098	0.0171544
647.176	0.0171597
647.254	0.0171493
647.332	0.0171848
647.410	0.0171598
647.488	0.0169962
647.567	0.0172182
647.645	0.0171478
647.723	0.0173077
647.801	0.0171023
647.879	0.0171500
647.957	0.0171318
648.035	0.0171198
648.113	0.0172197
648.192	0.0172477
648.270	0.0171608
648.348	0.0172540
648.426	0.0171288
648.504	0.0171066
648.582	0.0170929
648.660	0.0171404
648.738	0.0171002
648.817	0.0172176
648.895	0.0171913
648.973	0.0171796
649.051	0.0171778
649.129	0.0171897
649.207	0.0171726
649.285	0.0170996
649.363	0.0172268
649.442	0.0171354
649.520	0.0171365
649.598	0.0170544
649.676	0.0171754
649.754	0.0170666
649.832	0.0171217
649.910	0.0171733
649.988	0.0170793
650.067	0.0172009
650.145	0.0171084
650.223	0.0171838
650.301	0.0171322
650.379	0.0170839
650.457	0.0172169
650.535	0.0170721
650.613	0.0173116
650.692	0.0171880
650.770	0.0172205
650.848	0.0172112
650.926	0.0170637
651.004	0.0171248
651.082	0.0171798
651.160	0.0170274
651.238	0.0171165
651.317	0.0172295
651.395	0.0171507
651.473	0.0171825
651.551	0.0170220
651.629	0.0170977
651.707	0.0170961
651.785	0.0169713
651.863	0.0171329
651.942	0.0170600
652.020	0.0170922
652.098	0.0171250
652.176	0.0172514
652.254	0.0171146
652.332	0.0171513
652.410	0.0171600
652.488	0.0170911
652.567	0.0169798
652.645	0.0171587
652.723	0.0171310
652.801	0.0170690
652.879	0.0171309
652.957	0.0171623
653.035	0.0172233
653.113	0.0171704
653.192	0.0170626
653.270	0.0171537
653.348	0.0171171
653.426	0.0171796
653.504	0.0171023
653.582	0.0173183
653.660	0.0171152
653.738	0.0170048
653.817	0.0170620
653.895	0.0171854
653.973	0.0171920
654.051	0.0171954
654.129	0.0170407
654.207	0.0171879
654.285	0.0172231
654.363	0.0170823
654.442	0.0171635
654.520	0.0171920
654.598	0.0171916
654.676	0.0171693
654.754	0.0171692
654.832	0.0172661
654.910	0.0170947
654.988	0.0172137
655.067	0.0171785
655.145	0.0172124
655.223	0.0173170
655.301	0.0171419
655.379	0.0171786
655.457	0.0171569
655.535	0.0170557
655.613	0.0169936
655.692	0.0172916
655.770	0.0172576
655.848	0.0171764
655.926	0.0170058
656.004	0.0171442
656.082	0.0171386
656.160	0.0171675
656.238	0.0171265
656.317	0.0172581
656.395	0.0171024
656.473	0.0171244
656.551	0.0171283
656.629	0.0172585
656.707	0.0171219
656.785	0.0172015
656.863	0.0171171
656.942	0.0170660
657.020	0.0170325
657.098	0.0173000
657.176	0.0172494
657.254	0.0172599
657.332	0.0170356
657.410	0.0171687
657.488	0.0171298
657.567	0.0171888
657.645	0.0170894
657.723	0.0171275
657.801	0.0171202
657.879	0.0171681
657.957	0.0171149
658.035	0.0170759
658.113	0.0173339
658.192	0.0171034
658.270	0.0172295
658.348	0.0171752
658.426	0.0171085
658.504	0.0171412
658.582	0.0171078
658.660	0.0171881
658.738	0.0171840
658.817	0.0171070
658.895	0.0170773
658.973	0.0170966
659.051	0.0170685
659.129	0.0172733
659.207	0.0171738
659.285	0.0171687
659.363	0.0171496
659.442	0.0172270
659.520	0.0172034
659.598	0.0171653
659.676	0.0170583
659.754	0.0171250
659.832	0.0172161
659.910	0.0172139
659.988	0.0172723
660.067	0.0171765
660.145	0.0170941
660.223	0.0170348
660.301	0.0172143
660.379	0.0172128
660.457	0.0172581
660.535	0.0171704
660.613	0.0171532
660.692	0.0170648
660.770	0.0171294
660.848	0.0172170
660.926	0.0171774
661.004	0.0171635
661.082	0.0172115
661.160	0.0171814
661.238	0.0171481
661.317	0.0172462
661.395	0.0171478
661.473	0.0171233
661.551	0.0171975
661.629	0.0170727
661.707	0.0171456
661.785	0.0170695
661.863	0.0171867
661.942	0.0171690
662.020	0.0172769
662.098	0.0170950
662.176	0.0170660
662.254	0.0171476
662.332	0.0171590
662.410	0.0171850
662.488	0.0170557
662.567	0.0171398
662.645	0.0171590
662.723	0.0172507
662.801	0.0170647
662.879	0.0170470
662.957	0.0172729
663.035	0.0171715
663.113	0.0171180
663.192	0.0172623
663.270	0.0169877
663.348	0.0171228
663.426	0.0172906
663.504	0.0172189
663.582	0.0172842
663.660	0.0173271
663.738	0.0171651
663.817	0.0171474
663.895	0.0171790
663.973	0.0170668
664.051	0.0171567
664.129	0.0172288
664.207	0.0172256
664.285	0.0171344
664.363	0.0171058
664.442	0.0172089
664.520	0.0172243
664.598	0.0171325
664.676	0.0172146
664.754	0.0171904
664.832	0.0171261
664.910	0.0172332
664.988	0.0171520
665.067	0.0171717
665.145	0.0171564
665.223	0.0172105
665.301	0.0171467
665.379	0.0171007
665.457	0.0171667
665.535	0.0172224
665.613	0.0172124
665.692	0.0171083
665.770	0.0171313
665.848	0.0171477
665.926	0.0171607
666.004	0.0172112
666.082	0.0172726
666.160	0.0172207
666.238	0.0171183
666.317	0.0171187
666.395	0.0171714
666.473	0.0171648
666.551	0.0172079
666.629	0.0171836
666.707	0.0170236
666.785	0.0171195
666.863	0.0171494
666.942	0.0172569
667.020	0.0170631
667.098	0.0171621
667.176	0.0171182
667.254	0.0170438
667.332	0.0171436
667.410	0.0171503
667.488	0.0171714
667.567	0.0171387
667.645	0.0169816
667.723	0.0170422
667.801	0.0172110
667.879	0.0171757
667.957	0.0170580
668.035	0.0171945
668.113	0.0172236
668.192	0.0172621
668.270	0.0172205
668.348	0.0171102
668.426	0.0172143
668.504	0.0170798
668.582	0.0170527
668.660	0.0171599
668.738	0.0172935
668.817	0.0172198
668.895	0.0172723
668.973	0.0170789
669.051	0.0170822
669.129	0.0172179
669.207	0.0173968
669.285	0.0172293
669.363	0.0171539
669.442	0.0171633
669.520	0.0170715
669.598	0.0171554
669.676	0.0170753
669.754	0.0171772
669.832	0.0172729
669.910	0.0171558
669.988	0.0172546
670.067	0.0173196
670.145	0.0171601
670.223	0.0172366
670.301	0.0171381
670.379	0.0172054
670.457	0.0172284
670.535	0.0172334
670.613	0.0171822
670.692	0.0171491
670.770	0.0172578
670.848	0.0172388
670.926	0.0171664
671.004	0.0171753
671.082	0.0171716
671.160	0.0170847
671.238	0.0172244
671.317	0.0171865
671.395	0.0171172
671.473	0.0172197
671.551	0.0170430
671.629	0.0169591
671.707	0.0173161
671.785	0.0172128
671.863	0.0172269
671.942	0.0171420
672.020	0.0171434
672.098	0.0170703
672.176	0.0170945
672.254	0.0171850
672.332	0.0171208
672.410	0.0172224
672.488	0.0171592
672.567	0.0172662
672.645	0.0172462
672.723	0.0172071
672.801	0.0171358
672.879	0.0171511
672.957	0.0172253
673.035	0.0171482
673.113	0.0171046
673.192	0.0171635
673.270	0.0171030
673.348	0.0172301
673.426	0.0172517
673.504	0.0171548
673.582	0.0170699
673.660	0.0171732
673.738	0.0172272
673.817	0.0171283
673.895	0.0171732
673.973	0.0171934
674.051	0.0170607
674.129	0.0172427
674.207	0.0171238
674.285	0.0172813
674.363	0.0170489
674.442	0.0172707
674.520	0.0170663
674.598	0.0172429
674.676	0.0172855
674.754	0.0172371
674.832	0.0172282
674.910	0.0172729
674.988	0.0170479
675.067	0.0172182
675.145	0.0172642
675.223	0.0171192
675.301	0.0171363
675.379	0.0171235
675.457	0.0171485
675.535	0.0172776
675.613	0.0172135
675.692	0.0173260
675.770	0.0171725
675.848	0.0171375
675.926	0.0172575
676.004	0.0172507
676.082	0.0173418
676.160	0.0171854
676.238	0.0172620
676.317	0.0171861
676.395	0.0171549
676.473	0.0171906
676.551	0.0172262
676.629	0.0171980
676.707	0.0173072
676.785	0.0171436
676.863	0.0171302
676.942	0.0171684
677.020	0.0170739
677.098	0.0170377
677.176	0.0171060
677.254	0.0171193
677.332	0.0171143
677.410	0.0171568
677.488	0.0172213
677.567	0.0171307
677.645	0.0171561
677.723	0.0170895
677.801	0.0170605
677.879	0.0170887
677.957	0.0172214
678.035	0.0171354
678.113	0.0169817
678.192	0.0170947
678.270	0.0172929
678.348	0.0171448
678.426	0.0171618
678.504	0.0171438
678.582	0.0173084
678.660	0.0170681
678.738	0.0171732
678.817	0.0170959
678.895	0.0170548
678.973	0.0172438
679.051	0.0171440
679.129	0.0170921
679.207	0.0172208
679.285	0.0171569
679.363	0.0171481
679.442	0.0170103
679.520	0.0171870
679.598	0.0172131
679.676	0.0171774
679.754	0.0171702
679.832	0.0171791
679.910	0.0170364
679.988	0.0170022
680.067	0.0171478
680.145	0.0171217
680.223	0.0170476
680.301	0.0171120
680.379	0.0172623
680.457	0.0172245
680.535	0.0171504
680.613	0.0170171
680.692	0.0172414
680.770	0.0170973
680.848	0.0171213
680.926	0.0170719
681.004	0.0171855
681.082	0.0171046
681.160	0.0170663
681.238	0.0171059
681.317	0.0171548
681.395	0.0172196
681.473	0.0171176
681.551	0.0171198
681.629	0.0170158
681.707	0.0170537
681.785	0.0171468
681.863	0.0170236
681.942	0.0172198
682.020	0.0171078
682.098	0.0170962
682.176	0.0172182
682.254	0.0171403
682.332	0.0171572
682.410	0.0172347
682.488	0.0170990
682.567	0.0169781
682.645	0.0172073
682.723	0.0171586
682.801	0.0171755
682.879	0.0171065
682.957	0.0170948
683.035	0.0171280
683.113	0.0171731
683.192	0.0172135
683.270	0.0172232
683.348	0.0171559
683.426	0.0171204
683.504	0.0169875
683.582	0.0171911
683.660	0.0172868
683.738	0.0172115
683.817	0.0170635
683.895	0.0171066
683.973	0.0170515
684.051	0.0170767
684.129	0.0171925
684.207	0.0171859
684.285	0.0171699
684.363	0.0171857
684.442	0.0171441
684.520	0.0171870
684.598	0.0170469
684.676	0.0172456
684.754	0.0170923
684.832	0.0170721
684.910	0.0171336
684.988	0.0172433
685.067	0.0171078
685.145	0.0171039
685.223	0.0173447
685.301	0.0171459
685.379	0.0170692
685.457	0.0171904
685.535	0.0172062
685.613	0.0172132
685.692	0.0172199
685.770	0.0171548
685.848	0.0172116
685.926	0.0172238
686.004	0.0171065
686.082	0.0172558
686.160	0.0172073
686.238	0.0172223
686.317	0.0171425
686.395	0.0171297
686.473	0.0171887
686.551	0.0172192
686.629	0.0172243
686.707	0.0172351
686.785	0.0171130
686.863	0.0172279
686.942	0.0170834
687.020	0.0171288
687.098	0.0171937
687.176	0.0172256
687.254	0.0171394
687.332	0.0172085
687.410	0.0170535
687.488	0.0171423
687.567	0.0171031
687.645	0.0171722
687.723	0.0171321
687.801	0.0172511
687.879	0.0171343
687.957	0.0171359
688.035	0.0172042
688.113	0.0172154
688.192	0.0171539
688.270	0.0171987
688.348	0.0171451
688.426	0.0171321
688.504	0.0171416
688.582	0.0171171
688.660	0.0170937
688.738	0.0170351
688.817	0.0171584
688.895	0.0172028
688.973	0.0173253
689.051	0.0171786
689.129	0.0172168
689.207	0.0172401
689.285	0.0172595
689.363	0.0171191
689.442	0.0170784
689.520	0.0169241
689.598	0.0170915
689.676	0.0171383
689.754	0.0171132
689.832	0.0171104
689.910	0.0171420
689.988	0.0170563
690.067	0.0170319
690.145	0.0172137
690.223	0.0171909
690.301	0.0172110
690.379	0.0171907
690.457	0.0172063
690.535	0.0171785
690.613	0.0170412
690.692	0.0171059
690.770	0.0172491
690.848	0.0170864
690.926	0.0171103
691.004	0.0172856
691.082	0.0172889
691.160	0.0170940
691.238	0.0171204
691.317	0.0171458
691.395	0.0171352
691.473	0.0168820
691.551	0.0169748
691.629	0.0172736
691.707	0.0170269
691.785	0.0171032
691.863	0.0170350
691.942	0.0170011
692.020	0.0170489
692.098	0.0171826
692.176	0.0171578
692.254	0.0170804
692.332	0.0171091
692.410	0.0172518
692.488	0.0169638
692.567	0.0171197
692.645	0.0172458
692.723	0.0170838
692.801	0.0171252
692.879	0.0170500
692.957	0.0171150
693.035	0.0171026
693.113	0.0171053
693.192	0.0172193
693.270	0.0172623
693.348	0.0171340
693.426	0.0171119
693.504	0.0172100
693.582	0.0171352
693.660	0.0171696
693.738	0.0172567
693.817	0.0172079
693.895	0.0171505
693.973	0.0171967
694.051	0.0170956
694.129	0.0170290
694.207	0.0171565
694.285	0.0169960
694.363	0.0170037
694.442	0.0170274
694.520	0.0170832
694.598	0.0171912
694.676	0.0172841
694.754	0.0171742
694.832	0.0171901
694.910	0.0171342
694.988	0.0171240
695.067	0.0171539
695.145	0.0171014
695.223	0.0171541
695.301	0.0171773
695.379	0.0170692
695.457	0.0171057
695.535	0.0171865
695.613	0.0172042
695.692	0.0173073
695.770	0.0170675
695.848	0.0171046
695.926	0.0171984
696.004	0.0171400
696.082	0.0170861
696.160	0.0173207
696.238	0.0172051
696.317	0.0171745
696.395	0.0171951
696.473	0.0173621
696.551	0.0173206
696.629	0.0173240
696.707	0.0172331
696.785	0.0171645
696.863	0.0171352
696.942	0.0170028
697.020	0.0171171
697.098	0.0170630
697.176	0.0170662
697.254	0.0171407
697.332	0.0171923
697.410	0.0171535
697.488	0.0171089
697.567	0.0172619
697.645	0.0171542
697.723	0.0171741
697.801	0.0171611
697.879	0.0170882
697.957	0.0171123
698.035	0.0171019
698.113	0.0170551
698.192	0.0170752
698.270	0.0172950
698.348	0.0171019
698.426	0.0171875
698.504	0.0170810
698.582	0.0171642
698.660	0.0173280
698.738	0.0171997
698.817	0.0172674
698.895	0.0172456
698.973	0.0171254
699.051	0.0172124
699.129	0.0172200
699.207	0.0172645
699.285	0.0174036
699.363	0.0173463
699.442	0.0172644
699.520	0.0172765
699.598	0.0173584
699.676	0.0170747
699.754	0.0171828
699.832	0.0171575
699.910	0.0171318
699.988	0.0171722
700.067	0.0171502
700.145	0.0172440
700.223	0.0171769
700.301	0.0170567
700.379	0.0170059
700.457	0.0169909
700.535	0.0169160
700.613	0.0170846
700.692	0.0170941
700.770	0.0170831
700.848	0.0172256
700.926	0.0172626
701.004	0.0170392
701.082	0.0170551
701.160	0.0171842
701.238	0.0171982
701.317	0.0171597
701.395	0.0171375
701.473	0.0172328
701.551	0.0170940
701.629	0.0171272
701.707	0.0172800
701.785	0.0172757
701.863	0.0173010
701.942	0.0172036
702.020	0.0172339
702.098	0.0172808
702.176	0.0173085
702.254	0.0172478
702.332	0.0172225
702.410	0.0171748
702.488	0.0172503
702.567	0.0171120
702.645	0.0171455
702.723	0.0172536
702.801	0.0170412
702.879	0.0171586
702.957	0.0171504
703.035	0.0170261
703.113	0.0170753
703.192	0.0170604
703.270	0.0171244
703.348	0.0171584
703.426	0.0171641
703.504	0.0172454
703.582	0.0172159
703.660	0.0171750
703.738	0.0170235
703.817	0.0172036
703.895	0.0171391
703.973	0.0171214
704.051	0.0171737
704.129	0.0172575
704.207	0.0171040
704.285	0.0171353
704.363	0.0171514
704.442	0.0172162
704.520	0.0170684
704.598	0.0169988
704.676	0.0171030
704.754	0.0172446
704.832	0.0170983
704.910	0.0171290
704.988	0.0171755
705.067	0.0171352
705.145	0.0171059
705.223	0.0172135
705.301	0.0171909
705.379	0.0172905
705.457	0.0171549
705.535	0.0172955
705.613	0.0172985
705.692	0.0170884
705.770	0.0170958
705.848	0.0170911
705.926	0.0171655
706.004	0.0172150
706.082	0.0172179
706.160	0.0171251
706.238	0.0172352
706.317	0.0171758
706.395	0.0170984
706.473	0.0170836
706.551	0.0169994
706.629	0.0170592
706.707	0.0172017
706.785	0.0170712
706.863	0.0172595
706.942	0.0171207
707.020	0.0171942
707.098	0.0170463
707.176	0.0171629
707.254	0.0170591
707.332	0.0170712
707.410	0.0171765
707.488	0.0171124
707.567	0.0170402
707.645	0.0172034
707.723	0.0171544
707.801	0.0170243
707.879	0.0171649
707.957	0.0171756
708.035	0.0171777
708.113	0.0170365
708.192	0.0171799
708.270	0.0172789
708.348	0.0171825
708.426	0.0171785
708.504	0.0173309
708.582	0.0171561
708.660	0.0171169
708.738	0.0171168
708.817	0.0172273
708.895	0.0172608
708.973	0.0171365
709.051	0.0170618
709.129	0.0170805
709.207	0.0171137
709.285	0.0172165
709.363	0.0171381
709.442	0.0171900
709.520	0.0171826
709.598	0.0172363
709.676	0.0171266
709.754	0.0172150
709.832	0.0171378
709.910	0.0171140
709.988	0.0171075
710.067	0.0171342
710.145	0.0170723
710.223	0.0171627
710.301	0.0168365
710.379	0.0172449
710.457	0.0172116
710.535	0.0172211
710.613	0.0170905
710.692	0.0171848
710.770	0.0172351
710.848	0.0171701
710.926	0.0171238
711.004	0.0172054
711.082	0.0170969
711.160	0.0170750
711.238	0.0171140
711.317	0.0171449
711.395	0.0170511
711.473	0.0170797
711.551	0.0171017
711.629	0.0171100
711.707	0.0169990
711.785	0.0171280
711.863	0.0172645
711.942	0.0170424
712.020	0.0170400
712.098	0.0170912
712.176	0.0171586
712.254	0.0170408
712.332	0.0170815
712.410	0.0171030
712.488	0.0171520
712.567	0.0171000
712.645	0.0171471
712.723	0.0171988
712.801	0.0171084
712.879	0.0171147
712.957	0.0171870
713.035	0.0171680
713.113	0.0171347
713.192	0.0171523
713.270	0.0170789
713.348	0.0171656
713.426	0.0170774
713.504	0.0173189
713.582	0.0171310
713.660	0.0171210
713.738	0.0172707
713.817	0.0171807
713.895	0.0171441
713.973	0.0170996
714.051	0.0172177
714.129	0.0171591
714.207	0.0170873
714.285	0.0172389
714.363	0.0171401
714.442	0.0171125
714.520	0.0171517
714.598	0.0171931
714.676	0.0171817
714.754	0.0172109
714.832	0.0171118
714.910	0.0171679
714.988	0.0171660
715.067	0.0171301
715.145	0.0171160
715.223	0.0170177
715.301	0.0171518
715.379	0.0171356
715.457	0.0171973
715.535	0.0170890
715.613	0.0171607
715.692	0.0174429
715.770	0.0172533
715.848	0.0171243
715.926	0.0170652
716.004	0.0171944
716.082	0.0172800
716.160	0.0171098
716.238	0.0172170
716.317	0.0171217
716.395	0.0171650
716.473	0.0171049
716.551	0.0172031
716.629	0.0171844
716.707	0.0170493
716.785	0.0171101
716.863	0.0171585
716.942	0.0171502
717.020	0.0173251
717.098	0.0172227
717.176	0.0172538
717.254	0.0171529
717.332	0.0172540
717.410	0.0171964
717.488	0.0171946
717.567	0.0171077
717.645	0.0171448
717.723	0.0172032
717.801	0.0172652
717.879	0.0171229
717.957	0.0171066
718.035	0.0170763
718.113	0.0170521
718.192	0.0171490
718.270	0.0171563
718.348	0.0170676
718.426	0.0168904
718.504	0.0171611
718.582	0.0172169
718.660	0.0171790
718.738	0.0170934
718.817	0.0170779
718.895	0.0171993
718.973	0.0171723
719.051	0.0171030
719.129	0.0171226
719.207	0.0171259
719.285	0.0171581
719.363	0.0172615
719.442	0.0171538
719.520	0.0171174
719.598	0.0171008
719.676	0.0170817
719.754	0.0171037
719.832	0.0172036
719.910	0.0171708
719.988	0.0170747
720.067	0.0171409
720.145	0.0171082
720.223	0.0171526
720.301	0.0172536
720.379	0.0171851
720.457	0.0172585
720.535	0.0173089
720.613	0.0171529
720.692	0.0172089
720.770	0.0173467
720.848	0.0172419
720.926	0.0171027
721.004	0.0172650
721.082	0.0172794
721.160	0.0172669
721.238	0.0173093
721.317	0.0171658
721.395	0.0172385
721.473	0.0169738
721.551	0.0170915
721.629	0.0170975
721.707	0.0171776
721.785	0.0171297
721.863	0.0171420
721.942	0.0172802
722.020	0.0171479
722.098	0.0171804
722.176	0.0170882
722.254	0.0169892
722.332	0.0171857
722.410	0.0172279
722.488	0.0173478
722.567	0.0172143
722.645	0.0172135
722.723	0.0171059
722.801	0.0170648
722.879	0.0171428
722.957	0.0172408
723.035	0.0172967
723.113	0.0172029
723.192	0.0171822
723.270	0.0171979
723.348	0.0173113
723.426	0.0172667
723.504	0.0171346
723.582	0.0170712
723.660	0.0171337
723.738	0.0172878
723.817	0.0172202
723.895	0.0171539
723.973	0.0172541
724.051	0.0171114
724.129	0.0171391
724.207	0.0171916
724.285	0.0172932
724.363	0.0170867
724.442	0.0171007
724.520	0.0171902
724.598	0.0171643
724.676	0.0172010
724.754	0.0171309
724.832	0.0171284
724.910	0.0172734
724.988	0.0171765
725.067	0.0172267
725.145	0.0172312
725.223	0.0172378
725.301	0.0170751
725.379	0.0171762
725.457	0.0171771
725.535	0.0170270
725.613	0.0169923
725.692	0.0172852
725.770	0.0171896
725.848	0.0171156
725.926	0.0170417
726.004	0.0171165
726.082	0.0172105
726.160	0.0170944
726.238	0.0170913
726.317	0.0172411
726.395	0.0172388
726.473	0.0171901
726.551	0.0171474
726.629	0.0172552
726.707	0.0171895
726.785	0.0172297
726.863	0.0170723
726.942	0.0172231
727.020	0.0172136
727.098	0.0171061
727.176	0.0171329
727.254	0.0171408
727.332	0.0173172
727.410	0.0170982
727.488	0.0171770
727.567	0.0170950
727.645	0.0171778
727.723	0.0171163
727.801	0.0170619
727.879	0.0171553
727.957	0.0171497
728.035	0.0171269
728.113	0.0171199
728.192	0.0171555
728.270	0.0170477
728.348	0.0171720
728.426	0.0172664
728.504	0.0172730
728.582	0.0172516
728.660	0.0171796
728.738	0.0171532
728.817	0.0171825
728.895	0.0172753
728.973	0.0172347
729.051	0.0171409
729.129	0.0171712
729.207	0.0172743
729.285	0.0172428
729.363	0.0172722
729.442	0.0172549
729.520	0.0171846
729.598	0.0170950
729.676	0.0171333
729.754	0.0171427
729.832	0.0172868
729.910	0.0172127
729.988	0.0172430
730.067	0.0171809
730.145	0.0171772
730.223	0.0171075
730.301	0.0170469
730.379	0.0171172
730.457	0.0170689
730.535	0.0170967
730.613	0.0172519
730.692	0.0170654
730.770	0.0171960
730.848	0.0172065
730.926	0.0171385
731.004	0.0171231
731.082	0.0172299
731.160	0.0171394
731.238	0.0172198
731.317	0.0172190
731.395	0.0170586
731.473	0.0170518
731.551	0.0171726
731.629	0.0172048
731.707	0.0171863
731.785	0.0170925
731.863	0.0170933
731.942	0.0171728
732.020	0.0171305
732.098	0.0172318
732.176	0.0173356
732.254	0.0171075
732.332	0.0171544
732.410	0.0172132
732.488	0.0171381
732.567	0.0172169
732.645	0.0171466
732.723	0.0170667
732.801	0.0172475
732.879	0.0173203
732.957	0.0171818
733.035	0.0170617
733.113	0.0171432
733.192	0.0172009
733.270	0.0171754
733.348	0.0172173
733.426	0.0171780
733.504	0.0170813
733.582	0.0170805
733.660	0.0172539
733.738	0.0171635
733.817	0.0170814
733.895	0.0172418
733.973	0.0172346
734.051	0.0171928
734.129	0.0172108
734.207	0.0171906
734.285	0.0171952
734.363	0.0170633
734.442	0.0171430
734.520	0.0173611
734.598	0.0173004
734.676	0.0171268
734.754	0.0172069
734.832	0.0171867
734.910	0.0171613
734.988	0.0172123
735.067	0.0171193
735.145	0.0171020
735.223	0.0172163
735.301	0.0170618
735.379	0.0171868
735.457	0.0171925
735.535	0.0171884
735.613	0.0173479
735.692	0.0172241
735.770	0.0170506
735.848	0.0172569
735.926	0.0172350
736.004	0.0171790
736.082	0.0172550
736.160	0.0172617
736.238	0.0171841
736.317	0.0171272
736.395	0.0171960
736.473	0.0173106
736.551	0.0171279
736.629	0.0172148
736.707	0.0172457
736.785	0.0172668
736.863	0.0172325
736.942	0.0171245
737.020	0.0171985
737.098	0.0172283
737.176	0.0171595
737.254	0.0172064
737.332	0.0172783
737.410	0.0171727
737.488	0.0172732
737.567	0.0170126
737.645	0.0172433
737.723	0.0172184
737.801	0.0171717
737.879	0.0172614
737.957	0.0171955
738.035	0.0171074
738.113	0.0172291
738.192	0.0170402
738.270	0.0172336
738.348	0.0171580
738.426	0.0170495
738.504	0.0172340
738.582	0.0171546
738.660	0.0169962
738.738	0.0171158
738.817	0.0172650
738.895	0.0170660
738.973	0.0170891
739.051	0.0171845
739.129	0.0171118
739.207	0.0170663
739.285	0.0173760
739.363	0.0172212
739.442	0.0172378
739.520	0.0172762
739.598	0.0172900
739.676	0.0170624
739.754	0.0170972
739.832	0.0173366
739.910	0.0171844
739.988	0.0171248
740.067	0.0172207
740.145	0.0171661
740.223	0.0172581
740.301	0.0172415
740.379	0.0173471
740.457	0.0172301
740.535	0.0171753
740.613	0.0171094
740.692	0.0171130
740.770	0.0171983
740.848	0.0172066
740.926	0.0170358
741.004	0.0170260
741.082	0.0172775
741.160	0.0172225
741.238	0.0172095
741.317	0.0171753
741.395	0.0171657
741.473	0.0171719
741.551	0.0172599
741.629	0.0172581
741.707	0.0171595
741.785	0.0171188
741.863	0.0172018
741.942	0.0173238
742.020	0.0171951
742.098	0.0171601
742.176	0.0171938
742.254	0.0170819
742.332	0.0173074
742.410	0.0172092
742.488	0.0170703
742.567	0.0170916
742.645	0.0171091
742.723	0.0171808
742.801	0.0171401
742.879	0.0170860
742.957	0.0170352
743.035	0.0170992
743.113	0.0170809
743.192	0.0170786
743.270	0.0171418
743.348	0.0171239
743.426	0.0170302
743.504	0.0171068
743.582	0.0171468
743.660	0.0171687
743.738	0.0172291
743.817	0.0171444
743.895	0.0170853
743.973	0.0171684
744.051	0.0171465
744.129	0.0170995
744.207	0.0172168
744.285	0.0170622
744.363	0.0170248
744.442	0.0171948
744.520	0.0172298
744.598	0.0170764
744.676	0.0172672
744.754	0.0170921
744.832	0.0171240
744.910	0.0172379
744.988	0.0172257
745.067	0.0172238
745.145	0.0172241
745.223	0.0169822
745.301	0.0172288
745.379	0.0171098
745.457	0.0170701
745.535	0.0172338
745.613	0.0172240
745.692	0.0172152
745.770	0.0172919
745.848	0.0172070
745.926	0.0170547
746.004	0.0170744
746.082	0.0170842
746.160	0.0170263
746.238	0.0172463
746.317	0.0172496
746.395	0.0172302
746.473	0.0170844
746.551	0.0171336
746.629	0.0170765
746.707	0.0171369
746.785	0.0171884
746.863	0.0171474
746.942	0.0171527
747.020	0.0172107
747.098	0.0171289
747.176	0.0172095
747.254	0.0172682
747.332	0.0171164
747.410	0.0171182
747.488	0.0171923
747.567	0.0172347
747.645	0.0170780
747.723	0.0170881
747.801	0.0172041
747.879	0.0173061
747.957	0.0171346
748.035	0.0171046
748.113	0.0171755
748.192	0.0171712
748.270	0.0171284
748.348	0.0171393
748.426	0.0172195
748.504	0.0171104
748.582	0.0171232
748.660	0.0171426
748.738	0.0171487
748.817	0.0171623
748.895	0.0172270
748.973	0.0171593
749.051	0.0171824
749.129	0.0171954
749.207	0.0171822
749.285	0.0171649
749.363	0.0170915
749.442	0.0170245
749.520	0.0170132
749.598	0.0170482
749.676	0.0172762
749.754	0.0171612
749.832	0.0171208
749.910	0.0171503
749.988	0.0172751
750.067	0.0172016
750.145	0.0170364
750.223	0.0171738
750.301	0.0171180
750.379	0.0169659
750.457	0.0171375
750.535	0.0172800
750.613	0.0170055
750.692	0.0171576
750.770	0.0171881
750.848	0.0171485
750.926	0.0172036
751.004	0.0171723
751.082	0.0172038
751.160	0.0172205
751.238	0.0171824
751.317	0.0170018
751.395	0.0171449
751.473	0.0173157
751.551	0.0172837
751.629	0.0173232
751.707	0.0171990
751.785	0.0172812
751.863	0.0173233
751.942	0.0170638
752.020	0.0173087
752.098	0.0172346
752.176	0.0171533
752.254	0.0171925
752.332	0.0172279
752.410	0.0172704
752.488	0.0171552
752.567	0.0171238
752.645	0.0170554
752.723	0.0171406
752.801	0.0171960
752.879	0.0171594
752.957	0.0171569
753.035	0.0172126
753.113	0.0171674
753.192	0.0172585
753.270	0.0172531
753.348	0.0170238
753.426	0.0170275
753.504	0.0170484
753.582	0.0171260
753.660	0.0170937
753.738	0.0171206
753.817	0.0172372
753.895	0.0172640
753.973	0.0170629
754.051	0.0172453
754.129	0.0170416
754.207	0.0171239
754.285	0.0172947
754.363	0.0172323
754.442	0.0170563
754.520	0.0171630
754.598	0.0173500
754.676	0.0171687
754.754	0.0171317
754.832	0.0171457
754.910	0.0171561
754.988	0.0171455
755.067	0.0171776
755.145	0.0172438
755.223	0.0171752
755.301	0.0172480
755.379	0.0171671
755.457	0.0172495
755.535	0.0172385
755.613	0.0171484
755.692	0.0171935
755.770	0.0171973
755.848	0.0171573
755.926	0.0170967
756.004	0.0172201
756.082	0.0172229
756.160	0.0171215
756.238	0.0170551
756.317	0.0173212
756.395	0.0172449
756.473	0.0172371
756.551	0.0171080
756.629	0.0171099
756.707	0.0170446
756.785	0.0171450
756.863	0.0171561
756.942	0.0172674
757.020	0.0169454
757.098	0.0171706
757.176	0.0171779
757.254	0.0171463
757.332	0.0172126
757.410	0.0172342
757.488	0.0171802
757.567	0.0171447
757.645	0.0172172
757.723	0.0170799
757.801	0.0171402
757.879	0.0171660
757.957	0.0172284
758.035	0.0171252
758.113	0.0171411
758.192	0.0171482
758.270	0.0171906
758.348	0.0171588
758.426	0.0171169
758.504	0.0171543
758.582	0.0171648
758.660	0.0171061
758.738	0.0171378
758.817	0.0169755
758.895	0.0171182
758.973	0.0171696
759.051	0.0171429
759.129	0.0172077
759.207	0.0171936
759.285	0.0171909
759.363	0.0172523
759.442	0.0171056
759.520	0.0171255
759.598	0.0171832
759.676	0.0172172
759.754	0.0171550
759.832	0.0171374
759.910	0.0171909
759.988	0.0171864
760.067	0.0173466
760.145	0.0170908
760.223	0.0171125
760.301	0.0171873
760.379	0.0170994
760.457	0.0171139
760.535	0.0171930
760.613	0.0172285
760.692	0.0172968
760.770	0.0172676
760.848	0.0171629
760.926	0.0170785
761.004	0.0171859
761.082	0.0170995
761.160	0.0171648
761.238	0.0173742
761.317	0.0171301
761.395	0.0173259
761.473	0.0171553
761.551	0.0172669
761.629	0.0172026
761.707	0.0171717
761.785	0.0171725
761.863	0.0172240
761.942	0.0171480
762.020	0.0170607
762.098	0.0171373
762.176	0.0172374
762.254	0.0171704
762.332	0.0170292
762.410	0.0172464
762.488	0.0171671
762.567	0.0171861
762.645	0.0170498
762.723	0.0171574
762.801	0.0172290
762.879	0.0171492
762.957	0.0172472
763.035	0.0171616
763.113	0.0172122
763.192	0.0173141
763.270	0.0172960
763.348	0.0171899
763.426	0.0172571
763.504	0.0171876
763.582	0.0172514
763.660	0.0172650
763.738	0.0170532
763.817	0.0171755
763.895	0.0173243
763.973	0.0172141
764.051	0.0172598
764.129	0.0171291
764.207	0.0171866
764.285	0.0172327
764.363	0.0171239
764.442	0.0171962
764.520	0.0172553
764.598	0.0172219
764.676	0.0173048
764.754	0.0172616
764.832	0.0171964
764.910	0.0172254
764.988	0.0172046
765.067	0.0170969
765.145	0.0172063
765.223	0.0172658
765.301	0.0172997
765.379	0.0172369
765.457	0.0171771
765.535	0.0172194
765.613	0.0171774
765.692	0.0172925
765.770	0.0173016
765.848	0.0172502
765.926	0.0170995
766.004	0.0173115
766.082	0.0172806
766.160	0.0171268
766.238	0.0171134
766.317	0.0171796
766.395	0.0172755
766.473	0.0173322
766.551	0.0172131
766.629	0.0171899
766.707	0.0171449
766.785	0.0172329
766.863	0.0172858
766.942	0.0172034
767.020	0.0171816
767.098	0.0173274
767.176	0.0172404
767.254	0.0171227
767.332	0.0171944
767.410	0.0173215
767.488	0.0172385
767.567	0.0171494
767.645	0.0172289
767.723	0.0172648
767.801	0.0172971
767.879	0.0172230
767.957	0.0171697
768.035	0.0172115
768.113	0.0171801
768.192	0.0172666
768.270	0.0173104
768.348	0.0171867
768.426	0.0171307
768.504	0.0171523
768.582	0.0172462
768.660	0.0172035
768.738	0.0171822
768.817	0.0172364
768.895	0.0172444
768.973	0.0170798
769.051	0.0171793
769.129	0.0170879
769.207	0.0171526
769.285	0.0172767
769.363	0.0171835
769.442	0.0171706
769.520	0.0169953
769.598	0.0172146
769.676	0.0171384
769.754	0.0170683
769.832	0.0172093
769.910	0.0172691
769.988	0.0171335
770.067	0.0171920
770.145	0.0171546
770.223	0.0171600
770.301	0.0171154
770.379	0.0171971
770.457	0.0172816
770.535	0.0172145
770.613	0.0170914
770.692	0.0172237
770.770	0.0170892
770.848	0.0171250
770.926	0.0172630
771.004	0.0172368
771.082	0.0170750
771.160	0.0171411
771.238	0.0171365
771.317	0.0171351
771.395	0.0172196
771.473	0.0173414
771.551	0.0172065
771.629	0.0172426
771.707	0.0172472
771.785	0.0170436
771.863	0.0170924
771.942	0.0171545
772.020	0.0173249
772.098	0.0172280
772.176	0.0172488
772.254	0.0171100
772.332	0.0172083
772.410	0.0172393
772.488	0.0171751
772.567	0.0170684
772.645	0.0172698
772.723	0.0171992
772.801	0.0172263
772.879	0.0172975
772.957	0.0172180
773.035	0.0171691
773.113	0.0171969
773.192	0.0171945
773.270	0.0171849
773.348	0.0173899
773.426	0.0171798
773.504	0.0172224
773.582	0.0171359
773.660	0.0170680
773.738	0.0171319
773.817	0.0172179
773.895	0.0172493
773.973	0.0172480
774.051	0.0172849
774.129	0.0170711
774.207	0.0172887
774.285	0.0173335
774.363	0.0171206
774.442	0.0171565
774.520	0.0171569
774.598	0.0172117
774.676	0.0173335
774.754	0.0171334
774.832	0.0171780
774.910	0.0172105
774.988	0.0173637
775.067	0.0172503
775.145	0.0171748
775.223	0.0170889
775.301	0.0171596
775.379	0.0172050
775.457	0.0170802
775.535	0.0170769
775.613	0.0172951
775.692	0.0172800
775.770	0.0173383
775.848	0.0172495
775.926	0.0170868
776.004	0.0171036
776.082	0.0172363
776.160	0.0171748
776.238	0.0170081
776.317	0.0171725
776.395	0.0171110
776.473	0.0173119
776.551	0.0170996
776.629	0.0171793
776.707	0.0172578
776.785	0.0171385
776.863	0.0172680
776.942	0.0171996
777.020	0.0172401
777.098	0.0171958
777.176	0.0171378
777.254	0.0172226
777.332	0.0171575
777.410	0.0171420
777.488	0.0171967
777.567	0.0170872
777.645	0.0172965
777.723	0.0172984
777.801	0.0171095
777.879	0.0170981
777.957	0.0171844
778.035	0.0173228
778.113	0.0171703
778.192	0.0171477
778.270	0.0172412
778.348	0.0172104
778.426	0.0171194
778.504	0.0171966
778.582	0.0173645
778.660	0.0170600
778.738	0.0170445
778.817	0.0172824
778.895	0.0172290
778.973	0.0171509
779.051	0.0171992
779.129	0.0170703
779.207	0.0172394
779.285	0.0171021
779.363	0.0171288
779.442	0.0170753
779.520	0.0172736
779.598	0.0171455
779.676	0.0172353
779.754	0.0171966
779.832	0.0170864
779.910	0.0172021
779.988	0.0172698
780.067	0.0171111
780.145	0.0172810
780.223	0.0172385
780.301	0.0173106
780.379	0.0171988
780.457	0.0172079
780.535	0.0171913
780.613	0.0171935
780.692	0.0172993
780.770	0.0172161
780.848	0.0171213
780.926	0.0171075
781.004	0.0171616
781.082	0.0171118
781.160	0.0173060
781.238	0.0171462
781.317	0.0171593
781.395	0.0172343
781.473	0.0170551
781.551	0.0172584
781.629	0.0170895
781.707	0.0171313
781.785	0.0171684
781.863	0.0171420
781.942	0.0169730
782.020	0.0171663
782.098	0.0172697
782.176	0.0171811
782.254	0.0171207
782.332	0.0171054
782.410	0.0171478
782.488	0.0171997
782.567	0.0171909
782.645	0.0172378
782.723	0.0171007
782.801	0.0171529
782.879	0.0172198
782.957	0.0171296
783.035	0.0170734
783.113	0.0171579
783.192	0.0171780
783.270	0.0172776
783.348	0.0170757
783.426	0.0171458
783.504	0.0171764
783.582	0.0171267
783.660	0.0172144
783.738	0.0171098
783.817	0.0170746
783.895	0.0173092
783.973	0.0171910
784.051	0.0172423
784.129	0.0171055
784.207	0.0172174
784.285	0.0172531
784.363	0.0171259
784.442	0.0171078
784.520	0.0172198
784.598	0.0172667
784.676	0.0171518
784.754	0.0172152
784.832	0.0173442
784.910	0.0171420
784.988	0.0171934
785.067	0.0172124
785.145	0.0172559
785.223	0.0170437
785.301	0.0171674
785.379	0.0172633
785.457	0.0170537
785.535	0.0171984
785.613	0.0172345
785.692	0.0171654
785.770	0.0171917
785.848	0.0172235
785.926	0.0171983
786.004	0.0173022
786.082	0.0172557
786.160	0.0173357
786.238	0.0171514
786.317	0.0170937
786.395	0.0171501
786.473	0.0173183
786.551	0.0172625
786.629	0.0172803
786.707	0.0172102
786.785	0.0171287
786.863	0.0171387
786.942	0.0171072
787.020	0.0171250
787.098	0.0172070
787.176	0.0172808
787.254	0.0172625
787.332	0.0171486
787.410	0.0171067
787.488	0.0172750
787.567	0.0172643
787.645	0.0171371
787.723	0.0172981
787.801	0.0172085
787.879	0.0172066
787.957	0.0171240
788.035	0.0171157
788.113	0.0172720
788.192	0.0171642
788.270	0.0171214
788.348	0.0172153
788.426	0.0173251
788.504	0.0171994
788.582	0.0172404
788.660	0.0171369
788.738	0.0171423
788.817	0.0172707
788.895	0.0173319
788.973	0.0171471
789.051	0.0171886
789.129	0.0171477
789.207	0.0171924
789.285	0.0170269
789.363	0.0171497
789.442	0.0172233
789.520	0.0171539
789.598	0.0171847
789.676	0.0171508
789.754	0.0172723
789.832	0.0172078
789.910	0.0171127
789.988	0.0172618
790.067	0.0172402
790.145	0.0171013
790.223	0.0172427
790.301	0.0170524
790.379	0.0171764
790.457	0.0171855
790.535	0.0171798
790.613	0.0171122
790.692	0.0172718
790.770	0.0172157
790.848	0.0170442
790.926	0.0171016
791.004	0.0171706
791.082	0.0172211
791.160	0.0172128
791.238	0.0171001
791.317	0.0172055
791.395	0.0170942
791.473	0.0171297
791.551	0.0172619
791.629	0.0172308
791.707	0.0171490
791.785	0.0172677
791.863	0.0171262
791.942	0.0171212
792.020	0.0172041
792.098	0.0172062
792.176	0.0171513
792.254	0.0172841
792.332	0.0172034
792.410	0.0171835
792.488	0.0172882
792.567	0.0171604
792.645	0.0171786
792.723	0.0173230
792.801	0.0172021
792.879	0.0172202
792.957	0.0173263
793.035	0.0171661
793.113	0.0172398
793.192	0.0172959
793.270	0.0172025
793.348	0.0171014
793.426	0.0171057
793.504	0.0172076
793.582	0.0172910
793.660	0.0172070
793.738	0.0172462
793.817	0.0171513
793.895	0.0172775
793.973	0.0172958
794.051	0.0171674
794.129	0.0172794
794.207	0.0171784
794.285	0.0172501
794.363	0.0172346
794.442	0.0172129
794.520	0.0170443
794.598	0.0172785
794.676	0.0173297
794.754	0.0172506
794.832	0.0172797
794.910	0.0171487
794.988	0.0171893
795.067	0.0171397
795.145	0.0171497
795.223	0.0172367
795.301	0.0172514
795.379	0.0172030
795.457	0.0172327
795.535	0.0171545
795.613	0.0172524
795.692	0.0171947
795.770	0.0170767
795.848	0.0171138
795.926	0.0170670
796.004	0.0171368
796.082	0.0170750
796.160	0.0172277
796.238	0.0172262
796.317	0.0171627
796.395	0.0170529
796.473	0.0171604
796.551	0.0172195
796.629	0.0171172
796.707	0.0171871
796.785	0.0171785
796.863	0.0172487
796.942	0.0172414
797.020	0.0172890
797.098	0.0171760
797.176	0.0172345
797.254	0.0172207
797.332	0.0171943
797.410	0.0171967
797.488	0.0171615
797.567	0.0172031
797.645	0.0171561
797.723	0.0173071
797.801	0.0172016
797.879	0.0172019
797.957	0.0170892
798.035	0.0172121
798.113	0.0172282
798.192	0.0171375
798.270	0.0171753
798.348	0.0171760
798.426	0.0170836
798.504	0.0171352
798.582	0.0171857
798.660	0.0171578
798.738	0.0171796
798.817	0.0172281
798.895	0.0171737
798.973	0.0171546
799.051	0.0171166
799.129	0.0170734
799.207	0.0171626
799.285	0.0171516
799.363	0.0172135
799.442	0.0171982
799.520	0.0171681
799.598	0.0171724
799.676	0.0171609
799.754	0.0172680
799.832	0.0172079
799.910	0.0170992
799.988	0.0171928
800.067	0.0173434
800.145	0.0172091
800.223	0.0171947
800.301	0.0171534
800.379	0.0170972
800.457	0.0171690
800.535	0.0171856
800.613	0.0172851
800.692	0.0172003
800.770	0.0171870
800.848	0.0170984
800.926	0.0171580
801.004	0.0172953
801.082	0.0170352
801.160	0.0172118
801.238	0.0172578
801.317	0.0170293
801.395	0.0172584
801.473	0.0173002
801.551	0.0172705
801.629	0.0173163
801.707	0.0171769
801.785	0.0172937
801.863	0.0172182
801.942	0.0171130
802.020	0.0171935
802.098	0.0172563
802.176	0.0172266
802.254	0.0171521
802.332	0.0171863
802.410	0.0172242
802.488	0.0170756
802.567	0.0171987
802.645	0.0171175
802.723	0.0170812
802.801	0.0171479
802.879	0.0173077
802.957	0.0172414
803.035	0.0171142
803.113	0.0172274
803.192	0.0171923
803.270	0.0171706
803.348	0.0171853
803.426	0.0172174
803.504	0.0172935
803.582	0.0172262
803.660	0.0171787
803.738	0.0171387
803.817	0.0172249
803.895	0.0172000
803.973	0.0172076
804.051	0.0171844
804.129	0.0173219
804.207	0.0171542
804.285	0.0171456
804.363	0.0172439
804.442	0.0171108
804.520	0.0173270
804.598	0.0172132
804.676	0.0171316
804.754	0.0172419
804.832	0.0171355
804.910	0.0171478
804.988	0.0171033
805.067	0.0172636
805.145	0.0172825
805.223	0.0172688
805.301	0.0170805
805.379	0.0171851
805.457	0.0172320
805.535	0.0171327
805.613	0.0172065
805.692	0.0170456
805.770	0.0171933
805.848	0.0171861
805.926	0.0171652
806.004	0.0172446
806.082	0.0171697
806.160	0.0173190
806.238	0.0172131
806.317	0.0171024
806.395	0.0171469
806.473	0.0171469
806.551	0.0171504
806.629	0.0171983
806.707	0.0172232
806.785	0.0171973
806.863	0.0171883
806.942	0.0172071
807.020	0.0171600
807.098	0.0171640
807.176	0.0172452
807.254	0.0171551
807.332	0.0171622
807.410	0.0172150
807.488	0.0171768
807.567	0.0171887
807.645	0.0171672
807.723	0.0171204
807.801	0.0172252
807.879	0.0171922
807.957	0.0172768
808.035	0.0171358
808.113	0.0171046
808.192	0.0173126
808.270	0.0172056
808.348	0.0170823
808.426	0.0170622
808.504	0.0171341
808.582	0.0171997
808.660	0.0172742
808.738	0.0171964
808.817	0.0172660
808.895	0.0172202
808.973	0.0174165
809.051	0.0171624
809.129	0.0170846
809.207	0.0171807
809.285	0.0171053
809.363	0.0172004
809.442	0.0172477
809.520	0.0172007
809.598	0.0171960
809.676	0.0172739
809.754	0.0172432
809.832	0.0172253
809.910	0.0171949
809.988	0.0171407
810.067	0.0172391
810.145	0.0172782
810.223	0.0172659
810.301	0.0172569
810.379	0.0171743
810.457	0.0171746
810.535	0.0171462
810.613	0.0171042
810.692	0.0171414
810.770	0.0173084
810.848	0.0171505
810.926	0.0170881
811.004	0.0171448
811.082	0.0172021
811.160	0.0170521
811.238	0.0173050
811.317	0.0172009
811.395	0.0172131
811.473	0.0171490
811.551	0.0171720
811.629	0.0171957
811.707	0.0172436
811.785	0.0171402
811.863	0.0170341
811.942	0.0172571
812.020	0.0171973
812.098	0.0172707
812.176	0.0172746
812.254	0.0171362
812.332	0.0172017
812.410	0.0172515
812.488	0.0171601
812.567	0.0172301
812.645	0.0171435
812.723	0.0171468
812.801	0.0171036
812.879	0.0170841
812.957	0.0171571
813.035	0.0171677
813.113	0.0172225
813.192	0.0171049
813.270	0.0170905
813.348	0.0170882
813.426	0.0172029
813.504	0.0172556
813.582	0.0171287
813.660	0.0172103
813.738	0.0173239
813.817	0.0172666
813.895	0.0170850
813.973	0.0172464
814.051	0.0170780
814.129	0.0172390
814.207	0.0171235
814.285	0.0171301
814.363	0.0171806
814.442	0.0172890
814.520	0.0171532
814.598	0.0170251
814.676	0.0171816
814.754	0.0172865
814.832	0.0172388
814.910	0.0170529
814.988	0.0171545
815.067	0.0171766
815.145	0.0171700
815.223	0.0171765
815.301	0.0171539
815.379	0.0171134
815.457	0.0171877
815.535	0.0171410
815.613	0.0172163
815.692	0.0172552
815.770	0.0172057
815.848	0.0171755
815.926	0.0171979
816.004	0.0173003
816.082	0.0171542
816.160	0.0170467
816.238	0.0171617
816.317	0.0172613
816.395	0.0170664
816.473	0.0171806
816.551	0.0171490
816.629	0.0171394
816.707	0.0171722
816.785	0.0171297
816.863	0.0171471
816.942	0.0170487
817.020	0.0172398
817.098	0.0171763
817.176	0.0171535
817.254	0.0173701
817.332	0.0172044
817.410	0.0171969
817.488	0.0171327
817.567	0.0170512
817.645	0.0172031
817.723	0.0171267
817.801	0.0172407
817.879	0.0171709
817.957	0.0171138
818.035	0.0170453
818.113	0.0172958
818.192	0.0171781
818.270	0.0172108
818.348	0.0172957
818.426	0.0171442
818.504	0.0172832
818.582	0.0171635
818.660	0.0171111
818.738	0.0172481
818.817	0.0173035
818.895	0.0169917
818.973	0.0172740
819.051	0.0171941
819.129	0.0172103
819.207	0.0170236
819.285	0.0171826
819.363	0.0172395
819.442	0.0172284
819.520	0.0172765
819.598	0.0172905
819.676	0.0172125
819.754	0.0171305
819.832	0.0172095
819.910	0.0171386
819.988	0.0172479
820.067	0.0171572
820.145	0.0172949
820.223	0.0172858
820.301	0.0171185
820.379	0.0170520
820.457	0.0171378
820.535	0.0172262
820.613	0.0171784
820.692	0.0171794
820.770	0.0172441
820.848	0.0170885
820.926	0.0171152
821.004	0.0172742
821.082	0.0171150
821.160	0.0172093
821.238	0.0172666
821.317	0.0172225
821.395	0.0171002
821.473	0.0170374
821.551	0.0173395
821.629	0.0171994
821.707	0.0172076
821.785	0.0171805
821.863	0.0170278
821.942	0.0171355
822.020	0.0172308
822.098	0.0172046
822.176	0.0171146
822.254	0.0171583
822.332	0.0171497
822.410	0.0172156
822.488	0.0171687
822.567	0.0171497
822.645	0.0172945
822.723	0.0170966
822.801	0.0170033
822.879	0.0171810
822.957	0.0172607
823.035	0.0172410
823.113	0.0172701
823.192	0.0171233
823.270	0.0171133
823.348	0.0171785
823.426	0.0171535
823.504	0.0172263
823.582	0.0171856
823.660	0.0172800
823.738	0.0171076
823.817	0.0170956
823.895	0.0172543
823.973	0.0172009
824.051	0.0172810
824.129	0.0172298
824.207	0.0172330
824.285	0.0172118
824.363	0.0173577
824.442	0.0172658
824.520	0.0171959
824.598	0.0172880
824.676	0.0169966
824.754	0.0171094
824.832	0.0172829
824.910	0.0171946
824.988	0.0172668
825.067	0.0172468
825.145	0.0171412
825.223	0.0171913
825.301	0.0172440
825.379	0.0171722
825.457	0.0171183
825.535	0.0171692
825.613	0.0171243
825.692	0.0172130
825.770	0.0172240
825.848	0.0172452
825.926	0.0172804
826.004	0.0171994
826.082	0.0172211
826.160	0.0173017
826.238	0.0172754
826.317	0.0170723
826.395	0.0170635
826.473	0.0170959
826.551	0.0171328
826.629	0.0172301
826.707	0.0172593
826.785	0.0172598
826.863	0.0172599
826.942	0.0172968
827.020	0.0172879
827.098	0.0170785
827.176	0.0171028
827.254	0.0172041
827.332	0.0172042
827.410	0.0171555
827.488	0.0171990
827.567	0.0171321
827.645	0.0171886
827.723	0.0172945
827.801	0.0171510
827.879	0.0170881
827.957	0.0171857
828.035	0.0172776
828.113	0.0172909
828.192	0.0172194
828.270	0.0172003
828.348	0.0172710
828.426	0.0173414
828.504	0.0173175
828.582	0.0173717
828.660	0.0171570
828.738	0.0171916
828.817	0.0172595
828.895	0.0172121
828.973	0.0171377
829.051	0.0171123
829.129	0.0171520
829.207	0.0172724
829.285	0.0172520
829.363	0.0171455
829.442	0.0171481
829.520	0.0172440
829.598	0.0172762
829.676	0.0170883
829.754	0.0171641
829.832	0.0171285
829.910	0.0171864
829.988	0.0171397
830.067	0.0172136
830.145	0.0172463
830.223	0.0171956
830.301	0.0171990
830.379	0.0172267
830.457	0.0172479
830.535	0.0171357
830.613	0.0171423
830.692	0.0172096
830.770	0.0171365
830.848	0.0172495
830.926	0.0172201
831.004	0.0171416
831.082	0.0173171
831.160	0.0171774
831.238	0.0172875
831.317	0.0172258
831.395	0.0172346
831.473	0.0172232
831.551	0.0170827
831.629	0.0170647
831.707	0.0172342
831.785	0.0172719
831.863	0.0171118
831.942	0.0171742
832.020	0.0172326
832.098	0.0171684
832.176	0.0170294
832.254	0.0172520
832.332	0.0172347
832.410	0.0171924
832.488	0.0172189
832.567	0.0172254
832.645	0.0171169
832.723	0.0172103
832.801	0.0171314
832.879	0.0170803
832.957	0.0171149
833.035	0.0173873
833.113	0.0171303
833.192	0.0170676
833.270	0.0171638
833.348	0.0171059
833.426	0.0171420
833.504	0.0171917
833.582	0.0172244
833.660	0.0171609
833.738	0.0171947
833.817	0.0172266
833.895	0.0172775
833.973	0.0172046
834.051	0.0169980
834.129	0.0170218
834.207	0.0172389
834.285	0.0172616
834.363	0.0172556
834.442	0.0172094
834.520	0.0171337
834.598	0.0171358
834.676	0.0171525
834.754	0.0171455
834.832	0.0172451
834.910	0.0170329
834.988	0.0171980
835.067	0.0172616
835.145	0.0172079
835.223	0.0172361
835.301	0.0171323
835.379	0.0172163
835.457	0.0171962
835.535	0.0173054
835.613	0.0172238
835.692	0.0170753
835.770	0.0172025
835.848	0.0172179
835.926	0.0172678
836.004	0.0171788
836.082	0.0173037
836.160	0.0171665
836.238	0.0171605
836.317	0.0172070
836.395	0.0172229
836.473	0.0173562
836.551	0.0172195
836.629	0.0171468
836.707	0.0171321
836.785	0.0172466
836.863	0.0172101
836.942	0.0173347
837.020	0.0172594
837.098	0.0171634
837.176	0.0170517
837.254	0.0171474
837.332	0.0172195
837.410	0.0173293
837.488	0.0171278
837.567	0.0172478
837.645	0.0170841
837.723	0.0172502
837.801	0.0171423
837.879	0.0171759
837.957	0.0171040
838.035	0.0171323
838.113	0.0172284
838.192	0.0171429
838.270	0.0172043
838.348	0.0171312
838.426	0.0171206
838.504	0.0171109
838.582	0.0171379
838.660	0.0172053
838.738	0.0172460
838.817	0.0172388
838.895	0.0173141
838.973	0.0172186
839.051	0.0172653
839.129	0.0170721
839.207	0.0173042
839.285	0.0171879
839.363	0.0172158
839.442	0.0171974
839.520	0.0171979
839.598	0.0171351
839.676	0.0171208
839.754	0.0171069
839.832	0.0171572
839.910	0.0172923
839.988	0.0171161
840.067	0.0171705
840.145	0.0172103
840.223	0.0171482
840.301	0.0172683
840.379	0.0170879
840.457	0.0172052
840.535	0.0172012
840.613	0.0170816
840.692	0.0171998
840.770	0.0171528
840.848	0.0171474
840.926	0.0172987
841.004	0.0170914
841.082	0.0171414
841.160	0.0171645
841.238	0.0171301
841.317	0.0170073
841.395	0.0173064
841.473	0.0173262
841.551	0.0171116
841.629	0.0170754
841.707	0.0170792
841.785	0.0170953
841.863	0.0171301
841.942	0.0171242
842.020	0.0171903
842.098	0.0170578
842.176	0.0171233
842.254	0.0171812
842.332	0.0171775
842.410	0.0171537
842.488	0.0172725
842.567	0.0172160
842.645	0.0171162
842.723	0.0171494
842.801	0.0171485
842.879	0.0171986
842.957	0.0171084
843.035	0.0171709
843.113	0.0170145
843.192	0.0171842
843.270	0.0171815
843.348	0.0171534
843.426	0.0173384
843.504	0.0171917
843.582	0.0170602
843.660	0.0171968
843.738	0.0173351
843.817	0.0170942
843.895	0.0170569
843.973	0.0171948
844.051	0.0172275
844.129	0.0171798
844.207	0.0171188
844.285	0.0171706
844.363	0.0171687
844.442	0.0172725
844.520	0.0171297
844.598	0.0171085
844.676	0.0171758
844.754	0.0170319
844.832	0.0171559
844.910	0.0172540
844.988	0.0171481
845.067	0.0172065
845.145	0.0172375
845.223	0.0171889
845.301	0.0171027
845.379	0.0171879
845.457	0.0171982
845.535	0.0172307
845.613	0.0171771
845.692	0.0171538
845.770	0.0173056
845.848	0.0170676
845.926	0.0171867
846.004	0.0171803
846.082	0.0172258
846.160	0.0170670
846.238	0.0171799
846.317	0.0171532
846.395	0.0171640
846.473	0.0170850
846.551	0.0171522
846.629	0.0172517
846.707	0.0171407
846.785	0.0171480
846.863	0.0171374
846.942	0.0171616
847.020	0.0172351
847.098	0.0172288
847.176	0.0171023
847.254	0.0171802
847.332	0.0170743
847.410	0.0171017
847.488	0.0172282
847.567	0.0171727
847.645	0.0171837
847.723	0.0172997
847.801	0.0172997
847.879	0.0171941
847.957	0.0172115
848.035	0.0172572
848.113	0.0171897
848.192	0.0171795
848.270	0.0172236
848.348	0.0172893
848.426	0.0172814
848.504	0.0170937
848.582	0.0170950
848.660	0.0172231
848.738	0.0172674
848.817	0.0171910
848.895	0.0171622
848.973	0.0171957
849.051	0.0172701
849.129	0.0172289
849.207	0.0170368
849.285	0.0172396
849.363	0.0171168
849.442	0.0171771
849.520	0.0171812
849.598	0.0171711
849.676	0.0172348
849.754	0.0170370
849.832	0.0170927
849.910	0.0171088
849.988	0.0170824
850.067	0.0171313
850.145	0.0170886
850.223	0.0171633
850.301	0.0170895
850.379	0.0172501
850.457	0.0172970
850.535	0.0172087
850.613	0.0172039
850.692	0.0172192
850.770	0.0172124
850.848	0.0170987
850.926	0.0172694
851.004	0.0171087
851.082	0.0172356
851.160	0.0172825
851.238	0.0170308
851.317	0.0172141
851.395	0.0171217
851.473	0.0172324
851.551	0.0170911
851.629	0.0171925
851.707	0.0171986
851.785	0.0171125
851.863	0.0171017
851.942	0.0172894
852.020	0.0171554
852.098	0.0170633
852.176	0.0172258
852.254	0.0171672
852.332	0.0172103
852.410	0.0171904
852.488	0.0172816
852.567	0.0171426
852.645	0.0172691
852.723	0.0172594
852.801	0.0172002
852.879	0.0171839
852.957	0.0170810
853.035	0.0172694
853.113	0.0170934
853.192	0.0172058
853.270	0.0171634
853.348	0.0171544
853.426	0.0170821
853.504	0.0171557
853.582	0.0170936
853.660	0.0171404
853.738	0.0172462
853.817	0.0171821
853.895	0.0170113
853.973	0.0170785
854.051	0.0170750
854.129	0.0172123
854.207	0.0171448
854.285	0.0171240
854.363	0.0172047
854.442	0.0170811
854.520	0.0170467
854.598	0.0172700
854.676	0.0172152
854.754	0.0172160
854.832	0.0173158
854.910	0.0170898
854.988	0.0171423
855.067	0.0170999
855.145	0.0171798
855.223	0.0169946
855.301	0.0171410
855.379	0.0172968
855.457	0.0171627
855.535	0.0172522
855.613	0.0172060
855.692	0.0170929
855.770	0.0172174
855.848	0.0172874
855.926	0.0170622
856.004	0.0171313
856.082	0.0171133
856.160	0.0171590
856.238	0.0171759
856.317	0.0172144
856.395	0.0171099
856.473	0.0170482
856.551	0.0170613
856.629	0.0170866
856.707	0.0171847
856.785	0.0171783
856.863	0.0170679
856.942	0.0171165
857.020	0.0170724
857.098	0.0171194
857.176	0.0171587
857.254	0.0170570
857.332	0.0172361
857.410	0.0171093
857.488	0.0172039
857.567	0.0171861
857.645	0.0172628
857.723	0.0171963
857.801	0.0172895
857.879	0.0171059
857.957	0.0171483
858.035	0.0170589
858.113	0.0170558
858.192	0.0172232
858.270	0.0171843
858.348	0.0173196
858.426	0.0171849
858.504	0.0173763
858.582	0.0171587
858.660	0.0172247
858.738	0.0171954
858.817	0.0171864
858.895	0.0173826
858.973	0.0171906
859.051	0.0173009
859.129	0.0171736
859.207	0.0171605
859.285	0.0171816
859.363	0.0172541
859.442	0.0173605
859.520	0.0173153
859.598	0.0171604
859.676	0.0170847
859.754	0.0171893
859.832	0.0172156
859.910	0.0172160
859.988	0.0172750
860.067	0.0172117
860.145	0.0171253
860.223	0.0171223
860.301	0.0170702
860.379	0.0171267
860.457	0.0172330
860.535	0.0172716
860.613	0.0171151
860.692	0.0170894
860.770	0.0173206
860.848	0.0173016
860.926	0.0171975
861.004	0.0171243
861.082	0.0171689
861.160	0.0172850
861.238	0.0172190
861.317	0.0172490
861.395	0.0171693
861.473	0.0171888
861.551	0.0172903
861.629	0.0172145
861.707	0.0171694
861.785	0.0170679
861.863	0.0171726
861.942	0.0171719
862.020	0.0171217
862.098	0.0171638
862.176	0.0172107
862.254	0.0171708
862.332	0.0171481
862.410	0.0172690
862.488	0.0172366
862.567	0.0171291
862.645	0.0171056
862.723	0.0172110
862.801	0.0171329
862.879	0.0172600
862.957	0.0172102
863.035	0.0171955
863.113	0.0170554
863.192	0.0172473
863.270	0.0171357
863.348	0.0171409
863.426	0.0172031
863.504	0.0172148
863.582	0.0171723
863.660	0.0171192
863.738	0.0172148
863.817	0.0171081
863.895	0.0173116
863.973	0.0172459
864.051	0.0170266
864.129	0.0172022
864.207	0.0172041
864.285	0.0172135
864.363	0.0171845
864.442	0.0172456
864.520	0.0172128
864.598	0.0173686
864.676	0.0170553
864.754	0.0170743
864.832	0.0172837
864.910	0.0172664
864.988	0.0171304
865.067	0.0172852
865.145	0.0171604
865.223	0.0172623
865.301	0.0172919
865.379	0.0172942
865.457	0.0171996
865.535	0.0172028
865.613	0.0172183
865.692	0.0171738
865.770	0.0171780
865.848	0.0172896
865.926	0.0171481
866.004	0.0171961
866.082	0.0172250
866.160	0.0171212
866.238	0.0170960
866.317	0.0173600
866.395	0.0172723
866.473	0.0171290
866.551	0.0171929
866.629	0.0172565
866.707	0.0172633
866.785	0.0173000
866.863	0.0171588
866.942	0.0171383
867.020	0.0171463
867.098	0.0172546
867.176	0.0171613
867.254	0.0171572
867.332	0.0172269
867.410	0.0171326
867.488	0.0173049
867.567	0.0171603
867.645	0.0171730
867.723	0.0171172
867.801	0.0171142
867.879	0.0172554
867.957	0.0171832
868.035	0.0172265
868.113	0.0171653
868.192	0.0173368
868.270	0.0171868
868.348	0.0172024
868.426	0.0171700
868.504	0.0171546
868.582	0.0171494
868.660	0.0171876
868.738	0.0171053
868.817	0.0171886
868.895	0.0172386
868.973	0.0171443
869.051	0.0172453
869.129	0.0172318
869.207	0.0171931
869.285	0.0172315
869.363	0.0171350
869.442	0.0171239
869.520	0.0171813
869.598	0.0173315
869.676	0.0171460
869.754	0.0171159
869.832	0.0172610
869.910	0.0170393
869.988	0.0171784
870.067	0.0171799
870.145	0.0172224
870.223	0.0172315
870.301	0.0172251
870.379	0.0172015
870.457	0.0172417
870.535	0.0171284
870.613	0.0172241
870.692	0.0173052
870.770	0.0172180
870.848	0.0171528
870.926	0.0171436
871.004	0.0171530
871.082	0.0171611
871.160	0.0171660
871.238	0.0171745
871.317	0.0171522
871.395	0.0172358
871.473	0.0171018
871.551	0.0172422
871.629	0.0171855
871.707	0.0172432
871.785	0.0170827
871.863	0.0171066
871.942	0.0172080
872.020	0.0170411
872.098	0.0170522
872.176	0.0172371
872.254	0.0171069
872.332	0.0170905
872.410	0.0171613
872.488	0.0173024
872.567	0.0172546
872.645	0.0171788
872.723	0.0172718
872.801	0.0171604
872.879	0.0171686
872.957	0.0171655
873.035	0.0171826
873.113	0.0173309
873.192	0.0171918
873.270	0.0170959
873.348	0.0172598
873.426	0.0172529
873.504	0.0170830
873.582	0.0170984
873.660	0.0172604
873.738	0.0172395
873.817	0.0170580
873.895	0.0170490
873.973	0.0171593
874.051	0.0171014
874.129	0.0171555
874.207	0.0173244
874.285	0.0171130
874.363	0.0171257
874.442	0.0171628
874.520	0.0172051
874.598	0.0172112
874.676	0.0172006
874.754	0.0171168
874.832	0.0173051
874.910	0.0171091
874.988	0.0170724
875.067	0.0171989
875.145	0.0173153
875.223	0.0172142
875.301	0.0172694
875.379	0.0172512
875.457	0.0171116
875.535	0.0171474
875.613	0.0171250
875.692	0.0171326
875.770	0.0172101
875.848	0.0172832
875.926	0.0170545
876.004	0.0172385
876.082	0.0170827
876.160	0.0171997
876.238	0.0172529
876.317	0.0170850
876.395	0.0171437
876.473	0.0172887
876.551	0.0170787
876.629	0.0171297
876.707	0.0171919
876.785	0.0171297
876.863	0.0171787
876.942	0.0171722
877.020	0.0171622
877.098	0.0172146
877.176	0.0172533
877.254	0.0171478
877.332	0.0173316
877.410	0.0171947
877.488	0.0169939
877.567	0.0170702
877.645	0.0170643
877.723	0.0171835
877.801	0.0173391
877.879	0.0172037
877.957	0.0172302
878.035	0.0172012
878.113	0.0169959
878.192	0.0171319
878.270	0.0173145
878.348	0.0173255
878.426	0.0171034
878.504	0.0172611
878.582	0.0172685
878.660	0.0170558
878.738	0.0173348
878.817	0.0171583
878.895	0.0171152
878.973	0.0170086
879.051	0.0172706
879.129	0.0172274
879.207	0.0171091
879.285	0.0170735
879.363	0.0171034
879.442	0.0172848
879.520	0.0172614
879.598	0.0172064
879.676	0.0171714
879.754	0.0171931
879.832	0.0170906
879.910	0.0171326
879.988	0.0171625
880.067	0.0172047
880.145	0.0170573
880.223	0.0172790
880.301	0.0171280
880.379	0.0172623
880.457	0.0171436
880.535	0.0171690
880.613	0.0171702
880.692	0.0171561
880.770	0.0171895
880.848	0.0170882
880.926	0.0172178
881.004	0.0172181
881.082	0.0170320
881.160	0.0170968
881.238	0.0171869
881.317	0.0171949
881.395	0.0172511
881.473	0.0172481
881.551	0.0172890
881.629	0.0171649
881.707	0.0170708
881.785	0.0172402
881.863	0.0171705
881.942	0.0173774
882.020	0.0171906
882.098	0.0171632
882.176	0.0172324
882.254	0.0171304
882.332	0.0171720
882.410	0.0172364
882.488	0.0171712
882.567	0.0171426
882.645	0.0170790
882.723	0.0171935
882.801	0.0172530
882.879	0.0172040
882.957	0.0172585
883.035	0.0173291
883.113	0.0172375
883.192	0.0171000
883.270	0.0172728
883.348	0.0170384
883.426	0.0171128
883.504	0.0172442
883.582	0.0171850
883.660	0.0171380
883.738	0.0171555
883.817	0.0171999
883.895	0.0170995
883.973	0.0172958
884.051	0.0172153
884.129	0.0170997
884.207	0.0171137
884.285	0.0172422
884.363	0.0172298
884.442	0.0171738
884.520	0.0171783
884.598	0.0172379
884.676	0.0171473
884.754	0.0172476
884.832	0.0172668
884.910	0.0171933
884.988	0.0170486
885.067	0.0172845
885.145	0.0171809
885.223	0.0171223
885.301	0.0172723
885.379	0.0172563
885.457	0.0173251
885.535	0.0171811
885.613	0.0172110
885.692	0.0170519
885.770	0.0171386
885.848	0.0171630
885.926	0.0171599
886.004	0.0173618
886.082	0.0170797
886.160	0.0172392
886.238	0.0171378
886.317	0.0171820
886.395	0.0171519
886.473	0.0172150
886.551	0.0170598
886.629	0.0171311
886.707	0.0173002
886.785	0.0172600
886.863	0.0171320
886.942	0.0171681
887.020	0.0170911
887.098	0.0170481
887.176	0.0171249
887.254	0.0172011
887.332	0.0171547
887.410	0.0171410
887.488	0.0172767
887.567	0.0172366
887.645	0.0172078
887.723	0.0171967
887.801	0.0171112
887.879	0.0172370
887.957	0.0172319
888.035	0.0171796
888.113	0.0171603
888.192	0.0170827
888.270	0.0170731
888.348	0.0172366
888.426	0.0171933
888.504	0.0171212
888.582	0.0171657
888.660	0.0171201
888.738	0.0172280
888.817	0.0171342
888.895	0.0171387
888.973	0.0170763
889.051	0.0171606
889.129	0.0172821
889.207	0.0169980
889.285	0.0172073
889.363	0.0174274
889.442	0.0173114
889.520	0.0173117
889.598	0.0170873
889.676	0.0171716
889.754	0.0172964
889.832	0.0171779
889.910	0.0172316
889.988	0.0171528
890.067	0.0171539
890.145	0.0173578
890.223	0.0171650
890.301	0.0171465
890.379	0.0171711
890.457	0.0171626
890.535	0.0171656
890.613	0.0172852
890.692	0.0172267
890.770	0.0171636
890.848	0.0172049
890.926	0.0173486
891.004	0.0172767
891.082	0.0172547
891.160	0.0171581
891.238	0.0171097
891.317	0.0172306
891.395	0.0170938
891.473	0.0172177
891.551	0.0171188
891.629	0.0172205
891.707	0.0170982
891.785	0.0173576
891.863	0.0172810
891.942	0.0172263
892.020	0.0171843
892.098	0.0172314
892.176	0.0171151
892.254	0.0172179
892.332	0.0172267
892.410	0.0171444
892.488	0.0171500
892.567	0.0173859
892.645	0.0171986
892.723	0.0172901
892.801	0.0171650
892.879	0.0172386
892.957	0.0172328
893.035	0.0172482
893.113	0.0173945
893.192	0.0172197
893.270	0.0172191
893.348	0.0172228
893.426	0.0173328
893.504	0.0171987
893.582	0.0171352
893.660	0.0171075
893.738	0.0172666
893.817	0.0172610
893.895	0.0171503
893.973	0.0173666
894.051	0.0171984
894.129	0.0171398
894.207	0.0172237
894.285	0.0171581
894.363	0.0172840
894.442	0.0171684
894.520	0.0169592
894.598	0.0172784
894.676	0.0172453
894.754	0.0170876
894.832	0.0171780
894.910	0.0171981
894.988	0.0171158
895.067	0.0171696
895.145	0.0171111
895.223	0.0171122
895.301	0.0172684
895.379	0.0171881
895.457	0.0171437
895.535	0.0171012
895.613	0.0172016
895.692	0.0173143
895.770	0.0173569
895.848	0.0172902
895.926	0.0172403
896.004	0.0173371
896.082	0.0172538
896.160	0.0171224
896.238	0.0170976
896.317	0.0171861
896.395	0.0173249
896.473	0.0170804
896.551	0.0173443
896.629	0.0172990
896.707	0.0171001
896.785	0.0170760
896.863	0.0171964
896.942	0.0171466
897.020	0.0173498
897.098	0.0173302
897.176	0.0171762
897.254	0.0172299
897.332	0.0171223
897.410	0.0172015
897.488	0.0172626
897.567	0.0172103
897.645	0.0172466
897.723	0.0171284
897.801	0.0172040
897.879	0.0172469
897.957	0.0172612
898.035	0.0172123
898.113	0.0172636
898.192	0.0172655
898.270	0.0170871
898.348	0.0171426
898.426	0.0171069
898.504	0.0171831
898.582	0.0171719
898.660	0.0171682
898.738	0.0173089
898.817	0.0171869
898.895	0.0171058
898.973	0.0171857
899.051	0.0172240
899.129	0.0171230
899.207	0.0171888
899.285	0.0171024
899.363	0.0170744
899.442	0.0171738
899.520	0.0171769
899.598	0.0171867
899.676	0.0172054
899.754	0.0171466
899.832	0.0171638
899.910	0.0171135
899.988	0.0170247
900.067	0.0171599
900.145	0.0172969
900.223	0.0171542
900.301	0.0171684
900.379	0.0171448
900.457	0.0171085
900.535	0.0172432
900.613	0.0171854
900.692	0.0171333
900.770	0.0170652
900.848	0.0171604
900.926	0.0172966
901.004	0.0172796
901.082	0.0171596
901.160	0.0170817
901.238	0.0170953
901.317	0.0171405
901.395	0.0171451
901.473	0.0171253
901.551	0.0172465
901.629	0.0172210
901.707	0.0170365
901.785	0.0170943
901.863	0.0172140
901.942	0.0172327
902.020	0.0171201
902.098	0.0170712
902.176	0.0171068
902.254	0.0172151
902.332	0.0171278
902.410	0.0171046
902.488	0.0171131
902.567	0.0172674
902.645	0.0172511
902.723	0.0171742
902.801	0.0171703
902.879	0.0171921
902.957	0.0171564
903.035	0.0171653
903.113	0.0170293
903.192	0.0170870
903.270	0.0171519
903.348	0.0173164
903.426	0.0170979
903.504	0.0170596
903.582	0.0171982
903.660	0.0171312
903.738	0.0171541
903.817	0.0171429
903.895	0.0171164
903.973	0.0172401
904.051	0.0172091
904.129	0.0172361
904.207	0.0171818
904.285	0.0172911
904.363	0.0172098
904.442	0.0171812
904.520	0.0172810
904.598	0.0172922
904.676	0.0171360
904.754	0.0171099
904.832	0.0171143
904.910	0.0171555
904.988	0.0171624
905.067	0.0172213
905.145	0.0172438
905.223	0.0172828
905.301	0.0171701
905.379	0.0171637
905.457	0.0171533
905.535	0.0171609
905.613	0.0171202
905.692	0.0172122
905.770	0.0172298
905.848	0.0172750
905.926	0.0171347
906.004	0.0171218
906.082	0.0172311
906.160	0.0172654
906.238	0.0171291
906.317	0.0172655
906.395	0.0170217
906.473	0.0172071
906.551	0.0171836
906.629	0.0172765
906.707	0.0172117
906.785	0.0171744
906.863	0.0171550
906.942	0.0172231
907.020	0.0172395
907.098	0.0171516
907.176	0.0172066
907.254	0.0169779
907.332	0.0171262
907.410	0.0171957
907.488	0.0169987
907.567	0.0170881
907.645	0.0171428
907.723	0.0171783
907.801	0.0171247
907.879	0.0171555
907.957	0.0172155
908.035	0.0172057
908.113	0.0170085
908.192	0.0170959
908.270	0.0172121
908.348	0.0171301
908.426	0.0171072
908.504	0.0170544
908.582	0.0171635
908.660	0.0171030
908.738	0.0171107
908.817	0.0171629
908.895	0.0171696
908.973	0.0171729
909.051	0.0172268
909.129	0.0171999
909.207	0.0170351
909.285	0.0171094
909.363	0.0172383
909.442	0.0171593
909.520	0.0170943
909.598	0.0170601
909.676	0.0171472
909.754	0.0171297
909.832	0.0170824
909.910	0.0171759
909.988	0.0171114
910.067	0.0170885
910.145	0.0172736
910.223	0.0171161
910.301	0.0171445
910.379	0.0172650
910.457	0.0171622
910.535	0.0171501
910.613	0.0172115
910.692	0.0170827
910.770	0.0169893
910.848	0.0172480
910.926	0.0171657
911.004	0.0170927
911.082	0.0171628
911.160	0.0170767
911.238	0.0171600
911.317	0.0173419
911.395	0.0172686
911.473	0.0171719
911.551	0.0171387
911.629	0.0171220
911.707	0.0171314
911.785	0.0171185
911.863	0.0171699
911.942	0.0171996
912.020	0.0172287
912.098	0.0170737
912.176	0.0172396
912.254	0.0171497
912.332	0.0172440
912.410	0.0172703
912.488	0.0171186
912.567	0.0170258
912.645	0.0170999
912.723	0.0171618
912.801	0.0171802
912.879	0.0172578
912.957	0.0171542
913.035	0.0171384
913.113	0.0171279
913.192	0.0171854
913.270	0.0172382
913.348	0.0170613
913.426	0.0170939
913.504	0.0168948
913.582	0.0170236
913.660	0.0171210
913.738	0.0171294
913.817	0.0170394
913.895	0.0171436
913.973	0.0171049
914.051	0.0171552
914.129	0.0171156
914.207	0.0169732
914.285	0.0171121
914.363	0.0171494
914.442	0.0172518
914.520	0.0170740
914.598	0.0171280
914.676	0.0172028
914.754	0.0171694
914.832	0.0171010
914.910	0.0170683
914.988	0.0173135
915.067	0.0170383
915.145	0.0171537
915.223	0.0171435
915.301	0.0171181
915.379	0.0171343
915.457	0.0170750
915.535	0.0171027
915.613	0.0171286
915.692	0.0170806
915.770	0.0172314
915.848	0.0171201
915.926	0.0171392
916.004	0.0170507
916.082	0.0170753
916.160	0.0171281
916.238	0.0172271
916.317	0.0172752
916.395	0.0171719
916.473	0.0172192
916.551	0.0171770
916.629	0.0171880
916.707	0.0172829
916.785	0.0172790
916.863	0.0171493
916.942	0.0170782
917.020	0.0171901
917.098	0.0172758
917.176	0.0171802
917.254	0.0172579
917.332	0.0171308
917.410	0.0172223
917.488	0.0172261
917.567	0.0172222
917.645	0.0173147
917.723	0.0171114
917.801	0.0171880
917.879	0.0172572
917.957	0.0172937
918.035	0.0172150
918.113	0.0172749
918.192	0.0171745
918.270	0.0170938
918.348	0.0171201
918.426	0.0171383
918.504	0.0171062
918.582	0.0170050
918.660	0.0171130
918.738	0.0172111
918.817	0.0171088
918.895	0.0173035
918.973	0.0171637
919.051	0.0171938
919.129	0.0171923
919.207	0.0172599
919.285	0.0172488
919.363	0.0171213
919.442	0.0170396
919.520	0.0172078
919.598	0.0172366
919.676	0.0171474
919.754	0.0170804
919.832	0.0171671
919.910	0.0172803
