06/03/2022	14:22:56	Ver.	4.1	UNKNOWN
Optical Delay	599.981738	Delta X		0.078125	Sweeps	1	Scan Rate	0/0
Coordinates	Axis 1	NaN	Axis 2	NaN	Axis 3	NaN	Axis 4	NaN	Axis 5	NaN	Axis 6	0.000000
TX Power	0.000000	RX Power	0.000000

599.982	0.0169296
600.060	0.0168391
600.138	0.0168288
600.216	0.0168144
600.294	0.0169453
600.372	0.0169178
600.450	0.0168404
600.529	0.0167731
600.607	0.0167400
600.685	0.0167362
600.763	0.0169516
600.841	0.0169202
600.919	0.0170029
600.997	0.0168133
601.075	0.0168808
601.154	0.0170639
601.232	0.0168600
601.310	0.0168140
601.388	0.0169779
601.466	0.0168938
601.544	0.0169454
601.622	0.0168275
601.700	0.0168393
601.779	0.0168490
601.857	0.0168626
601.935	0.0169485
602.013	0.0168839
602.091	0.0168272
602.169	0.0168385
602.247	0.0168688
602.325	0.0168699
602.404	0.0168175
602.482	0.0168083
602.560	0.0168627
602.638	0.0167880
602.716	0.0168495
602.794	0.0169069
602.872	0.0168595
602.950	0.0169030
603.029	0.0169134
603.107	0.0169347
603.185	0.0169159
603.263	0.0170047
603.341	0.0170424
603.419	0.0170062
603.497	0.0169102
603.575	0.0169389
603.654	0.0169099
603.732	0.0170219
603.810	0.0169789
603.888	0.0170209
603.966	0.0168675
604.044	0.0169092
604.122	0.0169747
604.200	0.0168800
604.279	0.0168019
604.357	0.0169077
604.435	0.0169871
604.513	0.0168953
604.591	0.0168753
604.669	0.0168393
604.747	0.0168504
604.825	0.0169929
604.904	0.0168892
604.982	0.0168292
605.060	0.0168769
605.138	0.0168517
605.216	0.0168365
605.294	0.0169320
605.372	0.0169236
605.450	0.0168835
605.529	0.0169419
605.607	0.0168716
605.685	0.0168424
605.763	0.0168428
605.841	0.0168803
605.919	0.0166960
605.997	0.0168701
606.075	0.0167545
606.154	0.0167791
606.232	0.0167486
606.310	0.0168236
606.388	0.0168044
606.466	0.0169540
606.544	0.0168831
606.622	0.0168600
606.700	0.0168995
606.779	0.0166820
606.857	0.0168619
606.935	0.0167901
607.013	0.0167700
607.091	0.0168829
607.169	0.0169347
607.247	0.0169575
607.325	0.0168381
607.404	0.0169817
607.482	0.0170390
607.560	0.0168147
607.638	0.0168819
607.716	0.0169292
607.794	0.0168555
607.872	0.0170455
607.950	0.0170777
608.029	0.0169343
608.107	0.0170145
608.185	0.0169063
608.263	0.0168275
608.341	0.0170062
608.419	0.0170512
608.497	0.0169753
608.575	0.0168336
608.654	0.0170024
608.732	0.0169384
608.810	0.0169865
608.888	0.0171375
608.966	0.0171038
609.044	0.0169545
609.122	0.0169384
609.200	0.0169436
609.279	0.0168761
609.357	0.0169825
609.435	0.0170248
609.513	0.0169077
609.591	0.0170568
609.669	0.0169714
609.747	0.0169837
609.825	0.0170181
609.904	0.0171145
609.982	0.0170549
610.060	0.0171404
610.138	0.0170242
610.216	0.0170005
610.294	0.0169310
610.372	0.0169518
610.450	0.0169129
610.529	0.0170476
610.607	0.0169560
610.685	0.0170855
610.763	0.0169730
610.841	0.0169726
610.919	0.0170540
610.997	0.0170496
611.075	0.0170373
611.154	0.0168688
611.232	0.0167879
611.310	0.0169070
611.388	0.0169077
611.466	0.0169720
611.544	0.0169821
611.622	0.0168905
611.700	0.0169929
611.779	0.0169949
611.857	0.0167841
611.935	0.0167775
612.013	0.0168540
612.091	0.0169495
612.169	0.0168719
612.247	0.0168504
612.325	0.0169225
612.404	0.0168476
612.482	0.0166952
612.560	0.0168107
612.638	0.0169215
612.716	0.0169556
612.794	0.0169115
612.872	0.0168760
612.950	0.0168036
613.029	0.0169059
613.107	0.0167789
613.185	0.0167824
613.263	0.0167671
613.341	0.0168879
613.419	0.0167972
613.497	0.0167658
613.575	0.0167116
613.654	0.0167582
613.732	0.0166690
613.810	0.0167891
613.888	0.0166748
613.966	0.0167981
614.044	0.0167555
614.122	0.0167728
614.200	0.0167979
614.279	0.0168316
614.357	0.0165784
614.435	0.0167702
614.513	0.0167629
614.591	0.0166793
614.669	0.0165855
614.747	0.0166489
614.825	0.0167204
614.904	0.0167291
614.982	0.0166285
615.060	0.0165861
615.138	0.0166559
615.216	0.0165565
615.294	0.0167297
615.372	0.0165356
615.450	0.0165977
615.529	0.0166669
615.607	0.0167026
615.685	0.0166958
615.763	0.0165102
615.841	0.0167090
615.919	0.0165737
615.997	0.0164418
616.075	0.0166993
616.154	0.0166420
616.232	0.0165755
616.310	0.0166373
616.388	0.0167006
616.466	0.0166855
616.544	0.0166649
616.622	0.0167545
616.700	0.0166518
616.779	0.0166308
616.857	0.0166911
616.935	0.0166174
617.013	0.0168505
617.091	0.0168693
617.169	0.0166776
617.247	0.0166698
617.325	0.0167427
617.404	0.0168845
617.482	0.0166825
617.560	0.0168070
617.638	0.0167471
617.716	0.0166602
617.794	0.0167966
617.872	0.0167355
617.950	0.0167674
618.029	0.0167696
618.107	0.0167778
618.185	0.0167043
618.263	0.0166354
618.341	0.0167994
618.419	0.0167729
618.497	0.0167971
618.575	0.0168550
618.654	0.0167747
618.732	0.0166472
618.810	0.0166914
618.888	0.0168011
618.966	0.0167685
619.044	0.0168892
619.122	0.0166640
619.200	0.0166624
619.279	0.0166489
619.357	0.0166825
619.435	0.0167619
619.513	0.0166668
619.591	0.0167873
619.669	0.0167904
619.747	0.0168357
619.825	0.0167440
619.904	0.0166295
619.982	0.0166735
620.060	0.0167263
620.138	0.0167455
620.216	0.0167805
620.294	0.0167712
620.372	0.0167540
620.450	0.0168742
620.529	0.0167709
620.607	0.0166670
620.685	0.0168050
620.763	0.0165693
620.841	0.0167625
620.919	0.0168053
620.997	0.0167892
621.075	0.0166745
621.154	0.0168335
621.232	0.0167696
621.310	0.0167155
621.388	0.0166406
621.466	0.0167851
621.544	0.0167894
621.622	0.0168743
621.700	0.0168826
621.779	0.0169025
621.857	0.0169143
621.935	0.0168320
622.013	0.0168080
622.091	0.0169643
622.169	0.0167692
622.247	0.0167181
622.325	0.0168048
622.404	0.0168127
622.482	0.0168193
622.560	0.0168137
622.638	0.0167494
622.716	0.0168530
622.794	0.0167429
622.872	0.0167081
622.950	0.0166958
623.029	0.0166638
623.107	0.0168051
623.185	0.0168713
623.263	0.0167128
623.341	0.0167742
623.419	0.0168847
623.497	0.0169028
623.575	0.0167201
623.654	0.0167326
623.732	0.0167178
623.810	0.0168206
623.888	0.0168059
623.966	0.0167873
624.044	0.0168984
624.122	0.0168056
624.200	0.0168083
624.279	0.0167846
624.357	0.0168576
624.435	0.0168179
624.513	0.0168624
624.591	0.0168350
624.669	0.0167448
624.747	0.0168581
624.825	0.0168592
624.904	0.0167298
624.982	0.0169063
625.060	0.0167996
625.138	0.0168661
625.216	0.0168690
625.294	0.0168396
625.372	0.0168222
625.450	0.0168701
625.529	0.0167513
625.607	0.0168990
625.685	0.0168225
625.763	0.0167924
625.841	0.0167838
625.919	0.0168104
625.997	0.0168940
626.075	0.0167844
626.154	0.0167352
626.232	0.0167864
626.310	0.0167715
626.388	0.0168480
626.466	0.0168242
626.544	0.0166702
626.622	0.0167419
626.700	0.0167517
626.779	0.0168211
626.857	0.0168056
626.935	0.0168462
627.013	0.0167487
627.091	0.0168615
627.169	0.0167476
627.247	0.0167442
627.325	0.0168776
627.404	0.0168456
627.482	0.0167988
627.560	0.0168553
627.638	0.0167699
627.716	0.0168564
627.794	0.0168259
627.872	0.0168238
627.950	0.0167319
628.029	0.0168320
628.107	0.0167210
628.185	0.0167652
628.263	0.0169699
628.341	0.0169672
628.419	0.0169674
628.497	0.0166721
628.575	0.0167791
628.654	0.0167807
628.732	0.0167999
628.810	0.0167909
628.888	0.0166402
628.966	0.0168405
629.044	0.0167722
629.122	0.0169032
629.200	0.0169176
629.279	0.0168379
629.357	0.0168115
629.435	0.0168171
629.513	0.0166869
629.591	0.0168574
629.669	0.0168399
629.747	0.0167509
629.825	0.0167963
629.904	0.0167372
629.982	0.0168508
630.060	0.0167570
630.138	0.0168320
630.216	0.0168164
630.294	0.0167842
630.372	0.0166666
630.450	0.0167663
630.529	0.0168893
630.607	0.0169363
630.685	0.0167985
630.763	0.0168584
630.841	0.0167664
630.919	0.0168931
630.997	0.0168542
631.075	0.0167290
631.154	0.0166974
631.232	0.0167056
631.310	0.0168242
631.388	0.0167389
631.466	0.0168467
631.544	0.0169264
631.622	0.0167880
631.700	0.0168771
631.779	0.0167879
631.857	0.0168370
631.935	0.0168208
632.013	0.0167587
632.091	0.0168723
632.169	0.0169698
632.247	0.0167697
632.325	0.0168719
632.404	0.0167966
632.482	0.0168176
632.560	0.0168535
632.638	0.0169381
632.716	0.0169190
632.794	0.0168511
632.872	0.0169199
632.950	0.0168561
633.029	0.0167591
633.107	0.0169798
633.185	0.0169239
633.263	0.0169568
633.341	0.0168552
633.419	0.0168782
633.497	0.0167981
633.575	0.0167923
633.654	0.0168283
633.732	0.0168810
633.810	0.0167765
633.888	0.0168385
633.966	0.0169057
634.044	0.0167358
634.122	0.0168958
634.200	0.0168917
634.279	0.0169990
634.357	0.0168372
634.435	0.0168255
634.513	0.0168584
634.591	0.0167807
634.669	0.0168871
634.747	0.0167252
634.825	0.0168568
634.904	0.0168338
634.982	0.0167515
635.060	0.0168508
635.138	0.0169624
635.216	0.0167412
635.294	0.0168118
635.372	0.0168607
635.450	0.0168136
635.529	0.0168618
635.607	0.0168655
635.685	0.0168210
635.763	0.0168091
635.841	0.0169141
635.919	0.0168102
635.997	0.0169081
636.075	0.0167480
636.154	0.0168095
636.232	0.0167777
636.310	0.0167745
636.388	0.0167596
636.466	0.0167149
636.544	0.0168237
636.622	0.0167474
636.700	0.0166388
636.779	0.0168005
636.857	0.0168422
636.935	0.0169174
637.013	0.0168000
637.091	0.0167765
637.169	0.0167809
637.247	0.0167823
637.325	0.0167390
637.404	0.0167286
637.482	0.0167699
637.560	0.0167372
637.638	0.0169630
637.716	0.0167506
637.794	0.0168155
637.872	0.0169183
637.950	0.0168923
638.029	0.0168624
638.107	0.0168048
638.185	0.0168183
638.263	0.0169028
638.341	0.0168390
638.419	0.0168468
638.497	0.0167304
638.575	0.0168745
638.654	0.0168950
638.732	0.0168690
638.810	0.0168841
638.888	0.0169185
638.966	0.0169107
639.044	0.0168386
639.122	0.0169058
639.200	0.0168929
639.279	0.0167636
639.357	0.0168130
639.435	0.0168562
639.513	0.0167854
639.591	0.0167803
639.669	0.0167873
639.747	0.0167741
639.825	0.0167840
639.904	0.0169187
639.982	0.0168642
640.060	0.0168127
640.138	0.0167517
640.216	0.0168526
640.294	0.0167630
640.372	0.0166640
640.450	0.0168245
640.529	0.0169057
640.607	0.0167917
640.685	0.0168063
640.763	0.0168007
640.841	0.0168901
640.919	0.0168799
640.997	0.0167992
641.075	0.0166959
641.154	0.0166224
641.232	0.0166177
641.310	0.0167790
641.388	0.0168896
641.466	0.0167730
641.544	0.0167416
641.622	0.0167328
641.700	0.0166773
641.779	0.0167392
641.857	0.0169225
641.935	0.0167541
642.013	0.0167202
642.091	0.0166585
642.169	0.0168297
642.247	0.0168087
642.325	0.0167310
642.404	0.0167754
642.482	0.0168050
642.560	0.0167887
642.638	0.0168322
642.716	0.0168952
642.794	0.0168275
642.872	0.0169321
642.950	0.0169782
643.029	0.0169021
643.107	0.0169297
643.185	0.0168988
643.263	0.0169099
643.341	0.0168673
643.419	0.0169624
643.497	0.0169756
643.575	0.0168614
643.654	0.0168724
643.732	0.0168654
643.810	0.0168518
643.888	0.0168870
643.966	0.0168302
644.044	0.0169647
644.122	0.0168324
644.200	0.0168530
644.279	0.0169231
644.357	0.0167352
644.435	0.0167094
644.513	0.0166769
644.591	0.0167322
644.669	0.0166641
644.747	0.0166698
644.825	0.0166079
644.904	0.0166289
644.982	0.0166694
645.060	0.0164924
645.138	0.0165936
645.216	0.0165701
645.294	0.0166662
645.372	0.0167788
645.450	0.0168130
645.529	0.0165959
645.607	0.0167695
645.685	0.0168643
645.763	0.0167385
645.841	0.0168019
645.919	0.0168633
645.997	0.0168930
646.075	0.0168260
646.154	0.0169235
646.232	0.0168602
646.310	0.0168058
646.388	0.0168959
646.466	0.0168043
646.544	0.0168520
646.622	0.0168160
646.700	0.0167435
646.779	0.0168017
646.857	0.0166035
646.935	0.0166886
647.013	0.0166427
647.091	0.0166629
647.169	0.0168089
647.247	0.0167637
647.325	0.0167169
647.404	0.0166582
647.482	0.0167410
647.560	0.0167962
647.638	0.0167076
647.716	0.0167147
647.794	0.0167200
647.872	0.0166708
647.950	0.0167950
648.029	0.0167802
648.107	0.0167245
648.185	0.0167225
648.263	0.0166616
648.341	0.0167207
648.419	0.0168456
648.497	0.0166473
648.575	0.0166235
648.654	0.0168085
648.732	0.0167117
648.810	0.0168242
648.888	0.0168642
648.966	0.0167104
649.044	0.0167397
649.122	0.0168404
649.200	0.0168553
649.279	0.0168006
649.357	0.0167336
649.435	0.0167249
649.513	0.0168288
649.591	0.0168736
649.669	0.0166304
649.747	0.0168621
649.825	0.0169464
649.904	0.0168273
649.982	0.0166500
650.060	0.0167844
650.138	0.0168542
650.216	0.0168330
650.294	0.0168634
650.372	0.0168233
650.450	0.0168925
650.529	0.0168079
650.607	0.0169153
650.685	0.0167319
650.763	0.0167776
650.841	0.0168140
650.919	0.0167849
650.997	0.0166511
651.075	0.0168298
651.154	0.0167688
651.232	0.0167654
651.310	0.0168497
651.388	0.0167677
651.466	0.0168110
651.544	0.0167023
651.622	0.0168790
651.700	0.0169161
651.779	0.0168129
651.857	0.0169220
651.935	0.0168351
652.013	0.0167133
652.091	0.0169968
652.169	0.0170939
652.247	0.0169927
652.325	0.0169959
652.404	0.0169790
652.482	0.0170220
652.560	0.0170893
652.638	0.0171013
652.716	0.0169572
652.794	0.0168914
652.872	0.0169345
652.950	0.0168990
653.029	0.0169679
653.107	0.0170151
653.185	0.0169086
653.263	0.0169566
653.341	0.0169306
653.419	0.0169833
653.497	0.0169128
653.575	0.0168697
653.654	0.0169419
653.732	0.0170094
653.810	0.0170808
653.888	0.0170871
653.966	0.0170745
654.044	0.0170745
654.122	0.0170992
654.200	0.0171215
654.279	0.0171025
654.357	0.0171960
654.435	0.0170987
654.513	0.0171990
654.591	0.0169903
654.669	0.0169187
654.747	0.0170822
654.825	0.0171566
654.904	0.0170766
654.982	0.0172189
655.060	0.0170515
655.138	0.0169550
655.216	0.0169070
655.294	0.0168154
655.372	0.0168297
655.450	0.0167974
655.529	0.0169540
655.607	0.0169231
655.685	0.0167655
655.763	0.0168392
655.841	0.0169365
655.919	0.0170198
655.997	0.0168768
656.075	0.0168250
656.154	0.0167750
656.232	0.0168102
656.310	0.0168877
656.388	0.0170760
656.466	0.0168255
656.544	0.0168876
656.622	0.0169558
656.700	0.0169373
656.779	0.0168954
656.857	0.0171246
656.935	0.0168152
657.013	0.0168110
657.091	0.0171573
657.169	0.0169872
657.247	0.0168958
657.325	0.0170936
657.404	0.0169491
657.482	0.0169077
657.560	0.0169587
657.638	0.0169282
657.716	0.0170555
657.794	0.0169823
657.872	0.0170358
657.950	0.0169701
658.029	0.0167494
658.107	0.0169298
658.185	0.0169838
658.263	0.0168204
658.341	0.0169032
658.419	0.0168249
658.497	0.0168240
658.575	0.0167227
658.654	0.0167933
658.732	0.0168463
658.810	0.0166830
658.888	0.0168498
658.966	0.0167375
659.044	0.0167493
659.122	0.0166634
659.200	0.0167592
659.279	0.0167549
659.357	0.0167924
659.435	0.0168275
659.513	0.0168012
659.591	0.0168942
659.669	0.0169868
659.747	0.0169239
659.825	0.0168864
659.904	0.0169675
659.982	0.0169558
660.060	0.0168597
660.138	0.0169166
660.216	0.0169325
660.294	0.0168964
660.372	0.0168362
660.450	0.0168505
660.529	0.0168101
660.607	0.0168639
660.685	0.0168839
660.763	0.0168518
660.841	0.0169762
660.919	0.0168353
660.997	0.0169131
661.075	0.0167867
661.154	0.0171382
661.232	0.0168951
661.310	0.0169975
661.388	0.0170943
661.466	0.0170723
661.544	0.0169509
661.622	0.0170084
661.700	0.0169084
661.779	0.0168567
661.857	0.0168733
661.935	0.0167782
662.013	0.0168597
662.091	0.0167422
662.169	0.0168673
662.247	0.0167997
662.325	0.0168451
662.404	0.0167175
662.482	0.0167490
662.560	0.0168590
662.638	0.0168382
662.716	0.0167713
662.794	0.0168637
662.872	0.0170283
662.950	0.0169334
663.029	0.0169145
663.107	0.0169477
663.185	0.0170518
663.263	0.0169050
663.341	0.0171039
663.419	0.0169903
663.497	0.0170437
663.575	0.0170160
663.654	0.0170535
663.732	0.0170629
663.810	0.0169994
663.888	0.0169751
663.966	0.0170142
664.044	0.0171363
664.122	0.0169115
664.200	0.0170186
664.279	0.0170486
664.357	0.0169567
664.435	0.0169970
664.513	0.0170225
664.591	0.0169734
664.669	0.0169526
664.747	0.0170089
664.825	0.0170601
664.904	0.0168615
664.982	0.0169145
665.060	0.0168905
665.138	0.0168777
665.216	0.0169009
665.294	0.0169176
665.372	0.0167665
665.450	0.0167252
665.529	0.0165813
665.607	0.0166253
665.685	0.0166505
665.763	0.0166624
665.841	0.0167263
665.919	0.0166241
665.997	0.0166794
666.075	0.0165658
666.154	0.0165279
666.232	0.0166132
666.310	0.0166222
666.388	0.0166451
666.466	0.0167992
666.544	0.0166971
666.622	0.0167723
666.700	0.0167998
666.779	0.0167275
666.857	0.0167384
666.935	0.0166305
667.013	0.0168854
667.091	0.0168031
667.169	0.0167965
667.247	0.0168590
667.325	0.0168547
667.404	0.0168436
667.482	0.0167953
667.560	0.0167548
667.638	0.0168066
667.716	0.0169023
667.794	0.0168948
667.872	0.0168661
667.950	0.0168448
668.029	0.0168880
668.107	0.0168161
668.185	0.0168481
668.263	0.0167886
668.341	0.0168837
668.419	0.0169831
668.497	0.0167733
668.575	0.0169862
668.654	0.0169817
668.732	0.0169159
668.810	0.0169936
668.888	0.0167888
668.966	0.0170513
669.044	0.0171125
669.122	0.0170791
669.200	0.0170609
669.279	0.0169263
669.357	0.0170477
669.435	0.0170881
669.513	0.0169647
669.591	0.0169625
669.669	0.0169534
669.747	0.0169629
669.825	0.0168198
669.904	0.0169093
669.982	0.0168581
670.060	0.0167387
670.138	0.0167113
670.216	0.0167815
670.294	0.0166232
670.372	0.0167865
670.450	0.0168156
670.529	0.0168398
670.607	0.0169054
670.685	0.0169448
670.763	0.0169261
670.841	0.0167395
670.919	0.0170060
670.997	0.0168478
671.075	0.0169177
671.154	0.0169473
671.232	0.0169176
671.310	0.0169845
671.388	0.0170012
671.466	0.0168240
671.544	0.0168642
671.622	0.0169496
671.700	0.0167524
671.779	0.0168493
671.857	0.0169390
671.935	0.0168308
672.013	0.0167918
672.091	0.0167835
672.169	0.0168994
672.247	0.0168063
672.325	0.0165907
672.404	0.0166698
672.482	0.0166129
672.560	0.0166875
672.638	0.0166544
672.716	0.0167020
672.794	0.0167070
672.872	0.0168009
672.950	0.0167890
673.029	0.0167216
673.107	0.0167174
673.185	0.0168141
673.263	0.0169190
673.341	0.0168967
673.419	0.0169740
673.497	0.0169049
673.575	0.0169231
673.654	0.0169144
673.732	0.0168076
673.810	0.0169019
673.888	0.0169121
673.966	0.0168108
674.044	0.0169677
674.122	0.0170930
674.200	0.0169352
674.279	0.0169689
674.357	0.0169756
674.435	0.0169423
674.513	0.0170065
674.591	0.0169478
674.669	0.0169749
674.747	0.0169402
674.825	0.0170541
674.904	0.0170345
674.982	0.0170963
675.060	0.0171570
675.138	0.0172057
675.216	0.0171739
675.294	0.0172977
675.372	0.0171953
675.450	0.0170808
675.529	0.0171254
675.607	0.0171639
675.685	0.0172300
675.763	0.0171896
675.841	0.0171064
675.919	0.0173003
675.997	0.0171017
676.075	0.0169628
676.154	0.0169585
676.232	0.0169577
676.310	0.0169901
676.388	0.0169110
676.466	0.0169956
676.544	0.0169183
676.622	0.0169188
676.700	0.0170127
676.779	0.0168547
676.857	0.0168340
676.935	0.0168919
677.013	0.0167327
677.091	0.0167592
677.169	0.0168885
677.247	0.0168165
677.325	0.0166575
677.404	0.0168947
677.482	0.0168827
677.560	0.0167645
677.638	0.0167358
677.716	0.0169212
677.794	0.0170836
677.872	0.0168727
677.950	0.0169401
678.029	0.0169677
678.107	0.0168843
678.185	0.0169396
678.263	0.0170348
678.341	0.0171873
678.419	0.0171080
678.497	0.0169691
678.575	0.0170550
678.654	0.0170529
678.732	0.0171661
678.810	0.0171036
678.888	0.0170595
678.966	0.0170644
679.044	0.0170988
679.122	0.0170635
679.200	0.0169205
679.279	0.0168916
679.357	0.0168501
679.435	0.0169470
679.513	0.0168941
679.591	0.0167618
679.669	0.0168256
679.747	0.0167741
679.825	0.0167619
679.904	0.0166206
679.982	0.0166615
680.060	0.0165508
680.138	0.0165444
680.216	0.0166160
680.294	0.0165866
680.372	0.0165046
680.450	0.0165984
680.529	0.0166342
680.607	0.0166527
680.685	0.0166199
680.763	0.0166991
680.841	0.0167312
680.919	0.0166747
680.997	0.0168559
681.075	0.0168564
681.154	0.0168341
681.232	0.0168985
681.310	0.0169727
681.388	0.0169844
681.466	0.0169883
681.544	0.0169370
681.622	0.0167677
681.700	0.0168936
681.779	0.0168837
681.857	0.0168974
681.935	0.0169759
682.013	0.0168876
682.091	0.0167040
682.169	0.0169154
682.247	0.0170216
682.325	0.0169760
682.404	0.0169839
682.482	0.0170831
682.560	0.0170275
682.638	0.0169533
682.716	0.0171834
682.794	0.0170917
682.872	0.0170927
682.950	0.0172910
683.029	0.0172799
683.107	0.0171538
683.185	0.0170867
683.263	0.0171307
683.341	0.0173137
683.419	0.0172006
683.497	0.0171181
683.575	0.0171080
683.654	0.0171320
683.732	0.0170975
683.810	0.0170417
683.888	0.0170756
683.966	0.0169906
684.044	0.0169351
684.122	0.0169944
684.200	0.0171210
684.279	0.0170404
684.357	0.0169270
684.435	0.0171803
684.513	0.0169997
684.591	0.0171081
684.669	0.0170320
684.747	0.0170547
684.825	0.0170021
684.904	0.0171229
684.982	0.0170132
685.060	0.0169759
685.138	0.0168438
685.216	0.0169037
685.294	0.0167958
685.372	0.0169106
685.450	0.0167863
685.529	0.0167928
685.607	0.0168858
685.685	0.0167304
685.763	0.0166535
685.841	0.0167252
685.919	0.0168283
685.997	0.0166418
686.075	0.0166589
686.154	0.0167168
686.232	0.0166766
686.310	0.0167253
686.388	0.0166561
686.466	0.0166921
686.544	0.0167804
686.622	0.0166933
686.700	0.0167267
686.779	0.0167655
686.857	0.0167313
686.935	0.0167178
687.013	0.0168126
687.091	0.0167309
687.169	0.0167169
687.247	0.0167732
687.325	0.0165681
687.404	0.0167638
687.482	0.0168471
687.560	0.0169099
687.638	0.0167782
687.716	0.0167660
687.794	0.0167488
687.872	0.0168060
687.950	0.0167455
688.029	0.0167435
688.107	0.0167057
688.185	0.0164912
688.263	0.0165737
688.341	0.0166501
688.419	0.0165840
688.497	0.0165268
688.575	0.0165778
688.654	0.0165661
688.732	0.0167062
688.810	0.0166782
688.888	0.0165688
688.966	0.0165824
689.044	0.0166166
689.122	0.0165746
689.200	0.0166059
689.279	0.0166644
689.357	0.0165952
689.435	0.0166303
689.513	0.0168386
689.591	0.0167448
689.669	0.0167670
689.747	0.0167517
689.825	0.0167467
689.904	0.0167406
689.982	0.0168726
690.060	0.0170334
690.138	0.0169713
690.216	0.0169223
690.294	0.0169250
690.372	0.0170330
690.450	0.0171175
690.529	0.0170294
690.607	0.0170226
690.685	0.0170284
690.763	0.0169799
690.841	0.0168949
690.919	0.0169794
690.997	0.0169889
691.075	0.0170313
691.154	0.0169645
691.232	0.0168658
691.310	0.0168937
691.388	0.0167535
691.466	0.0167999
691.544	0.0168557
691.622	0.0168072
691.700	0.0166696
691.779	0.0166709
691.857	0.0166313
691.935	0.0166081
692.013	0.0166519
692.091	0.0166319
692.169	0.0167313
692.247	0.0165878
692.325	0.0166579
692.404	0.0166620
692.482	0.0166861
692.560	0.0168034
692.638	0.0166584
692.716	0.0166534
692.794	0.0166135
692.872	0.0166508
692.950	0.0167710
693.029	0.0165527
693.107	0.0165508
693.185	0.0166431
693.263	0.0168201
693.341	0.0166516
693.419	0.0168336
693.497	0.0169375
693.575	0.0167850
693.654	0.0167508
693.732	0.0169769
693.810	0.0169223
693.888	0.0170481
693.966	0.0170053
694.044	0.0169317
694.122	0.0169331
694.200	0.0170065
694.279	0.0169941
694.357	0.0170155
694.435	0.0170725
694.513	0.0168856
694.591	0.0169256
694.669	0.0169377
694.747	0.0169010
694.825	0.0168773
694.904	0.0169093
694.982	0.0167780
695.060	0.0168462
695.138	0.0168423
695.216	0.0166994
695.294	0.0167238
695.372	0.0168441
695.450	0.0168274
695.529	0.0168364
695.607	0.0168746
695.685	0.0167185
695.763	0.0166463
695.841	0.0167104
695.919	0.0166551
695.997	0.0166275
696.075	0.0166439
696.154	0.0167285
696.232	0.0166708
696.310	0.0166544
696.388	0.0166410
696.466	0.0167905
696.544	0.0168097
696.622	0.0165835
696.700	0.0165621
696.779	0.0166965
696.857	0.0167333
696.935	0.0168652
697.013	0.0168459
697.091	0.0169922
697.169	0.0169447
697.247	0.0168980
697.325	0.0169327
697.404	0.0170283
697.482	0.0170325
697.560	0.0171439
697.638	0.0170432
697.716	0.0171516
697.794	0.0171537
697.872	0.0171893
697.950	0.0171295
698.029	0.0172354
698.107	0.0172621
698.185	0.0171389
698.263	0.0170313
698.341	0.0172231
698.419	0.0171415
698.497	0.0169063
698.575	0.0170963
698.654	0.0170750
698.732	0.0170919
698.810	0.0169804
698.888	0.0169508
698.966	0.0169424
699.044	0.0169846
699.122	0.0170552
699.200	0.0170364
699.279	0.0170228
699.357	0.0171128
699.435	0.0169268
699.513	0.0168031
699.591	0.0168310
699.669	0.0170732
699.747	0.0169919
699.825	0.0168147
699.904	0.0167883
699.982	0.0170033
700.060	0.0166961
700.138	0.0167092
700.216	0.0168284
700.294	0.0168806
700.372	0.0166956
700.450	0.0167530
700.529	0.0167760
700.607	0.0166686
700.685	0.0166874
700.763	0.0167380
700.841	0.0168034
700.919	0.0167265
700.997	0.0168938
701.075	0.0166795
701.154	0.0167572
701.232	0.0167065
701.310	0.0168686
701.388	0.0169274
701.466	0.0168313
701.544	0.0168676
701.622	0.0167798
701.700	0.0168234
701.779	0.0167780
701.857	0.0167433
701.935	0.0166938
702.013	0.0166128
702.091	0.0166734
702.169	0.0166146
702.247	0.0165564
702.325	0.0166339
702.404	0.0165955
702.482	0.0165763
702.560	0.0167145
702.638	0.0165423
702.716	0.0165231
702.794	0.0166548
702.872	0.0166489
702.950	0.0165592
703.029	0.0166521
703.107	0.0166785
703.185	0.0168794
703.263	0.0168391
703.341	0.0168520
703.419	0.0167886
703.497	0.0167939
703.575	0.0168179
703.654	0.0167579
703.732	0.0168231
703.810	0.0168400
703.888	0.0169157
703.966	0.0169426
704.044	0.0169494
704.122	0.0168403
704.200	0.0169910
704.279	0.0169177
704.357	0.0168446
704.435	0.0168547
704.513	0.0169823
704.591	0.0166541
704.669	0.0168520
704.747	0.0168916
704.825	0.0168637
704.904	0.0168813
704.982	0.0169060
705.060	0.0168735
705.138	0.0168622
705.216	0.0167690
705.294	0.0168665
705.372	0.0168088
705.450	0.0168937
705.529	0.0168050
705.607	0.0167408
705.685	0.0168029
705.763	0.0166494
705.841	0.0168208
705.919	0.0167410
705.997	0.0166448
706.075	0.0167378
706.154	0.0167145
706.232	0.0168241
706.310	0.0167992
706.388	0.0167396
706.466	0.0166512
706.544	0.0167295
706.622	0.0167701
706.700	0.0168987
706.779	0.0166781
706.857	0.0168028
706.935	0.0168045
707.013	0.0168149
707.091	0.0166395
707.169	0.0166684
707.247	0.0167454
707.325	0.0167033
707.404	0.0165830
707.482	0.0167795
707.560	0.0165654
707.638	0.0166217
707.716	0.0164793
707.794	0.0165562
707.872	0.0165653
707.950	0.0165498
708.029	0.0165983
708.107	0.0163956
708.185	0.0163271
708.263	0.0165625
708.341	0.0165752
708.419	0.0164663
708.497	0.0165425
708.575	0.0165621
708.654	0.0168047
708.732	0.0166701
708.810	0.0164147
708.888	0.0167110
708.966	0.0169191
709.044	0.0168897
709.122	0.0166482
709.200	0.0168075
709.279	0.0168574
709.357	0.0168496
709.435	0.0169044
709.513	0.0167461
709.591	0.0167464
709.669	0.0167279
709.747	0.0167807
709.825	0.0167123
709.904	0.0167606
709.982	0.0166847
710.060	0.0167962
710.138	0.0166826
710.216	0.0167212
710.294	0.0167886
710.372	0.0163953
710.450	0.0166113
710.529	0.0166428
710.607	0.0166222
710.685	0.0166790
710.763	0.0166083
710.841	0.0166650
710.919	0.0166116
710.997	0.0167456
711.075	0.0169646
711.154	0.0167964
711.232	0.0167555
711.310	0.0167561
711.388	0.0166138
711.466	0.0168523
711.544	0.0167966
711.622	0.0168039
711.700	0.0166936
711.779	0.0168588
711.857	0.0168250
711.935	0.0168305
712.013	0.0168269
712.091	0.0168746
712.169	0.0168610
712.247	0.0169173
712.325	0.0168255
712.404	0.0168295
712.482	0.0167811
712.560	0.0167970
712.638	0.0167271
712.716	0.0168509
712.794	0.0168938
712.872	0.0169933
712.950	0.0168745
713.029	0.0167610
713.107	0.0167929
713.185	0.0167478
713.263	0.0168261
713.341	0.0166253
713.419	0.0168201
713.497	0.0167294
713.575	0.0165308
713.654	0.0166110
713.732	0.0166778
713.810	0.0167309
713.888	0.0167460
713.966	0.0168205
714.044	0.0167055
714.122	0.0167609
714.200	0.0167660
714.279	0.0168578
714.357	0.0167387
714.435	0.0168935
714.513	0.0168864
714.591	0.0168407
714.669	0.0170299
714.747	0.0169158
714.825	0.0169224
714.904	0.0169758
714.982	0.0169288
715.060	0.0169708
715.138	0.0170895
715.216	0.0170329
715.294	0.0169789
715.372	0.0168234
715.450	0.0168212
715.529	0.0168032
715.607	0.0169283
715.685	0.0169598
715.763	0.0167117
715.841	0.0168072
715.919	0.0167701
715.997	0.0166588
716.075	0.0167486
716.154	0.0167432
716.232	0.0167760
716.310	0.0167155
716.388	0.0166511
716.466	0.0167087
716.544	0.0166402
716.622	0.0167439
716.700	0.0167138
716.779	0.0167426
716.857	0.0167343
716.935	0.0166244
717.013	0.0166940
717.091	0.0167572
717.169	0.0165799
717.247	0.0167873
717.325	0.0168282
717.404	0.0168024
717.482	0.0167971
717.560	0.0168045
717.638	0.0168669
717.716	0.0168075
717.794	0.0168368
717.872	0.0167722
717.950	0.0169396
718.029	0.0169536
718.107	0.0170532
718.185	0.0168983
718.263	0.0169775
718.341	0.0169635
718.419	0.0169973
718.497	0.0168922
718.575	0.0169143
718.654	0.0169913
718.732	0.0169288
718.810	0.0168679
718.888	0.0169999
718.966	0.0168994
719.044	0.0168523
719.122	0.0169452
719.200	0.0169630
719.279	0.0168161
719.357	0.0167738
719.435	0.0168066
719.513	0.0168531
719.591	0.0167754
719.669	0.0168380
719.747	0.0168193
719.825	0.0168433
719.904	0.0168829
719.982	0.0167979
720.060	0.0168330
720.138	0.0168313
720.216	0.0169237
720.294	0.0168348
720.372	0.0168301
720.450	0.0169623
720.529	0.0169553
720.607	0.0170354
720.685	0.0167781
720.763	0.0168327
720.841	0.0168857
720.919	0.0168597
720.997	0.0167721
721.075	0.0167942
721.154	0.0168252
721.232	0.0169225
721.310	0.0169646
721.388	0.0168923
721.466	0.0169234
721.544	0.0169214
721.622	0.0169360
721.700	0.0169299
721.779	0.0168076
721.857	0.0168490
721.935	0.0169659
722.013	0.0169637
722.091	0.0170773
722.169	0.0170276
722.247	0.0170370
722.325	0.0168943
722.404	0.0167452
722.482	0.0168243
722.560	0.0169479
722.638	0.0169368
722.716	0.0168349
722.794	0.0166257
722.872	0.0166972
722.950	0.0167075
723.029	0.0167035
723.107	0.0166117
723.185	0.0165961
723.263	0.0167094
723.341	0.0166942
723.419	0.0167434
723.497	0.0167397
723.575	0.0166560
723.654	0.0166331
723.732	0.0165888
723.810	0.0165895
723.888	0.0166116
723.966	0.0166548
724.044	0.0168238
724.122	0.0168530
724.200	0.0168173
724.279	0.0167397
724.357	0.0167686
724.435	0.0168802
724.513	0.0168580
724.591	0.0167797
724.669	0.0169563
724.747	0.0168528
724.825	0.0168050
724.904	0.0169049
724.982	0.0169419
725.060	0.0170222
725.138	0.0168591
725.216	0.0168876
725.294	0.0168306
725.372	0.0169543
725.450	0.0166882
725.529	0.0168165
725.607	0.0169353
725.685	0.0168258
725.763	0.0167302
725.841	0.0168736
725.919	0.0168136
725.997	0.0168018
726.075	0.0167484
726.154	0.0168443
726.232	0.0167678
726.310	0.0167303
726.388	0.0167804
726.466	0.0168969
726.544	0.0167501
726.622	0.0167769
726.700	0.0167894
726.779	0.0167489
726.857	0.0169963
726.935	0.0168370
727.013	0.0168632
727.091	0.0169992
727.169	0.0167333
727.247	0.0168304
727.325	0.0165931
727.404	0.0167390
727.482	0.0167498
727.560	0.0168247
727.638	0.0167690
727.716	0.0166937
727.794	0.0167779
727.872	0.0167532
727.950	0.0167359
728.029	0.0167255
728.107	0.0168221
728.185	0.0167038
728.263	0.0166481
728.341	0.0168248
728.419	0.0167294
728.497	0.0167358
728.575	0.0165712
728.654	0.0167814
728.732	0.0168007
728.810	0.0166801
728.888	0.0166237
728.966	0.0165405
729.044	0.0165776
729.122	0.0166668
729.200	0.0165207
729.279	0.0165742
729.357	0.0166177
729.435	0.0166718
729.513	0.0166702
729.591	0.0165949
729.669	0.0166917
729.747	0.0165803
729.825	0.0166067
729.904	0.0164966
729.982	0.0166680
730.060	0.0166817
730.138	0.0166956
730.216	0.0166499
730.294	0.0166965
730.372	0.0167735
730.450	0.0166782
730.529	0.0167972
730.607	0.0167090
730.685	0.0168654
730.763	0.0169103
730.841	0.0169180
730.919	0.0168194
730.997	0.0168333
731.075	0.0169182
731.154	0.0168488
731.232	0.0168737
731.310	0.0169115
731.388	0.0168440
731.466	0.0169246
731.544	0.0169412
731.622	0.0167673
731.700	0.0167301
731.779	0.0168037
731.857	0.0168052
731.935	0.0169691
732.013	0.0167908
732.091	0.0167183
732.169	0.0167841
732.247	0.0167043
732.325	0.0167815
732.404	0.0167390
732.482	0.0167897
732.560	0.0166027
732.638	0.0167284
732.716	0.0167971
732.794	0.0167735
732.872	0.0168889
732.950	0.0169011
733.029	0.0166705
733.107	0.0166709
733.185	0.0168345
733.263	0.0166552
733.341	0.0168872
733.419	0.0169330
733.497	0.0167627
733.575	0.0168301
733.654	0.0167719
733.732	0.0167271
733.810	0.0168327
733.888	0.0167796
733.966	0.0168484
734.044	0.0168212
734.122	0.0168880
734.200	0.0168574
734.279	0.0169436
734.357	0.0168427
734.435	0.0169691
734.513	0.0170371
734.591	0.0169024
734.669	0.0167600
734.747	0.0169392
734.825	0.0170131
734.904	0.0168739
734.982	0.0168938
735.060	0.0168335
735.138	0.0169234
735.216	0.0170693
735.294	0.0167429
735.372	0.0169139
735.450	0.0168585
735.529	0.0168702
735.607	0.0168678
735.685	0.0168314
735.763	0.0169328
735.841	0.0169362
735.919	0.0166853
735.997	0.0168413
736.075	0.0167284
736.154	0.0167535
736.232	0.0169351
736.310	0.0167728
736.388	0.0168079
736.466	0.0166987
736.544	0.0169712
736.622	0.0169448
736.700	0.0169030
736.779	0.0170708
736.857	0.0168875
736.935	0.0167902
737.013	0.0169638
737.091	0.0168156
737.169	0.0169084
737.247	0.0170162
737.325	0.0170189
737.404	0.0168936
737.482	0.0170599
737.560	0.0170370
737.638	0.0170823
737.716	0.0171109
737.794	0.0170184
737.872	0.0170147
737.950	0.0171237
738.029	0.0171014
738.107	0.0170461
738.185	0.0170428
738.263	0.0170152
738.341	0.0170329
738.419	0.0170138
738.497	0.0170377
738.575	0.0170499
738.654	0.0169911
738.732	0.0171255
738.810	0.0170459
738.888	0.0169334
738.966	0.0170033
739.044	0.0169672
739.122	0.0170828
739.200	0.0169307
739.279	0.0169621
739.357	0.0168707
739.435	0.0168803
739.513	0.0168329
739.591	0.0169251
739.669	0.0170399
739.747	0.0169475
739.825	0.0170004
739.904	0.0169225
739.982	0.0168989
740.060	0.0168936
740.138	0.0168170
740.216	0.0168349
740.294	0.0169053
740.372	0.0168663
740.450	0.0167829
740.529	0.0168517
740.607	0.0168803
740.685	0.0166976
740.763	0.0168771
740.841	0.0168622
740.919	0.0167378
740.997	0.0167223
741.075	0.0168216
741.154	0.0168795
741.232	0.0169255
741.310	0.0167552
741.388	0.0166544
741.466	0.0166483
741.544	0.0166084
741.622	0.0167805
741.700	0.0168410
741.779	0.0166667
741.857	0.0168621
741.935	0.0167210
742.013	0.0167480
742.091	0.0167458
742.169	0.0167516
742.247	0.0167565
742.325	0.0168224
742.404	0.0167776
742.482	0.0167644
742.560	0.0166982
742.638	0.0167191
742.716	0.0167336
742.794	0.0166815
742.872	0.0168198
742.950	0.0166782
743.029	0.0167081
743.107	0.0168166
743.185	0.0169050
743.263	0.0168453
743.341	0.0169437
743.419	0.0168307
743.497	0.0168233
743.575	0.0167186
743.654	0.0169653
743.732	0.0169259
743.810	0.0167161
743.888	0.0168058
743.966	0.0169009
744.044	0.0168509
744.122	0.0168769
744.200	0.0169693
744.279	0.0168282
744.357	0.0168929
744.435	0.0169164
744.513	0.0169367
744.591	0.0168964
744.669	0.0168052
744.747	0.0168998
744.825	0.0168658
744.904	0.0169277
744.982	0.0169574
745.060	0.0170380
745.138	0.0169592
745.216	0.0168124
745.294	0.0169703
745.372	0.0171245
745.450	0.0169321
745.529	0.0170501
745.607	0.0170149
745.685	0.0169668
745.763	0.0170041
745.841	0.0167475
745.919	0.0168456
745.997	0.0168030
746.075	0.0168809
746.154	0.0167629
746.232	0.0168233
746.310	0.0166933
746.388	0.0167722
746.466	0.0168855
746.544	0.0168056
746.622	0.0167518
746.700	0.0166885
746.779	0.0167005
746.857	0.0166385
746.935	0.0167764
747.013	0.0168843
747.091	0.0166998
747.169	0.0166379
747.247	0.0167038
747.325	0.0168647
747.404	0.0168276
747.482	0.0167554
747.560	0.0168356
747.638	0.0167558
747.716	0.0168060
747.794	0.0168240
747.872	0.0167442
747.950	0.0167966
748.029	0.0166700
748.107	0.0167685
748.185	0.0167322
748.263	0.0166989
748.341	0.0166662
748.419	0.0167052
748.497	0.0166618
748.575	0.0167893
748.654	0.0167831
748.732	0.0167735
748.810	0.0167049
748.888	0.0166020
748.966	0.0167684
749.044	0.0167039
749.122	0.0166792
749.200	0.0168013
749.279	0.0167973
749.357	0.0167191
749.435	0.0167254
749.513	0.0169144
749.591	0.0168390
749.669	0.0165935
749.747	0.0167801
749.825	0.0169637
749.904	0.0169494
749.982	0.0168633
750.060	0.0168210
750.138	0.0167865
750.216	0.0169074
750.294	0.0169740
750.372	0.0169214
750.450	0.0169044
750.529	0.0170237
750.607	0.0170351
750.685	0.0169608
750.763	0.0169724
750.841	0.0170746
750.919	0.0170484
750.997	0.0169844
751.075	0.0169711
751.154	0.0170206
751.232	0.0169534
751.310	0.0173000
751.388	0.0169279
751.466	0.0168124
751.544	0.0170634
751.622	0.0170621
751.700	0.0168681
751.779	0.0169608
751.857	0.0169773
751.935	0.0168594
752.013	0.0169363
752.091	0.0168971
752.169	0.0168637
752.247	0.0170420
752.325	0.0169354
752.404	0.0168430
752.482	0.0167323
752.560	0.0169911
752.638	0.0169684
752.716	0.0167902
752.794	0.0171130
752.872	0.0170516
752.950	0.0169893
753.029	0.0170188
753.107	0.0172308
753.185	0.0171187
753.263	0.0170672
753.341	0.0170080
753.419	0.0170432
753.497	0.0169139
753.575	0.0168076
753.654	0.0169861
753.732	0.0169847
753.810	0.0169927
753.888	0.0169777
753.966	0.0169405
754.044	0.0168809
754.122	0.0167830
754.200	0.0169632
754.279	0.0167996
754.357	0.0167491
754.435	0.0169631
754.513	0.0168318
754.591	0.0168024
754.669	0.0168525
754.747	0.0169127
754.825	0.0169464
754.904	0.0168651
754.982	0.0169444
755.060	0.0169941
755.138	0.0169495
755.216	0.0168722
755.294	0.0168787
755.372	0.0170370
755.450	0.0170831
755.529	0.0170609
755.607	0.0169723
755.685	0.0168822
755.763	0.0168654
755.841	0.0169153
755.919	0.0168921
755.997	0.0167980
756.075	0.0168748
756.154	0.0168365
756.232	0.0169030
756.310	0.0168324
756.388	0.0167290
756.466	0.0167299
756.544	0.0168471
756.622	0.0167980
756.700	0.0166641
756.779	0.0168073
756.857	0.0168027
756.935	0.0168393
757.013	0.0168880
757.091	0.0168748
757.169	0.0169067
757.247	0.0169621
757.325	0.0170058
757.404	0.0168552
757.482	0.0169950
757.560	0.0170708
757.638	0.0169371
757.716	0.0169857
757.794	0.0171692
757.872	0.0169820
757.950	0.0170234
758.029	0.0171116
758.107	0.0170155
758.185	0.0171162
758.263	0.0171375
758.341	0.0169862
758.419	0.0169684
758.497	0.0170271
758.575	0.0169562
758.654	0.0170224
758.732	0.0170760
758.810	0.0169254
758.888	0.0169793
758.966	0.0169437
759.044	0.0170378
759.122	0.0169642
759.200	0.0168390
759.279	0.0168314
759.357	0.0169144
759.435	0.0171928
759.513	0.0170483
759.591	0.0170374
759.669	0.0169904
759.747	0.0169005
759.825	0.0170213
759.904	0.0170140
759.982	0.0169902
760.060	0.0169917
760.138	0.0169435
760.216	0.0170090
760.294	0.0169158
760.372	0.0171010
760.450	0.0170756
760.529	0.0170480
760.607	0.0170620
760.685	0.0170839
760.763	0.0171329
760.841	0.0170844
760.919	0.0170734
760.997	0.0171476
761.075	0.0168630
761.154	0.0168354
761.232	0.0170702
761.310	0.0169925
761.388	0.0169488
761.466	0.0169021
761.544	0.0168961
761.622	0.0169289
761.700	0.0168866
761.779	0.0168165
761.857	0.0168095
761.935	0.0169929
762.013	0.0168520
762.091	0.0168435
762.169	0.0168644
762.247	0.0169093
762.325	0.0168558
762.404	0.0168726
762.482	0.0170396
762.560	0.0170056
762.638	0.0169405
762.716	0.0170065
762.794	0.0169473
762.872	0.0170429
762.950	0.0170355
763.029	0.0170558
763.107	0.0169637
763.185	0.0169402
763.263	0.0168999
763.341	0.0169285
763.419	0.0169487
763.497	0.0169849
763.575	0.0168143
763.654	0.0167353
763.732	0.0168410
763.810	0.0167207
763.888	0.0166500
763.966	0.0166409
764.044	0.0166195
764.122	0.0166182
764.200	0.0165874
764.279	0.0166032
764.357	0.0165808
764.435	0.0163683
764.513	0.0165381
764.591	0.0166052
764.669	0.0165378
764.747	0.0165851
764.825	0.0166398
764.904	0.0166984
764.982	0.0166035
765.060	0.0165932
765.138	0.0166795
765.216	0.0166769
765.294	0.0165931
765.372	0.0166748
765.450	0.0167404
765.529	0.0167706
765.607	0.0166812
765.685	0.0168219
765.763	0.0167224
765.841	0.0167716
765.919	0.0167496
765.997	0.0166811
766.075	0.0166239
766.154	0.0166449
766.232	0.0166283
766.310	0.0168922
766.388	0.0166977
766.466	0.0166313
766.544	0.0165332
766.622	0.0167236
766.700	0.0167309
766.779	0.0165675
766.857	0.0166609
766.935	0.0168819
767.013	0.0167963
767.091	0.0167670
767.169	0.0166940
767.247	0.0167263
767.325	0.0166658
767.404	0.0167885
767.482	0.0167059
767.560	0.0166953
767.638	0.0167458
767.716	0.0167104
767.794	0.0168085
767.872	0.0167669
767.950	0.0167197
768.029	0.0165972
768.107	0.0165555
768.185	0.0167292
768.263	0.0168422
768.341	0.0167571
768.419	0.0165604
768.497	0.0166714
768.575	0.0166689
768.654	0.0166281
768.732	0.0166381
768.810	0.0165658
768.888	0.0166568
768.966	0.0166188
769.044	0.0167498
769.122	0.0166903
769.200	0.0166657
769.279	0.0166556
769.357	0.0166154
769.435	0.0165644
769.513	0.0166622
769.591	0.0167097
769.669	0.0168023
769.747	0.0166846
769.825	0.0166711
769.904	0.0166992
769.982	0.0166296
770.060	0.0166010
770.138	0.0166844
770.216	0.0167258
770.294	0.0167347
770.372	0.0168097
770.450	0.0166521
770.529	0.0167738
770.607	0.0166839
770.685	0.0168226
770.763	0.0168579
770.841	0.0168705
770.919	0.0168977
770.997	0.0168482
771.075	0.0167928
771.154	0.0168647
771.232	0.0168995
771.310	0.0168356
771.388	0.0168436
771.466	0.0166779
771.544	0.0168433
771.622	0.0167755
771.700	0.0169003
771.779	0.0167014
771.857	0.0168359
771.935	0.0167788
772.013	0.0168790
772.091	0.0167269
772.169	0.0166882
772.247	0.0168295
772.325	0.0166483
772.404	0.0166980
772.482	0.0166790
772.560	0.0168055
772.638	0.0167880
772.716	0.0166924
772.794	0.0166788
772.872	0.0166322
772.950	0.0168122
773.029	0.0169160
773.107	0.0167017
773.185	0.0168186
773.263	0.0169373
773.341	0.0168102
773.419	0.0168662
773.497	0.0167899
773.575	0.0168076
773.654	0.0168625
773.732	0.0168497
773.810	0.0168839
773.888	0.0167364
773.966	0.0168774
774.044	0.0167401
774.122	0.0168159
774.200	0.0169900
774.279	0.0169744
774.357	0.0170002
774.435	0.0168271
774.513	0.0170301
774.591	0.0169492
774.669	0.0169318
774.747	0.0170763
774.825	0.0171026
774.904	0.0170858
774.982	0.0171073
775.060	0.0171821
775.138	0.0171574
775.216	0.0171356
775.294	0.0170890
775.372	0.0172000
775.450	0.0171099
775.529	0.0170168
775.607	0.0171767
775.685	0.0171868
775.763	0.0171698
775.841	0.0170454
775.919	0.0170983
775.997	0.0170621
776.075	0.0172379
776.154	0.0170885
776.232	0.0169415
776.310	0.0170274
776.388	0.0170409
776.466	0.0170057
776.544	0.0170290
776.622	0.0171329
776.700	0.0170641
776.779	0.0170448
776.857	0.0169395
776.935	0.0170125
777.013	0.0170300
777.091	0.0169595
777.169	0.0171034
777.247	0.0170720
777.325	0.0170148
777.404	0.0170049
777.482	0.0170344
777.560	0.0169545
777.638	0.0170213
777.716	0.0169665
777.794	0.0170245
777.872	0.0171465
777.950	0.0170272
778.029	0.0170137
778.107	0.0170139
778.185	0.0171061
778.263	0.0169406
778.341	0.0171268
778.419	0.0171647
778.497	0.0170610
778.575	0.0170773
778.654	0.0169911
778.732	0.0172942
778.810	0.0171488
778.888	0.0171616
778.966	0.0170317
779.044	0.0171291
779.122	0.0169858
779.200	0.0170010
779.279	0.0170174
779.357	0.0169088
779.435	0.0168886
779.513	0.0169656
779.591	0.0169550
779.669	0.0168385
779.747	0.0169249
779.825	0.0169395
779.904	0.0168596
779.982	0.0169012
780.060	0.0168522
780.138	0.0168723
780.216	0.0169973
780.294	0.0169389
780.372	0.0169445
780.450	0.0170174
780.529	0.0169711
780.607	0.0169688
780.685	0.0169908
780.763	0.0169810
780.841	0.0169268
780.919	0.0168898
780.997	0.0170156
781.075	0.0169970
781.154	0.0169964
781.232	0.0168987
781.310	0.0169633
781.388	0.0169443
781.466	0.0169317
781.544	0.0169144
781.622	0.0169032
781.700	0.0167558
781.779	0.0169075
781.857	0.0169173
781.935	0.0167818
782.013	0.0168872
782.091	0.0168509
782.169	0.0169155
782.247	0.0169861
782.325	0.0170307
782.404	0.0169181
782.482	0.0169402
782.560	0.0169585
782.638	0.0169501
782.716	0.0169553
782.794	0.0170591
782.872	0.0170512
782.950	0.0170008
783.029	0.0170242
783.107	0.0169411
783.185	0.0170345
783.263	0.0169195
783.341	0.0169022
783.419	0.0170351
783.497	0.0169714
783.575	0.0169846
783.654	0.0168481
783.732	0.0169704
783.810	0.0168900
783.888	0.0168898
783.966	0.0168726
784.044	0.0169338
784.122	0.0170612
784.200	0.0170395
784.279	0.0170591
784.357	0.0168330
784.435	0.0168766
784.513	0.0169888
784.591	0.0168843
784.669	0.0168565
784.747	0.0170066
784.825	0.0169775
784.904	0.0167870
784.982	0.0168703
785.060	0.0170128
785.138	0.0169365
785.216	0.0168512
785.294	0.0169128
785.372	0.0168095
785.450	0.0168134
785.529	0.0169056
785.607	0.0169222
785.685	0.0168881
785.763	0.0168256
785.841	0.0168217
785.919	0.0168392
785.997	0.0166980
786.075	0.0169370
786.154	0.0168527
786.232	0.0167624
786.310	0.0166515
786.388	0.0168429
786.466	0.0167580
786.544	0.0167104
786.622	0.0168707
786.700	0.0167774
786.779	0.0166666
786.857	0.0167836
786.935	0.0166850
787.013	0.0167934
787.091	0.0168173
787.169	0.0166694
787.247	0.0167286
787.325	0.0167171
787.404	0.0167970
787.482	0.0167719
787.560	0.0167394
787.638	0.0167544
787.716	0.0166211
787.794	0.0167655
787.872	0.0167979
787.950	0.0168019
788.029	0.0167883
788.107	0.0168137
788.185	0.0167641
788.263	0.0168073
788.341	0.0168134
788.419	0.0167534
788.497	0.0168258
788.575	0.0167319
788.654	0.0167323
788.732	0.0167200
788.810	0.0166518
788.888	0.0167707
788.966	0.0168841
789.044	0.0167118
789.122	0.0166908
789.200	0.0166505
789.279	0.0167587
789.357	0.0168443
789.435	0.0168187
789.513	0.0166502
789.591	0.0167179
789.669	0.0167581
789.747	0.0168148
789.825	0.0167492
789.904	0.0168147
789.982	0.0166920
790.060	0.0167115
790.138	0.0166559
790.216	0.0167870
790.294	0.0169128
790.372	0.0166779
790.450	0.0167033
790.529	0.0168256
790.607	0.0168693
790.685	0.0167379
790.763	0.0167350
790.841	0.0167828
790.919	0.0168420
790.997	0.0168201
791.075	0.0167587
791.154	0.0168024
791.232	0.0167648
791.310	0.0168309
791.388	0.0169930
791.466	0.0170054
791.544	0.0168696
791.622	0.0168134
791.700	0.0168087
791.779	0.0168100
791.857	0.0167920
791.935	0.0167609
792.013	0.0168129
792.091	0.0167335
792.169	0.0166380
792.247	0.0168326
792.325	0.0166882
792.404	0.0166618
792.482	0.0167120
792.560	0.0165231
792.638	0.0166537
792.716	0.0164964
792.794	0.0166512
792.872	0.0166154
792.950	0.0165837
793.029	0.0167426
793.107	0.0166827
793.185	0.0166603
793.263	0.0166736
793.341	0.0164375
793.419	0.0165482
793.497	0.0166844
793.575	0.0167198
793.654	0.0166286
793.732	0.0166974
793.810	0.0166171
793.888	0.0165927
793.966	0.0166837
794.044	0.0167445
794.122	0.0167912
794.200	0.0167393
794.279	0.0166108
794.357	0.0167336
794.435	0.0166995
794.513	0.0167409
794.591	0.0167442
794.669	0.0167712
794.747	0.0166425
794.825	0.0166635
794.904	0.0166726
794.982	0.0167571
795.060	0.0167516
795.138	0.0167069
795.216	0.0167070
795.294	0.0167606
795.372	0.0166865
795.450	0.0166908
795.529	0.0167065
795.607	0.0166834
795.685	0.0166743
795.763	0.0165602
795.841	0.0166792
795.919	0.0166804
795.997	0.0167088
796.075	0.0165961
796.154	0.0165323
796.232	0.0165887
796.310	0.0166615
796.388	0.0165569
796.466	0.0168366
796.544	0.0168388
796.622	0.0167229
796.700	0.0167548
796.779	0.0167158
796.857	0.0167062
796.935	0.0168606
797.013	0.0167102
797.091	0.0169112
797.169	0.0169138
797.247	0.0167692
797.325	0.0168192
797.404	0.0168395
797.482	0.0169578
797.560	0.0168571
797.638	0.0168630
797.716	0.0168597
797.794	0.0169223
797.872	0.0168557
797.950	0.0168605
798.029	0.0168353
798.107	0.0168744
798.185	0.0168869
798.263	0.0169891
798.341	0.0168932
798.419	0.0169199
798.497	0.0169701
798.575	0.0170190
798.654	0.0168264
798.732	0.0170239
798.810	0.0170154
798.888	0.0171101
798.966	0.0168774
799.044	0.0169504
799.122	0.0168703
799.200	0.0170230
799.279	0.0170850
799.357	0.0168239
799.435	0.0168999
799.513	0.0170646
799.591	0.0170351
799.669	0.0170026
799.747	0.0170377
799.825	0.0169537
799.904	0.0169216
799.982	0.0170756
800.060	0.0168784
800.138	0.0168741
800.216	0.0169178
800.294	0.0170235
800.372	0.0169126
800.450	0.0168913
800.529	0.0169775
800.607	0.0169477
800.685	0.0169296
800.763	0.0168842
800.841	0.0169919
800.919	0.0171543
800.997	0.0171740
801.075	0.0170161
801.154	0.0170821
801.232	0.0170621
801.310	0.0170526
801.388	0.0170600
801.466	0.0170019
801.544	0.0171342
801.622	0.0169993
801.700	0.0171065
801.779	0.0170563
801.857	0.0171159
801.935	0.0170403
802.013	0.0170187
802.091	0.0169811
802.169	0.0170768
802.247	0.0171880
802.325	0.0168978
802.404	0.0169601
802.482	0.0170736
802.560	0.0170696
802.638	0.0169043
802.716	0.0169902
802.794	0.0169491
802.872	0.0168472
802.950	0.0169131
803.029	0.0169509
803.107	0.0169763
803.185	0.0168411
803.263	0.0169083
803.341	0.0167597
803.419	0.0168076
803.497	0.0168178
803.575	0.0168581
803.654	0.0167130
803.732	0.0168080
803.810	0.0169333
803.888	0.0168987
803.966	0.0168351
804.044	0.0169337
804.122	0.0168683
804.200	0.0168508
804.279	0.0169364
804.357	0.0168569
804.435	0.0169662
804.513	0.0169275
804.591	0.0167416
804.669	0.0169263
804.747	0.0168332
804.825	0.0168271
804.904	0.0169600
804.982	0.0169856
805.060	0.0169567
805.138	0.0170006
805.216	0.0169906
805.294	0.0168499
805.372	0.0169335
805.450	0.0170110
805.529	0.0169205
805.607	0.0169543
805.685	0.0169891
805.763	0.0169847
805.841	0.0169898
805.919	0.0168711
805.997	0.0168233
806.075	0.0168336
806.154	0.0169364
806.232	0.0168338
806.310	0.0170893
806.388	0.0171173
806.466	0.0170043
806.544	0.0168827
806.622	0.0169778
806.700	0.0167530
806.779	0.0167987
806.857	0.0169167
806.935	0.0169192
807.013	0.0168544
807.091	0.0168852
807.169	0.0168366
807.247	0.0169304
807.325	0.0168424
807.404	0.0168216
807.482	0.0168549
807.560	0.0168896
807.638	0.0168678
807.716	0.0167994
807.794	0.0166910
807.872	0.0167472
807.950	0.0167165
808.029	0.0169186
808.107	0.0168021
808.185	0.0165461
808.263	0.0166929
808.341	0.0168433
808.419	0.0165668
808.497	0.0167643
808.575	0.0167297
808.654	0.0166585
808.732	0.0166776
808.810	0.0166222
808.888	0.0166010
808.966	0.0165511
809.044	0.0166493
809.122	0.0166943
809.200	0.0164873
809.279	0.0165002
809.357	0.0167037
809.435	0.0165599
809.513	0.0166004
809.591	0.0165778
809.669	0.0166660
809.747	0.0165399
809.825	0.0165224
809.904	0.0165121
809.982	0.0164925
810.060	0.0165152
810.138	0.0163914
810.216	0.0165622
810.294	0.0165395
810.372	0.0163994
810.450	0.0164735
810.529	0.0165159
810.607	0.0163103
810.685	0.0164447
810.763	0.0165520
810.841	0.0165773
810.919	0.0165230
810.997	0.0164971
811.075	0.0166090
811.154	0.0164957
811.232	0.0165598
811.310	0.0166090
811.388	0.0165340
811.466	0.0165785
811.544	0.0164984
811.622	0.0165382
811.700	0.0166982
811.779	0.0166529
811.857	0.0165646
811.935	0.0166460
812.013	0.0166557
812.091	0.0165688
812.169	0.0166463
812.247	0.0166608
812.325	0.0167716
812.404	0.0165845
812.482	0.0165592
812.560	0.0166604
812.638	0.0167394
812.716	0.0165314
812.794	0.0166758
812.872	0.0167195
812.950	0.0165590
813.029	0.0167811
813.107	0.0166710
813.185	0.0167365
813.263	0.0168352
813.341	0.0168657
813.419	0.0168435
813.497	0.0168502
813.575	0.0168204
813.654	0.0169073
813.732	0.0168111
813.810	0.0167547
813.888	0.0167783
813.966	0.0169806
814.044	0.0168864
814.122	0.0167180
814.200	0.0168417
814.279	0.0169783
814.357	0.0169869
814.435	0.0168880
814.513	0.0168619
814.591	0.0168015
814.669	0.0169039
814.747	0.0168393
814.825	0.0168509
814.904	0.0169147
814.982	0.0167950
815.060	0.0168760
815.138	0.0168563
815.216	0.0167442
815.294	0.0168273
815.372	0.0169073
815.450	0.0167368
815.529	0.0168842
815.607	0.0167997
815.685	0.0167539
815.763	0.0167787
815.841	0.0167799
815.919	0.0166718
815.997	0.0167248
816.075	0.0167851
816.154	0.0167447
816.232	0.0167489
816.310	0.0167133
816.388	0.0167340
816.466	0.0167104
816.544	0.0168518
816.622	0.0167157
816.700	0.0167513
816.779	0.0167943
816.857	0.0168201
816.935	0.0167181
817.013	0.0167647
817.091	0.0168671
817.169	0.0168797
817.247	0.0168844
817.325	0.0167568
817.404	0.0167986
817.482	0.0167605
817.560	0.0167397
817.638	0.0168554
817.716	0.0168053
817.794	0.0168201
817.872	0.0166450
817.950	0.0168512
818.029	0.0167894
818.107	0.0167609
818.185	0.0168425
818.263	0.0168366
818.341	0.0168145
818.419	0.0167477
818.497	0.0168192
818.575	0.0168532
818.654	0.0169773
818.732	0.0168211
818.810	0.0169798
818.888	0.0169485
818.966	0.0168542
819.044	0.0169294
819.122	0.0169971
819.200	0.0168835
819.279	0.0169558
819.357	0.0169489
819.435	0.0168243
819.513	0.0168095
819.591	0.0169070
819.669	0.0168220
819.747	0.0167889
819.825	0.0167946
819.904	0.0168131
819.982	0.0168848
820.060	0.0168240
820.138	0.0169207
820.216	0.0169735
820.294	0.0168169
820.372	0.0169759
820.450	0.0168374
820.529	0.0168818
820.607	0.0169341
820.685	0.0169526
820.763	0.0168986
820.841	0.0168666
820.919	0.0169238
820.997	0.0169927
821.075	0.0170137
821.154	0.0170056
821.232	0.0168770
821.310	0.0169966
821.388	0.0169223
821.466	0.0169218
821.544	0.0168669
821.622	0.0169595
821.700	0.0170152
821.779	0.0169518
821.857	0.0168722
821.935	0.0167697
822.013	0.0168561
822.091	0.0168806
822.169	0.0167854
822.247	0.0168925
822.325	0.0168502
822.404	0.0169281
822.482	0.0169061
822.560	0.0168431
822.638	0.0168452
822.716	0.0167365
822.794	0.0168908
822.872	0.0169015
822.950	0.0169319
823.029	0.0169293
823.107	0.0168076
823.185	0.0167143
823.263	0.0168561
823.341	0.0168255
823.419	0.0168390
823.497	0.0167918
823.575	0.0167796
823.654	0.0167276
823.732	0.0168537
823.810	0.0168536
823.888	0.0168613
823.966	0.0166637
824.044	0.0168816
824.122	0.0169121
824.200	0.0167109
824.279	0.0167641
824.357	0.0167875
824.435	0.0168828
824.513	0.0168428
824.591	0.0168097
824.669	0.0168935
824.747	0.0168932
824.825	0.0168298
824.904	0.0167936
824.982	0.0168028
825.060	0.0168766
825.138	0.0167551
825.216	0.0168345
825.294	0.0167840
825.372	0.0167311
825.450	0.0168430
825.529	0.0167611
825.607	0.0168255
825.685	0.0168043
825.763	0.0169167
825.841	0.0168743
825.919	0.0166953
825.997	0.0168090
826.075	0.0169054
826.154	0.0169643
826.232	0.0168218
826.310	0.0167490
826.388	0.0169667
826.466	0.0168544
826.544	0.0168972
826.622	0.0168291
826.700	0.0167633
826.779	0.0169083
826.857	0.0169421
826.935	0.0170249
827.013	0.0169016
827.091	0.0167855
827.169	0.0168903
827.247	0.0169069
827.325	0.0168792
827.404	0.0168256
827.482	0.0168855
827.560	0.0169325
827.638	0.0168909
827.716	0.0168204
827.794	0.0168671
827.872	0.0169503
827.950	0.0168514
828.029	0.0169348
828.107	0.0169100
828.185	0.0168999
828.263	0.0169190
828.341	0.0168708
828.419	0.0168359
828.497	0.0167332
828.575	0.0167815
828.654	0.0168571
828.732	0.0169466
828.810	0.0167521
828.888	0.0168234
828.966	0.0169850
829.044	0.0167300
829.122	0.0167818
829.200	0.0168439
829.279	0.0168387
829.357	0.0167297
829.435	0.0168321
829.513	0.0168597
829.591	0.0168835
829.669	0.0169421
829.747	0.0168302
829.825	0.0168651
829.904	0.0167983
829.982	0.0168455
830.060	0.0168039
830.138	0.0168571
830.216	0.0168423
830.294	0.0166173
830.372	0.0167609
830.450	0.0167876
830.529	0.0167390
830.607	0.0166463
830.685	0.0166919
830.763	0.0168146
830.841	0.0167601
830.919	0.0165983
830.997	0.0165608
831.075	0.0166582
831.154	0.0166711
831.232	0.0167425
831.310	0.0165989
831.388	0.0166951
831.466	0.0166898
831.544	0.0167621
831.622	0.0166788
831.700	0.0165014
831.779	0.0166420
831.857	0.0167178
831.935	0.0167564
832.013	0.0167848
832.091	0.0166776
832.169	0.0165665
832.247	0.0165892
832.325	0.0168125
832.404	0.0168116
832.482	0.0166905
832.560	0.0167509
832.638	0.0165803
832.716	0.0166775
832.794	0.0167654
832.872	0.0166474
832.950	0.0167768
833.029	0.0168135
833.107	0.0165829
833.185	0.0165469
833.263	0.0167519
833.341	0.0166878
833.419	0.0167442
833.497	0.0167122
833.575	0.0167032
833.654	0.0166499
833.732	0.0167020
833.810	0.0167481
833.888	0.0168826
833.966	0.0168790
834.044	0.0168245
834.122	0.0168525
834.200	0.0168687
834.279	0.0168505
834.357	0.0167864
834.435	0.0168636
834.513	0.0168736
834.591	0.0168317
834.669	0.0167603
834.747	0.0170282
834.825	0.0169394
834.904	0.0167649
834.982	0.0169883
835.060	0.0170028
835.138	0.0169861
835.216	0.0169296
835.294	0.0167136
835.372	0.0168204
835.450	0.0169025
835.529	0.0168941
835.607	0.0170107
835.685	0.0168663
835.763	0.0167651
835.841	0.0167957
835.919	0.0168427
835.997	0.0168226
836.075	0.0168441
836.154	0.0169272
836.232	0.0168271
836.310	0.0168348
836.388	0.0167696
836.466	0.0168424
836.544	0.0169830
836.622	0.0168942
836.700	0.0168585
836.779	0.0168415
836.857	0.0167552
836.935	0.0168317
837.013	0.0168526
837.091	0.0168614
837.169	0.0168227
837.247	0.0168720
837.325	0.0168237
837.404	0.0168215
837.482	0.0167178
837.560	0.0168143
837.638	0.0167570
837.716	0.0167256
837.794	0.0167014
837.872	0.0168670
837.950	0.0168536
838.029	0.0168632
838.107	0.0167188
838.185	0.0167523
838.263	0.0167208
838.341	0.0169563
838.419	0.0167936
838.497	0.0166938
838.575	0.0167515
838.654	0.0167161
838.732	0.0167549
838.810	0.0167131
838.888	0.0166464
838.966	0.0167858
839.044	0.0167957
839.122	0.0167825
839.200	0.0167866
839.279	0.0166943
839.357	0.0168188
839.435	0.0167791
839.513	0.0168432
839.591	0.0168255
839.669	0.0168545
839.747	0.0168539
839.825	0.0168448
839.904	0.0168390
839.982	0.0168076
840.060	0.0168229
840.138	0.0168272
840.216	0.0168887
840.294	0.0169193
840.372	0.0169489
840.450	0.0167827
840.529	0.0169547
840.607	0.0170463
840.685	0.0168925
840.763	0.0170041
840.841	0.0168771
840.919	0.0169293
840.997	0.0169209
841.075	0.0170287
841.154	0.0170008
841.232	0.0169753
841.310	0.0169803
841.388	0.0170435
841.466	0.0170756
841.544	0.0170504
841.622	0.0170883
841.700	0.0170383
841.779	0.0169705
841.857	0.0170626
841.935	0.0170457
842.013	0.0168698
842.091	0.0169823
842.169	0.0169622
842.247	0.0170039
842.325	0.0169900
842.404	0.0169553
842.482	0.0169766
842.560	0.0169669
842.638	0.0169016
842.716	0.0168946
842.794	0.0168462
842.872	0.0167447
842.950	0.0167822
843.029	0.0168497
843.107	0.0167830
843.185	0.0168687
843.263	0.0167536
843.341	0.0168849
843.419	0.0168136
843.497	0.0168314
843.575	0.0169406
843.654	0.0167559
843.732	0.0166862
843.810	0.0168239
843.888	0.0167688
843.966	0.0167274
844.044	0.0167089
844.122	0.0168021
844.200	0.0167694
844.279	0.0168648
844.357	0.0165697
844.435	0.0166276
844.513	0.0166862
844.591	0.0166770
844.669	0.0167644
844.747	0.0166547
844.825	0.0165714
844.904	0.0166713
844.982	0.0166099
845.060	0.0165634
845.138	0.0165836
845.216	0.0167687
845.294	0.0168230
845.372	0.0166619
845.450	0.0166367
845.529	0.0166602
845.607	0.0166479
845.685	0.0167380
845.763	0.0167474
845.841	0.0168748
845.919	0.0168622
845.997	0.0167873
846.075	0.0167653
846.154	0.0168047
846.232	0.0167400
846.310	0.0168885
846.388	0.0169386
846.466	0.0169090
846.544	0.0167757
846.622	0.0168804
846.700	0.0168518
846.779	0.0169102
846.857	0.0168354
846.935	0.0168631
847.013	0.0168915
847.091	0.0168082
847.169	0.0169097
847.247	0.0169268
847.325	0.0168871
847.404	0.0167860
847.482	0.0168236
847.560	0.0168246
847.638	0.0168261
847.716	0.0168874
847.794	0.0169471
847.872	0.0170280
847.950	0.0170185
848.029	0.0167870
848.107	0.0167834
848.185	0.0170342
848.263	0.0169037
848.341	0.0168565
848.419	0.0169032
848.497	0.0170168
848.575	0.0168723
848.654	0.0169727
848.732	0.0171191
848.810	0.0170559
848.888	0.0169238
848.966	0.0170029
849.044	0.0171321
849.122	0.0170521
849.200	0.0169998
849.279	0.0169385
849.357	0.0169830
849.435	0.0169389
849.513	0.0168715
849.591	0.0167885
849.669	0.0169433
849.747	0.0170876
849.825	0.0169137
849.904	0.0169447
849.982	0.0169900
850.060	0.0169620
850.138	0.0170322
850.216	0.0169615
850.294	0.0168335
850.372	0.0169413
850.450	0.0169994
850.529	0.0170335
850.607	0.0169600
850.685	0.0169292
850.763	0.0169714
850.841	0.0170355
850.919	0.0170039
850.997	0.0168996
851.075	0.0170581
851.154	0.0169798
851.232	0.0170966
851.310	0.0170044
851.388	0.0169794
851.466	0.0169865
851.544	0.0170165
851.622	0.0169397
851.700	0.0169085
851.779	0.0170003
851.857	0.0170712
851.935	0.0171445
852.013	0.0169363
852.091	0.0168618
852.169	0.0170870
852.247	0.0170592
852.325	0.0170631
852.404	0.0169675
852.482	0.0170551
852.560	0.0170670
852.638	0.0170843
852.716	0.0170816
852.794	0.0169896
852.872	0.0169710
852.950	0.0170147
853.029	0.0169999
853.107	0.0169307
853.185	0.0169597
853.263	0.0170544
853.341	0.0170389
853.419	0.0170846
853.497	0.0170355
853.575	0.0169059
853.654	0.0170190
853.732	0.0170219
853.810	0.0170946
853.888	0.0170264
853.966	0.0168575
854.044	0.0170695
854.122	0.0169482
854.200	0.0169197
854.279	0.0169727
854.357	0.0169081
854.435	0.0170109
854.513	0.0169100
854.591	0.0169548
854.669	0.0171072
854.747	0.0169434
854.825	0.0168987
854.904	0.0168948
854.982	0.0170228
855.060	0.0168421
855.138	0.0166750
855.216	0.0169056
855.294	0.0167685
855.372	0.0167773
855.450	0.0167191
855.529	0.0167033
855.607	0.0167912
855.685	0.0169853
855.763	0.0167889
855.841	0.0167106
855.919	0.0167352
855.997	0.0166905
856.075	0.0168018
856.154	0.0167152
856.232	0.0166592
856.310	0.0168782
856.388	0.0167575
856.466	0.0167569
856.544	0.0167841
856.622	0.0169142
856.700	0.0168307
856.779	0.0168719
856.857	0.0168402
856.935	0.0169509
857.013	0.0168036
857.091	0.0168153
857.169	0.0167178
857.247	0.0167703
857.325	0.0168596
857.404	0.0168806
857.482	0.0168220
857.560	0.0168235
857.638	0.0168128
857.716	0.0169913
857.794	0.0168044
857.872	0.0168818
857.950	0.0168645
858.029	0.0168992
858.107	0.0168230
858.185	0.0167537
858.263	0.0167591
858.341	0.0167652
858.419	0.0166914
858.497	0.0167303
858.575	0.0168704
858.654	0.0166784
858.732	0.0169351
858.810	0.0168082
858.888	0.0167940
858.966	0.0168755
859.044	0.0168283
859.122	0.0168655
859.200	0.0167183
859.279	0.0169752
859.357	0.0168671
859.435	0.0169641
859.513	0.0169004
859.591	0.0168811
859.669	0.0168514
859.747	0.0167543
859.825	0.0168263
859.904	0.0168840
859.982	0.0168893
860.060	0.0168995
860.138	0.0169641
860.216	0.0168945
860.294	0.0168378
860.372	0.0170252
860.450	0.0169597
860.529	0.0169694
860.607	0.0168488
860.685	0.0168700
860.763	0.0169220
860.841	0.0170051
860.919	0.0169463
860.997	0.0169109
861.075	0.0168891
861.154	0.0168615
861.232	0.0168229
861.310	0.0168166
861.388	0.0168333
861.466	0.0167747
861.544	0.0169472
861.622	0.0168876
861.700	0.0168473
861.779	0.0167776
861.857	0.0167163
861.935	0.0168096
862.013	0.0168794
862.091	0.0167847
862.169	0.0168855
862.247	0.0168562
862.325	0.0168934
862.404	0.0168137
862.482	0.0167735
862.560	0.0169711
862.638	0.0169757
862.716	0.0169192
862.794	0.0169101
862.872	0.0168874
862.950	0.0168617
863.029	0.0169296
863.107	0.0169171
863.185	0.0169436
863.263	0.0169424
863.341	0.0168795
863.419	0.0168966
863.497	0.0169180
863.575	0.0166636
863.654	0.0168355
863.732	0.0169785
863.810	0.0168599
863.888	0.0167775
863.966	0.0168641
864.044	0.0168966
864.122	0.0168150
864.200	0.0168279
864.279	0.0167849
864.357	0.0169640
864.435	0.0169553
864.513	0.0168324
864.591	0.0168651
864.669	0.0168164
864.747	0.0168489
864.825	0.0167823
864.904	0.0168935
864.982	0.0167789
865.060	0.0167648
865.138	0.0168378
865.216	0.0167447
865.294	0.0166330
865.372	0.0168539
865.450	0.0168282
865.529	0.0167331
865.607	0.0168813
865.685	0.0167612
865.763	0.0167733
865.841	0.0169143
865.919	0.0170004
865.997	0.0168428
866.075	0.0168045
866.154	0.0167663
866.232	0.0167854
866.310	0.0168604
866.388	0.0167712
866.466	0.0169342
866.544	0.0169386
866.622	0.0167711
866.700	0.0169001
866.779	0.0168066
866.857	0.0168991
866.935	0.0168306
867.013	0.0167912
867.091	0.0167410
867.169	0.0169055
867.247	0.0168779
867.325	0.0167940
867.404	0.0167773
867.482	0.0168433
867.560	0.0167701
867.638	0.0167844
867.716	0.0166735
867.794	0.0167822
867.872	0.0166300
867.950	0.0166666
868.029	0.0166657
868.107	0.0166401
868.185	0.0166774
868.263	0.0165762
868.341	0.0165317
868.419	0.0165762
868.497	0.0167439
868.575	0.0166042
868.654	0.0165524
868.732	0.0167497
868.810	0.0168655
868.888	0.0166710
868.966	0.0167734
869.044	0.0167638
869.122	0.0167501
869.200	0.0166774
869.279	0.0168646
869.357	0.0168098
869.435	0.0169143
869.513	0.0168133
869.591	0.0168302
869.669	0.0166517
869.747	0.0167053
869.825	0.0169091
869.904	0.0167590
869.982	0.0167909
870.060	0.0167528
870.138	0.0168049
870.216	0.0168687
870.294	0.0168075
870.372	0.0169053
870.450	0.0168639
870.529	0.0168192
870.607	0.0167257
870.685	0.0168403
870.763	0.0169553
870.841	0.0170261
870.919	0.0170353
870.997	0.0169258
871.075	0.0168253
871.154	0.0169820
871.232	0.0169321
871.310	0.0167822
871.388	0.0168362
871.466	0.0169688
871.544	0.0168719
871.622	0.0170031
871.700	0.0168333
871.779	0.0169347
871.857	0.0169266
871.935	0.0168369
872.013	0.0169138
872.091	0.0168405
872.169	0.0169028
872.247	0.0170329
872.325	0.0169532
872.404	0.0167536
872.482	0.0169547
872.560	0.0170051
872.638	0.0168818
872.716	0.0169726
872.794	0.0169638
872.872	0.0170257
872.950	0.0170311
873.029	0.0171324
873.107	0.0171287
873.185	0.0168973
873.263	0.0171297
873.341	0.0170203
873.419	0.0170539
873.497	0.0171632
873.575	0.0170387
873.654	0.0169492
873.732	0.0170854
873.810	0.0169527
873.888	0.0170161
873.966	0.0170404
874.044	0.0171332
874.122	0.0171034
874.200	0.0171562
874.279	0.0170992
874.357	0.0170908
874.435	0.0171530
874.513	0.0170512
874.591	0.0170937
874.669	0.0171562
874.747	0.0169525
874.825	0.0170268
874.904	0.0170843
874.982	0.0170473
875.060	0.0170258
875.138	0.0169827
875.216	0.0169018
875.294	0.0170692
875.372	0.0169743
875.450	0.0168596
875.529	0.0169949
875.607	0.0170029
875.685	0.0168712
875.763	0.0170184
875.841	0.0170159
875.919	0.0169785
875.997	0.0168015
876.075	0.0169255
876.154	0.0169778
876.232	0.0169448
876.310	0.0169379
876.388	0.0169815
876.466	0.0169426
876.544	0.0169920
876.622	0.0171046
876.700	0.0169474
876.779	0.0169254
876.857	0.0170014
876.935	0.0169438
877.013	0.0168633
877.091	0.0168491
877.169	0.0168498
877.247	0.0168979
877.325	0.0168343
877.404	0.0168037
877.482	0.0167139
877.560	0.0167513
877.638	0.0168186
877.716	0.0165864
877.794	0.0167831
877.872	0.0168282
877.950	0.0168130
878.029	0.0166611
878.107	0.0168469
878.185	0.0167123
878.263	0.0167172
878.341	0.0168002
878.419	0.0167242
878.497	0.0166323
878.575	0.0167702
878.654	0.0166880
878.732	0.0167775
878.810	0.0165929
878.888	0.0166691
878.966	0.0166479
879.044	0.0166632
879.122	0.0165195
879.200	0.0166989
879.279	0.0167407
879.357	0.0167247
879.435	0.0165379
879.513	0.0167381
879.591	0.0168063
879.669	0.0167121
879.747	0.0167636
879.825	0.0167950
879.904	0.0167038
879.982	0.0167254
880.060	0.0166501
880.138	0.0167321
880.216	0.0168228
880.294	0.0167849
880.372	0.0166031
880.450	0.0167735
880.529	0.0169011
880.607	0.0168053
880.685	0.0167996
880.763	0.0167907
880.841	0.0168795
880.919	0.0167075
880.997	0.0168514
881.075	0.0166650
881.154	0.0167245
881.232	0.0168756
881.310	0.0167888
881.388	0.0168472
881.466	0.0169223
881.544	0.0168177
881.622	0.0167999
881.700	0.0167998
881.779	0.0168040
881.857	0.0168001
881.935	0.0167747
882.013	0.0167796
882.091	0.0167002
882.169	0.0167188
882.247	0.0167811
882.325	0.0167875
882.404	0.0167230
882.482	0.0166926
882.560	0.0166530
882.638	0.0166877
882.716	0.0165706
882.794	0.0166179
882.872	0.0166991
882.950	0.0165777
883.029	0.0166688
883.107	0.0166759
883.185	0.0165884
883.263	0.0166989
883.341	0.0166625
883.419	0.0168027
883.497	0.0167049
883.575	0.0165668
883.654	0.0167336
883.732	0.0168057
883.810	0.0168462
883.888	0.0168343
883.966	0.0167713
884.044	0.0167142
884.122	0.0167819
884.200	0.0167361
884.279	0.0168909
884.357	0.0168529
884.435	0.0168176
884.513	0.0167781
884.591	0.0168176
884.669	0.0167974
884.747	0.0167846
884.825	0.0168245
884.904	0.0167199
884.982	0.0167775
885.060	0.0168727
885.138	0.0166816
885.216	0.0166940
885.294	0.0167842
885.372	0.0165429
885.450	0.0166132
885.529	0.0167090
885.607	0.0166092
885.685	0.0165815
885.763	0.0167622
885.841	0.0165559
885.919	0.0167217
885.997	0.0165960
886.075	0.0165743
886.154	0.0166871
886.232	0.0165450
886.310	0.0167414
886.388	0.0166937
886.466	0.0166080
886.544	0.0166798
886.622	0.0168007
886.700	0.0167931
886.779	0.0166627
886.857	0.0167936
886.935	0.0168093
887.013	0.0168768
887.091	0.0166890
887.169	0.0167303
887.247	0.0168046
887.325	0.0167776
887.404	0.0169083
887.482	0.0167383
887.560	0.0166817
887.638	0.0167312
887.716	0.0168134
887.794	0.0166764
887.872	0.0167014
887.950	0.0167654
888.029	0.0167163
888.107	0.0167424
888.185	0.0167035
888.263	0.0166355
888.341	0.0167145
888.419	0.0165723
888.497	0.0167389
888.575	0.0164753
888.654	0.0166931
888.732	0.0167117
888.810	0.0167021
888.888	0.0167323
888.966	0.0167211
889.044	0.0166998
889.122	0.0166553
889.200	0.0167239
889.279	0.0167601
889.357	0.0167568
889.435	0.0167495
889.513	0.0168125
889.591	0.0168085
889.669	0.0166814
889.747	0.0166878
889.825	0.0167686
889.904	0.0168380
889.982	0.0169567
890.060	0.0168279
890.138	0.0168531
890.216	0.0168231
890.294	0.0168719
890.372	0.0167553
890.450	0.0169112
890.529	0.0168244
890.607	0.0166852
890.685	0.0167480
890.763	0.0169382
890.841	0.0167257
890.919	0.0168276
890.997	0.0168381
891.075	0.0167432
891.154	0.0167339
891.232	0.0167833
891.310	0.0167905
891.388	0.0167433
891.466	0.0168597
891.544	0.0169020
891.622	0.0167616
891.700	0.0168842
891.779	0.0169605
891.857	0.0168593
891.935	0.0168482
892.013	0.0168053
892.091	0.0168610
892.169	0.0168456
892.247	0.0169687
892.325	0.0168900
892.404	0.0168487
892.482	0.0168315
892.560	0.0169474
892.638	0.0169174
892.716	0.0168261
892.794	0.0168523
892.872	0.0169300
892.950	0.0167556
893.029	0.0167815
893.107	0.0167838
893.185	0.0169267
893.263	0.0168394
893.341	0.0169390
893.419	0.0168461
893.497	0.0169915
893.575	0.0168269
893.654	0.0168151
893.732	0.0169360
893.810	0.0169761
893.888	0.0168956
893.966	0.0167748
894.044	0.0170539
894.122	0.0169221
894.200	0.0168089
894.279	0.0168289
894.357	0.0169710
894.435	0.0169367
894.513	0.0168571
894.591	0.0169966
894.669	0.0169695
894.747	0.0170192
894.825	0.0169672
894.904	0.0168950
894.982	0.0168967
895.060	0.0169888
895.138	0.0168688
895.216	0.0170329
895.294	0.0170403
895.372	0.0169397
895.450	0.0170022
895.529	0.0169746
895.607	0.0168919
895.685	0.0169124
895.763	0.0168646
895.841	0.0169481
895.919	0.0170518
895.997	0.0168525
896.075	0.0168884
896.154	0.0168751
896.232	0.0169162
896.310	0.0169547
896.388	0.0168771
896.466	0.0168784
896.544	0.0168990
896.622	0.0169407
896.700	0.0169178
896.779	0.0169771
896.857	0.0169296
896.935	0.0169204
897.013	0.0170266
897.091	0.0168983
897.169	0.0168330
897.247	0.0168553
897.325	0.0169228
897.404	0.0169250
897.482	0.0169255
897.560	0.0168168
897.638	0.0168774
897.716	0.0168996
897.794	0.0171052
897.872	0.0169219
897.950	0.0170174
898.029	0.0169467
898.107	0.0169265
898.185	0.0170016
898.263	0.0171989
898.341	0.0170607
898.419	0.0168414
898.497	0.0169268
898.575	0.0169058
898.654	0.0168524
898.732	0.0167989
898.810	0.0169567
898.888	0.0169037
898.966	0.0168553
899.044	0.0170153
899.122	0.0169121
899.200	0.0168885
899.279	0.0169965
899.357	0.0168912
899.435	0.0167106
899.513	0.0167852
899.591	0.0168608
899.669	0.0167573
899.747	0.0168747
899.825	0.0169011
899.904	0.0169869
899.982	0.0169151
900.060	0.0168602
900.138	0.0168898
900.216	0.0170091
900.294	0.0170116
900.372	0.0170582
900.450	0.0170614
900.529	0.0171191
900.607	0.0169173
900.685	0.0169246
900.763	0.0169710
900.841	0.0168887
900.919	0.0169310
900.997	0.0170310
901.075	0.0170364
901.154	0.0168260
901.232	0.0169537
901.310	0.0170457
901.388	0.0169320
901.466	0.0168195
901.544	0.0168661
901.622	0.0169276
901.700	0.0168400
901.779	0.0167804
901.857	0.0168299
901.935	0.0168980
902.013	0.0169164
902.091	0.0169244
902.169	0.0168640
902.247	0.0167739
902.325	0.0168824
902.404	0.0167732
902.482	0.0168542
902.560	0.0168644
902.638	0.0168101
902.716	0.0167989
902.794	0.0169124
902.872	0.0167974
902.950	0.0167086
903.029	0.0166082
903.107	0.0167831
903.185	0.0167528
903.263	0.0168262
903.341	0.0167466
903.419	0.0167036
903.497	0.0168310
903.575	0.0167956
903.654	0.0167657
903.732	0.0168301
903.810	0.0167168
903.888	0.0169608
903.966	0.0168804
904.044	0.0167278
904.122	0.0168265
904.200	0.0166938
904.279	0.0168513
904.357	0.0166657
904.435	0.0168545
904.513	0.0167676
904.591	0.0166928
904.669	0.0167507
904.747	0.0167350
904.825	0.0167953
904.904	0.0168835
904.982	0.0168006
905.060	0.0166279
905.138	0.0167765
905.216	0.0166995
905.294	0.0167737
905.372	0.0168450
905.450	0.0168813
905.529	0.0167656
905.607	0.0168534
905.685	0.0166946
905.763	0.0168029
905.841	0.0168761
905.919	0.0168839
905.997	0.0167645
906.075	0.0167004
906.154	0.0169361
906.232	0.0167659
906.310	0.0167310
906.388	0.0168681
906.466	0.0169446
906.544	0.0167809
906.622	0.0166686
906.700	0.0166289
906.779	0.0168250
906.857	0.0167607
906.935	0.0166360
907.013	0.0167693
907.091	0.0167861
907.169	0.0166758
907.247	0.0167107
907.325	0.0166672
907.404	0.0165591
907.482	0.0166566
907.560	0.0166460
907.638	0.0167168
907.716	0.0165681
907.794	0.0166470
907.872	0.0166454
907.950	0.0166267
908.029	0.0166851
908.107	0.0167025
908.185	0.0166982
908.263	0.0166718
908.341	0.0165857
908.419	0.0166447
908.497	0.0165994
908.575	0.0166475
908.654	0.0166338
908.732	0.0166396
908.810	0.0166207
908.888	0.0165958
908.966	0.0166879
909.044	0.0166058
909.122	0.0164621
909.200	0.0167993
909.279	0.0166651
909.357	0.0167434
909.435	0.0167737
909.513	0.0167255
909.591	0.0167439
909.669	0.0166589
909.747	0.0166827
909.825	0.0165920
909.904	0.0167373
909.982	0.0167398
910.060	0.0168434
910.138	0.0167268
910.216	0.0164749
910.294	0.0166017
910.372	0.0167147
910.450	0.0167580
910.529	0.0166235
910.607	0.0168170
910.685	0.0165679
910.763	0.0167944
910.841	0.0167228
910.919	0.0169048
910.997	0.0168600
911.075	0.0168014
911.154	0.0168221
911.232	0.0169009
911.310	0.0168375
911.388	0.0167934
911.466	0.0167702
911.544	0.0168433
911.622	0.0168566
911.700	0.0168401
911.779	0.0167726
911.857	0.0168483
911.935	0.0166808
912.013	0.0167891
912.091	0.0168385
912.169	0.0167976
912.247	0.0167757
912.325	0.0167883
912.404	0.0168066
912.482	0.0168120
912.560	0.0168713
912.638	0.0167111
912.716	0.0168178
912.794	0.0166802
912.872	0.0166964
912.950	0.0169245
913.029	0.0168148
913.107	0.0167918
913.185	0.0169013
913.263	0.0168112
913.341	0.0169144
913.419	0.0168919
913.497	0.0168378
913.575	0.0168208
913.654	0.0168703
913.732	0.0168344
913.810	0.0168324
913.888	0.0168312
913.966	0.0167110
914.044	0.0167939
914.122	0.0168839
914.200	0.0169339
914.279	0.0167883
914.357	0.0168434
914.435	0.0168433
914.513	0.0169273
914.591	0.0168747
914.669	0.0168747
914.747	0.0168218
914.825	0.0168373
914.904	0.0168711
914.982	0.0169218
915.060	0.0168839
915.138	0.0168322
915.216	0.0168261
915.294	0.0167638
915.372	0.0167296
915.450	0.0168043
915.529	0.0168362
915.607	0.0169263
915.685	0.0168784
915.763	0.0168186
915.841	0.0167522
915.919	0.0168081
915.997	0.0169035
916.075	0.0167152
916.154	0.0166822
916.232	0.0168549
916.310	0.0168611
916.388	0.0167909
916.466	0.0168175
916.544	0.0168581
916.622	0.0169136
916.700	0.0169070
916.779	0.0168821
916.857	0.0167306
916.935	0.0169028
917.013	0.0169326
917.091	0.0168095
917.169	0.0168539
917.247	0.0168180
917.325	0.0168279
917.404	0.0168552
917.482	0.0169660
917.560	0.0169943
917.638	0.0168380
917.716	0.0170847
917.794	0.0169431
917.872	0.0169062
917.950	0.0170679
918.029	0.0170535
918.107	0.0169035
918.185	0.0168869
918.263	0.0168575
918.341	0.0170816
918.419	0.0168633
918.497	0.0168629
918.575	0.0168784
918.654	0.0168594
918.732	0.0170750
918.810	0.0168839
918.888	0.0168472
918.966	0.0170557
919.044	0.0170641
919.122	0.0170392
919.200	0.0170760
919.279	0.0170752
919.357	0.0170332
919.435	0.0170920
919.513	0.0169911
919.591	0.0170325
919.669	0.0171179
919.747	0.0170500
919.825	0.0169888
919.904	0.0170942
