06/03/2022	14:47:19	Ver.	4.1	UNKNOWN
Optical Delay	550.020508	Delta X		0.078125	Sweeps	1	Scan Rate	0/0
Coordinates	Axis 1	NaN	Axis 2	NaN	Axis 3	NaN	Axis 4	NaN	Axis 5	NaN	Axis 6	0.000000
TX Power	0.000000	RX Power	0.000000

550.021	0.0166634
550.099	0.0167992
550.177	0.0168999
550.255	0.0169864
550.333	0.0167685
550.411	0.0167818
550.489	0.0168082
550.567	0.0168027
550.646	0.0167833
550.724	0.0169353
550.802	0.0168765
550.880	0.0168083
550.958	0.0167268
551.036	0.0168777
551.114	0.0168649
551.192	0.0168127
551.271	0.0167287
551.349	0.0167496
551.427	0.0167739
551.505	0.0168178
551.583	0.0167402
551.661	0.0167138
551.739	0.0168634
551.817	0.0169884
551.896	0.0167081
551.974	0.0168528
552.052	0.0166235
552.130	0.0167094
552.208	0.0167268
552.286	0.0167832
552.364	0.0165691
552.442	0.0166400
552.521	0.0167309
552.599	0.0166665
552.677	0.0167348
552.755	0.0166383
552.833	0.0166903
552.911	0.0166204
552.989	0.0166547
553.067	0.0165360
553.146	0.0165784
553.224	0.0164568
553.302	0.0164367
553.380	0.0165306
553.458	0.0166540
553.536	0.0165536
553.614	0.0166026
553.692	0.0164632
553.771	0.0165694
553.849	0.0164233
553.927	0.0165073
554.005	0.0165005
554.083	0.0166063
554.161	0.0165430
554.239	0.0165505
554.317	0.0164362
554.396	0.0164048
554.474	0.0166272
554.552	0.0166000
554.630	0.0165060
554.708	0.0163230
554.786	0.0164955
554.864	0.0166351
554.942	0.0166874
555.021	0.0165202
555.099	0.0165737
555.177	0.0165749
555.255	0.0166384
555.333	0.0165047
555.411	0.0165611
555.489	0.0164846
555.567	0.0166222
555.646	0.0165601
555.724	0.0164888
555.802	0.0164954
555.880	0.0165547
555.958	0.0166159
556.036	0.0164706
556.114	0.0166129
556.192	0.0164828
556.271	0.0165817
556.349	0.0165424
556.427	0.0166192
556.505	0.0166361
556.583	0.0165788
556.661	0.0166416
556.739	0.0165276
556.817	0.0166598
556.896	0.0164928
556.974	0.0164203
557.052	0.0165595
557.130	0.0166473
557.208	0.0164983
557.286	0.0164252
557.364	0.0167101
557.442	0.0164606
557.521	0.0164747
557.599	0.0163950
557.677	0.0165211
557.755	0.0164893
557.833	0.0163319
557.911	0.0163554
557.989	0.0164936
558.067	0.0166319
558.146	0.0164279
558.224	0.0163126
558.302	0.0164004
558.380	0.0163844
558.458	0.0164039
558.536	0.0164088
558.614	0.0164682
558.692	0.0163783
558.771	0.0163873
558.849	0.0165237
558.927	0.0163296
559.005	0.0164485
559.083	0.0164805
559.161	0.0163717
559.239	0.0162968
559.317	0.0163820
559.396	0.0164222
559.474	0.0163409
559.552	0.0164655
559.630	0.0163754
559.708	0.0164267
559.786	0.0164417
559.864	0.0162299
559.942	0.0162372
560.021	0.0163904
560.099	0.0163609
560.177	0.0162093
560.255	0.0162285
560.333	0.0163627
560.411	0.0164328
560.489	0.0164153
560.567	0.0163200
560.646	0.0163816
560.724	0.0163196
560.802	0.0162947
560.880	0.0163969
560.958	0.0162983
561.036	0.0163503
561.114	0.0163297
561.192	0.0162646
561.271	0.0162732
561.349	0.0164198
561.427	0.0164322
561.505	0.0164671
561.583	0.0164165
561.661	0.0162640
561.739	0.0163354
561.817	0.0163757
561.896	0.0164455
561.974	0.0162689
562.052	0.0162644
562.130	0.0163281
562.208	0.0162425
562.286	0.0165172
562.364	0.0164204
562.442	0.0164200
562.521	0.0165213
562.599	0.0165077
562.677	0.0162816
562.755	0.0163976
562.833	0.0164245
562.911	0.0164676
562.989	0.0165063
563.067	0.0164152
563.146	0.0163692
563.224	0.0164806
563.302	0.0165212
563.380	0.0164186
563.458	0.0162750
563.536	0.0164960
563.614	0.0163580
563.692	0.0164378
563.771	0.0164577
563.849	0.0163168
563.927	0.0164007
564.005	0.0164342
564.083	0.0165731
564.161	0.0165342
564.239	0.0164896
564.317	0.0164253
564.396	0.0164914
564.474	0.0166877
564.552	0.0165353
564.630	0.0165381
564.708	0.0164038
564.786	0.0164999
564.864	0.0164386
564.942	0.0166015
565.021	0.0165629
565.099	0.0165874
565.177	0.0164554
565.255	0.0165725
565.333	0.0166186
565.411	0.0165585
565.489	0.0163586
565.567	0.0164887
565.646	0.0164268
565.724	0.0165101
565.802	0.0164979
565.880	0.0165915
565.958	0.0164506
566.036	0.0163411
566.114	0.0164848
566.192	0.0165531
566.271	0.0163779
566.349	0.0164214
566.427	0.0165112
566.505	0.0164110
566.583	0.0165567
566.661	0.0164005
566.739	0.0164511
566.817	0.0163033
566.896	0.0163808
566.974	0.0163603
567.052	0.0163203
567.130	0.0163845
567.208	0.0163060
567.286	0.0164067
567.364	0.0164014
567.442	0.0163988
567.521	0.0163160
567.599	0.0163982
567.677	0.0164315
567.755	0.0165121
567.833	0.0163790
567.911	0.0163199
567.989	0.0164243
568.067	0.0163177
568.146	0.0163667
568.224	0.0162980
568.302	0.0163915
568.380	0.0163446
568.458	0.0163530
568.536	0.0163524
568.614	0.0162417
568.692	0.0163129
568.771	0.0163761
568.849	0.0163525
568.927	0.0163653
569.005	0.0163463
569.083	0.0162768
569.161	0.0164916
569.239	0.0161997
569.317	0.0161831
569.396	0.0164007
569.474	0.0162959
569.552	0.0163383
569.630	0.0163752
569.708	0.0162542
569.786	0.0164234
569.864	0.0164211
569.942	0.0163972
570.021	0.0163899
570.099	0.0163093
570.177	0.0161972
570.255	0.0164065
570.333	0.0165254
570.411	0.0165279
570.489	0.0164348
570.567	0.0163385
570.646	0.0163435
570.724	0.0163924
570.802	0.0163850
570.880	0.0163732
570.958	0.0163572
571.036	0.0164352
571.114	0.0162952
571.192	0.0163434
571.271	0.0163012
571.349	0.0163216
571.427	0.0164225
571.505	0.0162386
571.583	0.0164300
571.661	0.0165336
571.739	0.0162790
571.817	0.0163446
571.896	0.0164642
571.974	0.0163349
572.052	0.0164079
572.130	0.0164531
572.208	0.0164287
572.286	0.0164609
572.364	0.0164995
572.442	0.0165043
572.521	0.0164154
572.599	0.0165530
572.677	0.0163515
572.755	0.0164082
572.833	0.0164442
572.911	0.0163984
572.989	0.0163297
573.067	0.0165084
573.146	0.0165214
573.224	0.0164582
573.302	0.0165299
573.380	0.0164708
573.458	0.0163593
573.536	0.0166164
573.614	0.0165774
573.692	0.0164543
573.771	0.0164240
573.849	0.0165765
573.927	0.0164332
574.005	0.0164639
574.083	0.0165152
574.161	0.0164686
574.239	0.0163874
574.317	0.0166251
574.396	0.0164588
574.474	0.0164561
574.552	0.0165688
574.630	0.0164922
574.708	0.0164397
574.786	0.0163139
574.864	0.0164266
574.942	0.0164795
575.021	0.0164881
575.099	0.0165624
575.177	0.0164110
575.255	0.0165622
575.333	0.0163814
575.411	0.0163995
575.489	0.0164249
575.567	0.0163761
575.646	0.0164889
575.724	0.0164284
575.802	0.0163567
575.880	0.0162727
575.958	0.0162968
576.036	0.0162936
576.114	0.0162918
576.192	0.0164785
576.271	0.0163643
576.349	0.0163140
576.427	0.0164327
576.505	0.0164671
576.583	0.0165050
576.661	0.0162144
576.739	0.0163484
576.817	0.0164798
576.896	0.0163545
576.974	0.0163947
577.052	0.0164741
577.130	0.0164066
577.208	0.0164837
577.286	0.0164021
577.364	0.0164483
577.442	0.0164417
577.521	0.0164252
577.599	0.0164756
577.677	0.0163501
577.755	0.0163467
577.833	0.0164874
577.911	0.0165657
577.989	0.0164730
578.067	0.0163593
578.146	0.0164243
578.224	0.0165859
578.302	0.0165847
578.380	0.0166054
578.458	0.0164828
578.536	0.0163810
578.614	0.0164137
578.692	0.0165886
578.771	0.0165057
578.849	0.0166540
578.927	0.0164423
579.005	0.0165882
579.083	0.0165926
579.161	0.0166032
579.239	0.0164377
579.317	0.0166309
579.396	0.0165313
579.474	0.0165646
579.552	0.0166993
579.630	0.0166532
579.708	0.0165673
579.786	0.0165667
579.864	0.0165258
579.942	0.0167441
580.021	0.0166489
580.099	0.0166149
580.177	0.0166021
580.255	0.0165520
580.333	0.0164910
580.411	0.0165156
580.489	0.0165554
580.567	0.0165388
580.646	0.0165772
580.724	0.0165645
580.802	0.0165086
580.880	0.0165201
580.958	0.0165389
581.036	0.0165466
581.114	0.0164342
581.192	0.0166398
581.271	0.0164209
581.349	0.0164084
581.427	0.0165132
581.505	0.0165134
581.583	0.0166898
581.661	0.0164693
581.739	0.0164400
581.817	0.0165289
581.896	0.0165253
581.974	0.0164754
582.052	0.0165421
582.130	0.0164745
582.208	0.0164825
582.286	0.0165696
582.364	0.0164192
582.442	0.0164972
582.521	0.0164048
582.599	0.0164978
582.677	0.0165044
582.755	0.0164421
582.833	0.0165350
582.911	0.0165678
582.989	0.0164165
583.067	0.0164581
583.146	0.0165134
583.224	0.0164331
583.302	0.0164008
583.380	0.0164465
583.458	0.0165562
583.536	0.0164195
583.614	0.0164718
583.692	0.0164420
583.771	0.0163847
583.849	0.0165627
583.927	0.0164326
584.005	0.0165011
584.083	0.0164063
584.161	0.0164830
584.239	0.0165142
584.317	0.0164342
584.396	0.0162919
584.474	0.0165442
584.552	0.0165231
584.630	0.0163063
584.708	0.0164091
584.786	0.0163949
584.864	0.0163847
584.942	0.0162712
585.021	0.0164391
585.099	0.0163872
585.177	0.0163598
585.255	0.0163461
585.333	0.0164072
585.411	0.0165509
585.489	0.0162390
585.567	0.0164325
585.646	0.0165401
585.724	0.0165285
585.802	0.0164825
585.880	0.0163434
585.958	0.0163402
586.036	0.0164152
586.114	0.0163615
586.192	0.0164818
586.271	0.0163960
586.349	0.0164225
586.427	0.0165327
586.505	0.0165002
586.583	0.0164507
586.661	0.0165452
586.739	0.0164112
586.817	0.0164031
586.896	0.0163016
586.974	0.0164371
587.052	0.0164618
587.130	0.0163994
587.208	0.0162098
587.286	0.0163498
587.364	0.0163192
587.442	0.0160923
587.521	0.0161518
587.599	0.0163865
587.677	0.0163586
587.755	0.0162582
587.833	0.0161737
587.911	0.0162344
587.989	0.0164273
588.067	0.0162186
588.146	0.0164082
588.224	0.0163267
588.302	0.0162609
588.380	0.0162687
588.458	0.0163236
588.536	0.0163332
588.614	0.0163667
588.692	0.0165525
588.771	0.0163158
588.849	0.0163214
588.927	0.0163145
589.005	0.0164899
589.083	0.0164759
589.161	0.0164418
589.239	0.0163611
589.317	0.0164328
589.396	0.0164439
589.474	0.0164640
589.552	0.0164392
589.630	0.0163079
589.708	0.0163669
589.786	0.0164082
589.864	0.0162756
589.942	0.0164506
590.021	0.0164288
590.099	0.0164281
590.177	0.0163563
590.255	0.0164481
590.333	0.0165207
590.411	0.0166226
590.489	0.0163998
590.567	0.0164661
590.646	0.0165189
590.724	0.0163807
590.802	0.0164677
590.880	0.0165236
590.958	0.0163287
591.036	0.0163397
591.114	0.0164188
591.192	0.0163924
591.271	0.0163213
591.349	0.0162413
591.427	0.0163553
591.505	0.0163167
591.583	0.0161823
591.661	0.0163330
591.739	0.0163882
591.817	0.0162173
591.896	0.0162228
591.974	0.0162630
592.052	0.0162636
592.130	0.0160923
592.208	0.0161706
592.286	0.0162185
592.364	0.0163585
592.442	0.0162442
592.521	0.0162535
592.599	0.0161955
592.677	0.0163267
592.755	0.0163863
592.833	0.0162722
592.911	0.0162657
592.989	0.0162717
593.067	0.0162626
593.146	0.0161259
593.224	0.0162360
593.302	0.0163403
593.380	0.0162016
593.458	0.0164504
593.536	0.0162936
593.614	0.0162408
593.692	0.0162852
593.771	0.0163909
593.849	0.0161780
593.927	0.0163754
594.005	0.0162840
594.083	0.0162170
594.161	0.0162937
594.239	0.0162325
594.317	0.0163470
594.396	0.0164127
594.474	0.0162926
594.552	0.0163055
594.630	0.0163415
594.708	0.0163092
594.786	0.0163631
594.864	0.0161620
594.942	0.0163568
595.021	0.0163176
595.099	0.0162949
595.177	0.0163480
595.255	0.0164039
595.333	0.0162920
595.411	0.0164581
595.489	0.0163475
595.567	0.0164050
595.646	0.0162901
595.724	0.0165812
595.802	0.0164284
595.880	0.0163073
595.958	0.0165250
596.036	0.0164832
596.114	0.0163050
596.192	0.0164055
596.271	0.0164529
596.349	0.0163136
596.427	0.0163502
596.505	0.0163754
596.583	0.0164068
596.661	0.0164059
596.739	0.0164648
596.817	0.0164636
596.896	0.0163260
596.974	0.0163388
597.052	0.0163636
597.130	0.0163441
597.208	0.0163808
597.286	0.0163391
597.364	0.0162845
597.442	0.0162029
597.521	0.0163314
597.599	0.0164612
597.677	0.0163982
597.755	0.0164777
597.833	0.0162204
597.911	0.0163821
597.989	0.0162875
598.067	0.0161800
598.146	0.0163818
598.224	0.0163493
598.302	0.0163235
598.380	0.0163395
598.458	0.0162555
598.536	0.0163861
598.614	0.0164210
598.692	0.0162872
598.771	0.0162711
598.849	0.0164445
598.927	0.0163744
599.005	0.0162272
599.083	0.0164529
599.161	0.0164436
599.239	0.0163921
599.317	0.0163959
599.396	0.0163320
599.474	0.0164042
599.552	0.0164445
599.630	0.0163507
599.708	0.0163776
599.786	0.0164297
599.864	0.0163350
599.942	0.0164818
600.021	0.0165134
600.099	0.0163878
600.177	0.0164976
600.255	0.0163223
600.333	0.0162636
600.411	0.0164961
600.489	0.0163136
600.567	0.0163334
600.646	0.0164890
600.724	0.0163618
600.802	0.0163994
600.880	0.0164470
600.958	0.0163067
601.036	0.0163582
601.114	0.0164067
601.192	0.0164859
601.271	0.0164854
601.349	0.0165424
601.427	0.0165372
601.505	0.0164758
601.583	0.0165063
601.661	0.0164357
601.739	0.0165072
601.817	0.0164336
601.896	0.0165263
601.974	0.0165399
602.052	0.0165147
602.130	0.0165231
602.208	0.0165914
602.286	0.0165644
602.364	0.0166071
602.442	0.0165980
602.521	0.0165262
602.599	0.0165071
602.677	0.0165010
602.755	0.0163508
602.833	0.0165034
602.911	0.0164890
602.989	0.0166017
603.067	0.0164767
603.146	0.0164872
603.224	0.0164725
603.302	0.0163926
603.380	0.0164775
603.458	0.0165402
603.536	0.0165397
603.614	0.0164859
603.692	0.0164885
603.771	0.0164220
603.849	0.0166089
603.927	0.0165462
604.005	0.0164362
604.083	0.0164017
604.161	0.0163843
604.239	0.0165870
604.317	0.0166562
604.396	0.0165632
604.474	0.0163882
604.552	0.0164984
604.630	0.0165531
604.708	0.0164233
604.786	0.0165497
604.864	0.0164446
604.942	0.0166143
605.021	0.0165130
605.099	0.0165014
605.177	0.0164158
605.255	0.0166282
605.333	0.0166628
605.411	0.0166628
605.489	0.0164023
605.567	0.0164388
605.646	0.0164725
605.724	0.0166409
605.802	0.0165454
605.880	0.0164927
605.958	0.0164718
606.036	0.0165887
606.114	0.0165119
606.192	0.0165836
606.271	0.0166595
606.349	0.0165391
606.427	0.0166483
606.505	0.0166450
606.583	0.0166737
606.661	0.0165808
606.739	0.0166639
606.817	0.0166687
606.896	0.0165741
606.974	0.0164762
607.052	0.0166073
607.130	0.0166454
607.208	0.0165313
607.286	0.0165054
607.364	0.0167177
607.442	0.0166132
607.521	0.0167297
607.599	0.0166940
607.677	0.0164986
607.755	0.0166265
607.833	0.0165952
607.911	0.0165474
607.989	0.0166170
608.067	0.0165549
608.146	0.0166448
608.224	0.0166280
608.302	0.0166778
608.380	0.0166846
608.458	0.0166035
608.536	0.0165771
608.614	0.0166647
608.692	0.0165968
608.771	0.0166197
608.849	0.0166229
608.927	0.0166129
609.005	0.0165503
609.083	0.0165347
609.161	0.0166895
609.239	0.0166649
609.317	0.0167187
609.396	0.0165961
609.474	0.0166335
609.552	0.0166747
609.630	0.0166115
609.708	0.0165726
609.786	0.0165083
609.864	0.0165717
609.942	0.0166257
610.021	0.0166400
610.099	0.0165517
610.177	0.0164443
610.255	0.0167217
610.333	0.0166452
610.411	0.0165125
610.489	0.0165344
610.567	0.0165086
610.646	0.0165780
610.724	0.0165038
610.802	0.0165099
610.880	0.0165689
610.958	0.0165115
611.036	0.0165154
611.114	0.0165952
611.192	0.0165023
611.271	0.0165546
611.349	0.0164217
611.427	0.0164757
611.505	0.0166270
611.583	0.0165577
611.661	0.0164641
611.739	0.0165589
611.817	0.0164703
611.896	0.0163736
611.974	0.0164880
612.052	0.0166133
612.130	0.0165041
612.208	0.0165578
612.286	0.0165319
612.364	0.0164764
612.442	0.0166121
612.521	0.0165102
612.599	0.0165657
612.677	0.0164853
612.755	0.0165080
612.833	0.0164561
612.911	0.0165976
612.989	0.0163773
613.067	0.0163831
613.146	0.0165282
613.224	0.0164056
613.302	0.0163273
613.380	0.0164710
613.458	0.0165544
613.536	0.0165885
613.614	0.0164980
613.692	0.0165072
613.771	0.0163560
613.849	0.0166142
613.927	0.0165170
614.005	0.0164336
614.083	0.0165499
614.161	0.0166274
614.239	0.0164906
614.317	0.0164610
614.396	0.0165399
614.474	0.0165386
614.552	0.0164729
614.630	0.0164411
614.708	0.0164794
614.786	0.0163860
614.864	0.0165467
614.942	0.0165083
615.021	0.0164733
615.099	0.0164008
615.177	0.0165341
615.255	0.0164265
615.333	0.0163789
615.411	0.0162934
615.489	0.0164060
615.567	0.0164635
615.646	0.0163708
615.724	0.0164692
615.802	0.0163948
615.880	0.0163699
615.958	0.0164259
616.036	0.0164066
616.114	0.0162868
616.192	0.0163618
616.271	0.0164943
616.349	0.0163868
616.427	0.0163431
616.505	0.0163277
616.583	0.0164124
616.661	0.0164221
616.739	0.0164378
616.817	0.0165732
616.896	0.0163825
616.974	0.0164733
617.052	0.0163309
617.130	0.0163487
617.208	0.0163681
617.286	0.0164175
617.364	0.0164815
617.442	0.0164526
617.521	0.0163220
617.599	0.0164516
617.677	0.0164188
617.755	0.0165076
617.833	0.0165253
617.911	0.0165302
617.989	0.0163201
618.067	0.0165025
618.146	0.0164397
618.224	0.0164601
618.302	0.0164228
618.380	0.0163793
618.458	0.0163598
618.536	0.0163769
618.614	0.0164635
618.692	0.0165012
618.771	0.0163987
618.849	0.0163210
618.927	0.0163374
619.005	0.0164677
619.083	0.0165495
619.161	0.0163246
619.239	0.0163068
619.317	0.0164437
619.396	0.0163689
619.474	0.0163914
619.552	0.0163356
619.630	0.0166044
619.708	0.0162856
619.786	0.0164004
619.864	0.0165844
619.942	0.0163448
620.021	0.0163425
620.099	0.0163960
620.177	0.0164653
620.255	0.0163408
620.333	0.0165429
620.411	0.0163432
620.489	0.0165692
620.567	0.0164294
620.646	0.0164300
620.724	0.0164405
620.802	0.0165068
620.880	0.0163512
620.958	0.0163931
621.036	0.0164426
621.114	0.0164777
621.192	0.0165150
621.271	0.0163963
621.349	0.0165484
621.427	0.0164155
621.505	0.0163792
621.583	0.0164936
621.661	0.0164500
621.739	0.0164476
621.817	0.0165214
621.896	0.0164725
621.974	0.0164867
622.052	0.0165883
622.130	0.0164702
622.208	0.0164635
622.286	0.0164159
622.364	0.0165396
622.442	0.0165677
622.521	0.0165144
622.599	0.0165828
622.677	0.0166335
622.755	0.0165688
622.833	0.0164204
622.911	0.0164226
622.989	0.0164537
623.067	0.0164353
623.146	0.0163797
623.224	0.0164734
623.302	0.0165086
623.380	0.0164417
623.458	0.0165336
623.536	0.0165555
623.614	0.0164825
623.692	0.0164442
623.771	0.0164474
623.849	0.0165546
623.927	0.0166318
624.005	0.0166055
624.083	0.0165166
624.161	0.0164165
624.239	0.0165199
624.317	0.0166015
624.396	0.0165561
624.474	0.0165881
624.552	0.0165953
624.630	0.0164978
624.708	0.0164666
624.786	0.0165520
624.864	0.0166477
624.942	0.0165882
625.021	0.0164729
625.099	0.0167045
625.177	0.0165921
625.255	0.0167654
625.333	0.0168446
625.411	0.0165235
625.489	0.0166154
625.567	0.0165831
625.646	0.0165803
625.724	0.0165620
625.802	0.0166593
625.880	0.0166407
625.958	0.0167175
626.036	0.0166101
626.114	0.0165743
626.192	0.0165317
626.271	0.0166235
626.349	0.0167058
626.427	0.0165427
626.505	0.0165671
626.583	0.0166326
626.661	0.0164793
626.739	0.0165789
626.817	0.0165422
626.896	0.0164863
626.974	0.0164928
627.052	0.0165513
627.130	0.0165982
627.208	0.0165495
627.286	0.0166048
627.364	0.0164668
627.442	0.0163702
627.521	0.0165105
627.599	0.0164666
627.677	0.0162976
627.755	0.0164694
627.833	0.0166456
627.911	0.0165638
627.989	0.0165979
628.067	0.0165656
628.146	0.0166517
628.224	0.0164846
628.302	0.0165112
628.380	0.0166043
628.458	0.0165584
628.536	0.0165989
628.614	0.0163595
628.692	0.0164929
628.771	0.0166708
628.849	0.0166675
628.927	0.0164613
629.005	0.0166002
629.083	0.0166325
629.161	0.0166328
629.239	0.0164815
629.317	0.0165459
629.396	0.0165609
629.474	0.0165141
629.552	0.0165441
629.630	0.0165256
629.708	0.0165568
629.786	0.0166560
629.864	0.0164913
629.942	0.0165154
630.021	0.0165582
630.099	0.0165364
630.177	0.0165853
630.255	0.0165427
630.333	0.0165989
630.411	0.0166366
630.489	0.0165381
630.567	0.0166930
630.646	0.0166619
630.724	0.0165901
630.802	0.0165337
630.880	0.0167034
630.958	0.0166732
631.036	0.0166653
631.114	0.0166594
631.192	0.0166583
631.271	0.0166264
631.349	0.0167188
631.427	0.0167796
631.505	0.0166708
631.583	0.0166366
631.661	0.0167173
631.739	0.0167661
631.817	0.0166723
631.896	0.0166821
631.974	0.0165961
632.052	0.0167262
632.130	0.0166332
632.208	0.0165498
632.286	0.0166007
632.364	0.0167007
632.442	0.0167503
632.521	0.0166560
632.599	0.0166327
632.677	0.0166763
632.755	0.0165465
632.833	0.0168250
632.911	0.0165942
632.989	0.0165562
633.067	0.0165078
633.146	0.0166156
633.224	0.0165898
633.302	0.0164620
633.380	0.0165107
633.458	0.0165790
633.536	0.0165939
633.614	0.0167071
633.692	0.0164991
633.771	0.0165041
633.849	0.0165998
633.927	0.0165304
634.005	0.0166717
634.083	0.0167128
634.161	0.0164462
634.239	0.0165767
634.317	0.0166640
634.396	0.0168366
634.474	0.0166513
634.552	0.0165881
634.630	0.0165773
634.708	0.0166994
634.786	0.0166243
634.864	0.0165311
634.942	0.0165508
635.021	0.0166309
635.099	0.0164770
635.177	0.0164746
635.255	0.0164002
635.333	0.0166556
635.411	0.0166249
635.489	0.0166020
635.567	0.0165517
635.646	0.0166412
635.724	0.0167020
635.802	0.0164632
635.880	0.0164456
635.958	0.0166048
636.036	0.0165130
636.114	0.0166022
636.192	0.0165546
636.271	0.0164397
636.349	0.0164747
636.427	0.0164875
636.505	0.0165773
636.583	0.0164501
636.661	0.0165895
636.739	0.0164089
636.817	0.0164285
636.896	0.0165376
636.974	0.0162920
637.052	0.0165280
637.130	0.0163493
637.208	0.0164011
637.286	0.0162377
637.364	0.0162644
637.442	0.0162996
637.521	0.0163670
637.599	0.0164169
637.677	0.0162741
637.755	0.0162635
637.833	0.0162363
637.911	0.0162368
637.989	0.0163460
638.067	0.0163071
638.146	0.0163837
638.224	0.0162884
638.302	0.0161703
638.380	0.0163171
638.458	0.0162795
638.536	0.0163021
638.614	0.0162953
638.692	0.0163830
638.771	0.0162366
638.849	0.0162749
638.927	0.0162237
639.005	0.0162389
639.083	0.0161905
639.161	0.0162581
639.239	0.0162531
639.317	0.0162344
639.396	0.0162638
639.474	0.0163326
639.552	0.0162849
639.630	0.0163097
639.708	0.0163992
639.786	0.0162830
639.864	0.0162209
639.942	0.0163844
640.021	0.0163696
640.099	0.0164036
640.177	0.0163118
640.255	0.0163759
640.333	0.0164505
640.411	0.0163763
640.489	0.0163969
640.567	0.0164701
640.646	0.0163885
640.724	0.0164948
640.802	0.0164595
640.880	0.0164053
640.958	0.0163832
641.036	0.0163528
641.114	0.0164346
641.192	0.0164456
641.271	0.0162732
641.349	0.0163401
641.427	0.0164969
641.505	0.0163384
641.583	0.0162920
641.661	0.0164880
641.739	0.0163456
641.817	0.0164904
641.896	0.0166094
641.974	0.0165002
642.052	0.0167411
642.130	0.0165643
642.208	0.0165591
642.286	0.0165566
642.364	0.0165798
642.442	0.0166281
642.521	0.0164990
642.599	0.0165562
642.677	0.0165762
642.755	0.0166526
642.833	0.0165693
642.911	0.0165164
642.989	0.0166360
643.067	0.0165747
643.146	0.0164827
643.224	0.0166806
643.302	0.0167390
643.380	0.0165961
643.458	0.0166016
643.536	0.0167125
643.614	0.0165392
643.692	0.0165067
643.771	0.0166756
643.849	0.0166507
643.927	0.0165907
644.005	0.0165070
644.083	0.0167599
644.161	0.0165817
644.239	0.0164278
644.317	0.0165965
644.396	0.0165514
644.474	0.0165569
644.552	0.0165108
644.630	0.0165777
644.708	0.0167205
644.786	0.0166660
644.864	0.0165941
644.942	0.0165308
645.021	0.0166763
645.099	0.0166462
645.177	0.0165083
645.255	0.0165643
645.333	0.0164614
645.411	0.0163554
645.489	0.0165302
645.567	0.0165708
645.646	0.0165389
645.724	0.0165896
645.802	0.0165524
645.880	0.0165907
645.958	0.0164330
646.036	0.0164330
646.114	0.0165398
646.192	0.0166343
646.271	0.0166228
646.349	0.0165055
646.427	0.0165703
646.505	0.0163261
646.583	0.0165549
646.661	0.0164564
646.739	0.0164278
646.817	0.0165399
646.896	0.0164998
646.974	0.0163709
647.052	0.0164872
647.130	0.0164470
647.208	0.0164291
647.286	0.0165790
647.364	0.0165247
647.442	0.0164851
647.521	0.0164307
647.599	0.0165055
647.677	0.0163906
647.755	0.0163963
647.833	0.0164722
647.911	0.0164910
647.989	0.0164596
648.067	0.0165303
648.146	0.0164871
648.224	0.0164883
648.302	0.0164470
648.380	0.0165604
648.458	0.0164922
648.536	0.0163514
648.614	0.0164176
648.692	0.0164531
648.771	0.0165446
648.849	0.0164493
648.927	0.0164355
649.005	0.0164497
649.083	0.0163725
649.161	0.0163676
649.239	0.0164492
649.317	0.0164905
649.396	0.0164017
649.474	0.0163287
649.552	0.0163094
649.630	0.0163866
649.708	0.0164993
649.786	0.0163775
649.864	0.0163944
649.942	0.0163772
650.021	0.0164112
650.099	0.0164736
650.177	0.0164159
650.255	0.0162503
650.333	0.0164615
650.411	0.0164893
650.489	0.0163571
650.567	0.0163322
650.646	0.0164139
650.724	0.0163678
650.802	0.0163737
650.880	0.0164330
650.958	0.0164616
651.036	0.0163154
651.114	0.0162929
651.192	0.0163619
651.271	0.0164040
651.349	0.0163454
651.427	0.0163311
651.505	0.0163612
651.583	0.0161746
651.661	0.0163961
651.739	0.0161935
651.817	0.0162851
651.896	0.0163918
651.974	0.0162268
652.052	0.0160861
652.130	0.0161316
652.208	0.0162587
652.286	0.0163191
652.364	0.0162492
652.442	0.0163024
652.521	0.0161816
652.599	0.0164346
652.677	0.0163362
652.755	0.0163179
652.833	0.0162779
652.911	0.0162756
652.989	0.0164236
653.067	0.0163441
653.146	0.0163832
653.224	0.0164339
653.302	0.0162688
653.380	0.0162383
653.458	0.0164010
653.536	0.0164668
653.614	0.0163171
653.692	0.0164348
653.771	0.0163538
653.849	0.0163655
653.927	0.0162919
654.005	0.0162479
654.083	0.0163440
654.161	0.0164740
654.239	0.0163874
654.317	0.0162836
654.396	0.0163706
654.474	0.0164584
654.552	0.0164386
654.630	0.0163483
654.708	0.0162880
654.786	0.0164299
654.864	0.0164810
654.942	0.0163888
655.021	0.0164740
655.099	0.0163677
655.177	0.0164580
655.255	0.0166024
655.333	0.0165308
655.411	0.0165356
655.489	0.0165218
655.567	0.0164974
655.646	0.0165525
655.724	0.0167680
655.802	0.0166907
655.880	0.0166330
655.958	0.0166711
656.036	0.0166398
656.114	0.0168294
656.192	0.0166029
656.271	0.0166824
656.349	0.0166782
656.427	0.0167601
656.505	0.0166414
656.583	0.0165482
656.661	0.0165279
656.739	0.0168040
656.817	0.0166281
656.896	0.0164321
656.974	0.0165506
657.052	0.0165234
657.130	0.0163583
657.208	0.0164993
657.286	0.0163873
657.364	0.0165631
657.442	0.0165334
657.521	0.0163969
657.599	0.0165383
657.677	0.0165562
657.755	0.0164201
657.833	0.0166821
657.911	0.0167551
657.989	0.0165842
658.067	0.0166698
658.146	0.0166585
658.224	0.0166353
658.302	0.0165854
658.380	0.0166525
658.458	0.0165615
658.536	0.0165398
658.614	0.0166444
658.692	0.0166262
658.771	0.0165968
658.849	0.0164628
658.927	0.0164884
659.005	0.0165112
659.083	0.0165321
659.161	0.0164284
659.239	0.0164896
659.317	0.0163902
659.396	0.0163976
659.474	0.0162442
659.552	0.0162655
659.630	0.0163228
659.708	0.0163904
659.786	0.0163387
659.864	0.0163349
659.942	0.0163617
660.021	0.0164429
660.099	0.0163741
660.177	0.0164623
660.255	0.0163943
660.333	0.0162962
660.411	0.0163615
660.489	0.0163720
660.567	0.0163377
660.646	0.0164940
660.724	0.0162962
660.802	0.0163492
660.880	0.0162705
660.958	0.0163477
661.036	0.0164002
661.114	0.0161957
661.192	0.0162610
661.271	0.0162004
661.349	0.0163380
661.427	0.0161465
661.505	0.0161752
661.583	0.0162170
661.661	0.0162653
661.739	0.0163445
661.817	0.0163053
661.896	0.0162686
661.974	0.0162059
662.052	0.0163705
662.130	0.0164531
662.208	0.0162660
662.286	0.0161472
662.364	0.0162626
662.442	0.0163512
662.521	0.0164025
662.599	0.0163734
662.677	0.0162409
662.755	0.0164704
662.833	0.0162531
662.911	0.0163053
662.989	0.0162669
663.067	0.0162401
663.146	0.0162791
663.224	0.0162949
663.302	0.0164035
663.380	0.0162533
663.458	0.0163863
663.536	0.0162522
663.614	0.0163012
663.692	0.0163078
663.771	0.0162050
663.849	0.0163396
663.927	0.0161967
664.005	0.0163594
664.083	0.0163035
664.161	0.0162798
664.239	0.0163847
664.317	0.0163013
664.396	0.0163325
664.474	0.0163567
664.552	0.0163714
664.630	0.0164384
664.708	0.0164349
664.786	0.0163434
664.864	0.0163537
664.942	0.0164216
665.021	0.0163676
665.099	0.0165450
665.177	0.0163591
665.255	0.0162846
665.333	0.0164449
665.411	0.0163396
665.489	0.0164417
665.567	0.0163107
665.646	0.0163986
665.724	0.0164590
665.802	0.0164883
665.880	0.0165995
665.958	0.0164576
666.036	0.0162975
666.114	0.0164229
666.192	0.0164335
666.271	0.0164582
666.349	0.0164103
666.427	0.0164838
666.505	0.0164503
666.583	0.0165088
666.661	0.0164704
666.739	0.0165367
666.817	0.0165684
666.896	0.0164908
666.974	0.0164188
667.052	0.0164459
667.130	0.0164793
667.208	0.0164969
667.286	0.0163956
667.364	0.0164144
667.442	0.0164796
667.521	0.0164884
667.599	0.0164510
667.677	0.0164269
667.755	0.0163996
667.833	0.0164799
667.911	0.0165111
667.989	0.0164718
668.067	0.0163898
668.146	0.0164219
668.224	0.0162846
668.302	0.0163722
668.380	0.0165234
668.458	0.0162246
668.536	0.0164584
668.614	0.0163096
668.692	0.0163913
668.771	0.0163186
668.849	0.0163438
668.927	0.0163718
669.005	0.0163358
669.083	0.0164177
669.161	0.0164697
669.239	0.0164436
669.317	0.0163935
669.396	0.0164104
669.474	0.0165549
669.552	0.0164115
669.630	0.0162784
669.708	0.0164344
669.786	0.0164152
669.864	0.0163256
669.942	0.0162259
670.021	0.0162875
670.099	0.0163802
670.177	0.0163151
670.255	0.0162380
670.333	0.0163240
670.411	0.0162879
670.489	0.0161697
670.567	0.0162471
670.646	0.0163363
670.724	0.0162886
670.802	0.0162783
670.880	0.0162399
670.958	0.0164243
671.036	0.0163159
671.114	0.0164032
671.192	0.0164557
671.271	0.0164428
671.349	0.0164585
671.427	0.0164668
671.505	0.0163789
671.583	0.0164388
671.661	0.0164161
671.739	0.0164333
671.817	0.0163519
671.896	0.0164880
671.974	0.0164040
672.052	0.0164367
672.130	0.0163160
672.208	0.0164384
672.286	0.0164129
672.364	0.0163428
672.442	0.0164484
672.521	0.0164140
672.599	0.0163883
672.677	0.0163008
672.755	0.0163986
672.833	0.0163114
672.911	0.0163404
672.989	0.0164365
673.067	0.0164102
673.146	0.0163438
673.224	0.0164713
673.302	0.0164323
673.380	0.0163730
673.458	0.0163777
673.536	0.0163026
673.614	0.0163577
673.692	0.0163937
673.771	0.0163896
673.849	0.0163364
673.927	0.0165008
674.005	0.0164826
674.083	0.0163865
674.161	0.0163804
674.239	0.0162667
674.317	0.0164043
674.396	0.0162650
674.474	0.0163015
674.552	0.0163480
674.630	0.0164178
674.708	0.0163435
674.786	0.0162849
674.864	0.0165060
674.942	0.0164406
675.021	0.0163631
675.099	0.0162921
675.177	0.0163425
675.255	0.0163973
675.333	0.0164841
675.411	0.0163306
675.489	0.0163302
675.567	0.0162233
675.646	0.0164653
675.724	0.0162940
675.802	0.0162988
675.880	0.0162425
675.958	0.0163124
676.036	0.0164401
676.114	0.0162929
676.192	0.0162715
676.271	0.0162333
676.349	0.0162916
676.427	0.0163036
676.505	0.0163848
676.583	0.0162627
676.661	0.0163045
676.739	0.0162209
676.817	0.0161604
676.896	0.0160989
676.974	0.0161457
677.052	0.0163566
677.130	0.0163210
677.208	0.0161491
677.286	0.0162514
677.364	0.0163322
677.442	0.0162823
677.521	0.0162335
677.599	0.0164052
677.677	0.0163115
677.755	0.0162440
677.833	0.0164285
677.911	0.0163938
677.989	0.0164968
678.067	0.0163306
678.146	0.0164228
678.224	0.0165679
678.302	0.0164352
678.380	0.0165220
678.458	0.0165807
678.536	0.0164785
678.614	0.0165973
678.692	0.0165611
678.771	0.0165526
678.849	0.0165217
678.927	0.0166209
679.005	0.0164997
679.083	0.0167252
679.161	0.0166872
679.239	0.0166867
679.317	0.0166163
679.396	0.0164156
679.474	0.0165540
679.552	0.0165511
679.630	0.0165725
679.708	0.0165466
679.786	0.0165076
679.864	0.0166526
679.942	0.0165503
680.021	0.0165084
680.099	0.0165034
680.177	0.0165194
680.255	0.0165089
680.333	0.0163712
680.411	0.0164097
680.489	0.0165788
680.567	0.0165408
680.646	0.0165782
680.724	0.0166965
680.802	0.0165802
680.880	0.0165450
680.958	0.0167195
681.036	0.0166982
681.114	0.0166015
681.192	0.0165844
681.271	0.0166278
681.349	0.0167342
681.427	0.0167102
681.505	0.0165262
681.583	0.0166366
681.661	0.0166882
681.739	0.0165452
681.817	0.0165443
681.896	0.0165678
681.974	0.0164391
682.052	0.0164248
682.130	0.0164143
682.208	0.0164119
682.286	0.0164150
682.364	0.0161604
682.442	0.0163532
682.521	0.0162983
682.599	0.0163302
682.677	0.0163281
682.755	0.0163115
682.833	0.0162669
682.911	0.0162740
682.989	0.0162862
683.067	0.0164536
683.146	0.0163409
683.224	0.0162318
683.302	0.0162707
683.380	0.0163275
683.458	0.0164535
683.536	0.0163635
683.614	0.0164627
683.692	0.0164054
683.771	0.0163462
683.849	0.0164493
683.927	0.0164978
684.005	0.0163862
684.083	0.0164086
684.161	0.0164075
684.239	0.0165308
684.317	0.0164587
684.396	0.0165063
684.474	0.0166702
684.552	0.0165070
684.630	0.0164638
684.708	0.0166069
684.786	0.0166051
684.864	0.0163940
684.942	0.0165295
685.021	0.0166090
685.099	0.0165030
685.177	0.0164693
685.255	0.0164959
685.333	0.0164599
685.411	0.0165265
685.489	0.0165021
685.567	0.0163743
685.646	0.0164502
685.724	0.0165898
685.802	0.0165678
685.880	0.0165819
685.958	0.0166138
686.036	0.0164997
686.114	0.0164352
686.192	0.0164919
686.271	0.0167007
686.349	0.0165160
686.427	0.0164359
686.505	0.0165543
686.583	0.0165031
686.661	0.0165766
686.739	0.0165116
686.817	0.0164718
686.896	0.0165402
686.974	0.0164423
687.052	0.0165120
687.130	0.0164833
687.208	0.0165173
687.286	0.0166697
687.364	0.0166460
687.442	0.0166484
687.521	0.0166402
687.599	0.0166071
687.677	0.0167040
687.755	0.0166141
687.833	0.0166677
687.911	0.0167007
687.989	0.0165989
688.067	0.0165641
688.146	0.0165364
688.224	0.0167241
688.302	0.0166189
688.380	0.0164980
688.458	0.0166291
688.536	0.0164835
688.614	0.0164608
688.692	0.0165147
688.771	0.0165141
688.849	0.0166169
688.927	0.0164317
689.005	0.0164143
689.083	0.0165549
689.161	0.0165492
689.239	0.0166005
689.317	0.0165501
689.396	0.0165331
689.474	0.0164309
689.552	0.0166160
689.630	0.0167365
689.708	0.0165569
689.786	0.0164740
689.864	0.0166731
689.942	0.0166279
690.021	0.0165234
690.099	0.0166397
690.177	0.0165437
690.255	0.0165728
690.333	0.0166326
690.411	0.0164471
690.489	0.0165953
690.567	0.0166228
690.646	0.0164275
690.724	0.0162007
690.802	0.0163301
690.880	0.0162421
690.958	0.0164468
691.036	0.0163251
691.114	0.0162861
691.192	0.0162620
691.271	0.0163712
691.349	0.0164330
691.427	0.0164082
691.505	0.0163512
691.583	0.0163364
691.661	0.0163581
691.739	0.0163788
691.817	0.0163649
691.896	0.0163477
691.974	0.0164478
692.052	0.0165514
692.130	0.0165060
692.208	0.0164425
692.286	0.0165665
692.364	0.0163510
692.442	0.0163432
692.521	0.0164616
692.599	0.0164974
692.677	0.0163919
692.755	0.0163345
692.833	0.0163606
692.911	0.0163481
692.989	0.0163947
693.067	0.0163801
693.146	0.0162664
693.224	0.0163398
693.302	0.0162975
693.380	0.0162888
693.458	0.0162729
693.536	0.0161914
693.614	0.0162219
693.692	0.0161931
693.771	0.0162443
693.849	0.0163145
693.927	0.0163515
694.005	0.0162922
694.083	0.0163631
694.161	0.0163084
694.239	0.0162208
694.317	0.0164761
694.396	0.0162978
694.474	0.0163291
694.552	0.0163528
694.630	0.0164571
694.708	0.0164267
694.786	0.0163547
694.864	0.0163916
694.942	0.0164937
695.021	0.0165366
695.099	0.0164383
695.177	0.0166602
695.255	0.0165522
695.333	0.0165343
695.411	0.0166281
695.489	0.0164301
695.567	0.0165632
695.646	0.0164536
695.724	0.0164661
695.802	0.0165369
695.880	0.0165744
695.958	0.0166528
696.036	0.0165569
696.114	0.0163403
696.192	0.0165102
696.271	0.0165927
696.349	0.0166330
696.427	0.0165497
696.505	0.0165987
696.583	0.0164953
696.661	0.0165476
696.739	0.0165698
696.817	0.0165112
696.896	0.0165376
696.974	0.0163853
697.052	0.0164780
697.130	0.0165444
697.208	0.0164836
697.286	0.0164616
697.364	0.0165643
697.442	0.0164938
697.521	0.0163816
697.599	0.0163992
697.677	0.0163578
697.755	0.0163638
697.833	0.0163445
697.911	0.0164975
697.989	0.0164169
698.067	0.0163947
698.146	0.0162376
698.224	0.0163786
698.302	0.0164858
698.380	0.0164165
698.458	0.0163384
698.536	0.0163933
698.614	0.0162919
698.692	0.0166051
698.771	0.0165019
698.849	0.0164339
698.927	0.0164356
699.005	0.0164212
699.083	0.0163663
699.161	0.0164688
699.239	0.0163905
699.317	0.0163965
699.396	0.0164750
699.474	0.0166215
699.552	0.0164249
699.630	0.0164726
699.708	0.0165248
699.786	0.0164134
699.864	0.0164198
699.942	0.0164489
700.021	0.0164511
700.099	0.0165240
700.177	0.0166164
700.255	0.0164107
700.333	0.0166658
700.411	0.0166625
700.489	0.0166367
700.567	0.0166235
700.646	0.0166963
700.724	0.0166732
700.802	0.0165662
700.880	0.0165349
700.958	0.0166644
701.036	0.0165486
701.114	0.0165350
701.192	0.0164936
701.271	0.0167046
701.349	0.0164937
701.427	0.0165427
701.505	0.0165900
701.583	0.0166125
701.661	0.0164927
701.739	0.0166451
701.817	0.0165375
701.896	0.0165707
701.974	0.0165389
702.052	0.0165987
702.130	0.0165791
702.208	0.0164823
702.286	0.0167139
702.364	0.0165721
702.442	0.0166119
702.521	0.0167211
702.599	0.0166376
702.677	0.0166310
702.755	0.0166861
702.833	0.0165600
702.911	0.0165287
702.989	0.0166148
703.067	0.0165730
703.146	0.0166856
703.224	0.0167413
703.302	0.0166258
703.380	0.0166095
703.458	0.0164383
703.536	0.0167410
703.614	0.0166599
703.692	0.0165127
703.771	0.0166420
703.849	0.0166028
703.927	0.0166564
704.005	0.0166733
704.083	0.0163803
704.161	0.0164990
704.239	0.0166580
704.317	0.0166505
704.396	0.0165266
704.474	0.0163749
704.552	0.0164395
704.630	0.0163973
704.708	0.0163793
704.786	0.0165503
704.864	0.0165751
704.942	0.0165076
705.021	0.0164835
705.099	0.0164709
705.177	0.0165033
705.255	0.0166518
705.333	0.0167044
705.411	0.0166154
705.489	0.0164512
705.567	0.0166563
705.646	0.0165729
705.724	0.0166649
705.802	0.0166322
705.880	0.0166094
705.958	0.0165680
706.036	0.0167486
706.114	0.0167414
706.192	0.0166587
706.271	0.0166753
706.349	0.0167757
706.427	0.0166815
706.505	0.0167410
706.583	0.0168581
706.661	0.0168139
706.739	0.0166660
706.817	0.0167417
706.896	0.0167033
706.974	0.0168262
707.052	0.0168558
707.130	0.0166713
707.208	0.0166578
707.286	0.0166612
707.364	0.0166155
707.442	0.0165123
707.521	0.0166442
707.599	0.0166836
707.677	0.0164660
707.755	0.0165585
707.833	0.0164442
707.911	0.0164400
707.989	0.0163772
708.067	0.0163525
708.146	0.0164182
708.224	0.0164266
708.302	0.0164068
708.380	0.0164493
708.458	0.0164449
708.536	0.0164487
708.614	0.0163284
708.692	0.0164134
708.771	0.0166054
708.849	0.0165286
708.927	0.0165823
709.005	0.0166310
709.083	0.0166684
709.161	0.0167856
709.239	0.0166944
709.317	0.0167067
709.396	0.0168343
709.474	0.0168527
709.552	0.0168017
709.630	0.0166875
709.708	0.0167497
709.786	0.0168482
709.864	0.0166499
709.942	0.0166324
710.021	0.0166848
710.099	0.0166508
710.177	0.0166609
710.255	0.0165760
710.333	0.0165334
710.411	0.0165851
710.489	0.0165675
710.567	0.0165989
710.646	0.0165449
710.724	0.0165569
710.802	0.0165315
710.880	0.0164116
710.958	0.0165265
711.036	0.0165562
711.114	0.0166516
711.192	0.0166500
711.271	0.0165141
711.349	0.0167328
711.427	0.0165436
711.505	0.0166312
711.583	0.0167791
711.661	0.0166525
711.739	0.0167252
711.817	0.0165674
711.896	0.0165355
711.974	0.0166579
712.052	0.0166754
712.130	0.0166296
712.208	0.0166125
712.286	0.0166502
712.364	0.0164780
712.442	0.0165221
712.521	0.0165505
712.599	0.0166025
712.677	0.0164573
712.755	0.0164221
712.833	0.0166329
712.911	0.0165123
712.989	0.0165261
713.067	0.0164835
713.146	0.0165849
713.224	0.0165145
713.302	0.0166048
713.380	0.0164176
713.458	0.0165445
713.536	0.0165785
713.614	0.0165067
713.692	0.0163573
713.771	0.0164244
713.849	0.0164788
713.927	0.0164344
714.005	0.0163486
714.083	0.0163460
714.161	0.0163107
714.239	0.0163683
714.317	0.0163133
714.396	0.0164095
714.474	0.0163339
714.552	0.0161961
714.630	0.0162213
714.708	0.0161794
714.786	0.0162562
714.864	0.0163661
714.942	0.0162300
715.021	0.0162242
715.099	0.0161822
715.177	0.0162405
715.255	0.0162289
715.333	0.0161536
715.411	0.0160745
715.489	0.0163477
715.567	0.0161651
715.646	0.0162775
715.724	0.0162515
715.802	0.0163156
715.880	0.0162226
715.958	0.0162589
716.036	0.0162311
716.114	0.0162266
716.192	0.0162888
716.271	0.0162982
716.349	0.0164027
716.427	0.0163866
716.505	0.0165614
716.583	0.0163902
716.661	0.0164481
716.739	0.0163607
716.817	0.0163229
716.896	0.0162659
716.974	0.0163593
717.052	0.0165221
717.130	0.0164448
717.208	0.0163371
717.286	0.0163683
717.364	0.0165255
717.442	0.0163379
717.521	0.0164085
717.599	0.0163751
717.677	0.0164174
717.755	0.0164536
717.833	0.0163736
717.911	0.0162878
717.989	0.0163871
718.067	0.0163735
718.146	0.0162533
718.224	0.0163233
718.302	0.0163072
718.380	0.0164050
718.458	0.0163734
718.536	0.0163323
718.614	0.0164720
718.692	0.0163805
718.771	0.0163539
718.849	0.0163679
718.927	0.0162563
719.005	0.0164599
719.083	0.0166557
719.161	0.0163704
719.239	0.0165878
719.317	0.0163828
719.396	0.0164178
719.474	0.0164433
719.552	0.0163979
719.630	0.0165225
719.708	0.0164461
719.786	0.0164801
719.864	0.0165861
719.942	0.0166167
720.021	0.0165281
720.099	0.0165092
720.177	0.0164713
720.255	0.0165387
720.333	0.0166734
720.411	0.0163914
720.489	0.0164797
720.567	0.0165631
720.646	0.0164069
720.724	0.0164596
720.802	0.0165134
720.880	0.0166451
720.958	0.0166676
721.036	0.0164830
721.114	0.0164696
721.192	0.0165976
721.271	0.0165717
721.349	0.0164828
721.427	0.0165630
721.505	0.0165299
721.583	0.0166352
721.661	0.0165611
721.739	0.0164059
721.817	0.0165260
721.896	0.0165014
721.974	0.0164697
722.052	0.0165905
722.130	0.0165611
722.208	0.0165871
722.286	0.0164588
722.364	0.0165884
722.442	0.0165787
722.521	0.0164666
722.599	0.0166114
722.677	0.0166554
722.755	0.0166077
722.833	0.0165564
722.911	0.0165633
722.989	0.0164858
723.067	0.0167686
723.146	0.0166630
723.224	0.0166480
723.302	0.0166193
723.380	0.0165269
723.458	0.0164865
723.536	0.0166581
723.614	0.0165376
723.692	0.0166837
723.771	0.0166674
723.849	0.0165616
723.927	0.0166271
724.005	0.0165549
724.083	0.0165754
724.161	0.0165735
724.239	0.0166889
724.317	0.0165919
724.396	0.0166469
724.474	0.0165466
724.552	0.0165825
724.630	0.0166035
724.708	0.0166864
724.786	0.0165197
724.864	0.0165431
724.942	0.0167076
725.021	0.0166126
725.099	0.0164902
725.177	0.0166660
725.255	0.0165670
725.333	0.0164919
725.411	0.0164970
725.489	0.0163727
725.567	0.0165289
725.646	0.0164095
725.724	0.0164782
725.802	0.0166512
725.880	0.0166174
725.958	0.0163648
726.036	0.0164398
726.114	0.0164463
726.192	0.0165184
726.271	0.0164244
726.349	0.0165764
726.427	0.0164548
726.505	0.0164747
726.583	0.0164632
726.661	0.0164610
726.739	0.0164230
726.817	0.0165787
726.896	0.0164232
726.974	0.0163372
727.052	0.0164851
727.130	0.0165717
727.208	0.0165099
727.286	0.0163873
727.364	0.0164929
727.442	0.0165594
727.521	0.0164429
727.599	0.0165173
727.677	0.0164973
727.755	0.0164806
727.833	0.0164069
727.911	0.0163937
727.989	0.0165422
728.067	0.0165172
728.146	0.0165248
728.224	0.0165032
728.302	0.0165127
728.380	0.0166953
728.458	0.0166267
728.536	0.0165041
728.614	0.0164243
728.692	0.0166327
728.771	0.0165490
728.849	0.0165298
728.927	0.0165627
729.005	0.0165953
729.083	0.0166248
729.161	0.0166014
729.239	0.0165459
729.317	0.0164960
729.396	0.0164316
729.474	0.0165665
729.552	0.0166162
729.630	0.0165347
729.708	0.0165382
729.786	0.0165204
729.864	0.0164520
729.942	0.0163500
730.021	0.0166346
730.099	0.0165537
730.177	0.0165218
730.255	0.0165101
730.333	0.0165862
730.411	0.0165057
730.489	0.0165987
730.567	0.0166482
730.646	0.0165701
730.724	0.0165221
730.802	0.0167203
730.880	0.0166214
730.958	0.0165858
731.036	0.0165911
731.114	0.0165337
731.192	0.0163783
731.271	0.0163134
731.349	0.0163040
731.427	0.0164986
731.505	0.0165434
731.583	0.0163851
731.661	0.0163651
731.739	0.0163612
731.817	0.0164314
731.896	0.0165472
731.974	0.0164960
732.052	0.0164491
732.130	0.0165218
732.208	0.0164838
732.286	0.0164355
732.364	0.0165004
732.442	0.0167176
732.521	0.0165703
732.599	0.0165868
732.677	0.0166016
732.755	0.0165050
732.833	0.0165572
732.911	0.0165591
732.989	0.0165327
733.067	0.0166103
733.146	0.0164334
733.224	0.0165269
733.302	0.0166227
733.380	0.0165548
733.458	0.0165984
733.536	0.0164992
733.614	0.0165155
733.692	0.0165059
733.771	0.0165453
733.849	0.0164088
733.927	0.0166608
734.005	0.0165504
734.083	0.0164162
734.161	0.0164090
734.239	0.0165868
734.317	0.0165733
734.396	0.0163467
734.474	0.0164154
734.552	0.0165151
734.630	0.0165485
734.708	0.0165678
734.786	0.0163975
734.864	0.0163586
734.942	0.0164999
735.021	0.0164866
735.099	0.0164811
735.177	0.0164027
735.255	0.0164346
735.333	0.0165128
735.411	0.0163657
735.489	0.0163354
735.567	0.0164864
735.646	0.0164680
735.724	0.0165257
735.802	0.0163694
735.880	0.0164709
735.958	0.0164306
736.036	0.0163869
736.114	0.0164806
736.192	0.0164848
736.271	0.0162825
736.349	0.0162897
736.427	0.0163970
736.505	0.0162678
736.583	0.0162616
736.661	0.0161076
736.739	0.0161812
736.817	0.0162248
736.896	0.0161410
736.974	0.0161535
737.052	0.0161280
737.130	0.0161671
737.208	0.0160847
737.286	0.0161022
737.364	0.0161959
737.442	0.0162126
737.521	0.0162600
737.599	0.0161643
737.677	0.0162022
737.755	0.0162604
737.833	0.0161823
737.911	0.0162371
737.989	0.0162700
738.067	0.0161860
738.146	0.0160687
738.224	0.0162246
738.302	0.0164081
738.380	0.0163153
738.458	0.0162348
738.536	0.0163056
738.614	0.0161858
738.692	0.0163181
738.771	0.0162510
738.849	0.0162158
738.927	0.0162302
739.005	0.0162626
739.083	0.0162222
739.161	0.0162485
739.239	0.0162701
739.317	0.0162560
739.396	0.0162333
739.474	0.0162547
739.552	0.0161146
739.630	0.0163210
739.708	0.0162827
739.786	0.0163760
739.864	0.0161148
739.942	0.0162469
740.021	0.0163206
740.099	0.0163451
740.177	0.0163152
740.255	0.0163049
740.333	0.0162876
740.411	0.0164107
740.489	0.0165016
740.567	0.0162914
740.646	0.0163678
740.724	0.0163441
740.802	0.0163142
740.880	0.0164287
740.958	0.0163619
741.036	0.0163523
741.114	0.0163351
741.192	0.0164545
741.271	0.0164272
741.349	0.0162448
741.427	0.0162131
741.505	0.0163696
741.583	0.0163805
741.661	0.0163322
741.739	0.0164694
741.817	0.0163447
741.896	0.0164298
741.974	0.0164598
742.052	0.0164101
742.130	0.0165943
742.208	0.0164921
742.286	0.0163779
742.364	0.0165104
742.442	0.0163844
742.521	0.0164615
742.599	0.0163433
742.677	0.0163715
742.755	0.0163374
742.833	0.0164498
742.911	0.0165399
742.989	0.0164646
743.067	0.0163609
743.146	0.0164404
743.224	0.0164251
743.302	0.0164233
743.380	0.0163423
743.458	0.0163240
743.536	0.0163957
743.614	0.0164075
743.692	0.0164457
743.771	0.0164342
743.849	0.0163877
743.927	0.0163882
744.005	0.0163068
744.083	0.0162471
744.161	0.0164729
744.239	0.0163221
744.317	0.0162757
744.396	0.0162823
744.474	0.0163339
744.552	0.0163008
744.630	0.0163647
744.708	0.0163596
744.786	0.0163628
744.864	0.0163474
744.942	0.0163892
745.021	0.0162703
745.099	0.0161985
745.177	0.0162339
745.255	0.0162070
745.333	0.0162383
745.411	0.0161633
745.489	0.0163499
745.567	0.0163692
745.646	0.0163228
745.724	0.0162704
745.802	0.0163400
745.880	0.0163289
745.958	0.0163321
746.036	0.0163931
746.114	0.0163186
746.192	0.0164304
746.271	0.0162486
746.349	0.0164439
746.427	0.0163186
746.505	0.0163426
746.583	0.0163993
746.661	0.0163669
746.739	0.0163437
746.817	0.0164690
746.896	0.0162878
746.974	0.0163128
747.052	0.0163486
747.130	0.0163369
747.208	0.0162780
747.286	0.0163001
747.364	0.0163161
747.442	0.0163636
747.521	0.0163616
747.599	0.0163416
747.677	0.0163176
747.755	0.0163978
747.833	0.0164980
747.911	0.0162920
747.989	0.0163635
748.067	0.0163804
748.146	0.0164181
748.224	0.0164989
748.302	0.0163485
748.380	0.0164725
748.458	0.0163684
748.536	0.0164896
748.614	0.0164459
748.692	0.0163918
748.771	0.0164929
748.849	0.0163871
748.927	0.0164749
749.005	0.0166816
749.083	0.0164728
749.161	0.0163662
749.239	0.0164639
749.317	0.0164119
749.396	0.0163496
749.474	0.0165729
749.552	0.0165491
749.630	0.0163778
749.708	0.0164257
749.786	0.0166035
749.864	0.0165561
749.942	0.0165850
750.021	0.0164098
750.099	0.0164724
750.177	0.0165696
750.255	0.0167189
750.333	0.0165929
750.411	0.0165958
750.489	0.0165493
750.567	0.0166156
750.646	0.0165217
750.724	0.0165775
750.802	0.0165899
750.880	0.0166162
750.958	0.0166339
751.036	0.0166364
751.114	0.0165919
751.192	0.0165671
751.271	0.0164729
751.349	0.0166423
751.427	0.0165302
751.505	0.0165865
751.583	0.0165744
751.661	0.0165572
751.739	0.0165531
751.817	0.0164629
751.896	0.0165042
751.974	0.0164513
752.052	0.0165530
752.130	0.0164801
752.208	0.0165067
752.286	0.0165690
752.364	0.0163972
752.442	0.0163338
752.521	0.0163213
752.599	0.0163276
752.677	0.0163274
752.755	0.0164001
752.833	0.0164156
752.911	0.0163116
752.989	0.0162224
753.067	0.0164033
753.146	0.0163570
753.224	0.0164554
753.302	0.0164973
753.380	0.0164270
753.458	0.0163938
753.536	0.0164650
753.614	0.0165759
753.692	0.0163605
753.771	0.0165054
753.849	0.0165877
753.927	0.0165823
754.005	0.0164555
754.083	0.0165403
754.161	0.0165405
754.239	0.0162963
754.317	0.0165639
754.396	0.0165830
754.474	0.0165421
754.552	0.0165352
754.630	0.0165018
754.708	0.0165076
754.786	0.0165654
754.864	0.0164912
754.942	0.0164637
755.021	0.0165215
755.099	0.0166286
755.177	0.0164603
755.255	0.0165779
755.333	0.0167026
755.411	0.0167043
755.489	0.0164657
755.567	0.0165054
755.646	0.0166618
755.724	0.0165369
755.802	0.0166935
755.880	0.0166068
755.958	0.0164212
756.036	0.0164845
756.114	0.0164902
756.192	0.0164848
756.271	0.0164552
756.349	0.0163836
756.427	0.0163506
756.505	0.0163813
756.583	0.0163779
756.661	0.0165099
756.739	0.0164143
756.817	0.0166064
756.896	0.0164365
756.974	0.0164599
757.052	0.0164461
757.130	0.0163547
757.208	0.0165146
757.286	0.0164558
757.364	0.0164606
757.442	0.0165013
757.521	0.0164263
757.599	0.0165376
757.677	0.0163645
757.755	0.0163641
757.833	0.0164893
757.911	0.0163701
757.989	0.0165512
758.067	0.0164161
758.146	0.0164517
758.224	0.0163398
758.302	0.0164069
758.380	0.0164224
758.458	0.0164208
758.536	0.0162302
758.614	0.0162617
758.692	0.0163774
758.771	0.0162849
758.849	0.0163110
758.927	0.0163335
759.005	0.0162711
759.083	0.0162151
759.161	0.0162642
759.239	0.0163276
759.317	0.0164173
759.396	0.0162747
759.474	0.0161506
759.552	0.0164721
759.630	0.0163497
759.708	0.0162682
759.786	0.0162293
759.864	0.0163415
759.942	0.0163622
760.021	0.0162259
760.099	0.0162191
760.177	0.0162233
760.255	0.0162132
760.333	0.0161736
760.411	0.0163204
760.489	0.0162286
760.567	0.0162659
760.646	0.0162601
760.724	0.0162075
760.802	0.0162503
760.880	0.0163594
760.958	0.0163268
761.036	0.0161616
761.114	0.0162336
761.192	0.0162835
761.271	0.0162492
761.349	0.0162223
761.427	0.0163054
761.505	0.0161852
761.583	0.0163731
761.661	0.0162740
761.739	0.0163638
761.817	0.0165652
761.896	0.0164455
761.974	0.0163152
762.052	0.0163710
762.130	0.0164510
762.208	0.0163931
762.286	0.0162707
762.364	0.0163130
762.442	0.0163195
762.521	0.0164053
762.599	0.0163527
762.677	0.0165658
762.755	0.0163591
762.833	0.0161979
762.911	0.0163318
762.989	0.0162759
763.067	0.0163168
763.146	0.0164052
763.224	0.0164298
763.302	0.0164373
763.380	0.0164743
763.458	0.0164242
763.536	0.0166116
763.614	0.0164239
763.692	0.0164523
763.771	0.0164884
763.849	0.0165345
763.927	0.0164968
764.005	0.0164381
764.083	0.0165066
764.161	0.0164711
764.239	0.0164589
764.317	0.0166273
764.396	0.0166772
764.474	0.0165288
764.552	0.0165283
764.630	0.0164803
764.708	0.0165622
764.786	0.0165111
764.864	0.0164237
764.942	0.0165196
765.021	0.0166746
765.099	0.0164941
765.177	0.0164899
765.255	0.0165721
765.333	0.0165735
765.411	0.0165395
765.489	0.0164543
765.567	0.0166740
765.646	0.0165592
765.724	0.0165713
765.802	0.0166077
765.880	0.0165150
765.958	0.0165580
766.036	0.0164944
766.114	0.0164503
766.192	0.0164352
766.271	0.0164973
766.349	0.0165181
766.427	0.0163729
766.505	0.0163702
766.583	0.0163066
766.661	0.0165759
766.739	0.0164060
766.817	0.0162382
766.896	0.0163212
766.974	0.0165637
767.052	0.0165912
767.130	0.0164996
767.208	0.0163086
767.286	0.0164346
767.364	0.0163086
767.442	0.0163776
767.521	0.0164238
767.599	0.0165359
767.677	0.0164111
767.755	0.0163470
767.833	0.0166388
767.911	0.0165033
767.989	0.0165701
768.067	0.0163602
768.146	0.0165083
768.224	0.0164420
768.302	0.0164725
768.380	0.0163601
768.458	0.0162825
768.536	0.0163469
768.614	0.0164107
768.692	0.0163863
768.771	0.0163386
768.849	0.0164391
768.927	0.0163678
769.005	0.0163213
769.083	0.0162860
769.161	0.0162667
769.239	0.0164989
769.317	0.0163528
769.396	0.0162635
769.474	0.0164635
769.552	0.0162952
769.630	0.0163078
769.708	0.0163870
769.786	0.0162908
769.864	0.0163040
769.942	0.0162666
770.021	0.0162106
770.099	0.0164110
770.177	0.0163931
770.255	0.0163718
770.333	0.0163177
770.411	0.0164181
770.489	0.0162389
770.567	0.0163916
770.646	0.0164288
770.724	0.0164567
770.802	0.0163330
770.880	0.0163898
770.958	0.0165614
771.036	0.0164548
771.114	0.0164742
771.192	0.0163972
771.271	0.0163319
771.349	0.0162862
771.427	0.0164256
771.505	0.0164590
771.583	0.0163525
771.661	0.0163900
771.739	0.0163467
771.817	0.0163520
771.896	0.0163252
771.974	0.0164185
772.052	0.0165855
772.130	0.0164276
772.208	0.0164839
772.286	0.0162769
772.364	0.0164650
772.442	0.0164259
772.521	0.0165128
772.599	0.0164987
772.677	0.0164330
772.755	0.0165440
772.833	0.0165641
772.911	0.0166523
772.989	0.0165427
773.067	0.0163721
773.146	0.0164265
773.224	0.0165590
773.302	0.0165686
773.380	0.0165674
773.458	0.0167042
773.536	0.0167204
773.614	0.0166364
773.692	0.0165919
773.771	0.0167050
773.849	0.0166589
773.927	0.0165787
774.005	0.0167250
774.083	0.0166416
774.161	0.0166280
774.239	0.0166680
774.317	0.0166887
774.396	0.0167921
774.474	0.0167104
774.552	0.0168053
774.630	0.0165959
774.708	0.0166988
774.786	0.0168371
774.864	0.0167153
774.942	0.0166924
775.021	0.0166194
775.099	0.0166840
775.177	0.0166173
775.255	0.0166667
775.333	0.0167408
775.411	0.0166077
775.489	0.0165389
775.567	0.0167367
775.646	0.0165067
775.724	0.0166900
775.802	0.0166342
775.880	0.0166312
775.958	0.0166841
776.036	0.0166812
776.114	0.0168700
776.192	0.0167484
776.271	0.0166034
776.349	0.0166154
776.427	0.0166537
776.505	0.0166780
776.583	0.0165991
776.661	0.0166394
776.739	0.0167402
776.817	0.0166261
776.896	0.0166250
776.974	0.0165845
777.052	0.0164989
777.130	0.0167243
777.208	0.0166048
777.286	0.0166392
777.364	0.0165500
777.442	0.0165929
777.521	0.0166135
777.599	0.0166811
777.677	0.0166624
777.755	0.0165310
777.833	0.0164413
777.911	0.0165987
777.989	0.0164944
778.067	0.0164681
778.146	0.0164888
778.224	0.0164664
778.302	0.0165058
778.380	0.0164074
778.458	0.0164227
778.536	0.0165527
778.614	0.0164521
778.692	0.0164765
778.771	0.0164647
778.849	0.0164529
778.927	0.0165404
779.005	0.0164420
779.083	0.0163820
779.161	0.0164954
779.239	0.0164293
779.317	0.0165173
779.396	0.0163123
779.474	0.0164261
779.552	0.0165372
779.630	0.0164331
779.708	0.0163387
779.786	0.0163152
779.864	0.0163451
779.942	0.0163856
780.021	0.0164020
780.099	0.0163950
780.177	0.0163042
780.255	0.0163437
780.333	0.0163614
780.411	0.0166066
780.489	0.0163197
780.567	0.0164266
780.646	0.0164279
780.724	0.0164904
780.802	0.0163237
780.880	0.0162847
780.958	0.0163512
781.036	0.0164002
781.114	0.0164227
781.192	0.0164014
781.271	0.0161846
781.349	0.0162544
781.427	0.0163061
781.505	0.0163499
781.583	0.0163687
781.661	0.0163168
781.739	0.0162941
781.817	0.0164197
781.896	0.0164150
781.974	0.0163084
782.052	0.0164257
782.130	0.0161586
782.208	0.0162904
782.286	0.0162975
782.364	0.0163364
782.442	0.0163318
782.521	0.0162081
782.599	0.0163576
782.677	0.0163519
782.755	0.0161687
782.833	0.0163833
782.911	0.0163590
782.989	0.0162625
783.067	0.0163739
783.146	0.0163390
783.224	0.0164297
783.302	0.0165422
783.380	0.0163163
783.458	0.0163510
783.536	0.0163011
783.614	0.0163741
783.692	0.0164291
783.771	0.0164188
783.849	0.0164461
783.927	0.0164069
784.005	0.0163427
784.083	0.0163981
784.161	0.0164298
784.239	0.0163706
784.317	0.0164095
784.396	0.0165084
784.474	0.0163298
784.552	0.0163514
784.630	0.0164668
784.708	0.0163656
784.786	0.0165128
784.864	0.0165941
784.942	0.0165186
785.021	0.0166167
785.099	0.0166505
785.177	0.0164146
785.255	0.0164991
785.333	0.0165817
785.411	0.0165627
785.489	0.0165208
785.567	0.0165009
785.646	0.0165688
785.724	0.0165421
785.802	0.0164009
785.880	0.0164620
785.958	0.0165710
786.036	0.0164548
786.114	0.0164653
786.192	0.0164874
786.271	0.0164224
786.349	0.0163949
786.427	0.0165300
786.505	0.0165331
786.583	0.0164433
786.661	0.0164111
786.739	0.0165562
786.817	0.0165254
786.896	0.0164743
786.974	0.0165432
787.052	0.0164118
787.130	0.0165275
787.208	0.0166065
787.286	0.0164543
787.364	0.0164130
787.442	0.0165462
787.521	0.0166010
787.599	0.0165423
787.677	0.0164551
787.755	0.0165407
787.833	0.0165103
787.911	0.0164803
787.989	0.0165342
788.067	0.0166528
788.146	0.0165903
788.224	0.0164370
788.302	0.0164869
788.380	0.0165670
788.458	0.0166363
788.536	0.0165614
788.614	0.0165842
788.692	0.0164549
788.771	0.0165220
788.849	0.0165939
788.927	0.0165791
789.005	0.0165649
789.083	0.0166397
789.161	0.0165176
789.239	0.0167216
789.317	0.0166629
789.396	0.0165791
789.474	0.0166709
789.552	0.0166648
789.630	0.0165105
789.708	0.0166360
789.786	0.0167127
789.864	0.0166113
789.942	0.0166968
790.021	0.0166518
790.099	0.0166496
790.177	0.0166384
790.255	0.0165636
790.333	0.0167136
790.411	0.0166258
790.489	0.0165789
790.567	0.0167383
790.646	0.0166968
790.724	0.0167298
790.802	0.0166486
790.880	0.0165779
790.958	0.0166423
791.036	0.0167760
791.114	0.0165188
791.192	0.0165886
791.271	0.0166657
791.349	0.0166209
791.427	0.0165102
791.505	0.0166131
791.583	0.0165533
791.661	0.0165160
791.739	0.0164476
791.817	0.0165027
791.896	0.0164259
791.974	0.0166831
792.052	0.0164600
792.130	0.0164388
792.208	0.0164552
792.286	0.0164028
792.364	0.0164663
792.442	0.0164048
792.521	0.0164526
792.599	0.0165064
792.677	0.0164394
792.755	0.0164384
792.833	0.0165672
792.911	0.0165321
792.989	0.0165273
793.067	0.0166096
793.146	0.0163884
793.224	0.0164327
793.302	0.0164477
793.380	0.0164794
793.458	0.0165238
793.536	0.0163968
793.614	0.0165429
793.692	0.0165906
793.771	0.0165019
793.849	0.0164946
793.927	0.0166319
794.005	0.0165385
794.083	0.0164956
794.161	0.0165863
794.239	0.0164681
794.317	0.0165793
794.396	0.0164320
794.474	0.0166522
794.552	0.0166230
794.630	0.0166448
794.708	0.0164883
794.786	0.0165034
794.864	0.0163624
794.942	0.0166602
795.021	0.0167101
795.099	0.0164482
795.177	0.0165406
795.255	0.0165867
795.333	0.0166300
795.411	0.0165261
795.489	0.0165497
795.567	0.0166110
795.646	0.0166778
795.724	0.0165664
795.802	0.0167088
795.880	0.0165784
795.958	0.0166666
796.036	0.0166808
796.114	0.0164507
796.192	0.0165807
796.271	0.0166628
796.349	0.0166887
796.427	0.0165109
796.505	0.0166355
796.583	0.0166472
796.661	0.0166300
796.739	0.0167230
796.817	0.0167395
796.896	0.0166940
796.974	0.0167799
797.052	0.0166476
797.130	0.0167032
797.208	0.0167723
797.286	0.0167130
797.364	0.0166365
797.442	0.0166954
797.521	0.0167467
797.599	0.0166322
797.677	0.0168099
797.755	0.0167933
797.833	0.0167717
797.911	0.0167670
797.989	0.0167498
798.067	0.0167338
798.146	0.0167415
798.224	0.0166257
798.302	0.0167686
798.380	0.0166965
798.458	0.0166078
798.536	0.0166524
798.614	0.0168820
798.692	0.0167730
798.771	0.0167459
798.849	0.0166346
798.927	0.0166100
799.005	0.0165990
799.083	0.0166209
799.161	0.0166873
799.239	0.0166477
799.317	0.0166605
799.396	0.0167476
799.474	0.0166706
799.552	0.0164499
799.630	0.0166010
799.708	0.0166850
799.786	0.0166427
799.864	0.0165979
799.942	0.0165377
800.021	0.0167381
800.099	0.0165970
800.177	0.0165997
800.255	0.0167283
800.333	0.0165997
800.411	0.0165332
800.489	0.0166256
800.567	0.0166808
800.646	0.0166120
800.724	0.0166018
800.802	0.0166624
800.880	0.0165613
800.958	0.0164650
801.036	0.0165490
801.114	0.0166290
801.192	0.0164986
801.271	0.0165876
801.349	0.0163966
801.427	0.0164815
801.505	0.0164333
801.583	0.0163380
801.661	0.0163076
801.739	0.0163689
801.817	0.0163768
801.896	0.0161436
801.974	0.0163564
802.052	0.0163265
802.130	0.0163773
802.208	0.0162956
802.286	0.0161889
802.364	0.0163211
802.442	0.0163026
802.521	0.0162293
802.599	0.0162114
802.677	0.0160933
802.755	0.0162809
802.833	0.0162966
802.911	0.0163135
802.989	0.0164896
803.067	0.0163788
803.146	0.0163456
803.224	0.0164179
803.302	0.0165083
803.380	0.0163874
803.458	0.0162584
803.536	0.0163644
803.614	0.0163654
803.692	0.0164362
803.771	0.0162636
803.849	0.0163416
803.927	0.0163107
804.005	0.0163568
804.083	0.0163295
804.161	0.0163950
804.239	0.0164029
804.317	0.0162829
804.396	0.0163056
804.474	0.0164699
804.552	0.0162741
804.630	0.0164145
804.708	0.0164255
804.786	0.0164055
804.864	0.0164518
804.942	0.0165111
805.021	0.0165192
805.099	0.0162887
805.177	0.0164020
805.255	0.0164769
805.333	0.0164900
805.411	0.0163545
805.489	0.0163463
805.567	0.0163049
805.646	0.0163327
805.724	0.0164886
805.802	0.0164278
805.880	0.0163274
805.958	0.0163681
806.036	0.0163473
806.114	0.0163070
806.192	0.0164543
806.271	0.0164524
806.349	0.0165295
806.427	0.0164777
806.505	0.0165714
806.583	0.0164526
806.661	0.0164539
806.739	0.0164990
806.817	0.0163885
806.896	0.0166061
806.974	0.0163947
807.052	0.0166240
807.130	0.0164815
807.208	0.0165556
807.286	0.0165449
807.364	0.0164637
807.442	0.0165527
807.521	0.0165798
807.599	0.0163783
807.677	0.0164206
807.755	0.0164724
807.833	0.0165054
807.911	0.0164235
807.989	0.0164938
808.067	0.0165500
808.146	0.0163844
808.224	0.0164622
808.302	0.0164151
808.380	0.0164459
808.458	0.0162951
808.536	0.0164497
808.614	0.0164310
808.692	0.0163192
808.771	0.0164047
808.849	0.0164053
808.927	0.0164266
809.005	0.0163023
809.083	0.0163338
809.161	0.0164248
809.239	0.0163409
809.317	0.0163624
809.396	0.0164821
809.474	0.0163593
809.552	0.0163997
809.630	0.0163671
809.708	0.0162866
809.786	0.0163527
809.864	0.0164892
809.942	0.0164234
810.021	0.0165833
810.099	0.0164065
810.177	0.0164202
810.255	0.0165019
810.333	0.0165141
810.411	0.0164236
810.489	0.0165171
810.567	0.0164290
810.646	0.0165427
810.724	0.0164677
810.802	0.0165190
810.880	0.0164969
810.958	0.0165105
811.036	0.0166061
811.114	0.0165526
811.192	0.0163953
811.271	0.0165641
811.349	0.0164211
811.427	0.0164787
811.505	0.0163876
811.583	0.0164517
811.661	0.0165146
811.739	0.0166209
811.817	0.0165516
811.896	0.0165675
811.974	0.0164793
812.052	0.0164337
812.130	0.0164688
812.208	0.0165522
812.286	0.0164809
812.364	0.0165362
812.442	0.0164519
812.521	0.0164771
812.599	0.0164510
812.677	0.0166275
812.755	0.0163761
812.833	0.0163366
812.911	0.0165130
812.989	0.0165041
813.067	0.0163902
813.146	0.0163918
813.224	0.0165863
813.302	0.0164784
813.380	0.0164453
813.458	0.0165255
813.536	0.0165318
813.614	0.0165345
813.692	0.0165610
813.771	0.0165555
813.849	0.0165249
813.927	0.0164876
814.005	0.0165763
814.083	0.0164265
814.161	0.0165587
814.239	0.0164652
814.317	0.0164485
814.396	0.0164685
814.474	0.0166149
814.552	0.0166623
814.630	0.0166380
814.708	0.0165051
814.786	0.0166515
814.864	0.0165128
814.942	0.0164005
815.021	0.0165462
815.099	0.0165939
815.177	0.0166797
815.255	0.0165178
815.333	0.0165016
815.411	0.0164851
815.489	0.0165408
815.567	0.0166484
815.646	0.0165347
815.724	0.0164656
815.802	0.0164978
815.880	0.0164874
815.958	0.0166705
816.036	0.0166371
816.114	0.0164425
816.192	0.0165566
816.271	0.0165212
816.349	0.0164891
816.427	0.0164977
816.505	0.0165022
816.583	0.0165491
816.661	0.0165707
816.739	0.0164851
816.817	0.0165651
816.896	0.0164304
816.974	0.0165055
817.052	0.0166034
817.130	0.0163914
817.208	0.0164940
817.286	0.0165048
817.364	0.0163423
817.442	0.0164072
817.521	0.0163751
817.599	0.0164954
817.677	0.0163074
817.755	0.0164560
817.833	0.0164652
817.911	0.0163551
817.989	0.0162199
818.067	0.0165394
818.146	0.0164477
818.224	0.0163179
818.302	0.0164408
818.380	0.0164414
818.458	0.0164299
818.536	0.0163766
818.614	0.0165147
818.692	0.0165739
818.771	0.0165205
818.849	0.0165858
818.927	0.0165206
819.005	0.0164364
819.083	0.0164384
819.161	0.0165179
819.239	0.0166436
819.317	0.0164640
819.396	0.0164238
819.474	0.0164114
819.552	0.0165163
819.630	0.0165189
819.708	0.0164986
819.786	0.0164543
819.864	0.0165366
819.942	0.0166473
820.021	0.0166182
820.099	0.0165162
820.177	0.0165416
820.255	0.0166467
820.333	0.0165644
820.411	0.0166539
820.489	0.0164179
820.567	0.0164014
820.646	0.0165717
820.724	0.0165218
820.802	0.0164531
820.880	0.0164101
820.958	0.0165002
821.036	0.0165244
821.114	0.0165455
821.192	0.0165224
821.271	0.0164628
821.349	0.0165894
821.427	0.0165324
821.505	0.0165864
821.583	0.0165396
821.661	0.0165976
821.739	0.0165277
821.817	0.0164098
821.896	0.0165866
821.974	0.0165137
822.052	0.0166875
822.130	0.0165841
822.208	0.0165347
822.286	0.0165707
822.364	0.0165434
822.442	0.0165425
822.521	0.0165640
822.599	0.0165237
822.677	0.0165100
822.755	0.0165173
822.833	0.0164565
822.911	0.0164273
822.989	0.0165887
823.067	0.0166793
823.146	0.0164754
823.224	0.0165406
823.302	0.0165459
823.380	0.0162617
823.458	0.0163824
823.536	0.0164871
823.614	0.0164915
823.692	0.0164437
823.771	0.0164682
823.849	0.0163715
823.927	0.0165653
824.005	0.0164953
824.083	0.0164946
824.161	0.0164640
824.239	0.0165438
824.317	0.0165038
824.396	0.0166347
824.474	0.0165473
824.552	0.0165943
824.630	0.0165392
824.708	0.0165343
824.786	0.0165762
824.864	0.0166666
824.942	0.0166006
825.021	0.0166019
825.099	0.0166389
825.177	0.0164653
825.255	0.0165223
825.333	0.0165704
825.411	0.0165170
825.489	0.0166214
825.567	0.0166076
825.646	0.0164474
825.724	0.0165812
825.802	0.0164919
825.880	0.0165524
825.958	0.0166721
826.036	0.0165927
826.114	0.0165633
826.192	0.0166022
826.271	0.0165691
826.349	0.0165453
826.427	0.0166765
826.505	0.0165790
826.583	0.0165717
826.661	0.0164287
826.739	0.0165451
826.817	0.0164910
826.896	0.0164043
826.974	0.0164639
827.052	0.0163203
827.130	0.0165215
827.208	0.0164008
827.286	0.0163937
827.364	0.0165406
827.442	0.0164626
827.521	0.0163226
827.599	0.0164167
827.677	0.0164155
827.755	0.0164207
827.833	0.0164317
827.911	0.0164775
827.989	0.0164334
828.067	0.0164440
828.146	0.0163335
828.224	0.0163352
828.302	0.0163377
828.380	0.0163554
828.458	0.0163515
828.536	0.0164445
828.614	0.0164404
828.692	0.0164953
828.771	0.0163184
828.849	0.0163609
828.927	0.0164082
829.005	0.0164824
829.083	0.0165002
829.161	0.0163334
829.239	0.0163483
829.317	0.0164560
829.396	0.0163508
829.474	0.0162595
829.552	0.0163293
829.630	0.0162774
829.708	0.0162949
829.786	0.0162026
829.864	0.0162792
829.942	0.0163549
830.021	0.0163023
830.099	0.0162173
830.177	0.0161873
830.255	0.0163860
830.333	0.0162745
830.411	0.0161796
830.489	0.0164160
830.567	0.0163429
830.646	0.0164433
830.724	0.0163577
830.802	0.0163598
830.880	0.0164764
830.958	0.0163627
831.036	0.0164316
831.114	0.0164126
831.192	0.0164494
831.271	0.0163600
831.349	0.0164213
831.427	0.0164029
831.505	0.0165665
831.583	0.0164897
831.661	0.0164350
831.739	0.0164090
831.817	0.0163205
831.896	0.0166564
831.974	0.0164362
832.052	0.0164437
832.130	0.0165099
832.208	0.0164912
832.286	0.0165366
832.364	0.0165000
832.442	0.0165106
832.521	0.0164829
832.599	0.0164675
832.677	0.0166356
832.755	0.0165415
832.833	0.0165272
832.911	0.0164819
832.989	0.0164993
833.067	0.0166795
833.146	0.0164873
833.224	0.0165236
833.302	0.0165845
833.380	0.0166428
833.458	0.0166227
833.536	0.0165970
833.614	0.0165369
833.692	0.0166243
833.771	0.0165877
833.849	0.0165136
833.927	0.0165420
834.005	0.0165274
834.083	0.0165415
834.161	0.0164326
834.239	0.0165551
834.317	0.0164648
834.396	0.0164876
834.474	0.0165184
834.552	0.0164647
834.630	0.0162883
834.708	0.0163432
834.786	0.0164912
834.864	0.0164917
834.942	0.0163937
835.021	0.0162801
835.099	0.0163909
835.177	0.0164841
835.255	0.0163400
835.333	0.0163324
835.411	0.0165051
835.489	0.0163540
835.567	0.0163627
835.646	0.0162700
835.724	0.0164630
835.802	0.0163401
835.880	0.0163467
835.958	0.0164579
836.036	0.0164085
836.114	0.0162582
836.192	0.0163282
836.271	0.0161655
836.349	0.0164037
836.427	0.0163853
836.505	0.0162961
836.583	0.0162498
836.661	0.0161271
836.739	0.0162449
836.817	0.0163079
836.896	0.0163093
836.974	0.0162456
837.052	0.0162301
837.130	0.0163406
837.208	0.0161678
837.286	0.0162190
837.364	0.0161840
837.442	0.0162830
837.521	0.0162838
837.599	0.0162842
837.677	0.0162402
837.755	0.0162595
837.833	0.0164108
837.911	0.0162029
837.989	0.0162109
838.067	0.0162641
838.146	0.0163512
838.224	0.0164063
838.302	0.0162610
838.380	0.0162357
838.458	0.0162949
838.536	0.0162421
838.614	0.0163286
838.692	0.0162644
838.771	0.0163107
838.849	0.0162395
838.927	0.0162270
839.005	0.0164546
839.083	0.0162045
839.161	0.0163414
839.239	0.0164674
839.317	0.0163272
839.396	0.0162788
839.474	0.0164689
839.552	0.0163609
839.630	0.0163602
839.708	0.0162704
839.786	0.0162805
839.864	0.0165354
839.942	0.0163467
840.021	0.0163117
840.099	0.0162260
840.177	0.0163464
840.255	0.0163647
840.333	0.0164196
840.411	0.0163221
840.489	0.0163107
840.567	0.0163078
840.646	0.0164777
840.724	0.0163847
840.802	0.0164426
840.880	0.0163492
840.958	0.0164401
841.036	0.0163611
841.114	0.0163245
841.192	0.0163535
841.271	0.0165234
841.349	0.0163339
841.427	0.0164363
841.505	0.0164125
841.583	0.0163457
841.661	0.0162619
841.739	0.0164700
841.817	0.0162956
841.896	0.0164484
841.974	0.0164318
842.052	0.0163712
842.130	0.0165118
842.208	0.0163805
842.286	0.0163236
842.364	0.0165044
842.442	0.0163439
842.521	0.0164088
842.599	0.0164837
842.677	0.0164983
842.755	0.0163784
842.833	0.0165856
842.911	0.0165193
842.989	0.0165453
843.067	0.0163904
843.146	0.0164391
843.224	0.0164455
843.302	0.0164963
843.380	0.0164966
843.458	0.0165804
843.536	0.0164729
843.614	0.0165239
843.692	0.0164817
843.771	0.0164440
843.849	0.0165192
843.927	0.0165570
844.005	0.0164146
844.083	0.0166366
844.161	0.0166818
844.239	0.0165493
844.317	0.0166048
844.396	0.0165620
844.474	0.0165710
844.552	0.0164826
844.630	0.0164711
844.708	0.0164622
844.786	0.0164178
844.864	0.0164712
844.942	0.0164013
845.021	0.0163528
845.099	0.0164861
845.177	0.0163927
845.255	0.0163712
845.333	0.0164842
845.411	0.0164623
845.489	0.0164632
845.567	0.0165885
845.646	0.0164705
845.724	0.0163923
845.802	0.0163373
845.880	0.0164593
845.958	0.0165072
846.036	0.0164111
846.114	0.0164445
846.192	0.0162687
846.271	0.0163469
846.349	0.0165328
846.427	0.0164576
846.505	0.0164577
846.583	0.0164452
846.661	0.0164816
846.739	0.0164488
846.817	0.0166257
846.896	0.0163351
846.974	0.0164553
847.052	0.0165600
847.130	0.0163733
847.208	0.0164162
847.286	0.0164264
847.364	0.0164096
847.442	0.0166119
847.521	0.0166595
847.599	0.0164307
847.677	0.0163952
847.755	0.0164671
847.833	0.0164545
847.911	0.0163797
847.989	0.0164518
848.067	0.0164322
848.146	0.0165147
848.224	0.0163696
848.302	0.0164481
848.380	0.0164442
848.458	0.0164271
848.536	0.0164337
848.614	0.0164996
848.692	0.0163869
848.771	0.0165085
848.849	0.0164362
848.927	0.0164052
849.005	0.0164818
849.083	0.0164120
849.161	0.0163592
849.239	0.0164238
849.317	0.0164937
849.396	0.0164795
849.474	0.0164922
849.552	0.0164510
849.630	0.0164297
849.708	0.0163958
849.786	0.0164503
849.864	0.0164080
849.942	0.0163978
850.021	0.0163370
850.099	0.0164045
850.177	0.0163447
850.255	0.0164167
850.333	0.0163534
850.411	0.0164566
850.489	0.0165137
850.567	0.0163039
850.646	0.0162762
850.724	0.0162681
850.802	0.0162267
850.880	0.0163917
850.958	0.0163321
851.036	0.0162214
851.114	0.0161574
851.192	0.0163683
851.271	0.0163697
851.349	0.0162778
851.427	0.0163710
851.505	0.0162773
851.583	0.0162632
851.661	0.0163794
851.739	0.0163245
851.817	0.0162865
851.896	0.0162811
851.974	0.0163268
852.052	0.0162215
852.130	0.0163374
852.208	0.0163551
852.286	0.0162746
852.364	0.0162631
852.442	0.0162475
852.521	0.0162489
852.599	0.0162733
852.677	0.0163602
852.755	0.0164494
852.833	0.0164982
852.911	0.0163251
852.989	0.0162472
853.067	0.0162193
853.146	0.0162847
853.224	0.0163223
853.302	0.0162569
853.380	0.0163106
853.458	0.0162807
853.536	0.0163961
853.614	0.0162489
853.692	0.0162592
853.771	0.0164291
853.849	0.0162633
853.927	0.0161147
854.005	0.0162382
854.083	0.0163347
854.161	0.0162071
854.239	0.0163673
854.317	0.0165126
854.396	0.0164034
854.474	0.0162984
854.552	0.0163954
854.630	0.0164583
854.708	0.0163718
854.786	0.0164542
854.864	0.0164504
854.942	0.0164730
855.021	0.0164285
855.099	0.0164925
855.177	0.0164722
855.255	0.0164524
855.333	0.0163934
855.411	0.0163753
855.489	0.0164133
855.567	0.0164877
855.646	0.0165623
855.724	0.0164149
855.802	0.0164674
855.880	0.0164861
855.958	0.0163596
856.036	0.0163871
856.114	0.0164842
856.192	0.0164648
856.271	0.0162942
856.349	0.0163174
856.427	0.0163667
856.505	0.0164586
856.583	0.0164352
856.661	0.0164287
856.739	0.0163348
856.817	0.0165753
856.896	0.0164227
856.974	0.0163959
857.052	0.0164062
857.130	0.0163968
857.208	0.0164826
857.286	0.0163142
857.364	0.0164921
857.442	0.0164668
857.521	0.0165553
857.599	0.0162939
857.677	0.0163297
857.755	0.0164178
857.833	0.0164549
857.911	0.0162665
857.989	0.0163880
858.067	0.0164064
858.146	0.0163379
858.224	0.0164825
858.302	0.0163758
858.380	0.0163952
858.458	0.0164426
858.536	0.0162511
858.614	0.0163633
858.692	0.0163465
858.771	0.0163788
858.849	0.0163132
858.927	0.0164741
859.005	0.0162749
859.083	0.0163699
859.161	0.0163823
859.239	0.0163602
859.317	0.0162990
859.396	0.0163284
859.474	0.0163452
859.552	0.0163326
859.630	0.0163529
859.708	0.0164051
859.786	0.0163651
859.864	0.0163762
859.942	0.0162607
860.021	0.0162746
860.099	0.0163134
860.177	0.0164143
860.255	0.0164088
860.333	0.0163145
860.411	0.0163018
860.489	0.0163305
860.567	0.0164194
860.646	0.0164568
860.724	0.0163116
860.802	0.0164118
860.880	0.0164472
860.958	0.0163907
861.036	0.0163903
861.114	0.0163662
861.192	0.0163238
861.271	0.0163892
861.349	0.0164059
861.427	0.0163368
861.505	0.0164664
861.583	0.0163165
861.661	0.0164108
861.739	0.0164328
861.817	0.0165145
861.896	0.0162138
861.974	0.0164088
862.052	0.0165249
862.130	0.0163993
862.208	0.0164442
862.286	0.0163178
862.364	0.0164362
862.442	0.0165119
862.521	0.0163847
862.599	0.0162524
862.677	0.0163770
862.755	0.0164458
862.833	0.0165177
862.911	0.0164811
862.989	0.0164619
863.067	0.0164214
863.146	0.0164990
863.224	0.0164371
863.302	0.0164298
863.380	0.0163351
863.458	0.0164591
863.536	0.0163955
863.614	0.0163893
863.692	0.0164246
863.771	0.0163013
863.849	0.0162794
863.927	0.0162807
864.005	0.0164873
864.083	0.0163695
864.161	0.0162850
864.239	0.0163461
864.317	0.0164104
864.396	0.0163947
864.474	0.0164831
864.552	0.0163654
864.630	0.0163793
864.708	0.0164237
864.786	0.0164393
864.864	0.0163988
864.942	0.0163477
865.021	0.0164456
865.099	0.0165571
865.177	0.0163991
865.255	0.0164749
865.333	0.0165139
865.411	0.0165028
865.489	0.0164658
865.567	0.0166021
865.646	0.0165080
865.724	0.0166019
865.802	0.0165684
865.880	0.0165028
865.958	0.0165983
866.036	0.0165611
866.114	0.0164613
866.192	0.0166019
866.271	0.0166466
866.349	0.0166055
866.427	0.0165589
866.505	0.0164602
866.583	0.0165712
866.661	0.0166220
866.739	0.0165322
866.817	0.0165433
866.896	0.0165017
866.974	0.0165745
867.052	0.0165925
867.130	0.0166562
867.208	0.0166159
867.286	0.0165577
867.364	0.0165732
867.442	0.0166508
867.521	0.0166161
867.599	0.0165802
867.677	0.0166595
867.755	0.0165322
867.833	0.0164955
867.911	0.0167408
867.989	0.0166393
868.067	0.0166880
868.146	0.0166386
868.224	0.0167226
868.302	0.0167111
868.380	0.0166872
868.458	0.0167373
868.536	0.0167530
868.614	0.0167995
868.692	0.0168201
868.771	0.0166077
868.849	0.0167925
868.927	0.0166188
869.005	0.0167600
869.083	0.0167529
869.161	0.0167576
869.239	0.0168235
869.317	0.0167112
869.396	0.0166448
869.474	0.0166995
869.552	0.0167034
869.630	0.0168399
869.708	0.0167067
869.786	0.0167031
869.864	0.0167840
869.942	0.0165051
