06/03/2022	14:47:54	Ver.	4.1	UNKNOWN
Optical Delay	550.020508	Delta X		0.078125	Sweeps	1	Scan Rate	0/0
Coordinates	Axis 1	NaN	Axis 2	NaN	Axis 3	NaN	Axis 4	NaN	Axis 5	NaN	Axis 6	0.000000
TX Power	0.000000	RX Power	0.000000

550.021	0.0165483
550.099	0.0161768
550.177	0.0161301
550.255	0.0162504
550.333	0.0162955
550.411	0.0162524
550.489	0.0161376
550.567	0.0163333
550.646	0.0163680
550.724	0.0162899
550.802	0.0162875
550.880	0.0161882
550.958	0.0163459
551.036	0.0162282
551.114	0.0162205
551.192	0.0163727
551.271	0.0163297
551.349	0.0162956
551.427	0.0163506
551.505	0.0163570
551.583	0.0163901
551.661	0.0161549
551.739	0.0162994
551.817	0.0163773
551.896	0.0162221
551.974	0.0163650
552.052	0.0164807
552.130	0.0164876
552.208	0.0162503
552.286	0.0163821
552.364	0.0163875
552.442	0.0163235
552.521	0.0164445
552.599	0.0163605
552.677	0.0161720
552.755	0.0164382
552.833	0.0163515
552.911	0.0162606
552.989	0.0163373
553.067	0.0164741
553.146	0.0163287
553.224	0.0163469
553.302	0.0162983
553.380	0.0164254
553.458	0.0162849
553.536	0.0163013
553.614	0.0162805
553.692	0.0162379
553.771	0.0163601
553.849	0.0163498
553.927	0.0162964
554.005	0.0162402
554.083	0.0163044
554.161	0.0163551
554.239	0.0163682
554.317	0.0161541
554.396	0.0163441
554.474	0.0164358
554.552	0.0162491
554.630	0.0162440
554.708	0.0162591
554.786	0.0162782
554.864	0.0162353
554.942	0.0163045
555.021	0.0163222
555.099	0.0162724
555.177	0.0161067
555.255	0.0162881
555.333	0.0162203
555.411	0.0161745
555.489	0.0161562
555.567	0.0162129
555.646	0.0162199
555.724	0.0162009
555.802	0.0160784
555.880	0.0161908
555.958	0.0161744
556.036	0.0162367
556.114	0.0162978
556.192	0.0163450
556.271	0.0162152
556.349	0.0162661
556.427	0.0161591
556.505	0.0160864
556.583	0.0160690
556.661	0.0161442
556.739	0.0161012
556.817	0.0161174
556.896	0.0161971
556.974	0.0162272
557.052	0.0162301
557.130	0.0161868
557.208	0.0162856
557.286	0.0162050
557.364	0.0162230
557.442	0.0162668
557.521	0.0162873
557.599	0.0162130
557.677	0.0161634
557.755	0.0162760
557.833	0.0163087
557.911	0.0162407
557.989	0.0162639
558.067	0.0162559
558.146	0.0162428
558.224	0.0163046
558.302	0.0163680
558.380	0.0163444
558.458	0.0162531
558.536	0.0163020
558.614	0.0162936
558.692	0.0162665
558.771	0.0162276
558.849	0.0164116
558.927	0.0163603
559.005	0.0162041
559.083	0.0162424
559.161	0.0163136
559.239	0.0162660
559.317	0.0162431
559.396	0.0163737
559.474	0.0162701
559.552	0.0163936
559.630	0.0164054
559.708	0.0164201
559.786	0.0164589
559.864	0.0164399
559.942	0.0165388
560.021	0.0165099
560.099	0.0165772
560.177	0.0163734
560.255	0.0162840
560.333	0.0165031
560.411	0.0164626
560.489	0.0163802
560.567	0.0164351
560.646	0.0164262
560.724	0.0165011
560.802	0.0165803
560.880	0.0164031
560.958	0.0164929
561.036	0.0163336
561.114	0.0163772
561.192	0.0163879
561.271	0.0164003
561.349	0.0163953
561.427	0.0163068
561.505	0.0162907
561.583	0.0165187
561.661	0.0165594
561.739	0.0164063
561.817	0.0163930
561.896	0.0163391
561.974	0.0163547
562.052	0.0161942
562.130	0.0163652
562.208	0.0164425
562.286	0.0163660
562.364	0.0164559
562.442	0.0164648
562.521	0.0165075
562.599	0.0163549
562.677	0.0162210
562.755	0.0162429
562.833	0.0162605
562.911	0.0163336
562.989	0.0163866
563.067	0.0163763
563.146	0.0163875
563.224	0.0162953
563.302	0.0162868
563.380	0.0163184
563.458	0.0163895
563.536	0.0161794
563.614	0.0163201
563.692	0.0162541
563.771	0.0162405
563.849	0.0162016
563.927	0.0162673
564.005	0.0163243
564.083	0.0163049
564.161	0.0163173
564.239	0.0163072
564.317	0.0162012
564.396	0.0162220
564.474	0.0164162
564.552	0.0162145
564.630	0.0163267
564.708	0.0161970
564.786	0.0163992
564.864	0.0162731
564.942	0.0163942
565.021	0.0162839
565.099	0.0162370
565.177	0.0164163
565.255	0.0162400
565.333	0.0162799
565.411	0.0164014
565.489	0.0163019
565.567	0.0163998
565.646	0.0162594
565.724	0.0162756
565.802	0.0163964
565.880	0.0162846
565.958	0.0163928
566.036	0.0164622
566.114	0.0163683
566.192	0.0162946
566.271	0.0162255
566.349	0.0163558
566.427	0.0163330
566.505	0.0163538
566.583	0.0163452
566.661	0.0164417
566.739	0.0163815
566.817	0.0162885
566.896	0.0163375
566.974	0.0163492
567.052	0.0163702
567.130	0.0164121
567.208	0.0163240
567.286	0.0163772
567.364	0.0163773
567.442	0.0164088
567.521	0.0164339
567.599	0.0163968
567.677	0.0163044
567.755	0.0164206
567.833	0.0164278
567.911	0.0164677
567.989	0.0164642
568.067	0.0164280
568.146	0.0164207
568.224	0.0165932
568.302	0.0164023
568.380	0.0164490
568.458	0.0164462
568.536	0.0164780
568.614	0.0165453
568.692	0.0166322
568.771	0.0165127
568.849	0.0164995
568.927	0.0164816
569.005	0.0165950
569.083	0.0164997
569.161	0.0165012
569.239	0.0164788
569.317	0.0163918
569.396	0.0164698
569.474	0.0165399
569.552	0.0163466
569.630	0.0165062
569.708	0.0164854
569.786	0.0163804
569.864	0.0164133
569.942	0.0162698
570.021	0.0164952
570.099	0.0164064
570.177	0.0165228
570.255	0.0163367
570.333	0.0164127
570.411	0.0163740
570.489	0.0163799
570.567	0.0163593
570.646	0.0164459
570.724	0.0164206
570.802	0.0163475
570.880	0.0164017
570.958	0.0164118
571.036	0.0162152
571.114	0.0163222
571.192	0.0162243
571.271	0.0164178
571.349	0.0163406
571.427	0.0162596
571.505	0.0164539
571.583	0.0163425
571.661	0.0163227
571.739	0.0162399
571.817	0.0163602
571.896	0.0162925
571.974	0.0162054
572.052	0.0163231
572.130	0.0163914
572.208	0.0162424
572.286	0.0162439
572.364	0.0163148
572.442	0.0163824
572.521	0.0164120
572.599	0.0163351
572.677	0.0164453
572.755	0.0164563
572.833	0.0163559
572.911	0.0163647
572.989	0.0164353
573.067	0.0163209
573.146	0.0163899
573.224	0.0163773
573.302	0.0162943
573.380	0.0162948
573.458	0.0164201
573.536	0.0163258
573.614	0.0165083
573.692	0.0164281
573.771	0.0164530
573.849	0.0164594
573.927	0.0164757
574.005	0.0164449
574.083	0.0164548
574.161	0.0164030
574.239	0.0164495
574.317	0.0165321
574.396	0.0163563
574.474	0.0165627
574.552	0.0165131
574.630	0.0165163
574.708	0.0164988
574.786	0.0164119
574.864	0.0164130
574.942	0.0164656
575.021	0.0165960
575.099	0.0165833
575.177	0.0165577
575.255	0.0166743
575.333	0.0164951
575.411	0.0165446
575.489	0.0164484
575.567	0.0164731
575.646	0.0164440
575.724	0.0165590
575.802	0.0165411
575.880	0.0165827
575.958	0.0165049
576.036	0.0163598
576.114	0.0164079
576.192	0.0165455
576.271	0.0164525
576.349	0.0165641
576.427	0.0165751
576.505	0.0163912
576.583	0.0164555
576.661	0.0165822
576.739	0.0165410
576.817	0.0165083
576.896	0.0164664
576.974	0.0164336
577.052	0.0164660
577.130	0.0165010
577.208	0.0163506
577.286	0.0163391
577.364	0.0164248
577.442	0.0163359
577.521	0.0164230
577.599	0.0165903
577.677	0.0162896
577.755	0.0164476
577.833	0.0163744
577.911	0.0164315
577.989	0.0164998
578.067	0.0165070
578.146	0.0162128
578.224	0.0164230
578.302	0.0163124
578.380	0.0162779
578.458	0.0162629
578.536	0.0162730
578.614	0.0162686
578.692	0.0163807
578.771	0.0164309
578.849	0.0162992
578.927	0.0162051
579.005	0.0161903
579.083	0.0162642
579.161	0.0162925
579.239	0.0162816
579.317	0.0162122
579.396	0.0162941
579.474	0.0164101
579.552	0.0163731
579.630	0.0162118
579.708	0.0162889
579.786	0.0164096
579.864	0.0161710
579.942	0.0163335
580.021	0.0162519
580.099	0.0162432
580.177	0.0162153
580.255	0.0162026
580.333	0.0164744
580.411	0.0163213
580.489	0.0162236
580.567	0.0163516
580.646	0.0164653
580.724	0.0162293
580.802	0.0163048
580.880	0.0162552
580.958	0.0163625
581.036	0.0162457
581.114	0.0162876
581.192	0.0162904
581.271	0.0164053
581.349	0.0163218
581.427	0.0162534
581.505	0.0162919
581.583	0.0162831
581.661	0.0163164
581.739	0.0162502
581.817	0.0163316
581.896	0.0162648
581.974	0.0162706
582.052	0.0162852
582.130	0.0161968
582.208	0.0162105
582.286	0.0163197
582.364	0.0162568
582.442	0.0160869
582.521	0.0160993
582.599	0.0163509
582.677	0.0161639
582.755	0.0162071
582.833	0.0163962
582.911	0.0162572
582.989	0.0161570
583.067	0.0162771
583.146	0.0163535
583.224	0.0162355
583.302	0.0162946
583.380	0.0161350
583.458	0.0162193
583.536	0.0162627
583.614	0.0162250
583.692	0.0161919
583.771	0.0162810
583.849	0.0163536
583.927	0.0163088
584.005	0.0162596
584.083	0.0162655
584.161	0.0161845
584.239	0.0163279
584.317	0.0163807
584.396	0.0162107
584.474	0.0164231
584.552	0.0163248
584.630	0.0164182
584.708	0.0162675
584.786	0.0162554
584.864	0.0162320
584.942	0.0163536
585.021	0.0162808
585.099	0.0163972
585.177	0.0162628
585.255	0.0162446
585.333	0.0163492
585.411	0.0162893
585.489	0.0162011
585.567	0.0162572
585.646	0.0161690
585.724	0.0162639
585.802	0.0162897
585.880	0.0160958
585.958	0.0160835
586.036	0.0162415
586.114	0.0162263
586.192	0.0161526
586.271	0.0161297
586.349	0.0160816
586.427	0.0161171
586.505	0.0162845
586.583	0.0160735
586.661	0.0160962
586.739	0.0160785
586.817	0.0160438
586.896	0.0161160
586.974	0.0161494
587.052	0.0161642
587.130	0.0161682
587.208	0.0162210
587.286	0.0161684
587.364	0.0160742
587.442	0.0160725
587.521	0.0161427
587.599	0.0161395
587.677	0.0161139
587.755	0.0161725
587.833	0.0161567
587.911	0.0162754
587.989	0.0160962
588.067	0.0161547
588.146	0.0161152
588.224	0.0161526
588.302	0.0160254
588.380	0.0161250
588.458	0.0161009
588.536	0.0160899
588.614	0.0162246
588.692	0.0162312
588.771	0.0163532
588.849	0.0162766
588.927	0.0161904
589.005	0.0163074
589.083	0.0162041
589.161	0.0161569
589.239	0.0163791
589.317	0.0162790
589.396	0.0161436
589.474	0.0162844
589.552	0.0162746
589.630	0.0162148
589.708	0.0163256
589.786	0.0162554
589.864	0.0162112
589.942	0.0162370
590.021	0.0162659
590.099	0.0164684
590.177	0.0161440
590.255	0.0161668
590.333	0.0164458
590.411	0.0163973
590.489	0.0162049
590.567	0.0164445
590.646	0.0162701
590.724	0.0163681
590.802	0.0163006
590.880	0.0163956
590.958	0.0162853
591.036	0.0164271
591.114	0.0164470
591.192	0.0164454
591.271	0.0165197
591.349	0.0163570
591.427	0.0163931
591.505	0.0162867
591.583	0.0164339
591.661	0.0163649
591.739	0.0163953
591.817	0.0165118
591.896	0.0164191
591.974	0.0165022
592.052	0.0164976
592.130	0.0164683
592.208	0.0164243
592.286	0.0163988
592.364	0.0165131
592.442	0.0164233
592.521	0.0163400
592.599	0.0165158
592.677	0.0163791
592.755	0.0165267
592.833	0.0164391
592.911	0.0164808
592.989	0.0163816
593.067	0.0164444
593.146	0.0164202
593.224	0.0164798
593.302	0.0165602
593.380	0.0165332
593.458	0.0164419
593.536	0.0164467
593.614	0.0165703
593.692	0.0165151
593.771	0.0164310
593.849	0.0162987
593.927	0.0165066
594.005	0.0164582
594.083	0.0164288
594.161	0.0165253
594.239	0.0163841
594.317	0.0163727
594.396	0.0164605
594.474	0.0163121
594.552	0.0163417
594.630	0.0163059
594.708	0.0164640
594.786	0.0162383
594.864	0.0162995
594.942	0.0163803
595.021	0.0163897
595.099	0.0164039
595.177	0.0164236
595.255	0.0163284
595.333	0.0163171
595.411	0.0163126
595.489	0.0162824
595.567	0.0162625
595.646	0.0163181
595.724	0.0163837
595.802	0.0163704
595.880	0.0163004
595.958	0.0164498
596.036	0.0164028
596.114	0.0163392
596.192	0.0162978
596.271	0.0163995
596.349	0.0163268
596.427	0.0162894
596.505	0.0163078
596.583	0.0163342
596.661	0.0163317
596.739	0.0163279
596.817	0.0163372
596.896	0.0163837
596.974	0.0162708
597.052	0.0163678
597.130	0.0163634
597.208	0.0163744
597.286	0.0162612
597.364	0.0162964
597.442	0.0163609
597.521	0.0162041
597.599	0.0164130
597.677	0.0162978
597.755	0.0163979
597.833	0.0161758
597.911	0.0161736
597.989	0.0164802
598.067	0.0164542
598.146	0.0164214
598.224	0.0163593
598.302	0.0162232
598.380	0.0163747
598.458	0.0163833
598.536	0.0163450
598.614	0.0163996
598.692	0.0163609
598.771	0.0163248
598.849	0.0163029
598.927	0.0162216
599.005	0.0163208
599.083	0.0163721
599.161	0.0164134
599.239	0.0163959
599.317	0.0161581
599.396	0.0162914
599.474	0.0161688
599.552	0.0163210
599.630	0.0163605
599.708	0.0162190
599.786	0.0161997
599.864	0.0164099
599.942	0.0162489
600.021	0.0163659
600.099	0.0163460
600.177	0.0162749
600.255	0.0165006
600.333	0.0164063
600.411	0.0163005
600.489	0.0162930
600.567	0.0163518
600.646	0.0163870
600.724	0.0164500
600.802	0.0164440
600.880	0.0163608
600.958	0.0163957
601.036	0.0163828
601.114	0.0164272
601.192	0.0164792
601.271	0.0164820
601.349	0.0162530
601.427	0.0164783
601.505	0.0165089
601.583	0.0164430
601.661	0.0164919
601.739	0.0163124
601.817	0.0163105
601.896	0.0164489
601.974	0.0165213
602.052	0.0165907
602.130	0.0164566
602.208	0.0163634
602.286	0.0164030
602.364	0.0164303
602.442	0.0164485
602.521	0.0165125
602.599	0.0164514
602.677	0.0164916
602.755	0.0165597
602.833	0.0165268
602.911	0.0165157
602.989	0.0164030
603.067	0.0164766
603.146	0.0163638
603.224	0.0164784
603.302	0.0165294
603.380	0.0165962
603.458	0.0165291
603.536	0.0167101
603.614	0.0164792
603.692	0.0165158
603.771	0.0165682
603.849	0.0165997
603.927	0.0165601
604.005	0.0165160
604.083	0.0164896
604.161	0.0165948
604.239	0.0166238
604.317	0.0165530
604.396	0.0165562
604.474	0.0164972
604.552	0.0165619
604.630	0.0165461
604.708	0.0165794
604.786	0.0166008
604.864	0.0165049
604.942	0.0165856
605.021	0.0165699
605.099	0.0165392
605.177	0.0164698
605.255	0.0164889
605.333	0.0165118
605.411	0.0166606
605.489	0.0164920
605.567	0.0165053
605.646	0.0164874
605.724	0.0165620
605.802	0.0165966
605.880	0.0165604
605.958	0.0164378
606.036	0.0164586
606.114	0.0164711
606.192	0.0163802
606.271	0.0164900
606.349	0.0163887
606.427	0.0162285
606.505	0.0164903
606.583	0.0164326
606.661	0.0163004
606.739	0.0165015
606.817	0.0163409
606.896	0.0163177
606.974	0.0162345
607.052	0.0162454
607.130	0.0160878
607.208	0.0163266
607.286	0.0164201
607.364	0.0162666
607.442	0.0161797
607.521	0.0163113
607.599	0.0161633
607.677	0.0163024
607.755	0.0162006
607.833	0.0162546
607.911	0.0163241
607.989	0.0162402
608.067	0.0162582
608.146	0.0162508
608.224	0.0162973
608.302	0.0163053
608.380	0.0162198
608.458	0.0162916
608.536	0.0162701
608.614	0.0163155
608.692	0.0161470
608.771	0.0161133
608.849	0.0164085
608.927	0.0163139
609.005	0.0163537
609.083	0.0162617
609.161	0.0161504
609.239	0.0161523
609.317	0.0161841
609.396	0.0162307
609.474	0.0162132
609.552	0.0162054
609.630	0.0162101
609.708	0.0162627
609.786	0.0162660
609.864	0.0162627
609.942	0.0161858
610.021	0.0162695
610.099	0.0160397
610.177	0.0162894
610.255	0.0161597
610.333	0.0162279
610.411	0.0162959
610.489	0.0162436
610.567	0.0162135
610.646	0.0160960
610.724	0.0162204
610.802	0.0162817
610.880	0.0161273
610.958	0.0162139
611.036	0.0162830
611.114	0.0163232
611.192	0.0162245
611.271	0.0162874
611.349	0.0162206
611.427	0.0161874
611.505	0.0162387
611.583	0.0162865
611.661	0.0163078
611.739	0.0163306
611.817	0.0163561
611.896	0.0162929
611.974	0.0163776
612.052	0.0161916
612.130	0.0163271
612.208	0.0163088
612.286	0.0163783
612.364	0.0162318
612.442	0.0164387
612.521	0.0163167
612.599	0.0164011
612.677	0.0164542
612.755	0.0163094
612.833	0.0162358
612.911	0.0163679
612.989	0.0164331
613.067	0.0163062
613.146	0.0164031
613.224	0.0163889
613.302	0.0164885
613.380	0.0164291
613.458	0.0162501
613.536	0.0162801
613.614	0.0163053
613.692	0.0163146
613.771	0.0164417
613.849	0.0163354
613.927	0.0163469
614.005	0.0164440
614.083	0.0163283
614.161	0.0163984
614.239	0.0164111
614.317	0.0163197
614.396	0.0164018
614.474	0.0164113
614.552	0.0163585
614.630	0.0162921
614.708	0.0164017
614.786	0.0163783
614.864	0.0162913
614.942	0.0163521
615.021	0.0165297
615.099	0.0164020
615.177	0.0162967
615.255	0.0164450
615.333	0.0163807
615.411	0.0164816
615.489	0.0164113
615.567	0.0164565
615.646	0.0163792
615.724	0.0164766
615.802	0.0164465
615.880	0.0165386
615.958	0.0164617
616.036	0.0163895
616.114	0.0163293
616.192	0.0164890
616.271	0.0164851
616.349	0.0164230
616.427	0.0164343
616.505	0.0164491
616.583	0.0164951
616.661	0.0165915
616.739	0.0164247
616.817	0.0163844
616.896	0.0165170
616.974	0.0164830
617.052	0.0165276
617.130	0.0163815
617.208	0.0163807
617.286	0.0165556
617.364	0.0164577
617.442	0.0164626
617.521	0.0164499
617.599	0.0165768
617.677	0.0165327
617.755	0.0166316
617.833	0.0163526
617.911	0.0162148
617.989	0.0163415
618.067	0.0165189
618.146	0.0164160
618.224	0.0165167
618.302	0.0165413
618.380	0.0164870
618.458	0.0164238
618.536	0.0165243
618.614	0.0164781
618.692	0.0164989
618.771	0.0164253
618.849	0.0165507
618.927	0.0165090
619.005	0.0165813
619.083	0.0164817
619.161	0.0163998
619.239	0.0164100
619.317	0.0165591
619.396	0.0164555
619.474	0.0164088
619.552	0.0163708
619.630	0.0165428
619.708	0.0165015
619.786	0.0163827
619.864	0.0165788
619.942	0.0164151
620.021	0.0164442
620.099	0.0164259
620.177	0.0166132
620.255	0.0165261
620.333	0.0164544
620.411	0.0165810
620.489	0.0164883
620.567	0.0165282
620.646	0.0164919
620.724	0.0165649
620.802	0.0165391
620.880	0.0165672
620.958	0.0165321
621.036	0.0165854
621.114	0.0165194
621.192	0.0165205
621.271	0.0164363
621.349	0.0164540
621.427	0.0164535
621.505	0.0164945
621.583	0.0166119
621.661	0.0164979
621.739	0.0165165
621.817	0.0165657
621.896	0.0165063
621.974	0.0163050
622.052	0.0164563
622.130	0.0164516
622.208	0.0163806
622.286	0.0162585
622.364	0.0164026
622.442	0.0164611
622.521	0.0162607
622.599	0.0162608
622.677	0.0163142
622.755	0.0163905
622.833	0.0164448
622.911	0.0164716
622.989	0.0162468
623.067	0.0162862
623.146	0.0163157
623.224	0.0162080
623.302	0.0163380
623.380	0.0163395
623.458	0.0163256
623.536	0.0162585
623.614	0.0162089
623.692	0.0163564
623.771	0.0162644
623.849	0.0163301
623.927	0.0164565
624.005	0.0163519
624.083	0.0163280
624.161	0.0163223
624.239	0.0163076
624.317	0.0163454
624.396	0.0162416
624.474	0.0164481
624.552	0.0162763
624.630	0.0162749
624.708	0.0162918
624.786	0.0163087
624.864	0.0163943
624.942	0.0163548
625.021	0.0164185
625.099	0.0163528
625.177	0.0162928
625.255	0.0163770
625.333	0.0165172
625.411	0.0163891
625.489	0.0163365
625.567	0.0163245
625.646	0.0163778
625.724	0.0164234
625.802	0.0164312
625.880	0.0164193
625.958	0.0163875
626.036	0.0165113
626.114	0.0164075
626.192	0.0163920
626.271	0.0164452
626.349	0.0164751
626.427	0.0164076
626.505	0.0164398
626.583	0.0164669
626.661	0.0163899
626.739	0.0163945
626.817	0.0164381
626.896	0.0165475
626.974	0.0164779
627.052	0.0164741
627.130	0.0165620
627.208	0.0163423
627.286	0.0165248
627.364	0.0164240
627.442	0.0163695
627.521	0.0164726
627.599	0.0164854
627.677	0.0164751
627.755	0.0163631
627.833	0.0164774
627.911	0.0164200
627.989	0.0165321
628.067	0.0165537
628.146	0.0164641
628.224	0.0165057
628.302	0.0164690
628.380	0.0165215
628.458	0.0165500
628.536	0.0163918
628.614	0.0163973
628.692	0.0165099
628.771	0.0164120
628.849	0.0165068
628.927	0.0164750
629.005	0.0166882
629.083	0.0165304
629.161	0.0165325
629.239	0.0165141
629.317	0.0165260
629.396	0.0166044
629.474	0.0164581
629.552	0.0163724
629.630	0.0164641
629.708	0.0165385
629.786	0.0166193
629.864	0.0164495
629.942	0.0164774
630.021	0.0165121
630.099	0.0163669
630.177	0.0164900
630.255	0.0165201
630.333	0.0163250
630.411	0.0164280
630.489	0.0164225
630.567	0.0163441
630.646	0.0164011
630.724	0.0163907
630.802	0.0163738
630.880	0.0165150
630.958	0.0163835
631.036	0.0164396
631.114	0.0163745
631.192	0.0165720
631.271	0.0163795
631.349	0.0163223
631.427	0.0162720
631.505	0.0163348
631.583	0.0164273
631.661	0.0163598
631.739	0.0163580
631.817	0.0164319
631.896	0.0162874
631.974	0.0162188
632.052	0.0162996
632.130	0.0163621
632.208	0.0162618
632.286	0.0163512
632.364	0.0161860
632.442	0.0162501
632.521	0.0161187
632.599	0.0161573
632.677	0.0162236
632.755	0.0161470
632.833	0.0164107
632.911	0.0162319
632.989	0.0161612
633.067	0.0162096
633.146	0.0162242
633.224	0.0162158
633.302	0.0160892
633.380	0.0161585
633.458	0.0162556
633.536	0.0162452
633.614	0.0160926
633.692	0.0162993
633.771	0.0160700
633.849	0.0161023
633.927	0.0161943
634.005	0.0161106
634.083	0.0162281
634.161	0.0161971
634.239	0.0161784
634.317	0.0161978
634.396	0.0162779
634.474	0.0162205
634.552	0.0162578
634.630	0.0162968
634.708	0.0162834
634.786	0.0162433
634.864	0.0163219
634.942	0.0162411
635.021	0.0164070
635.099	0.0163363
635.177	0.0164753
635.255	0.0163602
635.333	0.0163872
635.411	0.0163338
635.489	0.0163062
635.567	0.0163174
635.646	0.0162151
635.724	0.0161672
635.802	0.0163787
635.880	0.0164547
635.958	0.0164195
636.036	0.0163948
636.114	0.0162860
636.192	0.0162134
636.271	0.0165038
636.349	0.0163934
636.427	0.0164647
636.505	0.0163903
636.583	0.0163573
636.661	0.0163564
636.739	0.0164426
636.817	0.0164498
636.896	0.0165930
636.974	0.0165157
637.052	0.0165143
637.130	0.0165436
637.208	0.0165110
637.286	0.0165264
637.364	0.0164785
637.442	0.0164542
637.521	0.0165405
637.599	0.0165262
637.677	0.0166390
637.755	0.0164377
637.833	0.0164753
637.911	0.0165970
637.989	0.0165057
638.067	0.0164198
638.146	0.0165269
638.224	0.0164923
638.302	0.0163934
638.380	0.0164674
638.458	0.0164854
638.536	0.0163793
638.614	0.0163253
638.692	0.0162830
638.771	0.0163335
638.849	0.0164059
638.927	0.0163666
639.005	0.0164189
639.083	0.0163707
639.161	0.0163545
639.239	0.0164418
639.317	0.0163395
639.396	0.0164837
639.474	0.0163479
639.552	0.0164761
639.630	0.0164100
639.708	0.0164368
639.786	0.0163040
639.864	0.0164084
639.942	0.0165004
640.021	0.0164436
640.099	0.0164172
640.177	0.0163194
640.255	0.0164336
640.333	0.0162273
640.411	0.0163383
640.489	0.0162403
640.567	0.0162992
640.646	0.0161995
640.724	0.0162907
640.802	0.0161820
640.880	0.0161208
640.958	0.0162979
641.036	0.0162331
641.114	0.0163403
641.192	0.0164133
641.271	0.0163512
641.349	0.0162841
641.427	0.0161586
641.505	0.0162575
641.583	0.0162525
641.661	0.0163536
641.739	0.0162309
641.817	0.0164535
641.896	0.0161198
641.974	0.0161394
642.052	0.0163174
642.130	0.0162557
642.208	0.0161488
642.286	0.0162211
642.364	0.0161528
642.442	0.0161749
642.521	0.0162530
642.599	0.0163236
642.677	0.0162042
642.755	0.0162223
642.833	0.0161098
642.911	0.0161541
642.989	0.0163312
643.067	0.0163029
643.146	0.0162561
643.224	0.0162375
643.302	0.0162385
643.380	0.0161303
643.458	0.0163675
643.536	0.0162682
643.614	0.0162864
643.692	0.0163219
643.771	0.0162942
643.849	0.0162464
643.927	0.0163253
644.005	0.0163534
644.083	0.0162807
644.161	0.0164306
644.239	0.0164362
644.317	0.0163220
644.396	0.0161762
644.474	0.0163871
644.552	0.0165292
644.630	0.0163260
644.708	0.0163422
644.786	0.0163512
644.864	0.0163866
644.942	0.0163157
645.021	0.0164377
645.099	0.0163148
645.177	0.0162947
645.255	0.0164091
645.333	0.0163353
645.411	0.0162649
645.489	0.0164426
645.567	0.0162413
645.646	0.0163661
645.724	0.0163987
645.802	0.0164318
645.880	0.0164046
645.958	0.0163713
646.036	0.0163396
646.114	0.0164745
646.192	0.0163820
646.271	0.0163637
646.349	0.0163751
646.427	0.0162981
646.505	0.0163713
646.583	0.0162840
646.661	0.0161305
646.739	0.0164071
646.817	0.0162584
646.896	0.0162648
646.974	0.0164323
647.052	0.0162267
647.130	0.0161140
647.208	0.0162617
647.286	0.0162914
647.364	0.0161381
647.442	0.0161338
647.521	0.0162984
647.599	0.0162321
647.677	0.0163210
647.755	0.0162268
647.833	0.0162894
647.911	0.0162635
647.989	0.0162238
648.067	0.0163330
648.146	0.0163006
648.224	0.0162175
648.302	0.0162234
648.380	0.0163927
648.458	0.0162965
648.536	0.0162321
648.614	0.0163157
648.692	0.0163949
648.771	0.0163381
648.849	0.0164423
648.927	0.0161579
649.005	0.0165243
649.083	0.0162720
649.161	0.0163231
649.239	0.0163013
649.317	0.0164938
649.396	0.0163425
649.474	0.0163860
649.552	0.0164212
649.630	0.0165382
649.708	0.0164531
649.786	0.0162905
649.864	0.0163459
649.942	0.0164394
650.021	0.0165495
650.099	0.0164571
650.177	0.0164034
650.255	0.0164797
650.333	0.0164456
650.411	0.0165728
650.489	0.0166368
650.567	0.0164825
650.646	0.0164915
650.724	0.0163189
650.802	0.0165015
650.880	0.0165607
650.958	0.0164263
651.036	0.0164644
651.114	0.0166942
651.192	0.0164404
651.271	0.0163323
651.349	0.0163842
651.427	0.0164768
651.505	0.0166060
651.583	0.0164034
651.661	0.0163350
651.739	0.0164197
651.817	0.0165303
651.896	0.0164978
651.974	0.0164775
652.052	0.0164989
652.130	0.0165990
652.208	0.0165466
652.286	0.0165113
652.364	0.0164412
652.442	0.0166605
652.521	0.0166734
652.599	0.0166541
652.677	0.0167331
652.755	0.0167006
652.833	0.0164774
652.911	0.0165305
652.989	0.0166648
653.067	0.0164433
653.146	0.0165588
653.224	0.0163357
653.302	0.0165366
653.380	0.0165665
653.458	0.0165864
653.536	0.0163348
653.614	0.0163942
653.692	0.0164508
653.771	0.0163075
653.849	0.0162794
653.927	0.0163516
654.005	0.0163267
654.083	0.0162071
654.161	0.0163184
654.239	0.0161550
654.317	0.0163294
654.396	0.0163465
654.474	0.0162570
654.552	0.0163631
654.630	0.0163074
654.708	0.0163260
654.786	0.0163380
654.864	0.0162599
654.942	0.0163819
655.021	0.0163750
655.099	0.0164154
655.177	0.0165755
655.255	0.0164047
655.333	0.0163770
655.411	0.0165020
655.489	0.0164738
655.567	0.0163081
655.646	0.0164161
655.724	0.0164007
655.802	0.0162743
655.880	0.0163473
655.958	0.0163117
656.036	0.0163451
656.114	0.0164248
656.192	0.0163419
656.271	0.0161514
656.349	0.0162099
656.427	0.0163375
656.505	0.0163226
656.583	0.0161136
656.661	0.0160775
656.739	0.0160973
656.817	0.0161668
656.896	0.0160551
656.974	0.0160508
657.052	0.0161805
657.130	0.0160928
657.208	0.0161448
657.286	0.0161283
657.364	0.0160753
657.442	0.0161686
657.521	0.0162563
657.599	0.0161295
657.677	0.0160876
657.755	0.0162949
657.833	0.0161452
657.911	0.0161793
657.989	0.0161396
658.067	0.0162421
658.146	0.0162160
658.224	0.0161511
658.302	0.0162925
658.380	0.0162658
658.458	0.0162456
658.536	0.0162356
658.614	0.0162110
658.692	0.0161333
658.771	0.0161233
658.849	0.0161127
658.927	0.0161414
659.005	0.0160558
659.083	0.0160452
659.161	0.0161817
659.239	0.0161773
659.317	0.0160307
659.396	0.0161411
659.474	0.0160414
659.552	0.0161494
659.630	0.0161362
659.708	0.0162361
659.786	0.0162520
659.864	0.0161742
659.942	0.0162170
660.021	0.0161427
660.099	0.0162946
660.177	0.0162771
660.255	0.0161656
660.333	0.0162476
660.411	0.0162843
660.489	0.0161832
660.567	0.0162556
660.646	0.0161373
660.724	0.0162685
660.802	0.0161703
660.880	0.0162751
660.958	0.0162555
661.036	0.0162104
661.114	0.0161980
661.192	0.0162882
661.271	0.0164049
661.349	0.0163007
661.427	0.0163079
661.505	0.0162129
661.583	0.0164532
661.661	0.0164512
661.739	0.0163351
661.817	0.0163800
661.896	0.0162956
661.974	0.0164327
662.052	0.0164905
662.130	0.0162991
662.208	0.0163331
662.286	0.0163485
662.364	0.0163751
662.442	0.0163081
662.521	0.0161838
662.599	0.0163233
662.677	0.0163409
662.755	0.0161324
662.833	0.0163805
662.911	0.0163616
662.989	0.0162161
663.067	0.0162044
663.146	0.0163000
663.224	0.0161607
663.302	0.0161833
663.380	0.0162424
663.458	0.0162688
663.536	0.0162408
663.614	0.0163144
663.692	0.0162462
663.771	0.0162818
663.849	0.0162081
663.927	0.0161084
664.005	0.0161736
664.083	0.0161465
664.161	0.0161782
664.239	0.0160767
664.317	0.0160884
664.396	0.0160170
664.474	0.0160256
664.552	0.0160548
664.630	0.0159084
664.708	0.0160377
664.786	0.0160565
664.864	0.0161046
664.942	0.0160365
665.021	0.0161547
665.099	0.0161407
665.177	0.0161581
665.255	0.0161581
665.333	0.0162363
665.411	0.0161663
665.489	0.0160638
665.567	0.0160433
665.646	0.0162375
665.724	0.0161726
665.802	0.0161015
665.880	0.0161305
665.958	0.0162060
666.036	0.0162122
666.114	0.0162038
666.192	0.0162339
666.271	0.0163303
666.349	0.0162219
666.427	0.0163667
666.505	0.0163244
666.583	0.0162270
666.661	0.0162265
666.739	0.0163663
666.817	0.0163216
666.896	0.0162411
666.974	0.0161591
667.052	0.0162834
667.130	0.0164102
667.208	0.0164043
667.286	0.0162958
667.364	0.0163811
667.442	0.0164503
667.521	0.0164134
667.599	0.0163576
667.677	0.0162962
667.755	0.0164167
667.833	0.0164425
667.911	0.0164042
667.989	0.0162486
668.067	0.0163770
668.146	0.0164156
668.224	0.0163968
668.302	0.0164325
668.380	0.0163797
668.458	0.0163113
668.536	0.0164613
668.614	0.0163637
668.692	0.0164906
668.771	0.0164557
668.849	0.0162936
668.927	0.0163984
669.005	0.0165408
669.083	0.0164157
669.161	0.0163684
669.239	0.0164106
669.317	0.0164175
669.396	0.0165012
669.474	0.0163069
669.552	0.0164443
669.630	0.0163623
669.708	0.0162978
669.786	0.0164012
669.864	0.0163087
669.942	0.0162737
670.021	0.0163074
670.099	0.0165110
670.177	0.0163223
670.255	0.0162875
670.333	0.0164418
670.411	0.0163868
670.489	0.0163578
670.567	0.0163885
670.646	0.0162963
670.724	0.0163367
670.802	0.0163728
670.880	0.0162567
670.958	0.0162296
671.036	0.0164783
671.114	0.0164269
671.192	0.0163447
671.271	0.0164432
671.349	0.0164195
671.427	0.0163094
671.505	0.0163906
671.583	0.0163894
671.661	0.0164399
671.739	0.0163586
671.817	0.0164172
671.896	0.0163639
671.974	0.0165240
672.052	0.0163885
672.130	0.0163889
672.208	0.0163196
672.286	0.0162389
672.364	0.0163010
672.442	0.0163311
672.521	0.0163415
672.599	0.0163515
672.677	0.0164872
672.755	0.0163597
672.833	0.0164027
672.911	0.0164059
672.989	0.0163380
673.067	0.0164071
673.146	0.0163296
673.224	0.0164857
673.302	0.0165089
673.380	0.0164150
673.458	0.0162274
673.536	0.0163402
673.614	0.0165002
673.692	0.0164592
673.771	0.0163506
673.849	0.0164793
673.927	0.0163258
674.005	0.0165719
674.083	0.0166124
674.161	0.0165047
674.239	0.0164645
674.317	0.0164426
674.396	0.0165372
674.474	0.0164933
674.552	0.0165289
674.630	0.0163959
674.708	0.0164253
674.786	0.0164553
674.864	0.0164112
674.942	0.0163985
675.021	0.0164344
675.099	0.0163918
675.177	0.0162933
675.255	0.0164030
675.333	0.0164658
675.411	0.0163785
675.489	0.0162619
675.567	0.0162421
675.646	0.0163361
675.724	0.0162703
675.802	0.0163322
675.880	0.0163828
675.958	0.0163263
676.036	0.0162940
676.114	0.0162362
676.192	0.0162067
676.271	0.0163179
676.349	0.0163719
676.427	0.0162902
676.505	0.0162073
676.583	0.0163097
676.661	0.0161749
676.739	0.0164534
676.817	0.0162781
676.896	0.0162761
676.974	0.0162687
677.052	0.0163220
677.130	0.0163171
677.208	0.0163194
677.286	0.0163356
677.364	0.0162868
677.442	0.0163316
677.521	0.0162821
677.599	0.0163653
677.677	0.0164239
677.755	0.0164482
677.833	0.0163719
677.911	0.0165070
677.989	0.0164356
678.067	0.0163995
678.146	0.0164576
678.224	0.0164391
678.302	0.0164677
678.380	0.0164854
678.458	0.0166308
678.536	0.0165752
678.614	0.0164812
678.692	0.0165239
678.771	0.0165747
678.849	0.0165040
678.927	0.0164497
679.005	0.0165662
679.083	0.0165643
679.161	0.0164442
679.239	0.0165893
679.317	0.0163603
679.396	0.0163077
679.474	0.0163257
679.552	0.0164042
679.630	0.0165162
679.708	0.0163486
679.786	0.0164674
679.864	0.0163506
679.942	0.0163721
680.021	0.0162683
680.099	0.0162595
680.177	0.0162369
680.255	0.0162936
680.333	0.0164159
680.411	0.0163803
680.489	0.0162807
680.567	0.0164132
680.646	0.0165602
680.724	0.0163268
680.802	0.0164333
680.880	0.0163770
680.958	0.0163457
681.036	0.0163931
681.114	0.0163934
681.192	0.0162873
681.271	0.0164303
681.349	0.0165357
681.427	0.0165053
681.505	0.0164426
681.583	0.0163408
681.661	0.0164446
681.739	0.0164251
681.817	0.0164812
681.896	0.0163875
681.974	0.0163445
682.052	0.0163817
682.130	0.0163493
682.208	0.0162632
682.286	0.0163672
682.364	0.0162368
682.442	0.0163536
682.521	0.0163271
682.599	0.0161206
682.677	0.0161281
682.755	0.0162102
682.833	0.0162598
682.911	0.0161848
682.989	0.0161470
683.067	0.0159975
683.146	0.0160776
683.224	0.0161302
683.302	0.0160867
683.380	0.0160006
683.458	0.0161588
683.536	0.0161716
683.614	0.0160630
683.692	0.0160400
683.771	0.0161462
683.849	0.0161761
683.927	0.0162341
684.005	0.0162308
684.083	0.0162598
684.161	0.0163468
684.239	0.0163534
684.317	0.0161691
684.396	0.0163747
684.474	0.0165266
684.552	0.0163945
684.630	0.0162331
684.708	0.0165520
684.786	0.0163310
684.864	0.0163442
684.942	0.0164157
685.021	0.0163126
685.099	0.0163366
685.177	0.0164079
685.255	0.0162965
685.333	0.0164957
685.411	0.0163520
685.489	0.0163275
685.567	0.0165369
685.646	0.0163336
685.724	0.0162105
685.802	0.0164354
685.880	0.0162686
685.958	0.0162114
686.036	0.0162476
686.114	0.0162048
686.192	0.0162608
686.271	0.0162503
686.349	0.0163483
686.427	0.0163800
686.505	0.0163692
686.583	0.0162235
686.661	0.0161877
686.739	0.0161256
686.817	0.0160727
686.896	0.0161415
686.974	0.0161773
687.052	0.0163062
687.130	0.0161870
687.208	0.0161709
687.286	0.0160931
687.364	0.0160896
687.442	0.0162419
687.521	0.0163511
687.599	0.0162049
687.677	0.0162688
687.755	0.0162366
687.833	0.0163351
687.911	0.0162514
687.989	0.0163055
688.067	0.0163985
688.146	0.0163236
688.224	0.0162033
688.302	0.0161852
688.380	0.0163423
688.458	0.0163565
688.536	0.0163163
688.614	0.0163676
688.692	0.0162897
688.771	0.0164502
688.849	0.0163651
688.927	0.0164422
689.005	0.0164759
689.083	0.0163762
689.161	0.0163368
689.239	0.0163602
689.317	0.0165414
689.396	0.0163229
689.474	0.0163053
689.552	0.0165488
689.630	0.0164819
689.708	0.0163659
689.786	0.0164317
689.864	0.0165013
689.942	0.0165055
690.021	0.0164288
690.099	0.0165253
690.177	0.0164094
690.255	0.0164616
690.333	0.0163998
690.411	0.0163247
690.489	0.0165691
690.567	0.0164355
690.646	0.0163895
690.724	0.0164530
690.802	0.0164179
690.880	0.0164693
690.958	0.0164619
691.036	0.0164261
691.114	0.0163151
691.192	0.0164240
691.271	0.0163799
691.349	0.0163257
691.427	0.0165974
691.505	0.0164378
691.583	0.0165045
691.661	0.0166066
691.739	0.0165810
691.817	0.0165246
691.896	0.0165989
691.974	0.0165556
692.052	0.0166621
692.130	0.0166860
692.208	0.0166971
692.286	0.0167072
692.364	0.0165832
692.442	0.0166420
692.521	0.0165702
692.599	0.0164762
692.677	0.0166161
692.755	0.0167757
692.833	0.0165868
692.911	0.0166763
692.989	0.0165974
693.067	0.0165418
693.146	0.0165486
693.224	0.0166251
693.302	0.0165058
693.380	0.0165245
693.458	0.0165395
693.536	0.0166557
693.614	0.0165873
693.692	0.0165394
693.771	0.0166670
693.849	0.0166529
693.927	0.0164684
694.005	0.0164853
694.083	0.0164847
694.161	0.0165113
694.239	0.0166345
694.317	0.0164976
694.396	0.0164585
694.474	0.0165301
694.552	0.0165603
694.630	0.0164523
694.708	0.0165899
694.786	0.0165809
694.864	0.0167386
694.942	0.0166982
695.021	0.0167783
695.099	0.0167408
695.177	0.0167934
695.255	0.0165916
695.333	0.0166186
695.411	0.0166090
695.489	0.0168132
695.567	0.0166913
695.646	0.0166630
695.724	0.0166681
695.802	0.0166812
695.880	0.0166967
695.958	0.0168140
696.036	0.0166039
696.114	0.0167140
696.192	0.0166656
696.271	0.0167205
696.349	0.0164686
696.427	0.0165480
696.505	0.0165769
696.583	0.0166790
696.661	0.0165278
696.739	0.0164728
696.817	0.0165379
696.896	0.0165789
696.974	0.0165505
697.052	0.0165045
697.130	0.0164664
697.208	0.0165151
697.286	0.0164377
697.364	0.0164225
697.442	0.0163531
697.521	0.0163199
697.599	0.0164389
697.677	0.0163356
697.755	0.0164022
697.833	0.0164095
697.911	0.0163990
697.989	0.0163613
698.067	0.0161945
698.146	0.0163200
698.224	0.0162496
698.302	0.0163641
698.380	0.0161727
698.458	0.0162363
698.536	0.0164066
698.614	0.0162991
698.692	0.0163100
698.771	0.0161683
698.849	0.0162077
698.927	0.0163426
699.005	0.0161822
699.083	0.0163066
699.161	0.0162646
699.239	0.0162180
699.317	0.0162324
699.396	0.0163409
699.474	0.0163839
699.552	0.0162676
699.630	0.0162149
699.708	0.0162054
699.786	0.0163451
699.864	0.0162702
699.942	0.0163110
700.021	0.0162683
700.099	0.0164333
700.177	0.0164192
700.255	0.0165075
700.333	0.0164094
700.411	0.0164435
700.489	0.0166363
700.567	0.0166346
700.646	0.0164922
700.724	0.0165089
700.802	0.0163275
700.880	0.0166370
700.958	0.0164700
701.036	0.0164556
701.114	0.0166185
701.192	0.0164690
701.271	0.0164443
701.349	0.0166769
701.427	0.0166058
701.505	0.0164948
701.583	0.0164792
701.661	0.0162706
701.739	0.0163085
701.817	0.0163860
701.896	0.0164445
701.974	0.0163512
702.052	0.0163610
702.130	0.0163757
702.208	0.0163877
702.286	0.0164294
702.364	0.0164259
702.442	0.0163303
702.521	0.0162917
702.599	0.0164059
702.677	0.0163562
702.755	0.0163837
702.833	0.0164557
702.911	0.0164692
702.989	0.0164246
703.067	0.0163791
703.146	0.0166097
703.224	0.0164597
703.302	0.0163785
703.380	0.0162463
703.458	0.0164447
703.536	0.0164729
703.614	0.0164635
703.692	0.0165408
703.771	0.0164216
703.849	0.0163268
703.927	0.0164014
704.005	0.0165173
704.083	0.0163651
704.161	0.0163567
704.239	0.0161983
704.317	0.0163699
704.396	0.0163290
704.474	0.0162784
704.552	0.0162697
704.630	0.0163642
704.708	0.0162052
704.786	0.0160916
704.864	0.0162289
704.942	0.0162643
705.021	0.0161272
705.099	0.0162067
705.177	0.0163160
705.255	0.0162542
705.333	0.0161679
705.411	0.0162801
705.489	0.0163097
705.567	0.0164133
705.646	0.0163564
705.724	0.0162796
705.802	0.0162804
705.880	0.0164799
705.958	0.0164793
706.036	0.0163026
706.114	0.0164096
706.192	0.0163682
706.271	0.0163773
706.349	0.0164537
706.427	0.0161890
706.505	0.0164471
706.583	0.0163295
706.661	0.0163113
706.739	0.0164060
706.817	0.0164009
706.896	0.0163789
706.974	0.0163403
707.052	0.0164398
707.130	0.0164424
707.208	0.0164868
707.286	0.0164315
707.364	0.0163136
707.442	0.0164732
707.521	0.0164994
707.599	0.0164622
707.677	0.0165115
707.755	0.0164682
707.833	0.0163825
707.911	0.0164516
707.989	0.0164695
708.067	0.0164491
708.146	0.0164240
708.224	0.0164783
708.302	0.0165369
708.380	0.0165324
708.458	0.0164720
708.536	0.0165616
708.614	0.0165641
708.692	0.0165070
708.771	0.0164223
708.849	0.0164449
708.927	0.0162962
709.005	0.0164945
709.083	0.0164906
709.161	0.0163345
709.239	0.0163589
709.317	0.0164539
709.396	0.0164617
709.474	0.0165888
709.552	0.0163070
709.630	0.0163435
709.708	0.0164669
709.786	0.0163950
709.864	0.0162883
709.942	0.0162929
710.021	0.0163812
710.099	0.0161701
710.177	0.0162610
710.255	0.0163586
710.333	0.0163940
710.411	0.0163321
710.489	0.0162297
710.567	0.0162134
710.646	0.0162225
710.724	0.0161388
710.802	0.0161641
710.880	0.0162955
710.958	0.0161883
711.036	0.0161489
711.114	0.0162206
711.192	0.0161266
711.271	0.0162405
711.349	0.0162907
711.427	0.0161644
711.505	0.0163039
711.583	0.0162294
711.661	0.0162143
711.739	0.0162775
711.817	0.0162663
711.896	0.0162669
711.974	0.0163299
712.052	0.0162933
712.130	0.0163358
712.208	0.0164353
712.286	0.0163468
712.364	0.0163026
712.442	0.0164650
712.521	0.0164213
712.599	0.0163599
712.677	0.0162981
712.755	0.0164046
712.833	0.0163141
712.911	0.0163882
712.989	0.0163454
713.067	0.0163542
713.146	0.0162976
713.224	0.0164681
713.302	0.0162739
713.380	0.0163097
713.458	0.0162455
713.536	0.0161884
713.614	0.0163445
713.692	0.0162959
713.771	0.0162154
713.849	0.0161530
713.927	0.0162273
714.005	0.0162896
714.083	0.0161722
714.161	0.0162252
714.239	0.0160780
714.317	0.0162890
714.396	0.0163236
714.474	0.0161218
714.552	0.0162469
714.630	0.0162302
714.708	0.0162425
714.786	0.0162762
714.864	0.0164030
714.942	0.0162601
715.021	0.0161563
715.099	0.0162402
715.177	0.0162205
715.255	0.0162612
715.333	0.0163514
715.411	0.0164460
715.489	0.0162905
715.567	0.0162739
715.646	0.0163170
715.724	0.0163548
715.802	0.0164452
715.880	0.0165199
715.958	0.0164892
716.036	0.0165489
716.114	0.0165874
716.192	0.0164509
716.271	0.0166253
716.349	0.0165168
716.427	0.0164452
716.505	0.0165346
716.583	0.0164278
716.661	0.0165012
716.739	0.0165131
716.817	0.0165851
716.896	0.0166423
716.974	0.0166782
717.052	0.0166031
717.130	0.0165835
717.208	0.0166597
717.286	0.0164137
717.364	0.0164400
717.442	0.0166264
717.521	0.0164896
717.599	0.0165170
717.677	0.0163895
717.755	0.0164989
717.833	0.0165960
717.911	0.0165696
717.989	0.0165714
718.067	0.0165023
718.146	0.0165721
718.224	0.0165955
718.302	0.0165027
718.380	0.0164652
718.458	0.0165010
718.536	0.0165137
718.614	0.0165780
718.692	0.0165150
718.771	0.0165726
718.849	0.0167263
718.927	0.0166199
719.005	0.0166865
719.083	0.0165220
719.161	0.0165171
719.239	0.0165839
719.317	0.0165744
719.396	0.0165116
719.474	0.0165907
719.552	0.0164630
719.630	0.0166244
719.708	0.0165363
719.786	0.0165723
719.864	0.0164040
719.942	0.0165182
720.021	0.0162789
720.099	0.0165004
720.177	0.0163660
720.255	0.0163422
720.333	0.0163671
720.411	0.0162820
720.489	0.0162416
720.567	0.0163042
720.646	0.0162513
720.724	0.0162389
720.802	0.0163355
720.880	0.0163292
720.958	0.0163106
721.036	0.0162727
721.114	0.0163713
721.192	0.0163864
721.271	0.0164522
721.349	0.0163412
721.427	0.0164516
721.505	0.0163763
721.583	0.0164790
721.661	0.0163620
721.739	0.0164059
721.817	0.0164134
721.896	0.0163680
721.974	0.0164741
722.052	0.0163738
722.130	0.0162865
722.208	0.0163609
722.286	0.0163065
722.364	0.0163397
722.442	0.0163055
722.521	0.0163057
722.599	0.0162453
722.677	0.0163219
722.755	0.0163635
722.833	0.0162996
722.911	0.0161451
722.989	0.0163682
723.067	0.0163186
723.146	0.0162299
723.224	0.0161968
723.302	0.0161587
723.380	0.0161842
723.458	0.0163840
723.536	0.0163461
723.614	0.0163614
723.692	0.0164925
723.771	0.0164414
723.849	0.0163595
723.927	0.0164646
724.005	0.0164900
724.083	0.0164804
724.161	0.0164105
724.239	0.0164076
724.317	0.0165038
724.396	0.0165179
724.474	0.0164063
724.552	0.0163595
724.630	0.0165183
724.708	0.0164155
724.786	0.0164677
724.864	0.0164166
724.942	0.0163594
725.021	0.0162990
725.099	0.0163545
725.177	0.0162817
725.255	0.0163438
725.333	0.0162186
725.411	0.0163042
725.489	0.0162377
725.567	0.0161781
725.646	0.0162908
725.724	0.0161826
725.802	0.0160609
725.880	0.0161871
725.958	0.0160487
726.036	0.0162044
726.114	0.0161054
726.192	0.0161280
726.271	0.0160935
726.349	0.0162215
726.427	0.0161330
726.505	0.0160873
726.583	0.0162415
726.661	0.0161709
726.739	0.0161828
726.817	0.0162883
726.896	0.0160145
726.974	0.0162695
727.052	0.0161778
727.130	0.0160941
727.208	0.0161195
727.286	0.0162950
727.364	0.0162989
727.442	0.0162862
727.521	0.0162793
727.599	0.0163445
727.677	0.0163734
727.755	0.0162406
727.833	0.0161964
727.911	0.0162551
727.989	0.0163125
728.067	0.0162591
728.146	0.0161873
728.224	0.0162502
728.302	0.0162096
728.380	0.0161755
728.458	0.0161987
728.536	0.0161627
728.614	0.0163036
728.692	0.0161910
728.771	0.0164081
728.849	0.0163351
728.927	0.0161138
729.005	0.0163427
729.083	0.0162465
729.161	0.0162720
729.239	0.0163232
729.317	0.0163114
729.396	0.0161375
729.474	0.0162904
729.552	0.0162061
729.630	0.0162891
729.708	0.0161901
729.786	0.0161912
729.864	0.0162832
729.942	0.0162894
730.021	0.0162654
730.099	0.0163010
730.177	0.0162363
730.255	0.0162367
730.333	0.0161212
730.411	0.0162962
730.489	0.0162415
730.567	0.0162991
730.646	0.0162352
730.724	0.0163383
730.802	0.0163026
730.880	0.0161852
730.958	0.0162695
731.036	0.0162704
731.114	0.0164243
731.192	0.0162302
731.271	0.0160682
731.349	0.0161366
731.427	0.0162315
731.505	0.0160464
731.583	0.0160124
731.661	0.0161232
731.739	0.0161192
731.817	0.0159834
731.896	0.0160159
731.974	0.0160445
732.052	0.0161454
732.130	0.0159938
732.208	0.0162300
732.286	0.0161020
732.364	0.0161234
732.442	0.0161211
732.521	0.0162241
732.599	0.0161926
732.677	0.0160587
732.755	0.0162606
732.833	0.0162676
732.911	0.0162681
732.989	0.0162844
733.067	0.0162639
733.146	0.0162581
733.224	0.0163274
733.302	0.0164148
733.380	0.0161918
733.458	0.0161483
733.536	0.0162565
733.614	0.0161256
733.692	0.0162269
733.771	0.0162306
733.849	0.0161518
733.927	0.0161447
734.005	0.0162077
734.083	0.0162654
734.161	0.0162344
734.239	0.0162300
734.317	0.0163134
734.396	0.0161576
734.474	0.0162393
734.552	0.0162759
734.630	0.0161488
734.708	0.0161604
734.786	0.0163000
734.864	0.0161917
734.942	0.0161358
735.021	0.0162676
735.099	0.0161892
735.177	0.0162402
735.255	0.0161810
735.333	0.0161645
735.411	0.0162696
735.489	0.0161935
735.567	0.0162767
735.646	0.0162199
735.724	0.0160836
735.802	0.0161942
735.880	0.0162950
735.958	0.0163174
736.036	0.0162864
736.114	0.0162074
736.192	0.0161922
736.271	0.0163895
736.349	0.0162045
736.427	0.0162283
736.505	0.0162040
736.583	0.0161298
736.661	0.0161713
736.739	0.0162708
736.817	0.0162112
736.896	0.0161214
736.974	0.0162512
737.052	0.0161750
737.130	0.0161433
737.208	0.0161794
737.286	0.0161899
737.364	0.0160117
737.442	0.0161523
737.521	0.0162025
737.599	0.0162202
737.677	0.0161226
737.755	0.0162730
737.833	0.0160905
737.911	0.0160187
737.989	0.0162619
738.067	0.0159904
738.146	0.0161764
738.224	0.0162041
738.302	0.0161555
738.380	0.0161916
738.458	0.0162641
738.536	0.0162398
738.614	0.0161188
738.692	0.0162044
738.771	0.0161377
738.849	0.0163561
738.927	0.0163540
739.005	0.0162049
739.083	0.0162267
739.161	0.0162702
739.239	0.0162834
739.317	0.0164248
739.396	0.0163539
739.474	0.0162541
739.552	0.0163290
739.630	0.0163354
739.708	0.0162277
739.786	0.0162334
739.864	0.0162980
739.942	0.0163600
740.021	0.0164745
740.099	0.0162550
740.177	0.0163551
740.255	0.0164214
740.333	0.0164760
740.411	0.0164831
740.489	0.0164684
740.567	0.0164037
740.646	0.0163752
740.724	0.0163626
740.802	0.0164249
740.880	0.0163437
740.958	0.0164487
741.036	0.0164404
741.114	0.0165257
741.192	0.0163729
741.271	0.0163797
741.349	0.0164857
741.427	0.0163682
741.505	0.0163936
741.583	0.0166340
741.661	0.0164584
741.739	0.0164492
741.817	0.0163536
741.896	0.0164612
741.974	0.0164323
742.052	0.0163560
742.130	0.0162552
742.208	0.0164092
742.286	0.0165537
742.364	0.0164035
742.442	0.0162479
742.521	0.0164940
742.599	0.0163852
742.677	0.0162218
742.755	0.0163898
742.833	0.0164970
742.911	0.0164075
742.989	0.0164032
743.067	0.0162028
743.146	0.0163735
743.224	0.0163347
743.302	0.0163197
743.380	0.0164133
743.458	0.0163975
743.536	0.0162018
743.614	0.0162937
743.692	0.0161949
743.771	0.0162463
743.849	0.0162488
743.927	0.0161813
744.005	0.0162773
744.083	0.0162959
744.161	0.0162344
744.239	0.0163351
744.317	0.0162269
744.396	0.0163348
744.474	0.0163163
744.552	0.0161973
744.630	0.0162599
744.708	0.0164040
744.786	0.0163334
744.864	0.0164065
744.942	0.0163284
745.021	0.0163097
745.099	0.0162746
745.177	0.0163359
745.255	0.0164278
745.333	0.0161888
745.411	0.0160628
745.489	0.0162868
745.567	0.0163809
745.646	0.0162892
745.724	0.0163822
745.802	0.0162290
745.880	0.0163584
745.958	0.0162847
746.036	0.0164093
746.114	0.0162661
746.192	0.0162473
746.271	0.0163363
746.349	0.0163268
746.427	0.0163046
746.505	0.0162524
746.583	0.0161923
746.661	0.0163132
746.739	0.0162424
746.817	0.0162418
746.896	0.0162688
746.974	0.0162923
747.052	0.0162588
747.130	0.0160878
747.208	0.0162381
747.286	0.0163453
747.364	0.0162460
747.442	0.0161835
747.521	0.0161589
747.599	0.0162312
747.677	0.0163487
747.755	0.0163359
747.833	0.0162825
747.911	0.0162023
747.989	0.0162307
748.067	0.0163818
748.146	0.0163400
748.224	0.0163250
748.302	0.0163948
748.380	0.0163530
748.458	0.0164047
748.536	0.0163897
748.614	0.0162982
748.692	0.0162687
748.771	0.0161932
748.849	0.0163503
748.927	0.0162498
749.005	0.0163206
749.083	0.0163105
749.161	0.0163046
749.239	0.0163760
749.317	0.0163128
749.396	0.0163234
749.474	0.0163356
749.552	0.0162952
749.630	0.0163358
749.708	0.0162878
749.786	0.0164042
749.864	0.0163928
749.942	0.0162370
750.021	0.0162984
750.099	0.0164215
750.177	0.0163742
750.255	0.0164168
750.333	0.0163541
750.411	0.0163148
750.489	0.0162125
750.567	0.0163222
750.646	0.0163926
750.724	0.0165099
750.802	0.0164895
750.880	0.0164652
750.958	0.0163562
751.036	0.0163116
751.114	0.0164809
751.192	0.0163219
751.271	0.0163985
751.349	0.0162827
751.427	0.0164068
751.505	0.0164618
751.583	0.0164260
751.661	0.0164774
751.739	0.0162537
751.817	0.0162794
751.896	0.0163650
751.974	0.0162550
752.052	0.0161474
752.130	0.0163017
752.208	0.0162469
752.286	0.0163780
752.364	0.0163187
752.442	0.0163163
752.521	0.0164233
752.599	0.0162576
752.677	0.0162901
752.755	0.0162344
752.833	0.0163817
752.911	0.0164306
752.989	0.0164656
753.067	0.0162325
753.146	0.0164155
753.224	0.0163660
753.302	0.0163152
753.380	0.0163837
753.458	0.0164082
753.536	0.0163932
753.614	0.0164864
753.692	0.0163496
753.771	0.0162776
753.849	0.0163895
753.927	0.0164098
754.005	0.0164897
754.083	0.0163764
754.161	0.0163716
754.239	0.0164063
754.317	0.0162560
754.396	0.0164865
754.474	0.0163123
754.552	0.0163556
754.630	0.0162663
754.708	0.0163486
754.786	0.0164079
754.864	0.0162810
754.942	0.0162924
755.021	0.0162630
755.099	0.0161967
755.177	0.0161465
755.255	0.0161467
755.333	0.0161708
755.411	0.0162009
755.489	0.0162156
755.567	0.0162145
755.646	0.0162394
755.724	0.0162197
755.802	0.0160994
755.880	0.0161459
755.958	0.0161997
756.036	0.0161124
756.114	0.0161694
756.192	0.0162617
756.271	0.0162422
756.349	0.0162907
756.427	0.0163021
756.505	0.0162995
756.583	0.0163311
756.661	0.0162528
756.739	0.0163552
756.817	0.0162917
756.896	0.0163038
756.974	0.0163011
757.052	0.0163464
757.130	0.0163230
757.208	0.0162095
757.286	0.0161752
757.364	0.0163752
757.442	0.0163920
757.521	0.0163792
757.599	0.0164169
757.677	0.0162487
757.755	0.0162001
757.833	0.0163878
757.911	0.0162761
757.989	0.0162784
758.067	0.0159804
758.146	0.0162219
758.224	0.0163576
758.302	0.0161904
758.380	0.0162460
758.458	0.0162092
758.536	0.0162244
758.614	0.0162421
758.692	0.0161790
758.771	0.0162860
758.849	0.0162730
758.927	0.0161858
759.005	0.0163023
759.083	0.0162989
759.161	0.0162908
759.239	0.0162529
759.317	0.0161893
759.396	0.0162736
759.474	0.0162585
759.552	0.0163136
759.630	0.0162547
759.708	0.0161933
759.786	0.0163545
759.864	0.0162061
759.942	0.0163736
760.021	0.0162302
760.099	0.0161764
760.177	0.0161231
760.255	0.0162829
760.333	0.0164432
760.411	0.0163150
760.489	0.0162383
760.567	0.0162292
760.646	0.0162427
760.724	0.0161865
760.802	0.0162581
760.880	0.0163673
760.958	0.0162726
761.036	0.0163011
761.114	0.0163035
761.192	0.0162923
761.271	0.0162209
761.349	0.0162000
761.427	0.0162839
761.505	0.0162998
761.583	0.0162479
761.661	0.0162430
761.739	0.0163898
761.817	0.0162343
761.896	0.0162150
761.974	0.0163170
762.052	0.0163004
762.130	0.0162400
762.208	0.0162437
762.286	0.0163223
762.364	0.0164250
762.442	0.0161098
762.521	0.0162421
762.599	0.0163009
762.677	0.0163488
762.755	0.0162667
762.833	0.0162413
762.911	0.0162878
762.989	0.0165034
763.067	0.0164021
763.146	0.0164359
763.224	0.0162747
763.302	0.0163669
763.380	0.0163101
763.458	0.0163976
763.536	0.0162997
763.614	0.0165428
763.692	0.0162860
763.771	0.0163707
763.849	0.0164458
763.927	0.0165041
764.005	0.0164464
764.083	0.0162787
764.161	0.0163197
764.239	0.0164899
764.317	0.0163993
764.396	0.0164040
764.474	0.0163924
764.552	0.0163808
764.630	0.0164472
764.708	0.0164388
764.786	0.0163567
764.864	0.0164382
764.942	0.0164587
765.021	0.0163020
765.099	0.0162367
765.177	0.0164105
765.255	0.0163127
765.333	0.0161444
765.411	0.0165014
765.489	0.0162159
765.567	0.0162366
765.646	0.0163251
765.724	0.0160999
765.802	0.0160912
765.880	0.0162122
765.958	0.0162740
766.036	0.0162394
766.114	0.0162389
766.192	0.0161277
766.271	0.0160573
766.349	0.0162903
766.427	0.0162370
766.505	0.0163300
766.583	0.0163906
766.661	0.0163180
766.739	0.0163217
766.817	0.0162528
766.896	0.0163371
766.974	0.0162366
767.052	0.0164993
767.130	0.0163796
767.208	0.0163686
767.286	0.0163527
767.364	0.0164736
767.442	0.0163869
767.521	0.0163514
767.599	0.0164101
767.677	0.0163638
767.755	0.0164541
767.833	0.0165390
767.911	0.0163481
767.989	0.0163664
768.067	0.0163467
768.146	0.0164267
768.224	0.0164215
768.302	0.0164040
768.380	0.0163494
768.458	0.0163986
768.536	0.0165291
768.614	0.0163512
768.692	0.0164194
768.771	0.0164465
768.849	0.0164548
768.927	0.0164686
769.005	0.0163909
769.083	0.0165139
769.161	0.0164410
769.239	0.0165520
769.317	0.0165890
769.396	0.0163958
769.474	0.0164754
769.552	0.0164907
769.630	0.0164902
769.708	0.0163797
769.786	0.0164993
769.864	0.0164321
769.942	0.0163908
770.021	0.0165921
770.099	0.0164834
770.177	0.0165293
770.255	0.0165315
770.333	0.0164906
770.411	0.0165357
770.489	0.0166343
770.567	0.0165622
770.646	0.0165996
770.724	0.0165575
770.802	0.0164843
770.880	0.0167096
770.958	0.0166103
771.036	0.0165033
771.114	0.0166396
771.192	0.0166779
771.271	0.0166116
771.349	0.0165249
771.427	0.0165728
771.505	0.0165636
771.583	0.0166660
771.661	0.0166343
771.739	0.0166165
771.817	0.0165852
771.896	0.0165437
771.974	0.0166470
772.052	0.0166587
772.130	0.0164416
772.208	0.0164455
772.286	0.0165860
772.364	0.0166044
772.442	0.0165490
772.521	0.0166911
772.599	0.0165380
772.677	0.0164538
772.755	0.0164191
772.833	0.0164937
772.911	0.0165411
772.989	0.0165213
773.067	0.0165598
773.146	0.0164740
773.224	0.0164529
773.302	0.0163450
773.380	0.0164344
773.458	0.0165144
773.536	0.0164703
773.614	0.0164394
773.692	0.0164790
773.771	0.0164405
773.849	0.0164967
773.927	0.0165242
774.005	0.0166062
774.083	0.0165262
774.161	0.0165696
774.239	0.0164767
774.317	0.0166082
774.396	0.0165661
774.474	0.0165106
774.552	0.0166202
774.630	0.0165955
774.708	0.0164205
774.786	0.0165434
774.864	0.0164317
774.942	0.0164529
775.021	0.0164276
775.099	0.0163419
775.177	0.0164985
775.255	0.0164546
775.333	0.0162793
775.411	0.0163423
775.489	0.0163129
775.567	0.0162771
775.646	0.0161994
775.724	0.0162209
775.802	0.0161941
775.880	0.0161642
775.958	0.0162328
776.036	0.0162491
776.114	0.0163551
776.192	0.0162220
776.271	0.0162209
776.349	0.0162099
776.427	0.0162407
776.505	0.0163210
776.583	0.0161993
776.661	0.0161794
776.739	0.0163490
776.817	0.0160649
776.896	0.0161631
776.974	0.0163433
777.052	0.0162860
777.130	0.0162625
777.208	0.0162720
777.286	0.0162544
777.364	0.0163280
777.442	0.0162444
777.521	0.0162421
777.599	0.0163387
777.677	0.0162673
777.755	0.0160723
777.833	0.0162688
777.911	0.0163823
777.989	0.0163387
778.067	0.0162511
778.146	0.0162620
778.224	0.0163528
778.302	0.0162187
778.380	0.0163871
778.458	0.0163121
778.536	0.0164586
778.614	0.0162752
778.692	0.0162711
778.771	0.0162148
778.849	0.0162289
778.927	0.0163396
779.005	0.0163483
779.083	0.0163467
779.161	0.0162537
779.239	0.0162935
779.317	0.0162685
779.396	0.0163384
779.474	0.0163580
779.552	0.0163073
779.630	0.0163373
779.708	0.0163128
779.786	0.0163406
779.864	0.0162382
779.942	0.0163747
780.021	0.0163280
780.099	0.0161734
780.177	0.0163494
780.255	0.0163622
780.333	0.0164022
780.411	0.0163143
780.489	0.0164199
780.567	0.0164116
780.646	0.0162106
780.724	0.0163178
780.802	0.0162357
780.880	0.0163680
780.958	0.0164581
781.036	0.0165019
781.114	0.0163205
781.192	0.0162914
781.271	0.0163663
781.349	0.0162900
781.427	0.0163698
781.505	0.0164898
781.583	0.0165372
781.661	0.0163890
781.739	0.0163736
781.817	0.0164030
781.896	0.0163967
781.974	0.0162624
782.052	0.0163055
782.130	0.0162091
782.208	0.0163753
782.286	0.0163696
782.364	0.0162150
782.442	0.0162893
782.521	0.0163315
782.599	0.0162548
782.677	0.0163354
782.755	0.0163222
782.833	0.0163527
782.911	0.0163396
782.989	0.0162641
783.067	0.0164521
783.146	0.0163714
783.224	0.0162866
783.302	0.0163456
783.380	0.0163598
783.458	0.0162811
783.536	0.0163432
783.614	0.0164480
783.692	0.0162254
783.771	0.0162283
783.849	0.0163995
783.927	0.0164211
784.005	0.0163871
784.083	0.0163457
784.161	0.0163396
784.239	0.0165546
784.317	0.0165458
784.396	0.0163614
784.474	0.0163723
784.552	0.0163453
784.630	0.0165240
784.708	0.0164558
784.786	0.0164105
784.864	0.0164237
784.942	0.0163679
785.021	0.0163167
785.099	0.0163898
785.177	0.0166200
785.255	0.0165038
785.333	0.0164638
785.411	0.0165515
785.489	0.0165509
785.567	0.0165482
785.646	0.0164193
785.724	0.0164661
785.802	0.0164671
785.880	0.0164680
785.958	0.0165297
786.036	0.0164597
786.114	0.0164893
786.192	0.0164449
786.271	0.0164546
786.349	0.0164601
786.427	0.0165139
786.505	0.0163583
786.583	0.0164684
786.661	0.0163400
786.739	0.0163304
786.817	0.0165295
786.896	0.0163966
786.974	0.0164091
787.052	0.0163833
787.130	0.0164820
787.208	0.0163541
787.286	0.0163275
787.364	0.0164848
787.442	0.0163673
787.521	0.0164301
787.599	0.0163089
787.677	0.0164414
787.755	0.0164558
787.833	0.0161945
787.911	0.0163750
787.989	0.0163902
788.067	0.0162759
788.146	0.0164346
788.224	0.0163097
788.302	0.0163704
788.380	0.0163619
788.458	0.0164342
788.536	0.0162496
788.614	0.0164066
788.692	0.0164256
788.771	0.0162667
788.849	0.0164320
788.927	0.0165282
789.005	0.0164748
789.083	0.0163657
789.161	0.0163689
789.239	0.0164235
789.317	0.0164797
789.396	0.0165472
789.474	0.0164099
789.552	0.0164448
789.630	0.0165535
789.708	0.0165192
789.786	0.0164783
789.864	0.0165199
789.942	0.0165196
790.021	0.0164111
790.099	0.0165417
790.177	0.0165602
790.255	0.0164880
790.333	0.0164977
790.411	0.0164703
790.489	0.0165848
790.567	0.0164417
790.646	0.0164550
790.724	0.0164944
790.802	0.0166063
790.880	0.0165249
790.958	0.0165691
791.036	0.0166457
791.114	0.0165605
791.192	0.0164674
791.271	0.0165440
791.349	0.0165414
791.427	0.0165549
791.505	0.0165234
791.583	0.0165318
791.661	0.0166832
791.739	0.0166245
791.817	0.0165077
791.896	0.0165443
791.974	0.0165500
792.052	0.0166503
792.130	0.0165941
792.208	0.0165123
792.286	0.0166309
792.364	0.0166454
792.442	0.0166997
792.521	0.0165486
792.599	0.0166588
792.677	0.0166833
792.755	0.0165776
792.833	0.0166008
792.911	0.0166726
792.989	0.0165475
793.067	0.0167734
793.146	0.0164661
793.224	0.0167746
793.302	0.0166842
793.380	0.0165566
793.458	0.0165932
793.536	0.0165540
793.614	0.0167875
793.692	0.0166423
793.771	0.0164574
793.849	0.0165691
793.927	0.0165538
794.005	0.0165901
794.083	0.0165250
794.161	0.0166920
794.239	0.0165563
794.317	0.0163895
794.396	0.0164380
794.474	0.0164274
794.552	0.0165301
794.630	0.0164318
794.708	0.0165714
794.786	0.0166517
794.864	0.0163535
794.942	0.0164550
795.021	0.0164861
795.099	0.0165813
795.177	0.0165598
795.255	0.0165689
795.333	0.0164946
795.411	0.0164470
795.489	0.0164949
795.567	0.0165166
795.646	0.0164734
795.724	0.0164215
795.802	0.0163503
795.880	0.0164933
795.958	0.0164923
796.036	0.0162814
796.114	0.0164449
796.192	0.0164043
796.271	0.0164027
796.349	0.0163217
796.427	0.0163247
796.505	0.0163851
796.583	0.0162788
796.661	0.0161813
796.739	0.0163041
796.817	0.0163206
796.896	0.0162618
796.974	0.0161842
797.052	0.0160746
797.130	0.0162021
797.208	0.0161436
797.286	0.0161993
797.364	0.0162687
797.442	0.0162143
797.521	0.0162384
797.599	0.0160640
797.677	0.0161881
797.755	0.0162823
797.833	0.0162057
797.911	0.0162132
797.989	0.0161743
798.067	0.0162500
798.146	0.0161693
798.224	0.0162292
798.302	0.0161253
798.380	0.0162378
798.458	0.0162296
798.536	0.0161702
798.614	0.0160682
798.692	0.0162017
798.771	0.0161124
798.849	0.0161539
798.927	0.0160687
799.005	0.0160482
799.083	0.0161024
799.161	0.0161279
799.239	0.0162022
799.317	0.0160928
799.396	0.0161033
799.474	0.0161101
799.552	0.0160825
799.630	0.0163212
799.708	0.0161217
799.786	0.0158876
799.864	0.0162944
799.942	0.0161820
800.021	0.0160575
800.099	0.0161369
800.177	0.0161209
800.255	0.0160481
800.333	0.0161384
800.411	0.0161886
800.489	0.0160564
800.567	0.0161044
800.646	0.0162157
800.724	0.0160103
800.802	0.0161912
800.880	0.0162545
800.958	0.0161585
801.036	0.0161994
801.114	0.0160342
801.192	0.0161916
801.271	0.0161594
801.349	0.0160598
801.427	0.0161646
801.505	0.0161942
801.583	0.0163023
801.661	0.0161567
801.739	0.0161319
801.817	0.0161652
801.896	0.0161503
801.974	0.0161665
802.052	0.0160952
802.130	0.0162283
802.208	0.0162273
802.286	0.0161452
802.364	0.0162381
802.442	0.0162187
802.521	0.0161324
802.599	0.0161008
802.677	0.0162616
802.755	0.0163258
802.833	0.0163749
802.911	0.0162135
802.989	0.0162521
803.067	0.0161385
803.146	0.0162645
803.224	0.0163672
803.302	0.0164521
803.380	0.0163337
803.458	0.0163629
803.536	0.0163526
803.614	0.0163244
803.692	0.0163076
803.771	0.0163393
803.849	0.0163361
803.927	0.0162191
804.005	0.0163104
804.083	0.0163121
804.161	0.0163933
804.239	0.0162305
804.317	0.0163470
804.396	0.0162788
804.474	0.0163680
804.552	0.0164220
804.630	0.0164784
804.708	0.0163940
804.786	0.0163242
804.864	0.0163428
804.942	0.0161967
805.021	0.0164053
805.099	0.0165227
805.177	0.0164059
805.255	0.0163436
805.333	0.0161524
805.411	0.0163992
805.489	0.0164047
805.567	0.0163042
805.646	0.0162690
805.724	0.0163627
805.802	0.0163062
805.880	0.0163806
805.958	0.0164837
806.036	0.0164211
806.114	0.0163353
806.192	0.0163773
806.271	0.0164774
806.349	0.0165131
806.427	0.0162544
806.505	0.0165491
806.583	0.0164534
806.661	0.0164529
806.739	0.0164641
806.817	0.0164454
806.896	0.0165335
806.974	0.0164883
807.052	0.0164189
807.130	0.0165262
807.208	0.0165670
807.286	0.0164127
807.364	0.0163792
807.442	0.0163815
807.521	0.0164677
807.599	0.0164313
807.677	0.0163943
807.755	0.0163814
807.833	0.0164351
807.911	0.0164046
807.989	0.0165089
808.067	0.0164198
808.146	0.0164717
808.224	0.0166150
808.302	0.0164834
808.380	0.0162983
808.458	0.0164198
808.536	0.0163018
808.614	0.0165206
808.692	0.0164648
808.771	0.0164534
808.849	0.0164980
808.927	0.0165229
809.005	0.0165000
809.083	0.0165404
809.161	0.0165379
809.239	0.0164837
809.317	0.0165176
809.396	0.0166397
809.474	0.0165881
809.552	0.0165918
809.630	0.0165108
809.708	0.0165838
809.786	0.0166051
809.864	0.0164504
809.942	0.0164954
810.021	0.0165234
810.099	0.0164064
810.177	0.0165025
810.255	0.0165356
810.333	0.0164403
810.411	0.0164735
810.489	0.0164561
810.567	0.0164752
810.646	0.0163348
810.724	0.0163679
810.802	0.0165167
810.880	0.0164995
810.958	0.0165764
811.036	0.0165356
811.114	0.0165565
811.192	0.0165148
811.271	0.0163876
811.349	0.0165611
811.427	0.0164114
811.505	0.0163722
811.583	0.0164671
811.661	0.0164941
811.739	0.0164303
811.817	0.0163824
811.896	0.0164937
811.974	0.0164371
812.052	0.0164368
812.130	0.0165770
812.208	0.0164019
812.286	0.0163616
812.364	0.0165340
812.442	0.0163284
812.521	0.0163857
812.599	0.0164223
812.677	0.0163887
812.755	0.0162991
812.833	0.0164297
812.911	0.0164720
812.989	0.0164472
813.067	0.0163999
813.146	0.0162638
813.224	0.0163484
813.302	0.0163910
813.380	0.0162376
813.458	0.0163729
813.536	0.0163046
813.614	0.0163678
813.692	0.0164585
813.771	0.0164079
813.849	0.0163935
813.927	0.0164222
814.005	0.0164446
814.083	0.0166357
814.161	0.0164130
814.239	0.0164173
814.317	0.0163808
814.396	0.0164919
814.474	0.0164311
814.552	0.0164040
814.630	0.0164914
814.708	0.0164343
814.786	0.0164949
814.864	0.0163737
814.942	0.0163584
815.021	0.0164861
815.099	0.0164263
815.177	0.0164896
815.255	0.0163767
815.333	0.0163869
815.411	0.0164619
815.489	0.0164421
815.567	0.0163314
815.646	0.0164375
815.724	0.0164655
815.802	0.0163169
815.880	0.0163751
815.958	0.0164355
816.036	0.0163550
816.114	0.0163985
816.192	0.0164066
816.271	0.0165057
816.349	0.0164435
816.427	0.0164157
816.505	0.0163274
816.583	0.0164777
816.661	0.0165079
816.739	0.0163282
816.817	0.0164425
816.896	0.0163323
816.974	0.0164367
817.052	0.0164841
817.130	0.0164974
817.208	0.0165863
817.286	0.0163168
817.364	0.0163441
817.442	0.0164149
817.521	0.0165405
817.599	0.0164348
817.677	0.0164888
817.755	0.0163942
817.833	0.0165408
817.911	0.0164765
817.989	0.0163985
818.067	0.0165109
818.146	0.0165008
818.224	0.0164840
818.302	0.0164913
818.380	0.0164787
818.458	0.0165121
818.536	0.0164127
818.614	0.0164719
818.692	0.0165998
818.771	0.0165856
818.849	0.0165318
818.927	0.0163136
819.005	0.0164194
819.083	0.0164262
819.161	0.0164246
819.239	0.0164367
819.317	0.0164144
819.396	0.0164421
819.474	0.0162973
819.552	0.0162475
819.630	0.0163988
819.708	0.0163068
819.786	0.0164365
819.864	0.0163702
819.942	0.0162096
820.021	0.0162598
820.099	0.0162831
820.177	0.0162924
820.255	0.0161601
820.333	0.0162110
820.411	0.0161691
820.489	0.0161667
820.567	0.0161720
820.646	0.0161715
820.724	0.0161802
820.802	0.0162173
820.880	0.0160403
820.958	0.0160631
821.036	0.0160763
821.114	0.0161098
821.192	0.0160431
821.271	0.0161271
821.349	0.0160707
821.427	0.0161883
821.505	0.0160511
821.583	0.0159727
821.661	0.0161401
821.739	0.0160463
821.817	0.0161614
821.896	0.0160684
821.974	0.0161420
822.052	0.0161635
822.130	0.0159944
822.208	0.0162296
822.286	0.0163375
822.364	0.0161139
822.442	0.0160365
822.521	0.0160500
822.599	0.0161207
822.677	0.0161086
822.755	0.0161488
822.833	0.0160490
822.911	0.0161111
822.989	0.0159547
823.067	0.0160538
823.146	0.0160112
823.224	0.0159914
823.302	0.0160721
823.380	0.0161194
823.458	0.0159798
823.536	0.0159352
823.614	0.0162055
823.692	0.0162424
823.771	0.0160515
823.849	0.0159616
823.927	0.0162036
824.005	0.0161163
824.083	0.0160606
824.161	0.0161483
824.239	0.0160954
824.317	0.0161422
824.396	0.0162142
824.474	0.0162608
824.552	0.0162876
824.630	0.0162130
824.708	0.0162759
824.786	0.0163211
824.864	0.0161987
824.942	0.0161881
825.021	0.0163442
825.099	0.0163155
825.177	0.0162823
825.255	0.0162624
825.333	0.0161864
825.411	0.0162094
825.489	0.0162733
825.567	0.0161710
825.646	0.0162904
825.724	0.0162251
825.802	0.0163865
825.880	0.0162868
825.958	0.0162641
826.036	0.0164078
826.114	0.0164033
826.192	0.0162478
826.271	0.0162997
826.349	0.0162389
826.427	0.0162738
826.505	0.0163244
826.583	0.0162392
826.661	0.0162868
826.739	0.0162121
826.817	0.0162476
826.896	0.0163142
826.974	0.0164487
827.052	0.0163288
827.130	0.0163358
827.208	0.0163102
827.286	0.0163909
827.364	0.0163721
827.442	0.0163234
827.521	0.0164211
827.599	0.0164175
827.677	0.0163542
827.755	0.0163789
827.833	0.0164043
827.911	0.0162662
827.989	0.0164266
828.067	0.0164711
828.146	0.0162889
828.224	0.0164037
828.302	0.0164257
828.380	0.0162414
828.458	0.0163570
828.536	0.0163985
828.614	0.0162820
828.692	0.0162873
828.771	0.0163858
828.849	0.0164052
828.927	0.0162751
829.005	0.0163247
829.083	0.0163864
829.161	0.0165376
829.239	0.0164379
829.317	0.0164908
829.396	0.0163325
829.474	0.0162782
829.552	0.0164982
829.630	0.0164238
829.708	0.0163676
829.786	0.0163477
829.864	0.0163150
829.942	0.0163451
830.021	0.0162944
830.099	0.0163513
830.177	0.0163472
830.255	0.0163797
830.333	0.0163947
830.411	0.0163074
830.489	0.0165563
830.567	0.0164262
830.646	0.0161874
830.724	0.0163805
830.802	0.0163625
830.880	0.0162759
830.958	0.0164168
831.036	0.0162541
831.114	0.0163663
831.192	0.0162733
831.271	0.0163710
831.349	0.0163770
831.427	0.0163313
831.505	0.0163031
831.583	0.0164266
831.661	0.0164285
831.739	0.0164233
831.817	0.0162141
831.896	0.0163392
831.974	0.0162550
832.052	0.0162913
832.130	0.0161604
832.208	0.0161800
832.286	0.0161361
832.364	0.0161870
832.442	0.0162415
832.521	0.0162301
832.599	0.0163015
832.677	0.0161420
832.755	0.0160853
832.833	0.0163029
832.911	0.0163820
832.989	0.0163635
833.067	0.0162371
833.146	0.0162579
833.224	0.0163539
833.302	0.0163527
833.380	0.0161189
833.458	0.0162913
833.536	0.0162894
833.614	0.0164068
833.692	0.0163436
833.771	0.0163960
833.849	0.0162597
833.927	0.0162856
834.005	0.0163602
834.083	0.0161719
834.161	0.0161761
834.239	0.0161974
834.317	0.0161175
834.396	0.0163214
834.474	0.0163724
834.552	0.0162514
834.630	0.0162512
834.708	0.0161665
834.786	0.0161756
834.864	0.0162969
834.942	0.0161660
835.021	0.0162399
835.099	0.0162232
835.177	0.0162296
835.255	0.0161665
835.333	0.0162610
835.411	0.0162843
835.489	0.0163237
835.567	0.0162820
835.646	0.0161596
835.724	0.0161349
835.802	0.0163455
835.880	0.0163459
835.958	0.0162694
836.036	0.0162241
836.114	0.0163373
836.192	0.0163560
836.271	0.0162922
836.349	0.0163818
836.427	0.0162104
836.505	0.0164475
836.583	0.0162611
836.661	0.0163232
836.739	0.0164087
836.817	0.0163599
836.896	0.0164536
836.974	0.0164023
837.052	0.0163988
837.130	0.0164182
837.208	0.0163999
837.286	0.0164143
837.364	0.0163718
837.442	0.0165656
837.521	0.0164043
837.599	0.0163628
837.677	0.0164330
837.755	0.0164707
837.833	0.0164376
837.911	0.0162994
837.989	0.0164967
838.067	0.0164516
838.146	0.0164301
838.224	0.0164359
838.302	0.0164160
838.380	0.0164526
838.458	0.0164135
838.536	0.0164938
838.614	0.0164532
838.692	0.0163920
838.771	0.0163975
838.849	0.0165749
838.927	0.0163792
839.005	0.0164065
839.083	0.0163680
839.161	0.0163330
839.239	0.0164835
839.317	0.0164011
839.396	0.0162618
839.474	0.0163717
839.552	0.0163660
839.630	0.0163642
839.708	0.0163918
839.786	0.0163781
839.864	0.0162386
839.942	0.0163655
840.021	0.0162968
840.099	0.0163180
840.177	0.0162564
840.255	0.0163321
840.333	0.0162587
840.411	0.0162147
840.489	0.0164070
840.567	0.0164850
840.646	0.0163098
840.724	0.0162975
840.802	0.0163311
840.880	0.0163139
840.958	0.0163410
841.036	0.0162977
841.114	0.0165570
841.192	0.0163462
841.271	0.0162905
841.349	0.0163634
841.427	0.0164159
841.505	0.0164160
841.583	0.0164282
841.661	0.0164581
841.739	0.0163836
841.817	0.0163623
841.896	0.0164678
841.974	0.0163736
842.052	0.0164278
842.130	0.0162930
842.208	0.0162003
842.286	0.0163969
842.364	0.0164368
842.442	0.0163228
842.521	0.0163518
842.599	0.0163828
842.677	0.0163419
842.755	0.0163618
842.833	0.0161966
842.911	0.0163256
842.989	0.0164762
843.067	0.0163420
843.146	0.0164669
843.224	0.0163886
843.302	0.0163876
843.380	0.0165029
843.458	0.0164556
843.536	0.0163526
843.614	0.0163522
843.692	0.0164862
843.771	0.0165400
843.849	0.0163158
843.927	0.0164296
844.005	0.0164265
844.083	0.0163450
844.161	0.0163476
844.239	0.0165417
844.317	0.0162824
844.396	0.0163754
844.474	0.0164710
844.552	0.0162612
844.630	0.0164137
844.708	0.0163798
844.786	0.0162906
844.864	0.0161623
844.942	0.0162683
845.021	0.0163805
845.099	0.0163768
845.177	0.0162389
845.255	0.0162395
845.333	0.0162615
845.411	0.0162305
845.489	0.0160764
845.567	0.0163625
845.646	0.0162010
845.724	0.0161829
845.802	0.0162588
845.880	0.0161340
845.958	0.0161226
846.036	0.0162044
846.114	0.0162558
846.192	0.0161292
846.271	0.0160965
846.349	0.0160732
846.427	0.0161093
846.505	0.0160793
846.583	0.0161896
846.661	0.0160491
846.739	0.0160125
846.817	0.0160425
846.896	0.0159922
846.974	0.0161049
847.052	0.0160027
847.130	0.0161701
847.208	0.0160735
847.286	0.0159660
847.364	0.0161414
847.442	0.0161011
847.521	0.0160972
847.599	0.0160658
847.677	0.0160840
847.755	0.0161330
847.833	0.0161650
847.911	0.0161112
847.989	0.0160802
848.067	0.0159684
848.146	0.0160165
848.224	0.0160783
848.302	0.0160864
848.380	0.0161939
848.458	0.0161652
848.536	0.0160268
848.614	0.0161183
848.692	0.0160557
848.771	0.0161978
848.849	0.0162427
848.927	0.0161147
849.005	0.0162132
849.083	0.0161282
849.161	0.0160564
849.239	0.0162197
849.317	0.0161443
849.396	0.0162232
849.474	0.0162425
849.552	0.0162274
849.630	0.0161787
849.708	0.0162010
849.786	0.0161833
849.864	0.0162432
849.942	0.0161409
850.021	0.0160706
850.099	0.0164108
850.177	0.0161318
850.255	0.0162715
850.333	0.0162690
850.411	0.0162485
850.489	0.0163883
850.567	0.0162598
850.646	0.0161842
850.724	0.0161411
850.802	0.0163520
850.880	0.0163993
850.958	0.0163385
851.036	0.0163418
851.114	0.0162695
851.192	0.0163727
851.271	0.0163520
851.349	0.0162769
851.427	0.0163149
851.505	0.0163074
851.583	0.0163101
851.661	0.0164867
851.739	0.0164238
851.817	0.0164319
851.896	0.0164557
851.974	0.0163516
852.052	0.0163111
852.130	0.0165439
852.208	0.0164370
852.286	0.0162977
852.364	0.0164349
852.442	0.0163651
852.521	0.0162442
852.599	0.0163873
852.677	0.0165701
852.755	0.0165828
852.833	0.0164143
852.911	0.0164843
852.989	0.0164651
853.067	0.0164381
853.146	0.0165068
853.224	0.0165023
853.302	0.0164741
853.380	0.0165534
853.458	0.0165375
853.536	0.0163087
853.614	0.0164314
853.692	0.0164433
853.771	0.0163358
853.849	0.0163107
853.927	0.0163723
854.005	0.0164100
854.083	0.0164272
854.161	0.0163923
854.239	0.0163731
854.317	0.0164018
854.396	0.0164648
854.474	0.0163728
854.552	0.0165155
854.630	0.0163807
854.708	0.0164617
854.786	0.0163623
854.864	0.0163824
854.942	0.0165222
855.021	0.0164657
855.099	0.0164648
855.177	0.0162753
855.255	0.0164879
855.333	0.0162998
855.411	0.0164397
855.489	0.0163944
855.567	0.0163750
855.646	0.0164539
855.724	0.0163071
855.802	0.0163815
855.880	0.0163402
855.958	0.0163638
856.036	0.0164290
856.114	0.0164439
856.192	0.0163977
856.271	0.0163749
856.349	0.0163567
856.427	0.0165514
856.505	0.0162078
856.583	0.0163948
856.661	0.0164256
856.739	0.0162385
856.817	0.0162730
856.896	0.0164213
856.974	0.0164388
857.052	0.0163862
857.130	0.0163815
857.208	0.0162780
857.286	0.0164605
857.364	0.0163708
857.442	0.0163726
857.521	0.0166036
857.599	0.0163610
857.677	0.0162800
857.755	0.0163988
857.833	0.0163695
857.911	0.0162215
857.989	0.0163429
858.067	0.0163969
858.146	0.0163197
858.224	0.0163648
858.302	0.0162826
858.380	0.0163080
858.458	0.0162990
858.536	0.0163078
858.614	0.0163432
858.692	0.0164462
858.771	0.0164447
858.849	0.0163055
858.927	0.0164001
859.005	0.0163760
859.083	0.0162641
859.161	0.0165051
859.239	0.0163846
859.317	0.0162955
859.396	0.0162656
859.474	0.0164237
859.552	0.0164401
859.630	0.0163803
859.708	0.0162891
859.786	0.0163626
859.864	0.0163148
859.942	0.0163410
860.021	0.0162808
860.099	0.0162913
860.177	0.0163978
860.255	0.0163836
860.333	0.0163596
860.411	0.0164013
860.489	0.0164003
860.567	0.0165074
860.646	0.0165055
860.724	0.0163689
860.802	0.0163794
860.880	0.0164442
860.958	0.0164108
861.036	0.0164199
861.114	0.0164535
861.192	0.0163670
861.271	0.0165063
861.349	0.0164575
861.427	0.0163638
861.505	0.0164082
861.583	0.0164529
861.661	0.0164853
861.739	0.0163305
861.817	0.0164125
861.896	0.0163329
861.974	0.0164732
862.052	0.0163004
862.130	0.0164259
862.208	0.0163251
862.286	0.0164798
862.364	0.0164203
862.442	0.0164538
862.521	0.0164354
862.599	0.0163360
862.677	0.0164511
862.755	0.0163904
862.833	0.0164063
862.911	0.0163395
862.989	0.0164437
863.067	0.0164346
863.146	0.0164268
863.224	0.0163254
863.302	0.0164247
863.380	0.0163625
863.458	0.0164301
863.536	0.0164465
863.614	0.0163463
863.692	0.0163750
863.771	0.0164192
863.849	0.0165718
863.927	0.0164455
864.005	0.0163422
864.083	0.0165057
864.161	0.0165122
864.239	0.0163887
864.317	0.0165263
864.396	0.0165563
864.474	0.0164532
864.552	0.0164602
864.630	0.0164447
864.708	0.0165607
864.786	0.0165189
864.864	0.0164999
864.942	0.0163490
865.021	0.0164919
865.099	0.0165807
865.177	0.0165417
865.255	0.0163140
865.333	0.0164547
865.411	0.0166315
865.489	0.0165981
865.567	0.0164730
865.646	0.0164648
865.724	0.0164919
865.802	0.0165823
865.880	0.0166677
865.958	0.0166125
866.036	0.0164462
866.114	0.0164180
866.192	0.0165377
866.271	0.0165715
866.349	0.0167711
866.427	0.0164657
866.505	0.0165827
866.583	0.0166074
866.661	0.0164632
866.739	0.0166176
866.817	0.0165361
866.896	0.0166112
866.974	0.0165242
867.052	0.0166241
867.130	0.0166085
867.208	0.0165627
867.286	0.0165184
867.364	0.0165620
867.442	0.0165669
867.521	0.0164406
867.599	0.0165176
867.677	0.0164138
867.755	0.0165234
867.833	0.0164997
867.911	0.0165520
867.989	0.0164800
868.067	0.0164633
868.146	0.0163893
868.224	0.0164249
868.302	0.0164199
868.380	0.0165073
868.458	0.0165408
868.536	0.0164339
868.614	0.0163847
868.692	0.0164043
868.771	0.0164684
868.849	0.0164499
868.927	0.0165218
869.005	0.0163370
869.083	0.0163383
869.161	0.0162991
869.239	0.0162106
869.317	0.0164902
869.396	0.0163370
869.474	0.0162628
869.552	0.0163544
869.630	0.0163405
869.708	0.0162885
869.786	0.0164145
869.864	0.0161886
869.942	0.0162226
