06/03/2022	13:54:49	Ver.	4.1	UNKNOWN
Optical Delay	599.988409	Delta X		0.078125	Sweeps	1	Scan Rate	0/0
Coordinates	Axis 1	NaN	Axis 2	NaN	Axis 3	NaN	Axis 4	NaN	Axis 5	NaN	Axis 6	0.000000
TX Power	0.000000	RX Power	0.000000

599.988	0.0165763
600.067	0.0166441
600.145	0.0164846
600.223	0.0164676
600.301	0.0165563
600.379	0.0166525
600.457	0.0165304
600.535	0.0166270
600.613	0.0167613
600.692	0.0166394
600.770	0.0166874
600.848	0.0166031
600.926	0.0165292
601.004	0.0165374
601.082	0.0165840
601.160	0.0165630
601.238	0.0164413
601.317	0.0166592
601.395	0.0165437
601.473	0.0165355
601.551	0.0166512
601.629	0.0164582
601.707	0.0165366
601.785	0.0167755
601.863	0.0166122
601.942	0.0164877
602.020	0.0165589
602.098	0.0166074
602.176	0.0166628
602.254	0.0165574
602.332	0.0165019
602.410	0.0166547
602.488	0.0165704
602.567	0.0165147
602.645	0.0165930
602.723	0.0165530
602.801	0.0165794
602.879	0.0166472
602.957	0.0165630
603.035	0.0165495
603.113	0.0165470
603.192	0.0165933
603.270	0.0166343
603.348	0.0165867
603.426	0.0165615
603.504	0.0165630
603.582	0.0165803
603.660	0.0164832
603.738	0.0166596
603.817	0.0164998
603.895	0.0165700
603.973	0.0165229
604.051	0.0165685
604.129	0.0165474
604.207	0.0164562
604.285	0.0165437
604.363	0.0166832
604.442	0.0166850
604.520	0.0164905
604.598	0.0165679
604.676	0.0166503
604.754	0.0166173
604.832	0.0166543
604.910	0.0165211
604.988	0.0166166
605.067	0.0165454
605.145	0.0165445
605.223	0.0166061
605.301	0.0166267
605.379	0.0165087
605.457	0.0165559
605.535	0.0166281
605.613	0.0165144
605.692	0.0167344
605.770	0.0165993
605.848	0.0165887
605.926	0.0165900
606.004	0.0165313
606.082	0.0164832
606.160	0.0165635
606.238	0.0164946
606.317	0.0165572
606.395	0.0165594
606.473	0.0164082
606.551	0.0164770
606.629	0.0165051
606.707	0.0164773
606.785	0.0165040
606.863	0.0167027
606.942	0.0166022
607.020	0.0166213
607.098	0.0165936
607.176	0.0165725
607.254	0.0165384
607.332	0.0164880
607.410	0.0165247
607.488	0.0166245
607.567	0.0165061
607.645	0.0165102
607.723	0.0164953
607.801	0.0166834
607.879	0.0166225
607.957	0.0164953
608.035	0.0164935
608.113	0.0165165
608.192	0.0166415
608.270	0.0166162
608.348	0.0165262
608.426	0.0165459
608.504	0.0166419
608.582	0.0166042
608.660	0.0164664
608.738	0.0165561
608.817	0.0166092
608.895	0.0166492
608.973	0.0165672
609.051	0.0166213
609.129	0.0166322
609.207	0.0167033
609.285	0.0164913
609.363	0.0165328
609.442	0.0165421
609.520	0.0168010
609.598	0.0166071
609.676	0.0165804
609.754	0.0165961
609.832	0.0165356
609.910	0.0165314
609.988	0.0166520
610.067	0.0166250
610.145	0.0164539
610.223	0.0165906
610.301	0.0165299
610.379	0.0164659
610.457	0.0166029
610.535	0.0165569
610.613	0.0164443
610.692	0.0165280
610.770	0.0165129
610.848	0.0166897
610.926	0.0166791
611.004	0.0164099
611.082	0.0165517
611.160	0.0165319
611.238	0.0164572
611.317	0.0165293
611.395	0.0165834
611.473	0.0165531
611.551	0.0167046
611.629	0.0164371
611.707	0.0164943
611.785	0.0166103
611.863	0.0164657
611.942	0.0166586
612.020	0.0165282
612.098	0.0165951
612.176	0.0165291
612.254	0.0166403
612.332	0.0165514
612.410	0.0166525
612.488	0.0167919
612.567	0.0167365
612.645	0.0167252
612.723	0.0166069
612.801	0.0165457
612.879	0.0164754
612.957	0.0165356
613.035	0.0165468
613.113	0.0165434
613.192	0.0165024
613.270	0.0164828
613.348	0.0165526
613.426	0.0165636
613.504	0.0164223
613.582	0.0164724
613.660	0.0165112
613.738	0.0166196
613.817	0.0165789
613.895	0.0164785
613.973	0.0167569
614.051	0.0166640
614.129	0.0165063
614.207	0.0165459
614.285	0.0165398
614.363	0.0165302
614.442	0.0165568
614.520	0.0165298
614.598	0.0166574
614.676	0.0166016
614.754	0.0165601
614.832	0.0165366
614.910	0.0165829
614.988	0.0166430
615.067	0.0164996
615.145	0.0165832
615.223	0.0164955
615.301	0.0165843
615.379	0.0165730
615.457	0.0165606
615.535	0.0165932
615.613	0.0165916
615.692	0.0165484
615.770	0.0165683
615.848	0.0165796
615.926	0.0166184
616.004	0.0166135
616.082	0.0165279
616.160	0.0166871
616.238	0.0165200
616.317	0.0165215
616.395	0.0165199
616.473	0.0166193
616.551	0.0166147
616.629	0.0166531
616.707	0.0167128
616.785	0.0165697
616.863	0.0164863
616.942	0.0164893
617.020	0.0166284
617.098	0.0165121
617.176	0.0166116
617.254	0.0164772
617.332	0.0165141
617.410	0.0165137
617.488	0.0165846
617.567	0.0164330
617.645	0.0165688
617.723	0.0164961
617.801	0.0166146
617.879	0.0165673
617.957	0.0164433
618.035	0.0165347
618.113	0.0165750
618.192	0.0164308
618.270	0.0165188
618.348	0.0165813
618.426	0.0165255
618.504	0.0165953
618.582	0.0166050
618.660	0.0164651
618.738	0.0164353
618.817	0.0165970
618.895	0.0165036
618.973	0.0165084
619.051	0.0166547
619.129	0.0165646
619.207	0.0164511
619.285	0.0165658
619.363	0.0165746
619.442	0.0163794
619.520	0.0165429
619.598	0.0166211
619.676	0.0165327
619.754	0.0166862
619.832	0.0166755
619.910	0.0166174
619.988	0.0165471
620.067	0.0165751
620.145	0.0165478
620.223	0.0166270
620.301	0.0166051
620.379	0.0165215
620.457	0.0166872
620.535	0.0166120
620.613	0.0166003
620.692	0.0165847
620.770	0.0163966
620.848	0.0165218
620.926	0.0165310
621.004	0.0165627
621.082	0.0166772
621.160	0.0167090
621.238	0.0165300
621.317	0.0164132
621.395	0.0165596
621.473	0.0166375
621.551	0.0165265
621.629	0.0165656
621.707	0.0165522
621.785	0.0165540
621.863	0.0166026
621.942	0.0166138
622.020	0.0164854
622.098	0.0166447
622.176	0.0165502
622.254	0.0165842
622.332	0.0165853
622.410	0.0165282
622.488	0.0164674
622.567	0.0165458
622.645	0.0166716
622.723	0.0165358
622.801	0.0165279
622.879	0.0164385
622.957	0.0164305
623.035	0.0166032
623.113	0.0165529
623.192	0.0165537
623.270	0.0165507
623.348	0.0167617
623.426	0.0165668
623.504	0.0165485
623.582	0.0166080
623.660	0.0165701
623.738	0.0165776
623.817	0.0165096
623.895	0.0165738
623.973	0.0165490
624.051	0.0165599
624.129	0.0166177
624.207	0.0165514
624.285	0.0167333
624.363	0.0165864
624.442	0.0165664
624.520	0.0164910
624.598	0.0166236
624.676	0.0166893
624.754	0.0166141
624.832	0.0166098
624.910	0.0165836
624.988	0.0165520
625.067	0.0165935
625.145	0.0166492
625.223	0.0166580
625.301	0.0167404
625.379	0.0165958
625.457	0.0166357
625.535	0.0165712
625.613	0.0166341
625.692	0.0166151
625.770	0.0166315
625.848	0.0165872
625.926	0.0166486
626.004	0.0167024
626.082	0.0167361
626.160	0.0165012
626.238	0.0165040
626.317	0.0166122
626.395	0.0166917
626.473	0.0166393
626.551	0.0165248
626.629	0.0166621
626.707	0.0165621
626.785	0.0166341
626.863	0.0165691
626.942	0.0166661
627.020	0.0165304
627.098	0.0165794
627.176	0.0165741
627.254	0.0165499
627.332	0.0166099
627.410	0.0165431
627.488	0.0165491
627.567	0.0165309
627.645	0.0165258
627.723	0.0165622
627.801	0.0166274
627.879	0.0165170
627.957	0.0165564
628.035	0.0166114
628.113	0.0165594
628.192	0.0166644
628.270	0.0164144
628.348	0.0165498
628.426	0.0166779
628.504	0.0168289
628.582	0.0166258
628.660	0.0165389
628.738	0.0165423
628.817	0.0166374
628.895	0.0166199
628.973	0.0166373
629.051	0.0165454
629.129	0.0165468
629.207	0.0165636
629.285	0.0165282
629.363	0.0167689
629.442	0.0166485
629.520	0.0167115
629.598	0.0166261
629.676	0.0166040
629.754	0.0165654
629.832	0.0166601
629.910	0.0165257
629.988	0.0167546
630.067	0.0166053
630.145	0.0165682
630.223	0.0165844
630.301	0.0166591
630.379	0.0166895
630.457	0.0166456
630.535	0.0166538
630.613	0.0165382
630.692	0.0164712
630.770	0.0165936
630.848	0.0165752
630.926	0.0166148
631.004	0.0165976
631.082	0.0164739
631.160	0.0165903
631.238	0.0166663
631.317	0.0166391
631.395	0.0164484
631.473	0.0165536
631.551	0.0166077
631.629	0.0164850
631.707	0.0166666
631.785	0.0165946
631.863	0.0167156
631.942	0.0166322
632.020	0.0165404
632.098	0.0166489
632.176	0.0166888
632.254	0.0165904
632.332	0.0164990
632.410	0.0165262
632.488	0.0165768
632.567	0.0165903
632.645	0.0165524
632.723	0.0166035
632.801	0.0165536
632.879	0.0164889
632.957	0.0166045
633.035	0.0166771
633.113	0.0166357
633.192	0.0166054
633.270	0.0167075
633.348	0.0165911
633.426	0.0165604
633.504	0.0165433
633.582	0.0166144
633.660	0.0166402
633.738	0.0165547
633.817	0.0165819
633.895	0.0166794
633.973	0.0166589
634.051	0.0166978
634.129	0.0165894
634.207	0.0166814
634.285	0.0167095
634.363	0.0166473
634.442	0.0165660
634.520	0.0166660
634.598	0.0165639
634.676	0.0166996
634.754	0.0166206
634.832	0.0166019
634.910	0.0164972
634.988	0.0165741
635.067	0.0166331
635.145	0.0164537
635.223	0.0165317
635.301	0.0166113
635.379	0.0164787
635.457	0.0166094
635.535	0.0165433
635.613	0.0164479
635.692	0.0165594
635.770	0.0164198
635.848	0.0165965
635.926	0.0167214
636.004	0.0164954
636.082	0.0166359
636.160	0.0165023
636.238	0.0165722
636.317	0.0164767
636.395	0.0164845
636.473	0.0164794
636.551	0.0164603
636.629	0.0166210
636.707	0.0165398
636.785	0.0166443
636.863	0.0165076
636.942	0.0165816
637.020	0.0165614
637.098	0.0164307
637.176	0.0165137
637.254	0.0165279
637.332	0.0165183
637.410	0.0165946
637.488	0.0165810
637.567	0.0165881
637.645	0.0166461
637.723	0.0165967
637.801	0.0165356
637.879	0.0166557
637.957	0.0166297
638.035	0.0165294
638.113	0.0166014
638.192	0.0165966
638.270	0.0166293
638.348	0.0164818
638.426	0.0164716
638.504	0.0166998
638.582	0.0166480
638.660	0.0166290
638.738	0.0165644
638.817	0.0165749
638.895	0.0166409
638.973	0.0166858
639.051	0.0167138
639.129	0.0165456
639.207	0.0166167
639.285	0.0166269
639.363	0.0166101
639.442	0.0166982
639.520	0.0166372
639.598	0.0166162
639.676	0.0164775
639.754	0.0166233
639.832	0.0164301
639.910	0.0166708
639.988	0.0166329
640.067	0.0167188
640.145	0.0165002
640.223	0.0165495
640.301	0.0167147
640.379	0.0166570
640.457	0.0164229
640.535	0.0166529
640.613	0.0167347
640.692	0.0165737
640.770	0.0166182
640.848	0.0166716
640.926	0.0165418
641.004	0.0166857
641.082	0.0166122
641.160	0.0166194
641.238	0.0165155
641.317	0.0165143
641.395	0.0164364
641.473	0.0166631
641.551	0.0166367
641.629	0.0166506
641.707	0.0167305
641.785	0.0165952
641.863	0.0166742
641.942	0.0166417
642.020	0.0165614
642.098	0.0165745
642.176	0.0166221
642.254	0.0164816
642.332	0.0166516
642.410	0.0167053
642.488	0.0165954
642.567	0.0166474
642.645	0.0167110
642.723	0.0166139
642.801	0.0165784
642.879	0.0165622
642.957	0.0165833
643.035	0.0165391
643.113	0.0166702
643.192	0.0166557
643.270	0.0165559
643.348	0.0164885
643.426	0.0165321
643.504	0.0164951
643.582	0.0165836
643.660	0.0164675
643.738	0.0165860
643.817	0.0166084
643.895	0.0166250
643.973	0.0165717
644.051	0.0165076
644.129	0.0165174
644.207	0.0164426
644.285	0.0165742
644.363	0.0166738
644.442	0.0165230
644.520	0.0166411
644.598	0.0165652
644.676	0.0165712
644.754	0.0166471
644.832	0.0166128
644.910	0.0164210
644.988	0.0166619
645.067	0.0166186
645.145	0.0165823
645.223	0.0165922
645.301	0.0165690
645.379	0.0165414
645.457	0.0166711
645.535	0.0165524
645.613	0.0165101
645.692	0.0165002
645.770	0.0166393
645.848	0.0165796
645.926	0.0165388
646.004	0.0164412
646.082	0.0165555
646.160	0.0166499
646.238	0.0166319
646.317	0.0166006
646.395	0.0166141
646.473	0.0165557
646.551	0.0165746
646.629	0.0165512
646.707	0.0166411
646.785	0.0166749
646.863	0.0166652
646.942	0.0165738
647.020	0.0166351
647.098	0.0165720
647.176	0.0165868
647.254	0.0166309
647.332	0.0166530
647.410	0.0164975
647.488	0.0165337
647.567	0.0166112
647.645	0.0167414
647.723	0.0166643
647.801	0.0166346
647.879	0.0165427
647.957	0.0166581
648.035	0.0165524
648.113	0.0164796
648.192	0.0165554
648.270	0.0165887
648.348	0.0166118
648.426	0.0164993
648.504	0.0166292
648.582	0.0166441
648.660	0.0165041
648.738	0.0163836
648.817	0.0165498
648.895	0.0166963
648.973	0.0165618
649.051	0.0166249
649.129	0.0166652
649.207	0.0165726
649.285	0.0166851
649.363	0.0166579
649.442	0.0167046
649.520	0.0166271
649.598	0.0165948
649.676	0.0166193
649.754	0.0165986
649.832	0.0166083
649.910	0.0166136
649.988	0.0166922
650.067	0.0166669
650.145	0.0165341
650.223	0.0165425
650.301	0.0165469
650.379	0.0166458
650.457	0.0166975
650.535	0.0165870
650.613	0.0166882
650.692	0.0165410
650.770	0.0166421
650.848	0.0166449
650.926	0.0166050
651.004	0.0165888
651.082	0.0165851
651.160	0.0165731
651.238	0.0166534
651.317	0.0165237
651.395	0.0164997
651.473	0.0166657
651.551	0.0164948
651.629	0.0166873
651.707	0.0166260
651.785	0.0166636
651.863	0.0165600
651.942	0.0166840
652.020	0.0165994
652.098	0.0165357
652.176	0.0166341
652.254	0.0164828
652.332	0.0166518
652.410	0.0166820
652.488	0.0166241
652.567	0.0165853
652.645	0.0165691
652.723	0.0167226
652.801	0.0165775
652.879	0.0164774
652.957	0.0165913
653.035	0.0166220
653.113	0.0165947
653.192	0.0166390
653.270	0.0165617
653.348	0.0166687
653.426	0.0165615
653.504	0.0165821
653.582	0.0166158
653.660	0.0166518
653.738	0.0166235
653.817	0.0164979
653.895	0.0167131
653.973	0.0166123
654.051	0.0165282
654.129	0.0165725
654.207	0.0166474
654.285	0.0167139
654.363	0.0166785
654.442	0.0165977
654.520	0.0165057
654.598	0.0165912
654.676	0.0166026
654.754	0.0165374
654.832	0.0165826
654.910	0.0166840
654.988	0.0166600
655.067	0.0166501
655.145	0.0166129
655.223	0.0166101
655.301	0.0164087
655.379	0.0165230
655.457	0.0166569
655.535	0.0166747
655.613	0.0165154
655.692	0.0166264
655.770	0.0166625
655.848	0.0164251
655.926	0.0165394
656.004	0.0165043
656.082	0.0165408
656.160	0.0167238
656.238	0.0165874
656.317	0.0165701
656.395	0.0165733
656.473	0.0165805
656.551	0.0166743
656.629	0.0166433
656.707	0.0165677
656.785	0.0166043
656.863	0.0166560
656.942	0.0165363
657.020	0.0164618
657.098	0.0165983
657.176	0.0166881
657.254	0.0168014
657.332	0.0165858
657.410	0.0164569
657.488	0.0166423
657.567	0.0165044
657.645	0.0164453
657.723	0.0166898
657.801	0.0165810
657.879	0.0166041
657.957	0.0167082
658.035	0.0165829
658.113	0.0163998
658.192	0.0166708
658.270	0.0165987
658.348	0.0165664
658.426	0.0165834
658.504	0.0165472
658.582	0.0165367
658.660	0.0165154
658.738	0.0163293
658.817	0.0166037
658.895	0.0166117
658.973	0.0165823
659.051	0.0165476
659.129	0.0165358
659.207	0.0165596
659.285	0.0165088
659.363	0.0164900
659.442	0.0164275
659.520	0.0166077
659.598	0.0165656
659.676	0.0166132
659.754	0.0165976
659.832	0.0165383
659.910	0.0166109
659.988	0.0165538
660.067	0.0166431
660.145	0.0166391
660.223	0.0164947
660.301	0.0165057
660.379	0.0164756
660.457	0.0166288
660.535	0.0166107
660.613	0.0164713
660.692	0.0166504
660.770	0.0166945
660.848	0.0166464
660.926	0.0165876
661.004	0.0166113
661.082	0.0165116
661.160	0.0165891
661.238	0.0166354
661.317	0.0166150
661.395	0.0164347
661.473	0.0165043
661.551	0.0164949
661.629	0.0165871
661.707	0.0166051
661.785	0.0166840
661.863	0.0164949
661.942	0.0166358
662.020	0.0167117
662.098	0.0165556
662.176	0.0165593
662.254	0.0166050
662.332	0.0165517
662.410	0.0166151
662.488	0.0165436
662.567	0.0165666
662.645	0.0166045
662.723	0.0165346
662.801	0.0165135
662.879	0.0165342
662.957	0.0166410
663.035	0.0166031
663.113	0.0164488
663.192	0.0164885
663.270	0.0166025
663.348	0.0166080
663.426	0.0166084
663.504	0.0166065
663.582	0.0165907
663.660	0.0165586
663.738	0.0165192
663.817	0.0165815
663.895	0.0167416
663.973	0.0165483
664.051	0.0166266
664.129	0.0166965
664.207	0.0165073
664.285	0.0165533
664.363	0.0165915
664.442	0.0164877
664.520	0.0165231
664.598	0.0165831
664.676	0.0165955
664.754	0.0165389
664.832	0.0165449
664.910	0.0166189
664.988	0.0166659
665.067	0.0166128
665.145	0.0166283
665.223	0.0166104
665.301	0.0164513
665.379	0.0166099
665.457	0.0166438
665.535	0.0165052
665.613	0.0165525
665.692	0.0165398
665.770	0.0165957
665.848	0.0165839
665.926	0.0165926
666.004	0.0164853
666.082	0.0164639
666.160	0.0165318
666.238	0.0166733
666.317	0.0166257
666.395	0.0166848
666.473	0.0165425
666.551	0.0165454
666.629	0.0166280
666.707	0.0165723
666.785	0.0164647
666.863	0.0164921
666.942	0.0166399
667.020	0.0165852
667.098	0.0165963
667.176	0.0165569
667.254	0.0165351
667.332	0.0165874
667.410	0.0167617
667.488	0.0166952
667.567	0.0166491
667.645	0.0166277
667.723	0.0165216
667.801	0.0165868
667.879	0.0167036
667.957	0.0165562
668.035	0.0166258
668.113	0.0167480
668.192	0.0167067
668.270	0.0165206
668.348	0.0165611
668.426	0.0164890
668.504	0.0166213
668.582	0.0166873
668.660	0.0165633
668.738	0.0165546
668.817	0.0166589
668.895	0.0165769
668.973	0.0165783
669.051	0.0165178
669.129	0.0165695
669.207	0.0165649
669.285	0.0166265
669.363	0.0165169
669.442	0.0166026
669.520	0.0164771
669.598	0.0165482
669.676	0.0166956
669.754	0.0165255
669.832	0.0165494
669.910	0.0168024
669.988	0.0165147
670.067	0.0165277
670.145	0.0164290
670.223	0.0165871
670.301	0.0165903
670.379	0.0165244
670.457	0.0164854
670.535	0.0166595
670.613	0.0165154
670.692	0.0165803
670.770	0.0165028
670.848	0.0165270
670.926	0.0165621
671.004	0.0163486
671.082	0.0165489
671.160	0.0164816
671.238	0.0165685
671.317	0.0164902
671.395	0.0165553
671.473	0.0166988
671.551	0.0165565
671.629	0.0165336
671.707	0.0164492
671.785	0.0166571
671.863	0.0165826
671.942	0.0167472
672.020	0.0164923
672.098	0.0166709
672.176	0.0165901
672.254	0.0165084
672.332	0.0163937
672.410	0.0165269
672.488	0.0165174
672.567	0.0165498
672.645	0.0164000
672.723	0.0165796
672.801	0.0165073
672.879	0.0164920
672.957	0.0165379
673.035	0.0164458
673.113	0.0165058
673.192	0.0164717
673.270	0.0164069
673.348	0.0165112
673.426	0.0165025
673.504	0.0165057
673.582	0.0164853
673.660	0.0165107
673.738	0.0164754
673.817	0.0164841
673.895	0.0165505
673.973	0.0164453
674.051	0.0165289
674.129	0.0166418
674.207	0.0165367
674.285	0.0165886
674.363	0.0164235
674.442	0.0163023
674.520	0.0164443
674.598	0.0164893
674.676	0.0165140
674.754	0.0165047
674.832	0.0165127
674.910	0.0166109
674.988	0.0165257
675.067	0.0165063
675.145	0.0164548
675.223	0.0165263
675.301	0.0165990
675.379	0.0164929
675.457	0.0166070
675.535	0.0164539
675.613	0.0165134
675.692	0.0165249
675.770	0.0166073
675.848	0.0166977
675.926	0.0165009
676.004	0.0164243
676.082	0.0165127
676.160	0.0166071
676.238	0.0167217
676.317	0.0166401
676.395	0.0165489
676.473	0.0166199
676.551	0.0166161
676.629	0.0164667
676.707	0.0165520
676.785	0.0167131
676.863	0.0166608
676.942	0.0166969
677.020	0.0165592
677.098	0.0166121
677.176	0.0164859
677.254	0.0166563
677.332	0.0166774
677.410	0.0165639
677.488	0.0165173
677.567	0.0166890
677.645	0.0166341
677.723	0.0167004
677.801	0.0166738
677.879	0.0166563
677.957	0.0167290
678.035	0.0165607
678.113	0.0166687
678.192	0.0168244
678.270	0.0167746
678.348	0.0166945
678.426	0.0166956
678.504	0.0167087
678.582	0.0166420
678.660	0.0166721
678.738	0.0167075
678.817	0.0167110
678.895	0.0166734
678.973	0.0166193
679.051	0.0166592
679.129	0.0166948
679.207	0.0166156
679.285	0.0166026
679.363	0.0166502
679.442	0.0166768
679.520	0.0166851
679.598	0.0167443
679.676	0.0166879
679.754	0.0166982
679.832	0.0166502
679.910	0.0166246
679.988	0.0166367
680.067	0.0167284
680.145	0.0167262
680.223	0.0166209
680.301	0.0165693
680.379	0.0166435
680.457	0.0166972
680.535	0.0166307
680.613	0.0166691
680.692	0.0167446
680.770	0.0167205
680.848	0.0166660
680.926	0.0166422
681.004	0.0165006
681.082	0.0167863
681.160	0.0167097
681.238	0.0166422
681.317	0.0166191
681.395	0.0166045
681.473	0.0166764
681.551	0.0166121
681.629	0.0166447
681.707	0.0165403
681.785	0.0164858
681.863	0.0166827
681.942	0.0167439
682.020	0.0165826
682.098	0.0165788
682.176	0.0166599
682.254	0.0166498
682.332	0.0164348
682.410	0.0165388
682.488	0.0166354
682.567	0.0165670
682.645	0.0167505
682.723	0.0164806
682.801	0.0164906
682.879	0.0166273
682.957	0.0164819
683.035	0.0164938
683.113	0.0165646
683.192	0.0165849
683.270	0.0165240
683.348	0.0165194
683.426	0.0165482
683.504	0.0166009
683.582	0.0165827
683.660	0.0165024
683.738	0.0165856
683.817	0.0166051
683.895	0.0165178
683.973	0.0166421
684.051	0.0165029
684.129	0.0163824
684.207	0.0163998
684.285	0.0165292
684.363	0.0165387
684.442	0.0165807
684.520	0.0165736
684.598	0.0166321
684.676	0.0165018
684.754	0.0164720
684.832	0.0165737
684.910	0.0166960
684.988	0.0164899
685.067	0.0165452
685.145	0.0164659
685.223	0.0165236
685.301	0.0164235
685.379	0.0166385
685.457	0.0165420
685.535	0.0164528
685.613	0.0165452
685.692	0.0165060
685.770	0.0165546
685.848	0.0163696
685.926	0.0164882
686.004	0.0165556
686.082	0.0164696
686.160	0.0165903
686.238	0.0165443
686.317	0.0165886
686.395	0.0164742
686.473	0.0165411
686.551	0.0164115
686.629	0.0163602
686.707	0.0165096
686.785	0.0165687
686.863	0.0166477
686.942	0.0165431
687.020	0.0165710
687.098	0.0165764
687.176	0.0164883
687.254	0.0164603
687.332	0.0165590
687.410	0.0167177
687.488	0.0166009
687.567	0.0165093
687.645	0.0164356
687.723	0.0164444
687.801	0.0163547
687.879	0.0162386
687.957	0.0162154
688.035	0.0163738
688.113	0.0165541
688.192	0.0165984
688.270	0.0169347
688.348	0.0171142
688.426	0.0172245
688.504	0.0173973
688.582	0.0176664
688.660	0.0177436
688.738	0.0177042
688.817	0.0174140
688.895	0.0170683
688.973	0.0165827
689.051	0.0158527
689.129	0.0153302
689.207	0.0147324
689.285	0.0141741
689.363	0.0137314
689.442	0.0137012
689.520	0.0141903
689.598	0.0147148
689.676	0.0157992
689.754	0.0169654
689.832	0.0181213
689.910	0.0193173
689.988	0.0201083
690.067	0.0207633
690.145	0.0210249
690.223	0.0208464
690.301	0.0202263
690.379	0.0192560
690.457	0.0181522
690.535	0.0168940
690.613	0.0156087
690.692	0.0143620
690.770	0.0133813
690.848	0.0126966
690.926	0.0121892
691.004	0.0121407
691.082	0.0124583
691.160	0.0130003
691.238	0.0140182
691.317	0.0151608
691.395	0.0163341
691.473	0.0173862
691.551	0.0184548
691.629	0.0194114
691.707	0.0202779
691.785	0.0208069
691.863	0.0209838
691.942	0.0207300
692.020	0.0202135
692.098	0.0194765
692.176	0.0184715
692.254	0.0171390
692.332	0.0162269
692.410	0.0150433
692.488	0.0141350
692.567	0.0132381
692.645	0.0126489
692.723	0.0124069
692.801	0.0129207
692.879	0.0131275
692.957	0.0137435
693.035	0.0147537
693.113	0.0155286
693.192	0.0163442
693.270	0.0172731
693.348	0.0180902
693.426	0.0185572
693.504	0.0188293
693.582	0.0190381
693.660	0.0190228
693.738	0.0190388
693.817	0.0186444
693.895	0.0183421
693.973	0.0179378
694.051	0.0173761
694.129	0.0169730
694.207	0.0166131
694.285	0.0162018
694.363	0.0160151
694.442	0.0156195
694.520	0.0156170
694.598	0.0154897
694.676	0.0154487
694.754	0.0154991
694.832	0.0157122
694.910	0.0160153
694.988	0.0163158
695.067	0.0165606
695.145	0.0169881
695.223	0.0170776
695.301	0.0172433
695.379	0.0173126
695.457	0.0172210
695.535	0.0169769
695.613	0.0168700
695.692	0.0164272
695.770	0.0163062
695.848	0.0161617
695.926	0.0157532
696.004	0.0154406
696.082	0.0153505
696.160	0.0154397
696.238	0.0155260
696.317	0.0154130
696.395	0.0156847
696.473	0.0158543
696.551	0.0159666
696.629	0.0160748
696.707	0.0163314
696.785	0.0164861
696.863	0.0167393
696.942	0.0169736
697.020	0.0169952
697.098	0.0172073
697.176	0.0174641
697.254	0.0175871
697.332	0.0177952
697.410	0.0178495
697.488	0.0180495
697.567	0.0180421
697.645	0.0181005
697.723	0.0181196
697.801	0.0178117
697.879	0.0175782
697.957	0.0173890
698.035	0.0170535
698.113	0.0167774
698.192	0.0166113
698.270	0.0162522
698.348	0.0160645
698.426	0.0157743
698.504	0.0156396
698.582	0.0153957
698.660	0.0152995
698.738	0.0152332
698.817	0.0151020
698.895	0.0151346
698.973	0.0150977
699.051	0.0151350
699.129	0.0152963
699.207	0.0153750
699.285	0.0156743
699.363	0.0159750
699.442	0.0163652
699.520	0.0165929
699.598	0.0168920
699.676	0.0170931
699.754	0.0174111
699.832	0.0175364
699.910	0.0177280
699.988	0.0178264
700.067	0.0178497
700.145	0.0176139
700.223	0.0174554
700.301	0.0173701
700.379	0.0172093
700.457	0.0170869
700.535	0.0169827
700.613	0.0167573
700.692	0.0164894
700.770	0.0163484
700.848	0.0164980
700.926	0.0163395
701.004	0.0162856
701.082	0.0163959
701.160	0.0163680
701.238	0.0163174
701.317	0.0164265
701.395	0.0164446
701.473	0.0165607
701.551	0.0163662
701.629	0.0165721
701.707	0.0164835
701.785	0.0164968
701.863	0.0164590
701.942	0.0165465
702.020	0.0165130
702.098	0.0164213
702.176	0.0162038
702.254	0.0162954
702.332	0.0162849
702.410	0.0160867
702.488	0.0161164
702.567	0.0162152
702.645	0.0161691
702.723	0.0161676
702.801	0.0161854
702.879	0.0162556
702.957	0.0163262
703.035	0.0163783
703.113	0.0165154
703.192	0.0166399
703.270	0.0166511
703.348	0.0168168
703.426	0.0167973
703.504	0.0167493
703.582	0.0168345
703.660	0.0168760
703.738	0.0169035
703.817	0.0167806
703.895	0.0166763
703.973	0.0166854
704.051	0.0167768
704.129	0.0167825
704.207	0.0168791
704.285	0.0167605
704.363	0.0168253
704.442	0.0167376
704.520	0.0168416
704.598	0.0169173
704.676	0.0171786
704.754	0.0171712
704.832	0.0172707
704.910	0.0172924
704.988	0.0171924
705.067	0.0172269
705.145	0.0173808
705.223	0.0172694
705.301	0.0173451
705.379	0.0171066
705.457	0.0170071
705.535	0.0171361
705.613	0.0168369
705.692	0.0166045
705.770	0.0167622
705.848	0.0166088
705.926	0.0165472
706.004	0.0161837
706.082	0.0160100
706.160	0.0160046
706.238	0.0158135
706.317	0.0158045
706.395	0.0158099
706.473	0.0158125
706.551	0.0159168
706.629	0.0160166
706.707	0.0159692
706.785	0.0162241
706.863	0.0164206
706.942	0.0163924
707.020	0.0165816
707.098	0.0166170
707.176	0.0165959
707.254	0.0165881
707.332	0.0165596
707.410	0.0166164
707.488	0.0163972
707.567	0.0164883
707.645	0.0164572
707.723	0.0163214
707.801	0.0163473
707.879	0.0162635
707.957	0.0162447
708.035	0.0165103
708.113	0.0163802
708.192	0.0163529
708.270	0.0166824
708.348	0.0167404
708.426	0.0167274
708.504	0.0169444
708.582	0.0172279
708.660	0.0172300
708.738	0.0174534
708.817	0.0174919
708.895	0.0176730
708.973	0.0176579
709.051	0.0175895
709.129	0.0174548
709.207	0.0173930
709.285	0.0172890
709.363	0.0171364
709.442	0.0169699
709.520	0.0169138
709.598	0.0167378
709.676	0.0164765
709.754	0.0164873
709.832	0.0163092
709.910	0.0161047
709.988	0.0160932
710.067	0.0160242
710.145	0.0162275
710.223	0.0164833
710.301	0.0162682
710.379	0.0164993
710.457	0.0167978
710.535	0.0167664
710.613	0.0168797
710.692	0.0170361
710.770	0.0170257
710.848	0.0168219
710.926	0.0168078
711.004	0.0167455
711.082	0.0166211
711.160	0.0164722
711.238	0.0162663
711.317	0.0158208
711.395	0.0156654
711.473	0.0156545
711.551	0.0155068
711.629	0.0155238
711.707	0.0154854
711.785	0.0155895
711.863	0.0155053
711.942	0.0154691
712.020	0.0158102
712.098	0.0158701
712.176	0.0160664
712.254	0.0165119
712.332	0.0165204
712.410	0.0166280
712.488	0.0167628
712.567	0.0167939
712.645	0.0167994
712.723	0.0168028
712.801	0.0167413
712.879	0.0168386
712.957	0.0168134
713.035	0.0166427
713.113	0.0166552
713.192	0.0165835
713.270	0.0166385
713.348	0.0166618
713.426	0.0165409
713.504	0.0166975
713.582	0.0165686
713.660	0.0167561
713.738	0.0168179
713.817	0.0168043
713.895	0.0169379
713.973	0.0170035
714.051	0.0170488
714.129	0.0170372
714.207	0.0169865
714.285	0.0170821
714.363	0.0170733
714.442	0.0170727
714.520	0.0170635
714.598	0.0170130
714.676	0.0169083
714.754	0.0167390
714.832	0.0167265
714.910	0.0165773
714.988	0.0164756
715.067	0.0164426
715.145	0.0163543
715.223	0.0163969
715.301	0.0163980
715.379	0.0162138
715.457	0.0164120
715.535	0.0165701
715.613	0.0165766
715.692	0.0167078
715.770	0.0167181
715.848	0.0169534
715.926	0.0169847
716.004	0.0171083
716.082	0.0171272
716.160	0.0171717
716.238	0.0169643
716.317	0.0168898
716.395	0.0167807
716.473	0.0166799
716.551	0.0166607
716.629	0.0165504
716.707	0.0163633
716.785	0.0160646
716.863	0.0160706
716.942	0.0158361
717.020	0.0159415
717.098	0.0161466
717.176	0.0160406
717.254	0.0161171
717.332	0.0161591
717.410	0.0163137
717.488	0.0163060
717.567	0.0163280
717.645	0.0163577
717.723	0.0165731
717.801	0.0166719
717.879	0.0166628
717.957	0.0166365
718.035	0.0166282
718.113	0.0167880
718.192	0.0166386
718.270	0.0166653
718.348	0.0166490
718.426	0.0165981
718.504	0.0165520
718.582	0.0166283
718.660	0.0164063
718.738	0.0164701
718.817	0.0164587
718.895	0.0164614
718.973	0.0163958
719.051	0.0163724
719.129	0.0166002
719.207	0.0165150
719.285	0.0166920
719.363	0.0168195
719.442	0.0169643
719.520	0.0169498
719.598	0.0170506
719.676	0.0171139
719.754	0.0171612
719.832	0.0171756
719.910	0.0171426
719.988	0.0169994
720.067	0.0168577
720.145	0.0168082
720.223	0.0167119
720.301	0.0165893
720.379	0.0165135
720.457	0.0163432
720.535	0.0162861
720.613	0.0161270
720.692	0.0160317
720.770	0.0160560
720.848	0.0159959
720.926	0.0160818
721.004	0.0162996
721.082	0.0163543
721.160	0.0163078
721.238	0.0165024
721.317	0.0166705
721.395	0.0166278
721.473	0.0167933
721.551	0.0169559
721.629	0.0169968
721.707	0.0169671
721.785	0.0168681
721.863	0.0168333
721.942	0.0167686
722.020	0.0167364
722.098	0.0165605
722.176	0.0163083
722.254	0.0163368
722.332	0.0161485
722.410	0.0162148
722.488	0.0162349
722.567	0.0161127
722.645	0.0160892
722.723	0.0163689
722.801	0.0164264
722.879	0.0165089
722.957	0.0166212
723.035	0.0166739
723.113	0.0170347
723.192	0.0169092
723.270	0.0171252
723.348	0.0170689
723.426	0.0171229
723.504	0.0171207
723.582	0.0171348
723.660	0.0170235
723.738	0.0169115
723.817	0.0167625
723.895	0.0168568
723.973	0.0168095
724.051	0.0165911
724.129	0.0164244
724.207	0.0164321
724.285	0.0163843
724.363	0.0163346
724.442	0.0163562
724.520	0.0162837
724.598	0.0162884
724.676	0.0162963
724.754	0.0164637
724.832	0.0165053
724.910	0.0165472
724.988	0.0166554
725.067	0.0167857
725.145	0.0168214
725.223	0.0168259
725.301	0.0168732
725.379	0.0168780
725.457	0.0166272
725.535	0.0166062
725.613	0.0165815
725.692	0.0164896
725.770	0.0163908
725.848	0.0160800
725.926	0.0161642
726.004	0.0160383
726.082	0.0160713
726.160	0.0161236
726.238	0.0160771
726.317	0.0161060
726.395	0.0160701
726.473	0.0161432
726.551	0.0162032
726.629	0.0162607
726.707	0.0165421
726.785	0.0164966
726.863	0.0165252
726.942	0.0165130
727.020	0.0165429
727.098	0.0167226
727.176	0.0166738
727.254	0.0165827
727.332	0.0165468
727.410	0.0165656
727.488	0.0165769
727.567	0.0165863
727.645	0.0166396
727.723	0.0166033
727.801	0.0166830
727.879	0.0166722
727.957	0.0166173
728.035	0.0168193
728.113	0.0168496
728.192	0.0168892
728.270	0.0169107
728.348	0.0169624
728.426	0.0169263
728.504	0.0169616
728.582	0.0170263
728.660	0.0171091
728.738	0.0169812
728.817	0.0168853
728.895	0.0169362
728.973	0.0169231
729.051	0.0167605
729.129	0.0167760
729.207	0.0167109
729.285	0.0166099
729.363	0.0164891
729.442	0.0166177
729.520	0.0165465
729.598	0.0163813
729.676	0.0164491
729.754	0.0163391
729.832	0.0166141
729.910	0.0165300
729.988	0.0165292
730.067	0.0165592
730.145	0.0166272
730.223	0.0167615
730.301	0.0166578
730.379	0.0167596
730.457	0.0168188
730.535	0.0168682
730.613	0.0168990
730.692	0.0168311
730.770	0.0168686
730.848	0.0167667
730.926	0.0166635
731.004	0.0166766
731.082	0.0166135
731.160	0.0165137
731.238	0.0165101
731.317	0.0164148
731.395	0.0164579
731.473	0.0163465
731.551	0.0163004
731.629	0.0164694
731.707	0.0164496
731.785	0.0162892
731.863	0.0164734
731.942	0.0164733
732.020	0.0164678
732.098	0.0166048
732.176	0.0165759
732.254	0.0165530
732.332	0.0165575
732.410	0.0167020
732.488	0.0166808
732.567	0.0166025
732.645	0.0165807
732.723	0.0165146
732.801	0.0165401
732.879	0.0165117
732.957	0.0164376
733.035	0.0163787
733.113	0.0163577
733.192	0.0165267
733.270	0.0164131
733.348	0.0164979
733.426	0.0164145
733.504	0.0165262
733.582	0.0165326
733.660	0.0165294
733.738	0.0166180
733.817	0.0165727
733.895	0.0164969
733.973	0.0166121
734.051	0.0166576
734.129	0.0167274
734.207	0.0167946
734.285	0.0167994
734.363	0.0166897
734.442	0.0167135
734.520	0.0166729
734.598	0.0167155
734.676	0.0166682
734.754	0.0166618
734.832	0.0166288
734.910	0.0165871
734.988	0.0167637
735.067	0.0166834
735.145	0.0166997
735.223	0.0166140
735.301	0.0166411
735.379	0.0166469
735.457	0.0166702
735.535	0.0165595
735.613	0.0167884
735.692	0.0167551
735.770	0.0166377
735.848	0.0166167
735.926	0.0167507
736.004	0.0167300
736.082	0.0167003
736.160	0.0167316
736.238	0.0167219
736.317	0.0166177
736.395	0.0166691
736.473	0.0164616
736.551	0.0165068
736.629	0.0166825
736.707	0.0164282
736.785	0.0161475
736.863	0.0163599
736.942	0.0164997
737.020	0.0165113
737.098	0.0165249
737.176	0.0165327
737.254	0.0166552
737.332	0.0164606
737.410	0.0167021
737.488	0.0168702
737.567	0.0166927
737.645	0.0168301
737.723	0.0167381
737.801	0.0167486
737.879	0.0165627
737.957	0.0165929
738.035	0.0166630
738.113	0.0165632
738.192	0.0166025
738.270	0.0166100
738.348	0.0163311
738.426	0.0163219
738.504	0.0165816
738.582	0.0165211
738.660	0.0163687
738.738	0.0165643
738.817	0.0164828
738.895	0.0164075
738.973	0.0165192
739.051	0.0165031
739.129	0.0164581
739.207	0.0165530
739.285	0.0163748
739.363	0.0164248
739.442	0.0165327
739.520	0.0164483
739.598	0.0164790
739.676	0.0164027
739.754	0.0164875
739.832	0.0165477
739.910	0.0163529
739.988	0.0163689
740.067	0.0163910
740.145	0.0165592
740.223	0.0165729
740.301	0.0165334
740.379	0.0166689
740.457	0.0165430
740.535	0.0164886
740.613	0.0167477
740.692	0.0167724
740.770	0.0167523
740.848	0.0167000
740.926	0.0167976
741.004	0.0167146
741.082	0.0168797
741.160	0.0167986
741.238	0.0166579
741.317	0.0167307
741.395	0.0166644
741.473	0.0166558
741.551	0.0166392
741.629	0.0166250
741.707	0.0167175
741.785	0.0166245
741.863	0.0166144
741.942	0.0165398
742.020	0.0165280
742.098	0.0164174
742.176	0.0165710
742.254	0.0165342
742.332	0.0163714
742.410	0.0164006
742.488	0.0164837
742.567	0.0166415
742.645	0.0163980
742.723	0.0165749
742.801	0.0166331
742.879	0.0165834
742.957	0.0165904
743.035	0.0166755
743.113	0.0166702
743.192	0.0166394
743.270	0.0165887
743.348	0.0166044
743.426	0.0165932
743.504	0.0166505
743.582	0.0166792
743.660	0.0166071
743.738	0.0165446
743.817	0.0165253
743.895	0.0168121
743.973	0.0166427
744.051	0.0164987
744.129	0.0166442
744.207	0.0163578
744.285	0.0165144
744.363	0.0165419
744.442	0.0165675
744.520	0.0166142
744.598	0.0165324
744.676	0.0165131
744.754	0.0166264
744.832	0.0166707
744.910	0.0165569
744.988	0.0167039
745.067	0.0165577
745.145	0.0166361
745.223	0.0165896
745.301	0.0166119
745.379	0.0165459
745.457	0.0164722
745.535	0.0165531
745.613	0.0166113
745.692	0.0165087
745.770	0.0164292
745.848	0.0164234
745.926	0.0165974
746.004	0.0164951
746.082	0.0164391
746.160	0.0166000
746.238	0.0165458
746.317	0.0165167
746.395	0.0166082
746.473	0.0165765
746.551	0.0166802
746.629	0.0166679
746.707	0.0166369
746.785	0.0167626
746.863	0.0168456
746.942	0.0167582
747.020	0.0166954
747.098	0.0167255
747.176	0.0167223
747.254	0.0164995
747.332	0.0165867
747.410	0.0165659
747.488	0.0166299
747.567	0.0165812
747.645	0.0166049
747.723	0.0165669
747.801	0.0164320
747.879	0.0165167
747.957	0.0165806
748.035	0.0165816
748.113	0.0165268
748.192	0.0165026
748.270	0.0164378
748.348	0.0164834
748.426	0.0165862
748.504	0.0166059
748.582	0.0165281
748.660	0.0164294
748.738	0.0165790
748.817	0.0165407
748.895	0.0166206
748.973	0.0165823
749.051	0.0165872
749.129	0.0166470
749.207	0.0166434
749.285	0.0165189
749.363	0.0163311
749.442	0.0164110
749.520	0.0165078
749.598	0.0165764
749.676	0.0165868
749.754	0.0166257
749.832	0.0165987
749.910	0.0165853
749.988	0.0164716
750.067	0.0164620
750.145	0.0165614
750.223	0.0165874
750.301	0.0166449
750.379	0.0165447
750.457	0.0164764
750.535	0.0167269
750.613	0.0167045
750.692	0.0165629
750.770	0.0165582
750.848	0.0166184
750.926	0.0165350
751.004	0.0165290
751.082	0.0166210
751.160	0.0165790
751.238	0.0165763
751.317	0.0165115
751.395	0.0165788
751.473	0.0167146
751.551	0.0165953
751.629	0.0166272
751.707	0.0166614
751.785	0.0167028
751.863	0.0166910
751.942	0.0167258
752.020	0.0167932
752.098	0.0166025
752.176	0.0165562
752.254	0.0164955
752.332	0.0165688
752.410	0.0164067
752.488	0.0166890
752.567	0.0165556
752.645	0.0165235
752.723	0.0165491
752.801	0.0165746
752.879	0.0165311
752.957	0.0165106
753.035	0.0165452
753.113	0.0166863
753.192	0.0167104
753.270	0.0166133
753.348	0.0166648
753.426	0.0166847
753.504	0.0167646
753.582	0.0166622
753.660	0.0166502
753.738	0.0168124
753.817	0.0166975
753.895	0.0166525
753.973	0.0165660
754.051	0.0165591
754.129	0.0165308
754.207	0.0164876
754.285	0.0165105
754.363	0.0165852
754.442	0.0164278
754.520	0.0164958
754.598	0.0164644
754.676	0.0165602
754.754	0.0166230
754.832	0.0164291
754.910	0.0165788
754.988	0.0165553
755.067	0.0165868
755.145	0.0166324
755.223	0.0166917
755.301	0.0167047
755.379	0.0167101
755.457	0.0166021
755.535	0.0167121
755.613	0.0166595
755.692	0.0165424
755.770	0.0166929
755.848	0.0167242
755.926	0.0168031
756.004	0.0166331
756.082	0.0165807
756.160	0.0166197
756.238	0.0165707
756.317	0.0164098
756.395	0.0163634
756.473	0.0163907
756.551	0.0166022
756.629	0.0164585
756.707	0.0164561
756.785	0.0164870
756.863	0.0163611
756.942	0.0163988
757.020	0.0165694
757.098	0.0166482
757.176	0.0165290
757.254	0.0166181
757.332	0.0165851
757.410	0.0167337
757.488	0.0166788
757.567	0.0167554
757.645	0.0166255
757.723	0.0166445
757.801	0.0168188
757.879	0.0166586
757.957	0.0166562
758.035	0.0165730
758.113	0.0165504
758.192	0.0166736
758.270	0.0166393
758.348	0.0166634
758.426	0.0166216
758.504	0.0165966
758.582	0.0167710
758.660	0.0166541
758.738	0.0166214
758.817	0.0165583
758.895	0.0167155
758.973	0.0166624
759.051	0.0166132
759.129	0.0166489
759.207	0.0167021
759.285	0.0165994
759.363	0.0166275
759.442	0.0166476
759.520	0.0166514
759.598	0.0166478
759.676	0.0165949
759.754	0.0166212
759.832	0.0165801
759.910	0.0165817
759.988	0.0165856
760.067	0.0166270
760.145	0.0167217
760.223	0.0166007
760.301	0.0166629
760.379	0.0166269
760.457	0.0165547
760.535	0.0166199
760.613	0.0166318
760.692	0.0167056
760.770	0.0165347
760.848	0.0166219
760.926	0.0165632
761.004	0.0165808
761.082	0.0164809
761.160	0.0164605
761.238	0.0166451
761.317	0.0164825
761.395	0.0165635
761.473	0.0166159
761.551	0.0164184
761.629	0.0164359
761.707	0.0163436
761.785	0.0162769
761.863	0.0163667
761.942	0.0166304
762.020	0.0166002
762.098	0.0165282
762.176	0.0164567
762.254	0.0165460
762.332	0.0165921
762.410	0.0166321
762.488	0.0167069
762.567	0.0166753
762.645	0.0167587
762.723	0.0167138
762.801	0.0167426
762.879	0.0167188
762.957	0.0166406
763.035	0.0167323
763.113	0.0166846
763.192	0.0165936
763.270	0.0164832
763.348	0.0165659
763.426	0.0166058
763.504	0.0164207
763.582	0.0165514
763.660	0.0166418
763.738	0.0164418
763.817	0.0164394
763.895	0.0166532
763.973	0.0166547
764.051	0.0167999
764.129	0.0167185
764.207	0.0165919
764.285	0.0165233
764.363	0.0167358
764.442	0.0165166
764.520	0.0166204
764.598	0.0165475
764.676	0.0165541
764.754	0.0166151
764.832	0.0166067
764.910	0.0165546
764.988	0.0165159
765.067	0.0164040
765.145	0.0164018
765.223	0.0164622
765.301	0.0164813
765.379	0.0163715
765.457	0.0164543
765.535	0.0165295
765.613	0.0166286
765.692	0.0165392
765.770	0.0166788
765.848	0.0166147
765.926	0.0165530
766.004	0.0166899
766.082	0.0166592
766.160	0.0168021
766.238	0.0168840
766.317	0.0167704
766.395	0.0165836
766.473	0.0166395
766.551	0.0168298
766.629	0.0167448
766.707	0.0167805
766.785	0.0167719
766.863	0.0166251
766.942	0.0165622
767.020	0.0166576
767.098	0.0164904
767.176	0.0164664
767.254	0.0165616
767.332	0.0165777
767.410	0.0166677
767.488	0.0165883
767.567	0.0164529
767.645	0.0164658
767.723	0.0165249
767.801	0.0166270
767.879	0.0166059
767.957	0.0165920
768.035	0.0167432
768.113	0.0167976
768.192	0.0167171
768.270	0.0166904
768.348	0.0166872
768.426	0.0165713
768.504	0.0163987
768.582	0.0163622
768.660	0.0164159
768.738	0.0166340
768.817	0.0165856
768.895	0.0164736
768.973	0.0163385
769.051	0.0165034
769.129	0.0165542
769.207	0.0164555
769.285	0.0165173
769.363	0.0165182
769.442	0.0166783
769.520	0.0165340
769.598	0.0166891
769.676	0.0165495
769.754	0.0166352
769.832	0.0166209
769.910	0.0164987
769.988	0.0165489
770.067	0.0165650
770.145	0.0167337
770.223	0.0167108
770.301	0.0166817
770.379	0.0165036
770.457	0.0167183
770.535	0.0166662
770.613	0.0166869
770.692	0.0166553
770.770	0.0166556
770.848	0.0165189
770.926	0.0166161
771.004	0.0165726
771.082	0.0165517
771.160	0.0165030
771.238	0.0165820
771.317	0.0164851
771.395	0.0164838
771.473	0.0165479
771.551	0.0165230
771.629	0.0165123
771.707	0.0165648
771.785	0.0164402
771.863	0.0164999
771.942	0.0165557
772.020	0.0164121
772.098	0.0165855
772.176	0.0165044
772.254	0.0163857
772.332	0.0166476
772.410	0.0164912
772.488	0.0166577
772.567	0.0166664
772.645	0.0164990
772.723	0.0165405
772.801	0.0164406
772.879	0.0164056
772.957	0.0165917
773.035	0.0165958
773.113	0.0165730
773.192	0.0165717
773.270	0.0165533
773.348	0.0165161
773.426	0.0166627
773.504	0.0165359
773.582	0.0165308
773.660	0.0165924
773.738	0.0166637
773.817	0.0165923
773.895	0.0165639
773.973	0.0164017
774.051	0.0165716
774.129	0.0166002
774.207	0.0166532
774.285	0.0167751
774.363	0.0166345
774.442	0.0166534
774.520	0.0165618
774.598	0.0165748
774.676	0.0166462
774.754	0.0166920
774.832	0.0166085
774.910	0.0166898
774.988	0.0166280
775.067	0.0166022
775.145	0.0165552
775.223	0.0165582
775.301	0.0164689
775.379	0.0165552
775.457	0.0166993
775.535	0.0164893
775.613	0.0166786
775.692	0.0167248
775.770	0.0167060
775.848	0.0166206
775.926	0.0165771
776.004	0.0166739
776.082	0.0166315
776.160	0.0166258
776.238	0.0166961
776.317	0.0166631
776.395	0.0164861
776.473	0.0165980
776.551	0.0164806
776.629	0.0166185
776.707	0.0167574
776.785	0.0165506
776.863	0.0166339
776.942	0.0165464
777.020	0.0166639
777.098	0.0165487
777.176	0.0165855
777.254	0.0165172
777.332	0.0164069
777.410	0.0164622
777.488	0.0166801
777.567	0.0165157
777.645	0.0164689
777.723	0.0165494
777.801	0.0167034
777.879	0.0164105
777.957	0.0165646
778.035	0.0166100
778.113	0.0165700
778.192	0.0167015
778.270	0.0165032
778.348	0.0166426
778.426	0.0165417
778.504	0.0165968
778.582	0.0166012
778.660	0.0165676
778.738	0.0165699
778.817	0.0164574
778.895	0.0164684
778.973	0.0165662
779.051	0.0166043
779.129	0.0165366
779.207	0.0165093
779.285	0.0165126
779.363	0.0164878
779.442	0.0165424
779.520	0.0165281
779.598	0.0164410
779.676	0.0165728
779.754	0.0165451
779.832	0.0164912
779.910	0.0164964
779.988	0.0165044
780.067	0.0165836
780.145	0.0164156
780.223	0.0164588
780.301	0.0166488
780.379	0.0166750
780.457	0.0168333
780.535	0.0166648
780.613	0.0166933
780.692	0.0166167
780.770	0.0167443
780.848	0.0166493
780.926	0.0166250
781.004	0.0166146
781.082	0.0165225
781.160	0.0166267
781.238	0.0166995
781.317	0.0166856
781.395	0.0166075
781.473	0.0166384
781.551	0.0167070
781.629	0.0166605
781.707	0.0165603
781.785	0.0164658
781.863	0.0165571
781.942	0.0165237
782.020	0.0165611
782.098	0.0166296
782.176	0.0165742
782.254	0.0165749
782.332	0.0164432
782.410	0.0165820
782.488	0.0166579
782.567	0.0165372
782.645	0.0166341
782.723	0.0166233
782.801	0.0165248
782.879	0.0164900
782.957	0.0166158
783.035	0.0166036
783.113	0.0164794
783.192	0.0165423
783.270	0.0166033
783.348	0.0165452
783.426	0.0164785
783.504	0.0164950
783.582	0.0165550
783.660	0.0165975
783.738	0.0165128
783.817	0.0166557
783.895	0.0168225
783.973	0.0165510
784.051	0.0165266
784.129	0.0166261
784.207	0.0166724
784.285	0.0164903
784.363	0.0166800
784.442	0.0166781
784.520	0.0167565
784.598	0.0167154
784.676	0.0165621
784.754	0.0166759
784.832	0.0164962
784.910	0.0166966
784.988	0.0165707
785.067	0.0164600
785.145	0.0165393
785.223	0.0164484
785.301	0.0165060
785.379	0.0164781
785.457	0.0164922
785.535	0.0165137
785.613	0.0166413
785.692	0.0166959
785.770	0.0166473
785.848	0.0165667
785.926	0.0166584
786.004	0.0168038
786.082	0.0167573
786.160	0.0167146
786.238	0.0167025
786.317	0.0167994
786.395	0.0165768
786.473	0.0166174
786.551	0.0166762
786.629	0.0165464
786.707	0.0164632
786.785	0.0163678
786.863	0.0163734
786.942	0.0166350
787.020	0.0165704
787.098	0.0165488
787.176	0.0166571
787.254	0.0166158
787.332	0.0166286
787.410	0.0167211
787.488	0.0167664
787.567	0.0167134
787.645	0.0167058
787.723	0.0167291
787.801	0.0167159
787.879	0.0167141
787.957	0.0167072
788.035	0.0166152
788.113	0.0166914
788.192	0.0165821
788.270	0.0166989
788.348	0.0165563
788.426	0.0164996
788.504	0.0164434
788.582	0.0165816
788.660	0.0163557
788.738	0.0163973
788.817	0.0163306
788.895	0.0164022
788.973	0.0164202
789.051	0.0164202
789.129	0.0164076
789.207	0.0165336
789.285	0.0166022
789.363	0.0166013
789.442	0.0165412
789.520	0.0166795
789.598	0.0167850
789.676	0.0167502
789.754	0.0167240
789.832	0.0167368
789.910	0.0168186
789.988	0.0167897
790.067	0.0169154
790.145	0.0169862
790.223	0.0168324
790.301	0.0166487
790.379	0.0166275
790.457	0.0166570
790.535	0.0166808
790.613	0.0165656
790.692	0.0165443
790.770	0.0164549
790.848	0.0165014
790.926	0.0164398
791.004	0.0164794
791.082	0.0164356
791.160	0.0164809
791.238	0.0165805
791.317	0.0165591
791.395	0.0166148
791.473	0.0167398
791.551	0.0166217
791.629	0.0167714
791.707	0.0167340
791.785	0.0167021
791.863	0.0167764
791.942	0.0167764
792.020	0.0166721
792.098	0.0166927
792.176	0.0165823
792.254	0.0165079
792.332	0.0164824
792.410	0.0164585
792.488	0.0165170
792.567	0.0163846
792.645	0.0163728
792.723	0.0164941
792.801	0.0164864
792.879	0.0163586
792.957	0.0162837
793.035	0.0165223
793.113	0.0163912
793.192	0.0164777
793.270	0.0166615
793.348	0.0165730
793.426	0.0164718
793.504	0.0165681
793.582	0.0165142
793.660	0.0165747
793.738	0.0167159
793.817	0.0166432
793.895	0.0166965
793.973	0.0166837
794.051	0.0165628
794.129	0.0164379
794.207	0.0165923
794.285	0.0165248
794.363	0.0166250
794.442	0.0165578
794.520	0.0164034
794.598	0.0164500
794.676	0.0164425
794.754	0.0163822
794.832	0.0163660
794.910	0.0164646
794.988	0.0164577
795.067	0.0163601
795.145	0.0165414
795.223	0.0164694
795.301	0.0166354
795.379	0.0165170
795.457	0.0165538
795.535	0.0165668
795.613	0.0166460
795.692	0.0167431
795.770	0.0166582
795.848	0.0167682
795.926	0.0168817
796.004	0.0168407
796.082	0.0167001
796.160	0.0166476
796.238	0.0166692
796.317	0.0167416
796.395	0.0167016
796.473	0.0166056
796.551	0.0166067
796.629	0.0165941
796.707	0.0166827
796.785	0.0166495
796.863	0.0164639
796.942	0.0167104
797.020	0.0165298
797.098	0.0165453
797.176	0.0164764
797.254	0.0165488
797.332	0.0165391
797.410	0.0164464
797.488	0.0165079
797.567	0.0165189
797.645	0.0164117
797.723	0.0164997
797.801	0.0166000
797.879	0.0164355
797.957	0.0166721
798.035	0.0166134
798.113	0.0164867
798.192	0.0166137
798.270	0.0168497
798.348	0.0167461
798.426	0.0166151
798.504	0.0166967
798.582	0.0166318
798.660	0.0167379
798.738	0.0166525
798.817	0.0167530
798.895	0.0165943
798.973	0.0166957
799.051	0.0165412
799.129	0.0166325
799.207	0.0166859
799.285	0.0165760
799.363	0.0164724
799.442	0.0166193
799.520	0.0165340
799.598	0.0165492
799.676	0.0163224
799.754	0.0165905
799.832	0.0165921
799.910	0.0163767
799.988	0.0165913
800.067	0.0166648
800.145	0.0165238
800.223	0.0165077
800.301	0.0167113
800.379	0.0165136
800.457	0.0165368
800.535	0.0164844
800.613	0.0165631
800.692	0.0167468
800.770	0.0166091
800.848	0.0165851
800.926	0.0167933
801.004	0.0167725
801.082	0.0164647
801.160	0.0167018
801.238	0.0165826
801.317	0.0166484
801.395	0.0167559
801.473	0.0165376
801.551	0.0164993
801.629	0.0166231
801.707	0.0166802
801.785	0.0165068
801.863	0.0165793
801.942	0.0166034
802.020	0.0164840
802.098	0.0164385
802.176	0.0166987
802.254	0.0166081
802.332	0.0165778
802.410	0.0166010
802.488	0.0165563
802.567	0.0165057
802.645	0.0166148
802.723	0.0165421
802.801	0.0164732
802.879	0.0165769
802.957	0.0165951
803.035	0.0165202
803.113	0.0166171
803.192	0.0165954
803.270	0.0164971
803.348	0.0165738
803.426	0.0165144
803.504	0.0165092
803.582	0.0165515
803.660	0.0165397
803.738	0.0165594
803.817	0.0165416
803.895	0.0164510
803.973	0.0163339
804.051	0.0164309
804.129	0.0164373
804.207	0.0164374
804.285	0.0164392
804.363	0.0164948
804.442	0.0165520
804.520	0.0163563
804.598	0.0164551
804.676	0.0165200
804.754	0.0165337
804.832	0.0164767
804.910	0.0166495
804.988	0.0165176
805.067	0.0164469
805.145	0.0166599
805.223	0.0166679
805.301	0.0165485
805.379	0.0165587
805.457	0.0167653
805.535	0.0165714
805.613	0.0165990
805.692	0.0166237
805.770	0.0164835
805.848	0.0165021
805.926	0.0165594
806.004	0.0165523
806.082	0.0164259
806.160	0.0164707
806.238	0.0165955
806.317	0.0165172
806.395	0.0165556
806.473	0.0164703
806.551	0.0166451
806.629	0.0165373
806.707	0.0164262
806.785	0.0164143
806.863	0.0167007
806.942	0.0166418
807.020	0.0166956
807.098	0.0166358
807.176	0.0165525
807.254	0.0166253
807.332	0.0166157
807.410	0.0166431
807.488	0.0166338
807.567	0.0163886
807.645	0.0164936
807.723	0.0165498
807.801	0.0165566
807.879	0.0165620
807.957	0.0165553
808.035	0.0165652
808.113	0.0165575
808.192	0.0164761
808.270	0.0163007
808.348	0.0164445
808.426	0.0163937
808.504	0.0164903
808.582	0.0165674
808.660	0.0164597
808.738	0.0165354
808.817	0.0165392
808.895	0.0166183
808.973	0.0166589
809.051	0.0166395
809.129	0.0167194
809.207	0.0166400
809.285	0.0167436
809.363	0.0167686
809.442	0.0167085
809.520	0.0165898
809.598	0.0166214
809.676	0.0166303
809.754	0.0165833
809.832	0.0165648
809.910	0.0164533
809.988	0.0165984
810.067	0.0164790
810.145	0.0165540
810.223	0.0165167
810.301	0.0165051
810.379	0.0164949
810.457	0.0167282
810.535	0.0166756
810.613	0.0166413
810.692	0.0167059
810.770	0.0166666
810.848	0.0165724
810.926	0.0166790
811.004	0.0167948
811.082	0.0166839
811.160	0.0166741
811.238	0.0166698
811.317	0.0166648
811.395	0.0165668
811.473	0.0166399
811.551	0.0166453
811.629	0.0165315
811.707	0.0166270
811.785	0.0168023
811.863	0.0165392
811.942	0.0164619
812.020	0.0165852
812.098	0.0165007
812.176	0.0166363
812.254	0.0166418
812.332	0.0165691
812.410	0.0166479
812.488	0.0167249
812.567	0.0166971
812.645	0.0166386
812.723	0.0166319
812.801	0.0164893
812.879	0.0164310
812.957	0.0166479
813.035	0.0165400
813.113	0.0166714
813.192	0.0165080
813.270	0.0164038
813.348	0.0164777
813.426	0.0165190
813.504	0.0164881
813.582	0.0164633
813.660	0.0166026
813.738	0.0164670
813.817	0.0163976
813.895	0.0164700
813.973	0.0163736
814.051	0.0167304
814.129	0.0166941
814.207	0.0166920
814.285	0.0165293
814.363	0.0165563
814.442	0.0167554
814.520	0.0166068
814.598	0.0167002
814.676	0.0166239
814.754	0.0166747
814.832	0.0166725
814.910	0.0166789
814.988	0.0165448
815.067	0.0165060
815.145	0.0165956
815.223	0.0166568
815.301	0.0166116
815.379	0.0165332
815.457	0.0165804
815.535	0.0165458
815.613	0.0166698
815.692	0.0166872
815.770	0.0166288
815.848	0.0166732
815.926	0.0165976
816.004	0.0166030
816.082	0.0166264
816.160	0.0164224
816.238	0.0166168
816.317	0.0165946
816.395	0.0165343
816.473	0.0166163
816.551	0.0166113
816.629	0.0166112
816.707	0.0166093
816.785	0.0164893
816.863	0.0164976
816.942	0.0166460
817.020	0.0167409
817.098	0.0165879
817.176	0.0164912
817.254	0.0165678
817.332	0.0165739
817.410	0.0166840
817.488	0.0164583
817.567	0.0164680
817.645	0.0164767
817.723	0.0167711
817.801	0.0165171
817.879	0.0164426
817.957	0.0163834
818.035	0.0165783
818.113	0.0164611
818.192	0.0164555
818.270	0.0166512
818.348	0.0166138
818.426	0.0165199
818.504	0.0164355
818.582	0.0165516
818.660	0.0165487
818.738	0.0165047
818.817	0.0166294
818.895	0.0166725
818.973	0.0166732
819.051	0.0166254
819.129	0.0164346
819.207	0.0166576
819.285	0.0167493
819.363	0.0166471
819.442	0.0165649
819.520	0.0166447
819.598	0.0167015
819.676	0.0166666
819.754	0.0166250
819.832	0.0167317
819.910	0.0165768
819.988	0.0165685
820.067	0.0165159
820.145	0.0166391
820.223	0.0165352
820.301	0.0165517
820.379	0.0164577
820.457	0.0166101
820.535	0.0165248
820.613	0.0165875
820.692	0.0165034
820.770	0.0163840
820.848	0.0164659
820.926	0.0163892
821.004	0.0166119
821.082	0.0165416
821.160	0.0165254
821.238	0.0166489
821.317	0.0164978
821.395	0.0164567
821.473	0.0166022
821.551	0.0165690
821.629	0.0166080
821.707	0.0165489
821.785	0.0166213
821.863	0.0164972
821.942	0.0164437
822.020	0.0166364
822.098	0.0165971
822.176	0.0165803
822.254	0.0166862
822.332	0.0166824
822.410	0.0166019
822.488	0.0165845
822.567	0.0166528
822.645	0.0166338
822.723	0.0166036
822.801	0.0166343
822.879	0.0166566
822.957	0.0166454
823.035	0.0165331
823.113	0.0165996
823.192	0.0165279
823.270	0.0165927
823.348	0.0165762
823.426	0.0166016
823.504	0.0164924
823.582	0.0164698
823.660	0.0166644
823.738	0.0164719
823.817	0.0166072
823.895	0.0166378
823.973	0.0164134
824.051	0.0166460
824.129	0.0165466
824.207	0.0164958
824.285	0.0165305
824.363	0.0163435
824.442	0.0165372
824.520	0.0165681
824.598	0.0164528
824.676	0.0165388
824.754	0.0164280
824.832	0.0164142
824.910	0.0163617
824.988	0.0164966
825.067	0.0165517
825.145	0.0164441
825.223	0.0165536
825.301	0.0165118
825.379	0.0164740
825.457	0.0165275
825.535	0.0166247
825.613	0.0165485
825.692	0.0164877
825.770	0.0164651
825.848	0.0164468
825.926	0.0164065
826.004	0.0165527
826.082	0.0165515
826.160	0.0166042
826.238	0.0164731
826.317	0.0164826
826.395	0.0165860
826.473	0.0166390
826.551	0.0165688
826.629	0.0164445
826.707	0.0164932
826.785	0.0165610
826.863	0.0164602
826.942	0.0166483
827.020	0.0165971
827.098	0.0163215
827.176	0.0164645
827.254	0.0166254
827.332	0.0164614
827.410	0.0166981
827.488	0.0166153
827.567	0.0165627
827.645	0.0165253
827.723	0.0165868
827.801	0.0165594
827.879	0.0166200
827.957	0.0166595
828.035	0.0164885
828.113	0.0164942
828.192	0.0164996
828.270	0.0165959
828.348	0.0164235
828.426	0.0163638
828.504	0.0165653
828.582	0.0165020
828.660	0.0163725
828.738	0.0164221
828.817	0.0164723
828.895	0.0165816
828.973	0.0164903
829.051	0.0163947
829.129	0.0164957
829.207	0.0166321
829.285	0.0165506
829.363	0.0165144
829.442	0.0165569
829.520	0.0166318
829.598	0.0166673
829.676	0.0164880
829.754	0.0165311
829.832	0.0165117
829.910	0.0166315
829.988	0.0166851
830.067	0.0166990
830.145	0.0166588
830.223	0.0166239
830.301	0.0166562
830.379	0.0164937
830.457	0.0164108
830.535	0.0164319
830.613	0.0166022
830.692	0.0165944
830.770	0.0165424
830.848	0.0165363
830.926	0.0165968
831.004	0.0166179
831.082	0.0164111
831.160	0.0165525
831.238	0.0165844
831.317	0.0165747
831.395	0.0164700
831.473	0.0165710
831.551	0.0166895
831.629	0.0166248
831.707	0.0166203
831.785	0.0168345
831.863	0.0168283
831.942	0.0166693
832.020	0.0165872
832.098	0.0167262
832.176	0.0166199
832.254	0.0165706
832.332	0.0164523
832.410	0.0167093
832.488	0.0166950
832.567	0.0165192
832.645	0.0165228
832.723	0.0165933
832.801	0.0165917
832.879	0.0165674
832.957	0.0164018
833.035	0.0165385
833.113	0.0166204
833.192	0.0164976
833.270	0.0165668
833.348	0.0165046
833.426	0.0164090
833.504	0.0165481
833.582	0.0164528
833.660	0.0164359
833.738	0.0165857
833.817	0.0165853
833.895	0.0164760
833.973	0.0166414
834.051	0.0165547
834.129	0.0165310
834.207	0.0167846
834.285	0.0165909
834.363	0.0166175
834.442	0.0166869
834.520	0.0165898
834.598	0.0166749
834.676	0.0166138
834.754	0.0165604
834.832	0.0165163
834.910	0.0166942
834.988	0.0165260
835.067	0.0166491
835.145	0.0165340
835.223	0.0165869
835.301	0.0166543
835.379	0.0165530
835.457	0.0166659
835.535	0.0164816
835.613	0.0165674
835.692	0.0164368
835.770	0.0165448
835.848	0.0165478
835.926	0.0164497
836.004	0.0165460
836.082	0.0165117
836.160	0.0165302
836.238	0.0165813
836.317	0.0166502
836.395	0.0166348
836.473	0.0166820
836.551	0.0167122
836.629	0.0166433
836.707	0.0166285
836.785	0.0166752
836.863	0.0165176
836.942	0.0166966
837.020	0.0166634
837.098	0.0165063
837.176	0.0166505
837.254	0.0166782
837.332	0.0165944
837.410	0.0165935
837.488	0.0166417
837.567	0.0165839
837.645	0.0165412
837.723	0.0165668
837.801	0.0164082
837.879	0.0165187
837.957	0.0166671
838.035	0.0166882
838.113	0.0165704
838.192	0.0165823
838.270	0.0166127
838.348	0.0165442
838.426	0.0167581
838.504	0.0167130
838.582	0.0167356
838.660	0.0166846
838.738	0.0165823
838.817	0.0166122
838.895	0.0168039
838.973	0.0167476
839.051	0.0167219
839.129	0.0167512
839.207	0.0166035
839.285	0.0164619
839.363	0.0166003
839.442	0.0165307
839.520	0.0164935
839.598	0.0164983
839.676	0.0165817
839.754	0.0163880
839.832	0.0165282
839.910	0.0165477
839.988	0.0165488
840.067	0.0166480
840.145	0.0165962
840.223	0.0166015
840.301	0.0165264
840.379	0.0165867
840.457	0.0165692
840.535	0.0166270
840.613	0.0166543
840.692	0.0166556
840.770	0.0167094
840.848	0.0167905
840.926	0.0166335
841.004	0.0165791
841.082	0.0167701
841.160	0.0168507
841.238	0.0167854
841.317	0.0166801
841.395	0.0166895
841.473	0.0165311
841.551	0.0166222
841.629	0.0167085
841.707	0.0166055
841.785	0.0165217
841.863	0.0166334
841.942	0.0165297
842.020	0.0164491
842.098	0.0165129
842.176	0.0167131
842.254	0.0165355
842.332	0.0165654
842.410	0.0165308
842.488	0.0165593
842.567	0.0166143
842.645	0.0164340
842.723	0.0164046
842.801	0.0166093
842.879	0.0165569
842.957	0.0164961
843.035	0.0165061
843.113	0.0165050
843.192	0.0165150
843.270	0.0164503
843.348	0.0166151
843.426	0.0166124
843.504	0.0164425
843.582	0.0164839
843.660	0.0165396
843.738	0.0166792
843.817	0.0164721
843.895	0.0165990
843.973	0.0166389
844.051	0.0165207
844.129	0.0165948
844.207	0.0165490
844.285	0.0165077
844.363	0.0165407
844.442	0.0165979
844.520	0.0165636
844.598	0.0166168
844.676	0.0166496
844.754	0.0166728
844.832	0.0165324
844.910	0.0164087
844.988	0.0166709
845.067	0.0166501
845.145	0.0166853
845.223	0.0164347
845.301	0.0166802
845.379	0.0165331
845.457	0.0165961
845.535	0.0166726
845.613	0.0166375
845.692	0.0164063
845.770	0.0165601
845.848	0.0166814
845.926	0.0165271
846.004	0.0167099
846.082	0.0167023
846.160	0.0166104
846.238	0.0165676
846.317	0.0166222
846.395	0.0166965
846.473	0.0166362
846.551	0.0165572
846.629	0.0165067
846.707	0.0165731
846.785	0.0165968
846.863	0.0166518
846.942	0.0166459
847.020	0.0165469
847.098	0.0166520
847.176	0.0167484
847.254	0.0165277
847.332	0.0165318
847.410	0.0165103
847.488	0.0165053
847.567	0.0164386
847.645	0.0164780
847.723	0.0166946
847.801	0.0165220
847.879	0.0165217
847.957	0.0165588
848.035	0.0165999
848.113	0.0167082
848.192	0.0164851
848.270	0.0167500
848.348	0.0167378
848.426	0.0165678
848.504	0.0165232
848.582	0.0163809
848.660	0.0164988
848.738	0.0164891
848.817	0.0163515
848.895	0.0164433
848.973	0.0163892
849.051	0.0163222
849.129	0.0165416
849.207	0.0164033
849.285	0.0163489
849.363	0.0164941
849.442	0.0166714
849.520	0.0164858
849.598	0.0166260
849.676	0.0165866
849.754	0.0165963
849.832	0.0164913
849.910	0.0166417
849.988	0.0167959
850.067	0.0167379
850.145	0.0166962
850.223	0.0165469
850.301	0.0165978
850.379	0.0166365
850.457	0.0166254
850.535	0.0164769
850.613	0.0166560
850.692	0.0165317
850.770	0.0164639
850.848	0.0164520
850.926	0.0163876
851.004	0.0165453
851.082	0.0165692
851.160	0.0164224
851.238	0.0164489
851.317	0.0165140
851.395	0.0165643
851.473	0.0166199
851.551	0.0166380
851.629	0.0166425
851.707	0.0165326
851.785	0.0167041
851.863	0.0166916
851.942	0.0167297
852.020	0.0166340
852.098	0.0164433
852.176	0.0166024
852.254	0.0166280
852.332	0.0165598
852.410	0.0165164
852.488	0.0165395
852.567	0.0164484
852.645	0.0165440
852.723	0.0164791
852.801	0.0164040
852.879	0.0166177
852.957	0.0164295
853.035	0.0164769
853.113	0.0164782
853.192	0.0164442
853.270	0.0165614
853.348	0.0166580
853.426	0.0166336
853.504	0.0165650
853.582	0.0164880
853.660	0.0166415
853.738	0.0166821
853.817	0.0166288
853.895	0.0166058
853.973	0.0167410
854.051	0.0165466
854.129	0.0165148
854.207	0.0165812
854.285	0.0165110
854.363	0.0165416
854.442	0.0166064
854.520	0.0164889
854.598	0.0164853
854.676	0.0165211
854.754	0.0164145
854.832	0.0163998
854.910	0.0165389
854.988	0.0165412
855.067	0.0166326
855.145	0.0166576
855.223	0.0166000
855.301	0.0166078
855.379	0.0165108
855.457	0.0164654
855.535	0.0165800
855.613	0.0166245
855.692	0.0165456
855.770	0.0165150
855.848	0.0167464
855.926	0.0165507
856.004	0.0166215
856.082	0.0165975
856.160	0.0164610
856.238	0.0165585
856.317	0.0163845
856.395	0.0164020
856.473	0.0165356
856.551	0.0165820
856.629	0.0165383
856.707	0.0166244
856.785	0.0164967
856.863	0.0165440
856.942	0.0166581
857.020	0.0166077
857.098	0.0166359
857.176	0.0166551
857.254	0.0167365
857.332	0.0165880
857.410	0.0166673
857.488	0.0165355
857.567	0.0167337
857.645	0.0166642
857.723	0.0165722
857.801	0.0165816
857.879	0.0165612
857.957	0.0167326
858.035	0.0166303
858.113	0.0166505
858.192	0.0166659
858.270	0.0166337
858.348	0.0165334
858.426	0.0165056
858.504	0.0166927
858.582	0.0165344
858.660	0.0166237
858.738	0.0166913
858.817	0.0166319
858.895	0.0167696
858.973	0.0165861
859.051	0.0165793
859.129	0.0166611
859.207	0.0165273
859.285	0.0166746
859.363	0.0166479
859.442	0.0165541
859.520	0.0166464
859.598	0.0166837
859.676	0.0167075
859.754	0.0165719
859.832	0.0165813
859.910	0.0165916
859.988	0.0166514
860.067	0.0165063
860.145	0.0166439
860.223	0.0166604
860.301	0.0167444
860.379	0.0166177
860.457	0.0165444
860.535	0.0167722
860.613	0.0167026
860.692	0.0165484
860.770	0.0166598
860.848	0.0165626
860.926	0.0165591
861.004	0.0166069
861.082	0.0166703
861.160	0.0166341
861.238	0.0166768
861.317	0.0165007
861.395	0.0165372
861.473	0.0166488
861.551	0.0166352
861.629	0.0165770
861.707	0.0165701
861.785	0.0165874
861.863	0.0164876
861.942	0.0165966
862.020	0.0166595
862.098	0.0166440
862.176	0.0167068
862.254	0.0167973
862.332	0.0166509
862.410	0.0165916
862.488	0.0166042
862.567	0.0166801
862.645	0.0167613
862.723	0.0167411
862.801	0.0167217
862.879	0.0166122
862.957	0.0166906
863.035	0.0167578
863.113	0.0166898
863.192	0.0165804
863.270	0.0164021
863.348	0.0165865
863.426	0.0166656
863.504	0.0166086
863.582	0.0166068
863.660	0.0166524
863.738	0.0165812
863.817	0.0165233
863.895	0.0165547
863.973	0.0167555
864.051	0.0165537
864.129	0.0164687
864.207	0.0166769
864.285	0.0166663
864.363	0.0165313
864.442	0.0166006
864.520	0.0166440
864.598	0.0165337
864.676	0.0165092
864.754	0.0166291
864.832	0.0166147
864.910	0.0166130
864.988	0.0166068
865.067	0.0163887
865.145	0.0165026
865.223	0.0165784
865.301	0.0166985
865.379	0.0166266
865.457	0.0165366
865.535	0.0166054
865.613	0.0165321
865.692	0.0163950
865.770	0.0165791
865.848	0.0166846
865.926	0.0166340
866.004	0.0165327
866.082	0.0164736
866.160	0.0167062
866.238	0.0166698
866.317	0.0167253
866.395	0.0166430
866.473	0.0165943
866.551	0.0165571
866.629	0.0166650
866.707	0.0167425
866.785	0.0166412
866.863	0.0166851
866.942	0.0166358
867.020	0.0166593
867.098	0.0165818
867.176	0.0165709
867.254	0.0167030
867.332	0.0166323
867.410	0.0165002
867.488	0.0165130
867.567	0.0165305
867.645	0.0166843
867.723	0.0165135
867.801	0.0165332
867.879	0.0165229
867.957	0.0163840
868.035	0.0164609
868.113	0.0165802
868.192	0.0166370
868.270	0.0166902
868.348	0.0165395
868.426	0.0166529
868.504	0.0165968
868.582	0.0165587
868.660	0.0165366
868.738	0.0165221
868.817	0.0165997
868.895	0.0165884
868.973	0.0165288
869.051	0.0165160
869.129	0.0165349
869.207	0.0166030
869.285	0.0164565
869.363	0.0164845
869.442	0.0165833
869.520	0.0164514
869.598	0.0165078
869.676	0.0164977
869.754	0.0164880
869.832	0.0166287
869.910	0.0166199
869.988	0.0165826
870.067	0.0165702
870.145	0.0165658
870.223	0.0165752
870.301	0.0166013
870.379	0.0165858
870.457	0.0165768
870.535	0.0165739
870.613	0.0163949
870.692	0.0164046
870.770	0.0164532
870.848	0.0164291
870.926	0.0165736
871.004	0.0165364
871.082	0.0165320
871.160	0.0165631
871.238	0.0167355
871.317	0.0165310
871.395	0.0165136
871.473	0.0164034
871.551	0.0165009
871.629	0.0166568
871.707	0.0167484
871.785	0.0164868
871.863	0.0166029
871.942	0.0165085
872.020	0.0164812
872.098	0.0165845
872.176	0.0166787
872.254	0.0166647
872.332	0.0165493
872.410	0.0165643
872.488	0.0166522
872.567	0.0166376
872.645	0.0166347
872.723	0.0165784
872.801	0.0167243
872.879	0.0167015
872.957	0.0166624
873.035	0.0165339
873.113	0.0165955
873.192	0.0165749
873.270	0.0166956
873.348	0.0166393
873.426	0.0166133
873.504	0.0165697
873.582	0.0165924
873.660	0.0165801
873.738	0.0164283
873.817	0.0164050
873.895	0.0164453
873.973	0.0165508
874.051	0.0165108
874.129	0.0165293
874.207	0.0165297
874.285	0.0165091
874.363	0.0166019
874.442	0.0166822
874.520	0.0166574
874.598	0.0168147
874.676	0.0165351
874.754	0.0166031
874.832	0.0166103
874.910	0.0165925
874.988	0.0163673
875.067	0.0165766
875.145	0.0166090
875.223	0.0165814
875.301	0.0166048
875.379	0.0165224
875.457	0.0165830
875.535	0.0166631
875.613	0.0166189
875.692	0.0164739
875.770	0.0165488
875.848	0.0164532
875.926	0.0166264
876.004	0.0165561
876.082	0.0165561
876.160	0.0166375
876.238	0.0167347
876.317	0.0165919
876.395	0.0166167
876.473	0.0166058
876.551	0.0165169
876.629	0.0167256
876.707	0.0167293
876.785	0.0166411
876.863	0.0165076
876.942	0.0164108
877.020	0.0165987
877.098	0.0166931
877.176	0.0165401
877.254	0.0165453
877.332	0.0166198
877.410	0.0165732
877.488	0.0166282
877.567	0.0165813
877.645	0.0166634
877.723	0.0166621
877.801	0.0165160
877.879	0.0165298
877.957	0.0165858
878.035	0.0165499
878.113	0.0165034
878.192	0.0165778
878.270	0.0166378
878.348	0.0166019
878.426	0.0165294
878.504	0.0164962
878.582	0.0166407
878.660	0.0165637
878.738	0.0165002
878.817	0.0166242
878.895	0.0166283
878.973	0.0164440
879.051	0.0165695
879.129	0.0166468
879.207	0.0166479
879.285	0.0165945
879.363	0.0165701
879.442	0.0166598
879.520	0.0165186
879.598	0.0165676
879.676	0.0165350
879.754	0.0165624
879.832	0.0165231
879.910	0.0165372
879.988	0.0165842
880.067	0.0165314
880.145	0.0165340
880.223	0.0165499
880.301	0.0166911
880.379	0.0166396
880.457	0.0165755
880.535	0.0166322
880.613	0.0164538
880.692	0.0165723
880.770	0.0164950
880.848	0.0164402
880.926	0.0162150
881.004	0.0162850
881.082	0.0164742
881.160	0.0164339
881.238	0.0163968
881.317	0.0164826
881.395	0.0167216
881.473	0.0167717
881.551	0.0167696
881.629	0.0169595
881.707	0.0169736
881.785	0.0168359
881.863	0.0169074
881.942	0.0168484
882.020	0.0168414
882.098	0.0166380
882.176	0.0165510
882.254	0.0163315
882.332	0.0162844
882.410	0.0162890
882.488	0.0162469
882.567	0.0160683
882.645	0.0162672
882.723	0.0163263
882.801	0.0164265
882.879	0.0166049
882.957	0.0167247
883.035	0.0167987
883.113	0.0169985
883.192	0.0170728
883.270	0.0169776
883.348	0.0170599
883.426	0.0168979
883.504	0.0169305
883.582	0.0167784
883.660	0.0167673
883.738	0.0167942
883.817	0.0164064
883.895	0.0163594
883.973	0.0164135
884.051	0.0163290
884.129	0.0161964
884.207	0.0160838
884.285	0.0161979
884.363	0.0161540
884.442	0.0163007
884.520	0.0164140
884.598	0.0165548
884.676	0.0166463
884.754	0.0168393
884.832	0.0169407
884.910	0.0170197
884.988	0.0169859
885.067	0.0169501
885.145	0.0170753
885.223	0.0171600
885.301	0.0168486
885.379	0.0168125
885.457	0.0167888
885.535	0.0165867
885.613	0.0163744
885.692	0.0162804
885.770	0.0163279
885.848	0.0163013
885.926	0.0162887
886.004	0.0163545
886.082	0.0164740
886.160	0.0163758
886.238	0.0163708
886.317	0.0165474
886.395	0.0166458
886.473	0.0165222
886.551	0.0167532
886.629	0.0167492
886.707	0.0166819
886.785	0.0168276
886.863	0.0167976
886.942	0.0168351
887.020	0.0167699
887.098	0.0167852
887.176	0.0167085
887.254	0.0167265
887.332	0.0166470
887.410	0.0164880
887.488	0.0165694
887.567	0.0163669
887.645	0.0163486
887.723	0.0163522
887.801	0.0163466
887.879	0.0164406
887.957	0.0165300
888.035	0.0164875
888.113	0.0164256
888.192	0.0165430
888.270	0.0167186
888.348	0.0165803
888.426	0.0165313
888.504	0.0165200
888.582	0.0166949
888.660	0.0164956
888.738	0.0165565
888.817	0.0165179
888.895	0.0164380
888.973	0.0164646
889.051	0.0165134
889.129	0.0164603
889.207	0.0165187
889.285	0.0164936
889.363	0.0166201
889.442	0.0165652
889.520	0.0166536
889.598	0.0163857
889.676	0.0166827
889.754	0.0166370
889.832	0.0166859
889.910	0.0167019
889.988	0.0166689
890.067	0.0166690
890.145	0.0165816
890.223	0.0167506
890.301	0.0165955
890.379	0.0167265
890.457	0.0166631
890.535	0.0166887
890.613	0.0166052
890.692	0.0166556
890.770	0.0166125
890.848	0.0165926
890.926	0.0167194
891.004	0.0166712
891.082	0.0166085
891.160	0.0165927
891.238	0.0165714
891.317	0.0164439
891.395	0.0165004
891.473	0.0165589
891.551	0.0165889
891.629	0.0164809
891.707	0.0166677
891.785	0.0166100
891.863	0.0163593
891.942	0.0165061
892.020	0.0165652
892.098	0.0164687
892.176	0.0164535
892.254	0.0165216
892.332	0.0164902
892.410	0.0165157
892.488	0.0165958
892.567	0.0165210
892.645	0.0165408
892.723	0.0166618
892.801	0.0165260
892.879	0.0165752
892.957	0.0166549
893.035	0.0166118
893.113	0.0166291
893.192	0.0166423
893.270	0.0166177
893.348	0.0166833
893.426	0.0166843
893.504	0.0167455
893.582	0.0166790
893.660	0.0165520
893.738	0.0167112
893.817	0.0167702
893.895	0.0166518
893.973	0.0168234
894.051	0.0167890
894.129	0.0166887
894.207	0.0167152
894.285	0.0166225
894.363	0.0166501
894.442	0.0166100
894.520	0.0165981
894.598	0.0164501
894.676	0.0166621
894.754	0.0162853
894.832	0.0163268
894.910	0.0165694
894.988	0.0165451
895.067	0.0165010
895.145	0.0166005
895.223	0.0165569
895.301	0.0164246
895.379	0.0164732
895.457	0.0164263
895.535	0.0164881
895.613	0.0164948
895.692	0.0165120
895.770	0.0165059
895.848	0.0166087
895.926	0.0164711
896.004	0.0166557
896.082	0.0165509
896.160	0.0165643
896.238	0.0165913
896.317	0.0164326
896.395	0.0165438
896.473	0.0166825
896.551	0.0165134
896.629	0.0165806
896.707	0.0166535
896.785	0.0165482
896.863	0.0166348
896.942	0.0166487
897.020	0.0165239
897.098	0.0165098
897.176	0.0166364
897.254	0.0164906
897.332	0.0165279
897.410	0.0165177
897.488	0.0166608
897.567	0.0165540
897.645	0.0164009
897.723	0.0165813
897.801	0.0166045
897.879	0.0164476
897.957	0.0164774
898.035	0.0165302
898.113	0.0166202
898.192	0.0164104
898.270	0.0167117
898.348	0.0165157
898.426	0.0165433
898.504	0.0166017
898.582	0.0166756
898.660	0.0164823
898.738	0.0165601
898.817	0.0167476
898.895	0.0166882
898.973	0.0165721
899.051	0.0165710
899.129	0.0167183
899.207	0.0167153
899.285	0.0165421
899.363	0.0165232
899.442	0.0165965
899.520	0.0164951
899.598	0.0166533
899.676	0.0163531
899.754	0.0162929
899.832	0.0165646
899.910	0.0164645
899.988	0.0164656
900.067	0.0164582
900.145	0.0163935
900.223	0.0165324
900.301	0.0165435
900.379	0.0165047
900.457	0.0166389
900.535	0.0165746
900.613	0.0166694
900.692	0.0166413
900.770	0.0166154
900.848	0.0165464
900.926	0.0165366
901.004	0.0165301
901.082	0.0165865
901.160	0.0166127
901.238	0.0165557
901.317	0.0165885
901.395	0.0165440
901.473	0.0165121
901.551	0.0165262
901.629	0.0165652
901.707	0.0167094
901.785	0.0166386
901.863	0.0166182
901.942	0.0166721
902.020	0.0166537
902.098	0.0167033
902.176	0.0167699
902.254	0.0167815
902.332	0.0167091
902.410	0.0166609
902.488	0.0167044
902.567	0.0165693
902.645	0.0164514
902.723	0.0167329
902.801	0.0166519
902.879	0.0165438
902.957	0.0164868
903.035	0.0164819
903.113	0.0164010
903.192	0.0165675
903.270	0.0163440
903.348	0.0164826
903.426	0.0165042
903.504	0.0164629
903.582	0.0165370
903.660	0.0166311
903.738	0.0165857
903.817	0.0165128
903.895	0.0165926
903.973	0.0165131
904.051	0.0165344
904.129	0.0164937
904.207	0.0165298
904.285	0.0167184
904.363	0.0165004
904.442	0.0164688
904.520	0.0164604
904.598	0.0164204
904.676	0.0164715
904.754	0.0164002
904.832	0.0165235
904.910	0.0165120
904.988	0.0164182
905.067	0.0164465
905.145	0.0165240
905.223	0.0166145
905.301	0.0164525
905.379	0.0164699
905.457	0.0166228
905.535	0.0165083
905.613	0.0164734
905.692	0.0164386
905.770	0.0165811
905.848	0.0166256
905.926	0.0166302
906.004	0.0165363
906.082	0.0166933
906.160	0.0164606
906.238	0.0166612
906.317	0.0164778
906.395	0.0165505
906.473	0.0165714
906.551	0.0165977
906.629	0.0165646
906.707	0.0165390
906.785	0.0164103
906.863	0.0164744
906.942	0.0165674
907.020	0.0165392
907.098	0.0164101
907.176	0.0166060
907.254	0.0166417
907.332	0.0165179
907.410	0.0165839
907.488	0.0166602
907.567	0.0166132
907.645	0.0166271
907.723	0.0166301
907.801	0.0166515
907.879	0.0166528
907.957	0.0166164
908.035	0.0166217
908.113	0.0166254
908.192	0.0166057
908.270	0.0165903
908.348	0.0166187
908.426	0.0165247
908.504	0.0163849
908.582	0.0166812
908.660	0.0164968
908.738	0.0165122
908.817	0.0165288
908.895	0.0163986
908.973	0.0165442
909.051	0.0165750
909.129	0.0165664
909.207	0.0165469
909.285	0.0165812
909.363	0.0165442
909.442	0.0165919
909.520	0.0165482
909.598	0.0166702
909.676	0.0165862
909.754	0.0166434
909.832	0.0166328
909.910	0.0166753
909.988	0.0165121
910.067	0.0166676
910.145	0.0165332
910.223	0.0166063
910.301	0.0166853
910.379	0.0166184
910.457	0.0164730
910.535	0.0165557
910.613	0.0166447
910.692	0.0167535
910.770	0.0166744
910.848	0.0165509
910.926	0.0166953
911.004	0.0165189
911.082	0.0165799
911.160	0.0165656
911.238	0.0165907
911.317	0.0166815
911.395	0.0166808
911.473	0.0165773
911.551	0.0166544
911.629	0.0167284
911.707	0.0166501
911.785	0.0166742
911.863	0.0166358
911.942	0.0165740
912.020	0.0166724
912.098	0.0165756
912.176	0.0164942
912.254	0.0164729
912.332	0.0166410
912.410	0.0164446
912.488	0.0166106
912.567	0.0165259
912.645	0.0166477
912.723	0.0165092
912.801	0.0164748
912.879	0.0166592
912.957	0.0166418
913.035	0.0166701
913.113	0.0165234
913.192	0.0165976
913.270	0.0166547
913.348	0.0166016
913.426	0.0166000
913.504	0.0166622
913.582	0.0166088
913.660	0.0164330
913.738	0.0164995
913.817	0.0166364
913.895	0.0164696
913.973	0.0165658
914.051	0.0163690
914.129	0.0165565
914.207	0.0164733
914.285	0.0165285
914.363	0.0165874
914.442	0.0166529
914.520	0.0166093
914.598	0.0166779
914.676	0.0165395
914.754	0.0164636
914.832	0.0164182
914.910	0.0165600
914.988	0.0165392
915.067	0.0165652
915.145	0.0164029
915.223	0.0165594
915.301	0.0166705
915.379	0.0164267
915.457	0.0164899
915.535	0.0164854
915.613	0.0166079
915.692	0.0166978
915.770	0.0166534
915.848	0.0166702
915.926	0.0165536
916.004	0.0166107
916.082	0.0166251
916.160	0.0166267
916.238	0.0165827
916.317	0.0165031
916.395	0.0164579
916.473	0.0165469
916.551	0.0165545
916.629	0.0164767
916.707	0.0165428
916.785	0.0166920
916.863	0.0166624
916.942	0.0165218
917.020	0.0164457
917.098	0.0165266
917.176	0.0164436
917.254	0.0164705
917.332	0.0165199
917.410	0.0165943
917.488	0.0164719
917.567	0.0165617
917.645	0.0164860
917.723	0.0166174
917.801	0.0165932
917.879	0.0164700
917.957	0.0165279
918.035	0.0163666
918.113	0.0165225
918.192	0.0165079
918.270	0.0165583
918.348	0.0165006
918.426	0.0165804
918.504	0.0165401
918.582	0.0164566
918.660	0.0166387
918.738	0.0165613
918.817	0.0165056
918.895	0.0163586
918.973	0.0165208
919.051	0.0165263
919.129	0.0164238
919.207	0.0165536
919.285	0.0164594
919.363	0.0165424
919.442	0.0165248
919.520	0.0164289
919.598	0.0165121
919.676	0.0164993
919.754	0.0165611
919.832	0.0164881
919.910	0.0165261
