06/03/2022	14:51:00	Ver.	4.1	UNKNOWN
Optical Delay	550.020508	Delta X		0.078125	Sweeps	1	Scan Rate	0/0
Coordinates	Axis 1	NaN	Axis 2	NaN	Axis 3	NaN	Axis 4	NaN	Axis 5	NaN	Axis 6	0.000000
TX Power	0.000000	RX Power	0.000000

550.021	0.0161556
550.099	0.0154752
550.177	0.0155613
550.255	0.0155000
550.333	0.0155748
550.411	0.0156420
550.489	0.0157449
550.567	0.0158045
550.646	0.0158465
550.724	0.0159792
550.802	0.0159853
550.880	0.0160871
550.958	0.0162955
551.036	0.0161830
551.114	0.0163201
551.192	0.0163790
551.271	0.0164735
551.349	0.0166035
551.427	0.0165375
551.505	0.0167159
551.583	0.0166363
551.661	0.0167151
551.739	0.0167966
551.817	0.0167814
551.896	0.0166647
551.974	0.0168817
552.052	0.0167740
552.130	0.0168578
552.208	0.0170029
552.286	0.0168785
552.364	0.0170846
552.442	0.0169675
552.521	0.0171106
552.599	0.0171669
552.677	0.0172123
552.755	0.0171884
552.833	0.0172681
552.911	0.0172896
552.989	0.0172218
553.067	0.0171725
553.146	0.0172677
553.224	0.0171124
553.302	0.0172487
553.380	0.0172244
553.458	0.0171635
553.536	0.0170924
553.614	0.0169410
553.692	0.0168433
553.771	0.0168704
553.849	0.0169241
553.927	0.0168399
554.005	0.0168043
554.083	0.0168050
554.161	0.0166541
554.239	0.0166991
554.317	0.0166932
554.396	0.0165088
554.474	0.0165968
554.552	0.0163515
554.630	0.0164322
554.708	0.0164655
554.786	0.0163716
554.864	0.0164040
554.942	0.0162309
555.021	0.0163366
555.099	0.0163531
555.177	0.0163531
555.255	0.0163566
555.333	0.0162370
555.411	0.0163044
555.489	0.0161747
555.567	0.0160621
555.646	0.0161230
555.724	0.0162237
555.802	0.0161485
555.880	0.0161176
555.958	0.0160678
556.036	0.0160171
556.114	0.0158705
556.192	0.0159265
556.271	0.0158751
556.349	0.0159599
556.427	0.0158762
556.505	0.0159061
556.583	0.0158804
556.661	0.0158029
556.739	0.0157302
556.817	0.0157565
556.896	0.0157498
556.974	0.0158602
557.052	0.0157074
557.130	0.0158056
557.208	0.0157919
557.286	0.0158978
557.364	0.0158375
557.442	0.0158250
557.521	0.0157992
557.599	0.0157328
557.677	0.0158498
557.755	0.0157841
557.833	0.0157089
557.911	0.0158129
557.989	0.0157785
558.067	0.0156528
558.146	0.0156574
558.224	0.0157146
558.302	0.0156739
558.380	0.0157394
558.458	0.0157296
558.536	0.0157283
558.614	0.0157935
558.692	0.0157250
558.771	0.0157243
558.849	0.0156767
558.927	0.0155943
559.005	0.0158647
559.083	0.0157468
559.161	0.0156751
559.239	0.0157723
559.317	0.0158895
559.396	0.0157464
559.474	0.0160706
559.552	0.0159145
559.630	0.0158151
559.708	0.0158772
559.786	0.0159496
559.864	0.0159792
559.942	0.0160547
560.021	0.0160843
560.099	0.0160346
560.177	0.0160081
560.255	0.0160935
560.333	0.0162115
560.411	0.0163433
560.489	0.0162662
560.567	0.0162659
560.646	0.0163199
560.724	0.0163329
560.802	0.0164736
560.880	0.0165041
560.958	0.0165551
561.036	0.0165518
561.114	0.0164770
561.192	0.0167317
561.271	0.0167908
561.349	0.0167983
561.427	0.0168107
561.505	0.0169016
561.583	0.0168761
561.661	0.0170422
561.739	0.0170603
561.817	0.0170745
561.896	0.0171435
561.974	0.0171814
562.052	0.0171859
562.130	0.0172997
562.208	0.0173458
562.286	0.0173423
562.364	0.0173763
562.442	0.0173087
562.521	0.0173338
562.599	0.0173640
562.677	0.0174352
562.755	0.0173803
562.833	0.0175096
562.911	0.0174272
562.989	0.0174115
563.067	0.0174582
563.146	0.0173743
563.224	0.0172517
563.302	0.0174142
563.380	0.0171957
563.458	0.0172337
563.536	0.0171629
563.614	0.0171387
563.692	0.0170839
563.771	0.0171420
563.849	0.0169797
563.927	0.0170374
564.005	0.0170211
564.083	0.0170087
564.161	0.0169227
564.239	0.0169872
564.317	0.0169055
564.396	0.0169073
564.474	0.0167738
564.552	0.0168130
564.630	0.0168043
564.708	0.0166310
564.786	0.0167120
564.864	0.0166385
564.942	0.0166199
565.021	0.0166552
565.099	0.0164436
565.177	0.0164637
565.255	0.0163870
565.333	0.0164022
565.411	0.0166515
565.489	0.0162872
565.567	0.0162456
565.646	0.0162920
565.724	0.0162649
565.802	0.0162878
565.880	0.0162490
565.958	0.0162381
566.036	0.0162733
566.114	0.0162053
566.192	0.0161880
566.271	0.0162154
566.349	0.0161603
566.427	0.0161526
566.505	0.0161802
566.583	0.0161638
566.661	0.0162047
566.739	0.0160396
566.817	0.0160887
566.896	0.0161653
566.974	0.0160549
567.052	0.0160084
567.130	0.0160650
567.208	0.0160668
567.286	0.0161561
567.364	0.0160530
567.442	0.0158717
567.521	0.0159135
567.599	0.0161642
567.677	0.0162454
567.755	0.0161951
567.833	0.0162556
567.911	0.0162355
567.989	0.0160972
568.067	0.0160999
568.146	0.0163410
568.224	0.0162884
568.302	0.0161690
568.380	0.0161932
568.458	0.0161578
568.536	0.0161831
568.614	0.0161141
568.692	0.0162539
568.771	0.0160299
568.849	0.0162275
568.927	0.0162356
569.005	0.0161729
569.083	0.0162221
569.161	0.0163324
569.239	0.0162190
569.317	0.0161316
569.396	0.0162165
569.474	0.0164285
569.552	0.0162455
569.630	0.0164787
569.708	0.0165519
569.786	0.0163954
569.864	0.0163987
569.942	0.0164957
570.021	0.0166698
570.099	0.0165369
570.177	0.0165278
570.255	0.0165180
570.333	0.0166026
570.411	0.0164501
570.489	0.0165474
570.567	0.0165343
570.646	0.0164832
570.724	0.0166142
570.802	0.0166186
570.880	0.0165569
570.958	0.0166821
571.036	0.0166038
571.114	0.0164450
571.192	0.0165335
571.271	0.0164855
571.349	0.0165459
571.427	0.0163868
571.505	0.0166809
571.583	0.0165319
571.661	0.0166006
571.739	0.0163853
571.817	0.0164822
571.896	0.0164300
571.974	0.0164448
572.052	0.0166354
572.130	0.0165112
572.208	0.0164806
572.286	0.0165228
572.364	0.0165699
572.442	0.0164722
572.521	0.0163919
572.599	0.0163795
572.677	0.0165453
572.755	0.0164843
572.833	0.0163746
572.911	0.0164932
572.989	0.0162907
573.067	0.0163026
573.146	0.0163027
573.224	0.0164603
573.302	0.0164165
573.380	0.0163110
573.458	0.0162834
573.536	0.0162857
573.614	0.0164265
573.692	0.0162177
573.771	0.0163576
573.849	0.0161613
573.927	0.0162903
574.005	0.0163063
574.083	0.0162443
574.161	0.0162542
574.239	0.0162209
574.317	0.0163167
574.396	0.0163022
574.474	0.0161482
574.552	0.0162269
574.630	0.0162541
574.708	0.0163010
574.786	0.0163427
574.864	0.0163151
574.942	0.0161360
575.021	0.0163341
575.099	0.0163145
575.177	0.0161903
575.255	0.0162646
575.333	0.0162025
575.411	0.0161292
575.489	0.0161768
575.567	0.0160824
575.646	0.0160346
575.724	0.0159743
575.802	0.0161001
575.880	0.0160940
575.958	0.0161174
576.036	0.0160537
576.114	0.0158869
576.192	0.0161183
576.271	0.0160116
576.349	0.0162220
576.427	0.0160636
576.505	0.0160471
576.583	0.0161433
576.661	0.0162462
576.739	0.0162028
576.817	0.0161027
576.896	0.0160847
576.974	0.0162879
577.052	0.0162115
577.130	0.0163136
577.208	0.0162354
577.286	0.0162770
577.364	0.0160398
577.442	0.0162810
577.521	0.0162022
577.599	0.0161781
577.677	0.0161573
577.755	0.0163407
577.833	0.0161204
577.911	0.0162228
577.989	0.0162321
578.067	0.0162475
578.146	0.0161691
578.224	0.0162120
578.302	0.0160621
578.380	0.0162032
578.458	0.0161512
578.536	0.0160945
578.614	0.0162019
578.692	0.0163182
578.771	0.0163889
578.849	0.0162849
578.927	0.0163342
579.005	0.0164481
579.083	0.0165194
579.161	0.0164381
579.239	0.0162869
579.317	0.0163801
579.396	0.0164896
579.474	0.0165324
579.552	0.0165274
579.630	0.0164021
579.708	0.0166029
579.786	0.0165138
579.864	0.0165790
579.942	0.0166132
580.021	0.0166280
580.099	0.0166026
580.177	0.0166660
580.255	0.0166679
580.333	0.0168206
580.411	0.0166796
580.489	0.0167373
580.567	0.0168006
580.646	0.0167277
580.724	0.0167120
580.802	0.0168079
580.880	0.0168047
580.958	0.0168565
581.036	0.0169829
581.114	0.0169928
581.192	0.0168064
581.271	0.0168688
581.349	0.0170791
581.427	0.0168896
581.505	0.0168802
581.583	0.0170041
581.661	0.0169395
581.739	0.0169051
581.817	0.0170574
581.896	0.0170210
581.974	0.0167922
582.052	0.0170636
582.130	0.0169830
582.208	0.0168942
582.286	0.0169296
582.364	0.0169044
582.442	0.0169115
582.521	0.0169248
582.599	0.0169971
582.677	0.0168110
582.755	0.0168604
582.833	0.0170300
582.911	0.0168893
582.989	0.0168087
583.067	0.0167815
583.146	0.0168932
583.224	0.0167505
583.302	0.0167622
583.380	0.0167327
583.458	0.0166008
583.536	0.0166415
583.614	0.0165810
583.692	0.0166068
583.771	0.0165125
583.849	0.0164861
583.927	0.0164806
584.005	0.0166373
584.083	0.0165424
584.161	0.0166164
584.239	0.0164609
584.317	0.0164079
584.396	0.0163887
584.474	0.0165303
584.552	0.0164798
584.630	0.0164968
584.708	0.0165147
584.786	0.0165159
584.864	0.0164732
584.942	0.0164603
585.021	0.0165968
585.099	0.0164080
585.177	0.0164039
585.255	0.0163624
585.333	0.0165313
585.411	0.0165178
585.489	0.0164879
585.567	0.0165154
585.646	0.0164929
585.724	0.0164050
585.802	0.0164400
585.880	0.0165411
585.958	0.0163876
586.036	0.0165352
586.114	0.0164313
586.192	0.0164472
586.271	0.0164497
586.349	0.0165605
586.427	0.0162694
586.505	0.0164227
586.583	0.0166030
586.661	0.0164811
586.739	0.0164185
586.817	0.0164031
586.896	0.0165323
586.974	0.0164406
587.052	0.0165385
587.130	0.0163660
587.208	0.0164353
587.286	0.0164850
587.364	0.0164633
587.442	0.0163047
587.521	0.0163145
587.599	0.0164172
587.677	0.0164709
587.755	0.0163597
587.833	0.0164671
587.911	0.0164679
587.989	0.0163792
588.067	0.0161910
588.146	0.0163367
588.224	0.0163553
588.302	0.0163522
588.380	0.0163879
588.458	0.0162096
588.536	0.0162487
588.614	0.0162833
588.692	0.0161565
588.771	0.0161873
588.849	0.0161324
588.927	0.0161152
589.005	0.0162540
589.083	0.0160678
589.161	0.0161394
589.239	0.0161600
589.317	0.0162990
589.396	0.0162638
589.474	0.0162446
589.552	0.0161765
589.630	0.0163355
589.708	0.0162721
589.786	0.0162549
589.864	0.0162521
589.942	0.0162915
590.021	0.0162106
590.099	0.0162989
590.177	0.0162074
590.255	0.0161916
590.333	0.0163308
590.411	0.0163200
590.489	0.0162910
590.567	0.0163026
590.646	0.0162931
590.724	0.0164056
590.802	0.0165166
590.880	0.0164487
590.958	0.0164388
591.036	0.0165125
591.114	0.0164894
591.192	0.0165887
591.271	0.0167091
591.349	0.0165511
591.427	0.0167638
591.505	0.0166820
591.583	0.0165572
591.661	0.0164461
591.739	0.0167278
591.817	0.0164915
591.896	0.0166499
591.974	0.0165868
592.052	0.0165720
592.130	0.0165636
592.208	0.0167951
592.286	0.0166967
592.364	0.0166488
592.442	0.0167184
592.521	0.0168552
592.599	0.0168606
592.677	0.0167201
592.755	0.0167208
592.833	0.0167098
592.911	0.0168715
592.989	0.0170034
593.067	0.0168053
593.146	0.0168219
593.224	0.0169048
593.302	0.0169030
593.380	0.0168885
593.458	0.0168481
593.536	0.0168345
593.614	0.0167571
593.692	0.0168241
593.771	0.0168987
593.849	0.0167527
593.927	0.0167854
594.005	0.0167579
594.083	0.0167221
594.161	0.0167831
594.239	0.0168610
594.317	0.0168155
594.396	0.0168039
594.474	0.0168324
594.552	0.0167815
594.630	0.0167867
594.708	0.0166489
594.786	0.0167399
594.864	0.0167226
594.942	0.0167200
595.021	0.0166434
595.099	0.0166876
595.177	0.0167881
595.255	0.0166480
595.333	0.0166927
595.411	0.0166941
595.489	0.0167419
595.567	0.0165950
595.646	0.0166336
595.724	0.0165182
595.802	0.0166813
595.880	0.0165966
595.958	0.0165143
596.036	0.0164402
596.114	0.0165275
596.192	0.0164420
596.271	0.0163687
596.349	0.0164314
596.427	0.0166641
596.505	0.0164040
596.583	0.0165594
596.661	0.0162864
596.739	0.0165160
596.817	0.0164127
596.896	0.0164638
596.974	0.0163979
597.052	0.0163782
597.130	0.0163821
597.208	0.0163775
597.286	0.0164109
597.364	0.0163377
597.442	0.0162521
597.521	0.0162684
597.599	0.0163193
597.677	0.0164278
597.755	0.0163249
597.833	0.0164067
597.911	0.0163775
597.989	0.0162626
598.067	0.0162888
598.146	0.0164690
598.224	0.0164104
598.302	0.0163383
598.380	0.0161773
598.458	0.0164150
598.536	0.0163426
598.614	0.0162634
598.692	0.0163248
598.771	0.0162420
598.849	0.0163088
598.927	0.0162357
599.005	0.0162186
599.083	0.0162349
599.161	0.0164146
599.239	0.0163093
599.317	0.0162978
599.396	0.0162557
599.474	0.0161924
599.552	0.0162636
599.630	0.0162621
599.708	0.0162219
599.786	0.0160493
599.864	0.0162936
599.942	0.0162474
600.021	0.0161260
600.099	0.0162020
600.177	0.0162041
600.255	0.0162083
600.333	0.0161437
600.411	0.0162408
600.489	0.0161848
600.567	0.0161172
600.646	0.0162836
600.724	0.0163568
600.802	0.0161832
600.880	0.0161102
600.958	0.0162260
601.036	0.0162731
601.114	0.0162962
601.192	0.0161514
601.271	0.0162680
601.349	0.0163844
601.427	0.0163449
601.505	0.0163506
601.583	0.0163984
601.661	0.0163193
601.739	0.0162196
601.817	0.0162789
601.896	0.0163368
601.974	0.0164049
602.052	0.0163950
602.130	0.0164339
602.208	0.0164223
602.286	0.0164487
602.364	0.0165087
602.442	0.0164719
602.521	0.0165331
602.599	0.0167007
602.677	0.0166282
602.755	0.0165153
602.833	0.0166946
602.911	0.0165788
602.989	0.0166749
603.067	0.0166191
603.146	0.0166040
603.224	0.0165926
603.302	0.0166641
603.380	0.0166035
603.458	0.0166594
603.536	0.0166790
603.614	0.0166179
603.692	0.0166494
603.771	0.0166970
603.849	0.0165604
603.927	0.0166376
604.005	0.0166862
604.083	0.0166444
604.161	0.0167381
604.239	0.0167387
604.317	0.0167564
604.396	0.0166338
604.474	0.0167178
604.552	0.0167242
604.630	0.0166620
604.708	0.0166514
604.786	0.0167293
604.864	0.0167097
604.942	0.0167144
605.021	0.0166105
605.099	0.0166042
605.177	0.0167507
605.255	0.0166193
605.333	0.0165286
605.411	0.0165841
605.489	0.0166539
605.567	0.0165504
605.646	0.0164287
605.724	0.0164751
605.802	0.0164479
605.880	0.0166007
605.958	0.0164782
606.036	0.0165658
606.114	0.0165654
606.192	0.0164781
606.271	0.0165005
606.349	0.0164319
606.427	0.0165381
606.505	0.0164397
606.583	0.0164574
606.661	0.0164964
606.739	0.0164829
606.817	0.0164079
606.896	0.0163668
606.974	0.0164037
607.052	0.0162373
607.130	0.0162972
607.208	0.0164326
607.286	0.0164340
607.364	0.0164098
607.442	0.0164938
607.521	0.0164607
607.599	0.0163033
607.677	0.0162912
607.755	0.0163764
607.833	0.0163734
607.911	0.0163297
607.989	0.0163160
608.067	0.0163238
608.146	0.0164388
608.224	0.0163294
608.302	0.0162312
608.380	0.0163229
608.458	0.0162545
608.536	0.0162118
608.614	0.0160981
608.692	0.0163707
608.771	0.0162919
608.849	0.0162697
608.927	0.0161884
609.005	0.0161757
609.083	0.0162604
609.161	0.0162437
609.239	0.0159644
609.317	0.0161241
609.396	0.0161406
609.474	0.0159719
609.552	0.0162428
609.630	0.0160152
609.708	0.0160710
609.786	0.0161243
609.864	0.0160636
609.942	0.0160307
610.021	0.0160484
610.099	0.0160610
610.177	0.0161149
610.255	0.0161368
610.333	0.0160085
610.411	0.0159823
610.489	0.0160018
610.567	0.0160432
610.646	0.0162283
610.724	0.0159751
610.802	0.0161011
610.880	0.0162617
610.958	0.0160738
611.036	0.0161902
611.114	0.0161983
611.192	0.0162826
611.271	0.0161330
611.349	0.0161772
611.427	0.0162215
611.505	0.0161974
611.583	0.0163001
611.661	0.0162057
611.739	0.0160927
611.817	0.0161624
611.896	0.0160851
611.974	0.0162551
612.052	0.0162000
612.130	0.0161871
612.208	0.0161563
612.286	0.0161321
612.364	0.0161715
612.442	0.0162597
612.521	0.0162936
612.599	0.0162926
612.677	0.0161253
612.755	0.0162942
612.833	0.0163068
612.911	0.0163529
612.989	0.0164405
613.067	0.0164422
613.146	0.0165530
613.224	0.0164970
613.302	0.0165641
613.380	0.0165532
613.458	0.0165271
613.536	0.0168687
613.614	0.0167403
613.692	0.0166988
613.771	0.0165195
613.849	0.0166592
613.927	0.0166401
614.005	0.0165981
614.083	0.0167103
614.161	0.0166768
614.239	0.0166495
614.317	0.0167641
614.396	0.0166312
614.474	0.0168075
614.552	0.0167260
614.630	0.0167760
614.708	0.0168616
614.786	0.0166454
614.864	0.0167192
614.942	0.0168231
615.021	0.0167281
615.099	0.0166869
615.177	0.0166306
615.255	0.0166992
615.333	0.0167190
615.411	0.0167030
615.489	0.0166251
615.567	0.0167657
615.646	0.0167638
615.724	0.0165610
615.802	0.0166655
615.880	0.0168491
615.958	0.0166436
616.036	0.0167728
616.114	0.0168062
616.192	0.0166900
616.271	0.0167448
616.349	0.0167783
616.427	0.0167495
616.505	0.0167522
616.583	0.0167981
616.661	0.0166820
616.739	0.0168925
616.817	0.0166467
616.896	0.0167357
616.974	0.0166854
617.052	0.0167507
617.130	0.0168406
617.208	0.0167319
617.286	0.0167703
617.364	0.0168369
617.442	0.0167120
617.521	0.0167506
617.599	0.0168070
617.677	0.0166661
617.755	0.0167750
617.833	0.0166029
617.911	0.0166062
617.989	0.0166963
618.067	0.0166101
618.146	0.0167186
618.224	0.0167079
618.302	0.0167110
618.380	0.0165509
618.458	0.0164935
618.536	0.0165839
618.614	0.0165594
618.692	0.0166898
618.771	0.0165261
618.849	0.0165199
618.927	0.0166487
619.005	0.0165557
619.083	0.0164370
619.161	0.0165330
619.239	0.0165599
619.317	0.0166392
619.396	0.0166590
619.474	0.0166399
619.552	0.0166137
619.630	0.0165793
619.708	0.0166993
619.786	0.0166952
619.864	0.0166914
619.942	0.0168563
620.021	0.0168082
620.099	0.0168562
620.177	0.0169787
620.255	0.0169535
620.333	0.0168196
620.411	0.0168442
620.489	0.0168362
620.567	0.0168297
620.646	0.0167867
620.724	0.0167153
620.802	0.0166579
620.880	0.0165383
620.958	0.0167378
621.036	0.0165673
621.114	0.0165843
621.192	0.0165919
621.271	0.0164745
621.349	0.0164768
621.427	0.0164676
621.505	0.0164346
621.583	0.0166019
621.661	0.0165491
621.739	0.0165135
621.817	0.0166863
621.896	0.0165673
621.974	0.0166435
622.052	0.0166959
622.130	0.0166687
622.208	0.0166776
622.286	0.0167377
622.364	0.0166224
622.442	0.0165552
622.521	0.0167819
622.599	0.0166457
622.677	0.0167149
622.755	0.0166885
622.833	0.0166473
622.911	0.0165865
622.989	0.0165823
623.067	0.0166072
623.146	0.0166676
623.224	0.0166630
623.302	0.0166711
623.380	0.0167126
623.458	0.0166828
623.536	0.0165648
623.614	0.0167254
623.692	0.0166680
623.771	0.0167156
623.849	0.0165453
623.927	0.0165916
624.005	0.0166436
624.083	0.0167159
624.161	0.0167086
624.239	0.0164629
624.317	0.0166267
624.396	0.0166032
624.474	0.0167142
624.552	0.0167162
624.630	0.0164835
624.708	0.0164932
624.786	0.0164581
624.864	0.0165671
624.942	0.0165517
625.021	0.0165450
625.099	0.0165782
625.177	0.0164294
625.255	0.0164725
625.333	0.0164216
625.411	0.0163926
625.489	0.0162884
625.567	0.0163199
625.646	0.0164333
625.724	0.0163248
625.802	0.0163722
625.880	0.0164268
625.958	0.0162511
626.036	0.0164185
626.114	0.0163860
626.192	0.0162737
626.271	0.0162876
626.349	0.0163622
626.427	0.0163733
626.505	0.0163483
626.583	0.0164340
626.661	0.0164722
626.739	0.0163827
626.817	0.0164246
626.896	0.0163209
626.974	0.0162029
627.052	0.0162826
627.130	0.0162395
627.208	0.0161885
627.286	0.0161492
627.364	0.0162071
627.442	0.0160493
627.521	0.0160102
627.599	0.0159837
627.677	0.0159031
627.755	0.0157960
627.833	0.0157779
627.911	0.0159116
627.989	0.0160226
628.067	0.0159724
628.146	0.0159748
628.224	0.0160069
628.302	0.0160503
628.380	0.0160341
628.458	0.0161874
628.536	0.0161070
628.614	0.0161040
628.692	0.0159693
628.771	0.0161491
628.849	0.0162413
628.927	0.0160870
629.005	0.0160502
629.083	0.0162049
629.161	0.0160527
629.239	0.0159854
629.317	0.0160718
629.396	0.0159612
629.474	0.0162421
629.552	0.0162448
629.630	0.0161309
629.708	0.0161020
629.786	0.0161368
629.864	0.0162024
629.942	0.0162741
630.021	0.0162908
630.099	0.0162547
630.177	0.0162222
630.255	0.0162749
630.333	0.0163453
630.411	0.0162862
630.489	0.0162468
630.567	0.0163781
630.646	0.0162597
630.724	0.0163317
630.802	0.0164082
630.880	0.0165286
630.958	0.0164041
631.036	0.0164333
631.114	0.0164386
631.192	0.0164114
631.271	0.0164758
631.349	0.0165564
631.427	0.0166827
631.505	0.0166801
631.583	0.0166602
631.661	0.0164591
631.739	0.0163378
631.817	0.0165598
631.896	0.0164989
631.974	0.0165532
632.052	0.0165387
632.130	0.0163633
632.208	0.0164668
632.286	0.0163832
632.364	0.0163001
632.442	0.0163770
632.521	0.0162717
632.599	0.0162430
632.677	0.0164501
632.755	0.0162614
632.833	0.0161954
632.911	0.0162467
632.989	0.0162132
633.067	0.0162817
633.146	0.0161993
633.224	0.0161907
633.302	0.0161487
633.380	0.0161981
633.458	0.0161888
633.536	0.0161918
633.614	0.0162682
633.692	0.0159424
633.771	0.0159771
633.849	0.0161550
633.927	0.0160112
634.005	0.0158836
634.083	0.0159942
634.161	0.0160891
634.239	0.0159751
634.317	0.0159077
634.396	0.0159048
634.474	0.0158671
634.552	0.0159102
634.630	0.0159960
634.708	0.0161147
634.786	0.0159190
634.864	0.0160233
634.942	0.0160490
635.021	0.0160609
635.099	0.0159939
635.177	0.0158609
635.255	0.0159332
635.333	0.0160779
635.411	0.0161171
635.489	0.0161701
635.567	0.0159521
635.646	0.0158958
635.724	0.0159853
635.802	0.0161113
635.880	0.0160239
635.958	0.0160270
636.036	0.0161346
636.114	0.0160551
636.192	0.0159261
636.271	0.0159824
636.349	0.0161016
636.427	0.0161241
636.505	0.0160814
636.583	0.0162132
636.661	0.0161768
636.739	0.0161601
636.817	0.0161264
636.896	0.0162366
636.974	0.0163744
637.052	0.0163046
637.130	0.0162830
637.208	0.0164244
637.286	0.0165482
637.364	0.0163334
637.442	0.0163544
637.521	0.0165623
637.599	0.0166299
637.677	0.0164907
637.755	0.0167882
637.833	0.0166286
637.911	0.0167265
637.989	0.0167684
638.067	0.0167035
638.146	0.0168265
638.224	0.0167505
638.302	0.0166952
638.380	0.0166943
638.458	0.0167216
638.536	0.0167275
638.614	0.0165965
638.692	0.0166598
638.771	0.0167487
638.849	0.0167740
638.927	0.0167133
639.005	0.0167194
639.083	0.0166695
639.161	0.0167026
639.239	0.0168288
639.317	0.0167080
639.396	0.0167932
639.474	0.0167242
639.552	0.0167638
639.630	0.0167790
639.708	0.0168990
639.786	0.0168571
639.864	0.0168633
639.942	0.0168935
640.021	0.0169085
640.099	0.0169077
640.177	0.0168142
640.255	0.0168328
640.333	0.0168365
640.411	0.0168810
640.489	0.0167917
640.567	0.0166257
640.646	0.0166200
640.724	0.0167127
640.802	0.0168392
640.880	0.0167821
640.958	0.0166845
641.036	0.0166599
641.114	0.0168849
641.192	0.0165964
641.271	0.0166347
641.349	0.0165826
641.427	0.0167823
641.505	0.0165845
641.583	0.0166579
641.661	0.0168208
641.739	0.0166866
641.817	0.0165877
641.896	0.0167719
641.974	0.0168295
642.052	0.0167857
642.130	0.0168733
642.208	0.0169268
642.286	0.0168005
642.364	0.0169313
642.442	0.0168340
642.521	0.0168247
642.599	0.0168641
642.677	0.0166944
642.755	0.0168108
642.833	0.0166633
642.911	0.0165638
642.989	0.0165892
643.067	0.0166586
643.146	0.0166754
643.224	0.0165594
643.302	0.0165541
643.380	0.0166189
643.458	0.0166305
643.536	0.0166103
643.614	0.0165856
643.692	0.0165911
643.771	0.0166084
643.849	0.0165762
643.927	0.0167886
644.005	0.0166400
644.083	0.0166342
644.161	0.0166644
644.239	0.0166725
644.317	0.0165968
644.396	0.0165986
644.474	0.0165939
644.552	0.0166455
644.630	0.0165887
644.708	0.0167730
644.786	0.0167480
644.864	0.0166900
644.942	0.0166437
645.021	0.0167070
645.099	0.0166216
645.177	0.0168060
645.255	0.0168996
645.333	0.0167241
645.411	0.0166834
645.489	0.0168107
645.567	0.0168673
645.646	0.0166768
645.724	0.0166226
645.802	0.0167136
645.880	0.0165065
645.958	0.0164771
646.036	0.0164226
646.114	0.0164656
646.192	0.0163629
646.271	0.0163808
646.349	0.0163993
646.427	0.0162998
646.505	0.0162875
646.583	0.0163107
646.661	0.0162946
646.739	0.0164108
646.817	0.0163049
646.896	0.0162622
646.974	0.0163121
647.052	0.0162526
647.130	0.0162382
647.208	0.0163448
647.286	0.0163158
647.364	0.0162920
647.442	0.0162717
647.521	0.0162523
647.599	0.0161871
647.677	0.0162857
647.755	0.0162571
647.833	0.0163684
647.911	0.0161808
647.989	0.0163777
648.067	0.0163814
648.146	0.0164389
648.224	0.0163997
648.302	0.0164762
648.380	0.0163850
648.458	0.0165034
648.536	0.0164640
648.614	0.0165338
648.692	0.0165254
648.771	0.0165005
648.849	0.0164362
648.927	0.0165659
649.005	0.0165662
649.083	0.0166051
649.161	0.0165343
649.239	0.0164536
649.317	0.0164684
649.396	0.0163338
649.474	0.0164075
649.552	0.0163958
649.630	0.0164988
649.708	0.0163773
649.786	0.0163123
649.864	0.0163838
649.942	0.0163744
650.021	0.0164784
650.099	0.0162987
650.177	0.0164252
650.255	0.0163934
650.333	0.0163849
650.411	0.0162831
650.489	0.0164094
650.567	0.0162741
650.646	0.0162144
650.724	0.0162216
650.802	0.0164593
650.880	0.0162479
650.958	0.0161433
651.036	0.0161702
651.114	0.0161494
651.192	0.0163257
651.271	0.0162965
651.349	0.0162177
651.427	0.0163682
651.505	0.0163179
651.583	0.0162120
651.661	0.0162598
651.739	0.0163065
651.817	0.0161900
651.896	0.0162479
651.974	0.0161739
652.052	0.0161990
652.130	0.0162650
652.208	0.0163078
652.286	0.0163037
652.364	0.0164527
652.442	0.0164729
652.521	0.0163556
652.599	0.0164285
652.677	0.0165142
652.755	0.0164017
652.833	0.0163913
652.911	0.0165089
652.989	0.0165299
653.067	0.0165425
653.146	0.0165475
653.224	0.0163913
653.302	0.0164382
653.380	0.0164872
653.458	0.0164744
653.536	0.0163770
653.614	0.0163123
653.692	0.0164097
653.771	0.0162550
653.849	0.0163155
653.927	0.0162881
654.005	0.0163998
654.083	0.0162460
654.161	0.0162663
654.239	0.0163171
654.317	0.0162480
654.396	0.0162932
654.474	0.0163708
654.552	0.0164972
654.630	0.0165089
654.708	0.0164021
654.786	0.0164403
654.864	0.0166044
654.942	0.0166605
655.021	0.0165324
655.099	0.0165030
655.177	0.0166022
655.255	0.0166753
655.333	0.0164448
655.411	0.0167602
655.489	0.0166859
655.567	0.0165028
655.646	0.0165192
655.724	0.0164594
655.802	0.0166435
655.880	0.0165877
655.958	0.0164192
656.036	0.0165142
656.114	0.0164652
656.192	0.0165694
656.271	0.0164726
656.349	0.0164915
656.427	0.0165517
656.505	0.0165103
656.583	0.0166187
656.661	0.0164548
656.739	0.0164726
656.817	0.0165883
656.896	0.0164948
656.974	0.0165131
657.052	0.0164316
657.130	0.0165325
657.208	0.0164685
657.286	0.0164685
657.364	0.0164610
657.442	0.0165826
657.521	0.0163826
657.599	0.0163165
657.677	0.0164275
657.755	0.0165225
657.833	0.0163733
657.911	0.0163470
657.989	0.0165211
658.067	0.0162930
658.146	0.0164178
658.224	0.0164489
658.302	0.0164990
658.380	0.0163754
658.458	0.0163647
658.536	0.0164780
658.614	0.0163619
658.692	0.0163467
658.771	0.0163585
658.849	0.0164182
658.927	0.0164220
659.005	0.0165171
659.083	0.0164780
659.161	0.0164625
659.239	0.0164428
659.317	0.0163570
659.396	0.0163882
659.474	0.0165372
659.552	0.0164764
659.630	0.0163863
659.708	0.0163579
659.786	0.0164329
659.864	0.0163634
659.942	0.0164875
660.021	0.0162836
660.099	0.0163487
660.177	0.0164399
660.255	0.0163353
660.333	0.0164533
660.411	0.0164114
660.489	0.0163524
660.567	0.0164662
660.646	0.0164212
660.724	0.0164638
660.802	0.0165733
660.880	0.0164191
660.958	0.0163509
661.036	0.0165114
661.114	0.0164382
661.192	0.0165507
661.271	0.0164394
661.349	0.0164965
661.427	0.0165685
661.505	0.0164938
661.583	0.0164993
661.661	0.0165801
661.739	0.0166641
661.817	0.0165876
661.896	0.0166351
661.974	0.0164325
662.052	0.0165665
662.130	0.0166554
662.208	0.0165845
662.286	0.0164439
662.364	0.0164752
662.442	0.0166029
662.521	0.0164943
662.599	0.0165557
662.677	0.0165508
662.755	0.0164673
662.833	0.0166700
662.911	0.0167856
662.989	0.0166224
663.067	0.0165157
663.146	0.0166326
663.224	0.0166624
663.302	0.0164925
663.380	0.0165216
663.458	0.0165685
663.536	0.0166025
663.614	0.0165797
663.692	0.0166660
663.771	0.0164400
663.849	0.0165588
663.927	0.0164677
664.005	0.0164093
664.083	0.0164788
664.161	0.0164304
664.239	0.0164614
664.317	0.0164688
664.396	0.0165569
664.474	0.0165424
664.552	0.0166097
664.630	0.0165444
664.708	0.0165886
664.786	0.0165755
664.864	0.0165344
664.942	0.0165266
665.021	0.0166775
665.099	0.0166132
665.177	0.0165436
665.255	0.0164056
665.333	0.0164763
665.411	0.0164797
665.489	0.0165937
665.567	0.0165369
665.646	0.0164881
665.724	0.0165089
665.802	0.0165279
665.880	0.0164416
665.958	0.0164820
666.036	0.0166193
666.114	0.0166230
666.192	0.0165784
666.271	0.0166452
666.349	0.0165827
666.427	0.0165939
666.505	0.0165065
666.583	0.0166022
666.661	0.0165761
666.739	0.0163731
666.817	0.0163934
666.896	0.0166800
666.974	0.0165873
667.052	0.0163998
667.130	0.0164511
667.208	0.0164436
667.286	0.0164548
667.364	0.0165154
667.442	0.0164011
667.521	0.0163583
667.599	0.0164160
667.677	0.0165242
667.755	0.0163288
667.833	0.0162723
667.911	0.0162920
667.989	0.0162557
668.067	0.0161505
668.146	0.0165221
668.224	0.0163381
668.302	0.0163216
668.380	0.0163774
668.458	0.0164017
668.536	0.0163359
668.614	0.0163191
668.692	0.0162933
668.771	0.0164746
668.849	0.0162483
668.927	0.0164050
669.005	0.0163367
669.083	0.0165174
669.161	0.0164333
669.239	0.0164059
669.317	0.0162954
669.396	0.0163636
669.474	0.0164880
669.552	0.0163963
669.630	0.0162596
669.708	0.0164125
669.786	0.0162606
669.864	0.0163473
669.942	0.0163454
670.021	0.0163791
670.099	0.0163388
670.177	0.0163509
670.255	0.0163052
670.333	0.0163014
670.411	0.0163034
670.489	0.0163155
670.567	0.0163324
670.646	0.0162299
670.724	0.0163787
670.802	0.0162865
670.880	0.0162162
670.958	0.0162141
671.036	0.0163417
671.114	0.0163979
671.192	0.0164146
671.271	0.0163242
671.349	0.0163225
671.427	0.0163322
671.505	0.0164982
671.583	0.0165222
671.661	0.0164575
671.739	0.0163947
671.817	0.0165569
671.896	0.0165366
671.974	0.0165393
672.052	0.0165775
672.130	0.0165395
672.208	0.0165487
672.286	0.0164344
672.364	0.0164586
672.442	0.0164245
672.521	0.0164319
672.599	0.0164410
672.677	0.0165448
672.755	0.0165007
672.833	0.0163583
672.911	0.0164230
672.989	0.0163982
673.067	0.0165478
673.146	0.0164987
673.224	0.0164310
673.302	0.0164034
673.380	0.0163251
673.458	0.0162672
673.536	0.0164567
673.614	0.0164397
673.692	0.0164828
673.771	0.0163789
673.849	0.0164088
673.927	0.0163853
674.005	0.0162945
674.083	0.0162944
674.161	0.0163802
674.239	0.0163795
674.317	0.0163673
674.396	0.0162822
674.474	0.0162884
674.552	0.0163667
674.630	0.0162505
674.708	0.0162128
674.786	0.0162746
674.864	0.0162849
674.942	0.0162463
675.021	0.0162048
675.099	0.0161908
675.177	0.0161691
675.255	0.0160863
675.333	0.0161987
675.411	0.0162568
675.489	0.0163272
675.567	0.0162153
675.646	0.0162529
675.724	0.0162868
675.802	0.0162359
675.880	0.0162907
675.958	0.0162942
676.036	0.0162080
676.114	0.0162371
676.192	0.0162682
676.271	0.0162948
676.349	0.0162655
676.427	0.0163972
676.505	0.0165216
676.583	0.0163602
676.661	0.0163995
676.739	0.0164208
676.817	0.0163443
676.896	0.0165421
676.974	0.0164203
677.052	0.0165707
677.130	0.0164500
677.208	0.0163589
677.286	0.0165372
677.364	0.0166719
677.442	0.0165691
677.521	0.0164029
677.599	0.0165481
677.677	0.0166235
677.755	0.0167326
677.833	0.0165343
677.911	0.0166293
677.989	0.0166736
678.067	0.0166203
678.146	0.0166370
678.224	0.0167070
678.302	0.0166714
678.380	0.0166401
678.458	0.0167318
678.536	0.0168638
678.614	0.0167514
678.692	0.0165908
678.771	0.0166924
678.849	0.0167577
678.927	0.0167486
679.005	0.0166328
679.083	0.0169043
679.161	0.0167380
679.239	0.0166883
679.317	0.0166730
679.396	0.0167777
679.474	0.0168047
679.552	0.0168860
679.630	0.0167845
679.708	0.0166260
679.786	0.0168914
679.864	0.0167085
679.942	0.0167288
680.021	0.0166438
680.099	0.0166093
680.177	0.0167123
680.255	0.0166058
680.333	0.0165644
680.411	0.0165133
680.489	0.0165176
680.567	0.0166872
680.646	0.0166259
680.724	0.0163735
680.802	0.0163155
680.880	0.0164086
680.958	0.0163690
681.036	0.0164998
681.114	0.0164562
681.192	0.0164822
681.271	0.0164814
681.349	0.0164662
681.427	0.0163647
681.505	0.0162997
681.583	0.0163628
681.661	0.0163953
681.739	0.0163414
681.817	0.0164437
681.896	0.0163139
681.974	0.0163612
682.052	0.0163625
682.130	0.0163851
682.208	0.0163514
682.286	0.0162769
682.364	0.0162862
682.442	0.0164529
682.521	0.0162146
682.599	0.0162487
682.677	0.0163065
682.755	0.0162544
682.833	0.0162505
682.911	0.0162734
682.989	0.0162169
683.067	0.0163896
683.146	0.0161896
683.224	0.0161875
683.302	0.0163420
683.380	0.0162653
683.458	0.0161583
683.536	0.0161773
683.614	0.0162919
683.692	0.0161817
683.771	0.0162070
683.849	0.0163869
683.927	0.0162363
684.005	0.0162078
684.083	0.0164467
684.161	0.0162426
684.239	0.0163545
684.317	0.0164445
684.396	0.0164945
684.474	0.0164532
684.552	0.0163583
684.630	0.0164699
684.708	0.0165239
684.786	0.0164230
684.864	0.0165191
684.942	0.0165873
685.021	0.0165302
685.099	0.0164998
685.177	0.0164951
685.255	0.0165715
685.333	0.0165505
685.411	0.0164960
685.489	0.0165457
685.567	0.0164154
685.646	0.0163673
685.724	0.0163924
685.802	0.0164146
685.880	0.0163495
685.958	0.0163047
686.036	0.0163197
686.114	0.0163702
686.192	0.0163365
686.271	0.0163755
686.349	0.0162714
686.427	0.0163079
686.505	0.0162556
686.583	0.0162132
686.661	0.0162583
686.739	0.0163920
686.817	0.0163898
686.896	0.0163888
686.974	0.0161732
687.052	0.0163606
687.130	0.0164416
687.208	0.0163512
687.286	0.0163214
687.364	0.0163474
687.442	0.0163376
687.521	0.0162374
687.599	0.0163478
687.677	0.0163608
687.755	0.0163922
687.833	0.0163807
687.911	0.0163912
687.989	0.0163760
688.067	0.0163786
688.146	0.0163731
688.224	0.0163749
688.302	0.0164008
688.380	0.0163953
688.458	0.0162878
688.536	0.0164477
688.614	0.0162668
688.692	0.0164030
688.771	0.0164245
688.849	0.0164643
688.927	0.0163995
689.005	0.0164353
689.083	0.0162987
689.161	0.0163451
689.239	0.0163496
689.317	0.0164254
689.396	0.0163634
689.474	0.0162323
689.552	0.0164481
689.630	0.0163699
689.708	0.0164106
689.786	0.0163098
689.864	0.0162920
689.942	0.0162656
690.021	0.0162564
690.099	0.0161743
690.177	0.0163077
690.255	0.0161636
690.333	0.0161282
690.411	0.0161919
690.489	0.0161701
690.567	0.0162701
690.646	0.0163356
690.724	0.0160487
690.802	0.0161207
690.880	0.0162080
690.958	0.0162887
691.036	0.0161993
691.114	0.0161593
691.192	0.0163575
691.271	0.0163464
691.349	0.0162270
691.427	0.0162511
691.505	0.0162909
691.583	0.0164406
691.661	0.0163635
691.739	0.0163471
691.817	0.0164322
691.896	0.0163326
691.974	0.0163654
692.052	0.0165516
692.130	0.0163832
692.208	0.0163960
692.286	0.0164246
692.364	0.0165343
692.442	0.0164256
692.521	0.0165408
692.599	0.0164539
692.677	0.0164257
692.755	0.0165032
692.833	0.0164394
692.911	0.0163139
692.989	0.0163484
693.067	0.0162610
693.146	0.0163027
693.224	0.0163366
693.302	0.0164725
693.380	0.0165173
693.458	0.0165066
693.536	0.0164590
693.614	0.0164563
693.692	0.0164380
693.771	0.0163900
693.849	0.0165147
693.927	0.0165426
694.005	0.0165509
694.083	0.0166046
694.161	0.0165963
694.239	0.0165609
694.317	0.0166188
694.396	0.0165847
694.474	0.0164375
694.552	0.0163876
694.630	0.0164703
694.708	0.0165475
694.786	0.0166502
694.864	0.0165607
694.942	0.0165375
695.021	0.0165113
695.099	0.0166973
695.177	0.0165506
695.255	0.0164880
695.333	0.0166070
695.411	0.0165598
695.489	0.0165080
695.567	0.0164877
695.646	0.0165495
695.724	0.0164915
695.802	0.0165268
695.880	0.0164962
695.958	0.0165422
696.036	0.0163074
696.114	0.0165106
696.192	0.0164848
696.271	0.0164197
696.349	0.0163919
696.427	0.0164828
696.505	0.0163365
696.583	0.0164017
696.661	0.0163294
696.739	0.0164119
696.817	0.0163815
696.896	0.0164880
696.974	0.0163150
697.052	0.0163729
697.130	0.0163783
697.208	0.0163988
697.286	0.0163870
697.364	0.0163467
697.442	0.0163115
697.521	0.0163427
697.599	0.0163060
697.677	0.0163749
697.755	0.0163145
697.833	0.0163633
697.911	0.0163699
697.989	0.0163980
698.067	0.0165239
698.146	0.0164275
698.224	0.0164230
698.302	0.0163548
698.380	0.0164266
698.458	0.0164359
698.536	0.0164182
698.614	0.0164131
698.692	0.0164362
698.771	0.0163782
698.849	0.0163567
698.927	0.0163615
699.005	0.0164206
699.083	0.0162098
699.161	0.0162385
699.239	0.0162480
699.317	0.0162838
699.396	0.0162938
699.474	0.0163991
699.552	0.0163336
699.630	0.0163808
699.708	0.0164115
699.786	0.0163809
699.864	0.0163351
699.942	0.0164018
700.021	0.0163150
700.099	0.0163544
700.177	0.0163172
700.255	0.0163441
700.333	0.0163279
700.411	0.0163371
700.489	0.0163742
700.567	0.0165588
700.646	0.0163050
700.724	0.0163501
700.802	0.0163810
700.880	0.0164654
700.958	0.0163176
701.036	0.0162766
701.114	0.0163557
701.192	0.0163003
701.271	0.0162168
701.349	0.0163148
701.427	0.0163101
701.505	0.0162047
701.583	0.0163703
701.661	0.0162719
701.739	0.0161886
701.817	0.0162558
701.896	0.0162511
701.974	0.0162346
702.052	0.0161714
702.130	0.0161954
702.208	0.0162305
702.286	0.0162879
702.364	0.0162315
702.442	0.0162623
702.521	0.0163230
702.599	0.0162535
702.677	0.0163061
702.755	0.0163986
702.833	0.0162267
702.911	0.0163819
702.989	0.0162982
703.067	0.0162873
703.146	0.0164110
703.224	0.0163259
703.302	0.0163145
703.380	0.0163624
703.458	0.0165047
703.536	0.0165195
703.614	0.0163306
703.692	0.0163544
703.771	0.0163586
703.849	0.0164259
703.927	0.0164017
704.005	0.0164327
704.083	0.0164932
704.161	0.0164442
704.239	0.0165173
704.317	0.0164829
704.396	0.0164330
704.474	0.0164098
704.552	0.0164803
704.630	0.0162693
704.708	0.0161929
704.786	0.0163493
704.864	0.0163424
704.942	0.0162387
705.021	0.0163576
705.099	0.0163135
705.177	0.0162471
705.255	0.0163314
705.333	0.0163646
705.411	0.0163087
705.489	0.0162882
705.567	0.0163101
705.646	0.0162509
705.724	0.0163122
705.802	0.0162972
705.880	0.0163506
705.958	0.0162799
706.036	0.0163927
706.114	0.0162958
706.192	0.0163866
706.271	0.0163154
706.349	0.0162952
706.427	0.0164668
706.505	0.0163612
706.583	0.0164316
706.661	0.0163689
706.739	0.0162231
706.817	0.0163879
706.896	0.0165054
706.974	0.0164160
707.052	0.0164057
707.130	0.0164667
707.208	0.0165667
707.286	0.0165376
707.364	0.0165559
707.442	0.0165318
707.521	0.0164874
707.599	0.0165701
707.677	0.0164726
707.755	0.0164246
707.833	0.0163107
707.911	0.0163305
707.989	0.0163120
708.067	0.0163989
708.146	0.0164691
708.224	0.0164921
708.302	0.0165076
708.380	0.0163657
708.458	0.0164934
708.536	0.0165495
708.614	0.0165046
708.692	0.0165813
708.771	0.0166261
708.849	0.0165665
708.927	0.0165897
709.005	0.0164754
709.083	0.0165582
709.161	0.0166455
709.239	0.0165793
709.317	0.0166076
709.396	0.0165887
709.474	0.0164875
709.552	0.0165916
709.630	0.0166764
709.708	0.0165360
709.786	0.0166395
709.864	0.0164975
709.942	0.0165175
710.021	0.0165813
710.099	0.0165470
710.177	0.0165627
710.255	0.0164636
710.333	0.0165366
710.411	0.0165462
710.489	0.0166728
710.567	0.0165411
710.646	0.0165866
710.724	0.0164977
710.802	0.0164955
710.880	0.0164678
710.958	0.0163739
711.036	0.0164008
711.114	0.0163760
711.192	0.0163330
711.271	0.0163474
711.349	0.0162643
711.427	0.0162418
711.505	0.0163261
711.583	0.0162384
711.661	0.0161540
711.739	0.0162704
711.817	0.0162590
711.896	0.0162172
711.974	0.0163956
712.052	0.0163316
712.130	0.0163274
712.208	0.0163393
712.286	0.0162305
712.364	0.0163937
712.442	0.0163984
712.521	0.0161526
712.599	0.0161116
712.677	0.0163522
712.755	0.0162800
712.833	0.0162853
712.911	0.0160766
712.989	0.0163472
713.067	0.0162431
713.146	0.0163196
713.224	0.0163483
713.302	0.0161457
713.380	0.0162154
713.458	0.0161378
713.536	0.0162358
713.614	0.0162142
713.692	0.0161646
713.771	0.0163320
713.849	0.0161929
713.927	0.0160911
714.005	0.0161850
714.083	0.0162963
714.161	0.0161853
714.239	0.0162352
714.317	0.0162659
714.396	0.0164006
714.474	0.0163963
714.552	0.0164105
714.630	0.0162600
714.708	0.0163325
714.786	0.0164846
714.864	0.0164977
714.942	0.0163947
715.021	0.0164190
715.099	0.0164754
715.177	0.0163058
715.255	0.0164384
715.333	0.0163449
715.411	0.0163104
715.489	0.0163462
715.567	0.0162753
715.646	0.0162472
715.724	0.0162851
715.802	0.0163575
715.880	0.0161636
715.958	0.0162457
716.036	0.0163327
716.114	0.0162894
716.192	0.0164797
716.271	0.0164146
716.349	0.0164993
716.427	0.0165510
716.505	0.0166467
716.583	0.0167816
716.661	0.0167905
716.739	0.0169086
716.817	0.0170016
716.896	0.0169045
716.974	0.0168485
717.052	0.0169716
717.130	0.0169290
717.208	0.0168202
717.286	0.0167104
717.364	0.0166456
717.442	0.0166547
717.521	0.0166912
717.599	0.0165965
717.677	0.0164957
717.755	0.0166748
717.833	0.0166063
717.911	0.0164744
717.989	0.0164922
718.067	0.0165007
718.146	0.0164651
718.224	0.0165685
718.302	0.0166319
718.380	0.0165805
718.458	0.0166037
718.536	0.0166791
718.614	0.0168193
718.692	0.0166299
718.771	0.0166264
718.849	0.0166011
718.927	0.0168180
719.005	0.0168818
719.083	0.0168420
719.161	0.0167944
719.239	0.0169456
719.317	0.0169314
719.396	0.0169637
719.474	0.0169762
719.552	0.0169674
719.630	0.0169277
719.708	0.0170670
719.786	0.0170998
719.864	0.0170618
719.942	0.0170705
720.021	0.0170042
720.099	0.0170361
720.177	0.0169648
720.255	0.0169216
720.333	0.0168652
720.411	0.0168472
720.489	0.0167825
720.567	0.0167511
720.646	0.0166751
720.724	0.0166620
720.802	0.0166876
720.880	0.0167843
720.958	0.0167376
721.036	0.0167297
721.114	0.0165945
721.192	0.0165959
721.271	0.0166710
721.349	0.0166889
721.427	0.0166341
721.505	0.0165694
721.583	0.0167017
721.661	0.0166682
721.739	0.0167345
721.817	0.0166296
721.896	0.0165519
721.974	0.0166367
722.052	0.0166082
722.130	0.0166476
722.208	0.0164677
722.286	0.0165193
722.364	0.0164342
722.442	0.0164230
722.521	0.0163732
722.599	0.0162185
722.677	0.0162358
722.755	0.0161864
722.833	0.0161653
722.911	0.0161357
722.989	0.0160560
723.067	0.0160768
723.146	0.0161650
723.224	0.0159980
723.302	0.0161184
723.380	0.0161634
723.458	0.0162103
723.536	0.0161642
723.614	0.0162859
723.692	0.0162276
723.771	0.0162144
723.849	0.0162292
723.927	0.0163469
724.005	0.0165965
724.083	0.0165610
724.161	0.0164858
724.239	0.0167110
724.317	0.0166496
724.396	0.0166537
724.474	0.0166768
724.552	0.0166680
724.630	0.0166630
724.708	0.0166839
724.786	0.0164513
724.864	0.0165218
724.942	0.0164845
725.021	0.0165248
725.099	0.0165655
725.177	0.0164822
725.255	0.0164722
725.333	0.0163136
725.411	0.0164243
725.489	0.0162801
725.567	0.0163421
725.646	0.0165397
725.724	0.0162641
725.802	0.0162559
725.880	0.0163081
725.958	0.0162762
726.036	0.0162265
726.114	0.0162938
726.192	0.0161185
726.271	0.0160363
726.349	0.0161133
726.427	0.0161324
726.505	0.0161522
726.583	0.0161218
726.661	0.0160381
726.739	0.0160542
726.817	0.0161952
726.896	0.0162663
726.974	0.0162996
727.052	0.0163394
727.130	0.0162999
727.208	0.0163307
727.286	0.0164374
727.364	0.0163123
727.442	0.0165253
727.521	0.0166247
727.599	0.0165862
727.677	0.0164762
727.755	0.0166035
727.833	0.0165254
727.911	0.0166303
727.989	0.0165858
728.067	0.0165947
728.146	0.0166698
728.224	0.0165981
728.302	0.0166476
728.380	0.0165462
728.458	0.0166052
728.536	0.0166496
728.614	0.0166409
728.692	0.0165630
728.771	0.0166287
728.849	0.0164745
728.927	0.0166380
729.005	0.0167270
729.083	0.0166357
729.161	0.0165210
729.239	0.0165262
729.317	0.0166991
729.396	0.0165754
729.474	0.0166530
729.552	0.0165385
729.630	0.0165520
729.708	0.0166455
729.786	0.0165797
729.864	0.0166926
729.942	0.0165360
730.021	0.0166898
730.099	0.0165792
730.177	0.0165968
730.255	0.0165627
730.333	0.0164156
730.411	0.0165148
730.489	0.0165670
730.567	0.0165373
730.646	0.0163937
730.724	0.0165411
730.802	0.0166000
730.880	0.0164610
730.958	0.0165569
731.036	0.0165476
731.114	0.0165050
731.192	0.0165665
731.271	0.0165692
731.349	0.0166925
731.427	0.0166735
731.505	0.0166051
731.583	0.0166782
731.661	0.0165866
731.739	0.0167248
731.817	0.0165704
731.896	0.0166669
731.974	0.0166107
732.052	0.0163969
732.130	0.0165397
732.208	0.0165826
732.286	0.0165687
732.364	0.0165443
732.442	0.0166153
732.521	0.0166405
732.599	0.0165076
732.677	0.0163652
732.755	0.0165622
732.833	0.0165025
732.911	0.0165222
732.989	0.0164104
733.067	0.0163339
733.146	0.0162717
733.224	0.0164177
733.302	0.0164179
733.380	0.0163263
733.458	0.0163963
733.536	0.0164713
733.614	0.0163066
733.692	0.0163105
733.771	0.0163848
733.849	0.0162756
733.927	0.0164139
734.005	0.0164986
734.083	0.0163194
734.161	0.0163257
734.239	0.0163608
734.317	0.0164740
734.396	0.0163913
734.474	0.0165377
734.552	0.0163699
734.630	0.0164024
734.708	0.0162932
734.786	0.0163755
734.864	0.0164932
734.942	0.0165305
735.021	0.0163565
735.099	0.0165629
735.177	0.0164081
735.255	0.0164420
735.333	0.0165153
735.411	0.0164638
735.489	0.0164203
735.567	0.0163424
735.646	0.0163367
735.724	0.0163843
735.802	0.0163328
735.880	0.0163310
735.958	0.0164080
736.036	0.0164410
736.114	0.0164658
736.192	0.0163853
736.271	0.0163202
736.349	0.0162621
736.427	0.0162262
736.505	0.0161441
736.583	0.0162605
736.661	0.0161666
736.739	0.0162842
736.817	0.0163245
736.896	0.0162319
736.974	0.0161990
737.052	0.0162238
737.130	0.0162074
737.208	0.0162646
737.286	0.0163434
737.364	0.0162130
737.442	0.0161926
737.521	0.0163163
737.599	0.0163893
737.677	0.0162443
737.755	0.0162218
737.833	0.0162369
737.911	0.0164778
737.989	0.0163880
738.067	0.0162355
738.146	0.0163647
738.224	0.0164770
738.302	0.0164310
738.380	0.0164270
738.458	0.0163924
738.536	0.0164491
738.614	0.0164668
738.692	0.0164658
738.771	0.0164862
738.849	0.0164061
738.927	0.0165228
739.005	0.0165325
739.083	0.0164779
739.161	0.0163331
739.239	0.0163914
739.317	0.0164613
739.396	0.0163827
739.474	0.0163299
739.552	0.0164148
739.630	0.0163878
739.708	0.0164140
739.786	0.0163656
739.864	0.0163336
739.942	0.0162538
740.021	0.0164294
740.099	0.0163930
740.177	0.0164033
740.255	0.0165330
740.333	0.0166002
740.411	0.0167457
740.489	0.0165463
740.567	0.0167132
740.646	0.0165804
740.724	0.0165800
740.802	0.0166365
740.880	0.0167966
740.958	0.0166521
741.036	0.0166867
741.114	0.0167372
741.192	0.0167735
741.271	0.0168903
741.349	0.0168113
741.427	0.0167693
741.505	0.0167325
741.583	0.0169015
741.661	0.0167741
741.739	0.0166876
741.817	0.0166974
741.896	0.0167934
741.974	0.0168184
742.052	0.0166118
742.130	0.0166428
742.208	0.0166711
742.286	0.0167287
742.364	0.0167120
742.442	0.0166560
742.521	0.0167184
742.599	0.0165028
742.677	0.0166002
742.755	0.0166031
742.833	0.0167023
742.911	0.0165569
742.989	0.0165365
743.067	0.0166788
743.146	0.0166023
743.224	0.0166026
743.302	0.0167590
743.380	0.0167034
743.458	0.0165614
743.536	0.0167188
743.614	0.0167416
743.692	0.0167572
743.771	0.0166493
743.849	0.0166286
743.927	0.0166592
744.005	0.0166727
744.083	0.0165417
744.161	0.0167877
744.239	0.0167989
744.317	0.0167220
744.396	0.0167888
744.474	0.0166679
744.552	0.0166024
744.630	0.0166531
744.708	0.0165523
744.786	0.0165834
744.864	0.0166254
744.942	0.0165845
745.021	0.0167491
745.099	0.0166444
745.177	0.0165920
745.255	0.0164963
745.333	0.0164278
745.411	0.0165478
745.489	0.0163908
745.567	0.0164646
745.646	0.0164634
745.724	0.0165461
745.802	0.0164594
745.880	0.0165632
745.958	0.0164469
746.036	0.0164420
746.114	0.0163455
746.192	0.0163857
746.271	0.0162455
746.349	0.0162855
746.427	0.0163439
746.505	0.0162565
746.583	0.0163158
746.661	0.0163702
746.739	0.0162122
746.817	0.0163851
746.896	0.0163557
746.974	0.0161932
747.052	0.0163202
747.130	0.0164024
747.208	0.0163620
747.286	0.0163338
747.364	0.0163463
747.442	0.0163078
747.521	0.0163449
747.599	0.0164299
747.677	0.0162898
747.755	0.0164117
747.833	0.0163903
747.911	0.0162341
747.989	0.0163738
748.067	0.0164088
748.146	0.0164246
748.224	0.0164040
748.302	0.0164967
748.380	0.0165007
748.458	0.0163805
748.536	0.0165318
748.614	0.0166376
748.692	0.0167336
748.771	0.0166158
748.849	0.0165910
748.927	0.0164824
749.005	0.0166325
749.083	0.0165537
749.161	0.0165335
749.239	0.0165717
749.317	0.0166801
749.396	0.0166816
749.474	0.0166397
749.552	0.0166045
749.630	0.0166592
749.708	0.0166768
749.786	0.0166084
749.864	0.0166168
749.942	0.0166745
750.021	0.0166618
750.099	0.0165725
750.177	0.0166331
750.255	0.0166509
750.333	0.0165500
750.411	0.0165870
750.489	0.0166590
750.567	0.0165705
750.646	0.0166261
750.724	0.0166272
750.802	0.0165479
750.880	0.0165173
750.958	0.0166338
751.036	0.0165913
751.114	0.0164748
751.192	0.0165717
751.271	0.0165456
751.349	0.0166095
751.427	0.0166066
751.505	0.0166460
751.583	0.0165372
751.661	0.0165724
751.739	0.0165914
751.817	0.0163902
751.896	0.0166531
751.974	0.0164764
752.052	0.0164771
752.130	0.0164507
752.208	0.0164867
752.286	0.0164819
752.364	0.0163771
752.442	0.0165560
752.521	0.0164044
752.599	0.0164165
752.677	0.0163790
752.755	0.0163833
752.833	0.0164098
752.911	0.0164915
752.989	0.0165447
753.067	0.0163668
753.146	0.0164616
753.224	0.0164531
753.302	0.0164030
753.380	0.0162975
753.458	0.0163163
753.536	0.0163577
753.614	0.0164056
753.692	0.0162315
753.771	0.0164102
753.849	0.0164034
753.927	0.0161909
754.005	0.0161816
754.083	0.0162534
754.161	0.0161299
754.239	0.0161562
754.317	0.0162891
754.396	0.0161954
754.474	0.0162468
754.552	0.0163837
754.630	0.0162236
754.708	0.0163312
754.786	0.0163454
754.864	0.0162740
754.942	0.0162791
755.021	0.0162714
755.099	0.0162608
755.177	0.0162698
755.255	0.0163087
755.333	0.0163732
755.411	0.0163284
755.489	0.0162872
755.567	0.0164523
755.646	0.0164020
755.724	0.0162298
755.802	0.0161589
755.880	0.0163261
755.958	0.0163489
756.036	0.0162742
756.114	0.0162646
756.192	0.0163558
756.271	0.0163210
756.349	0.0163290
756.427	0.0162254
756.505	0.0164346
756.583	0.0162724
756.661	0.0163254
756.739	0.0162412
756.817	0.0162430
756.896	0.0164561
756.974	0.0163491
757.052	0.0163970
757.130	0.0163774
757.208	0.0163797
757.286	0.0165040
757.364	0.0164433
757.442	0.0164993
757.521	0.0164200
757.599	0.0165138
757.677	0.0164431
757.755	0.0164328
757.833	0.0165115
757.911	0.0166041
757.989	0.0165943
758.067	0.0164909
758.146	0.0165144
758.224	0.0166084
758.302	0.0164917
758.380	0.0163734
758.458	0.0164165
758.536	0.0165650
758.614	0.0165549
758.692	0.0164938
758.771	0.0163951
758.849	0.0164569
758.927	0.0165254
759.005	0.0165076
759.083	0.0165280
759.161	0.0162605
759.239	0.0162072
759.317	0.0163039
759.396	0.0163999
759.474	0.0162147
759.552	0.0163228
759.630	0.0162644
759.708	0.0162387
759.786	0.0161977
759.864	0.0162318
759.942	0.0163013
760.021	0.0163420
760.099	0.0163860
760.177	0.0161869
760.255	0.0162008
760.333	0.0163357
760.411	0.0162461
760.489	0.0164228
760.567	0.0163787
760.646	0.0162881
760.724	0.0163126
760.802	0.0163529
760.880	0.0165506
760.958	0.0164945
761.036	0.0164384
761.114	0.0163616
761.192	0.0164349
761.271	0.0163898
761.349	0.0162106
761.427	0.0163733
761.505	0.0163369
761.583	0.0164449
761.661	0.0163161
761.739	0.0163393
761.817	0.0164291
761.896	0.0163126
761.974	0.0162570
762.052	0.0161575
762.130	0.0162263
762.208	0.0163174
762.286	0.0163260
762.364	0.0163184
762.442	0.0164178
762.521	0.0164175
762.599	0.0163332
762.677	0.0163106
762.755	0.0165141
762.833	0.0165166
762.911	0.0165746
762.989	0.0166105
763.067	0.0165990
763.146	0.0165888
763.224	0.0168246
763.302	0.0167082
763.380	0.0166975
763.458	0.0167706
763.536	0.0167531
763.614	0.0167303
763.692	0.0168166
763.771	0.0169170
763.849	0.0168304
763.927	0.0169046
764.005	0.0167872
764.083	0.0169153
764.161	0.0168075
764.239	0.0168007
764.317	0.0168613
764.396	0.0169342
764.474	0.0168604
764.552	0.0168613
764.630	0.0167258
764.708	0.0167043
764.786	0.0167587
764.864	0.0166222
764.942	0.0164789
765.021	0.0164679
765.099	0.0165561
765.177	0.0164561
765.255	0.0165580
765.333	0.0164530
765.411	0.0163398
765.489	0.0163467
765.567	0.0162164
765.646	0.0162156
765.724	0.0162877
765.802	0.0162379
765.880	0.0162331
765.958	0.0161503
766.036	0.0162396
766.114	0.0161705
766.192	0.0162845
766.271	0.0161124
766.349	0.0161200
766.427	0.0162073
766.505	0.0163359
766.583	0.0163750
766.661	0.0161570
766.739	0.0161636
766.817	0.0162440
766.896	0.0161269
766.974	0.0161302
767.052	0.0162140
767.130	0.0162204
767.208	0.0160374
767.286	0.0161048
767.364	0.0162054
767.442	0.0162391
767.521	0.0162653
767.599	0.0162183
767.677	0.0160881
767.755	0.0162278
767.833	0.0162311
767.911	0.0162265
767.989	0.0161652
768.067	0.0161453
768.146	0.0163093
768.224	0.0162646
768.302	0.0162981
768.380	0.0163823
768.458	0.0163132
768.536	0.0164516
768.614	0.0163931
768.692	0.0163436
768.771	0.0163321
768.849	0.0162810
768.927	0.0163380
769.005	0.0164332
769.083	0.0164012
769.161	0.0162830
769.239	0.0164899
769.317	0.0162933
769.396	0.0163078
769.474	0.0163604
769.552	0.0164224
769.630	0.0164294
769.708	0.0164398
769.786	0.0164180
769.864	0.0164690
769.942	0.0164700
770.021	0.0162804
770.099	0.0164983
770.177	0.0165292
770.255	0.0165091
770.333	0.0163821
770.411	0.0165561
770.489	0.0164765
770.567	0.0164798
770.646	0.0166135
770.724	0.0165997
770.802	0.0164557
770.880	0.0165722
770.958	0.0164439
771.036	0.0164046
771.114	0.0164964
771.192	0.0164414
771.271	0.0163426
771.349	0.0163683
771.427	0.0164637
771.505	0.0165159
771.583	0.0163639
771.661	0.0164366
771.739	0.0163306
771.817	0.0163036
771.896	0.0163948
771.974	0.0163509
772.052	0.0164642
772.130	0.0163476
772.208	0.0164533
772.286	0.0164155
772.364	0.0164957
772.442	0.0164665
772.521	0.0163149
772.599	0.0164194
772.677	0.0164933
772.755	0.0164969
772.833	0.0163675
772.911	0.0163960
772.989	0.0163890
773.067	0.0164471
773.146	0.0162913
773.224	0.0164037
773.302	0.0163991
773.380	0.0163671
773.458	0.0163258
773.536	0.0162845
773.614	0.0162174
773.692	0.0162096
773.771	0.0160994
773.849	0.0162856
773.927	0.0162131
774.005	0.0161233
774.083	0.0161200
774.161	0.0161137
774.239	0.0160688
774.317	0.0162473
774.396	0.0161037
774.474	0.0161633
774.552	0.0161676
774.630	0.0160635
774.708	0.0161172
774.786	0.0162480
774.864	0.0161369
774.942	0.0160725
775.021	0.0162166
775.099	0.0160902
775.177	0.0161108
775.255	0.0160963
775.333	0.0161270
775.411	0.0161147
775.489	0.0161256
775.567	0.0160863
775.646	0.0160861
775.724	0.0160419
775.802	0.0158855
775.880	0.0159327
775.958	0.0159254
776.036	0.0159914
776.114	0.0159558
776.192	0.0160192
776.271	0.0159338
776.349	0.0159988
776.427	0.0160781
776.505	0.0159752
776.583	0.0161858
776.661	0.0162611
776.739	0.0160061
776.817	0.0161037
776.896	0.0162058
776.974	0.0162665
777.052	0.0162118
777.130	0.0161810
777.208	0.0162506
777.286	0.0161424
777.364	0.0162910
777.442	0.0161667
777.521	0.0163519
777.599	0.0162124
777.677	0.0164326
777.755	0.0163583
777.833	0.0161043
777.911	0.0162047
777.989	0.0164275
778.067	0.0164659
778.146	0.0163879
778.224	0.0162560
778.302	0.0163261
778.380	0.0163438
778.458	0.0163387
778.536	0.0164096
778.614	0.0163632
778.692	0.0163564
778.771	0.0164333
778.849	0.0163239
778.927	0.0163103
779.005	0.0163081
779.083	0.0163289
779.161	0.0163387
779.239	0.0163538
779.317	0.0163250
779.396	0.0162533
779.474	0.0163612
779.552	0.0164429
779.630	0.0164381
779.708	0.0164467
779.786	0.0164067
779.864	0.0163322
779.942	0.0164303
780.021	0.0164477
780.099	0.0162978
780.177	0.0164376
780.255	0.0165007
780.333	0.0163012
780.411	0.0165404
780.489	0.0164874
780.567	0.0166072
780.646	0.0164719
780.724	0.0163849
780.802	0.0162960
780.880	0.0163705
780.958	0.0163931
781.036	0.0164791
781.114	0.0163338
781.192	0.0164474
781.271	0.0164081
781.349	0.0165274
781.427	0.0165062
781.505	0.0166251
781.583	0.0165578
781.661	0.0163623
781.739	0.0165786
781.817	0.0166534
781.896	0.0165532
781.974	0.0165765
782.052	0.0164728
782.130	0.0164618
782.208	0.0165578
782.286	0.0166145
782.364	0.0165355
782.442	0.0166498
782.521	0.0165538
782.599	0.0165242
782.677	0.0164103
782.755	0.0164745
782.833	0.0166589
782.911	0.0165660
782.989	0.0167079
783.067	0.0167474
783.146	0.0166418
783.224	0.0166893
783.302	0.0164577
783.380	0.0165680
783.458	0.0167157
783.536	0.0166161
783.614	0.0166318
783.692	0.0166459
783.771	0.0165791
783.849	0.0166765
783.927	0.0166856
784.005	0.0166498
784.083	0.0165958
784.161	0.0167915
784.239	0.0166398
784.317	0.0167690
784.396	0.0166333
784.474	0.0166972
784.552	0.0166836
784.630	0.0166373
784.708	0.0166287
784.786	0.0166046
784.864	0.0167463
784.942	0.0167484
785.021	0.0164423
785.099	0.0166021
785.177	0.0167180
785.255	0.0165337
785.333	0.0165972
785.411	0.0166380
785.489	0.0166200
785.567	0.0165730
785.646	0.0165908
785.724	0.0164717
785.802	0.0165129
785.880	0.0166834
785.958	0.0165916
786.036	0.0165786
786.114	0.0167955
786.192	0.0166220
786.271	0.0167120
786.349	0.0165646
786.427	0.0165865
786.505	0.0166247
786.583	0.0167431
786.661	0.0167073
786.739	0.0165359
786.817	0.0166971
786.896	0.0165919
786.974	0.0166448
787.052	0.0165946
787.130	0.0166901
787.208	0.0166719
787.286	0.0166496
787.364	0.0166278
787.442	0.0166058
787.521	0.0165931
787.599	0.0165778
787.677	0.0165650
787.755	0.0166624
787.833	0.0165761
787.911	0.0166560
787.989	0.0164959
788.067	0.0165251
788.146	0.0165007
788.224	0.0164960
788.302	0.0165029
788.380	0.0165504
788.458	0.0163753
788.536	0.0164262
788.614	0.0163493
788.692	0.0164228
788.771	0.0162987
788.849	0.0163961
788.927	0.0164410
789.005	0.0163239
789.083	0.0164293
789.161	0.0163975
789.239	0.0163223
789.317	0.0163464
789.396	0.0163405
789.474	0.0163740
789.552	0.0163181
789.630	0.0164158
789.708	0.0162511
789.786	0.0162864
789.864	0.0165244
789.942	0.0164712
790.021	0.0164533
790.099	0.0164590
790.177	0.0163821
790.255	0.0163891
790.333	0.0164917
790.411	0.0164157
790.489	0.0164089
790.567	0.0164315
790.646	0.0164127
790.724	0.0165190
790.802	0.0164610
790.880	0.0163967
790.958	0.0163817
791.036	0.0163080
791.114	0.0164193
791.192	0.0164057
791.271	0.0163980
791.349	0.0162322
791.427	0.0162769
791.505	0.0162002
791.583	0.0163177
791.661	0.0161989
791.739	0.0163611
791.817	0.0162759
791.896	0.0163632
791.974	0.0162765
792.052	0.0162789
792.130	0.0162704
792.208	0.0161040
792.286	0.0162467
792.364	0.0161112
792.442	0.0161217
792.521	0.0162333
792.599	0.0162670
792.677	0.0162679
792.755	0.0161920
792.833	0.0161874
792.911	0.0162054
792.989	0.0162093
793.067	0.0162289
793.146	0.0162876
793.224	0.0163583
793.302	0.0162325
793.380	0.0163976
793.458	0.0164043
793.536	0.0161967
793.614	0.0162363
793.692	0.0162240
793.771	0.0162459
793.849	0.0163251
793.927	0.0162850
794.005	0.0163409
794.083	0.0163593
794.161	0.0162517
794.239	0.0161199
794.317	0.0162949
794.396	0.0163496
794.474	0.0163920
794.552	0.0163966
794.630	0.0162774
794.708	0.0164011
794.786	0.0164864
794.864	0.0164763
794.942	0.0165164
795.021	0.0163999
795.099	0.0164478
795.177	0.0164146
795.255	0.0164184
795.333	0.0164380
795.411	0.0165120
795.489	0.0164905
795.567	0.0164626
795.646	0.0164695
795.724	0.0163766
795.802	0.0164175
795.880	0.0163397
795.958	0.0164346
796.036	0.0164125
796.114	0.0162908
796.192	0.0164265
796.271	0.0165462
796.349	0.0163905
796.427	0.0163789
796.505	0.0165015
796.583	0.0163338
796.661	0.0163307
796.739	0.0163587
796.817	0.0164476
796.896	0.0164016
796.974	0.0164181
797.052	0.0163773
797.130	0.0164835
797.208	0.0164086
797.286	0.0164798
797.364	0.0164741
797.442	0.0164164
797.521	0.0165417
797.599	0.0164141
797.677	0.0164523
797.755	0.0164659
797.833	0.0164806
797.911	0.0164896
797.989	0.0165384
798.067	0.0166569
798.146	0.0165508
798.224	0.0164745
798.302	0.0164682
798.380	0.0166780
798.458	0.0165469
798.536	0.0164828
798.614	0.0164970
798.692	0.0165546
798.771	0.0164602
798.849	0.0164145
798.927	0.0164278
799.005	0.0163741
799.083	0.0164834
799.161	0.0164318
799.239	0.0163841
799.317	0.0163826
799.396	0.0163495
799.474	0.0163758
799.552	0.0161865
799.630	0.0163590
799.708	0.0163867
799.786	0.0161988
799.864	0.0162624
799.942	0.0162653
800.021	0.0162156
800.099	0.0161955
800.177	0.0163456
800.255	0.0163445
800.333	0.0162420
800.411	0.0162736
800.489	0.0163669
800.567	0.0162975
800.646	0.0161485
800.724	0.0162970
800.802	0.0162938
800.880	0.0162379
800.958	0.0163527
801.036	0.0164061
801.114	0.0163315
801.192	0.0164924
801.271	0.0165314
801.349	0.0162637
801.427	0.0164845
801.505	0.0165590
801.583	0.0165215
801.661	0.0164507
801.739	0.0165881
801.817	0.0166642
801.896	0.0166260
801.974	0.0165058
802.052	0.0166514
802.130	0.0164713
802.208	0.0163879
802.286	0.0164036
802.364	0.0163809
802.442	0.0163977
802.521	0.0163760
802.599	0.0162856
802.677	0.0164340
802.755	0.0163667
802.833	0.0163055
802.911	0.0163587
802.989	0.0163542
803.067	0.0163116
803.146	0.0164359
803.224	0.0163474
803.302	0.0163992
803.380	0.0163805
803.458	0.0163830
803.536	0.0163739
803.614	0.0163786
803.692	0.0164457
803.771	0.0162900
803.849	0.0164693
803.927	0.0164348
804.005	0.0164886
804.083	0.0164713
804.161	0.0165139
804.239	0.0165585
804.317	0.0164859
804.396	0.0165518
804.474	0.0164313
804.552	0.0163136
804.630	0.0165008
804.708	0.0163646
804.786	0.0165102
804.864	0.0164323
804.942	0.0165758
805.021	0.0163062
805.099	0.0163277
805.177	0.0162236
805.255	0.0162263
805.333	0.0161631
805.411	0.0163564
805.489	0.0162489
805.567	0.0163078
805.646	0.0162492
805.724	0.0162736
805.802	0.0162082
805.880	0.0162053
805.958	0.0163954
806.036	0.0163829
806.114	0.0162159
806.192	0.0163326
806.271	0.0161346
806.349	0.0162576
806.427	0.0163520
806.505	0.0164189
806.583	0.0162839
806.661	0.0164719
806.739	0.0166435
806.817	0.0164694
806.896	0.0165367
806.974	0.0165458
807.052	0.0165897
807.130	0.0166373
807.208	0.0167197
807.286	0.0165831
807.364	0.0167859
807.442	0.0167563
807.521	0.0166767
807.599	0.0167081
807.677	0.0166499
807.755	0.0166383
807.833	0.0167527
807.911	0.0167584
807.989	0.0166240
808.067	0.0167483
808.146	0.0167764
808.224	0.0166641
808.302	0.0166734
808.380	0.0167100
808.458	0.0167284
808.536	0.0167293
808.614	0.0164093
808.692	0.0165667
808.771	0.0166798
808.849	0.0166783
808.927	0.0167645
809.005	0.0165754
809.083	0.0166386
809.161	0.0164441
809.239	0.0166303
809.317	0.0165513
809.396	0.0164130
809.474	0.0165565
809.552	0.0166383
809.630	0.0165384
809.708	0.0164884
809.786	0.0164001
809.864	0.0166115
809.942	0.0165878
810.021	0.0165788
810.099	0.0163510
810.177	0.0165514
810.255	0.0165336
810.333	0.0165642
810.411	0.0166226
810.489	0.0166422
810.567	0.0167030
810.646	0.0166370
810.724	0.0166280
810.802	0.0167292
810.880	0.0166261
810.958	0.0166947
811.036	0.0167816
811.114	0.0167495
811.192	0.0167754
811.271	0.0168732
811.349	0.0166090
811.427	0.0168124
811.505	0.0168542
811.583	0.0166616
811.661	0.0166801
811.739	0.0167717
811.817	0.0168015
811.896	0.0167574
811.974	0.0168275
812.052	0.0167033
812.130	0.0167017
812.208	0.0167353
812.286	0.0167104
812.364	0.0167320
812.442	0.0167718
812.521	0.0166574
812.599	0.0166961
812.677	0.0166802
812.755	0.0167246
812.833	0.0167086
812.911	0.0167803
812.989	0.0169250
813.067	0.0168326
813.146	0.0168615
813.224	0.0167508
813.302	0.0169122
813.380	0.0169287
813.458	0.0168609
813.536	0.0168214
813.614	0.0168766
813.692	0.0168161
813.771	0.0166936
813.849	0.0168269
813.927	0.0167925
814.005	0.0167187
814.083	0.0168168
814.161	0.0167673
814.239	0.0168169
814.317	0.0166882
814.396	0.0167899
814.474	0.0166800
814.552	0.0165406
814.630	0.0166851
814.708	0.0165008
814.786	0.0165688
814.864	0.0165488
814.942	0.0165638
815.021	0.0165824
815.099	0.0164303
815.177	0.0164467
815.255	0.0165346
815.333	0.0164104
815.411	0.0165462
815.489	0.0164202
815.567	0.0165149
815.646	0.0165279
815.724	0.0163268
815.802	0.0164411
815.880	0.0164107
815.958	0.0163014
816.036	0.0165593
816.114	0.0164603
816.192	0.0164031
816.271	0.0164972
816.349	0.0164516
816.427	0.0165263
816.505	0.0165369
816.583	0.0163264
816.661	0.0163451
816.739	0.0163026
816.817	0.0163776
816.896	0.0163529
816.974	0.0162305
817.052	0.0162754
817.130	0.0162381
817.208	0.0161162
817.286	0.0161124
817.364	0.0160438
817.442	0.0160982
817.521	0.0161532
817.599	0.0160548
817.677	0.0160755
817.755	0.0161512
817.833	0.0159663
817.911	0.0160176
817.989	0.0159493
818.067	0.0159059
818.146	0.0158724
818.224	0.0158817
818.302	0.0158984
818.380	0.0158258
818.458	0.0160420
818.536	0.0159258
818.614	0.0158772
818.692	0.0157493
818.771	0.0157971
818.849	0.0158098
818.927	0.0158166
819.005	0.0158652
819.083	0.0158707
819.161	0.0158739
819.239	0.0158965
819.317	0.0157636
819.396	0.0159032
819.474	0.0159742
819.552	0.0159168
819.630	0.0158251
819.708	0.0159221
819.786	0.0159035
819.864	0.0159958
819.942	0.0159169
820.021	0.0159758
820.099	0.0159773
820.177	0.0160350
820.255	0.0161033
820.333	0.0162918
820.411	0.0160625
820.489	0.0161717
820.567	0.0163002
820.646	0.0162960
820.724	0.0164294
820.802	0.0166204
820.880	0.0164880
820.958	0.0165595
821.036	0.0167284
821.114	0.0168661
821.192	0.0167994
821.271	0.0165471
821.349	0.0166632
821.427	0.0167130
821.505	0.0167391
821.583	0.0167109
821.661	0.0167845
821.739	0.0167557
821.817	0.0167347
821.896	0.0167989
821.974	0.0167249
822.052	0.0166676
822.130	0.0166991
822.208	0.0168781
822.286	0.0168074
822.364	0.0168033
822.442	0.0167739
822.521	0.0168744
822.599	0.0168863
822.677	0.0168376
822.755	0.0166142
822.833	0.0167693
822.911	0.0167673
822.989	0.0167220
823.067	0.0167431
823.146	0.0167999
823.224	0.0166486
823.302	0.0166313
823.380	0.0164832
823.458	0.0165475
823.536	0.0166463
823.614	0.0166075
823.692	0.0166178
823.771	0.0165495
823.849	0.0164281
823.927	0.0163908
824.005	0.0164963
824.083	0.0164596
824.161	0.0164937
824.239	0.0163068
824.317	0.0162890
824.396	0.0163975
824.474	0.0162901
824.552	0.0163027
824.630	0.0162173
824.708	0.0162432
824.786	0.0162933
824.864	0.0162003
824.942	0.0162025
825.021	0.0162135
825.099	0.0161927
825.177	0.0162703
825.255	0.0161261
825.333	0.0160693
825.411	0.0160999
825.489	0.0162068
825.567	0.0161284
825.646	0.0160883
825.724	0.0161854
825.802	0.0161478
825.880	0.0159908
825.958	0.0161040
826.036	0.0160444
826.114	0.0162098
826.192	0.0161182
826.271	0.0160861
826.349	0.0160941
826.427	0.0161101
826.505	0.0162180
826.583	0.0160849
826.661	0.0159914
826.739	0.0160742
826.817	0.0161755
826.896	0.0160833
826.974	0.0161673
827.052	0.0160714
827.130	0.0162085
827.208	0.0162276
827.286	0.0160999
827.364	0.0160454
827.442	0.0161533
827.521	0.0162376
827.599	0.0162420
827.677	0.0163177
827.755	0.0162814
827.833	0.0162675
827.911	0.0165068
827.989	0.0165661
828.067	0.0163235
828.146	0.0164732
828.224	0.0166273
828.302	0.0164250
828.380	0.0166940
828.458	0.0166636
828.536	0.0165511
828.614	0.0167070
828.692	0.0168428
828.771	0.0167601
828.849	0.0166158
828.927	0.0167516
829.005	0.0169221
829.083	0.0168694
829.161	0.0168657
829.239	0.0168250
829.317	0.0169408
829.396	0.0168995
829.474	0.0169078
829.552	0.0168872
829.630	0.0169324
829.708	0.0169510
829.786	0.0169466
829.864	0.0168632
829.942	0.0169288
830.021	0.0169433
830.099	0.0169874
830.177	0.0170826
830.255	0.0169941
830.333	0.0169227
830.411	0.0169222
830.489	0.0169196
830.567	0.0170189
830.646	0.0169674
830.724	0.0169951
830.802	0.0169607
830.880	0.0168202
830.958	0.0168104
831.036	0.0169723
831.114	0.0170090
831.192	0.0170312
831.271	0.0168571
831.349	0.0169512
831.427	0.0169347
831.505	0.0170334
831.583	0.0169805
831.661	0.0167969
831.739	0.0167903
831.817	0.0168163
831.896	0.0168529
831.974	0.0168964
832.052	0.0169712
832.130	0.0167519
832.208	0.0166632
832.286	0.0166156
832.364	0.0166000
832.442	0.0166029
832.521	0.0166885
832.599	0.0164431
832.677	0.0166203
832.755	0.0165392
832.833	0.0164356
832.911	0.0164938
832.989	0.0163734
833.067	0.0163470
833.146	0.0164594
833.224	0.0164091
833.302	0.0165034
833.380	0.0163409
833.458	0.0163725
833.536	0.0162728
833.614	0.0163129
833.692	0.0162511
833.771	0.0164011
833.849	0.0164097
833.927	0.0163766
834.005	0.0162536
834.083	0.0163811
834.161	0.0164681
834.239	0.0163801
834.317	0.0163804
834.396	0.0163276
834.474	0.0165440
834.552	0.0164058
834.630	0.0163589
834.708	0.0162786
834.786	0.0162521
834.864	0.0163930
834.942	0.0163981
835.021	0.0164152
835.099	0.0162933
835.177	0.0163199
835.255	0.0163493
835.333	0.0162649
835.411	0.0162890
835.489	0.0163561
835.567	0.0164147
835.646	0.0163077
835.724	0.0164110
835.802	0.0163812
835.880	0.0164205
835.958	0.0164706
836.036	0.0163111
836.114	0.0164044
836.192	0.0164189
836.271	0.0164204
836.349	0.0164700
836.427	0.0164382
836.505	0.0165172
836.583	0.0164093
836.661	0.0164097
836.739	0.0163006
836.817	0.0164188
836.896	0.0163514
836.974	0.0162934
837.052	0.0164824
837.130	0.0163483
837.208	0.0164791
837.286	0.0163219
837.364	0.0164341
837.442	0.0164437
837.521	0.0164037
837.599	0.0164006
837.677	0.0164913
837.755	0.0164437
837.833	0.0165395
837.911	0.0165200
837.989	0.0164906
838.067	0.0164599
838.146	0.0165785
838.224	0.0165830
838.302	0.0165937
838.380	0.0165051
838.458	0.0165150
838.536	0.0164896
838.614	0.0164926
838.692	0.0164354
838.771	0.0164761
838.849	0.0165624
838.927	0.0164211
839.005	0.0166656
839.083	0.0166674
839.161	0.0165626
839.239	0.0165640
839.317	0.0165449
839.396	0.0166119
839.474	0.0166595
839.552	0.0165360
839.630	0.0165716
839.708	0.0167625
839.786	0.0167111
839.864	0.0165110
839.942	0.0166425
840.021	0.0165654
840.099	0.0165643
840.177	0.0165370
840.255	0.0165851
840.333	0.0164873
840.411	0.0164864
840.489	0.0165673
840.567	0.0165260
840.646	0.0165751
840.724	0.0165904
840.802	0.0165030
840.880	0.0165331
840.958	0.0166193
841.036	0.0165569
841.114	0.0165267
841.192	0.0165715
841.271	0.0166727
841.349	0.0165329
841.427	0.0165923
841.505	0.0166167
841.583	0.0166275
841.661	0.0166096
841.739	0.0166082
841.817	0.0167289
841.896	0.0166331
841.974	0.0166010
842.052	0.0165735
842.130	0.0165153
842.208	0.0165708
842.286	0.0166498
842.364	0.0165144
842.442	0.0166212
842.521	0.0165651
842.599	0.0165185
842.677	0.0165070
842.755	0.0166135
842.833	0.0166380
842.911	0.0165606
842.989	0.0166060
843.067	0.0166659
843.146	0.0167244
843.224	0.0166161
843.302	0.0167727
843.380	0.0166894
843.458	0.0167319
843.536	0.0166290
843.614	0.0166249
843.692	0.0167377
843.771	0.0167208
843.849	0.0167471
843.927	0.0167666
844.005	0.0166528
844.083	0.0165108
844.161	0.0165373
844.239	0.0166095
844.317	0.0166418
844.396	0.0164474
844.474	0.0164970
844.552	0.0165232
844.630	0.0163716
844.708	0.0164983
844.786	0.0163739
844.864	0.0161945
844.942	0.0163857
845.021	0.0162817
845.099	0.0162431
845.177	0.0162650
845.255	0.0162408
845.333	0.0162744
845.411	0.0163146
845.489	0.0163232
845.567	0.0163172
845.646	0.0162644
845.724	0.0163753
845.802	0.0163511
845.880	0.0162401
845.958	0.0163046
846.036	0.0162715
846.114	0.0163299
846.192	0.0161845
846.271	0.0162314
846.349	0.0162592
846.427	0.0163181
846.505	0.0163495
846.583	0.0163070
846.661	0.0164128
846.739	0.0162698
846.817	0.0162518
846.896	0.0163383
846.974	0.0163318
847.052	0.0162508
847.130	0.0163894
847.208	0.0163632
847.286	0.0163719
847.364	0.0163127
847.442	0.0164185
847.521	0.0163588
847.599	0.0162753
847.677	0.0164383
847.755	0.0163138
847.833	0.0163008
847.911	0.0163413
847.989	0.0163950
848.067	0.0162702
848.146	0.0163361
848.224	0.0162856
848.302	0.0161491
848.380	0.0161946
848.458	0.0162833
848.536	0.0161047
848.614	0.0162380
848.692	0.0161787
848.771	0.0160531
848.849	0.0161245
848.927	0.0161941
849.005	0.0159818
849.083	0.0160867
849.161	0.0160861
849.239	0.0159627
849.317	0.0159507
849.396	0.0161005
849.474	0.0160511
849.552	0.0161126
849.630	0.0161491
849.708	0.0161592
849.786	0.0161390
849.864	0.0162086
849.942	0.0163519
850.021	0.0163782
850.099	0.0164264
850.177	0.0165031
850.255	0.0165701
850.333	0.0165787
850.411	0.0166899
850.489	0.0166638
850.567	0.0167542
850.646	0.0168171
850.724	0.0164648
850.802	0.0166888
850.880	0.0167432
850.958	0.0167561
851.036	0.0166476
851.114	0.0166426
851.192	0.0165371
851.271	0.0164864
851.349	0.0164090
851.427	0.0165925
851.505	0.0165339
851.583	0.0164399
851.661	0.0164909
851.739	0.0165081
851.817	0.0165079
851.896	0.0167238
851.974	0.0166975
852.052	0.0165143
852.130	0.0166837
852.208	0.0166515
852.286	0.0167679
852.364	0.0166302
852.442	0.0167645
852.521	0.0167736
852.599	0.0167046
852.677	0.0165610
852.755	0.0167587
852.833	0.0167157
852.911	0.0167747
852.989	0.0166999
853.067	0.0167200
853.146	0.0166460
853.224	0.0166504
853.302	0.0168936
853.380	0.0163814
853.458	0.0167017
853.536	0.0167000
853.614	0.0165717
853.692	0.0165057
853.771	0.0165388
853.849	0.0166885
853.927	0.0167162
854.005	0.0166257
854.083	0.0166692
854.161	0.0166135
854.239	0.0165484
854.317	0.0165282
854.396	0.0166111
854.474	0.0165746
854.552	0.0165520
854.630	0.0166402
854.708	0.0164953
854.786	0.0164654
854.864	0.0164906
854.942	0.0165463
855.021	0.0166747
855.099	0.0167107
855.177	0.0166484
855.255	0.0165378
855.333	0.0164958
855.411	0.0166050
855.489	0.0165452
855.567	0.0165187
855.646	0.0164690
855.724	0.0163999
855.802	0.0164845
855.880	0.0165073
855.958	0.0164347
856.036	0.0165025
856.114	0.0164034
856.192	0.0164207
856.271	0.0165146
856.349	0.0164497
856.427	0.0164024
856.505	0.0165163
856.583	0.0163775
856.661	0.0164087
856.739	0.0165493
856.817	0.0164396
856.896	0.0164896
856.974	0.0163374
857.052	0.0163938
857.130	0.0165162
857.208	0.0164000
857.286	0.0163424
857.364	0.0162428
857.442	0.0162896
857.521	0.0162935
857.599	0.0163811
857.677	0.0164371
857.755	0.0163130
857.833	0.0162472
857.911	0.0163344
857.989	0.0162419
858.067	0.0163874
858.146	0.0162629
858.224	0.0162452
858.302	0.0163792
858.380	0.0162883
858.458	0.0163503
858.536	0.0163808
858.614	0.0162762
858.692	0.0162884
858.771	0.0163829
858.849	0.0164149
858.927	0.0163513
859.005	0.0162800
859.083	0.0165352
859.161	0.0163671
859.239	0.0163534
859.317	0.0165105
859.396	0.0163192
859.474	0.0162799
859.552	0.0161905
859.630	0.0163628
859.708	0.0161884
859.786	0.0162926
859.864	0.0163335
859.942	0.0162328
860.021	0.0162579
860.099	0.0163533
860.177	0.0162693
860.255	0.0164262
860.333	0.0163851
860.411	0.0162986
860.489	0.0164063
860.567	0.0163882
860.646	0.0162284
860.724	0.0162620
860.802	0.0162463
860.880	0.0164035
860.958	0.0164267
861.036	0.0164163
861.114	0.0164089
861.192	0.0164283
861.271	0.0164203
861.349	0.0165199
861.427	0.0163614
861.505	0.0164937
861.583	0.0164577
861.661	0.0165110
861.739	0.0163919
861.817	0.0163501
861.896	0.0165439
861.974	0.0165949
862.052	0.0164835
862.130	0.0165066
862.208	0.0164912
862.286	0.0164682
862.364	0.0165367
862.442	0.0166835
862.521	0.0164263
862.599	0.0165244
862.677	0.0167031
862.755	0.0167214
862.833	0.0164567
862.911	0.0166587
862.989	0.0167129
863.067	0.0167357
863.146	0.0166659
863.224	0.0167532
863.302	0.0167472
863.380	0.0167175
863.458	0.0167854
863.536	0.0167529
863.614	0.0168004
863.692	0.0169685
863.771	0.0167956
863.849	0.0167747
863.927	0.0167802
864.005	0.0168583
864.083	0.0167901
864.161	0.0168328
864.239	0.0168362
864.317	0.0167649
864.396	0.0167581
864.474	0.0168594
864.552	0.0166161
864.630	0.0167731
864.708	0.0166267
864.786	0.0166090
864.864	0.0166959
864.942	0.0165447
865.021	0.0165238
865.099	0.0166248
865.177	0.0165018
865.255	0.0165041
865.333	0.0164688
865.411	0.0164864
865.489	0.0165511
865.567	0.0166385
865.646	0.0166434
865.724	0.0166523
865.802	0.0167553
865.880	0.0167485
865.958	0.0167274
866.036	0.0167748
866.114	0.0167302
866.192	0.0167407
866.271	0.0167687
866.349	0.0168825
866.427	0.0167732
866.505	0.0167949
866.583	0.0168121
866.661	0.0168590
866.739	0.0168696
866.817	0.0168141
866.896	0.0168583
866.974	0.0167793
867.052	0.0168008
867.130	0.0168296
867.208	0.0167429
867.286	0.0166778
867.364	0.0167905
867.442	0.0167100
867.521	0.0166978
867.599	0.0167484
867.677	0.0166231
867.755	0.0168159
867.833	0.0168169
867.911	0.0166675
867.989	0.0165791
868.067	0.0166258
868.146	0.0166050
868.224	0.0166008
868.302	0.0166861
868.380	0.0165479
868.458	0.0165503
868.536	0.0164977
868.614	0.0165971
868.692	0.0164892
868.771	0.0163762
868.849	0.0165575
868.927	0.0165648
869.005	0.0165334
869.083	0.0164785
869.161	0.0164519
869.239	0.0164909
869.317	0.0164014
869.396	0.0163154
869.474	0.0166010
869.552	0.0165999
869.630	0.0163605
869.708	0.0163918
869.786	0.0163828
869.864	0.0164404
869.942	0.0164619
