06/03/2022	14:51:30	Ver.	4.1	UNKNOWN
Optical Delay	550.020508	Delta X		0.078125	Sweeps	1	Scan Rate	0/0
Coordinates	Axis 1	NaN	Axis 2	NaN	Axis 3	NaN	Axis 4	NaN	Axis 5	NaN	Axis 6	0.000000
TX Power	0.000000	RX Power	0.000000

550.021	0.0163157
550.099	0.0173878
550.177	0.0173821
550.255	0.0173347
550.333	0.0173625
550.411	0.0172832
550.489	0.0173314
550.567	0.0173182
550.646	0.0171667
550.724	0.0172382
550.802	0.0170613
550.880	0.0170770
550.958	0.0168270
551.036	0.0167563
551.114	0.0166547
551.192	0.0167220
551.271	0.0167364
551.349	0.0166105
551.427	0.0164836
551.505	0.0164851
551.583	0.0165513
551.661	0.0165399
551.739	0.0163230
551.817	0.0163046
551.896	0.0162209
551.974	0.0164339
552.052	0.0164251
552.130	0.0163740
552.208	0.0161248
552.286	0.0163190
552.364	0.0163351
552.442	0.0162437
552.521	0.0161562
552.599	0.0161774
552.677	0.0161861
552.755	0.0160465
552.833	0.0160606
552.911	0.0161544
552.989	0.0159444
553.067	0.0159680
553.146	0.0158761
553.224	0.0158565
553.302	0.0158945
553.380	0.0156921
553.458	0.0157695
553.536	0.0157072
553.614	0.0157137
553.692	0.0155157
553.771	0.0155301
553.849	0.0156065
553.927	0.0157130
554.005	0.0156973
554.083	0.0156959
554.161	0.0156233
554.239	0.0157066
554.317	0.0156564
554.396	0.0156447
554.474	0.0155887
554.552	0.0156055
554.630	0.0156534
554.708	0.0156408
554.786	0.0157153
554.864	0.0155833
554.942	0.0156036
555.021	0.0156055
555.099	0.0156795
555.177	0.0156094
555.255	0.0154889
555.333	0.0155057
555.411	0.0154934
555.489	0.0156464
555.567	0.0156577
555.646	0.0154927
555.724	0.0156535
555.802	0.0156390
555.880	0.0156744
555.958	0.0158234
556.036	0.0157333
556.114	0.0157108
556.192	0.0156931
556.271	0.0157025
556.349	0.0157975
556.427	0.0159241
556.505	0.0159488
556.583	0.0159231
556.661	0.0159901
556.739	0.0160103
556.817	0.0159052
556.896	0.0161557
556.974	0.0161828
557.052	0.0160595
557.130	0.0162238
557.208	0.0161616
557.286	0.0163297
557.364	0.0163443
557.442	0.0163697
557.521	0.0165348
557.599	0.0164973
557.677	0.0166357
557.755	0.0165614
557.833	0.0165032
557.911	0.0167410
557.989	0.0168881
558.067	0.0167764
558.146	0.0169167
558.224	0.0169067
558.302	0.0168720
558.380	0.0170685
558.458	0.0171096
558.536	0.0171813
558.614	0.0173196
558.692	0.0173692
558.771	0.0175018
558.849	0.0176066
558.927	0.0175517
559.005	0.0176077
559.083	0.0176218
559.161	0.0177178
559.239	0.0178068
559.317	0.0179395
559.396	0.0178605
559.474	0.0180156
559.552	0.0180095
559.630	0.0180740
559.708	0.0180157
559.786	0.0179074
559.864	0.0180038
559.942	0.0179161
560.021	0.0179214
560.099	0.0178725
560.177	0.0179727
560.255	0.0178966
560.333	0.0178760
560.411	0.0177571
560.489	0.0175578
560.567	0.0176685
560.646	0.0174259
560.724	0.0173898
560.802	0.0173542
560.880	0.0173768
560.958	0.0172413
561.036	0.0172001
561.114	0.0171268
561.192	0.0169963
561.271	0.0168463
561.349	0.0170491
561.427	0.0169568
561.505	0.0168640
561.583	0.0168073
561.661	0.0167931
561.739	0.0166594
561.817	0.0166317
561.896	0.0166045
561.974	0.0165630
562.052	0.0164665
562.130	0.0163783
562.208	0.0163199
562.286	0.0163171
562.364	0.0162661
562.442	0.0161323
562.521	0.0160984
562.599	0.0161675
562.677	0.0163190
562.755	0.0160966
562.833	0.0161279
562.911	0.0161961
562.989	0.0160069
563.067	0.0160236
563.146	0.0161173
563.224	0.0160229
563.302	0.0161549
563.380	0.0160123
563.458	0.0160860
563.536	0.0160162
563.614	0.0159684
563.692	0.0160603
563.771	0.0160792
563.849	0.0159647
563.927	0.0160040
564.005	0.0160149
564.083	0.0159866
564.161	0.0160857
564.239	0.0159995
564.317	0.0159624
564.396	0.0161663
564.474	0.0162338
564.552	0.0161051
564.630	0.0160186
564.708	0.0161214
564.786	0.0163168
564.864	0.0163279
564.942	0.0162083
565.021	0.0163296
565.099	0.0164267
565.177	0.0163489
565.255	0.0163226
565.333	0.0163659
565.411	0.0165681
565.489	0.0165349
565.567	0.0164970
565.646	0.0164629
565.724	0.0165220
565.802	0.0164117
565.880	0.0164690
565.958	0.0164919
566.036	0.0166090
566.114	0.0166615
566.192	0.0165905
566.271	0.0166438
566.349	0.0166434
566.427	0.0166241
566.505	0.0168030
566.583	0.0166660
566.661	0.0167026
566.739	0.0167998
566.817	0.0167779
566.896	0.0168208
566.974	0.0167595
567.052	0.0167177
567.130	0.0169315
567.208	0.0169309
567.286	0.0169115
567.364	0.0168517
567.442	0.0169434
567.521	0.0169900
567.599	0.0169235
567.677	0.0168831
567.755	0.0168999
567.833	0.0169044
567.911	0.0169957
567.989	0.0169376
568.067	0.0168655
568.146	0.0169525
568.224	0.0170083
568.302	0.0168969
568.380	0.0168740
568.458	0.0169021
568.536	0.0169781
568.614	0.0168542
568.692	0.0170180
568.771	0.0168238
568.849	0.0167971
568.927	0.0169495
569.005	0.0167972
569.083	0.0168661
569.161	0.0168457
569.239	0.0167150
569.317	0.0167622
569.396	0.0166576
569.474	0.0167956
569.552	0.0167917
569.630	0.0167342
569.708	0.0166168
569.786	0.0166430
569.864	0.0167300
569.942	0.0166721
570.021	0.0164603
570.099	0.0164282
570.177	0.0165055
570.255	0.0165244
570.333	0.0164004
570.411	0.0164332
570.489	0.0163235
570.567	0.0161907
570.646	0.0162654
570.724	0.0162398
570.802	0.0162463
570.880	0.0163551
570.958	0.0161979
571.036	0.0161777
571.114	0.0161119
571.192	0.0162939
571.271	0.0161110
571.349	0.0160373
571.427	0.0161254
571.505	0.0162132
571.583	0.0161448
571.661	0.0161112
571.739	0.0161517
571.817	0.0161209
571.896	0.0161797
571.974	0.0160396
572.052	0.0160500
572.130	0.0161192
572.208	0.0161847
572.286	0.0160271
572.364	0.0159457
572.442	0.0160278
572.521	0.0159263
572.599	0.0158580
572.677	0.0158359
572.755	0.0158324
572.833	0.0157628
572.911	0.0158176
572.989	0.0157851
573.067	0.0156549
573.146	0.0157163
573.224	0.0158640
573.302	0.0156853
573.380	0.0157534
573.458	0.0158096
573.536	0.0158334
573.614	0.0157433
573.692	0.0159115
573.771	0.0159098
573.849	0.0157503
573.927	0.0158942
574.005	0.0159018
574.083	0.0159863
574.161	0.0160033
574.239	0.0159442
574.317	0.0160419
574.396	0.0160003
574.474	0.0160577
574.552	0.0160305
574.630	0.0161569
574.708	0.0161625
574.786	0.0160870
574.864	0.0160249
574.942	0.0161930
575.021	0.0160614
575.099	0.0160420
575.177	0.0161478
575.255	0.0160510
575.333	0.0161301
575.411	0.0161930
575.489	0.0162019
575.567	0.0160831
575.646	0.0161876
575.724	0.0160950
575.802	0.0162022
575.880	0.0162509
575.958	0.0164099
576.036	0.0161874
576.114	0.0162059
576.192	0.0163250
576.271	0.0164317
576.349	0.0162464
576.427	0.0162894
576.505	0.0164672
576.583	0.0164654
576.661	0.0163272
576.739	0.0163939
576.817	0.0165108
576.896	0.0164790
576.974	0.0165269
577.052	0.0164742
577.130	0.0165250
577.208	0.0163895
577.286	0.0164552
577.364	0.0166530
577.442	0.0166541
577.521	0.0166816
577.599	0.0167690
577.677	0.0167753
577.755	0.0169662
577.833	0.0168863
577.911	0.0167572
577.989	0.0169117
578.067	0.0168990
578.146	0.0171432
578.224	0.0171176
578.302	0.0170789
578.380	0.0170708
578.458	0.0170933
578.536	0.0170929
578.614	0.0171581
578.692	0.0170811
578.771	0.0171352
578.849	0.0171152
578.927	0.0170641
579.005	0.0172074
579.083	0.0171606
579.161	0.0171079
579.239	0.0170800
579.317	0.0171307
579.396	0.0171406
579.474	0.0171487
579.552	0.0171561
579.630	0.0171622
579.708	0.0170918
579.786	0.0170889
579.864	0.0168815
579.942	0.0169246
580.021	0.0169238
580.099	0.0168719
580.177	0.0169811
580.255	0.0170305
580.333	0.0168656
580.411	0.0168096
580.489	0.0168073
580.567	0.0167319
580.646	0.0167822
580.724	0.0166081
580.802	0.0167805
580.880	0.0168575
580.958	0.0167090
581.036	0.0166418
581.114	0.0168142
581.192	0.0166788
581.271	0.0166068
581.349	0.0166728
581.427	0.0166949
581.505	0.0166743
581.583	0.0167204
581.661	0.0167662
581.739	0.0166359
581.817	0.0166206
581.896	0.0166792
581.974	0.0167094
582.052	0.0166776
582.130	0.0167521
582.208	0.0167072
582.286	0.0166131
582.364	0.0165829
582.442	0.0167393
582.521	0.0167282
582.599	0.0166437
582.677	0.0166826
582.755	0.0166487
582.833	0.0167335
582.911	0.0168408
582.989	0.0168408
583.067	0.0167123
583.146	0.0168561
583.224	0.0169048
583.302	0.0168017
583.380	0.0168433
583.458	0.0166720
583.536	0.0168729
583.614	0.0167896
583.692	0.0169393
583.771	0.0168703
583.849	0.0166664
583.927	0.0168052
584.005	0.0167495
584.083	0.0167413
584.161	0.0169223
584.239	0.0167399
584.317	0.0166532
584.396	0.0167031
584.474	0.0165858
584.552	0.0168269
584.630	0.0166624
584.708	0.0165987
584.786	0.0165741
584.864	0.0166601
584.942	0.0165840
585.021	0.0165102
585.099	0.0164899
585.177	0.0165977
585.255	0.0165552
585.333	0.0163927
585.411	0.0164620
585.489	0.0165184
585.567	0.0164585
585.646	0.0164069
585.724	0.0163575
585.802	0.0164075
585.880	0.0165080
585.958	0.0163503
586.036	0.0164063
586.114	0.0162955
586.192	0.0161884
586.271	0.0164388
586.349	0.0163863
586.427	0.0164037
586.505	0.0164163
586.583	0.0164613
586.661	0.0164907
586.739	0.0164310
586.817	0.0163573
586.896	0.0164890
586.974	0.0164902
587.052	0.0164281
587.130	0.0164485
587.208	0.0165256
587.286	0.0166025
587.364	0.0164903
587.442	0.0165217
587.521	0.0164363
587.599	0.0164650
587.677	0.0165556
587.755	0.0165251
587.833	0.0167445
587.911	0.0167651
587.989	0.0165630
588.067	0.0166700
588.146	0.0168204
588.224	0.0167136
588.302	0.0168872
588.380	0.0167052
588.458	0.0166866
588.536	0.0167632
588.614	0.0167931
588.692	0.0168923
588.771	0.0168923
588.849	0.0168169
588.927	0.0167855
589.005	0.0167881
589.083	0.0168194
589.161	0.0168896
589.239	0.0169035
589.317	0.0168171
589.396	0.0167795
589.474	0.0168818
589.552	0.0168401
589.630	0.0168212
589.708	0.0167860
589.786	0.0167403
589.864	0.0168951
589.942	0.0170113
590.021	0.0168176
590.099	0.0168657
590.177	0.0169678
590.255	0.0169186
590.333	0.0169154
590.411	0.0170072
590.489	0.0170627
590.567	0.0169210
590.646	0.0170277
590.724	0.0169561
590.802	0.0170178
590.880	0.0170152
590.958	0.0171549
591.036	0.0170774
591.114	0.0170419
591.192	0.0170335
591.271	0.0169386
591.349	0.0170372
591.427	0.0169709
591.505	0.0168608
591.583	0.0169302
591.661	0.0171479
591.739	0.0169099
591.817	0.0170323
591.896	0.0170160
591.974	0.0169102
592.052	0.0169761
592.130	0.0170638
592.208	0.0170443
592.286	0.0169089
592.364	0.0168916
592.442	0.0169339
592.521	0.0170090
592.599	0.0167276
592.677	0.0169061
592.755	0.0167436
592.833	0.0168169
592.911	0.0167506
592.989	0.0168971
593.067	0.0166945
593.146	0.0167202
593.224	0.0166295
593.302	0.0164777
593.380	0.0166123
593.458	0.0165694
593.536	0.0165176
593.614	0.0165209
593.692	0.0164096
593.771	0.0164990
593.849	0.0165517
593.927	0.0163872
594.005	0.0165073
594.083	0.0165195
594.161	0.0163927
594.239	0.0163277
594.317	0.0163976
594.396	0.0162763
594.474	0.0163023
594.552	0.0162939
594.630	0.0165188
594.708	0.0163929
594.786	0.0162923
594.864	0.0160950
594.942	0.0163216
595.021	0.0163976
595.099	0.0162482
595.177	0.0163165
595.255	0.0161523
595.333	0.0162882
595.411	0.0163523
595.489	0.0162190
595.567	0.0163098
595.646	0.0162379
595.724	0.0162580
595.802	0.0161393
595.880	0.0161464
595.958	0.0162864
596.036	0.0161028
596.114	0.0161281
596.192	0.0161674
596.271	0.0163109
596.349	0.0161923
596.427	0.0160492
596.505	0.0160542
596.583	0.0161471
596.661	0.0162042
596.739	0.0160316
596.817	0.0161981
596.896	0.0160748
596.974	0.0159718
597.052	0.0160702
597.130	0.0159846
597.208	0.0161217
597.286	0.0160156
597.364	0.0159552
597.442	0.0160603
597.521	0.0159980
597.599	0.0162305
597.677	0.0160267
597.755	0.0160441
597.833	0.0161091
597.911	0.0159425
597.989	0.0161367
598.067	0.0161130
598.146	0.0162093
598.224	0.0162402
598.302	0.0161317
598.380	0.0161620
598.458	0.0162370
598.536	0.0164217
598.614	0.0162666
598.692	0.0162207
598.771	0.0162817
598.849	0.0163594
598.927	0.0162903
599.005	0.0164995
599.083	0.0164901
599.161	0.0163988
599.239	0.0164877
599.317	0.0164164
599.396	0.0166283
599.474	0.0165965
599.552	0.0165717
599.630	0.0166570
599.708	0.0166147
599.786	0.0165807
599.864	0.0168246
599.942	0.0166326
600.021	0.0166080
600.099	0.0168198
600.177	0.0167310
600.255	0.0168275
600.333	0.0168268
600.411	0.0167588
600.489	0.0168495
600.567	0.0168176
600.646	0.0168795
600.724	0.0169415
600.802	0.0168259
600.880	0.0169074
600.958	0.0167789
601.036	0.0169055
601.114	0.0168457
601.192	0.0167493
601.271	0.0167416
601.349	0.0167345
601.427	0.0166801
601.505	0.0167477
601.583	0.0167693
601.661	0.0166908
601.739	0.0166848
601.817	0.0165730
601.896	0.0165749
601.974	0.0166627
602.052	0.0166120
602.130	0.0167168
602.208	0.0165342
602.286	0.0165759
602.364	0.0165228
602.442	0.0164986
602.521	0.0166573
602.599	0.0166535
602.677	0.0166274
602.755	0.0166605
602.833	0.0165479
602.911	0.0164961
602.989	0.0165551
603.067	0.0164394
603.146	0.0165160
603.224	0.0166542
603.302	0.0165575
603.380	0.0166408
603.458	0.0165928
603.536	0.0166352
603.614	0.0165278
603.692	0.0164744
603.771	0.0164960
603.849	0.0166113
603.927	0.0166237
604.005	0.0164083
604.083	0.0165861
604.161	0.0164799
604.239	0.0164758
604.317	0.0165876
604.396	0.0166447
604.474	0.0166730
604.552	0.0163728
604.630	0.0164362
604.708	0.0164067
604.786	0.0164119
604.864	0.0163683
604.942	0.0164584
605.021	0.0164012
605.099	0.0162389
605.177	0.0163473
605.255	0.0163254
605.333	0.0162289
605.411	0.0162565
605.489	0.0163617
605.567	0.0161668
605.646	0.0162233
605.724	0.0164269
605.802	0.0163667
605.880	0.0162010
605.958	0.0164210
606.036	0.0163248
606.114	0.0163091
606.192	0.0162643
606.271	0.0162092
606.349	0.0163509
606.427	0.0162215
606.505	0.0163382
606.583	0.0162383
606.661	0.0160867
606.739	0.0161150
606.817	0.0161762
606.896	0.0161916
606.974	0.0162762
607.052	0.0162646
607.130	0.0162373
607.208	0.0162151
607.286	0.0163154
607.364	0.0161100
607.442	0.0162810
607.521	0.0163763
607.599	0.0161505
607.677	0.0161513
607.755	0.0162624
607.833	0.0163213
607.911	0.0163535
607.989	0.0163209
608.067	0.0163858
608.146	0.0161984
608.224	0.0162806
608.302	0.0163883
608.380	0.0163190
608.458	0.0163459
608.536	0.0164508
608.614	0.0163763
608.692	0.0162455
608.771	0.0163333
608.849	0.0165089
608.927	0.0163413
609.005	0.0164082
609.083	0.0163982
609.161	0.0163251
609.239	0.0162167
609.317	0.0162572
609.396	0.0163570
609.474	0.0164134
609.552	0.0165047
609.630	0.0164315
609.708	0.0164816
609.786	0.0163660
609.864	0.0162526
609.942	0.0164268
610.021	0.0164400
610.099	0.0165276
610.177	0.0166509
610.255	0.0165814
610.333	0.0165469
610.411	0.0166669
610.489	0.0166380
610.567	0.0164852
610.646	0.0166889
610.724	0.0164989
610.802	0.0166351
610.880	0.0165399
610.958	0.0164714
611.036	0.0166560
611.114	0.0165849
611.192	0.0168124
611.271	0.0167609
611.349	0.0168421
611.427	0.0166859
611.505	0.0167958
611.583	0.0166147
611.661	0.0167404
611.739	0.0167018
611.817	0.0167437
611.896	0.0167687
611.974	0.0167623
612.052	0.0168066
612.130	0.0166986
612.208	0.0168436
612.286	0.0165583
612.364	0.0167292
612.442	0.0167739
612.521	0.0169296
612.599	0.0167690
612.677	0.0168869
612.755	0.0166503
612.833	0.0169489
612.911	0.0169612
612.989	0.0168911
613.067	0.0168432
613.146	0.0169404
613.224	0.0169424
613.302	0.0167433
613.380	0.0169173
613.458	0.0168303
613.536	0.0168339
613.614	0.0168223
613.692	0.0172060
613.771	0.0168948
613.849	0.0168320
613.927	0.0169151
614.005	0.0169830
614.083	0.0169968
614.161	0.0168450
614.239	0.0167993
614.317	0.0169382
614.396	0.0167285
614.474	0.0169949
614.552	0.0169215
614.630	0.0168562
614.708	0.0168783
614.786	0.0167314
614.864	0.0168178
614.942	0.0169180
615.021	0.0168566
615.099	0.0167271
615.177	0.0168938
615.255	0.0167711
615.333	0.0168371
615.411	0.0166850
615.489	0.0165909
615.567	0.0165771
615.646	0.0166727
615.724	0.0166702
615.802	0.0165503
615.880	0.0166435
615.958	0.0165764
616.036	0.0166572
616.114	0.0165929
616.192	0.0166060
616.271	0.0165586
616.349	0.0168227
616.427	0.0166160
616.505	0.0166758
616.583	0.0168328
616.661	0.0168471
616.739	0.0167749
616.817	0.0166923
616.896	0.0169387
616.974	0.0170389
617.052	0.0168859
617.130	0.0169980
617.208	0.0170372
617.286	0.0170052
617.364	0.0169653
617.442	0.0169258
617.521	0.0169099
617.599	0.0169600
617.677	0.0170049
617.755	0.0168932
617.833	0.0169281
617.911	0.0169000
617.989	0.0169362
618.067	0.0168855
618.146	0.0167750
618.224	0.0167796
618.302	0.0167426
618.380	0.0167711
618.458	0.0167145
618.536	0.0167392
618.614	0.0167684
618.692	0.0166338
618.771	0.0166535
618.849	0.0166286
618.927	0.0166846
619.005	0.0167887
619.083	0.0166441
619.161	0.0165803
619.239	0.0166993
619.317	0.0166195
619.396	0.0165942
619.474	0.0166808
619.552	0.0166373
619.630	0.0165971
619.708	0.0165102
619.786	0.0165617
619.864	0.0167010
619.942	0.0165154
620.021	0.0165880
620.099	0.0167130
620.177	0.0166169
620.255	0.0164125
620.333	0.0165865
620.411	0.0165386
620.489	0.0164990
620.567	0.0165755
620.646	0.0166580
620.724	0.0163267
620.802	0.0166581
620.880	0.0165037
620.958	0.0165552
621.036	0.0164495
621.114	0.0164938
621.192	0.0165244
621.271	0.0164838
621.349	0.0166467
621.427	0.0166470
621.505	0.0165005
621.583	0.0165099
621.661	0.0165604
621.739	0.0164783
621.817	0.0164930
621.896	0.0164187
621.974	0.0165606
622.052	0.0166815
622.130	0.0164673
622.208	0.0165504
622.286	0.0165526
622.364	0.0163937
622.442	0.0165389
622.521	0.0164640
622.599	0.0163458
622.677	0.0163282
622.755	0.0164395
622.833	0.0162454
622.911	0.0162381
622.989	0.0163495
623.067	0.0163832
623.146	0.0162703
623.224	0.0163010
623.302	0.0162063
623.380	0.0162283
623.458	0.0162234
623.536	0.0162329
623.614	0.0161819
623.692	0.0161144
623.771	0.0162324
623.849	0.0162935
623.927	0.0161206
624.005	0.0160015
624.083	0.0161489
624.161	0.0159084
624.239	0.0158808
624.317	0.0159083
624.396	0.0158937
624.474	0.0156845
624.552	0.0157882
624.630	0.0156130
624.708	0.0154032
624.786	0.0155774
624.864	0.0156356
624.942	0.0154805
625.021	0.0154672
625.099	0.0156249
625.177	0.0156706
625.255	0.0156655
625.333	0.0158603
625.411	0.0157344
625.489	0.0158506
625.567	0.0158704
625.646	0.0159349
625.724	0.0159074
625.802	0.0159804
625.880	0.0159799
625.958	0.0159895
626.036	0.0159315
626.114	0.0158638
626.192	0.0161002
626.271	0.0160213
626.349	0.0158996
626.427	0.0160160
626.505	0.0160223
626.583	0.0160377
626.661	0.0161470
626.739	0.0160394
626.817	0.0161286
626.896	0.0162107
626.974	0.0161613
627.052	0.0162377
627.130	0.0163273
627.208	0.0162029
627.286	0.0163396
627.364	0.0162020
627.442	0.0164380
627.521	0.0163996
627.599	0.0164517
627.677	0.0164993
627.755	0.0165356
627.833	0.0166109
627.911	0.0166646
627.989	0.0166377
628.067	0.0167210
628.146	0.0166887
628.224	0.0168510
628.302	0.0168322
628.380	0.0168802
628.458	0.0167859
628.536	0.0168327
628.614	0.0168324
628.692	0.0167735
628.771	0.0167660
628.849	0.0166989
628.927	0.0166442
629.005	0.0167581
629.083	0.0165398
629.161	0.0166315
629.239	0.0164748
629.317	0.0165382
629.396	0.0164880
629.474	0.0164861
629.552	0.0165045
629.630	0.0163266
629.708	0.0164417
629.786	0.0165276
629.864	0.0163061
629.942	0.0163231
630.021	0.0163369
630.099	0.0162761
630.177	0.0162600
630.255	0.0164156
630.333	0.0163537
630.411	0.0163964
630.489	0.0163453
630.567	0.0163187
630.646	0.0161890
630.724	0.0162663
630.802	0.0161378
630.880	0.0162251
630.958	0.0163494
631.036	0.0161818
631.114	0.0161898
631.192	0.0162743
631.271	0.0162799
631.349	0.0162286
631.427	0.0161943
631.505	0.0161073
631.583	0.0162781
631.661	0.0162187
631.739	0.0161069
631.817	0.0161784
631.896	0.0162820
631.974	0.0162346
632.052	0.0160987
632.130	0.0161652
632.208	0.0161171
632.286	0.0161584
632.364	0.0161504
632.442	0.0161387
632.521	0.0161368
632.599	0.0160313
632.677	0.0163180
632.755	0.0161536
632.833	0.0161201
632.911	0.0162585
632.989	0.0162340
633.067	0.0162029
633.146	0.0161877
633.224	0.0162211
633.302	0.0161441
633.380	0.0161973
633.458	0.0162253
633.536	0.0161993
633.614	0.0162769
633.692	0.0162744
633.771	0.0163105
633.849	0.0162476
633.927	0.0164126
634.005	0.0163973
634.083	0.0164465
634.161	0.0166019
634.239	0.0166193
634.317	0.0167051
634.396	0.0166364
634.474	0.0165411
634.552	0.0167168
634.630	0.0167657
634.708	0.0167492
634.786	0.0168887
634.864	0.0168360
634.942	0.0167786
635.021	0.0168482
635.099	0.0167886
635.177	0.0168298
635.255	0.0168046
635.333	0.0167912
635.411	0.0168082
635.489	0.0168491
635.567	0.0166737
635.646	0.0168221
635.724	0.0167101
635.802	0.0168007
635.880	0.0168829
635.958	0.0168426
636.036	0.0167891
636.114	0.0169347
636.192	0.0169426
636.271	0.0167706
636.349	0.0168165
636.427	0.0167860
636.505	0.0170288
636.583	0.0168099
636.661	0.0168406
636.739	0.0169778
636.817	0.0169784
636.896	0.0168428
636.974	0.0168748
637.052	0.0169216
637.130	0.0169529
637.208	0.0170226
637.286	0.0169716
637.364	0.0169606
637.442	0.0168623
637.521	0.0169601
637.599	0.0168789
637.677	0.0169111
637.755	0.0169363
637.833	0.0167843
637.911	0.0167583
637.989	0.0167756
638.067	0.0167157
638.146	0.0168161
638.224	0.0167445
638.302	0.0167263
638.380	0.0167014
638.458	0.0168130
638.536	0.0168506
638.614	0.0166415
638.692	0.0168954
638.771	0.0168430
638.849	0.0169164
638.927	0.0167775
639.005	0.0169104
639.083	0.0169351
639.161	0.0168173
639.239	0.0167693
639.317	0.0167680
639.396	0.0170655
639.474	0.0168269
639.552	0.0168362
639.630	0.0167748
639.708	0.0168340
639.786	0.0168058
639.864	0.0167435
639.942	0.0167419
640.021	0.0168140
640.099	0.0167671
640.177	0.0165231
640.255	0.0165672
640.333	0.0166875
640.411	0.0167818
640.489	0.0165547
640.567	0.0167554
640.646	0.0166290
640.724	0.0166230
640.802	0.0166012
640.880	0.0166525
640.958	0.0166125
641.036	0.0166223
641.114	0.0167236
641.192	0.0165744
641.271	0.0166740
641.349	0.0168039
641.427	0.0167268
641.505	0.0167648
641.583	0.0166101
641.661	0.0168255
641.739	0.0168562
641.817	0.0168069
641.896	0.0167759
641.974	0.0167294
642.052	0.0165950
642.130	0.0169083
642.208	0.0168205
642.286	0.0166943
642.364	0.0167478
642.442	0.0167923
642.521	0.0168484
642.599	0.0168645
642.677	0.0166131
642.755	0.0166322
642.833	0.0165596
642.911	0.0166113
642.989	0.0165518
643.067	0.0164636
643.146	0.0164368
643.224	0.0163739
643.302	0.0165227
643.380	0.0164405
643.458	0.0164246
643.536	0.0164300
643.614	0.0162969
643.692	0.0162715
643.771	0.0162949
643.849	0.0163162
643.927	0.0164245
644.005	0.0163194
644.083	0.0163145
644.161	0.0165148
644.239	0.0163455
644.317	0.0163900
644.396	0.0163045
644.474	0.0164024
644.552	0.0163839
644.630	0.0164440
644.708	0.0164552
644.786	0.0163698
644.864	0.0164341
644.942	0.0163884
645.021	0.0164355
645.099	0.0165347
645.177	0.0164516
645.255	0.0164457
645.333	0.0163387
645.411	0.0164858
645.489	0.0165213
645.567	0.0164720
645.646	0.0165184
645.724	0.0165548
645.802	0.0166284
645.880	0.0163871
645.958	0.0165784
646.036	0.0165804
646.114	0.0165202
646.192	0.0164717
646.271	0.0166030
646.349	0.0164487
646.427	0.0164963
646.505	0.0162962
646.583	0.0163760
646.661	0.0164809
646.739	0.0165339
646.817	0.0161938
646.896	0.0162740
646.974	0.0163538
647.052	0.0163148
647.130	0.0164381
647.208	0.0164852
647.286	0.0163700
647.364	0.0162916
647.442	0.0162157
647.521	0.0163866
647.599	0.0162592
647.677	0.0162742
647.755	0.0163007
647.833	0.0162883
647.911	0.0162006
647.989	0.0165027
648.067	0.0165060
648.146	0.0162667
648.224	0.0164069
648.302	0.0162849
648.380	0.0163597
648.458	0.0163705
648.536	0.0164635
648.614	0.0162442
648.692	0.0162643
648.771	0.0162955
648.849	0.0161941
648.927	0.0161976
649.005	0.0162101
649.083	0.0162530
649.161	0.0162649
649.239	0.0162885
649.317	0.0163478
649.396	0.0164214
649.474	0.0164761
649.552	0.0165224
649.630	0.0164284
649.708	0.0164354
649.786	0.0164911
649.864	0.0164205
649.942	0.0164645
650.021	0.0165867
650.099	0.0164140
650.177	0.0165402
650.255	0.0165321
650.333	0.0165524
650.411	0.0163417
650.489	0.0164278
650.567	0.0164146
650.646	0.0163209
650.724	0.0163803
650.802	0.0163938
650.880	0.0162930
650.958	0.0163107
651.036	0.0164503
651.114	0.0162518
651.192	0.0164333
651.271	0.0164763
651.349	0.0163509
651.427	0.0164351
651.505	0.0166246
651.583	0.0165403
651.661	0.0166314
651.739	0.0166002
651.817	0.0165311
651.896	0.0166288
651.974	0.0167170
652.052	0.0167390
652.130	0.0166945
652.208	0.0167252
652.286	0.0167645
652.364	0.0167889
652.442	0.0167706
652.521	0.0168567
652.599	0.0168448
652.677	0.0168312
652.755	0.0168350
652.833	0.0167761
652.911	0.0167961
652.989	0.0167597
653.067	0.0166528
653.146	0.0166888
653.224	0.0167609
653.302	0.0166689
653.380	0.0167596
653.458	0.0166463
653.536	0.0167019
653.614	0.0165725
653.692	0.0165951
653.771	0.0166134
653.849	0.0165529
653.927	0.0166484
654.005	0.0165281
654.083	0.0163725
654.161	0.0164291
654.239	0.0164499
654.317	0.0162896
654.396	0.0164252
654.474	0.0162732
654.552	0.0164228
654.630	0.0163638
654.708	0.0164566
654.786	0.0164457
654.864	0.0165192
654.942	0.0164204
655.021	0.0164682
655.099	0.0163792
655.177	0.0166647
655.255	0.0164764
655.333	0.0164630
655.411	0.0166111
655.489	0.0166759
655.567	0.0165928
655.646	0.0164410
655.724	0.0165768
655.802	0.0166655
655.880	0.0166182
655.958	0.0166340
656.036	0.0165369
656.114	0.0165623
656.192	0.0164297
656.271	0.0164388
656.349	0.0164408
656.427	0.0164880
656.505	0.0165133
656.583	0.0165534
656.661	0.0164619
656.739	0.0164635
656.817	0.0166103
656.896	0.0165093
656.974	0.0164760
657.052	0.0166698
657.130	0.0166782
657.208	0.0165521
657.286	0.0165575
657.364	0.0166221
657.442	0.0165145
657.521	0.0164210
657.599	0.0164728
657.677	0.0167004
657.755	0.0165940
657.833	0.0164882
657.911	0.0165246
657.989	0.0167692
658.067	0.0165009
658.146	0.0165336
658.224	0.0166375
658.302	0.0164468
658.380	0.0163421
658.458	0.0164368
658.536	0.0165001
658.614	0.0166171
658.692	0.0167069
658.771	0.0165956
658.849	0.0164190
658.927	0.0166344
659.005	0.0166467
659.083	0.0167270
659.161	0.0165575
659.239	0.0166947
659.317	0.0166993
659.396	0.0166123
659.474	0.0166299
659.552	0.0167398
659.630	0.0166677
659.708	0.0166053
659.786	0.0167958
659.864	0.0168059
659.942	0.0167365
660.021	0.0165564
660.099	0.0166127
660.177	0.0167837
660.255	0.0166237
660.333	0.0165678
660.411	0.0166207
660.489	0.0166022
660.567	0.0166952
660.646	0.0165260
660.724	0.0164988
660.802	0.0165054
660.880	0.0165228
660.958	0.0165142
661.036	0.0165572
661.114	0.0165397
661.192	0.0165381
661.271	0.0166215
661.349	0.0167234
661.427	0.0166912
661.505	0.0167876
661.583	0.0166807
661.661	0.0168241
661.739	0.0168178
661.817	0.0168200
661.896	0.0169764
661.974	0.0167680
662.052	0.0166582
662.130	0.0168979
662.208	0.0166668
662.286	0.0168230
662.364	0.0166679
662.442	0.0166814
662.521	0.0166847
662.599	0.0167774
662.677	0.0166956
662.755	0.0166251
662.833	0.0166396
662.911	0.0168686
662.989	0.0167104
663.067	0.0166808
663.146	0.0167139
663.224	0.0167804
663.302	0.0167577
663.380	0.0167417
663.458	0.0167272
663.536	0.0166862
663.614	0.0168079
663.692	0.0166867
663.771	0.0166756
663.849	0.0167508
663.927	0.0168144
664.005	0.0166502
664.083	0.0165546
664.161	0.0165242
664.239	0.0164246
664.317	0.0165972
664.396	0.0166908
664.474	0.0165386
664.552	0.0165533
664.630	0.0166988
664.708	0.0165003
664.786	0.0165295
664.864	0.0164460
664.942	0.0166153
665.021	0.0165452
665.099	0.0164878
665.177	0.0164027
665.255	0.0164062
665.333	0.0163525
665.411	0.0164410
665.489	0.0164655
665.567	0.0164581
665.646	0.0163644
665.724	0.0164028
665.802	0.0163266
665.880	0.0164891
665.958	0.0163914
666.036	0.0163274
666.114	0.0164304
666.192	0.0164359
666.271	0.0163848
666.349	0.0164489
666.427	0.0165459
666.505	0.0164684
666.583	0.0165661
666.661	0.0164154
666.739	0.0165849
666.817	0.0164902
666.896	0.0165247
666.974	0.0165910
667.052	0.0166247
667.130	0.0166254
667.208	0.0166275
667.286	0.0166264
667.364	0.0164577
667.442	0.0164758
667.521	0.0163905
667.599	0.0164455
667.677	0.0164484
667.755	0.0164745
667.833	0.0165123
667.911	0.0163419
667.989	0.0163293
668.067	0.0161456
668.146	0.0164040
668.224	0.0163869
668.302	0.0163314
668.380	0.0163570
668.458	0.0163972
668.536	0.0165099
668.614	0.0164082
668.692	0.0163420
668.771	0.0164783
668.849	0.0165265
668.927	0.0163180
669.005	0.0164612
669.083	0.0166238
669.161	0.0164775
669.239	0.0164874
669.317	0.0164728
669.396	0.0165536
669.474	0.0164571
669.552	0.0164381
669.630	0.0165540
669.708	0.0166164
669.786	0.0164870
669.864	0.0164555
669.942	0.0164639
670.021	0.0163213
670.099	0.0163584
670.177	0.0164368
670.255	0.0164784
670.333	0.0162999
670.411	0.0162988
670.489	0.0164841
670.567	0.0164000
670.646	0.0162988
670.724	0.0162256
670.802	0.0163443
670.880	0.0162585
670.958	0.0163454
671.036	0.0162924
671.114	0.0162045
671.192	0.0163454
671.271	0.0163469
671.349	0.0163742
671.427	0.0162254
671.505	0.0162521
671.583	0.0162601
671.661	0.0163380
671.739	0.0164230
671.817	0.0162655
671.896	0.0163747
671.974	0.0163943
672.052	0.0164396
672.130	0.0163077
672.208	0.0163097
672.286	0.0164430
672.364	0.0163725
672.442	0.0163218
672.521	0.0163255
672.599	0.0163860
672.677	0.0163637
672.755	0.0162138
672.833	0.0164287
672.911	0.0164150
672.989	0.0164008
673.067	0.0164069
673.146	0.0164034
673.224	0.0162597
673.302	0.0162485
673.380	0.0163678
673.458	0.0163999
673.536	0.0165658
673.614	0.0163556
673.692	0.0164459
673.771	0.0164137
673.849	0.0165617
673.927	0.0166022
674.005	0.0164682
674.083	0.0166452
674.161	0.0165710
674.239	0.0166720
674.317	0.0165353
674.396	0.0165064
674.474	0.0166689
674.552	0.0166329
674.630	0.0167375
674.708	0.0165736
674.786	0.0166409
674.864	0.0167445
674.942	0.0166800
675.021	0.0167648
675.099	0.0168542
675.177	0.0168664
675.255	0.0166702
675.333	0.0167791
675.411	0.0168809
675.489	0.0169402
675.567	0.0167467
675.646	0.0167404
675.724	0.0168108
675.802	0.0167374
675.880	0.0168974
675.958	0.0168250
676.036	0.0167856
676.114	0.0168218
676.192	0.0166635
676.271	0.0165694
676.349	0.0167738
676.427	0.0167490
676.505	0.0167542
676.583	0.0166480
676.661	0.0166467
676.739	0.0166586
676.817	0.0166993
676.896	0.0167662
676.974	0.0166110
677.052	0.0165137
677.130	0.0166758
677.208	0.0166067
677.286	0.0164777
677.364	0.0166671
677.442	0.0166449
677.521	0.0164793
677.599	0.0166666
677.677	0.0166599
677.755	0.0164639
677.833	0.0164581
677.911	0.0163988
677.989	0.0165363
678.067	0.0164424
678.146	0.0163863
678.224	0.0163174
678.302	0.0164214
678.380	0.0164194
678.458	0.0163962
678.536	0.0163510
678.614	0.0163285
678.692	0.0163239
678.771	0.0162984
678.849	0.0163770
678.927	0.0163452
679.005	0.0163779
679.083	0.0163438
679.161	0.0163262
679.239	0.0162731
679.317	0.0163503
679.396	0.0165398
679.474	0.0163058
679.552	0.0163290
679.630	0.0166322
679.708	0.0164343
679.786	0.0164125
679.864	0.0165944
679.942	0.0166012
680.021	0.0164383
680.099	0.0163803
680.177	0.0166037
680.255	0.0164421
680.333	0.0163123
680.411	0.0164170
680.489	0.0165642
680.567	0.0165239
680.646	0.0162904
680.724	0.0163713
680.802	0.0164920
680.880	0.0163295
680.958	0.0164204
681.036	0.0164965
681.114	0.0164656
681.192	0.0164082
681.271	0.0164463
681.349	0.0164998
681.427	0.0165327
681.505	0.0164902
681.583	0.0165319
681.661	0.0165840
681.739	0.0166931
681.817	0.0166144
681.896	0.0166783
681.974	0.0166412
682.052	0.0165914
682.130	0.0166662
682.208	0.0167384
682.286	0.0167152
682.364	0.0166949
682.442	0.0166612
682.521	0.0167761
682.599	0.0166502
682.677	0.0166803
682.755	0.0165711
682.833	0.0165967
682.911	0.0166305
682.989	0.0165955
683.067	0.0164742
683.146	0.0165188
683.224	0.0165428
683.302	0.0164972
683.380	0.0165315
683.458	0.0165076
683.536	0.0165620
683.614	0.0165234
683.692	0.0166326
683.771	0.0166619
683.849	0.0166232
683.927	0.0165662
684.005	0.0164828
684.083	0.0165290
684.161	0.0164983
684.239	0.0166502
684.317	0.0167135
684.396	0.0165740
684.474	0.0165813
684.552	0.0165462
684.630	0.0164993
684.708	0.0165923
684.786	0.0165958
684.864	0.0164996
684.942	0.0166134
685.021	0.0165237
685.099	0.0167351
685.177	0.0166443
685.255	0.0165685
685.333	0.0165469
685.411	0.0164568
685.489	0.0165173
685.567	0.0164181
685.646	0.0166534
685.724	0.0166061
685.802	0.0165280
685.880	0.0163461
685.958	0.0165682
686.036	0.0165883
686.114	0.0165475
686.192	0.0166978
686.271	0.0164870
686.349	0.0164748
686.427	0.0165306
686.505	0.0165930
686.583	0.0165831
686.661	0.0166338
686.739	0.0165681
686.817	0.0165052
686.896	0.0164500
686.974	0.0163588
687.052	0.0164342
687.130	0.0163180
687.208	0.0163651
687.286	0.0162979
687.364	0.0161855
687.442	0.0162246
687.521	0.0162893
687.599	0.0161689
687.677	0.0161626
687.755	0.0160295
687.833	0.0161647
687.911	0.0162765
687.989	0.0162717
688.067	0.0161240
688.146	0.0162511
688.224	0.0161334
688.302	0.0161849
688.380	0.0162697
688.458	0.0161665
688.536	0.0163087
688.614	0.0162069
688.692	0.0163624
688.771	0.0162938
688.849	0.0161968
688.927	0.0163225
689.005	0.0162877
689.083	0.0160978
689.161	0.0163615
689.239	0.0163538
689.317	0.0163630
689.396	0.0163559
689.474	0.0163250
689.552	0.0162406
689.630	0.0162919
689.708	0.0162653
689.786	0.0164040
689.864	0.0163615
689.942	0.0163533
690.021	0.0162350
690.099	0.0163102
690.177	0.0164663
690.255	0.0163589
690.333	0.0163501
690.411	0.0165141
690.489	0.0163948
690.567	0.0164514
690.646	0.0163480
690.724	0.0165948
690.802	0.0166222
690.880	0.0166227
690.958	0.0166081
691.036	0.0165598
691.114	0.0166329
691.192	0.0166801
691.271	0.0166220
691.349	0.0165900
691.427	0.0166620
691.505	0.0167336
691.583	0.0165234
691.661	0.0166705
691.739	0.0168164
691.817	0.0167684
691.896	0.0166510
691.974	0.0166467
692.052	0.0166631
692.130	0.0167503
692.208	0.0167245
692.286	0.0166586
692.364	0.0166132
692.442	0.0167271
692.521	0.0166850
692.599	0.0165454
692.677	0.0165450
692.755	0.0165279
692.833	0.0166223
692.911	0.0166460
692.989	0.0164942
693.067	0.0165307
693.146	0.0165525
693.224	0.0165051
693.302	0.0165018
693.380	0.0165678
693.458	0.0165276
693.536	0.0164748
693.614	0.0164107
693.692	0.0164957
693.771	0.0165056
693.849	0.0163645
693.927	0.0163733
694.005	0.0162649
694.083	0.0164229
694.161	0.0163116
694.239	0.0162592
694.317	0.0164173
694.396	0.0163872
694.474	0.0162592
694.552	0.0162962
694.630	0.0163712
694.708	0.0163349
694.786	0.0163797
694.864	0.0163087
694.942	0.0164285
695.021	0.0165509
695.099	0.0164103
695.177	0.0163547
695.255	0.0163901
695.333	0.0164673
695.411	0.0163931
695.489	0.0163335
695.567	0.0162817
695.646	0.0163761
695.724	0.0163197
695.802	0.0163222
695.880	0.0163683
695.958	0.0161802
696.036	0.0160462
696.114	0.0161792
696.192	0.0162810
696.271	0.0163499
696.349	0.0162184
696.427	0.0163325
696.505	0.0162105
696.583	0.0162807
696.661	0.0162052
696.739	0.0162548
696.817	0.0161936
696.896	0.0163091
696.974	0.0163119
697.052	0.0161964
697.130	0.0163617
697.208	0.0162482
697.286	0.0162103
697.364	0.0163879
697.442	0.0163423
697.521	0.0163566
697.599	0.0163415
697.677	0.0163599
697.755	0.0163042
697.833	0.0163450
697.911	0.0163802
697.989	0.0163283
698.067	0.0162537
698.146	0.0162404
698.224	0.0164336
698.302	0.0163339
698.380	0.0162780
698.458	0.0164056
698.536	0.0162440
698.614	0.0162914
698.692	0.0165227
698.771	0.0163445
698.849	0.0162640
698.927	0.0163500
699.005	0.0163919
699.083	0.0162695
699.161	0.0163171
699.239	0.0164354
699.317	0.0161739
699.396	0.0162852
699.474	0.0163489
699.552	0.0162856
699.630	0.0164053
699.708	0.0162757
699.786	0.0163536
699.864	0.0163089
699.942	0.0162895
700.021	0.0162511
700.099	0.0163214
700.177	0.0162292
700.255	0.0162218
700.333	0.0162641
700.411	0.0163278
700.489	0.0161777
700.567	0.0162321
700.646	0.0163082
700.724	0.0163225
700.802	0.0163106
700.880	0.0164115
700.958	0.0164193
701.036	0.0165205
701.114	0.0164346
701.192	0.0164053
701.271	0.0165346
701.349	0.0165684
701.427	0.0164607
701.505	0.0164906
701.583	0.0165321
701.661	0.0166079
701.739	0.0165475
701.817	0.0163641
701.896	0.0163535
701.974	0.0164714
702.052	0.0164699
702.130	0.0164474
702.208	0.0164213
702.286	0.0165217
702.364	0.0164827
702.442	0.0165279
702.521	0.0164881
702.599	0.0165584
702.677	0.0165405
702.755	0.0165337
702.833	0.0165325
702.911	0.0165114
702.989	0.0166647
703.067	0.0165706
703.146	0.0165416
703.224	0.0165719
703.302	0.0165579
703.380	0.0166267
703.458	0.0166659
703.536	0.0166793
703.614	0.0166709
703.692	0.0166591
703.771	0.0166945
703.849	0.0167057
703.927	0.0166412
704.005	0.0166882
704.083	0.0167362
704.161	0.0168427
704.239	0.0168597
704.317	0.0167085
704.396	0.0166734
704.474	0.0167229
704.552	0.0167194
704.630	0.0167154
704.708	0.0168443
704.786	0.0167290
704.864	0.0167131
704.942	0.0167532
705.021	0.0167526
705.099	0.0167131
705.177	0.0167296
705.255	0.0167520
705.333	0.0165398
705.411	0.0166374
705.489	0.0166775
705.567	0.0166106
705.646	0.0166032
705.724	0.0167245
705.802	0.0166761
705.880	0.0166649
705.958	0.0165033
706.036	0.0166376
706.114	0.0166792
706.192	0.0166170
706.271	0.0166116
706.349	0.0165546
706.427	0.0165645
706.505	0.0167158
706.583	0.0165472
706.661	0.0166051
706.739	0.0165038
706.817	0.0165394
706.896	0.0164598
706.974	0.0166058
707.052	0.0165977
707.130	0.0165995
707.208	0.0166386
707.286	0.0166762
707.364	0.0166582
707.442	0.0166532
707.521	0.0166265
707.599	0.0165767
707.677	0.0167190
707.755	0.0166724
707.833	0.0165638
707.911	0.0165421
707.989	0.0164104
708.067	0.0165689
708.146	0.0165459
708.224	0.0163773
708.302	0.0163651
708.380	0.0164452
708.458	0.0164287
708.536	0.0163169
708.614	0.0162722
708.692	0.0162860
708.771	0.0163410
708.849	0.0162498
708.927	0.0161729
709.005	0.0163065
709.083	0.0162276
709.161	0.0161850
709.239	0.0162581
709.317	0.0162604
709.396	0.0161575
709.474	0.0161870
709.552	0.0162278
709.630	0.0163438
709.708	0.0161875
709.786	0.0161263
709.864	0.0162093
709.942	0.0162447
710.021	0.0162501
710.099	0.0162528
710.177	0.0163843
710.255	0.0161829
710.333	0.0162459
710.411	0.0161455
710.489	0.0161905
710.567	0.0162742
710.646	0.0162635
710.724	0.0161358
710.802	0.0163952
710.880	0.0162356
710.958	0.0163237
711.036	0.0165211
711.114	0.0163771
711.192	0.0164957
711.271	0.0164064
711.349	0.0164410
711.427	0.0165182
711.505	0.0166048
711.583	0.0165130
711.661	0.0167076
711.739	0.0166126
711.817	0.0165102
711.896	0.0165025
711.974	0.0165491
712.052	0.0166701
712.130	0.0165218
712.208	0.0163815
712.286	0.0165327
712.364	0.0165885
712.442	0.0163532
712.521	0.0162656
712.599	0.0163543
712.677	0.0161357
712.755	0.0162684
712.833	0.0162690
712.911	0.0162394
712.989	0.0162871
713.067	0.0163741
713.146	0.0164856
713.224	0.0164649
713.302	0.0165407
713.380	0.0167033
713.458	0.0166701
713.536	0.0167008
713.614	0.0168842
713.692	0.0168301
713.771	0.0168625
713.849	0.0169563
713.927	0.0171046
714.005	0.0169213
714.083	0.0167038
714.161	0.0168179
714.239	0.0167506
714.317	0.0167767
714.396	0.0168475
714.474	0.0166550
714.552	0.0166136
714.630	0.0166075
714.708	0.0165858
714.786	0.0165518
714.864	0.0166332
714.942	0.0165310
715.021	0.0165279
715.099	0.0166351
715.177	0.0165410
715.255	0.0165154
715.333	0.0164646
715.411	0.0167139
715.489	0.0167271
715.567	0.0166736
715.646	0.0165997
715.724	0.0167130
715.802	0.0168686
715.880	0.0168688
715.958	0.0170735
716.036	0.0171320
716.114	0.0169445
716.192	0.0170802
716.271	0.0172269
716.349	0.0171886
716.427	0.0171048
716.505	0.0172005
716.583	0.0173449
716.661	0.0174060
716.739	0.0171944
716.817	0.0174560
716.896	0.0174627
716.974	0.0171503
717.052	0.0171320
717.130	0.0172888
717.208	0.0171358
717.286	0.0170867
717.364	0.0171764
717.442	0.0171468
717.521	0.0170362
717.599	0.0169821
717.677	0.0168782
717.755	0.0168294
717.833	0.0169202
717.911	0.0168691
717.989	0.0169495
718.067	0.0167204
718.146	0.0167982
718.224	0.0167014
718.302	0.0168478
718.380	0.0169270
718.458	0.0168569
718.536	0.0169118
718.614	0.0169759
718.692	0.0168450
718.771	0.0168332
718.849	0.0169759
718.927	0.0170454
719.005	0.0167965
719.083	0.0167928
719.161	0.0166978
719.239	0.0166933
719.317	0.0167149
719.396	0.0165690
719.474	0.0164302
719.552	0.0163606
719.630	0.0163000
719.708	0.0162582
719.786	0.0162125
719.864	0.0161359
719.942	0.0161515
720.021	0.0159422
720.099	0.0159930
720.177	0.0160342
720.255	0.0160945
720.333	0.0159505
720.411	0.0158461
720.489	0.0160096
720.567	0.0158888
720.646	0.0161526
720.724	0.0161304
720.802	0.0162621
720.880	0.0162560
720.958	0.0163258
721.036	0.0164816
721.114	0.0166048
721.192	0.0165120
721.271	0.0165923
721.349	0.0165462
721.427	0.0167457
721.505	0.0166368
721.583	0.0168303
721.661	0.0166641
721.739	0.0165515
721.817	0.0168073
721.896	0.0166267
721.974	0.0166415
722.052	0.0167641
722.130	0.0166248
722.208	0.0165485
722.286	0.0166209
722.364	0.0165955
722.442	0.0165700
722.521	0.0165340
722.599	0.0166391
722.677	0.0166813
722.755	0.0165783
722.833	0.0166003
722.911	0.0163815
722.989	0.0165658
723.067	0.0164626
723.146	0.0164130
723.224	0.0163502
723.302	0.0163585
723.380	0.0164547
723.458	0.0161836
723.536	0.0161488
723.614	0.0161738
723.692	0.0162195
723.771	0.0162672
723.849	0.0162619
723.927	0.0163374
724.005	0.0164330
724.083	0.0164550
724.161	0.0164774
724.239	0.0165430
724.317	0.0165958
724.396	0.0166109
724.474	0.0166655
724.552	0.0166856
724.630	0.0168358
724.708	0.0168510
724.786	0.0169205
724.864	0.0169410
724.942	0.0166817
725.021	0.0167525
725.099	0.0167615
725.177	0.0166623
725.255	0.0166222
725.333	0.0166899
725.411	0.0165775
725.489	0.0168444
725.567	0.0166964
725.646	0.0166834
725.724	0.0167097
725.802	0.0167616
725.880	0.0166109
725.958	0.0167421
726.036	0.0166459
726.114	0.0167072
726.192	0.0167864
726.271	0.0168465
726.349	0.0167131
726.427	0.0167832
726.505	0.0167878
726.583	0.0167398
726.661	0.0166675
726.739	0.0167371
726.817	0.0167686
726.896	0.0167920
726.974	0.0168703
727.052	0.0167182
727.130	0.0167433
727.208	0.0167549
727.286	0.0167969
727.364	0.0167764
727.442	0.0166667
727.521	0.0167813
727.599	0.0167879
727.677	0.0166639
727.755	0.0166249
727.833	0.0166893
727.911	0.0167156
727.989	0.0167658
728.067	0.0167874
728.146	0.0167452
728.224	0.0166388
728.302	0.0167842
728.380	0.0167972
728.458	0.0168130
728.536	0.0169856
728.614	0.0167620
728.692	0.0168701
728.771	0.0169585
728.849	0.0169804
728.927	0.0169276
729.005	0.0167715
729.083	0.0167686
729.161	0.0168898
729.239	0.0168997
729.317	0.0167242
729.396	0.0169220
729.474	0.0166835
729.552	0.0167430
729.630	0.0165480
729.708	0.0165813
729.786	0.0165440
729.864	0.0165721
729.942	0.0165186
730.021	0.0165427
730.099	0.0163787
730.177	0.0164111
730.255	0.0165495
730.333	0.0162725
730.411	0.0163798
730.489	0.0163005
730.567	0.0161629
730.646	0.0161388
730.724	0.0162392
730.802	0.0161691
730.880	0.0160959
730.958	0.0161632
731.036	0.0161108
731.114	0.0161497
731.192	0.0161742
731.271	0.0160538
731.349	0.0161035
731.427	0.0161111
731.505	0.0161813
731.583	0.0162416
731.661	0.0161488
731.739	0.0162370
731.817	0.0163261
731.896	0.0161855
731.974	0.0161472
732.052	0.0163578
732.130	0.0163235
732.208	0.0163830
732.286	0.0164449
732.364	0.0162848
732.442	0.0162648
732.521	0.0162791
732.599	0.0165733
732.677	0.0164474
732.755	0.0163335
732.833	0.0163912
732.911	0.0163906
732.989	0.0163963
733.067	0.0163466
733.146	0.0161526
733.224	0.0164130
733.302	0.0163594
733.380	0.0162447
733.458	0.0161000
733.536	0.0163815
733.614	0.0162163
733.692	0.0161969
733.771	0.0163376
733.849	0.0161163
733.927	0.0162277
734.005	0.0162200
734.083	0.0163423
734.161	0.0163851
734.239	0.0163031
734.317	0.0164105
734.396	0.0163546
734.474	0.0164016
734.552	0.0162999
734.630	0.0163375
734.708	0.0164632
734.786	0.0165315
734.864	0.0165546
734.942	0.0166679
735.021	0.0167595
735.099	0.0166641
735.177	0.0167065
735.255	0.0167922
735.333	0.0167586
735.411	0.0166821
735.489	0.0167050
735.567	0.0168852
735.646	0.0169847
735.724	0.0167937
735.802	0.0168775
735.880	0.0168060
735.958	0.0167585
736.036	0.0167856
736.114	0.0168119
736.192	0.0168183
736.271	0.0168013
736.349	0.0166123
736.427	0.0166154
736.505	0.0166224
736.583	0.0166225
736.661	0.0166666
736.739	0.0165774
736.817	0.0165659
736.896	0.0167010
736.974	0.0166915
737.052	0.0166524
737.130	0.0165736
737.208	0.0166679
737.286	0.0167066
737.364	0.0167131
737.442	0.0166114
737.521	0.0168477
737.599	0.0168642
737.677	0.0167846
737.755	0.0168237
737.833	0.0168999
737.911	0.0169628
737.989	0.0167827
738.067	0.0168185
738.146	0.0169425
738.224	0.0168822
738.302	0.0168963
738.380	0.0168265
738.458	0.0169854
738.536	0.0171445
738.614	0.0168543
738.692	0.0169363
738.771	0.0169718
738.849	0.0169431
738.927	0.0170547
739.005	0.0169077
739.083	0.0169394
739.161	0.0169401
739.239	0.0169943
739.317	0.0169156
739.396	0.0167925
739.474	0.0167459
739.552	0.0168684
739.630	0.0169994
739.708	0.0168317
739.786	0.0167672
739.864	0.0168250
739.942	0.0168198
740.021	0.0167331
740.099	0.0167896
740.177	0.0167139
740.255	0.0167022
740.333	0.0168348
740.411	0.0168613
740.489	0.0167687
740.567	0.0166833
740.646	0.0167014
740.724	0.0166824
740.802	0.0166142
740.880	0.0166529
740.958	0.0167473
741.036	0.0166568
741.114	0.0165830
741.192	0.0165661
741.271	0.0167138
741.349	0.0165820
741.427	0.0166177
741.505	0.0167493
741.583	0.0165575
741.661	0.0165733
741.739	0.0166656
741.817	0.0164841
741.896	0.0165917
741.974	0.0165999
742.052	0.0164995
742.130	0.0163759
742.208	0.0164918
742.286	0.0164019
742.364	0.0163799
742.442	0.0163839
742.521	0.0163673
742.599	0.0162646
742.677	0.0162918
742.755	0.0163995
742.833	0.0163776
742.911	0.0162678
742.989	0.0162720
743.067	0.0164854
743.146	0.0163351
743.224	0.0162772
743.302	0.0162601
743.380	0.0163333
743.458	0.0162974
743.536	0.0162163
743.614	0.0162003
743.692	0.0162794
743.771	0.0162325
743.849	0.0161321
743.927	0.0162646
744.005	0.0162737
744.083	0.0163507
744.161	0.0164063
744.239	0.0165212
744.317	0.0164603
744.396	0.0164774
744.474	0.0164143
744.552	0.0163534
744.630	0.0165144
744.708	0.0165322
744.786	0.0165563
744.864	0.0164629
744.942	0.0164893
745.021	0.0165073
745.099	0.0165984
745.177	0.0165323
745.255	0.0164982
745.333	0.0166009
745.411	0.0166161
745.489	0.0166817
745.567	0.0165580
745.646	0.0166284
745.724	0.0166215
745.802	0.0166534
745.880	0.0165895
745.958	0.0167341
746.036	0.0169337
746.114	0.0167802
746.192	0.0166324
746.271	0.0168983
746.349	0.0168999
746.427	0.0168320
746.505	0.0167855
746.583	0.0168433
746.661	0.0168665
746.739	0.0169608
746.817	0.0170880
746.896	0.0168958
746.974	0.0168466
747.052	0.0169754
747.130	0.0169875
747.208	0.0168243
747.286	0.0168162
747.364	0.0169823
747.442	0.0169428
747.521	0.0169161
747.599	0.0168126
747.677	0.0168474
747.755	0.0168472
747.833	0.0167598
747.911	0.0166553
747.989	0.0168145
748.067	0.0167888
748.146	0.0166642
748.224	0.0166991
748.302	0.0166135
748.380	0.0166661
748.458	0.0166819
748.536	0.0167042
748.614	0.0166151
748.692	0.0166917
748.771	0.0166890
748.849	0.0166322
748.927	0.0165160
749.005	0.0165535
749.083	0.0166719
749.161	0.0165401
749.239	0.0166483
749.317	0.0165288
749.396	0.0165888
749.474	0.0166593
749.552	0.0166270
749.630	0.0165971
749.708	0.0164750
749.786	0.0165239
749.864	0.0165686
749.942	0.0165221
750.021	0.0163123
750.099	0.0165429
750.177	0.0165434
750.255	0.0164488
750.333	0.0163790
750.411	0.0163800
750.489	0.0163561
750.567	0.0162991
750.646	0.0162672
750.724	0.0163896
750.802	0.0162858
750.880	0.0162124
750.958	0.0161614
751.036	0.0163190
751.114	0.0162585
751.192	0.0161507
751.271	0.0162907
751.349	0.0161163
751.427	0.0161361
751.505	0.0162291
751.583	0.0163323
751.661	0.0161585
751.739	0.0161108
751.817	0.0162717
751.896	0.0161206
751.974	0.0163586
752.052	0.0161765
752.130	0.0161999
752.208	0.0162747
752.286	0.0162784
752.364	0.0162080
752.442	0.0161837
752.521	0.0163036
752.599	0.0162634
752.677	0.0162764
752.755	0.0161819
752.833	0.0164400
752.911	0.0163293
752.989	0.0162996
753.067	0.0163396
753.146	0.0163198
753.224	0.0163432
753.302	0.0163411
753.380	0.0163428
753.458	0.0164612
753.536	0.0164530
753.614	0.0165684
753.692	0.0164106
753.771	0.0163251
753.849	0.0165327
753.927	0.0166458
754.005	0.0166518
754.083	0.0164703
754.161	0.0166161
754.239	0.0166556
754.317	0.0166440
754.396	0.0166030
754.474	0.0166970
754.552	0.0168109
754.630	0.0166441
754.708	0.0168570
754.786	0.0167541
754.864	0.0167959
754.942	0.0167010
755.021	0.0167014
755.099	0.0167362
755.177	0.0166449
755.255	0.0166781
755.333	0.0166852
755.411	0.0166785
755.489	0.0166035
755.567	0.0166864
755.646	0.0165351
755.724	0.0165028
755.802	0.0166070
755.880	0.0166445
755.958	0.0166911
756.036	0.0164471
756.114	0.0164236
756.192	0.0164220
756.271	0.0165231
756.349	0.0164231
756.427	0.0163866
756.505	0.0163982
756.583	0.0163436
756.661	0.0162842
756.739	0.0163124
756.817	0.0163316
756.896	0.0164965
756.974	0.0162875
757.052	0.0162357
757.130	0.0162973
757.208	0.0162429
757.286	0.0162516
757.364	0.0163377
757.442	0.0164782
757.521	0.0163723
757.599	0.0163239
757.677	0.0163263
757.755	0.0164597
757.833	0.0164564
757.911	0.0162326
757.989	0.0164267
758.067	0.0163827
758.146	0.0165662
758.224	0.0164408
758.302	0.0165302
758.380	0.0164836
758.458	0.0164671
758.536	0.0164080
758.614	0.0164649
758.692	0.0164174
758.771	0.0164247
758.849	0.0164445
758.927	0.0163873
759.005	0.0164146
759.083	0.0164277
759.161	0.0163641
759.239	0.0164940
759.317	0.0165479
759.396	0.0164303
759.474	0.0164500
759.552	0.0164510
759.630	0.0165002
759.708	0.0165856
759.786	0.0165236
759.864	0.0165247
759.942	0.0165852
760.021	0.0166663
760.099	0.0165845
760.177	0.0167723
760.255	0.0167371
760.333	0.0165586
760.411	0.0166456
760.489	0.0168153
760.567	0.0167257
760.646	0.0167402
760.724	0.0167300
760.802	0.0168937
760.880	0.0168095
760.958	0.0168881
761.036	0.0168917
761.114	0.0168636
761.192	0.0168510
761.271	0.0168907
761.349	0.0169633
761.427	0.0168479
761.505	0.0168362
761.583	0.0168689
761.661	0.0167948
761.739	0.0167119
761.817	0.0166200
761.896	0.0167724
761.974	0.0167363
762.052	0.0167885
762.130	0.0166689
762.208	0.0165613
762.286	0.0166763
762.364	0.0165422
762.442	0.0165175
762.521	0.0164805
762.599	0.0165228
762.677	0.0164706
762.755	0.0164661
762.833	0.0162939
762.911	0.0164304
762.989	0.0165354
763.067	0.0163145
763.146	0.0163685
763.224	0.0164369
763.302	0.0164304
763.380	0.0163186
763.458	0.0162640
763.536	0.0163737
763.614	0.0163803
763.692	0.0162643
763.771	0.0163007
763.849	0.0162406
763.927	0.0161304
764.005	0.0162059
764.083	0.0162720
764.161	0.0162758
764.239	0.0163110
764.317	0.0163113
764.396	0.0164249
764.474	0.0163164
764.552	0.0161346
764.630	0.0163880
764.708	0.0163322
764.786	0.0161469
764.864	0.0163068
764.942	0.0164303
765.021	0.0163081
765.099	0.0163500
765.177	0.0162768
765.255	0.0161961
765.333	0.0161934
765.411	0.0161539
765.489	0.0163377
765.567	0.0164609
765.646	0.0162000
765.724	0.0161504
765.802	0.0162025
765.880	0.0162422
765.958	0.0162537
766.036	0.0162121
766.114	0.0162686
766.192	0.0161543
766.271	0.0161542
766.349	0.0162447
766.427	0.0162443
766.505	0.0163892
766.583	0.0162486
766.661	0.0161693
766.739	0.0164606
766.817	0.0163811
766.896	0.0163981
766.974	0.0164468
767.052	0.0164932
767.130	0.0163304
767.208	0.0164066
767.286	0.0164149
767.364	0.0164180
767.442	0.0164490
767.521	0.0164645
767.599	0.0164752
767.677	0.0165564
767.755	0.0166858
767.833	0.0164922
767.911	0.0165605
767.989	0.0165026
768.067	0.0166711
768.146	0.0166533
768.224	0.0166255
768.302	0.0166051
768.380	0.0165904
768.458	0.0166088
768.536	0.0166203
768.614	0.0165125
768.692	0.0166504
768.771	0.0165448
768.849	0.0165583
768.927	0.0166841
769.005	0.0165990
769.083	0.0166096
769.161	0.0166461
769.239	0.0165488
769.317	0.0166566
769.396	0.0165871
769.474	0.0166219
769.552	0.0167287
769.630	0.0166798
769.708	0.0166198
769.786	0.0165918
769.864	0.0166642
769.942	0.0166971
770.021	0.0166244
770.099	0.0166304
770.177	0.0166296
770.255	0.0164469
770.333	0.0164353
770.411	0.0164346
770.489	0.0165439
770.567	0.0163790
770.646	0.0163798
770.724	0.0163263
770.802	0.0162616
770.880	0.0163402
770.958	0.0163103
771.036	0.0162529
771.114	0.0161339
771.192	0.0162458
771.271	0.0160857
771.349	0.0161482
771.427	0.0161643
771.505	0.0162347
771.583	0.0160929
771.661	0.0161349
771.739	0.0161552
771.817	0.0162087
771.896	0.0160539
771.974	0.0161111
772.052	0.0161005
772.130	0.0161992
772.208	0.0161174
772.286	0.0162921
772.364	0.0161646
772.442	0.0160812
772.521	0.0161143
772.599	0.0160447
772.677	0.0160344
772.755	0.0161740
772.833	0.0160693
772.911	0.0159567
772.989	0.0159133
773.067	0.0159107
773.146	0.0159081
773.224	0.0158389
773.302	0.0159730
773.380	0.0159515
773.458	0.0158562
773.536	0.0159969
773.614	0.0159011
773.692	0.0160136
773.771	0.0160297
773.849	0.0160173
773.927	0.0158885
774.005	0.0159478
774.083	0.0161915
774.161	0.0161749
774.239	0.0160726
774.317	0.0160826
774.396	0.0161926
774.474	0.0162073
774.552	0.0160114
774.630	0.0160598
774.708	0.0160932
774.786	0.0161778
774.864	0.0163423
774.942	0.0161468
775.021	0.0162427
775.099	0.0161568
775.177	0.0162606
775.255	0.0162433
775.333	0.0163300
775.411	0.0162791
775.489	0.0162869
775.567	0.0162800
775.646	0.0162626
775.724	0.0165000
775.802	0.0163668
775.880	0.0163658
775.958	0.0164152
776.036	0.0165482
776.114	0.0166405
776.192	0.0166458
776.271	0.0165792
776.349	0.0165205
776.427	0.0164723
776.505	0.0166422
776.583	0.0165325
776.661	0.0165830
776.739	0.0166498
776.817	0.0167157
776.896	0.0166084
776.974	0.0166039
777.052	0.0167547
777.130	0.0166470
777.208	0.0165331
777.286	0.0167418
777.364	0.0166173
777.442	0.0166404
777.521	0.0166673
777.599	0.0165695
777.677	0.0165577
777.755	0.0168469
777.833	0.0167100
777.911	0.0166515
777.989	0.0168478
778.067	0.0167443
778.146	0.0166641
778.224	0.0165280
778.302	0.0168714
778.380	0.0167796
778.458	0.0167570
778.536	0.0167292
778.614	0.0168360
778.692	0.0168090
778.771	0.0167785
778.849	0.0166865
778.927	0.0167700
779.005	0.0168083
779.083	0.0168676
779.161	0.0167676
779.239	0.0168589
779.317	0.0168205
779.396	0.0167633
779.474	0.0167388
779.552	0.0166685
779.630	0.0168530
779.708	0.0167935
779.786	0.0168807
779.864	0.0167840
779.942	0.0166912
780.021	0.0167747
780.099	0.0166853
780.177	0.0166982
780.255	0.0167290
780.333	0.0165993
780.411	0.0167976
780.489	0.0167157
780.567	0.0167611
780.646	0.0168004
780.724	0.0167094
780.802	0.0168712
780.880	0.0168137
780.958	0.0167528
781.036	0.0166734
781.114	0.0167049
781.192	0.0166535
781.271	0.0166237
781.349	0.0168165
781.427	0.0167276
781.505	0.0166567
781.583	0.0165704
781.661	0.0167809
781.739	0.0167017
781.817	0.0167284
781.896	0.0166749
781.974	0.0167012
782.052	0.0165675
782.130	0.0167046
782.208	0.0165094
782.286	0.0166485
782.364	0.0165805
782.442	0.0167296
782.521	0.0168584
782.599	0.0167577
782.677	0.0166184
782.755	0.0165462
782.833	0.0166850
782.911	0.0166370
782.989	0.0167332
783.067	0.0166133
783.146	0.0165800
783.224	0.0169261
783.302	0.0168432
783.380	0.0166253
783.458	0.0167496
783.536	0.0167257
783.614	0.0167110
783.692	0.0167606
783.771	0.0166718
783.849	0.0167094
783.927	0.0166949
784.005	0.0167650
784.083	0.0167347
784.161	0.0167728
784.239	0.0167104
784.317	0.0167387
784.396	0.0166493
784.474	0.0167506
784.552	0.0166574
784.630	0.0167007
784.708	0.0167357
784.786	0.0166295
784.864	0.0166692
784.942	0.0168336
785.021	0.0167883
785.099	0.0167806
785.177	0.0166902
785.255	0.0167070
785.333	0.0167242
785.411	0.0167870
785.489	0.0167197
785.567	0.0166750
785.646	0.0165778
785.724	0.0165630
785.802	0.0165909
785.880	0.0166821
785.958	0.0165967
786.036	0.0165418
786.114	0.0165723
786.192	0.0166221
786.271	0.0165615
786.349	0.0165958
786.427	0.0165273
786.505	0.0165446
786.583	0.0165034
786.661	0.0165455
786.739	0.0166309
786.817	0.0165699
786.896	0.0167275
786.974	0.0165772
787.052	0.0165145
787.130	0.0166402
787.208	0.0165800
787.286	0.0165594
787.364	0.0165878
787.442	0.0164845
787.521	0.0165131
787.599	0.0166154
787.677	0.0165968
787.755	0.0166625
787.833	0.0165324
787.911	0.0164958
787.989	0.0164136
788.067	0.0163818
788.146	0.0163689
788.224	0.0163704
788.302	0.0162958
788.380	0.0163574
788.458	0.0161872
788.536	0.0161909
788.614	0.0162459
788.692	0.0162289
788.771	0.0162047
788.849	0.0163200
788.927	0.0163639
789.005	0.0163342
789.083	0.0163218
789.161	0.0163132
789.239	0.0162553
789.317	0.0162311
789.396	0.0162965
789.474	0.0162215
789.552	0.0162005
789.630	0.0161465
789.708	0.0162746
789.786	0.0163197
789.864	0.0162398
789.942	0.0162103
790.021	0.0163116
790.099	0.0161652
790.177	0.0162453
790.255	0.0162919
790.333	0.0162885
790.411	0.0163743
790.489	0.0164064
790.567	0.0162922
790.646	0.0162714
790.724	0.0162828
790.802	0.0162840
790.880	0.0162554
790.958	0.0163371
791.036	0.0163003
791.114	0.0162845
791.192	0.0161871
791.271	0.0163400
791.349	0.0164959
791.427	0.0163247
791.505	0.0162873
791.583	0.0162380
791.661	0.0163831
791.739	0.0163636
791.817	0.0164055
791.896	0.0163481
791.974	0.0163702
792.052	0.0162949
792.130	0.0162247
792.208	0.0163852
792.286	0.0162807
792.364	0.0162993
792.442	0.0163598
792.521	0.0163661
792.599	0.0162739
792.677	0.0164212
792.755	0.0162667
792.833	0.0163041
792.911	0.0163287
792.989	0.0163762
793.067	0.0162420
793.146	0.0162473
793.224	0.0164106
793.302	0.0163512
793.380	0.0162332
793.458	0.0163839
793.536	0.0163970
793.614	0.0163707
793.692	0.0163027
793.771	0.0163910
793.849	0.0164197
793.927	0.0164146
794.005	0.0164304
794.083	0.0165283
794.161	0.0164334
794.239	0.0164876
794.317	0.0164013
794.396	0.0165209
794.474	0.0165987
794.552	0.0165036
794.630	0.0164754
794.708	0.0166443
794.786	0.0165215
794.864	0.0164415
794.942	0.0166843
795.021	0.0166541
795.099	0.0165756
795.177	0.0165125
795.255	0.0165295
795.333	0.0164577
795.411	0.0163835
795.489	0.0165440
795.567	0.0165114
795.646	0.0164863
795.724	0.0166515
795.802	0.0166325
795.880	0.0164927
795.958	0.0163551
796.036	0.0164644
796.114	0.0165010
796.192	0.0164884
796.271	0.0164817
796.349	0.0163298
796.427	0.0164013
796.505	0.0163050
796.583	0.0163277
796.661	0.0165063
796.739	0.0163116
796.817	0.0162205
796.896	0.0163166
796.974	0.0162991
797.052	0.0163300
797.130	0.0163982
797.208	0.0164865
797.286	0.0164288
797.364	0.0163930
797.442	0.0164853
797.521	0.0163711
797.599	0.0162616
797.677	0.0163647
797.755	0.0164592
797.833	0.0164867
797.911	0.0163734
797.989	0.0163362
798.067	0.0163438
798.146	0.0163434
798.224	0.0163962
798.302	0.0164938
798.380	0.0164661
798.458	0.0163880
798.536	0.0163364
798.614	0.0164759
798.692	0.0165390
798.771	0.0164846
798.849	0.0165343
798.927	0.0164597
799.005	0.0166075
799.083	0.0165710
799.161	0.0164582
799.239	0.0165617
799.317	0.0163996
799.396	0.0164057
799.474	0.0165096
799.552	0.0164420
799.630	0.0164484
799.708	0.0164646
799.786	0.0164047
799.864	0.0163725
799.942	0.0163251
800.021	0.0164193
800.099	0.0163865
800.177	0.0164278
800.255	0.0163770
800.333	0.0164587
800.411	0.0163363
800.489	0.0164964
800.567	0.0164666
800.646	0.0164343
800.724	0.0163922
800.802	0.0163672
800.880	0.0164584
800.958	0.0164336
801.036	0.0164350
801.114	0.0165520
801.192	0.0164402
801.271	0.0164667
801.349	0.0165732
801.427	0.0165101
801.505	0.0165771
801.583	0.0166011
801.661	0.0165455
801.739	0.0164964
801.817	0.0167316
801.896	0.0165095
801.974	0.0165549
802.052	0.0165905
802.130	0.0166990
802.208	0.0165900
802.286	0.0167976
802.364	0.0168085
802.442	0.0167641
802.521	0.0165853
802.599	0.0167222
802.677	0.0166344
802.755	0.0166972
802.833	0.0166436
802.911	0.0167131
802.989	0.0166668
803.067	0.0167259
803.146	0.0167454
803.224	0.0166505
803.302	0.0167267
803.380	0.0166914
803.458	0.0168310
803.536	0.0168681
803.614	0.0167321
803.692	0.0167642
803.771	0.0168403
803.849	0.0169734
803.927	0.0169786
804.005	0.0168797
804.083	0.0170317
804.161	0.0169150
804.239	0.0170826
804.317	0.0170265
804.396	0.0170382
804.474	0.0171107
804.552	0.0171063
804.630	0.0171256
804.708	0.0169584
804.786	0.0170705
804.864	0.0168547
804.942	0.0169205
805.021	0.0171922
805.099	0.0169672
805.177	0.0168775
805.255	0.0169436
805.333	0.0170564
805.411	0.0169214
805.489	0.0170358
805.567	0.0169024
805.646	0.0168336
805.724	0.0167406
805.802	0.0168832
805.880	0.0168777
805.958	0.0168522
806.036	0.0167686
806.114	0.0167902
806.192	0.0167859
806.271	0.0167773
806.349	0.0167630
806.427	0.0167361
806.505	0.0168019
806.583	0.0168167
806.661	0.0166305
806.739	0.0167082
806.817	0.0167229
806.896	0.0167621
806.974	0.0168382
807.052	0.0167445
807.130	0.0165836
807.208	0.0168761
807.286	0.0168174
807.364	0.0168227
807.442	0.0167809
807.521	0.0168895
807.599	0.0167157
807.677	0.0168497
807.755	0.0166125
807.833	0.0168833
807.911	0.0168770
807.989	0.0168064
808.067	0.0168433
808.146	0.0167412
808.224	0.0168834
808.302	0.0169556
808.380	0.0168044
808.458	0.0167989
808.536	0.0168648
808.614	0.0168554
808.692	0.0167399
808.771	0.0167161
808.849	0.0166716
808.927	0.0167074
809.005	0.0167146
809.083	0.0166153
809.161	0.0166687
809.239	0.0166124
809.317	0.0165524
809.396	0.0164525
809.474	0.0166352
809.552	0.0167757
809.630	0.0165781
809.708	0.0165443
809.786	0.0166119
809.864	0.0166769
809.942	0.0166540
810.021	0.0166123
810.099	0.0167109
810.177	0.0166809
810.255	0.0166837
810.333	0.0167079
810.411	0.0167356
810.489	0.0166790
810.567	0.0166668
810.646	0.0167634
810.724	0.0167373
810.802	0.0167191
810.880	0.0167356
810.958	0.0169231
811.036	0.0167201
811.114	0.0165727
811.192	0.0166776
811.271	0.0167838
811.349	0.0167627
811.427	0.0166138
811.505	0.0165461
811.583	0.0166306
811.661	0.0166219
811.739	0.0166917
811.817	0.0166145
811.896	0.0166595
811.974	0.0166176
812.052	0.0166611
812.130	0.0165823
812.208	0.0166211
812.286	0.0165419
812.364	0.0165157
812.442	0.0165166
812.521	0.0165162
812.599	0.0165121
812.677	0.0165730
812.755	0.0165441
812.833	0.0166032
812.911	0.0164683
812.989	0.0165101
813.067	0.0164682
813.146	0.0164037
813.224	0.0164711
813.302	0.0165969
813.380	0.0163886
813.458	0.0164706
813.536	0.0163415
813.614	0.0164441
813.692	0.0165018
813.771	0.0163814
813.849	0.0162603
813.927	0.0163174
814.005	0.0163979
814.083	0.0162883
814.161	0.0161427
814.239	0.0162088
814.317	0.0160497
814.396	0.0161533
814.474	0.0161106
814.552	0.0161541
814.630	0.0161463
814.708	0.0160699
814.786	0.0160384
814.864	0.0160023
814.942	0.0159457
815.021	0.0159940
815.099	0.0160355
815.177	0.0160224
815.255	0.0160426
815.333	0.0160905
815.411	0.0159542
815.489	0.0159709
815.567	0.0160571
815.646	0.0160162
815.724	0.0161856
815.802	0.0160433
815.880	0.0159095
815.958	0.0159882
816.036	0.0159913
816.114	0.0160400
816.192	0.0161042
816.271	0.0159879
816.349	0.0160122
816.427	0.0160545
816.505	0.0160651
816.583	0.0161478
816.661	0.0161181
816.739	0.0160365
816.817	0.0161321
816.896	0.0160889
816.974	0.0160929
817.052	0.0163607
817.130	0.0161790
817.208	0.0162112
817.286	0.0162717
817.364	0.0163297
817.442	0.0162607
817.521	0.0163379
817.599	0.0164889
817.677	0.0166647
817.755	0.0166101
817.833	0.0165531
817.911	0.0165553
817.989	0.0166598
818.067	0.0166460
818.146	0.0167015
818.224	0.0167316
818.302	0.0167490
818.380	0.0168507
818.458	0.0167639
818.536	0.0168565
818.614	0.0169248
818.692	0.0168861
818.771	0.0166045
818.849	0.0167765
818.927	0.0168377
819.005	0.0168144
819.083	0.0169822
819.161	0.0170640
819.239	0.0170338
819.317	0.0169044
819.396	0.0169534
819.474	0.0169605
819.552	0.0169608
819.630	0.0170273
819.708	0.0170453
819.786	0.0169867
819.864	0.0170615
819.942	0.0169187
820.021	0.0170977
820.099	0.0170881
820.177	0.0171292
820.255	0.0169202
820.333	0.0168600
820.411	0.0169003
820.489	0.0169199
820.567	0.0168543
820.646	0.0169065
820.724	0.0168439
820.802	0.0167796
820.880	0.0167945
820.958	0.0168748
821.036	0.0167475
821.114	0.0165714
821.192	0.0165987
821.271	0.0166468
821.349	0.0166019
821.427	0.0165360
821.505	0.0165607
821.583	0.0164916
821.661	0.0164648
821.739	0.0164872
821.817	0.0162735
821.896	0.0164277
821.974	0.0163945
822.052	0.0161509
822.130	0.0162668
822.208	0.0161498
822.286	0.0162597
822.364	0.0161363
822.442	0.0161371
822.521	0.0159908
822.599	0.0162026
822.677	0.0160972
822.755	0.0161893
822.833	0.0161508
822.911	0.0160679
822.989	0.0159325
823.067	0.0161068
823.146	0.0159244
823.224	0.0159578
823.302	0.0159154
823.380	0.0159317
823.458	0.0159629
823.536	0.0159818
823.614	0.0159199
823.692	0.0159673
823.771	0.0158342
823.849	0.0157619
823.927	0.0160044
824.005	0.0160770
824.083	0.0159479
824.161	0.0159639
824.239	0.0159991
824.317	0.0161173
824.396	0.0159348
824.474	0.0160155
824.552	0.0159594
824.630	0.0159587
824.708	0.0160716
824.786	0.0161257
824.864	0.0160956
824.942	0.0162243
825.021	0.0162720
825.099	0.0160818
825.177	0.0161375
825.255	0.0164889
825.333	0.0163928
825.411	0.0164490
825.489	0.0164735
825.567	0.0164674
825.646	0.0165453
825.724	0.0165057
825.802	0.0166283
825.880	0.0166570
825.958	0.0167567
826.036	0.0167130
826.114	0.0168181
826.192	0.0167384
826.271	0.0169357
826.349	0.0168861
826.427	0.0168505
826.505	0.0168840
826.583	0.0167831
826.661	0.0169496
826.739	0.0169161
826.817	0.0170107
826.896	0.0170885
826.974	0.0169958
827.052	0.0170769
827.130	0.0172073
827.208	0.0173100
827.286	0.0171066
827.364	0.0171629
827.442	0.0172089
827.521	0.0169624
827.599	0.0172664
827.677	0.0172768
827.755	0.0171434
827.833	0.0172141
827.911	0.0172317
827.989	0.0171113
828.067	0.0171790
828.146	0.0172241
828.224	0.0172149
828.302	0.0171363
828.380	0.0171873
828.458	0.0170594
828.536	0.0171642
828.614	0.0170016
828.692	0.0169462
828.771	0.0169650
828.849	0.0170403
828.927	0.0170876
829.005	0.0169569
829.083	0.0169737
829.161	0.0169122
829.239	0.0169355
829.317	0.0169252
829.396	0.0168879
829.474	0.0170595
829.552	0.0167863
829.630	0.0167692
829.708	0.0167895
829.786	0.0168703
829.864	0.0166194
829.942	0.0164608
830.021	0.0167014
830.099	0.0165617
830.177	0.0165867
830.255	0.0164824
830.333	0.0165367
830.411	0.0165003
830.489	0.0165878
830.567	0.0164843
830.646	0.0165169
830.724	0.0166587
830.802	0.0165991
830.880	0.0164331
830.958	0.0164471
831.036	0.0165441
831.114	0.0163824
831.192	0.0165572
831.271	0.0165790
831.349	0.0165276
831.427	0.0165233
831.505	0.0164626
831.583	0.0164821
831.661	0.0164636
831.739	0.0164966
831.817	0.0164138
831.896	0.0164519
831.974	0.0166610
832.052	0.0164681
832.130	0.0163556
832.208	0.0164558
832.286	0.0165468
832.364	0.0164878
832.442	0.0164696
832.521	0.0164454
832.599	0.0163370
832.677	0.0163932
832.755	0.0165174
832.833	0.0164878
832.911	0.0165286
832.989	0.0165204
833.067	0.0166042
833.146	0.0163305
833.224	0.0164725
833.302	0.0166352
833.380	0.0164962
833.458	0.0163831
833.536	0.0164169
833.614	0.0164923
833.692	0.0165080
833.771	0.0164290
833.849	0.0163625
833.927	0.0165352
834.005	0.0164680
834.083	0.0163663
834.161	0.0163725
834.239	0.0163331
834.317	0.0163671
834.396	0.0164123
834.474	0.0164673
834.552	0.0164619
834.630	0.0165035
834.708	0.0164541
834.786	0.0165484
834.864	0.0165685
834.942	0.0165866
835.021	0.0164547
835.099	0.0165984
835.177	0.0165640
835.255	0.0166692
835.333	0.0166382
835.411	0.0166654
835.489	0.0166012
835.567	0.0166089
835.646	0.0167474
835.724	0.0167858
835.802	0.0166882
835.880	0.0165137
835.958	0.0165940
836.036	0.0166037
836.114	0.0165553
836.192	0.0166905
836.271	0.0166874
836.349	0.0166198
836.427	0.0165222
836.505	0.0165910
836.583	0.0167029
836.661	0.0167504
836.739	0.0167604
836.817	0.0166208
836.896	0.0166897
836.974	0.0166875
837.052	0.0167234
837.130	0.0165941
837.208	0.0165786
837.286	0.0164310
837.364	0.0166711
837.442	0.0164774
837.521	0.0164398
837.599	0.0165109
837.677	0.0165439
837.755	0.0165608
837.833	0.0166225
837.911	0.0166270
837.989	0.0166917
838.067	0.0166910
838.146	0.0166077
838.224	0.0166328
838.302	0.0165385
838.380	0.0166070
838.458	0.0166003
838.536	0.0166849
838.614	0.0166566
838.692	0.0167243
838.771	0.0166077
838.849	0.0167650
838.927	0.0166753
839.005	0.0165677
839.083	0.0167111
839.161	0.0167329
839.239	0.0166905
839.317	0.0165210
839.396	0.0164709
839.474	0.0165926
839.552	0.0165582
839.630	0.0167577
839.708	0.0166623
839.786	0.0163634
839.864	0.0166557
839.942	0.0167125
840.021	0.0165517
840.099	0.0166959
840.177	0.0166106
840.255	0.0166785
840.333	0.0166605
840.411	0.0165575
840.489	0.0168499
840.567	0.0166215
840.646	0.0165792
840.724	0.0166602
840.802	0.0165674
840.880	0.0166299
840.958	0.0166016
841.036	0.0165148
841.114	0.0165368
841.192	0.0166831
841.271	0.0165357
841.349	0.0165731
841.427	0.0165653
841.505	0.0165196
841.583	0.0165218
841.661	0.0166060
841.739	0.0165884
841.817	0.0164790
841.896	0.0164617
841.974	0.0163450
842.052	0.0165909
842.130	0.0166079
842.208	0.0165296
842.286	0.0164476
842.364	0.0163798
842.442	0.0165115
842.521	0.0165054
842.599	0.0166145
842.677	0.0165986
842.755	0.0164782
842.833	0.0164674
842.911	0.0164618
842.989	0.0165598
843.067	0.0165294
843.146	0.0164879
843.224	0.0164630
843.302	0.0165902
843.380	0.0165079
843.458	0.0163737
843.536	0.0162948
843.614	0.0164202
843.692	0.0165822
843.771	0.0164747
843.849	0.0163784
843.927	0.0163599
844.005	0.0165048
844.083	0.0163991
844.161	0.0163295
844.239	0.0164066
844.317	0.0164815
844.396	0.0164922
844.474	0.0164090
844.552	0.0162809
844.630	0.0164886
844.708	0.0165208
844.786	0.0164741
844.864	0.0165268
844.942	0.0164857
845.021	0.0165155
845.099	0.0164647
845.177	0.0165298
845.255	0.0163801
845.333	0.0163352
845.411	0.0164115
845.489	0.0163558
845.567	0.0163953
845.646	0.0164094
845.724	0.0162019
845.802	0.0163384
845.880	0.0161334
845.958	0.0161481
846.036	0.0162960
846.114	0.0161569
846.192	0.0161301
846.271	0.0160131
846.349	0.0161240
846.427	0.0159327
846.505	0.0161237
846.583	0.0161102
846.661	0.0160506
846.739	0.0162403
846.817	0.0162972
846.896	0.0162032
846.974	0.0163471
847.052	0.0165092
847.130	0.0164276
847.208	0.0164899
847.286	0.0165473
847.364	0.0165390
847.442	0.0166114
847.521	0.0166756
847.599	0.0166502
847.677	0.0168385
847.755	0.0166466
847.833	0.0167638
847.911	0.0166840
847.989	0.0166028
848.067	0.0166393
848.146	0.0166068
848.224	0.0163798
848.302	0.0166511
848.380	0.0166062
848.458	0.0165870
848.536	0.0165577
848.614	0.0166090
848.692	0.0165472
848.771	0.0165672
848.849	0.0166505
848.927	0.0166443
849.005	0.0167246
849.083	0.0167232
849.161	0.0165046
849.239	0.0167516
849.317	0.0167065
849.396	0.0167200
849.474	0.0167857
849.552	0.0167008
849.630	0.0165782
849.708	0.0164663
849.786	0.0166048
849.864	0.0166235
849.942	0.0166178
850.021	0.0166533
850.099	0.0166048
850.177	0.0166525
850.255	0.0165591
850.333	0.0165240
850.411	0.0163039
850.489	0.0165981
850.567	0.0166144
850.646	0.0165025
850.724	0.0165795
850.802	0.0165075
850.880	0.0165346
850.958	0.0165603
851.036	0.0165924
851.114	0.0166833
851.192	0.0165674
851.271	0.0165019
851.349	0.0165757
851.427	0.0165147
851.505	0.0165884
851.583	0.0166012
851.661	0.0167133
851.739	0.0165638
851.817	0.0166907
851.896	0.0166344
851.974	0.0166768
852.052	0.0165363
852.130	0.0166891
852.208	0.0169036
852.286	0.0167358
852.364	0.0167152
852.442	0.0167645
852.521	0.0167808
852.599	0.0166862
852.677	0.0166632
852.755	0.0166106
852.833	0.0165873
852.911	0.0167125
852.989	0.0167139
853.067	0.0166920
853.146	0.0165187
853.224	0.0167221
853.302	0.0167296
853.380	0.0166839
853.458	0.0167305
853.536	0.0166873
853.614	0.0166486
853.692	0.0166906
853.771	0.0167408
853.849	0.0167020
853.927	0.0166225
854.005	0.0167495
854.083	0.0166953
854.161	0.0166338
854.239	0.0165157
854.317	0.0164183
854.396	0.0166673
854.474	0.0166440
854.552	0.0165697
854.630	0.0164664
854.708	0.0164799
854.786	0.0163686
854.864	0.0164281
854.942	0.0163744
855.021	0.0163211
855.099	0.0163216
855.177	0.0163950
855.255	0.0163919
855.333	0.0163169
855.411	0.0163104
855.489	0.0162016
855.567	0.0162107
855.646	0.0162576
855.724	0.0163135
855.802	0.0163206
855.880	0.0164261
855.958	0.0163173
856.036	0.0162048
856.114	0.0163772
856.192	0.0162840
856.271	0.0163705
856.349	0.0162914
856.427	0.0161579
856.505	0.0163325
856.583	0.0162856
856.661	0.0162797
856.739	0.0163080
856.817	0.0162588
856.896	0.0163987
856.974	0.0163368
857.052	0.0162206
857.130	0.0163625
857.208	0.0163840
857.286	0.0163546
857.364	0.0162678
857.442	0.0163745
857.521	0.0163468
857.599	0.0163351
857.677	0.0164627
857.755	0.0164322
857.833	0.0164840
857.911	0.0164478
857.989	0.0163947
858.067	0.0164950
858.146	0.0165757
858.224	0.0165089
858.302	0.0165279
858.380	0.0165337
858.458	0.0166121
858.536	0.0166544
858.614	0.0165974
858.692	0.0166096
858.771	0.0165056
858.849	0.0165668
858.927	0.0166933
859.005	0.0167000
859.083	0.0166151
859.161	0.0166116
859.239	0.0165554
859.317	0.0165582
859.396	0.0166965
859.474	0.0165862
859.552	0.0165872
859.630	0.0166587
859.708	0.0167764
859.786	0.0166843
859.864	0.0168858
859.942	0.0169521
860.021	0.0168394
860.099	0.0167605
860.177	0.0167659
860.255	0.0170857
860.333	0.0172872
860.411	0.0171368
860.489	0.0170947
860.567	0.0170825
860.646	0.0171389
860.724	0.0172795
860.802	0.0173518
860.880	0.0171502
860.958	0.0172591
861.036	0.0171624
861.114	0.0171837
861.192	0.0171883
861.271	0.0170607
861.349	0.0171420
861.427	0.0171152
861.505	0.0170978
861.583	0.0170224
861.661	0.0168220
861.739	0.0169060
861.817	0.0167516
861.896	0.0167992
861.974	0.0168728
862.052	0.0167007
862.130	0.0166290
862.208	0.0166118
862.286	0.0167207
862.364	0.0166173
862.442	0.0165402
862.521	0.0165969
862.599	0.0165886
862.677	0.0166936
862.755	0.0167586
862.833	0.0167150
862.911	0.0167432
862.989	0.0168031
863.067	0.0166660
863.146	0.0166723
863.224	0.0166164
863.302	0.0166196
863.380	0.0168336
863.458	0.0167371
863.536	0.0166574
863.614	0.0166811
863.692	0.0166823
863.771	0.0167219
863.849	0.0166872
863.927	0.0166194
864.005	0.0165693
864.083	0.0166666
864.161	0.0166053
864.239	0.0165653
864.317	0.0164810
864.396	0.0165545
864.474	0.0165730
864.552	0.0166927
864.630	0.0164775
864.708	0.0166362
864.786	0.0164813
864.864	0.0166933
864.942	0.0165437
865.021	0.0165855
865.099	0.0167228
865.177	0.0165720
865.255	0.0166438
865.333	0.0164913
865.411	0.0166215
865.489	0.0167594
865.567	0.0166318
865.646	0.0166447
865.724	0.0166926
865.802	0.0166919
865.880	0.0165941
865.958	0.0166656
866.036	0.0165053
866.114	0.0165061
866.192	0.0164768
866.271	0.0165863
866.349	0.0166709
866.427	0.0166250
866.505	0.0165919
866.583	0.0165636
866.661	0.0164693
866.739	0.0164863
866.817	0.0164306
866.896	0.0164274
866.974	0.0163088
867.052	0.0164598
867.130	0.0163657
867.208	0.0162939
867.286	0.0163921
867.364	0.0162009
867.442	0.0162206
867.521	0.0162860
867.599	0.0162286
867.677	0.0161675
867.755	0.0162756
867.833	0.0161990
867.911	0.0162386
867.989	0.0161174
868.067	0.0162133
868.146	0.0161945
868.224	0.0161590
868.302	0.0162772
868.380	0.0162088
868.458	0.0162621
868.536	0.0162885
868.614	0.0162396
868.692	0.0164115
868.771	0.0162791
868.849	0.0163827
868.927	0.0163706
869.005	0.0163623
869.083	0.0162783
869.161	0.0163654
869.239	0.0162368
869.317	0.0164141
869.396	0.0164024
869.474	0.0165847
869.552	0.0164146
869.630	0.0164409
869.708	0.0164682
869.786	0.0164069
869.864	0.0164854
869.942	0.0163870
