06/03/2022	14:52:35	Ver.	4.1	UNKNOWN
Optical Delay	550.020508	Delta X		0.078125	Sweeps	1	Scan Rate	0/0
Coordinates	Axis 1	NaN	Axis 2	NaN	Axis 3	NaN	Axis 4	NaN	Axis 5	NaN	Axis 6	0.000000
TX Power	0.000000	RX Power	0.000000

550.021	0.0153710
550.099	0.0153814
550.177	0.0153053
550.255	0.0152296
550.333	0.0154449
550.411	0.0153328
550.489	0.0153873
550.567	0.0155341
550.646	0.0155173
550.724	0.0155864
550.802	0.0156212
550.880	0.0156312
550.958	0.0155952
551.036	0.0158053
551.114	0.0156707
551.192	0.0156963
551.271	0.0157938
551.349	0.0158643
551.427	0.0157500
551.505	0.0159081
551.583	0.0158856
551.661	0.0157812
551.739	0.0158141
551.817	0.0158676
551.896	0.0158676
551.974	0.0159753
552.052	0.0160074
552.130	0.0160551
552.208	0.0159850
552.286	0.0161552
552.364	0.0161885
552.442	0.0161311
552.521	0.0163708
552.599	0.0164440
552.677	0.0165350
552.755	0.0164407
552.833	0.0166468
552.911	0.0168064
552.989	0.0167937
553.067	0.0167413
553.146	0.0169097
553.224	0.0170180
553.302	0.0170200
553.380	0.0170227
553.458	0.0171406
553.536	0.0172417
553.614	0.0175418
553.692	0.0174494
553.771	0.0176505
553.849	0.0177983
553.927	0.0179665
554.005	0.0180096
554.083	0.0180505
554.161	0.0183172
554.239	0.0183717
554.317	0.0184142
554.396	0.0186828
554.474	0.0185917
554.552	0.0186272
554.630	0.0187721
554.708	0.0187208
554.786	0.0187923
554.864	0.0188631
554.942	0.0187184
555.021	0.0186215
555.099	0.0187156
555.177	0.0186276
555.255	0.0184483
555.333	0.0182199
555.411	0.0182835
555.489	0.0181958
555.567	0.0179490
555.646	0.0179478
555.724	0.0177007
555.802	0.0176652
555.880	0.0174847
555.958	0.0172166
556.036	0.0171280
556.114	0.0170871
556.192	0.0167413
556.271	0.0165739
556.349	0.0165172
556.427	0.0163988
556.505	0.0163897
556.583	0.0162495
556.661	0.0162021
556.739	0.0160564
556.817	0.0159117
556.896	0.0158764
556.974	0.0159105
557.052	0.0156960
557.130	0.0156538
557.208	0.0158471
557.286	0.0158121
557.364	0.0155686
557.442	0.0154617
557.521	0.0156418
557.599	0.0155406
557.677	0.0155864
557.755	0.0154858
557.833	0.0154130
557.911	0.0154417
557.989	0.0154654
558.067	0.0154749
558.146	0.0154318
558.224	0.0155109
558.302	0.0153436
558.380	0.0156213
558.458	0.0155884
558.536	0.0155575
558.614	0.0155291
558.692	0.0155743
558.771	0.0155616
558.849	0.0155261
558.927	0.0155118
559.005	0.0154881
559.083	0.0156285
559.161	0.0156549
559.239	0.0157161
559.317	0.0156136
559.396	0.0157504
559.474	0.0157482
559.552	0.0159074
559.630	0.0158834
559.708	0.0157922
559.786	0.0158246
559.864	0.0159887
559.942	0.0160045
560.021	0.0158913
560.099	0.0161015
560.177	0.0160667
560.255	0.0159878
560.333	0.0161623
560.411	0.0161668
560.489	0.0160850
560.567	0.0161109
560.646	0.0161707
560.724	0.0162049
560.802	0.0162363
560.880	0.0163244
560.958	0.0163038
561.036	0.0163422
561.114	0.0162254
561.192	0.0162017
561.271	0.0163024
561.349	0.0162888
561.427	0.0162837
561.505	0.0163889
561.583	0.0164891
561.661	0.0163342
561.739	0.0164593
561.817	0.0164484
561.896	0.0163287
561.974	0.0163589
562.052	0.0163819
562.130	0.0164525
562.208	0.0164743
562.286	0.0164160
562.364	0.0164487
562.442	0.0165318
562.521	0.0165507
562.599	0.0164477
562.677	0.0164748
562.755	0.0162751
562.833	0.0165788
562.911	0.0165403
562.989	0.0164050
563.067	0.0164452
563.146	0.0163543
563.224	0.0164674
563.302	0.0166084
563.380	0.0164507
563.458	0.0163860
563.536	0.0164807
563.614	0.0164652
563.692	0.0164839
563.771	0.0163570
563.849	0.0164095
563.927	0.0164045
564.005	0.0164951
564.083	0.0165198
564.161	0.0163184
564.239	0.0162163
564.317	0.0162567
564.396	0.0162650
564.474	0.0161930
564.552	0.0162450
564.630	0.0161703
564.708	0.0160456
564.786	0.0161455
564.864	0.0161320
564.942	0.0160318
565.021	0.0159598
565.099	0.0158966
565.177	0.0159006
565.255	0.0158666
565.333	0.0158510
565.411	0.0158322
565.489	0.0156808
565.567	0.0158087
565.646	0.0156667
565.724	0.0156868
565.802	0.0155830
565.880	0.0156920
565.958	0.0155914
566.036	0.0155392
566.114	0.0155935
566.192	0.0154881
566.271	0.0154547
566.349	0.0154196
566.427	0.0152853
566.505	0.0151586
566.583	0.0151160
566.661	0.0151567
566.739	0.0152759
566.817	0.0151395
566.896	0.0150102
566.974	0.0150146
567.052	0.0150191
567.130	0.0150675
567.208	0.0149609
567.286	0.0150816
567.364	0.0148835
567.442	0.0148836
567.521	0.0151014
567.599	0.0150149
567.677	0.0150340
567.755	0.0149413
567.833	0.0150271
567.911	0.0150834
567.989	0.0150454
568.067	0.0149435
568.146	0.0150251
568.224	0.0150826
568.302	0.0152005
568.380	0.0151094
568.458	0.0151699
568.536	0.0152448
568.614	0.0153851
568.692	0.0154082
568.771	0.0155605
568.849	0.0155465
568.927	0.0156044
569.005	0.0156512
569.083	0.0156222
569.161	0.0156747
569.239	0.0160128
569.317	0.0159256
569.396	0.0159871
569.474	0.0159842
569.552	0.0158843
569.630	0.0161030
569.708	0.0159258
569.786	0.0158934
569.864	0.0160779
569.942	0.0160362
570.021	0.0160543
570.099	0.0158637
570.177	0.0160223
570.255	0.0159599
570.333	0.0159460
570.411	0.0159061
570.489	0.0160985
570.567	0.0159499
570.646	0.0159224
570.724	0.0158744
570.802	0.0160894
570.880	0.0160794
570.958	0.0160075
571.036	0.0160047
571.114	0.0159956
571.192	0.0160791
571.271	0.0163158
571.349	0.0163242
571.427	0.0161781
571.505	0.0162202
571.583	0.0163637
571.661	0.0163352
571.739	0.0165464
571.817	0.0166282
571.896	0.0166049
571.974	0.0168048
572.052	0.0168475
572.130	0.0169315
572.208	0.0171181
572.286	0.0170242
572.364	0.0171823
572.442	0.0171996
572.521	0.0172073
572.599	0.0173923
572.677	0.0174403
572.755	0.0175257
572.833	0.0174612
572.911	0.0175389
572.989	0.0175814
573.067	0.0175421
573.146	0.0177789
573.224	0.0177174
573.302	0.0176450
573.380	0.0176955
573.458	0.0177986
573.536	0.0178674
573.614	0.0177675
573.692	0.0177436
573.771	0.0175690
573.849	0.0176495
573.927	0.0175666
574.005	0.0176739
574.083	0.0176354
574.161	0.0177015
574.239	0.0174377
574.317	0.0174527
574.396	0.0176220
574.474	0.0174576
574.552	0.0174945
574.630	0.0176069
574.708	0.0176262
574.786	0.0174789
574.864	0.0173996
574.942	0.0174705
575.021	0.0174789
575.099	0.0173700
575.177	0.0172892
575.255	0.0172942
575.333	0.0173045
575.411	0.0171225
575.489	0.0171470
575.567	0.0171591
575.646	0.0171271
575.724	0.0169568
575.802	0.0170001
575.880	0.0169794
575.958	0.0169191
576.036	0.0168678
576.114	0.0168018
576.192	0.0168610
576.271	0.0169429
576.349	0.0167929
576.427	0.0165755
576.505	0.0166827
576.583	0.0166618
576.661	0.0168239
576.739	0.0167339
576.817	0.0165488
576.896	0.0166473
576.974	0.0166553
577.052	0.0165423
577.130	0.0166111
577.208	0.0166869
577.286	0.0166436
577.364	0.0165498
577.442	0.0166505
577.521	0.0165881
577.599	0.0166856
577.677	0.0166261
577.755	0.0166612
577.833	0.0165287
577.911	0.0166087
577.989	0.0165646
578.067	0.0165945
578.146	0.0166375
578.224	0.0167609
578.302	0.0166634
578.380	0.0165943
578.458	0.0165901
578.536	0.0164407
578.614	0.0165461
578.692	0.0165560
578.771	0.0164116
578.849	0.0164590
578.927	0.0164671
579.005	0.0163981
579.083	0.0163528
579.161	0.0163721
579.239	0.0164394
579.317	0.0163853
579.396	0.0162078
579.474	0.0163278
579.552	0.0162753
579.630	0.0163042
579.708	0.0162501
579.786	0.0160294
579.864	0.0160074
579.942	0.0160689
580.021	0.0159794
580.099	0.0156907
580.177	0.0158676
580.255	0.0158488
580.333	0.0156325
580.411	0.0156573
580.489	0.0155562
580.567	0.0154366
580.646	0.0153822
580.724	0.0154837
580.802	0.0153565
580.880	0.0152805
580.958	0.0154542
581.036	0.0155437
581.114	0.0153448
581.192	0.0153652
581.271	0.0153796
581.349	0.0153583
581.427	0.0153813
581.505	0.0153403
581.583	0.0153152
581.661	0.0154961
581.739	0.0154684
581.817	0.0154398
581.896	0.0153806
581.974	0.0154714
582.052	0.0154387
582.130	0.0154820
582.208	0.0154928
582.286	0.0157390
582.364	0.0157036
582.442	0.0156551
582.521	0.0157217
582.599	0.0157990
582.677	0.0158431
582.755	0.0158020
582.833	0.0158943
582.911	0.0158820
582.989	0.0159383
583.067	0.0160490
583.146	0.0161373
583.224	0.0161136
583.302	0.0159206
583.380	0.0160981
583.458	0.0161530
583.536	0.0160923
583.614	0.0161738
583.692	0.0162035
583.771	0.0161839
583.849	0.0161411
583.927	0.0162971
584.005	0.0164430
584.083	0.0163149
584.161	0.0162333
584.239	0.0164584
584.317	0.0164867
584.396	0.0163328
584.474	0.0162387
584.552	0.0165259
584.630	0.0166357
584.708	0.0164976
584.786	0.0165178
584.864	0.0163974
584.942	0.0165776
585.021	0.0166626
585.099	0.0165458
585.177	0.0168089
585.255	0.0168201
585.333	0.0167029
585.411	0.0167741
585.489	0.0168494
585.567	0.0167804
585.646	0.0168095
585.724	0.0168974
585.802	0.0167802
585.880	0.0171400
585.958	0.0169157
586.036	0.0169640
586.114	0.0170627
586.192	0.0169907
586.271	0.0169509
586.349	0.0170544
586.427	0.0171128
586.505	0.0170619
586.583	0.0170438
586.661	0.0167457
586.739	0.0168681
586.817	0.0169495
586.896	0.0168628
586.974	0.0168190
587.052	0.0167516
587.130	0.0167258
587.208	0.0167348
587.286	0.0166987
587.364	0.0165575
587.442	0.0165966
587.521	0.0167133
587.599	0.0166737
587.677	0.0164453
587.755	0.0164846
587.833	0.0165865
587.911	0.0163606
587.989	0.0163589
588.067	0.0164964
588.146	0.0162746
588.224	0.0161949
588.302	0.0162855
588.380	0.0162700
588.458	0.0161807
588.536	0.0161423
588.614	0.0161121
588.692	0.0160213
588.771	0.0161355
588.849	0.0160103
588.927	0.0160365
589.005	0.0158202
589.083	0.0158235
589.161	0.0159833
589.239	0.0158150
589.317	0.0157307
589.396	0.0157733
589.474	0.0157527
589.552	0.0157922
589.630	0.0156992
589.708	0.0156702
589.786	0.0157033
589.864	0.0157468
589.942	0.0156813
590.021	0.0155584
590.099	0.0157003
590.177	0.0156118
590.255	0.0155570
590.333	0.0155695
590.411	0.0156196
590.489	0.0156020
590.567	0.0155483
590.646	0.0154306
590.724	0.0153777
590.802	0.0154516
590.880	0.0155794
590.958	0.0156706
591.036	0.0154457
591.114	0.0154327
591.192	0.0154576
591.271	0.0155970
591.349	0.0154646
591.427	0.0153825
591.505	0.0152458
591.583	0.0152350
591.661	0.0155344
591.739	0.0154386
591.817	0.0154452
591.896	0.0153922
591.974	0.0153198
592.052	0.0154801
592.130	0.0153852
592.208	0.0154606
592.286	0.0154987
592.364	0.0154668
592.442	0.0156294
592.521	0.0154797
592.599	0.0154372
592.677	0.0154201
592.755	0.0154519
592.833	0.0155293
592.911	0.0153909
592.989	0.0154275
593.067	0.0154482
593.146	0.0156342
593.224	0.0156048
593.302	0.0156999
593.380	0.0157493
593.458	0.0155957
593.536	0.0158120
593.614	0.0160132
593.692	0.0160216
593.771	0.0161143
593.849	0.0160971
593.927	0.0161772
594.005	0.0161562
594.083	0.0162508
594.161	0.0161806
594.239	0.0164171
594.317	0.0164660
594.396	0.0163947
594.474	0.0164921
594.552	0.0165367
594.630	0.0166874
594.708	0.0164568
594.786	0.0165998
594.864	0.0165613
594.942	0.0166628
595.021	0.0166261
595.099	0.0165392
595.177	0.0167957
595.255	0.0169480
595.333	0.0169080
595.411	0.0167269
595.489	0.0169086
595.567	0.0168368
595.646	0.0168316
595.724	0.0170738
595.802	0.0169733
595.880	0.0169162
595.958	0.0167864
596.036	0.0168726
596.114	0.0168156
596.192	0.0168842
596.271	0.0169683
596.349	0.0168444
596.427	0.0168355
596.505	0.0167883
596.583	0.0168309
596.661	0.0167522
596.739	0.0167196
596.817	0.0167286
596.896	0.0166678
596.974	0.0166719
597.052	0.0165038
597.130	0.0165868
597.208	0.0164234
597.286	0.0165755
597.364	0.0166626
597.442	0.0165775
597.521	0.0164249
597.599	0.0164803
597.677	0.0165448
597.755	0.0165115
597.833	0.0163741
597.911	0.0165646
597.989	0.0165876
598.067	0.0164394
598.146	0.0165070
598.224	0.0164789
598.302	0.0166394
598.380	0.0165641
598.458	0.0165880
598.536	0.0166282
598.614	0.0163957
598.692	0.0165472
598.771	0.0164251
598.849	0.0164949
598.927	0.0163852
599.005	0.0165448
599.083	0.0165766
599.161	0.0164017
599.239	0.0165023
599.317	0.0164126
599.396	0.0164809
599.474	0.0164154
599.552	0.0164368
599.630	0.0162486
599.708	0.0162550
599.786	0.0163097
599.864	0.0162763
599.942	0.0162935
600.021	0.0163040
600.099	0.0161536
600.177	0.0162620
600.255	0.0160938
600.333	0.0161420
600.411	0.0163227
600.489	0.0162915
600.567	0.0160974
600.646	0.0160982
600.724	0.0161281
600.802	0.0161289
600.880	0.0160921
600.958	0.0160102
601.036	0.0160703
601.114	0.0159944
601.192	0.0160150
601.271	0.0160072
601.349	0.0159595
601.427	0.0161332
601.505	0.0160208
601.583	0.0158469
601.661	0.0158186
601.739	0.0158756
601.817	0.0160973
601.896	0.0159461
601.974	0.0159605
602.052	0.0158413
602.130	0.0158471
602.208	0.0156882
602.286	0.0158137
602.364	0.0158666
602.442	0.0158434
602.521	0.0157840
602.599	0.0156986
602.677	0.0158058
602.755	0.0158241
602.833	0.0157007
602.911	0.0158717
602.989	0.0159505
603.067	0.0159238
603.146	0.0158970
603.224	0.0158529
603.302	0.0158345
603.380	0.0158204
603.458	0.0159069
603.536	0.0159232
603.614	0.0158543
603.692	0.0159764
603.771	0.0158427
603.849	0.0158134
603.927	0.0159538
604.005	0.0160074
604.083	0.0158930
604.161	0.0159166
604.239	0.0159288
604.317	0.0157338
604.396	0.0158698
604.474	0.0158928
604.552	0.0157079
604.630	0.0159632
604.708	0.0160329
604.786	0.0160108
604.864	0.0159327
604.942	0.0159505
605.021	0.0159021
605.099	0.0159986
605.177	0.0160802
605.255	0.0159869
605.333	0.0158776
605.411	0.0160223
605.489	0.0160275
605.567	0.0159734
605.646	0.0160273
605.724	0.0159985
605.802	0.0160007
605.880	0.0161187
605.958	0.0161353
606.036	0.0160112
606.114	0.0159730
606.192	0.0160970
606.271	0.0161932
606.349	0.0162653
606.427	0.0160457
606.505	0.0161908
606.583	0.0162366
606.661	0.0162434
606.739	0.0162659
606.817	0.0164380
606.896	0.0163698
606.974	0.0164011
607.052	0.0162811
607.130	0.0164105
607.208	0.0164204
607.286	0.0165585
607.364	0.0164533
607.442	0.0165558
607.521	0.0165587
607.599	0.0166063
607.677	0.0167219
607.755	0.0165498
607.833	0.0165413
607.911	0.0164452
607.989	0.0166541
608.067	0.0167551
608.146	0.0166367
608.224	0.0166362
608.302	0.0168059
608.380	0.0167413
608.458	0.0166644
608.536	0.0167210
608.614	0.0168253
608.692	0.0167696
608.771	0.0167245
608.849	0.0166782
608.927	0.0166731
609.005	0.0166738
609.083	0.0166382
609.161	0.0164989
609.239	0.0166434
609.317	0.0165207
609.396	0.0165388
609.474	0.0166454
609.552	0.0165029
609.630	0.0163356
609.708	0.0164271
609.786	0.0163409
609.864	0.0164427
609.942	0.0163708
610.021	0.0163024
610.099	0.0164794
610.177	0.0162614
610.255	0.0162551
610.333	0.0162963
610.411	0.0163730
610.489	0.0163977
610.567	0.0163765
610.646	0.0163897
610.724	0.0164594
610.802	0.0166844
610.880	0.0166228
610.958	0.0165323
611.036	0.0166161
611.114	0.0165856
611.192	0.0166850
611.271	0.0167266
611.349	0.0168568
611.427	0.0169116
611.505	0.0168517
611.583	0.0168146
611.661	0.0168565
611.739	0.0167867
611.817	0.0168268
611.896	0.0169454
611.974	0.0168353
612.052	0.0169081
612.130	0.0168970
612.208	0.0169310
612.286	0.0166705
612.364	0.0168548
612.442	0.0169267
612.521	0.0167587
612.599	0.0168299
612.677	0.0169244
612.755	0.0168584
612.833	0.0166873
612.911	0.0167162
612.989	0.0166267
613.067	0.0166132
613.146	0.0165303
613.224	0.0164818
613.302	0.0164307
613.380	0.0162119
613.458	0.0162288
613.536	0.0161729
613.614	0.0161790
613.692	0.0159491
613.771	0.0159584
613.849	0.0159368
613.927	0.0158371
614.005	0.0157172
614.083	0.0158633
614.161	0.0156063
614.239	0.0156390
614.317	0.0155629
614.396	0.0156374
614.474	0.0155417
614.552	0.0155605
614.630	0.0156170
614.708	0.0156642
614.786	0.0155502
614.864	0.0156348
614.942	0.0157400
615.021	0.0157117
615.099	0.0157504
615.177	0.0157693
615.255	0.0158160
615.333	0.0159010
615.411	0.0160738
615.489	0.0159598
615.567	0.0159389
615.646	0.0160126
615.724	0.0162365
615.802	0.0161466
615.880	0.0162232
615.958	0.0163766
616.036	0.0164104
616.114	0.0163498
616.192	0.0165180
616.271	0.0165582
616.349	0.0165741
616.427	0.0166497
616.505	0.0165635
616.583	0.0165119
616.661	0.0166785
616.739	0.0166522
616.817	0.0166100
616.896	0.0166676
616.974	0.0165926
617.052	0.0165599
617.130	0.0165028
617.208	0.0163960
617.286	0.0164729
617.364	0.0163651
617.442	0.0162610
617.521	0.0162936
617.599	0.0163537
617.677	0.0162636
617.755	0.0161712
617.833	0.0162462
617.911	0.0161181
617.989	0.0159989
618.067	0.0159691
618.146	0.0161204
618.224	0.0161207
618.302	0.0159634
618.380	0.0158637
618.458	0.0157230
618.536	0.0155883
618.614	0.0155495
618.692	0.0155037
618.771	0.0151799
618.849	0.0151490
618.927	0.0150968
619.005	0.0149702
619.083	0.0148795
619.161	0.0147809
619.239	0.0146586
619.317	0.0145092
619.396	0.0146313
619.474	0.0146094
619.552	0.0146460
619.630	0.0147952
619.708	0.0148223
619.786	0.0148732
619.864	0.0147487
619.942	0.0148824
620.021	0.0149995
620.099	0.0149934
620.177	0.0149703
620.255	0.0150604
620.333	0.0152094
620.411	0.0151883
620.489	0.0152190
620.567	0.0151658
620.646	0.0152195
620.724	0.0153152
620.802	0.0153989
620.880	0.0153771
620.958	0.0154871
621.036	0.0155949
621.114	0.0154105
621.192	0.0156127
621.271	0.0156535
621.349	0.0157063
621.427	0.0157751
621.505	0.0158958
621.583	0.0160038
621.661	0.0159326
621.739	0.0161112
621.817	0.0162199
621.896	0.0162118
621.974	0.0163773
622.052	0.0165229
622.130	0.0164233
622.208	0.0164783
622.286	0.0165002
622.364	0.0167314
622.442	0.0169320
622.521	0.0168382
622.599	0.0167100
622.677	0.0169778
622.755	0.0169472
622.833	0.0169894
622.911	0.0168610
622.989	0.0168851
623.067	0.0169012
623.146	0.0167628
623.224	0.0168367
623.302	0.0166893
623.380	0.0166002
623.458	0.0164822
623.536	0.0166278
623.614	0.0164349
623.692	0.0162596
623.771	0.0163142
623.849	0.0163064
623.927	0.0162190
624.005	0.0160703
624.083	0.0162031
624.161	0.0161285
624.239	0.0160130
624.317	0.0161018
624.396	0.0159419
624.474	0.0158228
624.552	0.0160668
624.630	0.0160667
624.708	0.0159695
624.786	0.0160851
624.864	0.0161029
624.942	0.0159872
625.021	0.0160743
625.099	0.0160579
625.177	0.0158547
625.255	0.0160791
625.333	0.0159673
625.411	0.0160446
625.489	0.0161485
625.567	0.0160896
625.646	0.0160083
625.724	0.0161182
625.802	0.0160881
625.880	0.0160171
625.958	0.0158946
626.036	0.0158321
626.114	0.0160349
626.192	0.0158841
626.271	0.0159743
626.349	0.0159222
626.427	0.0159641
626.505	0.0159191
626.583	0.0159532
626.661	0.0158504
626.739	0.0159639
626.817	0.0158991
626.896	0.0157769
626.974	0.0158411
627.052	0.0157987
627.130	0.0157801
627.208	0.0158026
627.286	0.0158250
627.364	0.0159718
627.442	0.0158369
627.521	0.0158157
627.599	0.0159034
627.677	0.0159418
627.755	0.0158137
627.833	0.0159689
627.911	0.0159940
627.989	0.0160220
628.067	0.0160106
628.146	0.0160722
628.224	0.0159923
628.302	0.0160442
628.380	0.0162612
628.458	0.0162175
628.536	0.0161718
628.614	0.0161477
628.692	0.0162576
628.771	0.0163130
628.849	0.0162945
628.927	0.0162688
629.005	0.0162805
629.083	0.0163651
629.161	0.0163360
629.239	0.0163921
629.317	0.0163454
629.396	0.0163951
629.474	0.0163843
629.552	0.0162663
629.630	0.0162350
629.708	0.0163522
629.786	0.0164581
629.864	0.0163004
629.942	0.0164626
630.021	0.0163480
630.099	0.0164541
630.177	0.0164343
630.255	0.0164845
630.333	0.0164712
630.411	0.0163954
630.489	0.0164650
630.567	0.0164767
630.646	0.0164400
630.724	0.0164312
630.802	0.0165120
630.880	0.0166348
630.958	0.0165379
631.036	0.0165929
631.114	0.0165710
631.192	0.0165656
631.271	0.0166501
631.349	0.0166895
631.427	0.0167062
631.505	0.0166531
631.583	0.0165572
631.661	0.0166628
631.739	0.0166101
631.817	0.0165366
631.896	0.0165551
631.974	0.0166036
632.052	0.0166398
632.130	0.0164512
632.208	0.0164999
632.286	0.0165109
632.364	0.0166538
632.442	0.0166030
632.521	0.0166846
632.599	0.0165225
632.677	0.0167303
632.755	0.0165968
632.833	0.0165823
632.911	0.0166769
632.989	0.0166125
633.067	0.0167153
633.146	0.0168457
633.224	0.0168619
633.302	0.0168595
633.380	0.0168114
633.458	0.0167381
633.536	0.0167470
633.614	0.0166841
633.692	0.0167632
633.771	0.0167814
633.849	0.0166077
633.927	0.0167326
634.005	0.0166367
634.083	0.0165334
634.161	0.0165936
634.239	0.0167188
634.317	0.0166232
634.396	0.0167558
634.474	0.0165779
634.552	0.0167145
634.630	0.0165363
634.708	0.0165684
634.786	0.0166790
634.864	0.0166940
634.942	0.0165592
635.021	0.0165806
635.099	0.0164665
635.177	0.0166171
635.255	0.0164798
635.333	0.0165038
635.411	0.0166759
635.489	0.0165064
635.567	0.0164108
635.646	0.0165111
635.724	0.0165313
635.802	0.0165546
635.880	0.0164819
635.958	0.0165985
636.036	0.0166835
636.114	0.0165545
636.192	0.0166407
636.271	0.0164726
636.349	0.0165872
636.427	0.0164957
636.505	0.0165809
636.583	0.0165859
636.661	0.0164230
636.739	0.0163826
636.817	0.0164492
636.896	0.0163721
636.974	0.0163701
637.052	0.0162810
637.130	0.0163786
637.208	0.0162576
637.286	0.0160973
637.364	0.0162935
637.442	0.0163011
637.521	0.0161995
637.599	0.0160795
637.677	0.0161729
637.755	0.0161104
637.833	0.0159822
637.911	0.0160043
637.989	0.0160320
638.067	0.0161574
638.146	0.0159684
638.224	0.0158337
638.302	0.0156899
638.380	0.0156702
638.458	0.0157623
638.536	0.0157851
638.614	0.0155875
638.692	0.0156048
638.771	0.0157408
638.849	0.0156654
638.927	0.0157311
639.005	0.0156184
639.083	0.0158478
639.161	0.0159738
639.239	0.0156449
639.317	0.0155737
639.396	0.0158607
639.474	0.0159683
639.552	0.0159637
639.630	0.0159521
639.708	0.0159280
639.786	0.0159541
639.864	0.0160606
639.942	0.0161044
640.021	0.0161381
640.099	0.0163234
640.177	0.0161310
640.255	0.0161142
640.333	0.0162956
640.411	0.0162711
640.489	0.0163002
640.567	0.0163931
640.646	0.0163304
640.724	0.0163078
640.802	0.0166016
640.880	0.0164123
640.958	0.0162979
641.036	0.0161876
641.114	0.0162895
641.192	0.0162571
641.271	0.0163419
641.349	0.0162737
641.427	0.0160728
641.505	0.0160430
641.583	0.0160751
641.661	0.0160592
641.739	0.0160842
641.817	0.0160387
641.896	0.0160255
641.974	0.0161212
642.052	0.0158996
642.130	0.0159653
642.208	0.0159592
642.286	0.0160244
642.364	0.0158859
642.442	0.0159143
642.521	0.0159537
642.599	0.0159589
642.677	0.0160979
642.755	0.0158946
642.833	0.0159936
642.911	0.0159477
642.989	0.0157583
643.067	0.0156940
643.146	0.0156921
643.224	0.0158058
643.302	0.0157362
643.380	0.0156332
643.458	0.0156223
643.536	0.0157267
643.614	0.0156287
643.692	0.0157268
643.771	0.0157718
643.849	0.0157737
643.927	0.0157104
644.005	0.0158413
644.083	0.0158482
644.161	0.0159733
644.239	0.0160342
644.317	0.0160402
644.396	0.0160947
644.474	0.0161489
644.552	0.0161246
644.630	0.0161189
644.708	0.0161042
644.786	0.0162965
644.864	0.0161401
644.942	0.0163309
645.021	0.0162785
645.099	0.0161347
645.177	0.0161593
645.255	0.0161754
645.333	0.0162791
645.411	0.0164013
645.489	0.0163409
645.567	0.0163595
645.646	0.0161469
645.724	0.0163692
645.802	0.0163713
645.880	0.0164974
645.958	0.0164146
646.036	0.0165586
646.114	0.0166842
646.192	0.0167152
646.271	0.0167338
646.349	0.0167180
646.427	0.0168414
646.505	0.0168526
646.583	0.0168839
646.661	0.0169181
646.739	0.0169205
646.817	0.0170045
646.896	0.0169146
646.974	0.0169520
647.052	0.0169212
647.130	0.0167289
647.208	0.0168598
647.286	0.0167850
647.364	0.0166759
647.442	0.0167445
647.521	0.0167123
647.599	0.0166711
647.677	0.0166920
647.755	0.0165955
647.833	0.0165528
647.911	0.0166273
647.989	0.0165211
648.067	0.0165652
648.146	0.0166694
648.224	0.0164986
648.302	0.0164608
648.380	0.0163937
648.458	0.0163821
648.536	0.0162202
648.614	0.0163906
648.692	0.0161572
648.771	0.0162558
648.849	0.0161877
648.927	0.0160268
649.005	0.0160062
649.083	0.0160631
649.161	0.0159698
649.239	0.0159252
649.317	0.0159766
649.396	0.0160032
649.474	0.0159790
649.552	0.0159048
649.630	0.0160833
649.708	0.0158897
649.786	0.0158529
649.864	0.0158418
649.942	0.0161757
650.021	0.0162357
650.099	0.0162094
650.177	0.0161514
650.255	0.0162682
650.333	0.0163042
650.411	0.0162514
650.489	0.0164895
650.567	0.0163838
650.646	0.0164114
650.724	0.0165119
650.802	0.0165226
650.880	0.0165907
650.958	0.0165144
651.036	0.0166261
651.114	0.0167362
651.192	0.0166956
651.271	0.0167566
651.349	0.0167248
651.427	0.0168204
651.505	0.0168624
651.583	0.0168617
651.661	0.0167258
651.739	0.0168344
651.817	0.0167681
651.896	0.0169559
651.974	0.0168458
652.052	0.0167999
652.130	0.0169200
652.208	0.0167692
652.286	0.0166916
652.364	0.0167915
652.442	0.0167038
652.521	0.0167632
652.599	0.0166407
652.677	0.0165950
652.755	0.0165654
652.833	0.0165985
652.911	0.0166351
652.989	0.0165221
653.067	0.0165781
653.146	0.0165240
653.224	0.0165056
653.302	0.0163378
653.380	0.0166721
653.458	0.0164716
653.536	0.0164011
653.614	0.0164126
653.692	0.0165401
653.771	0.0164426
653.849	0.0163750
653.927	0.0163656
654.005	0.0163342
654.083	0.0163095
654.161	0.0163808
654.239	0.0163623
654.317	0.0162494
654.396	0.0164149
654.474	0.0164628
654.552	0.0163719
654.630	0.0164791
654.708	0.0164860
654.786	0.0164551
654.864	0.0165233
654.942	0.0164735
655.021	0.0165705
655.099	0.0165476
655.177	0.0164287
655.255	0.0165228
655.333	0.0165279
655.411	0.0162881
655.489	0.0164687
655.567	0.0165438
655.646	0.0163788
655.724	0.0163684
655.802	0.0163636
655.880	0.0164064
655.958	0.0163953
656.036	0.0162623
656.114	0.0163379
656.192	0.0165142
656.271	0.0166306
656.349	0.0164493
656.427	0.0163684
656.505	0.0164764
656.583	0.0164974
656.661	0.0165260
656.739	0.0164495
656.817	0.0164075
656.896	0.0163545
656.974	0.0163968
657.052	0.0162936
657.130	0.0162526
657.208	0.0161281
657.286	0.0161770
657.364	0.0160423
657.442	0.0162027
657.521	0.0162000
657.599	0.0160005
657.677	0.0160612
657.755	0.0160007
657.833	0.0160466
657.911	0.0161259
657.989	0.0161778
658.067	0.0160966
658.146	0.0161812
658.224	0.0162532
658.302	0.0162930
658.380	0.0160248
658.458	0.0161092
658.536	0.0160889
658.614	0.0160232
658.692	0.0160117
658.771	0.0159830
658.849	0.0161081
658.927	0.0160993
659.005	0.0160670
659.083	0.0159888
659.161	0.0159193
659.239	0.0158482
659.317	0.0157640
659.396	0.0159093
659.474	0.0159117
659.552	0.0158083
659.630	0.0158172
659.708	0.0157951
659.786	0.0157398
659.864	0.0159004
659.942	0.0159463
660.021	0.0158604
660.099	0.0158965
660.177	0.0158111
660.255	0.0158363
660.333	0.0159375
660.411	0.0159669
660.489	0.0160469
660.567	0.0158347
660.646	0.0157452
660.724	0.0158498
660.802	0.0159684
660.880	0.0158511
660.958	0.0158720
661.036	0.0158135
661.114	0.0160258
661.192	0.0160397
661.271	0.0159058
661.349	0.0161091
661.427	0.0160630
661.505	0.0161325
661.583	0.0162184
661.661	0.0163013
661.739	0.0160369
661.817	0.0161332
661.896	0.0162276
661.974	0.0164094
662.052	0.0162992
662.130	0.0161576
662.208	0.0162483
662.286	0.0162243
662.364	0.0161725
662.442	0.0162710
662.521	0.0163751
662.599	0.0162835
662.677	0.0162462
662.755	0.0161787
662.833	0.0162553
662.911	0.0162087
662.989	0.0161951
663.067	0.0163101
663.146	0.0162231
663.224	0.0160646
663.302	0.0162035
663.380	0.0160908
663.458	0.0161707
663.536	0.0160624
663.614	0.0160686
663.692	0.0161095
663.771	0.0161662
663.849	0.0159715
663.927	0.0161349
664.005	0.0162449
664.083	0.0161732
664.161	0.0159931
664.239	0.0158961
664.317	0.0159232
664.396	0.0160291
664.474	0.0160067
664.552	0.0160435
664.630	0.0159457
664.708	0.0160138
664.786	0.0158849
664.864	0.0159669
664.942	0.0159894
665.021	0.0159655
665.099	0.0158153
665.177	0.0158508
665.255	0.0159110
665.333	0.0159241
665.411	0.0157410
665.489	0.0159470
665.567	0.0160625
665.646	0.0159312
665.724	0.0160086
665.802	0.0159017
665.880	0.0160355
665.958	0.0161014
666.036	0.0159477
666.114	0.0159727
666.192	0.0160255
666.271	0.0159798
666.349	0.0160836
666.427	0.0162248
666.505	0.0161002
666.583	0.0159569
666.661	0.0162399
666.739	0.0163622
666.817	0.0162389
666.896	0.0161908
666.974	0.0161658
667.052	0.0163173
667.130	0.0163134
667.208	0.0162658
667.286	0.0163519
667.364	0.0163467
667.442	0.0161507
667.521	0.0161651
667.599	0.0163226
667.677	0.0162823
667.755	0.0161806
667.833	0.0161770
667.911	0.0161969
667.989	0.0161537
668.067	0.0160754
668.146	0.0160951
668.224	0.0161128
668.302	0.0158959
668.380	0.0161996
668.458	0.0162399
668.536	0.0161768
668.614	0.0162816
668.692	0.0162572
668.771	0.0162141
668.849	0.0162646
668.927	0.0163317
669.005	0.0163408
669.083	0.0163392
669.161	0.0163867
669.239	0.0164310
669.317	0.0164639
669.396	0.0164721
669.474	0.0165349
669.552	0.0165044
669.630	0.0165108
669.708	0.0166389
669.786	0.0166445
669.864	0.0166549
669.942	0.0167348
670.021	0.0167779
670.099	0.0168816
670.177	0.0166805
670.255	0.0168954
670.333	0.0169234
670.411	0.0168917
670.489	0.0168376
670.567	0.0168257
670.646	0.0168420
670.724	0.0169405
670.802	0.0169720
670.880	0.0167893
670.958	0.0168110
671.036	0.0167449
671.114	0.0167639
671.192	0.0168206
671.271	0.0167883
671.349	0.0167001
671.427	0.0167190
671.505	0.0167728
671.583	0.0167088
671.661	0.0168084
671.739	0.0165431
671.817	0.0165159
671.896	0.0166698
671.974	0.0167208
672.052	0.0166183
672.130	0.0164700
672.208	0.0164559
672.286	0.0165298
672.364	0.0165150
672.442	0.0164184
672.521	0.0162091
672.599	0.0164187
672.677	0.0164098
672.755	0.0161504
672.833	0.0163973
672.911	0.0163824
672.989	0.0162913
673.067	0.0163106
673.146	0.0161134
673.224	0.0161171
673.302	0.0159990
673.380	0.0161048
673.458	0.0161534
673.536	0.0161362
673.614	0.0161043
673.692	0.0161464
673.771	0.0161606
673.849	0.0162628
673.927	0.0161717
674.005	0.0162540
674.083	0.0162937
674.161	0.0162004
674.239	0.0162278
674.317	0.0164352
674.396	0.0163715
674.474	0.0161877
674.552	0.0163043
674.630	0.0163060
674.708	0.0163044
674.786	0.0162783
674.864	0.0162962
674.942	0.0162580
675.021	0.0162653
675.099	0.0163840
675.177	0.0163199
675.255	0.0164516
675.333	0.0164127
675.411	0.0163654
675.489	0.0164953
675.567	0.0164330
675.646	0.0165681
675.724	0.0165569
675.802	0.0164353
675.880	0.0165247
675.958	0.0165935
676.036	0.0164573
676.114	0.0165288
676.192	0.0165028
676.271	0.0165295
676.349	0.0165979
676.427	0.0165332
676.505	0.0164593
676.583	0.0164402
676.661	0.0164794
676.739	0.0164423
676.817	0.0164764
676.896	0.0163158
676.974	0.0163287
677.052	0.0162711
677.130	0.0164104
677.208	0.0162535
677.286	0.0162996
677.364	0.0163198
677.442	0.0162508
677.521	0.0162683
677.599	0.0162960
677.677	0.0160923
677.755	0.0162313
677.833	0.0160794
677.911	0.0159969
677.989	0.0160448
678.067	0.0162524
678.146	0.0160479
678.224	0.0161277
678.302	0.0160677
678.380	0.0160794
678.458	0.0160429
678.536	0.0160166
678.614	0.0161964
678.692	0.0160928
678.771	0.0160613
678.849	0.0159734
678.927	0.0159773
679.005	0.0162268
679.083	0.0161570
679.161	0.0162534
679.239	0.0161646
679.317	0.0161823
679.396	0.0162396
679.474	0.0161790
679.552	0.0162125
679.630	0.0163405
679.708	0.0162023
679.786	0.0162398
679.864	0.0162076
679.942	0.0162281
680.021	0.0162575
680.099	0.0162922
680.177	0.0161400
680.255	0.0162013
680.333	0.0161220
680.411	0.0160088
680.489	0.0160471
680.567	0.0159848
680.646	0.0159409
680.724	0.0159470
680.802	0.0159866
680.880	0.0160231
680.958	0.0158534
681.036	0.0158635
681.114	0.0160666
681.192	0.0160059
681.271	0.0159756
681.349	0.0159576
681.427	0.0159071
681.505	0.0161855
681.583	0.0160591
681.661	0.0160248
681.739	0.0159380
681.817	0.0161658
681.896	0.0160245
681.974	0.0159851
682.052	0.0159060
682.130	0.0159915
682.208	0.0160407
682.286	0.0159004
682.364	0.0158512
682.442	0.0158190
682.521	0.0157467
682.599	0.0158185
682.677	0.0157776
682.755	0.0156674
682.833	0.0157561
682.911	0.0158096
682.989	0.0157522
683.067	0.0156915
683.146	0.0156454
683.224	0.0157191
683.302	0.0157101
683.380	0.0157382
683.458	0.0157298
683.536	0.0156448
683.614	0.0157931
683.692	0.0158489
683.771	0.0157655
683.849	0.0157028
683.927	0.0157413
684.005	0.0157378
684.083	0.0157922
684.161	0.0157225
684.239	0.0157800
684.317	0.0158480
684.396	0.0158534
684.474	0.0160049
684.552	0.0158258
684.630	0.0159439
684.708	0.0158517
684.786	0.0158159
684.864	0.0160197
684.942	0.0160804
685.021	0.0160057
685.099	0.0160746
685.177	0.0160516
685.255	0.0161568
685.333	0.0162066
685.411	0.0161176
685.489	0.0162354
685.567	0.0161568
685.646	0.0162681
685.724	0.0162309
685.802	0.0162437
685.880	0.0164229
685.958	0.0164046
686.036	0.0162173
686.114	0.0162299
686.192	0.0163951
686.271	0.0162299
686.349	0.0161610
686.427	0.0163531
686.505	0.0163357
686.583	0.0162929
686.661	0.0161613
686.739	0.0161709
686.817	0.0162003
686.896	0.0162511
686.974	0.0162174
687.052	0.0162204
687.130	0.0162315
687.208	0.0162122
687.286	0.0161918
687.364	0.0162034
687.442	0.0162188
687.521	0.0164027
687.599	0.0162025
687.677	0.0162867
687.755	0.0163637
687.833	0.0162962
687.911	0.0163756
687.989	0.0162975
688.067	0.0162474
688.146	0.0162777
688.224	0.0163421
688.302	0.0162613
688.380	0.0162143
688.458	0.0162158
688.536	0.0161337
688.614	0.0160559
688.692	0.0160324
688.771	0.0162151
688.849	0.0160838
688.927	0.0159785
689.005	0.0161144
689.083	0.0159245
689.161	0.0160605
689.239	0.0159785
689.317	0.0159446
689.396	0.0160446
689.474	0.0159253
689.552	0.0160050
689.630	0.0159746
689.708	0.0160828
689.786	0.0160265
689.864	0.0161012
689.942	0.0160425
690.021	0.0160396
690.099	0.0159961
690.177	0.0161166
690.255	0.0161548
690.333	0.0162319
690.411	0.0162748
690.489	0.0161552
690.567	0.0160573
690.646	0.0160551
690.724	0.0161583
690.802	0.0159899
690.880	0.0160857
690.958	0.0160730
691.036	0.0159745
691.114	0.0160465
691.192	0.0160287
691.271	0.0160324
691.349	0.0160349
691.427	0.0158968
691.505	0.0160719
691.583	0.0160804
691.661	0.0160088
691.739	0.0161617
691.817	0.0162064
691.896	0.0163280
691.974	0.0162298
692.052	0.0162774
692.130	0.0161174
692.208	0.0161520
692.286	0.0163071
692.364	0.0161504
692.442	0.0161323
692.521	0.0159754
692.599	0.0161255
692.677	0.0160236
692.755	0.0159853
692.833	0.0159617
692.911	0.0158865
692.989	0.0158906
693.067	0.0160622
693.146	0.0161086
693.224	0.0160674
693.302	0.0159698
693.380	0.0160140
693.458	0.0161355
693.536	0.0159680
693.614	0.0160265
693.692	0.0161362
693.771	0.0162784
693.849	0.0161304
693.927	0.0161362
694.005	0.0163206
694.083	0.0162063
694.161	0.0160942
694.239	0.0160484
694.317	0.0162449
694.396	0.0162437
694.474	0.0161774
694.552	0.0160661
694.630	0.0162085
694.708	0.0161591
694.786	0.0160055
694.864	0.0161289
694.942	0.0160939
695.021	0.0162234
695.099	0.0161869
695.177	0.0161476
695.255	0.0162134
695.333	0.0161529
695.411	0.0163245
695.489	0.0162632
695.567	0.0162357
695.646	0.0163513
695.724	0.0163204
695.802	0.0164456
695.880	0.0164259
695.958	0.0164075
696.036	0.0164231
696.114	0.0164274
696.192	0.0164265
696.271	0.0164521
696.349	0.0164120
696.427	0.0163122
696.505	0.0164275
696.583	0.0165343
696.661	0.0163573
696.739	0.0163730
696.817	0.0164311
696.896	0.0165054
696.974	0.0164207
697.052	0.0163293
697.130	0.0164791
697.208	0.0163925
697.286	0.0165101
697.364	0.0164381
697.442	0.0163984
697.521	0.0165418
697.599	0.0165311
697.677	0.0163833
697.755	0.0165405
697.833	0.0165198
697.911	0.0165604
697.989	0.0165625
698.067	0.0166205
698.146	0.0166579
698.224	0.0164683
698.302	0.0166235
698.380	0.0164983
698.458	0.0164814
698.536	0.0165129
698.614	0.0164394
698.692	0.0164733
698.771	0.0164774
698.849	0.0164320
698.927	0.0164082
699.005	0.0163882
699.083	0.0163689
699.161	0.0164552
699.239	0.0164152
699.317	0.0164004
699.396	0.0163933
699.474	0.0164974
699.552	0.0163604
699.630	0.0165729
699.708	0.0164145
699.786	0.0165058
699.864	0.0165653
699.942	0.0163637
700.021	0.0164194
700.099	0.0164871
700.177	0.0163857
700.255	0.0164179
700.333	0.0163725
700.411	0.0163286
700.489	0.0163371
700.567	0.0161683
700.646	0.0161596
700.724	0.0161495
700.802	0.0161684
700.880	0.0161589
700.958	0.0161134
701.036	0.0160710
701.114	0.0162625
701.192	0.0161819
701.271	0.0159644
701.349	0.0162910
701.427	0.0161084
701.505	0.0161734
701.583	0.0162489
701.661	0.0161602
701.739	0.0163640
701.817	0.0161390
701.896	0.0161311
701.974	0.0162994
702.052	0.0162685
702.130	0.0162516
702.208	0.0161953
702.286	0.0163506
702.364	0.0162706
702.442	0.0162379
702.521	0.0162861
702.599	0.0161874
702.677	0.0161139
702.755	0.0162627
702.833	0.0162899
702.911	0.0161002
702.989	0.0162488
703.067	0.0162624
703.146	0.0160218
703.224	0.0160390
703.302	0.0160488
703.380	0.0160980
703.458	0.0161243
703.536	0.0158887
703.614	0.0158286
703.692	0.0158864
703.771	0.0158991
703.849	0.0158265
703.927	0.0157500
704.005	0.0157344
704.083	0.0157850
704.161	0.0157314
704.239	0.0156313
704.317	0.0156645
704.396	0.0157204
704.474	0.0157069
704.552	0.0157010
704.630	0.0157294
704.708	0.0157599
704.786	0.0157085
704.864	0.0156867
704.942	0.0157250
705.021	0.0157887
705.099	0.0158865
705.177	0.0157928
705.255	0.0158470
705.333	0.0159879
705.411	0.0159440
705.489	0.0160261
705.567	0.0159947
705.646	0.0160491
705.724	0.0162780
705.802	0.0161539
705.880	0.0161948
705.958	0.0162508
706.036	0.0162540
706.114	0.0162017
706.192	0.0162885
706.271	0.0162074
706.349	0.0161327
706.427	0.0160963
706.505	0.0163074
706.583	0.0161009
706.661	0.0160595
706.739	0.0160532
706.817	0.0159800
706.896	0.0159759
706.974	0.0158823
707.052	0.0158878
707.130	0.0160746
707.208	0.0158940
707.286	0.0159255
707.364	0.0159514
707.442	0.0160725
707.521	0.0160589
707.599	0.0160203
707.677	0.0160606
707.755	0.0160555
707.833	0.0160847
707.911	0.0160953
707.989	0.0159932
708.067	0.0161523
708.146	0.0160321
708.224	0.0160221
708.302	0.0159648
708.380	0.0160329
708.458	0.0160069
708.536	0.0160163
708.614	0.0160213
708.692	0.0160310
708.771	0.0161388
708.849	0.0161469
708.927	0.0162013
709.005	0.0160825
709.083	0.0162280
709.161	0.0163468
709.239	0.0164364
709.317	0.0165054
709.396	0.0165238
709.474	0.0164623
709.552	0.0166737
709.630	0.0166638
709.708	0.0167771
709.786	0.0169136
709.864	0.0169475
709.942	0.0168771
710.021	0.0171008
710.099	0.0171085
710.177	0.0169769
710.255	0.0171251
710.333	0.0172504
710.411	0.0172120
710.489	0.0172211
710.567	0.0173527
710.646	0.0173074
710.724	0.0172821
710.802	0.0171989
710.880	0.0172461
710.958	0.0172882
711.036	0.0173460
711.114	0.0172647
711.192	0.0172897
711.271	0.0171445
711.349	0.0171450
711.427	0.0172506
711.505	0.0172618
711.583	0.0169899
711.661	0.0169983
711.739	0.0170412
711.817	0.0169060
711.896	0.0169598
711.974	0.0166989
712.052	0.0167928
712.130	0.0167937
712.208	0.0168684
712.286	0.0167206
712.364	0.0165915
712.442	0.0165410
712.521	0.0167448
712.599	0.0166594
712.677	0.0164365
712.755	0.0164053
712.833	0.0166447
712.911	0.0166132
712.989	0.0166936
713.067	0.0166493
713.146	0.0167568
713.224	0.0167207
713.302	0.0167979
713.380	0.0167643
713.458	0.0166168
713.536	0.0167401
713.614	0.0167072
713.692	0.0166022
713.771	0.0165163
713.849	0.0163934
713.927	0.0162692
714.005	0.0161159
714.083	0.0159959
714.161	0.0159138
714.239	0.0157806
714.317	0.0158427
714.396	0.0155653
714.474	0.0155099
714.552	0.0153223
714.630	0.0153365
714.708	0.0153736
714.786	0.0153047
714.864	0.0153235
714.942	0.0152497
715.021	0.0153665
715.099	0.0155923
715.177	0.0156017
715.255	0.0156855
715.333	0.0158572
715.411	0.0158199
715.489	0.0159553
715.567	0.0161578
715.646	0.0161545
715.724	0.0161923
715.802	0.0163916
715.880	0.0165115
715.958	0.0164890
716.036	0.0164916
716.114	0.0166605
716.192	0.0166685
716.271	0.0165413
716.349	0.0164785
716.427	0.0165591
716.505	0.0165056
716.583	0.0165219
716.661	0.0164619
716.739	0.0164264
716.817	0.0164526
716.896	0.0163558
716.974	0.0163364
717.052	0.0162650
717.130	0.0161877
717.208	0.0163441
717.286	0.0161505
717.364	0.0162798
717.442	0.0162522
717.521	0.0160912
717.599	0.0160784
717.677	0.0160831
717.755	0.0162415
717.833	0.0160081
717.911	0.0160034
717.989	0.0160602
718.067	0.0159959
718.146	0.0160728
718.224	0.0162167
718.302	0.0162438
718.380	0.0163847
718.458	0.0163799
718.536	0.0165119
718.614	0.0164603
718.692	0.0165480
718.771	0.0166291
718.849	0.0167575
718.927	0.0168111
719.005	0.0169028
719.083	0.0167764
719.161	0.0168204
719.239	0.0169245
719.317	0.0169350
719.396	0.0167194
719.474	0.0167446
719.552	0.0167735
719.630	0.0167449
719.708	0.0167590
719.786	0.0166631
719.864	0.0167586
719.942	0.0167390
720.021	0.0166468
720.099	0.0166756
720.177	0.0165823
720.255	0.0166251
720.333	0.0165472
720.411	0.0166770
720.489	0.0166097
720.567	0.0165967
720.646	0.0165798
720.724	0.0165521
720.802	0.0165559
720.880	0.0166518
720.958	0.0166474
721.036	0.0165295
721.114	0.0165871
721.192	0.0167772
721.271	0.0166299
721.349	0.0165630
721.427	0.0167887
721.505	0.0167821
721.583	0.0167294
721.661	0.0166521
721.739	0.0166989
721.817	0.0166568
721.896	0.0167164
721.974	0.0165535
722.052	0.0165575
722.130	0.0164689
722.208	0.0164161
722.286	0.0164687
722.364	0.0164663
722.442	0.0164541
722.521	0.0163606
722.599	0.0163605
722.677	0.0163211
722.755	0.0164440
722.833	0.0165144
722.911	0.0162852
722.989	0.0164013
723.067	0.0164462
723.146	0.0163567
723.224	0.0164338
723.302	0.0165278
723.380	0.0164848
723.458	0.0163929
723.536	0.0162347
723.614	0.0163492
723.692	0.0164330
723.771	0.0164359
723.849	0.0161945
723.927	0.0162752
724.005	0.0162619
724.083	0.0161786
724.161	0.0160478
724.239	0.0161329
724.317	0.0159184
724.396	0.0159702
724.474	0.0158521
724.552	0.0158389
724.630	0.0157250
724.708	0.0157344
724.786	0.0157882
724.864	0.0157594
724.942	0.0157163
725.021	0.0156304
725.099	0.0155473
725.177	0.0154401
725.255	0.0154192
725.333	0.0153734
725.411	0.0154457
725.489	0.0153651
725.567	0.0154382
725.646	0.0154532
725.724	0.0154553
725.802	0.0155769
725.880	0.0156676
725.958	0.0156758
726.036	0.0156866
726.114	0.0158050
726.192	0.0156852
726.271	0.0158424
726.349	0.0159349
726.427	0.0160481
726.505	0.0159476
726.583	0.0160040
726.661	0.0160303
726.739	0.0158868
726.817	0.0159598
726.896	0.0159011
726.974	0.0158373
727.052	0.0158959
727.130	0.0158664
727.208	0.0159295
727.286	0.0158667
727.364	0.0159152
727.442	0.0158375
727.521	0.0159850
727.599	0.0157735
727.677	0.0157475
727.755	0.0156481
727.833	0.0156414
727.911	0.0156501
727.989	0.0157078
728.067	0.0157432
728.146	0.0156167
728.224	0.0156743
728.302	0.0155871
728.380	0.0158069
728.458	0.0158054
728.536	0.0157655
728.614	0.0158425
728.692	0.0158816
728.771	0.0158109
728.849	0.0158833
728.927	0.0159444
729.005	0.0161098
729.083	0.0161649
729.161	0.0162078
729.239	0.0161496
729.317	0.0164836
729.396	0.0163188
729.474	0.0163498
729.552	0.0164964
729.630	0.0165491
729.708	0.0165900
729.786	0.0166504
729.864	0.0167561
729.942	0.0168002
730.021	0.0167609
730.099	0.0167848
730.177	0.0168459
730.255	0.0167948
730.333	0.0168430
730.411	0.0168044
730.489	0.0168958
730.567	0.0168611
730.646	0.0168980
730.724	0.0168700
730.802	0.0167751
730.880	0.0168687
730.958	0.0168485
731.036	0.0169566
731.114	0.0168559
731.192	0.0167476
731.271	0.0169468
731.349	0.0166994
731.427	0.0167220
731.505	0.0167953
731.583	0.0167453
731.661	0.0167236
731.739	0.0167388
731.817	0.0167720
731.896	0.0166457
731.974	0.0166151
732.052	0.0165316
732.130	0.0165687
732.208	0.0166332
732.286	0.0165414
732.364	0.0164233
732.442	0.0166906
732.521	0.0165986
732.599	0.0165195
732.677	0.0164686
732.755	0.0164124
732.833	0.0164752
732.911	0.0164038
732.989	0.0163794
733.067	0.0164461
733.146	0.0163844
733.224	0.0163397
733.302	0.0163913
733.380	0.0162733
733.458	0.0164970
733.536	0.0164458
733.614	0.0165072
733.692	0.0164832
733.771	0.0164542
733.849	0.0164482
733.927	0.0164734
734.005	0.0166070
734.083	0.0165591
734.161	0.0166752
734.239	0.0167272
734.317	0.0167670
734.396	0.0168656
734.474	0.0169138
734.552	0.0168167
734.630	0.0168418
734.708	0.0168559
734.786	0.0168546
734.864	0.0168007
734.942	0.0167287
735.021	0.0168018
735.099	0.0167711
735.177	0.0168663
735.255	0.0166146
735.333	0.0165582
735.411	0.0165577
735.489	0.0164679
735.567	0.0164438
735.646	0.0165303
735.724	0.0163394
735.802	0.0161682
735.880	0.0161507
735.958	0.0160493
736.036	0.0160108
736.114	0.0160844
736.192	0.0160540
736.271	0.0159981
736.349	0.0159516
736.427	0.0159070
736.505	0.0159518
736.583	0.0160143
736.661	0.0159889
736.739	0.0159770
736.817	0.0159151
736.896	0.0159027
736.974	0.0159831
737.052	0.0161006
737.130	0.0160703
737.208	0.0159367
737.286	0.0158337
737.364	0.0160734
737.442	0.0159544
737.521	0.0159718
737.599	0.0159724
737.677	0.0158026
737.755	0.0157963
737.833	0.0157516
737.911	0.0158868
737.989	0.0158500
738.067	0.0159422
738.146	0.0159322
738.224	0.0159785
738.302	0.0158401
738.380	0.0158386
738.458	0.0159056
738.536	0.0159880
738.614	0.0159010
738.692	0.0160423
738.771	0.0160970
738.849	0.0162431
738.927	0.0162518
739.005	0.0162567
739.083	0.0163633
739.161	0.0162795
739.239	0.0164199
739.317	0.0166096
739.396	0.0165556
739.474	0.0165266
739.552	0.0164552
739.630	0.0165313
739.708	0.0166782
739.786	0.0167422
739.864	0.0168149
739.942	0.0166152
740.021	0.0167855
740.099	0.0169280
740.177	0.0169414
740.255	0.0170346
740.333	0.0170531
740.411	0.0170868
740.489	0.0170828
740.567	0.0169549
740.646	0.0170071
740.724	0.0171694
740.802	0.0170891
740.880	0.0169089
740.958	0.0170465
741.036	0.0171600
741.114	0.0171202
741.192	0.0169781
741.271	0.0169659
741.349	0.0170057
741.427	0.0169188
741.505	0.0168845
741.583	0.0169150
741.661	0.0167922
741.739	0.0166326
741.817	0.0166290
741.896	0.0168142
741.974	0.0166903
742.052	0.0166837
742.130	0.0164763
742.208	0.0165000
742.286	0.0165481
742.364	0.0165513
742.442	0.0165147
742.521	0.0163656
742.599	0.0165009
742.677	0.0164982
742.755	0.0165643
742.833	0.0164490
742.911	0.0164598
742.989	0.0165103
743.067	0.0163696
743.146	0.0164199
743.224	0.0166003
743.302	0.0164397
743.380	0.0163847
743.458	0.0164975
743.536	0.0164100
743.614	0.0162685
743.692	0.0162329
743.771	0.0163355
743.849	0.0162505
743.927	0.0160606
744.005	0.0161662
744.083	0.0163092
744.161	0.0161337
744.239	0.0162253
744.317	0.0161005
744.396	0.0160364
744.474	0.0161066
744.552	0.0159532
744.630	0.0159762
744.708	0.0158898
744.786	0.0160999
744.864	0.0160580
744.942	0.0159023
745.021	0.0159888
745.099	0.0159522
745.177	0.0158794
745.255	0.0158083
745.333	0.0157156
745.411	0.0159663
745.489	0.0158020
745.567	0.0158627
745.646	0.0157932
745.724	0.0157587
745.802	0.0157456
745.880	0.0157435
745.958	0.0157286
746.036	0.0156411
746.114	0.0156742
746.192	0.0158318
746.271	0.0158108
746.349	0.0157795
746.427	0.0157726
746.505	0.0157628
746.583	0.0158189
746.661	0.0158276
746.739	0.0156574
746.817	0.0158134
746.896	0.0159161
746.974	0.0157661
747.052	0.0158614
747.130	0.0157331
747.208	0.0158336
747.286	0.0157543
747.364	0.0158561
747.442	0.0158557
747.521	0.0158340
747.599	0.0158269
747.677	0.0159129
747.755	0.0158701
747.833	0.0160536
747.911	0.0159272
747.989	0.0159279
748.067	0.0159003
748.146	0.0159886
748.224	0.0161032
748.302	0.0159737
748.380	0.0160134
748.458	0.0160617
748.536	0.0160818
748.614	0.0161619
748.692	0.0162842
748.771	0.0160573
748.849	0.0162408
748.927	0.0162488
749.005	0.0162710
749.083	0.0163706
749.161	0.0163950
749.239	0.0165151
749.317	0.0162542
749.396	0.0164227
749.474	0.0164613
749.552	0.0164736
749.630	0.0164725
749.708	0.0165164
749.786	0.0165380
749.864	0.0164798
749.942	0.0164685
750.021	0.0163818
750.099	0.0163714
750.177	0.0163715
750.255	0.0164114
750.333	0.0162543
750.411	0.0163491
750.489	0.0161226
750.567	0.0160883
750.646	0.0161438
750.724	0.0161759
750.802	0.0160080
750.880	0.0161771
750.958	0.0159045
751.036	0.0158738
751.114	0.0159825
751.192	0.0159985
751.271	0.0157513
751.349	0.0158154
751.427	0.0160111
751.505	0.0161089
751.583	0.0159628
751.661	0.0159509
751.739	0.0159295
751.817	0.0159508
751.896	0.0160645
751.974	0.0160344
752.052	0.0160272
752.130	0.0160921
752.208	0.0160602
752.286	0.0161733
752.364	0.0161681
752.442	0.0161710
752.521	0.0160495
752.599	0.0160415
752.677	0.0160664
752.755	0.0161347
752.833	0.0161317
752.911	0.0162400
752.989	0.0161206
753.067	0.0161543
753.146	0.0162495
753.224	0.0163296
753.302	0.0162857
753.380	0.0163124
753.458	0.0161879
753.536	0.0162479
753.614	0.0163287
753.692	0.0163879
753.771	0.0163902
753.849	0.0160921
753.927	0.0163922
754.005	0.0164333
754.083	0.0164922
754.161	0.0165417
754.239	0.0164260
754.317	0.0164817
754.396	0.0165434
754.474	0.0162865
754.552	0.0165501
754.630	0.0166270
754.708	0.0165813
754.786	0.0166096
754.864	0.0165712
754.942	0.0164757
755.021	0.0167159
755.099	0.0165673
755.177	0.0165517
755.255	0.0166915
755.333	0.0167153
755.411	0.0167346
755.489	0.0169079
755.567	0.0167506
755.646	0.0166578
755.724	0.0166850
755.802	0.0168002
755.880	0.0168219
755.958	0.0167422
756.036	0.0167185
756.114	0.0166428
756.192	0.0165446
756.271	0.0165134
756.349	0.0164008
756.427	0.0163867
756.505	0.0163912
756.583	0.0164814
756.661	0.0163895
756.739	0.0162865
756.817	0.0162521
756.896	0.0162201
756.974	0.0162548
757.052	0.0161797
757.130	0.0161830
757.208	0.0160703
757.286	0.0162908
757.364	0.0161103
757.442	0.0160892
757.521	0.0160550
757.599	0.0160088
757.677	0.0160092
757.755	0.0158801
757.833	0.0159553
757.911	0.0159060
757.989	0.0156673
758.067	0.0158561
758.146	0.0155974
758.224	0.0155651
758.302	0.0154807
758.380	0.0154689
758.458	0.0154179
758.536	0.0154267
758.614	0.0154887
758.692	0.0154282
758.771	0.0155094
758.849	0.0153967
758.927	0.0153207
759.005	0.0155003
759.083	0.0156296
759.161	0.0154762
759.239	0.0155705
759.317	0.0158136
759.396	0.0155893
759.474	0.0157239
759.552	0.0157513
759.630	0.0157467
759.708	0.0157864
759.786	0.0157655
759.864	0.0157923
759.942	0.0158306
760.021	0.0157671
760.099	0.0157923
760.177	0.0157937
760.255	0.0158421
760.333	0.0158426
760.411	0.0158919
760.489	0.0157906
760.567	0.0159412
760.646	0.0160004
760.724	0.0160820
760.802	0.0160810
760.880	0.0162310
760.958	0.0161211
761.036	0.0161180
761.114	0.0163589
761.192	0.0162776
761.271	0.0162880
761.349	0.0163765
761.427	0.0163496
761.505	0.0165326
761.583	0.0163746
761.661	0.0164188
761.739	0.0164008
761.817	0.0165562
761.896	0.0164449
761.974	0.0166507
762.052	0.0166620
762.130	0.0165153
762.208	0.0166179
762.286	0.0166548
762.364	0.0167964
762.442	0.0167036
762.521	0.0167879
762.599	0.0169141
762.677	0.0166527
762.755	0.0165742
762.833	0.0165279
762.911	0.0166991
762.989	0.0166492
763.067	0.0167564
763.146	0.0165691
763.224	0.0164917
763.302	0.0165364
763.380	0.0166608
763.458	0.0166654
763.536	0.0166072
763.614	0.0165730
763.692	0.0165224
763.771	0.0166055
763.849	0.0166250
763.927	0.0165749
764.005	0.0166302
764.083	0.0165789
764.161	0.0164913
764.239	0.0165987
764.317	0.0166114
764.396	0.0165189
764.474	0.0164124
764.552	0.0164044
764.630	0.0163533
764.708	0.0164047
764.786	0.0162527
764.864	0.0162443
764.942	0.0162498
765.021	0.0161335
765.099	0.0162023
765.177	0.0159981
765.255	0.0160225
765.333	0.0159968
765.411	0.0158698
765.489	0.0158521
765.567	0.0158916
765.646	0.0158000
765.724	0.0156860
765.802	0.0155991
765.880	0.0155950
765.958	0.0157236
766.036	0.0155531
766.114	0.0156879
766.192	0.0156014
766.271	0.0154784
766.349	0.0155902
766.427	0.0155823
766.505	0.0155796
766.583	0.0155731
766.661	0.0156107
766.739	0.0155234
766.817	0.0155578
766.896	0.0155148
766.974	0.0153998
767.052	0.0154978
767.130	0.0155956
767.208	0.0154625
767.286	0.0154987
767.364	0.0155217
767.442	0.0156216
767.521	0.0156441
767.599	0.0156177
767.677	0.0155606
767.755	0.0156895
767.833	0.0155754
767.911	0.0156573
767.989	0.0156265
768.067	0.0157018
768.146	0.0156966
768.224	0.0158768
768.302	0.0158107
768.380	0.0158366
768.458	0.0159166
768.536	0.0158775
768.614	0.0161423
768.692	0.0159340
768.771	0.0160773
768.849	0.0160064
768.927	0.0160624
769.005	0.0160956
769.083	0.0160795
769.161	0.0159519
769.239	0.0160228
769.317	0.0159943
769.396	0.0160532
769.474	0.0160403
769.552	0.0160936
769.630	0.0161275
769.708	0.0161873
769.786	0.0159891
769.864	0.0160466
769.942	0.0162564
770.021	0.0161522
770.099	0.0162089
770.177	0.0162240
770.255	0.0161960
770.333	0.0164391
770.411	0.0161951
770.489	0.0162051
770.567	0.0161826
770.646	0.0164057
770.724	0.0164118
770.802	0.0164107
770.880	0.0163821
770.958	0.0165543
771.036	0.0165053
771.114	0.0165466
771.192	0.0163708
771.271	0.0166409
771.349	0.0164539
771.427	0.0166168
771.505	0.0165164
771.583	0.0165565
771.661	0.0165961
771.739	0.0165198
771.817	0.0166460
771.896	0.0165878
771.974	0.0166545
772.052	0.0165402
772.130	0.0167439
772.208	0.0167146
772.286	0.0167479
772.364	0.0167757
772.442	0.0168604
772.521	0.0168410
772.599	0.0167363
772.677	0.0167857
772.755	0.0167839
772.833	0.0167574
772.911	0.0168204
772.989	0.0168120
773.067	0.0166998
773.146	0.0165865
773.224	0.0166292
773.302	0.0165448
773.380	0.0165351
773.458	0.0166658
773.536	0.0166061
773.614	0.0165219
773.692	0.0164574
773.771	0.0165383
773.849	0.0166272
773.927	0.0165802
774.005	0.0165488
774.083	0.0166904
774.161	0.0164558
774.239	0.0164861
774.317	0.0165898
774.396	0.0165011
774.474	0.0164352
774.552	0.0164059
774.630	0.0164699
774.708	0.0165121
774.786	0.0164198
774.864	0.0164458
774.942	0.0164551
775.021	0.0163020
775.099	0.0162867
775.177	0.0163544
775.255	0.0162729
775.333	0.0162415
775.411	0.0162567
775.489	0.0162437
775.567	0.0162097
775.646	0.0162595
775.724	0.0162479
775.802	0.0162468
775.880	0.0162747
775.958	0.0161302
776.036	0.0160137
776.114	0.0161469
776.192	0.0161238
776.271	0.0162226
776.349	0.0162015
776.427	0.0162138
776.505	0.0161674
776.583	0.0161646
776.661	0.0162045
776.739	0.0162228
776.817	0.0163882
776.896	0.0162007
776.974	0.0161904
777.052	0.0162888
777.130	0.0162522
777.208	0.0161666
777.286	0.0163628
777.364	0.0162744
777.442	0.0162454
777.521	0.0163847
777.599	0.0163353
777.677	0.0163766
777.755	0.0164880
777.833	0.0163795
777.911	0.0163273
777.989	0.0166064
778.067	0.0164400
778.146	0.0164606
778.224	0.0166245
778.302	0.0165809
778.380	0.0165842
778.458	0.0167877
778.536	0.0166068
778.614	0.0165476
778.692	0.0166376
778.771	0.0166006
778.849	0.0166746
778.927	0.0165286
779.005	0.0166225
779.083	0.0166366
779.161	0.0166841
779.239	0.0168504
779.317	0.0166886
779.396	0.0166496
779.474	0.0167353
779.552	0.0166418
779.630	0.0165647
779.708	0.0165369
779.786	0.0166416
779.864	0.0166254
779.942	0.0164651
780.021	0.0165192
780.099	0.0164239
780.177	0.0164839
780.255	0.0163326
780.333	0.0163134
780.411	0.0161923
780.489	0.0163837
780.567	0.0162912
780.646	0.0162374
780.724	0.0161461
780.802	0.0161900
780.880	0.0162920
780.958	0.0161545
781.036	0.0162403
781.114	0.0162671
781.192	0.0161650
781.271	0.0159816
781.349	0.0162219
781.427	0.0160429
781.505	0.0160213
781.583	0.0162527
781.661	0.0162792
781.739	0.0162753
781.817	0.0161652
781.896	0.0162222
781.974	0.0161229
782.052	0.0162106
782.130	0.0162445
782.208	0.0162383
782.286	0.0162341
782.364	0.0162359
782.442	0.0161104
782.521	0.0160810
782.599	0.0161787
782.677	0.0161171
782.755	0.0161030
782.833	0.0161252
782.911	0.0162469
782.989	0.0160497
783.067	0.0160693
783.146	0.0159775
783.224	0.0158920
783.302	0.0160967
783.380	0.0161237
783.458	0.0161956
783.536	0.0160506
783.614	0.0160473
783.692	0.0159656
783.771	0.0159677
783.849	0.0160681
783.927	0.0160699
784.005	0.0160928
784.083	0.0161763
784.161	0.0159735
784.239	0.0160293
784.317	0.0159208
784.396	0.0159665
784.474	0.0162080
784.552	0.0160198
784.630	0.0159270
784.708	0.0159007
784.786	0.0160243
784.864	0.0158124
784.942	0.0157579
785.021	0.0157048
785.099	0.0158665
785.177	0.0157065
785.255	0.0157448
785.333	0.0157202
785.411	0.0158822
785.489	0.0159652
785.567	0.0158806
785.646	0.0159288
785.724	0.0159372
785.802	0.0159048
785.880	0.0160616
785.958	0.0160573
786.036	0.0160495
786.114	0.0160163
786.192	0.0159073
786.271	0.0160200
786.349	0.0161584
786.427	0.0160722
786.505	0.0160250
786.583	0.0159254
786.661	0.0159346
786.739	0.0160584
786.817	0.0159593
786.896	0.0159126
786.974	0.0160310
787.052	0.0158742
787.130	0.0159966
787.208	0.0159927
787.286	0.0159274
787.364	0.0159933
787.442	0.0159672
787.521	0.0160646
787.599	0.0160271
787.677	0.0159381
787.755	0.0159544
787.833	0.0161128
787.911	0.0159765
787.989	0.0160122
788.067	0.0160856
788.146	0.0161726
788.224	0.0160307
788.302	0.0161177
788.380	0.0160936
788.458	0.0162022
788.536	0.0162960
788.614	0.0163091
788.692	0.0163345
788.771	0.0162920
788.849	0.0163191
788.927	0.0163573
789.005	0.0163728
789.083	0.0161355
789.161	0.0163277
789.239	0.0164982
789.317	0.0165043
789.396	0.0163563
789.474	0.0162595
789.552	0.0164074
789.630	0.0163249
789.708	0.0163292
789.786	0.0162816
789.864	0.0163816
789.942	0.0163676
790.021	0.0162643
790.099	0.0163232
790.177	0.0162723
790.255	0.0162668
790.333	0.0162360
790.411	0.0161965
790.489	0.0161308
790.567	0.0162642
790.646	0.0161739
790.724	0.0160494
790.802	0.0160651
790.880	0.0160461
790.958	0.0161523
791.036	0.0160776
791.114	0.0161541
791.192	0.0161477
791.271	0.0160143
791.349	0.0160824
791.427	0.0161279
791.505	0.0160342
791.583	0.0159818
791.661	0.0160178
791.739	0.0160225
791.817	0.0160971
791.896	0.0160090
791.974	0.0160384
792.052	0.0160497
792.130	0.0161971
792.208	0.0161411
792.286	0.0161499
792.364	0.0162261
792.442	0.0160944
792.521	0.0161121
792.599	0.0162512
792.677	0.0161327
792.755	0.0161687
792.833	0.0161150
792.911	0.0162249
792.989	0.0161388
793.067	0.0162112
793.146	0.0163041
793.224	0.0162773
793.302	0.0163769
793.380	0.0163074
793.458	0.0163126
793.536	0.0163392
793.614	0.0163761
793.692	0.0163237
793.771	0.0164256
793.849	0.0163443
793.927	0.0162125
794.005	0.0163226
794.083	0.0162713
794.161	0.0162162
794.239	0.0163909
794.317	0.0162926
794.396	0.0161422
794.474	0.0162491
794.552	0.0162930
794.630	0.0162568
794.708	0.0162923
794.786	0.0161790
794.864	0.0163027
794.942	0.0162506
795.021	0.0163013
795.099	0.0163959
795.177	0.0162378
795.255	0.0164010
795.333	0.0163966
795.411	0.0163390
795.489	0.0164750
795.567	0.0163154
795.646	0.0163747
795.724	0.0164532
795.802	0.0164542
795.880	0.0163254
795.958	0.0165156
796.036	0.0165965
796.114	0.0164466
796.192	0.0166982
796.271	0.0165561
796.349	0.0165225
796.427	0.0165975
796.505	0.0166999
796.583	0.0167525
796.661	0.0166631
796.739	0.0166470
796.817	0.0167020
796.896	0.0165008
796.974	0.0165889
797.052	0.0167422
797.130	0.0166018
797.208	0.0165192
797.286	0.0164056
797.364	0.0166761
797.442	0.0165814
797.521	0.0164998
797.599	0.0164495
797.677	0.0164442
797.755	0.0166525
797.833	0.0166076
797.911	0.0164862
797.989	0.0164958
798.067	0.0166282
798.146	0.0165542
798.224	0.0166301
798.302	0.0167486
798.380	0.0165480
798.458	0.0167744
798.536	0.0168069
798.614	0.0166639
798.692	0.0167786
798.771	0.0166981
798.849	0.0167378
798.927	0.0166547
799.005	0.0167301
799.083	0.0167381
799.161	0.0168126
799.239	0.0165921
799.317	0.0168228
799.396	0.0168319
799.474	0.0167239
799.552	0.0167580
799.630	0.0166447
799.708	0.0167453
799.786	0.0167364
799.864	0.0167300
799.942	0.0165955
800.021	0.0167582
800.099	0.0168307
800.177	0.0166752
800.255	0.0166007
800.333	0.0166771
800.411	0.0164924
800.489	0.0165179
800.567	0.0165958
800.646	0.0164495
800.724	0.0163282
800.802	0.0165266
800.880	0.0162967
800.958	0.0163561
801.036	0.0163393
801.114	0.0163947
801.192	0.0162617
801.271	0.0162615
801.349	0.0161910
801.427	0.0162160
801.505	0.0162885
801.583	0.0162733
801.661	0.0163040
801.739	0.0163515
801.817	0.0163186
801.896	0.0161578
801.974	0.0163873
802.052	0.0163245
802.130	0.0163093
802.208	0.0163327
802.286	0.0164377
802.364	0.0164381
802.442	0.0163920
802.521	0.0163468
802.599	0.0164887
802.677	0.0165110
802.755	0.0162743
802.833	0.0164752
802.911	0.0163756
802.989	0.0164545
803.067	0.0163940
803.146	0.0164201
803.224	0.0163961
803.302	0.0163831
803.380	0.0164577
803.458	0.0163975
803.536	0.0163656
803.614	0.0164632
803.692	0.0165701
803.771	0.0164545
803.849	0.0165813
803.927	0.0164797
804.005	0.0164510
804.083	0.0165814
804.161	0.0165363
804.239	0.0163525
804.317	0.0164721
804.396	0.0163559
804.474	0.0164314
804.552	0.0164987
804.630	0.0164684
804.708	0.0163867
804.786	0.0164542
804.864	0.0164024
804.942	0.0164462
805.021	0.0164095
805.099	0.0163525
805.177	0.0163869
805.255	0.0164141
805.333	0.0163120
805.411	0.0164380
805.489	0.0163009
805.567	0.0164104
805.646	0.0164124
805.724	0.0164148
805.802	0.0165789
805.880	0.0165145
805.958	0.0165718
806.036	0.0165617
806.114	0.0164650
806.192	0.0164804
806.271	0.0164960
806.349	0.0165572
806.427	0.0165540
806.505	0.0164956
806.583	0.0162885
806.661	0.0164061
806.739	0.0165306
806.817	0.0164775
806.896	0.0164825
806.974	0.0165050
807.052	0.0164017
807.130	0.0163571
807.208	0.0163604
807.286	0.0163995
807.364	0.0164133
807.442	0.0163301
807.521	0.0164183
807.599	0.0163803
807.677	0.0163405
807.755	0.0163010
807.833	0.0162196
807.911	0.0161494
807.989	0.0161332
808.067	0.0160060
808.146	0.0159686
808.224	0.0159718
808.302	0.0158643
808.380	0.0158824
808.458	0.0157424
808.536	0.0157897
808.614	0.0157030
808.692	0.0156686
808.771	0.0156378
808.849	0.0157056
808.927	0.0156195
809.005	0.0155058
809.083	0.0154735
809.161	0.0154710
809.239	0.0155221
809.317	0.0155145
809.396	0.0153623
809.474	0.0153411
809.552	0.0155590
809.630	0.0154677
809.708	0.0153572
809.786	0.0154797
809.864	0.0154680
809.942	0.0153381
810.021	0.0155453
810.099	0.0154868
810.177	0.0154980
810.255	0.0155582
810.333	0.0156427
810.411	0.0156470
810.489	0.0155756
810.567	0.0156506
810.646	0.0157088
810.724	0.0157596
810.802	0.0157945
810.880	0.0158453
810.958	0.0157222
811.036	0.0157207
811.114	0.0159462
811.192	0.0158288
811.271	0.0158038
811.349	0.0158603
811.427	0.0158808
811.505	0.0159132
811.583	0.0158761
811.661	0.0159711
811.739	0.0159355
811.817	0.0160123
811.896	0.0160198
811.974	0.0159495
812.052	0.0160383
812.130	0.0160775
812.208	0.0161491
812.286	0.0160679
812.364	0.0161465
812.442	0.0162743
812.521	0.0161586
812.599	0.0163479
812.677	0.0163460
812.755	0.0163598
812.833	0.0164412
812.911	0.0164822
812.989	0.0165581
813.067	0.0165570
813.146	0.0167268
813.224	0.0166026
813.302	0.0166785
813.380	0.0168010
813.458	0.0167284
813.536	0.0167759
813.614	0.0169167
813.692	0.0168277
813.771	0.0169360
813.849	0.0169909
813.927	0.0169154
814.005	0.0169965
814.083	0.0170528
814.161	0.0168941
814.239	0.0168764
814.317	0.0170671
814.396	0.0169969
814.474	0.0169282
814.552	0.0170181
814.630	0.0171872
814.708	0.0169066
814.786	0.0169017
814.864	0.0170159
814.942	0.0169026
815.021	0.0167208
815.099	0.0167213
815.177	0.0168464
815.255	0.0167570
815.333	0.0168901
815.411	0.0166717
815.489	0.0166499
815.567	0.0166673
815.646	0.0165298
815.724	0.0165500
815.802	0.0166463
815.880	0.0164989
815.958	0.0164605
816.036	0.0164464
816.114	0.0162965
816.192	0.0162862
816.271	0.0163255
816.349	0.0163568
816.427	0.0162647
816.505	0.0162151
816.583	0.0162377
816.661	0.0161343
816.739	0.0161363
816.817	0.0160234
816.896	0.0159657
816.974	0.0161349
817.052	0.0159190
817.130	0.0160259
817.208	0.0158864
817.286	0.0158233
817.364	0.0159634
817.442	0.0158200
817.521	0.0159129
817.599	0.0156709
817.677	0.0156027
817.755	0.0155827
817.833	0.0156508
817.911	0.0154778
817.989	0.0154861
818.067	0.0153771
818.146	0.0153822
818.224	0.0154010
818.302	0.0153027
818.380	0.0153163
818.458	0.0151025
818.536	0.0151067
818.614	0.0152052
818.692	0.0151944
818.771	0.0152314
818.849	0.0151177
818.927	0.0151517
819.005	0.0151911
819.083	0.0151028
819.161	0.0153928
819.239	0.0153515
819.317	0.0153310
819.396	0.0152784
819.474	0.0153719
819.552	0.0154109
819.630	0.0155331
819.708	0.0156265
819.786	0.0156598
819.864	0.0158347
819.942	0.0158430
820.021	0.0158463
820.099	0.0161104
820.177	0.0161461
820.255	0.0162268
820.333	0.0162402
820.411	0.0164153
820.489	0.0163711
820.567	0.0165745
820.646	0.0165009
820.724	0.0166097
820.802	0.0167607
820.880	0.0165628
820.958	0.0167899
821.036	0.0168810
821.114	0.0168501
821.192	0.0169465
821.271	0.0169620
821.349	0.0169798
821.427	0.0170748
821.505	0.0170054
821.583	0.0171828
821.661	0.0173183
821.739	0.0172484
821.817	0.0172288
821.896	0.0173520
821.974	0.0175372
822.052	0.0175419
822.130	0.0173943
822.208	0.0173634
822.286	0.0174825
822.364	0.0174758
822.442	0.0174521
822.521	0.0174876
822.599	0.0175513
822.677	0.0173988
822.755	0.0174442
822.833	0.0174743
822.911	0.0175262
822.989	0.0174290
823.067	0.0174937
823.146	0.0173721
823.224	0.0174136
823.302	0.0172615
823.380	0.0171708
823.458	0.0172349
823.536	0.0172834
823.614	0.0172487
823.692	0.0171308
823.771	0.0170398
823.849	0.0170557
823.927	0.0170820
824.005	0.0169517
824.083	0.0169871
824.161	0.0169338
824.239	0.0167422
824.317	0.0167200
824.396	0.0166508
824.474	0.0167425
824.552	0.0166855
824.630	0.0165525
824.708	0.0164370
824.786	0.0164436
824.864	0.0164050
824.942	0.0161855
825.021	0.0162461
825.099	0.0162971
825.177	0.0162072
825.255	0.0162249
825.333	0.0161942
825.411	0.0161921
825.489	0.0162418
825.567	0.0161201
825.646	0.0161436
825.724	0.0161195
825.802	0.0161731
825.880	0.0160677
825.958	0.0160305
826.036	0.0161514
826.114	0.0162695
826.192	0.0161933
826.271	0.0160746
826.349	0.0159736
826.427	0.0161705
826.505	0.0159905
826.583	0.0162122
826.661	0.0163486
826.739	0.0161771
826.817	0.0161842
826.896	0.0161940
826.974	0.0161787
827.052	0.0162707
827.130	0.0162679
827.208	0.0162642
827.286	0.0163251
827.364	0.0162720
827.442	0.0164974
827.521	0.0164655
827.599	0.0162487
827.677	0.0161909
827.755	0.0163676
827.833	0.0162358
827.911	0.0162136
827.989	0.0161572
828.067	0.0161810
828.146	0.0160940
828.224	0.0164085
828.302	0.0162775
828.380	0.0162698
828.458	0.0161572
828.536	0.0161959
828.614	0.0161208
828.692	0.0160959
828.771	0.0160531
828.849	0.0160687
828.927	0.0160282
829.005	0.0161085
829.083	0.0161127
829.161	0.0160074
829.239	0.0161048
829.317	0.0160590
829.396	0.0162500
829.474	0.0160070
829.552	0.0160824
829.630	0.0162177
829.708	0.0161620
829.786	0.0162489
829.864	0.0160103
829.942	0.0160938
830.021	0.0161610
830.099	0.0159924
830.177	0.0161140
830.255	0.0162405
830.333	0.0160967
830.411	0.0161842
830.489	0.0162386
830.567	0.0163151
830.646	0.0163125
830.724	0.0163245
830.802	0.0162157
830.880	0.0162261
830.958	0.0163691
831.036	0.0161884
831.114	0.0162005
831.192	0.0161485
831.271	0.0162589
831.349	0.0162047
831.427	0.0160886
831.505	0.0160654
831.583	0.0160332
831.661	0.0159199
831.739	0.0157171
831.817	0.0158120
831.896	0.0157923
831.974	0.0158482
832.052	0.0159370
832.130	0.0156699
832.208	0.0157475
832.286	0.0157581
832.364	0.0157538
832.442	0.0158858
832.521	0.0158855
832.599	0.0157572
832.677	0.0157076
832.755	0.0157606
832.833	0.0158098
832.911	0.0158621
832.989	0.0158114
833.067	0.0158125
833.146	0.0159274
833.224	0.0160651
833.302	0.0160957
833.380	0.0159967
833.458	0.0159914
833.536	0.0160500
833.614	0.0159576
833.692	0.0159224
833.771	0.0160500
833.849	0.0163171
833.927	0.0161123
834.005	0.0160850
834.083	0.0161087
834.161	0.0162762
834.239	0.0162330
834.317	0.0160535
834.396	0.0161100
834.474	0.0161002
834.552	0.0159869
834.630	0.0162090
834.708	0.0163615
834.786	0.0163589
834.864	0.0163702
834.942	0.0164834
835.021	0.0164484
835.099	0.0163173
835.177	0.0164301
835.255	0.0163560
835.333	0.0163782
835.411	0.0164206
835.489	0.0163056
835.567	0.0164258
835.646	0.0164780
835.724	0.0164131
835.802	0.0164365
835.880	0.0162549
835.958	0.0163513
836.036	0.0162886
836.114	0.0160957
836.192	0.0161147
836.271	0.0161971
836.349	0.0162072
836.427	0.0162878
836.505	0.0160825
836.583	0.0161992
836.661	0.0160233
836.739	0.0161327
836.817	0.0161637
836.896	0.0161239
836.974	0.0161234
837.052	0.0162754
837.130	0.0161104
837.208	0.0160754
837.286	0.0161992
837.364	0.0163574
837.442	0.0162814
837.521	0.0162148
837.599	0.0161732
837.677	0.0161417
837.755	0.0162206
837.833	0.0162111
837.911	0.0162904
837.989	0.0163761
838.067	0.0162012
838.146	0.0163158
838.224	0.0162558
838.302	0.0163871
838.380	0.0162969
838.458	0.0164179
838.536	0.0164883
838.614	0.0165298
838.692	0.0164581
838.771	0.0165062
838.849	0.0165453
838.927	0.0165361
839.005	0.0163789
839.083	0.0165081
839.161	0.0166653
839.239	0.0165327
839.317	0.0166328
839.396	0.0165585
839.474	0.0165038
839.552	0.0166690
839.630	0.0165603
839.708	0.0165742
839.786	0.0164402
839.864	0.0165114
839.942	0.0165144
840.021	0.0164733
840.099	0.0163424
840.177	0.0161938
840.255	0.0162773
840.333	0.0161972
840.411	0.0161742
840.489	0.0161008
840.567	0.0160664
840.646	0.0160289
840.724	0.0159518
840.802	0.0157726
840.880	0.0159090
840.958	0.0158320
841.036	0.0158381
841.114	0.0157475
841.192	0.0158461
841.271	0.0159414
841.349	0.0159468
841.427	0.0158926
841.505	0.0158749
841.583	0.0160854
841.661	0.0160926
841.739	0.0159621
841.817	0.0161474
841.896	0.0159128
841.974	0.0161073
842.052	0.0161120
842.130	0.0161724
842.208	0.0161138
842.286	0.0159175
842.364	0.0160542
842.442	0.0160869
842.521	0.0158595
842.599	0.0160270
842.677	0.0158739
842.755	0.0158371
842.833	0.0159005
842.911	0.0159467
842.989	0.0159042
843.067	0.0159064
843.146	0.0159116
843.224	0.0159647
843.302	0.0159350
843.380	0.0161716
843.458	0.0159700
843.536	0.0159970
843.614	0.0160540
843.692	0.0159288
843.771	0.0160553
843.849	0.0160889
843.927	0.0162050
844.005	0.0161300
844.083	0.0161339
844.161	0.0161611
844.239	0.0162010
844.317	0.0162810
844.396	0.0161353
844.474	0.0161695
844.552	0.0161201
844.630	0.0158755
844.708	0.0161633
844.786	0.0163155
844.864	0.0161335
844.942	0.0161705
845.021	0.0162455
845.099	0.0162067
845.177	0.0162044
845.255	0.0162456
845.333	0.0163984
845.411	0.0163103
845.489	0.0163265
845.567	0.0164159
845.646	0.0164251
845.724	0.0165309
845.802	0.0164330
845.880	0.0165410
845.958	0.0165702
846.036	0.0165688
846.114	0.0166364
846.192	0.0167012
846.271	0.0167712
846.349	0.0167895
846.427	0.0168669
846.505	0.0167112
846.583	0.0167199
846.661	0.0166584
846.739	0.0166910
846.817	0.0167448
846.896	0.0167824
846.974	0.0166895
847.052	0.0167122
847.130	0.0167228
847.208	0.0167196
847.286	0.0167056
847.364	0.0166850
847.442	0.0168269
847.521	0.0168429
847.599	0.0166241
847.677	0.0166914
847.755	0.0166701
847.833	0.0167757
847.911	0.0166333
847.989	0.0166261
848.067	0.0166297
848.146	0.0166455
848.224	0.0166253
848.302	0.0166355
848.380	0.0165012
848.458	0.0165279
848.536	0.0165879
848.614	0.0166195
848.692	0.0165374
848.771	0.0163353
848.849	0.0164442
848.927	0.0165071
849.005	0.0163881
849.083	0.0163298
849.161	0.0164231
849.239	0.0164631
849.317	0.0163825
849.396	0.0164004
849.474	0.0163312
849.552	0.0162656
849.630	0.0164146
849.708	0.0164008
849.786	0.0162555
849.864	0.0163707
849.942	0.0163432
850.021	0.0163573
850.099	0.0162195
850.177	0.0161899
850.255	0.0162616
850.333	0.0162839
850.411	0.0162591
850.489	0.0161736
850.567	0.0161227
850.646	0.0161676
850.724	0.0162360
850.802	0.0160347
850.880	0.0160886
850.958	0.0162154
851.036	0.0161873
851.114	0.0159513
851.192	0.0160806
851.271	0.0162746
851.349	0.0161256
851.427	0.0161395
851.505	0.0162945
851.583	0.0162162
851.661	0.0161960
851.739	0.0161932
851.817	0.0161675
851.896	0.0161517
851.974	0.0162756
852.052	0.0160350
852.130	0.0160758
852.208	0.0160767
852.286	0.0160228
852.364	0.0159565
852.442	0.0160575
852.521	0.0160460
852.599	0.0159619
852.677	0.0160017
852.755	0.0159280
852.833	0.0159034
852.911	0.0160435
852.989	0.0159845
853.067	0.0160394
853.146	0.0159660
853.224	0.0159384
853.302	0.0159579
853.380	0.0158818
853.458	0.0159602
853.536	0.0160659
853.614	0.0160258
853.692	0.0159521
853.771	0.0159078
853.849	0.0159954
853.927	0.0159236
854.005	0.0160088
854.083	0.0161061
854.161	0.0161217
854.239	0.0161954
854.317	0.0161436
854.396	0.0162006
854.474	0.0163024
854.552	0.0165287
854.630	0.0165261
854.708	0.0165686
854.786	0.0166198
854.864	0.0165440
854.942	0.0166604
855.021	0.0166690
855.099	0.0168336
855.177	0.0166620
855.255	0.0167587
855.333	0.0168625
855.411	0.0167428
855.489	0.0168416
855.567	0.0167799
855.646	0.0167335
855.724	0.0168398
855.802	0.0166112
855.880	0.0166288
855.958	0.0165523
856.036	0.0164655
856.114	0.0164429
856.192	0.0162822
856.271	0.0163188
856.349	0.0162280
856.427	0.0161199
856.505	0.0160992
856.583	0.0161104
856.661	0.0158987
856.739	0.0160162
856.817	0.0158421
856.896	0.0159850
856.974	0.0157880
857.052	0.0158364
857.130	0.0158443
857.208	0.0158553
857.286	0.0157715
857.364	0.0157648
857.442	0.0157814
857.521	0.0159892
857.599	0.0157813
857.677	0.0157613
857.755	0.0157559
857.833	0.0159017
857.911	0.0158418
857.989	0.0158500
858.067	0.0159541
858.146	0.0158029
858.224	0.0159179
858.302	0.0159006
858.380	0.0159293
858.458	0.0160700
858.536	0.0159608
858.614	0.0159535
858.692	0.0160385
858.771	0.0159235
858.849	0.0159344
858.927	0.0160108
859.005	0.0160503
859.083	0.0160732
859.161	0.0159176
859.239	0.0160626
859.317	0.0160421
859.396	0.0159787
859.474	0.0161255
859.552	0.0162489
859.630	0.0161729
859.708	0.0160927
859.786	0.0163165
859.864	0.0162825
859.942	0.0163491
860.021	0.0163348
860.099	0.0163941
860.177	0.0161951
860.255	0.0162480
860.333	0.0163559
860.411	0.0163734
860.489	0.0163304
860.567	0.0164325
860.646	0.0163418
860.724	0.0164124
860.802	0.0163528
860.880	0.0162632
860.958	0.0162808
861.036	0.0162087
861.114	0.0162058
861.192	0.0162170
861.271	0.0162428
861.349	0.0162693
861.427	0.0163028
861.505	0.0161248
861.583	0.0162189
861.661	0.0161813
861.739	0.0162756
861.817	0.0161994
861.896	0.0164082
861.974	0.0162836
862.052	0.0163416
862.130	0.0163137
862.208	0.0162645
862.286	0.0163351
862.364	0.0164035
862.442	0.0162461
862.521	0.0162993
862.599	0.0164281
862.677	0.0162981
862.755	0.0162827
862.833	0.0165436
862.911	0.0163789
862.989	0.0164484
863.067	0.0164778
863.146	0.0164845
863.224	0.0162682
863.302	0.0164417
863.380	0.0164613
863.458	0.0164765
863.536	0.0165422
863.614	0.0165553
863.692	0.0166687
863.771	0.0166137
863.849	0.0164692
863.927	0.0167049
864.005	0.0165546
864.083	0.0165939
864.161	0.0165328
864.239	0.0167326
864.317	0.0166623
864.396	0.0166440
864.474	0.0166540
864.552	0.0164719
864.630	0.0164571
864.708	0.0165420
864.786	0.0164537
864.864	0.0163251
864.942	0.0163279
865.021	0.0163214
865.099	0.0163241
865.177	0.0161642
865.255	0.0160928
865.333	0.0162919
865.411	0.0161979
865.489	0.0160299
865.567	0.0160189
865.646	0.0159938
865.724	0.0158128
865.802	0.0157735
865.880	0.0158598
865.958	0.0156590
866.036	0.0156250
866.114	0.0157416
866.192	0.0156795
866.271	0.0156108
866.349	0.0156029
866.427	0.0157130
866.505	0.0156219
866.583	0.0155976
866.661	0.0155817
866.739	0.0157600
866.817	0.0156244
866.896	0.0155841
866.974	0.0156388
867.052	0.0156416
867.130	0.0157864
867.208	0.0158710
867.286	0.0158076
867.364	0.0157210
867.442	0.0156740
867.521	0.0157511
867.599	0.0157787
867.677	0.0158221
867.755	0.0158887
867.833	0.0158060
867.911	0.0157737
867.989	0.0159735
868.067	0.0159482
868.146	0.0160640
868.224	0.0161874
868.302	0.0160318
868.380	0.0161395
868.458	0.0161235
868.536	0.0162038
868.614	0.0162930
868.692	0.0162286
868.771	0.0162521
868.849	0.0163735
868.927	0.0162589
869.005	0.0164135
869.083	0.0164307
869.161	0.0164050
869.239	0.0164150
869.317	0.0165308
869.396	0.0166058
869.474	0.0164735
869.552	0.0164833
869.630	0.0165721
869.708	0.0166137
869.786	0.0165884
869.864	0.0165536
869.942	0.0166856
